SpectraSuite Data File
++++++++++++++++++++++++++++++++++++
Date: Fri Oct 25 11:25:40 EDT 2013
User: price-jones
Dark Spectrum Present: No
Reference Spectrum Present: No
Number of Sampled Component Spectra: 1
Spectrometers: USB2+H05261
Integration Time (usec): 100000 (USB2+H05261)
Spectra Averaged: 1 (USB2+H05261)
Boxcar Smoothing: 0 (USB2+H05261)
Correct for Electrical Dark: No (USB2+H05261)
Strobe/Lamp Enabled: No (USB2+H05261)
Correct for Detector Non-linearity: No (USB2+H05261)
Correct for Stray Light: No (USB2+H05261)
Number of Pixels in Processed Spectrum: 2048
>>>>>Begin Processed Spectral Data<<<<<
365.73	271.50
365.92	271.50
366.12	271.50
366.32	175.54
366.52	168.52
366.72	152.13
366.91	138.09
367.11	187.24
367.31	140.43
367.51	119.37
367.70	145.11
367.90	217.67
368.10	133.41
368.30	107.66
368.49	180.22
368.69	149.79
368.89	156.82
369.09	110.01
369.28	166.18
369.48	203.63
369.68	107.66
369.87	198.95
370.07	170.86
370.27	222.35
370.47	271.50
370.66	512.58
370.86	578.11
371.06	615.56
371.25	582.79
371.45	692.80
371.65	730.25
371.84	622.58
372.04	774.72
372.24	746.63
372.44	739.61
372.63	755.99
372.83	730.25
373.03	741.95
373.22	791.10
373.42	784.08
373.62	809.83
373.81	823.87
374.01	802.80
374.21	805.14
374.40	854.30
374.60	812.17
374.79	866.00
374.99	840.25
375.19	873.02
375.38	901.11
375.58	821.53
375.78	837.91
375.97	917.49
376.17	917.49
376.37	880.04
376.56	929.19
376.76	861.32
376.95	805.14
377.15	882.38
377.35	854.30
377.54	931.53
377.74	917.49
377.93	922.17
378.13	889.40
378.33	933.87
378.52	896.43
378.72	947.92
378.91	924.51
379.11	851.96
379.31	866.00
379.50	1001.75
379.70	1053.24
379.89	1048.56
380.09	973.66
380.28	924.51
380.48	947.92
380.68	950.26
380.87	961.96
381.07	922.17
381.26	1039.20
381.46	1034.52
381.65	1034.52
381.85	1062.60
382.04	1074.31
382.24	1064.94
382.43	1041.54
382.63	1088.35
382.83	1071.97
383.02	1109.41
383.22	1149.20
383.41	1034.52
383.61	1025.15
383.80	1055.58
384.00	1123.46
384.19	1163.25
384.39	1078.99
384.58	1109.41
384.78	1034.52
384.97	1226.44
385.17	1146.86
385.36	1167.93
385.56	1198.35
385.75	1174.95
385.95	1151.54
386.14	1226.44
386.34	1224.10
386.53	1170.27
386.72	1226.44
386.92	1256.87
387.11	1249.85
387.31	1254.53
387.50	1205.38
387.70	1240.48
387.89	1256.87
388.09	1369.21
388.28	1301.34
388.48	1308.36
388.67	1282.61
388.86	1331.76
389.06	1238.14
389.25	1247.51
389.45	1362.19
389.64	1306.02
389.84	1315.38
390.03	1345.81
390.22	1411.34
390.42	1420.71
390.61	1378.58
390.81	1390.28
391.00	1373.89
391.19	1390.28
391.39	1394.96
391.58	1434.75
391.78	1451.13
391.97	1451.13
392.16	1462.83
392.36	1481.56
392.55	1444.11
392.75	1479.22
392.94	1542.41
393.13	1544.75
393.33	1455.81
393.52	1469.86
393.71	1654.76
393.91	1535.39
394.10	1589.22
394.29	1589.22
394.49	1493.26
394.68	1586.88
394.88	1626.67
395.07	1619.65
395.26	1507.30
395.46	1706.25
395.65	1804.55
395.84	1722.63
396.04	1788.17
396.23	1732.00
396.42	1732.00
396.62	1724.97
396.81	1762.42
397.00	1776.47
397.19	1720.29
397.39	1722.63
397.58	1762.42
397.77	1809.23
397.97	1874.77
398.16	1856.04
398.35	1928.60
398.55	1762.42
398.74	1820.94
398.93	1956.69
399.12	1905.20
399.32	1921.58
399.51	1877.11
399.70	2052.65
399.90	1947.33
400.09	1961.37
400.28	2076.06
400.47	1982.43
400.67	2162.66
400.86	2054.99
401.05	2057.33
401.24	2129.89
401.44	2183.72
401.63	2092.44
401.82	2059.67
402.01	2017.54
402.21	2204.78
402.40	2047.97
402.59	2148.61
402.78	2115.84
402.97	2221.17
403.17	2169.68
403.36	2317.13
403.55	2230.53
403.74	2436.50
403.93	2267.98
404.13	2366.28
404.32	2420.11
404.51	2260.96
404.70	2277.34
404.89	2284.36
405.09	2450.54
405.28	2480.97
405.47	2394.37
405.66	2455.22
405.85	2518.42
406.05	2567.57
406.24	2579.27
406.43	2452.88
406.62	2633.10
406.81	2630.76
407.00	2614.38
407.20	2635.44
407.39	2607.36
407.58	2726.72
407.77	2733.75
407.96	2813.32
408.15	2658.85
408.34	2523.10
408.54	2792.26
408.73	2726.72
408.92	2693.96
409.11	2787.58
409.30	2860.13
409.49	2906.95
409.68	2883.54
409.87	2860.13
410.07	2885.88
410.26	2885.88
410.45	2995.89
410.64	3042.70
410.83	3101.21
411.02	3187.81
411.21	3190.15
411.40	3030.99
411.59	3183.13
411.78	3185.47
411.98	3276.75
412.17	3112.91
412.36	3225.26
412.55	3316.54
412.74	3384.41
412.93	3353.99
413.12	3339.94
413.31	3503.78
413.50	3428.88
413.69	3335.26
413.88	3712.09
414.07	3630.17
414.26	3581.02
414.45	3627.83
414.64	3651.24
414.83	3735.50
415.02	3852.52
415.22	3779.97
415.41	3904.01
415.60	3822.09
415.79	3918.06
415.98	3925.08
416.17	4056.15
416.36	3857.20
416.55	3962.53
416.74	4023.38
416.93	3967.21
417.12	4063.17
417.31	4030.40
417.50	4109.98
417.69	4278.50
417.88	4297.22
418.07	4124.02
418.26	4173.18
418.45	4306.59
418.64	4528.94
418.83	4395.53
419.02	4475.10
419.21	4578.09
419.39	4514.89
419.58	4355.74
419.77	4395.53
419.96	4517.23
420.15	4585.11
420.34	4568.73
420.53	4674.05
420.72	4594.47
420.91	4676.39
421.10	4767.67
421.29	4821.50
421.48	4664.69
421.67	4786.40
421.86	4718.52
422.05	4788.74
422.24	4681.07
422.43	4779.37
422.61	4994.70
422.80	4959.60
422.99	4940.87
423.18	4978.32
423.37	4896.40
423.56	4957.25
423.75	4894.06
423.94	4887.04
424.13	4650.64
424.32	4681.07
424.50	5008.75
424.69	4987.68
424.88	5074.28
425.07	4912.78
425.26	4943.21
425.45	4865.97
425.64	4971.30
425.83	4943.21
426.01	5011.09
426.20	5104.71
426.39	5029.81
426.58	4968.96
426.77	5151.52
426.96	5146.84
427.15	4954.91
427.33	5107.05
427.52	5076.62
427.71	5308.34
427.90	5233.44
428.09	5247.48
428.28	5284.93
428.46	5504.94
428.65	5238.12
428.84	5504.94
429.03	5394.93
429.22	5535.37
429.40	5497.92
429.59	5528.35
429.78	5305.99
429.97	5373.87
430.16	5490.90
430.34	5516.64
430.53	5607.92
430.72	5425.36
430.91	5636.01
431.10	5481.53
431.28	5643.03
431.47	5533.03
431.66	5783.46
431.85	5844.32
432.03	5720.27
432.22	5968.37
432.41	5858.36
432.60	5830.27
432.79	5874.74
432.97	6005.81
433.16	5970.71
433.35	5907.51
433.54	6087.73
433.72	6101.78
433.91	6038.58
434.10	6019.86
434.28	5984.75
434.47	6073.69
434.66	6157.95
434.85	6221.14
435.03	6305.40
435.22	6349.87
435.41	6392.00
435.59	6202.42
435.78	6366.26
435.97	6513.71
436.16	6366.26
436.34	6289.02
436.53	6305.40
436.72	6703.29
436.90	6471.58
437.09	6604.99
437.28	6326.47
437.46	6583.93
437.65	6621.38
437.84	6808.62
438.02	6644.78
438.21	6731.38
438.40	6581.59
438.58	6930.33
438.77	7052.03
438.96	6796.92
439.14	7070.76
439.33	7054.37
439.52	7021.61
439.70	7243.96
439.89	7321.20
440.08	7302.47
440.26	7382.05
440.45	7419.50
440.63	7377.37
440.82	7716.75
441.01	7468.65
441.19	7672.28
441.38	7573.97
441.57	7698.02
441.75	7487.37
441.94	7997.61
442.12	7971.86
442.31	7978.89
442.50	7985.91
442.68	7796.32
442.87	7840.79
443.05	8079.53
443.24	8114.64
443.43	8201.24
443.61	8313.58
443.80	8468.06
443.98	8046.76
444.17	7925.05
444.35	8135.70
444.54	8269.11
444.73	8112.30
444.91	8028.04
445.10	8318.26
445.28	8439.97
445.47	8194.22
445.65	8294.86
445.84	8514.87
446.02	8189.53
446.21	8379.12
446.39	8294.86
446.58	8580.40
446.77	8439.97
446.95	8365.07
447.14	8514.87
447.32	8526.57
447.51	8549.98
447.69	8381.46
447.88	8304.22
448.06	8575.72
448.25	8344.01
448.43	8421.25
448.62	8444.65
448.80	8531.25
448.99	8510.19
449.17	8514.87
449.36	8552.32
449.54	8826.16
449.73	8954.89
449.91	8816.80
450.10	8889.35
450.28	8943.19
450.46	8851.91
450.65	8826.16
450.83	8943.19
451.02	9001.70
451.20	9085.96
451.39	8945.53
451.57	9207.67
451.76	9069.58
451.94	9036.81
452.13	9240.44
452.31	9172.56
452.49	9104.68
452.68	9348.10
452.86	9177.24
453.05	9479.17
453.23	9364.48
453.42	9202.99
453.60	9282.56
453.78	9366.82
453.97	9195.96
454.15	9394.91
454.34	9511.94
454.52	9708.54
454.70	9853.66
454.89	9643.01
455.07	9848.97
455.26	9640.67
455.44	9848.97
455.62	9846.63
455.81	9713.22
455.99	9919.19
456.17	10141.54
456.36	10132.18
456.54	10010.47
456.73	10141.54
456.91	10504.32
457.09	10457.51
457.28	10459.85
457.46	10167.29
457.64	10345.17
457.83	10501.98
458.01	10279.63
458.19	10609.65
458.38	10506.66
458.56	10478.58
458.74	10635.39
458.93	10724.33
459.11	10452.83
459.29	10504.32
459.48	10729.02
459.66	10752.42
459.84	10651.78
460.03	10876.47
460.21	10855.40
460.39	10981.79
460.57	11044.99
460.76	11159.67
460.94	11192.44
461.12	11023.92
461.31	11164.36
461.49	11098.82
461.67	11342.24
461.85	11398.41
462.04	11150.31
462.22	11812.68
462.40	11360.96
462.59	11304.79
462.77	11332.87
462.95	11541.18
463.13	11473.31
463.32	11522.46
463.50	11824.39
463.68	11735.45
463.86	11854.81
464.05	11606.72
464.23	11644.17
464.41	11943.75
464.59	11538.84
464.78	12128.66
464.96	11892.26
465.14	11880.56
465.32	12166.10
465.50	11847.79
465.69	11939.07
465.87	12098.23
466.05	11957.80
466.23	11967.16
466.41	12198.87
466.60	12423.56
466.78	12091.21
466.96	12037.38
467.14	12152.06
467.32	12318.24
467.51	12613.15
467.69	12264.41
467.87	12299.52
468.05	12358.03
468.23	12308.88
468.41	12524.21
468.60	12601.44
468.78	12435.27
468.96	12648.26
469.14	12791.03
469.32	12989.97
469.50	12629.53
469.69	12877.63
469.87	13118.70
470.05	13001.68
470.23	13034.44
470.41	13357.44
470.59	13261.48
470.77	13013.38
470.95	13076.57
471.14	13399.57
471.32	13015.72
471.50	13554.04
471.68	13631.28
471.86	13549.36
472.04	13668.73
472.22	13813.84
472.40	13699.16
472.58	13706.18
472.77	13893.42
472.95	14001.08
473.13	14328.76
473.31	13905.12
473.49	14230.46
473.67	13977.68
473.85	14143.86
474.03	14403.66
474.21	14422.38
474.39	14567.49
474.57	14483.24
474.75	14721.97
474.93	14883.47
475.12	14651.75
475.30	15030.92
475.48	14995.81
475.66	15199.44
475.84	14984.11
476.02	15269.66
476.20	15133.90
476.38	15557.54
476.56	15740.10
476.74	15939.05
476.92	15812.66
477.10	15866.49
477.28	16105.23
477.46	15941.39
477.64	16182.46
477.82	16524.18
478.00	16952.50
478.18	16695.04
478.36	16865.90
478.54	16973.56
478.72	17097.61
478.90	17006.33
479.08	17226.34
479.26	17460.40
479.44	17476.78
479.62	17767.01
479.80	18043.19
479.98	18150.85
480.16	18181.28
480.34	18207.03
480.52	18445.76
480.70	18520.66
480.88	18211.71
481.06	18836.63
481.24	18876.42
481.41	19042.60
481.59	19309.42
481.77	19232.18
481.95	19290.70
482.13	19583.26
482.31	19697.95
482.49	20273.72
482.67	20297.13
482.85	20416.49
483.03	20423.51
483.21	20554.58
483.39	20739.49
483.57	20746.51
483.74	21041.42
483.92	21418.24
484.10	20966.52
484.28	21448.67
484.46	21757.62
484.64	21853.58
484.82	21928.48
485.00	22274.88
485.18	22771.07
485.35	22712.56
485.53	22434.03
485.71	23138.54
485.89	23225.14
486.07	22920.87
486.25	23260.24
486.43	23623.03
486.61	23655.79
486.78	23693.24
486.96	24088.79
487.14	24264.33
487.32	24315.83
487.50	24854.15
487.68	24741.80
487.85	24709.04
488.03	25151.40
488.21	25254.38
488.39	25689.72
488.57	25795.04
488.75	25907.39
488.92	26026.76
489.10	26522.95
489.28	26501.89
489.46	26948.93
489.64	26859.99
489.81	27555.13
489.99	27211.07
490.17	27749.39
490.35	27941.32
490.53	28025.57
490.70	28093.45
490.88	27807.90
491.06	28563.90
491.24	28657.52
491.41	28872.85
491.59	28900.94
491.77	28961.79
491.95	29825.45
492.13	29436.92
492.30	29722.46
492.48	30164.82
492.66	29956.52
492.84	29823.11
493.01	30370.79
493.19	30483.14
493.37	30827.20
493.54	31187.64
493.72	31468.50
493.90	31068.27
494.08	31630.00
494.25	31655.75
494.43	31545.74
494.61	32009.17
494.79	32393.01
494.96	31875.76
495.14	32336.84
495.32	32898.57
495.49	32811.97
495.67	33034.32
495.85	33214.54
496.02	33745.84
496.20	33811.38
496.38	33958.83
496.55	34178.84
496.73	34796.74
496.91	34555.67
497.09	34298.21
497.26	34855.26
497.44	34679.72
497.62	34962.92
497.79	35512.95
497.97	35456.78
498.14	35503.59
498.32	35866.37
498.50	36205.75
498.67	36421.08
498.85	36371.92
499.03	36072.34
499.20	36669.17
499.38	36259.58
499.56	36692.58
499.73	37172.39
499.91	37179.41
500.08	37427.51
500.26	36978.12
500.44	37228.56
500.61	38085.20
500.79	37677.94
500.97	37900.29
501.14	38686.71
501.32	37937.74
501.49	38188.18
501.67	38939.49
501.84	38749.91
502.02	38646.93
502.20	38780.34
502.37	38902.04
502.55	38965.24
502.72	38808.42
502.90	39210.99
503.07	39281.21
503.25	39566.76
503.43	39391.22
503.60	39959.97
503.78	40179.98
503.95	40297.00
504.13	40252.53
504.30	40575.53
504.48	40364.88
504.65	40268.92
504.83	40718.30
505.01	40893.84
505.18	40921.93
505.36	41448.55
505.53	40999.16
505.71	41418.12
505.88	41214.49
506.06	41029.59
506.23	41708.35
506.41	41343.22
506.58	41914.31
506.76	41855.80
506.93	42412.85
507.11	41848.78
507.28	42658.60
507.46	42433.91
507.63	42529.87
507.81	42710.10
507.98	42693.71
508.16	42546.26
508.33	43323.32
508.50	43407.58
508.68	43208.63
508.85	43709.50
509.03	43360.76
509.20	43831.21
509.38	44011.43
509.55	43981.01
509.73	44147.18
509.90	44254.85
510.08	44266.55
510.25	44409.32
510.42	44802.53
510.60	44835.30
510.77	44818.92
510.95	45151.27
511.12	44767.43
511.30	44729.98
511.47	45656.83
511.64	45083.40
511.82	45539.80
511.99	44989.78
512.17	46087.49
512.34	45588.95
512.51	46061.74
512.69	46087.49
512.86	45951.74
513.04	46438.57
513.21	46396.44
513.38	46539.21
513.56	46574.32
513.73	46815.40
513.90	46887.95
514.08	46382.40
514.25	46923.06
514.43	47016.68
514.60	47239.03
514.77	47159.45
514.95	47569.05
515.12	47285.84
515.29	47496.49
515.47	47679.05
515.64	47421.59
515.81	47484.79
515.99	47828.85
516.16	48158.86
516.33	48121.41
516.51	48371.85
516.68	48210.35
516.85	48545.05
517.03	48481.86
517.20	48198.65
517.37	49031.88
517.54	48788.47
517.72	48837.62
517.89	48807.19
518.06	48921.88
518.24	49282.32
518.41	49088.06
518.58	48886.77
518.75	49104.44
518.93	49516.37
519.10	49099.76
519.27	49780.85
519.45	49221.47
519.62	49621.70
519.79	49944.69
519.96	49612.34
520.14	50171.72
520.31	50237.26
520.48	50293.43
520.65	50333.22
520.83	50375.35
521.00	50429.18
521.17	50522.80
521.34	50061.72
521.52	50614.08
521.69	50597.70
521.86	50930.06
522.03	50848.14
522.20	51133.68
522.38	51145.39
522.55	51330.29
522.72	51121.98
522.89	50824.73
523.07	51613.49
523.24	51302.20
523.41	51482.42
523.58	51070.49
523.75	51360.72
523.92	51428.59
524.10	52020.75
524.27	51594.77
524.44	51849.89
524.61	52051.17
524.78	51966.91
524.96	51941.17
525.13	52076.92
525.30	52069.90
525.47	52343.74
525.64	52416.30
525.81	52381.19
525.98	52357.78
526.16	52437.36
526.33	52299.27
526.50	52587.16
526.67	52580.13
526.84	52839.93
527.01	52516.94
527.18	52706.52
527.36	52739.29
527.53	52851.64
527.70	53308.04
527.87	53317.40
528.04	53226.12
528.21	53326.77
528.38	53350.17
528.55	53371.24
528.72	53013.13
528.89	53130.16
529.07	53434.43
529.24	53282.30
529.41	53570.18
529.58	53258.89
529.75	53277.61
529.92	53542.10
530.09	53532.73
530.26	53642.74
530.43	53848.71
530.60	53464.86
530.77	53502.31
530.94	53844.02
531.11	53633.38
531.28	53750.40
531.46	54167.02
531.63	53993.82
531.80	54052.33
531.97	54122.55
532.14	54365.96
532.31	54085.10
532.48	54440.86
532.65	54593.00
532.82	54337.88
532.99	54555.55
533.16	54286.39
533.33	54981.52
533.50	54763.85
533.67	54471.29
533.84	54358.94
534.01	54646.83
534.18	54656.19
534.35	54834.07
534.52	54677.25
534.69	54951.10
534.86	55114.94
535.03	54794.28
535.20	55033.02
535.37	55283.45
535.54	55482.40
535.71	54948.76
535.88	55262.39
536.05	55320.90
536.22	55451.97
536.38	55398.14
536.55	55327.92
536.72	55501.12
536.89	55515.17
537.06	55561.98
537.23	55667.30
537.40	55323.24
537.57	55470.70
537.74	55533.89
537.91	55910.72
538.08	55554.96
538.25	55564.32
538.42	55679.00
538.59	55966.89
538.75	55721.13
538.92	55749.22
539.09	56109.66
539.26	55908.38
539.43	55824.12
539.60	56058.17
539.77	56238.39
539.94	56481.81
540.11	56229.03
540.28	56470.11
540.44	56184.56
540.61	56289.88
540.78	56114.34
540.95	56296.91
541.12	56264.14
541.29	56076.90
541.46	56371.80
541.62	56484.15
541.79	56502.87
541.96	56266.48
542.13	56479.47
542.30	56832.89
542.47	56694.80
542.63	56772.03
542.80	56706.50
542.97	56879.70
543.14	57230.78
543.31	57052.90
543.48	56963.96
543.64	57099.71
543.81	57329.08
543.98	57392.28
544.15	57125.46
544.32	57233.12
544.48	57420.36
544.65	57160.56
544.82	57293.97
544.99	57057.58
545.16	57298.65
545.32	57284.61
545.49	57471.85
545.66	57497.60
545.83	57504.62
546.00	57528.03
546.16	57579.52
546.33	57539.73
546.50	57228.44
546.67	57605.26
546.83	57247.16
547.00	57752.72
547.17	57488.24
547.34	57549.09
547.50	57827.62
547.67	57825.28
547.84	57729.31
548.00	58103.80
548.17	57944.64
548.34	57904.85
548.51	57902.51
548.67	58108.48
548.84	57989.11
549.01	57886.13
549.18	57963.37
549.34	58014.86
549.51	58150.61
549.68	58251.25
549.84	58164.65
550.01	58145.93
550.18	58230.19
550.34	58288.70
550.51	58429.13
550.68	58211.46
550.84	57982.09
551.01	58410.41
551.18	58398.71
551.34	58466.58
551.51	58473.60
551.68	58295.72
551.84	58534.46
552.01	58412.75
552.18	58454.88
552.34	58223.17
552.51	58433.81
552.68	58375.30
552.84	58398.71
553.01	58721.70
553.18	58674.89
553.34	58702.98
553.51	58632.76
553.67	58866.81
553.84	58756.81
554.01	58885.54
554.17	59035.33
554.34	58955.75
554.51	58681.91
554.67	58937.03
554.84	58747.45
555.00	58976.82
555.17	58679.57
555.33	58988.52
555.50	58831.71
555.67	58979.16
555.83	58852.77
556.00	58794.26
556.16	59154.70
556.33	59110.23
556.50	58974.48
556.66	59152.36
556.83	59000.22
556.99	59157.04
557.16	59231.94
557.32	59442.59
557.49	59370.03
557.65	59213.21
557.82	59114.91
557.98	59238.96
558.15	59341.94
558.32	59377.05
558.48	59297.47
558.65	59377.05
558.81	59330.24
558.98	59433.22
559.14	59393.43
559.31	59447.27
559.47	59384.07
559.64	59501.10
559.80	59430.88
559.97	59730.47
560.13	59522.16
560.30	59702.38
560.46	59781.96
560.63	59730.47
560.79	59704.73
560.96	59653.23
561.12	59444.93
561.29	59908.35
561.45	59840.48
561.61	59625.15
561.78	59594.72
561.94	59454.29
562.11	59480.03
562.27	59838.14
562.44	59774.94
562.60	59873.24
562.77	59796.01
562.93	59697.70
563.10	59856.86
563.26	59849.84
563.42	60137.72
563.59	59805.37
563.75	59662.60
563.92	59894.31
564.08	60016.02
564.24	60055.81
564.41	59985.59
564.57	60046.44
564.74	59980.91
564.90	60097.94
565.07	60041.76
565.23	59959.84
565.39	59987.93
565.56	60186.88
565.72	59969.21
565.88	59999.63
566.05	59861.54
566.21	60013.68
566.38	59898.99
566.54	59980.91
566.70	60074.53
566.87	60072.19
567.03	60079.21
567.19	60275.82
567.36	60130.70
567.52	60123.68
567.68	60472.42
567.85	60334.33
568.01	60437.31
568.17	60165.81
568.34	60275.82
568.50	60116.66
568.66	60254.75
568.83	60334.33
568.99	60055.81
569.15	60339.01
569.32	60296.88
569.48	60231.35
569.64	60409.23
569.81	60247.73
569.97	60177.51
570.13	60313.26
570.30	60186.88
570.46	60331.99
570.62	60257.09
570.78	60360.08
570.95	60339.01
571.11	60624.56
571.27	60238.37
571.43	60402.21
571.60	60353.05
571.76	60427.95
571.92	60287.52
572.09	60320.29
572.25	60458.38
572.41	60385.82
572.57	60467.74
572.74	60500.51
572.90	60395.18
573.06	60350.71
573.22	60441.99
573.38	60519.23
573.55	60603.49
573.71	60701.79
573.87	60647.96
574.03	60432.63
574.20	60556.68
574.36	60512.21
574.52	60573.06
574.68	60596.47
574.84	60828.18
575.01	60500.51
575.17	60402.21
575.33	60495.83
575.49	60339.01
575.65	60659.66
575.82	60729.88
575.98	60619.88
576.14	60781.37
576.30	60631.58
576.46	60570.72
576.62	60369.44
576.79	60697.11
576.95	60631.58
577.11	60690.09
577.27	60512.21
577.43	60626.90
577.59	60549.66
577.75	60441.99
577.92	60364.76
578.08	60624.56
578.24	60657.32
578.40	60640.94
578.56	60783.71
578.72	60615.19
578.88	60594.13
579.04	60743.92
579.21	60722.86
579.37	60816.48
579.53	60874.99
579.69	60736.90
579.85	60624.56
580.01	60809.46
580.17	60598.81
580.33	60814.14
580.49	60842.23
580.65	60793.07
580.82	60687.75
580.98	60715.84
581.14	60685.41
581.30	60954.57
581.46	60795.42
581.62	60795.42
581.78	60748.60
581.94	60874.99
582.10	60823.50
582.26	60753.29
582.42	60559.02
582.58	60865.63
582.74	60594.13
582.90	60912.44
583.06	60879.67
583.22	60715.84
583.38	60786.05
583.54	60837.54
583.70	60837.54
583.86	60814.14
584.02	60769.67
584.18	60882.02
584.34	60851.59
584.50	60664.35
584.66	60884.36
584.82	60729.88
584.98	61052.87
585.14	60863.29
585.30	60669.03
585.46	61001.38
585.62	60935.85
585.78	61137.13
585.94	60797.76
586.10	60959.25
586.26	60961.59
586.42	60858.61
586.58	60839.89
586.74	61059.90
586.90	60891.38
587.06	60956.91
587.22	61038.83
587.38	60809.46
587.54	61020.11
587.70	61116.07
587.86	60935.85
588.02	60954.57
588.18	61017.77
588.34	60856.27
588.49	60970.96
