SpectraSuite Data File
++++++++++++++++++++++++++++++++++++
Date: Fri Oct 25 11:34:11 EDT 2013
User: price-jones
Dark Spectrum Present: No
Reference Spectrum Present: No
Number of Sampled Component Spectra: 1
Spectrometers: USB2+H05261
Integration Time (usec): 100000 (USB2+H05261)
Spectra Averaged: 1 (USB2+H05261)
Boxcar Smoothing: 0 (USB2+H05261)
Correct for Electrical Dark: No (USB2+H05261)
Strobe/Lamp Enabled: No (USB2+H05261)
Correct for Detector Non-linearity: No (USB2+H05261)
Correct for Stray Light: No (USB2+H05261)
Number of Pixels in Processed Spectrum: 2048
>>>>>Begin Processed Spectral Data<<<<<
365.73	250.44
365.92	250.44
366.12	250.44
366.32	196.60
366.52	117.03
366.72	238.73
366.91	180.22
367.11	177.88
367.31	142.77
367.51	191.92
367.70	210.65
367.90	205.97
368.10	191.92
368.30	196.60
368.49	173.20
368.69	234.05
368.89	152.13
369.09	229.37
369.28	208.31
369.48	191.92
369.68	252.78
369.87	278.52
370.07	238.73
370.27	259.80
370.47	337.04
370.66	388.53
370.86	535.98
371.06	550.03
371.25	531.30
371.45	538.32
371.65	526.62
371.84	531.30
372.04	573.43
372.24	594.50
372.44	498.53
372.63	613.22
372.83	615.56
373.03	613.22
373.22	578.11
373.42	610.88
373.62	613.22
373.81	636.63
374.01	664.71
374.21	624.92
374.40	678.76
374.60	636.63
374.79	571.09
374.99	685.78
375.19	634.29
375.38	662.37
375.58	610.88
375.78	655.35
375.97	676.41
376.17	748.97
376.37	770.04
376.56	681.10
376.76	702.16
376.95	594.50
377.15	713.86
377.35	758.33
377.54	755.99
377.74	648.33
377.93	648.33
378.13	667.05
378.33	779.40
378.52	695.14
378.72	709.18
378.91	704.50
379.11	709.18
379.31	737.27
379.50	610.88
379.70	737.27
379.89	767.70
380.09	723.23
380.28	664.71
380.48	777.06
380.68	758.33
380.87	812.17
381.07	734.93
381.26	830.89
381.46	802.80
381.65	751.31
381.85	753.65
382.04	758.33
382.24	781.74
382.43	798.12
382.63	830.89
382.83	772.38
383.02	823.87
383.22	737.27
383.41	760.67
383.61	868.34
383.80	809.83
384.00	842.59
384.19	814.51
384.39	812.17
384.58	753.65
384.78	798.12
384.97	844.93
385.17	812.17
385.36	791.10
385.56	847.27
385.75	816.85
385.95	823.87
386.14	894.08
386.34	866.00
386.53	880.04
386.72	903.45
386.92	912.81
387.11	795.78
387.31	819.19
387.50	880.04
387.70	858.98
387.89	889.40
388.09	938.55
388.28	901.11
388.48	945.58
388.67	957.28
388.86	943.24
389.06	898.77
389.25	945.58
389.45	945.58
389.64	957.28
389.84	1036.86
390.03	990.05
390.22	912.81
390.42	922.17
390.61	954.94
390.81	947.92
391.00	980.68
391.19	973.66
391.39	936.21
391.58	987.71
391.78	1027.50
391.97	1027.50
392.16	1006.43
392.36	1121.12
392.55	1088.35
392.75	1032.18
392.94	1001.75
393.13	1071.97
393.33	997.07
393.52	1041.54
393.71	1078.99
393.91	1062.60
394.10	992.39
394.29	1128.14
394.49	1100.05
394.68	1008.77
394.88	1090.69
395.07	1095.37
395.26	1015.79
395.46	1158.57
395.65	1139.84
395.84	1231.12
396.04	1294.32
396.23	1205.38
396.42	1135.16
396.62	1184.31
396.81	1224.10
397.00	1198.35
397.19	1214.74
397.39	1181.97
397.58	1252.19
397.77	1184.31
397.97	1200.69
398.16	1240.48
398.35	1193.67
398.55	1226.44
398.74	1310.70
398.93	1256.87
399.12	1219.42
399.32	1289.64
399.51	1226.44
399.70	1329.42
399.90	1322.40
400.09	1404.32
400.28	1275.59
400.47	1376.24
400.67	1446.45
400.86	1460.49
401.05	1371.55
401.24	1378.58
401.44	1343.47
401.63	1427.73
401.82	1448.79
402.01	1380.92
402.21	1390.28
402.40	1432.41
402.59	1509.65
402.78	1444.11
402.97	1596.25
403.17	1509.65
403.36	1465.18
403.55	1472.20
403.74	1504.96
403.93	1551.78
404.13	1558.80
404.32	1570.50
404.51	1565.82
404.70	1537.73
404.89	1619.65
405.09	1706.25
405.28	1767.10
405.47	1577.52
405.66	1636.03
405.85	1792.85
406.05	1696.89
406.24	1722.63
406.43	1720.29
406.62	1769.44
406.81	1776.47
407.00	1739.02
407.20	1774.13
407.39	1736.68
407.58	1811.57
407.77	1792.85
407.96	1830.30
408.15	1849.02
408.34	1799.87
408.54	1872.43
408.73	1785.83
408.92	1888.81
409.11	1923.92
409.30	1926.26
409.49	1937.96
409.68	2047.97
409.87	2005.84
410.07	1991.80
410.26	2064.35
410.45	1998.82
410.64	1966.05
410.83	2050.31
411.02	2083.08
411.21	2080.74
411.40	2157.97
411.59	2101.80
411.78	2160.31
411.98	2146.27
412.17	2122.87
412.36	2167.34
412.55	2275.00
412.74	2340.54
412.93	2282.02
413.12	2263.30
413.31	2403.73
413.50	2354.58
413.69	2352.24
413.88	2464.58
414.07	2480.97
414.26	2385.01
414.45	2527.78
414.64	2569.91
414.83	2546.50
415.02	2464.58
415.22	2595.65
415.41	2644.81
415.60	2675.23
415.79	2647.15
415.98	2590.97
416.17	2715.02
416.36	2633.10
416.55	2672.89
416.74	2846.09
416.93	2722.04
417.12	2752.47
417.31	2698.64
417.50	2832.05
417.69	2881.20
417.88	2902.26
418.07	2899.92
418.26	2937.37
418.45	2834.39
418.64	3070.78
418.83	2906.95
419.02	3021.63
419.21	2958.44
419.39	3019.29
419.58	3169.09
419.77	3030.99
419.96	3101.21
420.15	3143.34
420.34	2979.50
420.53	3084.83
420.72	3082.49
420.91	3185.47
421.10	3351.65
421.29	3180.79
421.48	3138.66
421.67	3087.17
421.86	3122.27
422.05	3295.47
422.24	3229.94
422.43	3215.90
422.61	3234.62
422.80	3386.76
422.99	3236.96
423.18	3323.56
423.37	3302.50
423.56	3314.20
423.75	3400.80
423.94	3169.09
424.13	3089.51
424.32	3213.56
424.50	3349.31
424.69	3520.17
424.88	3424.20
425.07	3372.71
425.26	3295.47
425.45	3258.03
425.64	3379.73
425.83	3365.69
426.01	3424.20
426.20	3513.14
426.39	3478.04
426.58	3342.28
426.77	3433.57
426.96	3342.28
427.15	3276.75
427.33	3459.31
427.52	3583.36
427.71	3517.83
427.90	3522.51
428.09	3562.30
428.28	3578.68
428.46	3555.27
428.65	3557.61
428.84	3730.81
429.03	3665.28
429.22	3660.60
429.40	3550.59
429.59	3679.32
429.78	3581.02
429.97	3536.55
430.16	3606.77
430.34	3836.14
430.53	3857.20
430.72	3770.60
430.91	3899.33
431.10	3712.09
431.28	3873.59
431.47	3929.76
431.66	3964.87
431.85	3822.09
432.03	3878.27
432.22	3899.33
432.41	4014.02
432.60	3967.21
432.79	4011.68
432.97	4126.36
433.16	4166.15
433.35	3953.16
433.54	4117.00
433.72	4046.79
433.91	4095.94
434.10	4039.76
434.28	4086.58
434.47	4194.24
434.66	4222.33
434.85	4236.37
435.03	4311.27
435.22	4236.37
435.41	4360.42
435.59	4285.52
435.78	4311.27
435.97	4301.90
436.16	4358.08
436.34	4432.97
436.53	4311.27
436.72	4463.40
436.90	4266.80
437.09	4411.91
437.28	4304.25
437.46	4383.82
437.65	4311.27
437.84	4358.08
438.02	4559.36
438.21	4507.87
438.40	4475.10
438.58	4655.33
438.77	4599.15
438.96	4709.16
439.14	4798.10
439.33	4746.61
439.52	4938.53
439.70	4828.53
439.89	4889.38
440.08	4936.19
440.26	4847.25
440.45	4856.61
440.63	4847.25
440.82	5006.41
441.01	5013.43
441.19	5055.56
441.38	5015.77
441.57	5160.88
441.75	5212.37
441.94	5263.86
442.12	5305.99
442.31	5343.44
442.50	5205.35
442.68	5310.68
442.87	5233.44
443.05	5483.88
443.24	5453.45
443.43	5479.19
443.61	5540.05
443.80	5626.65
443.98	5245.14
444.17	5242.80
444.35	5500.26
444.54	5547.07
444.73	5509.62
444.91	5507.28
445.10	5542.39
445.28	5469.83
445.47	5554.09
445.65	5518.98
445.84	5589.20
446.02	5692.18
446.21	5720.27
446.39	5614.95
446.58	5614.95
446.77	5488.56
446.95	5584.52
447.14	5509.62
447.32	5535.37
447.51	5638.35
447.69	5579.84
447.88	5638.35
448.06	5680.48
448.25	5521.32
448.43	5598.56
448.62	5638.35
448.80	5647.71
448.99	5722.61
449.17	5673.46
449.36	5673.46
449.54	5809.21
449.73	5921.56
449.91	5898.15
450.10	5961.34
450.28	5996.45
450.46	5982.41
450.65	5888.79
450.83	6024.54
451.02	6054.97
451.20	5940.28
451.39	5933.26
451.57	5959.00
451.76	5973.05
451.94	6207.10
452.13	5975.39
452.31	6066.67
452.49	5947.30
452.68	6164.97
452.86	6136.88
453.05	6136.88
453.23	6237.53
453.42	6153.27
453.60	6106.46
453.78	6328.81
453.97	6246.89
454.15	6272.64
454.34	6193.06
454.52	6230.51
454.70	6380.30
454.89	6413.07
455.07	6420.09
455.26	6296.04
455.44	6654.14
455.62	6413.07
455.81	6656.48
455.99	6396.68
456.17	6623.72
456.36	6576.91
456.54	6799.26
456.73	6836.70
456.91	6820.32
457.09	6820.32
457.28	7037.99
457.46	6712.66
457.64	6967.77
457.83	6974.80
458.01	6916.28
458.19	7045.01
458.38	6813.30
458.56	7070.76
458.74	7016.93
458.93	6998.20
459.11	6897.56
459.29	7000.54
459.48	7021.61
459.66	7061.40
459.84	7267.36
460.03	7162.04
460.21	7304.81
460.39	7396.09
460.57	7133.95
460.76	7117.57
460.94	7227.57
461.12	7253.32
461.31	7225.23
461.49	7302.47
461.67	7281.41
461.85	7571.63
462.04	7506.10
462.22	7632.49
462.40	7602.06
462.59	7400.77
462.77	7496.74
462.95	7658.23
463.13	7538.87
463.32	7655.89
463.50	7712.07
463.68	7808.03
463.86	7716.75
464.05	7765.90
464.23	7793.98
464.41	7667.60
464.59	7578.65
464.78	7789.30
464.96	7707.38
465.14	7770.58
465.32	7822.07
465.50	8004.63
465.69	8049.10
465.87	7889.95
466.05	7782.28
466.23	8063.15
466.41	7934.42
466.60	8032.72
466.78	7941.44
466.96	7957.82
467.14	7936.76
467.32	8095.91
467.51	8273.79
467.69	7791.64
467.87	8004.63
468.05	8236.35
468.23	8016.33
468.41	7941.44
468.60	8294.86
468.78	8320.60
468.96	8285.50
469.14	8278.47
469.32	8346.35
469.50	8154.43
469.69	8292.52
469.87	8620.19
470.05	8582.74
470.23	8496.14
470.41	8697.43
470.59	8769.99
470.77	8585.08
470.95	8620.19
471.14	8814.46
471.32	8470.40
471.50	8631.90
471.68	8681.05
471.86	9011.06
472.04	8821.48
472.22	9114.05
472.40	8966.59
472.58	8898.72
472.77	9130.43
472.95	9074.26
473.13	9392.57
473.31	9060.21
473.49	9167.88
473.67	9181.92
473.85	9336.40
474.03	9565.77
474.21	9460.45
474.39	9579.81
474.57	9518.96
474.75	9724.93
474.93	9743.65
475.12	9715.56
475.30	9549.39
475.48	9668.75
475.66	9837.27
475.84	9682.80
476.02	10148.56
476.20	9944.94
476.38	9987.07
476.56	10417.72
476.74	10324.10
476.92	10333.47
477.10	10115.80
477.28	10546.45
477.46	10626.03
477.64	10675.18
477.82	10682.20
478.00	10724.33
478.18	10855.40
478.36	10939.66
478.54	10991.16
478.72	11021.58
478.90	11080.10
479.08	11384.37
479.26	11391.39
479.44	11480.33
479.62	11529.48
479.80	11494.37
479.98	11716.72
480.16	11992.90
480.34	11651.19
480.52	12131.00
480.70	12091.21
480.88	11833.75
481.06	11922.69
481.24	12128.66
481.41	12306.54
481.59	12257.39
481.77	12266.75
481.95	12566.34
482.13	12758.26
482.31	12819.11
482.49	12886.99
482.67	12996.99
482.85	13090.62
483.03	13121.04
483.21	13418.29
483.39	13324.67
483.57	13355.10
483.74	13561.06
483.92	13682.77
484.10	13881.72
484.28	14024.49
484.46	14136.84
484.64	14277.27
484.82	14134.50
485.00	14331.10
485.18	14696.22
485.35	14846.02
485.53	14754.74
485.71	14803.89
485.89	15047.30
486.07	15080.07
486.25	15000.49
486.43	14941.98
486.61	15356.25
486.78	15442.85
486.96	15382.00
487.14	15672.23
487.32	15807.98
487.50	15899.26
487.68	15906.28
487.85	15967.13
488.03	15999.90
488.21	16451.63
488.39	16486.73
488.57	16702.06
488.75	16762.92
488.92	16805.05
489.10	17198.26
489.28	17163.15
489.46	17472.10
489.64	17476.78
489.81	17701.47
489.99	17561.04
490.17	17364.43
490.35	17776.37
490.53	18099.36
490.70	18024.47
490.88	18340.44
491.06	18331.08
491.24	18249.16
491.41	18492.57
491.59	18874.08
491.77	18506.62
491.95	18817.91
492.13	19147.92
492.30	19009.83
492.48	19154.94
492.66	19206.44
492.84	19360.91
493.01	19613.69
493.19	19393.68
493.37	19971.79
493.54	19899.23
493.72	20203.50
493.90	20002.22
494.08	20020.94
494.25	20341.60
494.43	20453.94
494.61	20336.91
494.79	20636.50
494.96	20573.31
495.14	20936.09
495.32	21301.22
495.49	21125.68
495.67	21249.72
495.85	21413.56
496.02	21628.89
496.20	21935.50
496.38	21776.34
496.55	21963.59
496.73	22333.39
496.91	21844.22
497.09	22221.05
497.26	22750.01
497.44	22211.68
497.62	22237.43
497.79	22827.24
497.97	22438.72
498.14	22993.42
498.32	23002.78
498.50	23056.62
498.67	23314.08
498.85	23353.87
499.03	23398.34
499.20	23428.76
499.38	23623.03
499.56	23777.50
499.73	23892.19
499.91	23470.89
500.08	23929.64
500.26	23833.68
500.44	24229.23
500.61	23885.17
500.79	24056.03
500.97	24388.38
501.14	24645.84
501.32	24463.28
501.49	24528.81
501.67	24779.25
501.84	24907.98
502.02	24765.21
502.20	24629.46
502.37	25212.25
502.55	25095.22
502.72	25163.10
502.90	25188.85
503.07	25109.27
503.25	25502.48
503.43	25301.19
503.60	25811.43
503.78	25537.59
503.95	25916.75
504.13	25846.54
504.30	26096.97
504.48	26302.94
504.65	26040.80
504.83	26766.37
505.01	26438.69
505.18	26412.95
505.36	26719.56
505.53	26464.44
505.71	26389.54
505.88	26506.57
506.06	26859.99
506.23	26958.29
506.41	27161.92
506.58	27307.03
506.76	26998.08
506.93	27452.14
507.11	27447.46
507.28	27077.66
507.46	27278.94
507.63	27775.14
507.81	27899.19
507.98	27747.05
508.16	27440.44
508.33	27915.57
508.50	27761.09
508.68	27854.72
508.85	28334.53
509.03	28037.28
509.20	28451.55
509.38	28608.37
509.55	28697.31
509.73	28507.72
509.90	28673.90
510.08	28713.69
510.25	28844.76
510.42	29050.73
510.60	28844.76
510.77	28762.84
510.95	29472.03
511.12	28800.29
511.30	29076.48
511.47	29352.66
511.64	29771.61
511.82	29813.74
511.99	29479.05
512.17	29345.64
512.34	29521.18
512.51	29799.70
512.69	30274.83
512.86	29731.83
513.04	30071.20
513.21	30008.01
513.38	30239.72
513.56	30609.53
513.73	30174.19
513.90	30366.11
514.08	30279.51
514.25	30473.78
514.43	30670.38
514.60	30815.49
514.77	30522.93
514.95	30749.96
515.12	31068.27
515.29	31023.80
515.47	31044.87
515.64	31337.43
515.81	30890.39
515.99	31384.24
516.16	31622.98
516.33	31255.51
516.51	31796.18
516.68	31599.57
516.85	31749.37
517.03	31880.44
517.20	31800.86
517.37	31864.05
517.54	31934.27
517.72	32205.77
517.89	32430.46
518.06	32156.62
518.24	32297.05
518.41	32013.85
518.58	32285.35
518.75	32292.37
518.93	32683.24
519.10	32809.63
519.27	32409.40
519.45	32521.74
519.62	32966.45
519.79	32519.40
519.96	32790.91
520.14	32980.49
520.31	32858.78
520.48	33277.74
520.65	33214.54
520.83	33860.53
521.00	33296.46
521.17	33565.62
521.34	33642.86
521.52	33727.12
521.69	33738.82
521.86	33813.72
522.03	33516.47
522.20	33766.91
522.38	34455.03
522.55	34066.50
522.72	34031.39
522.89	33944.79
523.07	34586.10
523.24	33965.85
523.41	34473.75
523.58	34139.05
523.75	34714.83
523.92	34281.83
524.10	34419.92
524.27	34679.72
524.44	34888.03
524.61	34829.51
524.78	35297.62
524.96	35421.67
525.13	35206.34
525.30	35072.93
525.47	35131.44
525.64	35070.59
525.81	35196.98
525.98	35248.47
526.16	35150.17
526.33	35381.88
526.50	35941.27
526.67	35515.29
526.84	35988.08
527.01	35498.91
527.18	35936.59
527.36	35571.46
527.53	35901.48
527.70	36718.32
527.87	36240.86
528.04	36072.34
528.21	36018.50
528.38	35959.99
528.55	36388.31
528.72	36362.56
528.89	36168.30
529.07	36231.49
529.24	36748.75
529.41	36308.73
529.58	36423.42
529.75	36531.08
529.92	36507.68
530.09	36650.45
530.26	36804.92
530.43	36947.70
530.60	36542.78
530.77	36411.71
530.94	37212.18
531.11	36657.47
531.28	36966.42
531.46	36931.31
531.63	37242.60
531.80	37144.30
531.97	37095.15
532.14	37062.38
532.31	37038.98
532.48	37525.81
532.65	37553.90
532.82	37490.70
532.99	37631.13
533.16	37479.00
533.33	37663.90
533.50	37640.50
533.67	37633.47
533.84	37139.62
534.01	37926.04
534.18	37977.53
534.35	38209.25
534.52	37947.11
534.69	38878.64
534.86	38394.15
535.03	38199.88
535.20	38181.16
535.37	38295.85
535.54	38565.01
535.71	38185.84
535.88	38480.75
536.05	38359.04
536.22	38707.78
536.38	38763.95
536.55	38532.24
536.72	38691.40
536.89	38660.97
537.06	38623.52
537.23	39131.42
537.40	38087.54
537.57	38752.25
537.74	38663.31
537.91	39206.31
538.08	38873.96
538.25	38703.10
538.42	39426.32
538.59	39133.76
538.75	39400.58
538.92	39419.30
539.09	39491.86
539.26	39328.02
539.43	39248.44
539.60	39746.98
539.77	39765.70
539.94	39615.91
540.11	39765.70
540.28	39456.75
540.44	39599.52
540.61	40105.08
540.78	39646.33
540.95	40065.29
541.12	39683.78
541.29	39548.03
541.46	39449.73
541.62	40130.83
541.79	40011.46
541.96	39665.06
542.13	39606.55
542.30	40009.12
542.47	40320.41
542.63	40367.22
542.80	40383.60
542.97	40650.42
543.14	40886.82
543.31	40465.52
543.48	40636.38
543.64	41090.44
543.81	40655.11
543.98	40772.13
544.15	40776.81
544.32	40978.10
544.48	41240.24
544.65	41343.22
544.82	41383.01
544.99	41235.56
545.16	41256.62
545.32	41092.79
545.49	41752.82
545.66	41617.07
545.83	41340.88
546.00	41502.38
546.16	41329.18
546.33	41230.88
546.50	40917.25
546.67	41361.95
546.83	41366.63
547.00	41373.65
547.17	41303.43
547.34	41294.07
547.50	41790.27
547.67	41893.25
547.84	41764.52
548.00	42092.19
548.17	42527.53
548.34	42188.16
548.51	42216.24
548.67	41776.22
548.84	42092.19
549.01	42625.84
549.18	41972.83
549.34	42223.26
549.51	42323.91
549.68	42822.44
549.84	42003.25
550.01	42543.92
550.18	42302.84
550.34	42721.80
550.51	42534.56
550.68	42810.74
550.84	42277.10
551.01	42714.78
551.18	42298.16
551.34	42855.21
551.51	43026.07
551.68	42557.96
551.84	42829.46
552.01	42359.02
552.18	42827.12
552.34	42939.47
552.51	42890.32
552.68	42738.18
552.84	42939.47
553.01	42930.11
553.18	42895.00
553.34	43370.13
553.51	42852.87
553.67	43009.68
553.84	43115.01
554.01	43339.70
554.17	43295.23
554.34	43299.91
554.51	43395.87
554.67	43810.15
554.84	43917.81
555.00	43096.28
555.17	43419.28
555.33	43840.57
555.50	43484.81
555.67	43519.92
555.83	43695.46
556.00	43548.01
556.16	44453.79
556.33	43763.34
556.50	43711.84
556.66	43632.27
556.83	43498.86
556.99	44065.27
557.16	44105.06
557.32	44130.80
557.49	43831.21
557.65	43976.33
557.82	43988.03
557.98	43913.13
558.15	43718.87
558.32	44133.14
558.48	44137.82
558.65	44053.56
558.81	44142.50
558.98	43840.57
559.14	44025.48
559.31	44177.61
559.47	44032.50
559.64	44186.97
559.80	44418.69
559.97	44486.56
560.13	44179.95
560.30	44395.28
560.46	44800.19
560.63	44631.68
560.79	44346.13
560.96	44800.19
561.12	44404.64
561.29	44739.34
561.45	44863.39
561.61	44163.57
561.78	44624.65
561.94	44416.35
562.11	44376.56
562.27	44701.89
562.44	44596.57
562.60	44744.02
562.77	44931.26
562.93	44467.84
563.10	44542.74
563.26	44837.64
563.42	44889.13
563.59	44746.36
563.75	44863.39
563.92	45125.53
564.08	44802.53
564.24	45165.32
564.41	44488.90
564.57	45268.30
564.74	44800.19
564.90	44465.50
565.07	45001.48
565.23	44587.21
565.39	44987.44
565.56	45160.64
565.72	44608.27
565.88	44942.97
566.05	45111.49
566.21	45315.11
566.38	44975.73
566.54	45045.95
566.70	45439.16
566.87	44973.39
567.03	44973.39
567.19	45141.91
567.36	44994.46
567.52	45247.24
567.68	45638.11
567.85	45413.41
568.01	45249.58
568.17	44755.72
568.34	45219.15
568.50	45530.44
568.66	45333.84
568.83	45247.24
568.99	45380.65
569.15	45401.71
569.32	45256.60
569.48	45160.64
569.64	45617.04
569.81	45507.04
569.97	45591.30
570.13	45422.78
570.30	44821.26
570.46	45254.26
570.62	45443.84
570.78	45230.85
570.95	45380.65
571.11	45443.84
571.27	45539.80
571.43	45329.16
571.60	45436.82
571.76	45551.51
571.92	45401.71
572.09	45338.52
572.25	45256.60
572.41	45673.21
572.57	45823.01
572.74	45827.69
572.90	45904.93
573.06	45647.47
573.22	46012.59
573.38	45977.48
573.55	45598.32
573.71	46155.36
573.87	45612.36
574.03	45638.11
574.20	45691.94
574.36	45787.90
574.52	45872.16
574.68	45841.73
574.84	46316.86
575.01	45935.35
575.17	45886.20
575.33	45972.80
575.49	45813.65
575.65	46146.00
575.82	45872.16
575.98	45333.84
576.14	46241.96
576.30	46021.95
576.46	46010.25
576.62	45951.74
576.79	45764.49
576.95	45460.23
577.11	45736.41
577.27	45436.82
577.43	45729.39
577.59	45923.65
577.75	46244.30
577.92	45649.81
578.08	46031.32
578.24	46239.62
578.40	45862.80
578.56	45986.85
578.72	45902.59
578.88	46017.27
579.04	46239.62
579.21	46113.23
579.37	45970.46
579.53	46059.40
579.69	45937.69
579.85	46389.42
580.01	45886.20
580.17	46010.25
580.33	46234.94
580.49	46241.96
580.65	46251.33
580.82	46073.45
580.98	45830.03
581.14	45982.16
581.30	46223.24
581.46	45624.06
581.62	45984.51
581.78	45724.71
581.94	46103.87
582.10	46150.68
582.26	46335.59
582.42	46099.19
582.58	46272.39
582.74	46078.13
582.90	46174.09
583.06	46188.13
583.22	46204.52
583.38	46122.60
583.54	46181.11
583.70	46478.36
583.86	46782.63
584.02	45790.24
584.18	46541.55
584.34	46293.46
584.50	46253.67
584.66	46284.09
584.82	46389.42
584.98	46829.44
585.14	46281.75
585.30	46033.66
585.46	46031.32
585.62	46396.44
585.78	46270.05
585.94	45862.80
586.10	45911.95
586.26	46117.92
586.42	46155.36
586.58	46366.01
586.74	46337.93
586.90	45874.50
587.06	46199.83
587.22	46674.96
587.38	46157.70
587.54	46696.03
587.70	46251.33
587.86	46490.06
588.02	46120.26
588.18	45855.78
588.34	46223.24
588.49	46239.62
588.65	46216.22
588.81	45893.22
588.97	46394.10
589.13	45970.46
589.29	46225.58
589.45	46899.65
589.61	46457.29
589.77	46499.42
589.93	46122.60
590.08	46562.62
