SpectraSuite Data File
++++++++++++++++++++++++++++++++++++
Date: Fri Oct 25 11:26:06 EDT 2013
User: price-jones
Dark Spectrum Present: No
Reference Spectrum Present: No
Number of Sampled Component Spectra: 1
Spectrometers: USB2+H05261
Integration Time (usec): 100000 (USB2+H05261)
Spectra Averaged: 1 (USB2+H05261)
Boxcar Smoothing: 0 (USB2+H05261)
Correct for Electrical Dark: No (USB2+H05261)
Strobe/Lamp Enabled: No (USB2+H05261)
Correct for Detector Non-linearity: No (USB2+H05261)
Correct for Stray Light: No (USB2+H05261)
Number of Pixels in Processed Spectrum: 2048
>>>>>Begin Processed Spectral Data<<<<<
365.73	259.80
365.92	259.80
366.12	259.80
366.32	138.09
366.52	173.20
366.72	121.71
366.91	198.95
367.11	145.11
367.31	159.16
367.51	138.09
367.70	140.43
367.90	147.45
368.10	133.41
368.30	154.48
368.49	65.54
368.69	182.56
368.89	201.29
369.09	138.09
369.28	117.03
369.48	110.01
369.68	241.08
369.87	147.45
370.07	180.22
370.27	224.69
370.47	330.02
370.66	660.03
370.86	683.44
371.06	603.86
371.25	720.88
371.45	697.48
371.65	662.37
371.84	636.63
372.04	683.44
372.24	711.52
372.44	711.52
372.63	674.07
372.83	786.42
373.03	723.23
373.22	814.51
373.42	795.78
373.62	706.84
373.81	805.14
374.01	807.48
374.21	816.85
374.40	837.91
374.60	812.17
374.79	868.34
374.99	821.53
375.19	880.04
375.38	798.12
375.58	887.06
375.78	875.36
375.97	922.17
376.17	997.07
376.37	861.32
376.56	912.81
376.76	795.78
376.95	889.40
377.15	959.62
377.35	851.96
377.54	954.94
377.74	863.66
377.93	973.66
378.13	1001.75
378.33	898.77
378.52	938.55
378.72	980.68
378.91	978.34
379.11	980.68
379.31	978.34
379.50	905.79
379.70	985.37
379.89	997.07
380.09	919.83
380.28	983.02
380.48	1004.09
380.68	987.71
380.87	1032.18
381.07	983.02
381.26	1048.56
381.46	1013.45
381.65	1020.47
381.85	1015.79
382.04	1086.01
382.24	1043.88
382.43	1020.47
382.63	1069.62
382.83	1043.88
383.02	1102.39
383.22	1074.31
383.41	1179.63
383.61	1116.44
383.80	1083.67
384.00	1128.14
384.19	1097.71
384.39	1167.93
384.58	1046.22
384.78	1046.22
384.97	1069.62
385.17	1160.91
385.36	1107.07
385.56	1207.72
385.75	1186.65
385.95	1224.10
386.14	1240.48
386.34	1210.06
386.53	1188.99
386.72	1170.27
386.92	1188.99
387.11	1273.25
387.31	1226.44
387.50	1280.27
387.70	1238.14
387.89	1207.72
388.09	1247.51
388.28	1245.16
388.48	1263.89
388.67	1296.66
388.86	1380.92
389.06	1329.42
389.25	1317.72
389.45	1282.61
389.64	1406.66
389.84	1348.15
390.03	1427.73
390.22	1320.06
390.42	1343.47
390.61	1427.73
390.81	1511.99
391.00	1364.53
391.19	1409.00
391.39	1474.54
391.58	1542.41
391.78	1453.47
391.97	1561.14
392.16	1481.56
392.36	1514.33
392.55	1563.48
392.75	1462.83
392.94	1530.71
393.13	1577.52
393.33	1427.73
393.52	1547.09
393.71	1495.60
393.91	1537.73
394.10	1565.82
394.29	1488.58
394.49	1593.90
394.68	1589.22
394.88	1579.86
395.07	1729.66
395.26	1685.19
395.46	1689.87
395.65	1727.32
395.84	1689.87
396.04	1710.93
396.23	1778.81
396.42	1776.47
396.62	1830.30
396.81	1685.19
397.00	1813.92
397.19	1785.83
397.39	1870.09
397.58	1860.73
397.77	1830.30
397.97	1905.20
398.16	1884.13
398.35	1877.11
398.55	1860.73
398.74	1919.24
398.93	2005.84
399.12	1952.01
399.32	1954.35
399.51	2003.50
399.70	2064.35
399.90	1984.77
400.09	1980.09
400.28	1966.05
400.47	2015.20
400.67	1996.48
400.86	2172.02
401.05	2069.03
401.24	1952.01
401.44	2099.46
401.63	2134.57
401.82	2146.27
402.01	1996.48
402.21	2146.27
402.40	2181.38
402.59	2181.38
402.78	2249.25
402.97	2239.89
403.17	2211.81
403.36	2340.54
403.55	2216.49
403.74	2267.98
403.93	2319.47
404.13	2286.70
404.32	2375.64
404.51	2420.11
404.70	2483.31
404.89	2396.71
405.09	2539.48
405.28	2469.27
405.47	2518.42
405.66	2509.05
405.85	2464.58
406.05	2473.95
406.24	2705.66
406.43	2546.50
406.62	2628.42
406.81	2675.23
407.00	2612.04
407.20	2579.27
407.39	2546.50
407.58	2647.15
407.77	2689.28
407.96	2778.22
408.15	2853.11
408.34	2729.06
408.54	2918.65
408.73	2689.28
408.92	2843.75
409.11	2937.37
409.30	2881.20
409.49	2958.44
409.68	2956.10
409.87	2925.67
410.07	2986.52
410.26	2963.12
410.45	3042.70
410.64	2963.12
410.83	3124.62
411.02	3042.70
411.21	3131.64
411.40	3094.19
411.59	3206.53
411.78	3143.34
411.98	3185.47
412.17	3412.50
412.36	3229.94
412.55	3377.39
412.74	3295.47
412.93	3393.78
413.12	3510.80
413.31	3442.93
413.50	3548.25
413.69	3524.85
413.88	3590.38
414.07	3602.08
414.26	3761.24
414.45	3641.87
414.64	3585.70
414.83	3712.09
415.02	3705.07
415.22	3707.41
415.41	3822.09
415.60	3906.35
415.79	3887.63
415.98	3983.59
416.17	3911.04
416.36	3838.48
416.55	3892.31
416.74	4142.75
416.93	3943.80
417.12	4117.00
417.31	4051.47
417.50	4166.15
417.69	4278.50
417.88	4322.97
418.07	4203.60
418.26	4212.96
418.45	4294.88
418.64	4383.82
418.83	4423.61
419.02	4566.39
419.21	4507.87
419.39	4353.40
419.58	4369.78
419.77	4418.93
419.96	4601.49
420.15	4606.17
420.34	4617.88
420.53	4638.94
420.72	4578.09
420.91	4685.75
421.10	4723.20
421.29	4748.95
421.48	4688.09
421.67	4657.67
421.86	4812.14
422.05	4739.58
422.24	4791.08
422.43	4840.23
422.61	5018.11
422.80	4896.40
422.99	5011.09
423.18	4936.19
423.37	4994.70
423.56	4898.74
423.75	4961.94
423.94	4851.93
424.13	4596.81
424.32	4746.61
424.50	4978.32
424.69	5221.74
424.88	4971.30
425.07	4854.27
425.26	4994.70
425.45	5006.41
425.64	4844.91
425.83	4861.29
426.01	5109.39
426.20	5029.81
426.39	5193.65
426.58	5069.60
426.77	5062.58
426.96	5151.52
427.15	5067.26
427.33	5228.76
427.52	5296.63
427.71	5254.50
427.90	5245.14
428.09	5448.77
428.28	5441.75
428.46	5266.21
428.65	5479.19
428.84	5671.12
429.03	5549.41
429.22	5348.12
429.40	5554.09
429.59	5579.84
429.78	5397.28
429.97	5334.08
430.16	5617.29
430.34	5610.26
430.53	5563.45
430.72	5607.92
430.91	5565.79
431.10	5577.50
431.28	5607.92
431.47	5966.03
431.66	5951.98
431.85	5746.02
432.03	6078.37
432.22	5970.71
432.41	6050.28
432.60	6003.47
432.79	6040.92
432.97	5806.87
433.16	5984.75
433.35	5832.62
433.54	5984.75
433.72	6239.87
433.91	6057.31
434.10	5970.71
434.28	6022.20
434.47	5973.05
434.66	6303.06
434.85	6340.51
435.03	6214.12
435.22	6305.40
435.41	6490.31
435.59	6452.86
435.78	6321.79
435.97	6445.84
436.16	6487.96
436.34	6298.38
436.53	6368.60
436.72	6754.79
436.90	6525.41
437.09	6738.40
437.28	6520.73
437.46	6560.52
437.65	6689.25
437.84	6565.20
438.02	6630.74
438.21	6803.94
438.40	6719.68
438.58	7056.72
438.77	6942.03
438.96	6981.82
439.14	7021.61
439.33	7349.28
439.52	7148.00
439.70	7063.74
439.89	7302.47
440.08	7473.33
440.26	7391.41
440.45	7218.21
440.63	7398.43
440.82	7695.68
441.01	7393.75
441.19	7559.93
441.38	7803.35
441.57	7667.60
441.75	7934.42
441.94	8081.87
442.12	8170.81
442.31	8051.44
442.50	7957.82
442.68	8116.98
442.87	8056.12
443.05	8290.18
443.24	8304.22
443.43	8042.08
443.61	8243.37
443.80	8229.32
443.98	8121.66
444.17	7791.64
444.35	8037.40
444.54	8348.69
444.73	8292.52
444.91	8271.45
445.10	8402.52
445.28	8332.31
445.47	8138.04
445.65	8383.80
445.84	8346.35
446.02	8334.65
446.21	8531.25
446.39	8669.34
446.58	8472.74
446.77	8407.20
446.95	8219.96
447.14	8484.44
447.32	8564.02
447.51	8617.85
447.69	8432.95
447.88	8624.87
448.06	8575.72
448.25	8472.74
448.43	8751.26
448.62	8755.94
448.80	8533.59
448.99	8674.03
449.17	8648.28
449.36	8634.24
449.54	8844.88
449.73	8943.19
449.91	9130.43
450.10	8982.98
450.28	9057.87
450.46	9043.83
450.65	9107.02
450.83	9090.64
451.02	9181.92
451.20	9177.24
451.39	9067.24
451.57	9210.01
451.76	9057.87
451.94	9144.47
452.13	9214.69
452.31	9441.72
452.49	8999.36
452.68	9359.80
452.86	9397.25
453.05	9493.21
453.23	9338.74
453.42	9298.95
453.60	9277.88
453.78	9345.76
453.97	9301.29
454.15	9577.47
454.34	9514.28
454.52	9668.75
454.70	9738.97
454.89	9762.37
455.07	9858.34
455.26	9795.14
455.44	10057.28
455.62	10059.62
455.81	9771.74
455.99	9947.28
456.17	9867.70
456.36	10146.22
456.54	10279.63
456.73	10190.69
456.91	10331.12
457.09	10317.08
457.28	10516.03
457.46	10300.70
457.64	10602.63
457.83	10464.54
458.01	10476.24
458.19	10876.47
458.38	10590.92
458.56	10714.97
458.74	10707.95
458.93	10785.19
459.11	10771.15
459.29	10724.33
459.48	10963.07
459.66	10593.26
459.84	10892.85
460.03	11183.08
460.21	10993.50
460.39	10965.41
460.57	10916.26
460.76	11084.78
460.94	11473.31
461.12	10942.00
461.31	11077.76
461.49	11073.07
461.67	10981.79
461.85	11562.25
462.04	11213.51
462.22	11747.15
462.40	11688.64
462.59	11543.52
462.77	11606.72
462.95	11688.64
463.13	11276.70
463.32	11527.14
463.50	11726.08
463.68	11737.79
463.86	11815.02
464.05	11585.65
464.23	11665.23
464.41	11915.67
464.59	11552.88
464.78	12060.78
464.96	11990.56
465.14	11852.47
465.32	11983.54
465.50	12201.21
465.69	12250.36
465.87	11992.90
466.05	12248.02
466.23	12245.68
466.41	12189.51
466.60	12521.87
466.78	12131.00
466.96	12360.37
467.14	12210.57
467.32	12198.87
467.51	12362.71
467.69	12152.06
467.87	12517.18
468.05	12458.67
468.23	12393.14
468.41	12407.18
468.60	12388.46
468.78	12634.21
468.96	12496.12
469.14	12872.95
469.32	13057.85
469.50	12709.11
469.69	13130.41
469.87	13053.17
470.05	12982.95
470.23	13107.00
470.41	13259.13
470.59	13427.65
470.77	13139.77
470.95	13397.23
471.14	13446.38
471.32	13109.34
471.50	13458.08
471.68	13483.83
471.86	13650.00
472.04	13547.02
472.22	14242.16
472.40	13642.98
472.58	13607.87
472.77	13895.76
472.95	13919.17
473.13	14703.25
473.31	14064.28
473.49	14160.24
473.67	14157.90
473.85	14050.24
474.03	14647.07
474.21	14555.79
474.39	14572.18
474.57	14759.42
474.75	14860.06
474.93	15033.26
475.12	14806.23
475.30	15084.75
475.48	14806.23
475.66	15351.57
475.84	14967.73
476.02	15370.30
476.20	15059.01
476.38	15517.75
476.56	16081.82
476.74	15662.86
476.92	15974.16
477.10	15948.41
477.28	16063.10
477.46	16435.24
477.64	16238.64
477.82	16451.63
478.00	16828.45
478.18	16805.05
478.36	16791.00
478.54	17200.60
478.72	17221.66
478.90	17198.26
479.08	17710.83
479.26	17539.97
479.44	17514.23
479.62	17963.61
479.80	18015.10
479.98	18317.03
480.16	18478.53
480.34	18258.52
480.52	18684.50
480.70	18703.22
480.88	18214.05
481.06	18630.66
481.24	18820.25
481.41	18881.10
481.59	19157.28
481.77	19651.14
481.95	19482.62
482.13	19644.12
482.31	19728.38
482.49	20395.43
482.67	20147.33
482.85	20365.00
483.03	20662.25
483.21	20793.32
483.39	20666.93
483.57	21057.80
483.74	21186.53
483.92	21537.61
484.10	21106.95
484.28	21458.03
484.46	21926.14
484.64	22295.94
484.82	21984.65
485.00	22270.20
485.18	22703.20
485.35	22960.66
485.53	22993.42
485.71	22848.31
485.89	23227.48
486.07	23173.64
486.25	23229.82
486.43	23728.35
486.61	24128.58
486.78	24018.58
486.96	24187.10
487.14	24613.07
487.32	24922.02
487.50	24982.88
487.68	25146.72
487.85	25364.39
488.03	25605.46
488.21	25830.15
488.39	26012.71
488.57	26080.59
488.75	25984.63
488.92	26497.20
489.10	26558.06
489.28	26838.92
489.46	27365.54
489.64	26614.23
489.81	27344.48
489.99	27585.55
490.17	27543.42
490.35	27995.15
490.53	27845.35
490.70	28404.74
490.88	28173.03
491.06	28711.35
491.24	29095.20
491.41	28978.17
491.59	29097.54
491.77	29172.44
491.95	29610.12
492.13	29603.10
492.30	29734.17
492.48	30005.67
492.66	30143.76
492.84	30281.85
493.01	30733.57
493.19	30630.59
493.37	30881.03
493.54	30817.83
493.72	31381.90
493.90	31049.55
494.08	31316.37
494.25	31964.70
494.43	31915.54
494.61	31955.33
494.79	32393.01
494.96	32444.51
495.14	32582.60
495.32	33259.01
495.49	33013.26
495.67	33069.43
495.85	33448.60
496.02	33666.27
496.20	34408.22
496.38	34127.35
496.55	33670.95
496.73	34885.68
496.91	34632.91
497.09	34754.61
497.26	34976.97
497.44	35239.11
497.62	35187.61
497.79	35534.01
497.97	35302.30
498.14	35929.56
498.32	36154.26
498.50	36170.64
498.67	36512.36
498.85	36144.89
499.03	36355.54
499.20	36570.87
499.38	36439.80
499.56	37088.13
499.73	37006.21
499.91	37333.89
500.08	37841.78
500.26	37282.39
500.44	37612.41
500.61	37493.04
500.79	37848.80
500.97	37736.46
501.14	38309.89
501.32	38459.68
501.49	38534.58
501.67	38277.12
501.84	38389.47
502.02	38604.80
502.20	39241.42
502.37	39402.92
502.55	39267.17
502.72	39344.41
502.90	39517.60
503.07	39409.94
503.25	39761.02
503.43	39405.26
503.60	39702.51
503.78	39981.03
503.95	40343.81
504.13	40266.58
504.30	40453.82
504.48	40287.64
504.65	40722.98
504.83	41062.36
505.01	41240.24
505.18	41488.34
505.36	41221.52
505.53	41450.89
505.71	41773.88
505.88	41455.57
506.06	41411.10
506.23	42045.38
506.41	42157.73
506.58	41673.24
506.76	42031.34
506.93	42323.91
507.11	42602.43
507.28	42429.23
507.46	42717.12
507.63	42363.70
507.81	43604.18
507.98	42848.19
508.16	43000.32
508.33	42787.33
508.50	43445.02
508.68	43524.60
508.85	44002.07
509.03	43409.92
509.20	43821.85
509.38	43885.04
509.55	44531.03
509.73	44095.69
509.90	44381.24
510.08	44325.07
510.25	44769.77
510.42	44844.66
510.60	45233.19
510.77	45361.92
510.95	45291.71
511.12	45071.70
511.30	45394.69
511.47	45371.28
511.64	45638.11
511.82	46087.49
511.99	45488.31
512.17	46108.55
512.34	45801.94
512.51	46539.21
512.69	46143.66
512.86	46440.91
513.04	46356.65
513.21	46663.26
513.38	46424.53
513.56	46511.13
513.73	46410.48
513.90	47299.89
514.08	47007.32
514.25	47161.79
514.43	47363.08
514.60	47222.65
514.77	47278.82
514.95	47901.40
515.12	47552.66
515.29	47597.13
515.47	47711.82
515.64	47484.79
515.81	47679.05
515.99	47669.69
516.16	48369.51
516.33	48105.03
516.51	48636.33
516.68	48594.20
516.85	48577.82
517.03	48919.54
517.20	48587.18
517.37	48687.82
517.54	48980.39
517.72	48886.77
517.89	49226.15
518.06	49008.48
518.24	49359.56
518.41	49141.89
518.58	49008.48
518.75	49401.69
518.93	49497.65
519.10	49638.08
519.27	49600.63
519.45	49858.09
519.62	49834.69
519.79	50047.68
519.96	50028.95
520.14	50071.08
520.31	49993.84
520.48	49982.14
520.65	50160.02
520.83	50798.99
521.00	50293.43
521.17	50326.20
521.34	50651.53
521.52	50801.33
521.69	50707.71
521.86	50862.18
522.03	50941.76
522.20	51285.82
522.38	51456.68
522.55	51267.09
522.72	51248.37
522.89	51379.44
523.07	51597.11
523.24	51489.45
523.41	51578.39
523.58	51374.76
523.75	51882.66
523.92	52020.75
524.10	51784.35
524.27	52151.82
524.44	52133.09
524.61	51889.68
524.78	51917.76
524.96	52292.25
525.13	52273.52
525.30	52477.15
525.47	52292.25
525.64	52322.68
525.81	52561.41
525.98	52802.49
526.16	52238.42
526.33	52659.71
526.50	53003.77
526.67	52762.70
526.84	52818.87
527.01	52942.92
527.18	52804.83
527.36	52933.56
527.53	53013.13
527.70	53331.45
527.87	53329.11
528.04	53389.96
528.21	53268.25
528.38	53563.16
528.55	53588.91
528.72	53436.77
528.89	53130.16
529.07	53244.85
529.24	53434.43
529.41	53570.18
529.58	53670.82
529.75	53661.46
529.92	53820.62
530.09	53638.06
530.26	54038.29
530.43	54155.32
530.60	53822.96
530.77	53635.72
530.94	54174.04
531.11	53886.15
531.28	54326.17
531.46	54059.35
531.63	54293.41
531.80	54106.16
531.97	54155.32
532.14	54096.80
532.31	54461.93
532.48	54501.71
532.65	54433.84
532.82	54316.81
532.99	54597.68
533.16	54361.28
533.33	54754.49
533.50	54939.39
533.67	54679.60
533.84	54688.96
534.01	54822.37
534.18	54988.55
534.35	55161.75
534.52	54871.52
534.69	55065.78
534.86	55194.51
535.03	55037.70
535.20	54894.92
535.37	55386.44
535.54	55536.23
535.71	55292.82
535.88	55517.51
536.05	55550.27
536.22	55576.02
536.38	55686.03
536.55	55398.14
536.72	55451.97
536.89	55334.95
537.06	55760.92
537.23	55845.18
537.40	55676.66
537.57	55693.05
537.74	55681.34
537.91	55938.80
538.08	55468.36
538.25	55767.94
538.42	56147.11
538.59	56259.46
538.75	55908.38
538.92	56086.26
539.09	56236.05
539.26	56231.37
539.43	56250.09
539.60	56158.81
539.77	55962.21
539.94	56563.73
540.11	56484.15
540.28	56317.97
540.44	56112.00
540.61	56442.02
540.78	56306.27
540.95	56128.39
541.12	56320.31
541.29	56591.81
541.46	56556.70
541.62	56514.58
541.79	56568.41
541.96	56442.02
542.13	56629.26
542.30	56622.24
542.47	56729.90
542.63	56657.35
542.80	56832.89
542.97	57008.43
543.14	57310.36
543.31	57088.01
543.48	57284.61
543.64	57654.42
543.81	57176.95
543.98	57301.00
544.15	57237.80
544.32	57190.99
544.48	57474.20
544.65	57331.42
544.82	57392.28
544.99	57205.03
545.16	57396.96
545.32	57602.92
545.49	57570.16
545.66	57818.25
545.83	57584.20
546.00	57453.13
546.16	57497.60
546.33	57560.79
546.50	57364.19
546.67	57656.76
546.83	57420.36
547.00	57626.33
547.17	57483.56
547.34	57867.40
547.50	57916.56
547.67	58106.14
547.84	58028.90
548.00	58078.05
548.17	58061.67
548.34	58059.33
548.51	58085.07
548.67	58363.60
548.84	58085.07
549.01	58220.83
549.18	58262.96
549.34	58269.98
549.51	57972.73
549.68	58319.13
549.84	58075.71
550.01	58424.45
550.18	58099.12
550.34	58548.50
550.51	58492.33
550.68	58405.73
550.84	58190.40
551.01	58569.57
551.18	58468.92
551.34	58314.45
551.51	58560.20
551.68	58574.25
551.84	58532.12
552.01	58602.33
552.18	58592.97
552.34	58466.58
552.51	58768.51
552.68	58370.62
552.84	58607.01
553.01	58808.30
553.18	58857.45
553.34	58995.54
553.51	58749.79
553.67	58787.24
553.84	59021.29
554.01	58890.22
554.17	58892.56
554.34	59100.87
554.51	58922.99
554.67	58880.86
554.84	58859.79
555.00	58958.09
555.17	58962.78
555.33	58969.80
555.50	58948.73
555.67	58883.20
555.83	59023.63
556.00	59121.93
556.16	59238.96
556.33	59320.88
556.50	59107.89
556.66	59473.01
556.83	59241.30
556.99	59377.05
557.16	59484.72
557.32	59463.65
557.49	59461.31
557.65	59276.41
557.82	59337.26
557.98	59241.30
558.15	59414.50
558.32	59529.19
558.48	59395.77
558.65	59391.09
558.81	59391.09
558.98	59515.14
559.14	59496.42
559.31	59592.38
559.47	59627.49
559.64	59803.03
559.80	59676.64
559.97	59714.09
560.13	59664.94
560.30	59540.89
560.46	59728.13
560.63	59772.60
560.79	59669.62
560.96	59760.90
561.12	59781.96
561.29	59639.19
561.45	59943.46
561.61	59728.13
561.78	59753.88
561.94	59749.20
562.11	59760.90
562.27	59868.56
562.44	59845.16
562.60	60053.47
562.77	59999.63
562.93	59585.36
563.10	59985.59
563.26	59800.69
563.42	60034.74
563.59	59889.63
563.75	59756.22
563.92	59929.42
564.08	59906.01
564.24	60086.23
564.41	60076.87
564.57	60009.00
564.74	60048.78
564.90	60247.73
565.07	60233.69
565.23	59807.71
565.39	60079.21
565.56	60032.40
565.72	59891.97
565.88	60025.38
566.05	60072.19
566.21	60214.96
566.38	60229.01
566.54	60268.79
566.70	60217.30
566.87	60158.79
567.03	60121.34
567.19	60362.42
567.36	60289.86
567.52	60308.58
567.68	60577.75
567.85	60226.66
568.01	60369.44
568.17	60313.26
568.34	60266.45
568.50	60406.89
568.66	60292.20
568.83	60341.35
568.99	60315.61
569.15	60280.50
569.32	60430.29
569.48	60303.90
569.64	60526.25
569.81	60390.50
569.97	60388.16
570.13	60500.51
570.30	60133.04
570.46	60331.99
570.62	60343.69
570.78	60322.63
570.95	60341.35
571.11	60507.53
571.27	60420.93
571.43	60477.10
571.60	60708.82
571.76	60619.88
571.92	60348.37
572.09	60591.79
572.25	60704.13
572.41	60439.65
572.57	60647.96
572.74	60830.52
572.90	60423.27
573.06	60566.04
573.22	60313.26
573.38	60612.85
573.55	60587.11
573.71	60729.88
573.87	60617.53
574.03	60589.45
574.20	60722.86
574.36	60575.40
574.52	60584.77
574.68	60748.60
574.84	60807.12
575.01	60610.51
575.17	60645.62
575.33	60631.58
575.49	60612.85
575.65	60788.39
575.82	60779.03
575.98	60814.14
576.14	60945.21
576.30	60762.65
576.46	60676.05
576.62	60900.74
576.79	60566.04
576.95	60540.30
577.11	60732.22
577.27	60638.60
577.43	60886.70
577.59	60610.51
577.75	60692.43
577.92	60676.05
578.08	60769.67
578.24	60626.90
578.40	60956.91
578.56	60905.42
578.72	60942.87
578.88	60970.96
579.04	60926.49
579.21	60905.42
579.37	60942.87
579.53	60842.23
579.69	60507.53
579.85	60734.56
580.01	60879.67
580.17	60516.89
580.33	60933.51
580.49	60907.76
580.65	60825.84
580.82	60825.84
580.98	60764.99
581.14	60797.76
581.30	60898.40
581.46	60903.08
581.62	60795.42
581.78	60650.30
581.94	60968.61
582.10	60903.08
582.26	60966.27
582.42	60903.08
582.58	60910.10
582.74	60860.95
582.90	60949.89
583.06	60685.41
583.22	60781.37
583.38	60898.40
583.54	60963.93
583.70	60938.19
583.86	60926.49
584.02	60886.70
584.18	60992.02
584.34	60818.82
584.50	61036.49
584.66	60795.42
584.82	60697.11
584.98	61134.79
585.14	61127.77
585.30	60863.29
585.46	61001.38
585.62	60973.30
585.78	61041.17
585.94	60907.76
586.10	60851.59
586.26	61069.26
586.42	60992.02
586.58	61113.73
586.74	61001.38
586.90	60931.17
587.06	60999.04
587.22	60961.59
587.38	61038.83
587.54	61130.11
587.70	61226.07
587.86	61085.64
588.02	61057.56
588.18	61125.43
588.34	61120.75
588.49	60999.04
