SpectraSuite Data File
++++++++++++++++++++++++++++++++++++
Date: Fri Oct 25 11:33:50 EDT 2013
User: price-jones
Dark Spectrum Present: No
Reference Spectrum Present: No
Number of Sampled Component Spectra: 1
Spectrometers: USB2+H05261
Integration Time (usec): 100000 (USB2+H05261)
Spectra Averaged: 1 (USB2+H05261)
Boxcar Smoothing: 0 (USB2+H05261)
Correct for Electrical Dark: No (USB2+H05261)
Strobe/Lamp Enabled: No (USB2+H05261)
Correct for Detector Non-linearity: No (USB2+H05261)
Correct for Stray Light: No (USB2+H05261)
Number of Pixels in Processed Spectrum: 2048
>>>>>Begin Processed Spectral Data<<<<<
365.73	306.61
365.92	306.61
366.12	306.61
366.32	238.73
366.52	154.48
366.72	276.18
366.91	273.84
367.11	138.09
367.31	70.22
367.51	135.75
367.70	161.50
367.90	236.39
368.10	161.50
368.30	119.37
368.49	205.97
368.69	208.31
368.89	184.90
369.09	168.52
369.28	227.03
369.48	222.35
369.68	173.20
369.87	248.10
370.07	266.82
370.27	287.89
370.47	386.19
370.66	423.64
370.86	489.17
371.06	482.15
371.25	528.96
371.45	557.05
371.65	528.96
371.84	545.34
372.04	505.56
372.24	568.75
372.44	535.98
372.63	617.90
372.83	585.13
373.03	573.43
373.22	573.43
373.42	622.58
373.62	622.58
373.81	596.84
374.01	716.20
374.21	603.86
374.40	667.05
374.60	653.01
374.79	664.71
374.99	587.47
375.19	678.76
375.38	685.78
375.58	645.99
375.78	730.25
375.97	744.29
376.17	720.88
376.37	669.39
376.56	580.45
376.76	723.23
376.95	543.00
377.15	617.90
377.35	709.18
377.54	753.65
377.74	744.29
377.93	636.63
378.13	624.92
378.33	676.41
378.52	748.97
378.72	821.53
378.91	751.31
379.11	697.48
379.31	660.03
379.50	706.84
379.70	711.52
379.89	758.33
380.09	713.86
380.28	692.80
380.48	746.63
380.68	725.57
380.87	739.61
381.07	814.51
381.26	755.99
381.46	737.27
381.65	882.38
381.85	774.72
382.04	784.08
382.24	866.00
382.43	753.65
382.63	713.86
382.83	741.95
383.02	777.06
383.22	863.66
383.41	849.61
383.61	763.01
383.80	763.01
384.00	828.55
384.19	861.32
384.39	901.11
384.58	807.48
384.78	830.89
384.97	896.43
385.17	751.31
385.36	894.08
385.56	873.02
385.75	755.99
385.95	828.55
386.14	901.11
386.34	819.19
386.53	842.59
386.72	858.98
386.92	819.19
387.11	844.93
387.31	940.90
387.50	926.85
387.70	896.43
387.89	887.06
388.09	922.17
388.28	922.17
388.48	898.77
388.67	910.47
388.86	889.40
389.06	985.37
389.25	887.06
389.45	978.34
389.64	1055.58
389.84	931.53
390.03	912.81
390.22	910.47
390.42	931.53
390.61	866.00
390.81	957.28
391.00	961.96
391.19	990.05
391.39	1013.45
391.58	1074.31
391.78	999.41
391.97	1078.99
392.16	1025.15
392.36	1039.20
392.55	990.05
392.75	1053.24
392.94	1048.56
393.13	1011.11
393.33	1032.18
393.52	1015.79
393.71	1123.46
393.91	1130.48
394.10	1107.07
394.29	1121.12
394.49	1116.44
394.68	1118.78
394.88	1137.50
395.07	1146.86
395.26	1200.69
395.46	1132.82
395.65	1160.91
395.84	1160.91
396.04	1153.88
396.23	1132.82
396.42	1163.25
396.62	1174.95
396.81	1132.82
397.00	1224.10
397.19	1231.12
397.39	1224.10
397.58	1186.65
397.77	1203.04
397.97	1327.08
398.16	1275.59
398.35	1270.91
398.55	1238.14
398.74	1320.06
398.93	1411.34
399.12	1261.55
399.32	1331.76
399.51	1324.74
399.70	1362.19
399.90	1331.76
400.09	1324.74
400.28	1451.13
400.47	1324.74
400.67	1357.51
400.86	1411.34
401.05	1345.81
401.24	1448.79
401.44	1476.88
401.63	1504.96
401.82	1394.96
402.01	1413.68
402.21	1483.90
402.40	1511.99
402.59	1441.77
402.78	1537.73
402.97	1495.60
403.17	1603.27
403.36	1404.32
403.55	1533.05
403.74	1582.20
403.93	1507.30
404.13	1596.25
404.32	1596.25
404.51	1523.69
404.70	1544.75
404.89	1577.52
405.09	1717.95
405.28	1724.97
405.47	1755.40
405.66	1685.19
405.85	1624.33
406.05	1652.42
406.24	1661.78
406.43	1699.23
406.62	1755.40
406.81	1764.76
407.00	1743.70
407.20	1851.36
407.39	1837.32
407.58	1713.27
407.77	1809.23
407.96	1870.09
408.15	1916.90
408.34	1949.67
408.54	1900.52
408.73	1893.49
408.92	1991.80
409.11	1998.82
409.30	1937.96
409.49	1952.01
409.68	2043.29
409.87	1989.46
410.07	2022.22
410.26	1940.30
410.45	2169.68
410.64	2026.90
410.83	2094.78
411.02	2043.29
411.21	2132.23
411.40	2036.27
411.59	2085.42
411.78	2260.96
411.98	2221.17
412.17	2265.64
412.36	2342.88
412.55	2284.36
412.74	2373.30
412.93	2373.30
413.12	2282.02
413.31	2396.71
413.50	2427.14
413.69	2438.84
413.88	2368.62
414.07	2497.35
414.26	2399.05
414.45	2490.33
414.64	2502.03
414.83	2614.38
415.02	2534.80
415.22	2644.81
415.41	2670.55
415.60	2677.57
415.79	2764.17
415.98	2839.07
416.17	2710.34
416.36	2630.76
416.55	2747.79
416.74	2717.36
416.93	2801.62
417.12	2768.85
417.31	2930.35
417.50	2843.75
417.69	2899.92
417.88	2937.37
418.07	2899.92
418.26	2960.78
418.45	2881.20
418.64	3077.80
418.83	3059.08
419.02	3091.85
419.21	3045.04
419.39	3063.76
419.58	3101.21
419.77	3129.30
419.96	3089.51
420.15	3211.22
420.34	3131.64
420.53	3070.78
420.72	3304.84
420.91	3337.60
421.10	3304.84
421.29	3199.51
421.48	3222.92
421.67	3281.43
421.86	3232.28
422.05	3393.78
422.24	3283.77
422.43	3375.05
422.61	3426.54
422.80	3438.25
422.99	3290.79
423.18	3384.41
423.37	3503.78
423.56	3311.86
423.75	3480.38
423.94	3428.88
424.13	3232.28
424.32	3248.66
424.50	3459.31
424.69	3595.06
424.88	3414.84
425.07	3335.26
425.26	3314.20
425.45	3499.10
425.64	3492.08
425.83	3342.28
426.01	3529.53
426.20	3522.51
426.39	3466.33
426.58	3475.70
426.77	3576.34
426.96	3609.11
427.15	3501.44
427.33	3447.61
427.52	3566.98
427.71	3749.54
427.90	3522.51
428.09	3606.77
428.28	3529.53
428.46	3632.51
428.65	3609.11
428.84	3723.79
429.03	3721.45
429.22	3721.45
429.40	3824.44
429.59	3632.51
429.78	3648.90
429.97	3655.92
430.16	3740.18
430.34	3836.14
430.53	4053.81
430.72	3777.62
430.91	3786.99
431.10	3906.35
431.28	3918.06
431.47	3896.99
431.66	4030.40
431.85	3997.64
432.03	4007.00
432.22	4198.92
432.41	4084.23
432.60	3995.29
432.79	4037.42
432.97	4140.41
433.16	4142.75
433.35	4086.58
433.54	4168.49
433.72	4245.73
433.91	4159.13
434.10	4135.73
434.28	4140.41
434.47	4175.52
434.66	4461.06
434.85	4231.69
435.03	4353.40
435.22	4292.54
435.41	4512.55
435.59	4397.87
435.78	4435.32
435.97	4416.59
436.16	4414.25
436.34	4315.95
436.53	4402.55
436.72	4664.69
436.90	4468.08
437.09	4622.56
437.28	4512.55
437.46	4444.68
437.65	4545.32
437.84	4493.83
438.02	4681.07
438.21	4725.54
438.40	4505.53
438.58	4844.91
438.77	4662.35
438.96	4692.77
439.14	4945.55
439.33	4795.76
439.52	4863.63
439.70	4884.70
439.89	4990.02
440.08	4957.25
440.26	5015.77
440.45	5053.22
440.63	4987.68
440.82	5125.77
441.01	5064.92
441.19	5184.29
441.38	5282.59
441.57	5366.85
441.75	5301.31
441.94	5394.93
442.12	5376.21
442.31	5385.57
442.50	5502.60
442.68	5273.23
442.87	5338.76
443.05	5526.00
443.24	5572.82
443.43	5479.19
443.61	5458.13
443.80	5738.99
443.98	5636.01
444.17	5282.59
444.35	5547.07
444.54	5694.52
444.73	5589.20
444.91	5516.64
445.10	5659.42
445.28	5558.77
445.47	5626.65
445.65	5710.91
445.84	5701.54
446.02	5708.57
446.21	5790.49
446.39	5652.39
446.58	5671.12
446.77	5750.70
446.95	5584.52
447.14	5757.72
447.32	5799.85
447.51	5652.39
447.69	5729.63
447.88	5710.91
448.06	5792.83
448.25	5797.51
448.43	5837.30
448.62	5888.79
448.80	5827.93
448.99	5856.02
449.17	5930.92
449.36	5839.64
449.54	5959.00
449.73	6050.28
449.91	6125.18
450.10	6017.52
450.28	6122.84
450.46	6120.50
450.65	6066.67
450.83	6057.31
451.02	6066.67
451.20	6204.76
451.39	6361.58
451.57	6242.21
451.76	5968.37
451.94	6019.86
452.13	6326.47
452.31	6235.19
452.49	6293.70
452.68	6258.59
452.86	6209.44
453.05	6209.44
453.23	6352.21
453.42	6331.15
453.60	6314.77
453.78	6499.67
453.97	6406.05
454.15	6466.90
454.34	6347.53
454.52	6487.96
454.70	6544.14
454.89	6494.99
455.07	6700.95
455.26	6600.31
455.44	6696.27
455.62	6457.54
455.81	6616.69
455.99	6677.55
456.17	6799.26
456.36	6825.00
456.54	6925.65
456.73	6897.56
456.91	7253.32
457.09	7176.08
457.28	6942.03
457.46	6991.18
457.64	7087.14
457.83	7110.55
458.01	7012.24
458.19	7157.36
458.38	7026.29
458.56	7199.49
458.74	7360.98
458.93	7098.84
459.11	7110.55
459.29	7073.10
459.48	7066.08
459.66	7157.36
459.84	7307.15
460.03	7382.05
460.21	7316.51
460.39	7344.60
460.57	7349.28
460.76	7335.24
460.94	7515.46
461.12	7426.52
461.31	7428.86
461.49	7419.50
461.67	7576.31
461.85	7627.81
462.04	7688.66
462.22	7920.37
462.40	7791.64
462.59	7733.13
462.77	7686.32
462.95	7545.89
463.13	7751.85
463.32	7681.64
463.50	7918.03
463.68	7805.69
463.86	7896.97
464.05	7953.14
464.23	7815.05
464.41	7962.50
464.59	7831.43
464.78	8168.47
464.96	8159.11
465.14	8072.51
465.32	8121.66
465.50	8105.28
465.69	7960.16
465.87	7906.33
466.05	8262.09
466.23	7861.86
466.41	8086.55
466.60	8395.50
466.78	8109.96
466.96	8121.66
467.14	8121.66
467.32	8004.63
467.51	8428.27
467.69	8238.69
467.87	8280.82
468.05	8521.89
468.23	8273.79
468.41	8243.37
468.60	8320.60
468.78	8561.68
468.96	8414.23
469.14	8620.19
469.32	8554.66
469.50	8428.27
469.69	8395.50
469.87	8667.00
470.05	8610.83
470.23	8688.07
470.41	8858.93
470.59	8791.05
470.77	8854.25
470.95	8922.12
471.14	8903.40
471.32	8777.01
471.50	9069.58
471.68	9022.77
471.86	8954.89
472.04	9118.73
472.22	9352.78
472.40	9156.18
472.58	9123.41
472.77	9327.03
472.95	9434.70
473.13	9348.10
473.31	9364.48
473.49	9301.29
473.67	9483.85
473.85	9547.05
474.03	9570.45
474.21	9432.36
474.39	9975.36
474.57	9703.86
474.75	9912.17
474.93	9984.73
475.12	10019.83
475.30	10118.14
475.48	10029.20
475.66	10242.18
475.84	9942.60
476.02	10047.92
476.20	10202.40
476.38	10377.94
476.56	10420.06
476.74	10579.22
476.92	10621.35
477.10	10452.83
477.28	10633.05
477.46	10651.78
477.64	11108.18
477.82	11145.63
478.00	11169.04
478.18	11066.05
478.36	11276.70
478.54	11412.45
478.72	11293.08
478.90	11456.92
479.08	11660.55
479.26	11763.53
479.44	11730.76
479.62	11793.96
479.80	11751.83
479.98	11992.90
480.16	12030.35
480.34	12131.00
480.52	12491.44
480.70	12170.79
480.88	12210.57
481.06	12479.74
481.24	12217.60
481.41	12500.80
481.59	12725.49
481.77	12716.13
481.95	13039.12
482.13	13046.15
482.31	12882.31
482.49	13195.94
482.67	13226.37
482.85	13446.38
483.03	13371.48
483.21	13846.61
483.39	13926.19
483.57	13734.26
483.74	13841.93
483.92	14050.24
484.10	13895.76
484.28	14359.19
484.46	14506.64
484.64	14747.72
484.82	14567.49
485.00	14492.60
485.18	14766.44
485.35	14909.21
485.53	14661.12
485.71	15234.55
485.89	15405.41
486.07	15211.14
486.25	15590.31
486.43	15557.54
486.61	15632.44
486.78	15676.91
486.96	15758.83
487.14	16119.27
487.32	16042.03
487.50	16123.95
487.68	16470.35
487.85	16575.67
488.03	16655.25
488.21	16805.05
488.39	17003.99
488.57	16826.11
488.75	17298.90
488.92	17273.15
489.10	17537.63
489.28	17600.83
489.46	17708.49
489.64	17731.90
489.81	17977.65
489.99	17879.35
490.17	18068.94
490.35	18459.81
490.53	18548.75
490.70	18710.24
490.88	18499.59
491.06	18848.33
491.24	18984.09
491.41	19080.05
491.59	18946.64
491.77	19208.78
491.95	18984.09
492.13	19487.30
492.30	19496.66
492.48	19468.58
492.66	19562.20
492.84	19957.75
493.01	19967.11
493.19	19990.52
493.37	20460.96
493.54	20610.76
493.72	20547.56
493.90	20671.61
494.08	20755.87
494.25	20699.70
494.43	20854.17
494.61	21064.82
494.79	21226.32
494.96	21394.84
495.14	21364.41
495.32	21755.28
495.49	21806.77
495.67	21823.16
495.85	22064.23
496.02	21963.59
496.20	22216.36
496.38	22085.30
496.55	22424.67
496.73	23234.50
496.91	22445.74
497.09	22799.16
497.26	23009.81
497.44	22895.12
497.62	23129.17
497.79	23552.81
497.97	23084.70
498.14	23651.11
498.32	23812.61
498.50	23466.21
498.67	23843.04
498.85	23564.51
499.03	24194.12
499.20	24009.22
499.38	24367.32
499.56	24474.98
499.73	24411.79
499.91	24692.65
500.08	24856.49
500.26	24486.68
500.44	24961.81
500.61	24788.61
500.79	24793.29
500.97	25127.99
501.14	25455.67
501.32	25289.49
501.49	25088.20
501.67	25333.96
501.84	25586.74
502.02	25450.99
502.20	25619.50
502.37	25649.93
502.55	25612.48
502.72	25848.88
502.90	26167.19
503.07	26167.19
503.25	26424.65
503.43	25844.20
503.60	26188.25
503.78	26441.03
503.95	26001.01
504.13	26684.45
504.30	26548.70
504.48	26728.92
504.65	26464.44
504.83	26890.41
505.01	27246.18
505.18	26965.31
505.36	27030.85
505.53	27234.47
505.71	27365.54
505.88	27414.69
506.06	27131.49
506.23	27379.59
506.41	27637.05
506.58	27473.21
506.76	27618.32
506.93	28175.37
507.11	28025.57
507.28	28191.75
507.46	28254.95
507.63	28425.81
507.81	28154.30
507.98	27906.21
508.16	28280.69
508.33	28891.57
508.50	28250.27
508.68	28826.04
508.85	28659.86
509.03	28542.83
509.20	28716.03
509.38	29186.48
509.55	29296.49
509.73	28868.17
509.90	29542.24
510.08	29291.80
510.25	29677.99
510.42	29481.39
510.60	29472.03
510.77	29656.93
510.95	30155.46
511.12	29586.71
511.30	29687.36
511.47	29975.24
511.64	29710.76
511.82	30246.74
511.99	30768.68
512.17	30459.73
512.34	30106.31
512.51	30785.07
512.69	30747.62
512.86	30672.72
513.04	31044.87
513.21	30899.75
513.38	31033.16
513.56	31431.05
513.73	31082.31
513.90	31164.23
514.08	30700.81
514.25	31447.44
514.43	31452.12
514.60	31449.78
514.77	31704.90
514.95	31564.46
515.12	31456.80
515.29	31969.38
515.47	31803.20
515.64	32208.11
515.81	31646.38
515.99	32114.49
516.16	32112.15
516.33	32589.62
516.51	32390.67
516.68	32011.51
516.85	32437.48
517.03	32608.34
517.20	32708.99
517.37	32374.29
517.54	32687.92
517.72	32704.31
517.89	32821.33
518.06	33181.77
518.24	32905.59
518.41	32900.91
518.58	33418.17
518.75	32830.69
518.93	33230.93
519.10	32933.68
519.27	33366.68
519.45	33556.26
519.62	33738.82
519.79	33446.26
519.96	33802.02
520.14	33766.91
520.31	33839.47
520.48	33666.27
520.65	33979.90
520.83	34288.85
521.00	34436.30
521.17	34288.85
521.34	34384.81
521.52	34553.33
521.69	34366.09
521.86	34583.76
522.03	34794.40
522.20	34993.35
522.38	34965.26
522.55	35152.51
522.72	35047.18
522.89	34562.69
523.07	35091.65
523.24	34836.53
523.41	35161.87
523.58	34906.75
523.75	35363.15
523.92	35264.85
524.10	35232.08
524.27	35552.74
524.44	35697.85
524.61	35604.23
524.78	35629.98
524.96	35887.43
525.13	35915.52
525.30	36161.28
525.47	36191.70
525.64	36254.90
525.81	36409.37
525.98	36332.14
526.16	36119.15
526.33	36116.81
526.50	36009.14
526.67	35969.35
526.84	36348.52
527.01	36341.50
527.18	36622.36
527.36	36788.54
527.53	36488.95
527.70	37109.19
527.87	36898.55
528.04	37134.94
528.21	37113.87
528.38	36985.15
528.55	36987.49
528.72	36947.70
528.89	37289.42
529.07	37228.56
529.24	36671.51
529.41	37240.26
529.58	37408.78
529.75	37577.30
529.92	37488.36
530.09	37694.33
530.26	37738.80
530.43	38110.94
530.60	37464.96
530.77	37958.81
530.94	37563.26
531.11	37713.05
531.28	37771.57
531.46	37881.57
531.63	38012.64
531.80	38146.05
531.97	38146.05
532.14	38394.15
532.31	38033.71
532.48	38525.22
532.65	38850.55
532.82	38422.23
532.99	38363.72
533.16	38459.68
533.33	38073.49
533.50	38698.42
533.67	38827.15
533.84	38433.94
534.01	38363.72
534.18	38761.61
534.35	39318.66
534.52	39145.46
534.69	39419.30
534.86	39309.30
535.03	38953.54
535.20	39278.87
535.37	39533.99
535.54	39445.05
535.71	39423.98
535.88	39599.52
536.05	39681.44
536.22	39730.59
536.38	39791.45
536.55	39299.94
536.72	39318.66
536.89	39276.53
537.06	39817.19
537.23	40023.16
537.40	39814.85
537.57	39548.03
537.74	39786.77
537.91	40350.84
538.08	39943.58
538.25	39538.67
538.42	40069.97
538.59	40907.88
538.75	40329.77
538.92	40086.36
539.09	40287.64
539.26	40519.35
539.43	39985.71
539.60	40542.76
539.77	39938.90
539.94	40790.86
540.11	40634.04
540.28	40566.16
540.44	40542.76
540.61	40973.42
540.78	40645.74
540.95	40577.87
541.12	40645.74
541.29	40795.54
541.46	40825.96
541.62	40961.72
541.79	41317.48
541.96	40582.55
542.13	40912.56
542.30	40840.01
542.47	41120.87
542.63	41057.68
542.80	41301.09
542.97	41764.52
543.14	41532.81
543.31	41729.41
543.48	41198.11
543.64	42099.22
543.81	42026.66
543.98	42103.90
544.15	41818.35
544.32	42113.26
544.48	42639.88
544.65	42026.66
544.82	42295.82
544.99	41881.55
545.16	42284.12
545.32	42155.39
545.49	42522.85
545.66	42277.10
545.83	42136.66
546.00	42635.20
546.16	42384.76
546.33	42384.76
546.50	42096.88
546.67	42417.53
546.83	42073.47
547.00	42363.70
547.17	42602.43
547.34	42431.57
547.50	42937.13
547.67	43187.56
547.84	42663.28
548.00	43035.43
548.17	43056.50
548.34	43051.81
548.51	43388.85
548.67	43283.53
548.84	43367.79
549.01	43302.25
549.18	43185.22
549.34	43470.77
549.51	43330.34
549.68	43517.58
549.84	43248.42
550.01	43255.44
550.18	43044.79
550.34	43466.09
550.51	43349.06
550.68	43674.40
550.84	43292.89
551.01	43634.61
551.18	43433.32
551.34	43613.54
551.51	43550.35
551.68	43868.66
551.84	43569.07
552.01	43531.62
552.18	43915.47
552.34	43674.40
552.51	43913.13
552.68	43742.27
552.84	43913.13
553.01	44201.02
553.18	43564.39
553.34	44011.43
553.51	43873.34
553.67	44058.24
553.84	44304.00
554.01	44095.69
554.17	44229.10
554.34	44364.85
554.51	44217.40
554.67	44779.13
554.84	44662.10
555.00	44179.95
555.17	44519.33
555.33	44655.08
555.50	44556.78
555.67	44870.41
555.83	44378.90
556.00	44589.55
556.16	45001.48
556.33	44847.00
556.50	44554.44
556.66	44760.40
556.83	44446.77
556.99	44779.13
557.16	45233.19
557.32	45338.52
557.49	45146.59
557.65	44865.73
557.82	44863.39
557.98	44926.58
558.15	44538.05
558.32	45078.72
558.48	45102.12
558.65	45200.43
558.81	45179.36
558.98	44912.54
559.14	45083.40
559.31	44910.20
559.47	45490.65
559.64	45478.95
559.80	45130.21
559.97	45270.64
560.13	44868.07
560.30	45600.66
560.46	45696.62
560.63	45485.97
560.79	45258.94
560.96	45743.43
561.12	45907.27
561.29	45935.35
561.45	45591.30
561.61	45773.86
561.78	45453.20
561.94	45289.37
562.11	45296.39
562.27	45291.71
562.44	45502.35
562.60	45638.11
562.77	45593.64
562.93	45305.75
563.10	45610.02
563.26	45975.14
563.42	46391.76
563.59	45872.16
563.75	45764.49
563.92	45848.75
564.08	46136.64
564.24	45996.21
564.41	45720.02
564.57	45940.04
564.74	46068.76
564.90	45830.03
565.07	45617.04
565.23	45867.48
565.39	46103.87
565.56	45956.42
565.72	46171.75
565.88	45825.35
566.05	46050.04
566.21	45972.80
566.38	45975.14
566.54	46225.58
566.70	46075.79
566.87	46373.03
567.03	46230.26
567.19	46347.29
567.36	46314.52
567.52	46099.19
567.68	46550.91
567.85	46293.46
568.01	45954.08
568.17	46459.63
568.34	46726.46
568.50	46160.05
568.66	45862.80
568.83	46256.01
568.99	45900.25
569.15	46181.11
569.32	46684.33
569.48	46525.17
569.64	46553.26
569.81	46681.98
569.97	46679.64
570.13	46574.32
570.30	46129.62
570.46	46190.47
570.62	46710.07
570.78	46501.76
570.95	46483.04
571.11	46897.31
571.27	46520.49
571.43	46244.30
571.60	46791.99
571.76	46452.61
571.92	46232.60
572.09	46525.17
572.25	46501.76
572.41	46342.61
572.57	46639.86
572.74	47035.41
572.90	46391.76
573.06	46560.28
573.22	47072.85
573.38	46211.54
573.55	46871.57
573.71	46784.97
573.87	46504.10
574.03	46913.70
574.20	46808.37
574.36	46724.11
574.52	46855.18
574.68	46581.34
574.84	47351.38
575.01	46817.74
575.17	47157.11
575.33	47363.08
575.49	46639.86
575.65	47021.36
575.82	46806.03
575.98	46852.84
576.14	46995.62
576.30	47302.23
576.46	46827.10
576.62	46918.38
576.79	46756.88
576.95	46216.22
577.11	46717.09
577.27	46689.01
577.43	46937.10
577.59	46834.12
577.75	46689.01
577.92	46443.25
578.08	47019.02
578.24	47051.79
578.40	47054.13
578.56	46770.93
578.72	46649.22
578.88	47243.71
579.04	47157.11
579.21	46820.08
579.37	47290.52
579.53	47103.28
579.69	46602.41
579.85	47107.96
580.01	47063.49
580.17	46773.27
580.33	46796.67
580.49	46974.55
580.65	46876.25
580.82	47096.26
580.98	47143.07
581.14	46623.47
581.30	47154.77
581.46	46693.69
581.62	47131.37
581.78	46871.57
581.94	47161.79
582.10	47033.07
582.26	47522.24
582.42	47035.41
582.58	46850.50
582.74	46862.21
582.90	47304.57
583.06	47147.75
583.22	46700.71
583.38	47208.61
583.54	47430.96
583.70	47466.06
583.86	47239.03
584.02	47063.49
584.18	47133.71
584.34	46876.25
584.50	47473.09
584.66	47004.98
584.82	47452.02
584.98	47721.18
585.14	47440.32
585.30	47009.66
585.46	47770.33
585.62	47255.42
585.78	47569.05
585.94	46930.08
586.10	47393.51
586.26	46672.62
586.42	47051.79
586.58	46993.28
586.74	46906.68
586.90	47054.13
587.06	47175.84
587.22	47257.76
587.38	46866.89
587.54	47384.15
587.70	47524.58
587.86	46932.42
588.02	47180.52
588.18	47000.30
588.34	47161.79
588.49	47381.80
588.65	47112.64
588.81	47489.47
588.97	47758.63
589.13	47145.41
589.29	47302.23
589.45	47447.34
589.61	47702.46
589.77	47796.08
589.93	47519.90
590.08	47882.68
