SpectraSuite Data File
++++++++++++++++++++++++++++++++++++
Date: Fri Oct 25 11:22:38 EDT 2013
User: price-jones
Dark Spectrum Present: No
Reference Spectrum Present: No
Number of Sampled Component Spectra: 1
Spectrometers: USB2+H05261
Integration Time (usec): 100000 (USB2+H05261)
Spectra Averaged: 1 (USB2+H05261)
Boxcar Smoothing: 0 (USB2+H05261)
Correct for Electrical Dark: No (USB2+H05261)
Strobe/Lamp Enabled: No (USB2+H05261)
Correct for Detector Non-linearity: No (USB2+H05261)
Correct for Stray Light: No (USB2+H05261)
Number of Pixels in Processed Spectrum: 2048
>>>>>Begin Processed Spectral Data<<<<<
365.73	236.39
365.92	236.39
366.12	236.39
366.32	140.43
366.52	107.66
366.72	98.30
366.91	79.58
367.11	102.98
367.31	117.03
367.51	124.05
367.70	124.05
367.90	128.73
368.10	93.62
368.30	56.17
368.49	119.37
368.69	114.69
368.89	121.71
369.09	168.52
369.28	156.82
369.48	121.71
369.68	220.01
369.87	189.58
370.07	231.71
370.27	257.46
370.47	395.55
370.66	585.13
370.86	631.94
371.06	627.26
371.25	758.33
371.45	655.35
371.65	697.48
371.84	704.50
372.04	641.31
372.24	631.94
372.44	730.25
372.63	704.50
372.83	711.52
373.03	774.72
373.22	662.37
373.42	748.97
373.62	676.41
373.81	760.67
374.01	718.54
374.21	830.89
374.40	718.54
374.60	849.61
374.79	758.33
374.99	828.55
375.19	821.53
375.38	905.79
375.58	849.61
375.78	795.78
375.97	819.19
376.17	891.74
376.37	891.74
376.56	823.87
376.76	952.60
376.95	926.85
377.15	929.19
377.35	870.68
377.54	863.66
377.74	847.27
377.93	922.17
378.13	908.13
378.33	908.13
378.52	870.68
378.72	929.19
378.91	980.68
379.11	896.43
379.31	1001.75
379.50	985.37
379.70	990.05
379.89	959.62
380.09	901.11
380.28	936.21
380.48	933.87
380.68	1034.52
380.87	933.87
381.07	945.58
381.26	1043.88
381.46	952.60
381.65	1116.44
381.85	1057.92
382.04	1027.50
382.24	1032.18
382.43	1118.78
382.63	997.07
382.83	1050.90
383.02	1100.05
383.22	1086.01
383.41	1083.67
383.61	1125.80
383.80	1144.52
384.00	1151.54
384.19	1083.67
384.39	1114.10
384.58	1086.01
384.78	1156.22
384.97	1128.14
385.17	1036.86
385.36	1095.37
385.56	1214.74
385.75	1123.46
385.95	1118.78
386.14	1228.78
386.34	1245.16
386.53	1200.69
386.72	1163.25
386.92	1254.53
387.11	1224.10
387.31	1282.61
387.50	1303.68
387.70	1205.38
387.89	1228.78
388.09	1240.48
388.28	1289.64
388.48	1188.99
388.67	1242.82
388.86	1266.23
389.06	1371.55
389.25	1306.02
389.45	1296.66
389.64	1266.23
389.84	1394.96
390.03	1390.28
390.22	1437.09
390.42	1299.00
390.61	1320.06
390.81	1341.13
391.00	1390.28
391.19	1446.45
391.39	1394.96
391.58	1441.77
391.78	1488.58
391.97	1488.58
392.16	1378.58
392.36	1572.84
392.55	1582.20
392.75	1579.86
392.94	1526.03
393.13	1535.39
393.33	1530.71
393.52	1554.12
393.71	1589.22
393.91	1631.35
394.10	1586.88
394.29	1643.06
394.49	1668.80
394.68	1654.76
394.88	1636.03
395.07	1619.65
395.26	1650.08
395.46	1617.31
395.65	1708.59
395.84	1661.78
396.04	1746.04
396.23	1760.08
396.42	1776.47
396.62	1790.51
396.81	1823.28
397.00	1785.83
397.19	1816.26
397.39	1769.44
397.58	1813.92
397.77	1912.22
397.97	1776.47
398.16	1856.04
398.35	1902.86
398.55	1893.49
398.74	1935.62
398.93	2005.84
399.12	1867.75
399.32	1942.64
399.51	1994.14
399.70	1940.30
399.90	1987.11
400.09	2029.24
400.28	2129.89
400.47	1966.05
400.67	2153.29
400.86	2062.01
401.05	2031.58
401.24	2031.58
401.44	2076.06
401.63	2087.76
401.82	2111.16
402.01	2097.12
402.21	2136.91
402.40	2230.53
402.59	2246.91
402.78	2256.28
402.97	2293.72
403.17	2263.30
403.36	2188.40
403.55	2260.96
403.74	2300.75
403.93	2436.50
404.13	2429.48
404.32	2443.52
404.51	2340.54
404.70	2352.24
404.89	2392.03
405.09	2516.08
405.28	2532.46
405.47	2593.31
405.66	2551.18
405.85	2427.14
406.05	2504.37
406.24	2455.22
406.43	2605.02
406.62	2740.77
406.81	2743.11
407.00	2576.93
407.20	2588.63
407.39	2691.62
407.58	2726.72
407.77	2827.37
407.96	2806.30
408.15	2715.02
408.34	2778.22
408.54	2832.05
408.73	2850.77
408.92	2815.66
409.11	2911.63
409.30	2939.71
409.49	3016.95
409.68	2946.73
409.87	2834.39
410.07	3049.72
410.26	3094.19
410.45	3073.12
410.64	3040.36
410.83	3129.30
411.02	3150.36
411.21	3171.43
411.40	3304.84
411.59	3279.09
411.78	3232.28
411.98	3274.41
412.17	3361.01
412.36	3398.46
412.55	3274.41
412.74	3421.86
412.93	3435.91
413.12	3239.30
413.31	3496.76
413.50	3466.33
413.69	3513.14
413.88	3714.43
414.07	3651.24
414.26	3585.70
414.45	3705.07
414.64	3695.71
414.83	3791.67
415.02	3775.28
415.22	3817.41
415.41	3976.57
415.60	3953.16
415.79	3824.44
415.98	3999.98
416.17	3978.91
416.36	3922.74
416.55	4002.32
416.74	4105.30
416.93	4126.36
417.12	4142.75
417.31	4245.73
417.50	4114.66
417.69	4444.68
417.88	4400.21
418.07	4297.22
418.26	4306.59
418.45	4374.46
418.64	4348.72
418.83	4407.23
419.02	4425.95
419.21	4564.04
419.39	4440.00
419.58	4423.61
419.77	4400.21
419.96	4615.54
420.15	4739.58
420.34	4676.39
420.53	4660.01
420.72	4844.91
420.91	4599.15
421.10	4833.21
421.29	4730.22
421.48	4695.11
421.67	4863.63
421.86	4844.91
422.05	4744.27
422.24	4784.06
422.43	4826.18
422.61	4919.81
422.80	5004.07
422.99	4882.36
423.18	4926.83
423.37	5050.88
423.56	4884.70
423.75	4889.38
423.94	4868.31
424.13	4655.33
424.32	4690.43
424.50	5090.67
424.69	5221.74
424.88	5093.01
425.07	5043.85
425.26	4894.06
425.45	5144.50
425.64	5027.47
425.83	5123.43
426.01	4978.32
426.20	4978.32
426.39	5060.24
426.58	5008.75
426.77	5048.54
426.96	5149.18
427.15	5172.58
427.33	5188.97
427.52	5284.93
427.71	5219.39
427.90	5282.59
428.09	5203.01
428.28	5390.25
428.46	5329.40
428.65	5341.10
428.84	5437.06
429.03	5530.69
429.22	5413.66
429.40	5458.13
429.59	5366.85
429.78	5254.50
429.97	5132.79
430.16	5570.48
430.34	5689.84
430.53	5664.10
430.72	5678.14
430.91	5673.46
431.10	5673.46
431.28	5849.00
431.47	5774.10
431.66	5753.04
431.85	5921.56
432.03	6080.71
432.22	6083.05
432.41	5935.60
432.60	6024.54
432.79	5968.37
432.97	6087.73
433.16	6169.65
433.35	6162.63
433.54	6104.12
433.72	6076.03
433.91	6167.31
434.10	6106.46
434.28	6127.52
434.47	6188.38
434.66	6436.47
434.85	6314.77
435.03	6181.35
435.22	6125.18
435.41	6466.90
435.59	6413.07
435.78	6401.37
435.97	6436.47
436.16	6469.24
436.34	6502.01
436.53	6626.06
436.72	6733.72
436.90	6303.06
437.09	6707.98
437.28	6579.25
437.46	6511.37
437.65	6590.95
437.84	6778.19
438.02	6703.29
438.21	7129.27
438.40	6719.68
438.58	7178.42
438.77	7265.02
438.96	7049.69
439.14	7201.83
439.33	7077.78
439.52	7276.73
439.70	7126.93
439.89	7573.97
440.08	7578.65
440.26	7262.68
440.45	7236.94
440.63	7431.20
440.82	7578.65
441.01	7508.44
441.19	7543.55
441.38	7660.57
441.57	7833.77
441.75	7641.85
441.94	7948.46
442.12	8002.29
442.31	8053.78
442.50	7960.16
442.68	8187.19
442.87	8135.70
443.05	8159.11
443.24	8313.58
443.43	8159.11
443.61	8212.94
443.80	8362.73
443.98	8327.63
444.17	7859.52
444.35	8294.86
444.54	8456.36
444.73	8184.85
444.91	8479.76
445.10	8313.58
445.28	8372.10
445.47	8355.71
445.65	8365.07
445.84	8542.96
446.02	8547.64
446.21	8421.25
446.39	8514.87
446.58	8585.08
446.77	8540.61
446.95	8353.37
447.14	8369.76
447.32	8631.90
447.51	8449.33
447.69	8327.63
447.88	8557.00
448.06	8704.45
448.25	8418.91
448.43	8641.26
448.62	8671.68
448.80	8601.47
448.99	8594.45
449.17	8699.77
449.36	8655.30
449.54	8786.37
449.73	9149.15
449.91	9060.21
450.10	9053.19
450.28	9142.13
450.46	9109.36
450.65	9139.79
450.83	9186.60
451.02	9081.28
451.20	9156.18
451.39	9198.31
451.57	9254.48
451.76	9186.60
451.94	9135.11
452.13	9434.70
452.31	9334.06
452.49	9277.88
452.68	9280.22
452.86	9394.91
453.05	9554.07
453.23	9760.03
453.42	9657.05
453.60	9542.36
453.78	9518.96
453.97	9451.08
454.15	9540.02
454.34	9385.55
454.52	9734.29
454.70	9724.93
454.89	9912.17
455.07	9830.25
455.26	10029.20
455.44	9879.40
455.62	10029.20
455.81	10054.94
455.99	10113.45
456.17	10047.92
456.36	10129.84
456.54	10246.87
456.73	10441.13
456.91	10548.79
457.09	10583.90
457.28	10654.12
457.46	10391.98
457.64	10417.72
457.83	10523.05
458.01	10462.19
458.19	10644.76
458.38	10656.46
458.56	10621.35
458.74	10775.83
458.93	10700.93
459.11	10927.96
459.29	10581.56
459.48	10977.11
459.66	10843.70
459.84	11030.94
460.03	11206.48
460.21	11154.99
460.39	10977.11
460.57	10899.87
460.76	11019.24
460.94	11304.79
461.12	11157.33
461.31	11276.70
461.49	11241.59
461.67	11349.26
461.85	11489.69
462.04	11449.90
462.22	11932.05
462.40	11463.94
462.59	11592.67
462.77	11597.35
462.95	11522.46
463.13	11641.82
463.32	11723.74
463.50	11651.19
463.68	11934.39
463.86	11992.90
464.05	11695.66
464.23	11637.14
464.41	12077.16
464.59	11646.51
464.78	12449.31
464.96	11892.26
465.14	12072.48
465.32	12154.40
465.50	12243.34
465.69	12128.66
465.87	11997.59
466.05	12147.38
466.23	12348.67
466.41	12383.77
466.60	12545.27
466.78	12297.17
466.96	12215.26
467.14	12521.87
467.32	12582.72
467.51	12486.76
467.69	12226.96
467.87	12540.59
468.05	12819.11
468.23	12252.70
468.41	12458.67
468.60	12521.87
468.78	12795.71
468.96	12791.03
469.14	12821.45
469.32	12978.27
469.50	12844.86
469.69	12966.57
469.87	13050.83
470.05	13329.35
470.23	13394.89
470.41	13336.37
470.59	13657.03
470.77	13556.38
470.95	13226.37
471.14	13577.45
471.32	13116.36
471.50	13565.74
471.68	13813.84
471.86	13750.65
472.04	13984.70
472.22	14033.85
472.40	13944.91
472.58	13865.33
472.77	14111.09
472.95	14277.27
473.13	14803.89
473.31	14279.61
473.49	14389.61
473.67	14471.53
473.85	14415.36
474.03	14745.38
474.21	14892.83
474.39	14721.97
474.57	14717.29
474.75	14822.61
474.93	14951.34
475.12	15140.93
475.30	15040.28
475.48	15075.39
475.66	15131.56
475.84	15302.42
476.02	15620.74
476.20	15616.05
476.38	15658.18
476.56	16168.42
476.74	15939.05
476.92	16060.76
477.10	15782.23
477.28	16325.24
477.46	16355.66
477.64	16397.79
477.82	16741.85
478.00	16861.22
478.18	16844.84
478.36	16809.73
478.54	17455.72
478.72	17418.27
478.90	17509.55
479.08	17640.62
479.26	17916.80
479.44	17982.34
479.62	18228.09
479.80	18317.03
479.98	18302.99
480.16	18511.30
480.34	18499.59
480.52	18787.48
480.70	18871.74
480.88	18604.92
481.06	18993.45
481.24	18860.04
481.41	19176.01
481.59	19662.84
481.77	19777.53
481.95	19660.50
482.13	19716.67
482.31	19920.30
482.49	20421.17
482.67	20266.70
482.85	20585.01
483.03	20748.85
483.21	20959.50
483.39	21425.26
483.57	21202.91
483.74	21305.90
483.92	21509.52
484.10	21472.07
484.28	21886.35
484.46	22183.60
484.64	22244.45
484.82	21958.91
485.00	22462.12
485.18	22974.70
485.35	22670.43
485.53	22855.33
485.71	23133.86
485.89	23084.70
486.07	23150.24
486.25	23674.52
486.43	23859.42
486.61	24308.80
486.78	24388.38
486.96	24482.00
487.14	24631.80
487.32	24971.18
487.50	25067.14
487.68	25282.47
487.85	25509.50
488.03	25993.99
488.21	25930.80
488.39	25956.54
488.57	26160.17
488.75	26263.15
488.92	26916.16
489.10	27094.04
489.28	27157.24
489.46	27370.22
489.64	27545.76
489.81	27946.00
489.99	27864.08
490.17	28130.90
490.35	28563.90
490.53	28371.97
490.70	28765.18
490.88	28121.54
491.06	29034.35
491.24	28713.69
491.41	29263.72
491.59	29479.05
491.77	29570.33
491.95	29771.61
492.13	29890.98
492.30	30293.55
492.48	30218.66
492.66	30338.02
492.84	30616.55
493.01	30998.06
493.19	30890.39
493.37	31133.81
493.54	31019.12
493.72	31641.70
493.90	31714.26
494.08	31793.84
494.25	32266.63
494.43	32128.53
494.61	32350.88
494.79	33158.37
494.96	32938.36
495.14	33020.28
495.32	33106.88
495.49	33408.81
495.67	33392.42
495.85	33879.25
496.02	33991.60
496.20	34010.32
496.38	34550.99
496.55	34314.59
496.73	35019.10
496.91	34948.88
497.09	35077.61
497.26	35068.25
497.44	35615.93
497.62	35215.70
497.79	35875.73
497.97	35838.28
498.14	35835.94
498.32	36446.82
498.50	36615.34
498.67	37022.59
498.85	36818.97
499.03	37230.90
499.20	36423.42
499.38	36903.23
499.56	37324.52
499.73	37266.01
499.91	37876.89
500.08	38134.35
500.26	37596.03
500.44	38106.26
500.61	38242.01
500.79	38110.94
500.97	38600.12
501.14	38373.08
501.32	38347.34
501.49	38618.84
501.67	38618.84
501.84	39079.92
502.02	39395.90
502.20	39744.64
502.37	39428.66
502.55	39562.08
502.72	39335.04
502.90	39875.71
503.07	39742.30
503.25	40105.08
503.43	39950.60
503.60	40411.69
503.78	40439.78
503.95	40823.62
504.13	40671.49
504.30	40650.42
504.48	41064.70
504.65	41067.04
504.83	41296.41
505.01	41240.24
505.18	41682.60
505.36	41865.16
505.53	41909.63
505.71	42043.04
505.88	42293.48
506.06	41846.44
506.23	42689.03
506.41	42396.46
506.58	42342.63
506.76	42801.38
506.93	43070.54
507.11	42478.38
507.28	43089.26
507.46	43480.13
507.63	43344.38
507.81	43325.66
507.98	43721.21
508.16	43482.47
508.33	43430.98
508.50	43746.95
508.68	43990.37
508.85	44203.36
509.03	43873.34
509.20	44449.11
509.38	44491.24
509.55	44975.73
509.73	44552.10
509.90	44509.97
510.08	44367.20
510.25	44622.31
510.42	44748.70
510.60	45219.15
510.77	45490.65
510.95	45778.54
511.12	45233.19
511.30	45378.31
511.47	45427.46
511.64	45930.67
511.82	46433.89
511.99	45801.94
512.17	46447.93
512.34	46192.81
512.51	46436.23
512.69	46904.34
512.86	47210.95
513.04	46731.14
513.21	47093.92
513.38	47002.64
513.56	47117.32
513.73	47360.74
513.90	47430.96
514.08	47580.75
514.25	47318.61
514.43	47700.12
514.60	47826.51
514.77	47547.98
514.95	47917.79
515.12	47913.11
515.29	48287.59
515.47	47955.24
515.64	48205.67
515.81	48123.75
515.99	48273.55
516.16	48893.79
516.33	48690.16
516.51	49118.48
516.68	49020.18
516.85	48786.13
517.03	48978.05
517.20	49464.88
517.37	48868.05
517.54	49221.47
517.72	49209.76
517.89	49471.90
518.06	49537.44
518.24	49661.49
518.41	49275.30
518.58	49502.33
518.75	49647.44
518.93	49893.20
519.10	49701.28
519.27	49954.05
519.45	49965.76
519.62	50351.94
519.79	50382.37
519.96	49698.94
520.14	50581.32
520.31	50532.17
520.48	50684.30
520.65	50789.62
520.83	51056.45
521.00	51084.53
521.17	50499.40
521.34	50768.56
521.52	51051.76
521.69	50974.53
521.86	51255.39
522.03	51243.69
522.20	51484.76
522.38	51587.75
522.55	51739.88
522.72	51639.24
522.89	51693.07
523.07	51615.83
523.24	51927.13
523.41	51826.48
523.58	51674.35
523.75	52076.92
523.92	52018.41
524.10	52339.06
524.27	52720.57
524.44	52308.63
524.61	52587.16
524.78	52453.75
524.96	52722.91
525.13	52491.19
525.30	52477.15
525.47	52643.33
525.64	52545.03
525.81	52858.66
525.98	53050.58
526.16	52863.34
526.33	52800.15
526.50	53488.26
526.67	53298.68
526.84	53432.09
527.01	52884.40
527.18	53254.21
527.36	53308.04
527.53	53183.99
527.70	53446.13
527.87	53471.88
528.04	53315.06
528.21	53581.88
528.38	53446.13
528.55	53666.14
528.72	53663.80
528.89	53708.27
529.07	53666.14
529.24	53773.81
529.41	54019.56
529.58	54136.59
529.75	54099.14
529.92	53937.65
530.09	54103.82
530.26	54258.30
530.43	54232.55
530.60	53790.19
530.77	53874.45
530.94	54335.54
531.11	54216.17
531.28	54450.22
531.46	54368.30
531.63	54347.24
531.80	54490.01
531.97	54822.37
532.14	54700.66
532.31	54658.53
532.48	54965.14
532.65	54789.60
532.82	54770.88
532.99	55084.51
533.16	54756.83
533.33	55297.50
533.50	55121.96
533.67	55084.51
533.84	54869.18
534.01	55201.53
534.18	55152.38
534.35	55524.53
534.52	55229.62
534.69	55318.56
534.86	55655.60
535.03	55182.81
535.20	55561.98
535.37	55569.00
535.54	55587.72
535.71	55557.30
535.88	55547.93
536.05	55721.13
536.22	55716.45
536.38	55863.91
536.55	55695.39
536.72	55831.14
536.89	55512.83
537.06	55697.73
537.23	55833.48
537.40	55856.88
537.57	55812.41
537.74	56011.36
537.91	56023.06
538.08	56020.72
538.25	55826.46
538.42	55992.64
538.59	56320.31
538.75	56203.28
538.92	56186.90
539.09	56444.36
539.26	56268.82
539.43	56435.00
539.60	56250.09
539.77	56329.67
539.94	56587.13
540.11	56378.82
540.28	56521.60
540.44	56580.11
540.61	56673.73
540.78	56350.74
540.95	56697.14
541.12	56521.60
541.29	56561.39
541.46	56640.96
541.62	56942.89
541.79	56788.42
541.96	56673.73
542.13	56832.89
542.30	56970.98
542.47	57043.54
542.63	57263.55
542.80	57303.34
542.97	57174.61
543.14	57450.79
543.31	57272.91
543.48	57602.92
543.64	57687.18
543.81	57432.07
543.98	57462.49
544.15	57446.11
544.32	57638.03
544.48	57577.18
544.65	57673.14
544.82	57769.10
544.99	57392.28
545.16	57623.99
545.32	57626.33
545.49	57694.21
545.66	57935.28
545.83	57872.09
546.00	57949.32
546.16	57834.64
546.33	57792.51
546.50	57488.24
546.67	57944.64
546.83	57834.64
547.00	58087.42
547.17	58066.35
547.34	58047.63
547.50	58075.71
547.67	58253.59
547.84	58319.13
548.00	58443.18
548.17	58248.91
548.34	58223.17
548.51	58548.50
548.67	58269.98
548.84	58361.26
549.01	58307.43
549.18	58220.83
549.34	58429.13
549.51	58333.17
549.68	58281.68
549.84	58527.44
550.01	58506.37
550.18	58459.56
550.34	58635.10
550.51	58585.95
550.68	58482.97
550.84	58515.73
551.01	58691.27
551.18	58707.66
551.34	58745.11
551.51	58583.61
551.68	58864.47
551.84	58705.32
552.01	58688.93
552.18	58990.86
552.34	58883.20
552.51	59084.48
552.68	58759.15
552.84	58862.13
553.01	59157.04
553.18	59014.27
553.34	59194.49
553.51	58976.82
553.67	58922.99
553.84	59199.17
554.01	59056.40
554.17	59054.06
554.34	59138.32
554.51	59278.75
554.67	59231.94
554.84	59316.20
555.00	59056.40
555.17	59189.81
555.33	59079.80
555.50	59018.95
555.67	59199.17
555.83	59346.62
556.00	58885.54
556.16	59451.95
556.33	59269.39
556.50	59475.35
556.66	59379.39
556.83	59173.42
556.99	59515.14
557.16	59585.36
557.32	59686.00
557.49	59833.46
557.65	59496.42
557.82	59414.50
557.98	59529.19
558.15	59573.66
558.32	59643.87
558.48	59494.08
558.65	59718.77
558.81	59489.40
558.98	59608.76
559.14	59580.68
559.31	59889.63
559.47	59817.07
559.64	59810.05
559.80	59835.80
559.97	59873.24
560.13	59566.63
560.30	59671.96
560.46	59948.14
560.63	60135.38
560.79	59955.16
560.96	60102.62
561.12	60030.06
561.29	60039.42
561.45	59877.93
561.61	59896.65
561.78	59929.42
561.94	59718.77
562.11	59833.46
562.27	60219.64
562.44	60058.15
562.60	60177.51
562.77	60278.16
562.93	59969.21
563.10	60069.85
563.26	60193.90
563.42	60177.51
563.59	60336.67
563.75	60221.98
563.92	60306.24
564.08	60079.21
564.24	60395.18
564.41	60236.03
564.57	60346.03
564.74	60205.60
564.90	60374.12
565.07	60282.84
565.23	60299.22
565.39	60322.63
565.56	60336.67
565.72	60322.63
565.88	60402.21
566.05	60378.80
566.21	60399.86
566.38	60617.53
566.54	60472.42
566.70	60619.88
566.87	60760.31
567.03	60425.61
567.19	60591.79
567.36	60540.30
567.52	60465.40
567.68	60603.49
567.85	60542.64
568.01	60526.25
568.17	60610.51
568.34	60495.83
568.50	60596.47
568.66	60575.40
568.83	60460.72
568.99	60498.17
569.15	60488.80
569.32	60514.55
569.48	60589.45
569.64	60699.45
569.81	60493.49
569.97	60638.60
570.13	60659.66
570.30	60523.91
570.46	60764.99
570.62	60863.29
570.78	60687.75
570.95	60800.10
571.11	60846.91
571.27	60542.64
571.43	60624.56
571.60	60982.66
571.76	60804.78
571.92	60811.80
572.09	60811.80
572.25	60626.90
572.41	60807.12
572.57	60846.91
572.74	60872.65
572.90	60802.44
573.06	60800.10
573.22	60938.19
573.38	60807.12
573.55	60711.16
573.71	60966.27
573.87	60690.09
574.03	60544.98
574.20	60886.70
574.36	60846.91
574.52	60856.27
574.68	60975.64
574.84	61031.81
575.01	60992.02
575.17	60907.76
575.33	60945.21
575.49	60893.72
575.65	60889.04
575.82	61036.49
575.98	60889.04
576.14	61258.84
576.30	60973.30
576.46	60807.12
576.62	60624.56
576.79	60935.85
576.95	60952.23
577.11	60903.08
577.27	61167.56
577.43	60863.29
577.59	60933.51
577.75	60874.99
577.92	60867.97
578.08	60921.80
578.24	61045.85
578.40	61057.56
578.56	61092.66
578.72	61045.85
578.88	61132.45
579.04	61160.54
579.21	60963.93
579.37	61050.53
579.53	61219.05
579.69	61010.74
579.85	61078.62
580.01	61076.28
580.17	61127.77
580.33	60985.00
580.49	61352.46
580.65	61226.07
580.82	61148.84
580.98	60835.20
581.14	61064.58
581.30	61207.35
581.46	61057.56
581.62	61228.41
581.78	61017.77
581.94	61247.14
582.10	61097.34
582.26	61090.32
582.42	61092.66
582.58	61099.68
582.74	60924.14
582.90	61162.88
583.06	61162.88
583.22	61155.86
583.38	61113.73
583.54	61104.37
583.70	61097.34
583.86	61141.81
584.02	60966.27
584.18	61111.39
584.34	61087.98
584.50	61109.05
584.66	61066.92
584.82	61020.11
584.98	61315.01
585.14	61083.30
585.30	61038.83
585.46	61132.45
585.62	61172.24
585.78	61474.17
585.94	61006.06
586.10	61261.18
586.26	61258.84
586.42	61240.12
586.58	61298.63
586.74	61059.90
586.90	61174.58
587.06	61169.90
587.22	61193.31
587.38	61277.57
587.54	61336.08
587.70	61450.77
587.86	61277.57
588.02	61235.44
588.18	61403.95
588.34	61080.96
588.49	61296.29
