SpectraSuite Data File
++++++++++++++++++++++++++++++++++++
Date: Fri Oct 25 11:26:22 EDT 2013
User: price-jones
Dark Spectrum Present: No
Reference Spectrum Present: No
Number of Sampled Component Spectra: 1
Spectrometers: USB2+H05261
Integration Time (usec): 100000 (USB2+H05261)
Spectra Averaged: 1 (USB2+H05261)
Boxcar Smoothing: 0 (USB2+H05261)
Correct for Electrical Dark: No (USB2+H05261)
Strobe/Lamp Enabled: No (USB2+H05261)
Correct for Detector Non-linearity: No (USB2+H05261)
Correct for Stray Light: No (USB2+H05261)
Number of Pixels in Processed Spectrum: 2048
>>>>>Begin Processed Spectral Data<<<<<
365.73	231.71
365.92	231.71
366.12	231.71
366.32	163.84
366.52	133.41
366.72	175.54
366.91	86.60
367.11	161.50
367.31	102.98
367.51	140.43
367.70	121.71
367.90	142.77
368.10	198.95
368.30	124.05
368.49	138.09
368.69	159.16
368.89	149.79
369.09	142.77
369.28	177.88
369.48	147.45
369.68	222.35
369.87	224.69
370.07	215.33
370.27	220.01
370.47	358.10
370.66	554.71
370.86	564.07
371.06	725.57
371.25	725.57
371.45	638.97
371.65	779.40
371.84	606.20
372.04	741.95
372.24	751.31
372.44	695.14
372.63	744.29
372.83	770.04
373.03	819.19
373.22	720.88
373.42	809.83
373.62	795.78
373.81	823.87
374.01	847.27
374.21	828.55
374.40	704.50
374.60	870.68
374.79	807.48
374.99	786.42
375.19	849.61
375.38	856.64
375.58	875.36
375.78	858.98
375.97	870.68
376.17	866.00
376.37	924.51
376.56	823.87
376.76	849.61
376.95	840.25
377.15	889.40
377.35	910.47
377.54	992.39
377.74	905.79
377.93	866.00
378.13	908.13
378.33	971.32
378.52	933.87
378.72	912.81
378.91	1046.22
379.11	987.71
379.31	1039.20
379.50	929.19
379.70	992.39
379.89	940.90
380.09	964.30
380.28	1015.79
380.48	919.83
380.68	915.15
380.87	922.17
381.07	947.92
381.26	1137.50
381.46	1069.62
381.65	954.94
381.85	1093.03
382.04	1029.84
382.24	1022.81
382.43	1146.86
382.63	1090.69
382.83	1076.65
383.02	1093.03
383.22	1090.69
383.41	1130.48
383.61	1090.69
383.80	1053.24
384.00	1177.29
384.19	1149.20
384.39	1144.52
384.58	1142.18
384.78	1116.44
384.97	1132.82
385.17	1111.75
385.36	1160.91
385.56	1174.95
385.75	1118.78
385.95	1186.65
386.14	1174.95
386.34	1179.63
386.53	1156.22
386.72	1193.67
386.92	1203.04
387.11	1254.53
387.31	1247.51
387.50	1252.19
387.70	1291.98
387.89	1191.33
388.09	1411.34
388.28	1247.51
388.48	1366.87
388.67	1329.42
388.86	1380.92
389.06	1299.00
389.25	1376.24
389.45	1397.30
389.64	1313.04
389.84	1441.77
390.03	1350.49
390.22	1366.87
390.42	1441.77
390.61	1364.53
390.81	1345.81
391.00	1413.68
391.19	1341.13
391.39	1502.62
391.58	1380.92
391.78	1474.54
391.97	1476.88
392.16	1495.60
392.36	1565.82
392.55	1479.22
392.75	1500.28
392.94	1495.60
393.13	1554.12
393.33	1617.31
393.52	1570.50
393.71	1479.22
393.91	1598.59
394.10	1441.77
394.29	1624.33
394.49	1624.33
394.68	1636.03
394.88	1582.20
395.07	1624.33
395.26	1638.38
395.46	1734.34
395.65	1593.90
395.84	1708.59
396.04	1783.49
396.23	1760.08
396.42	1687.53
396.62	1757.74
396.81	1762.42
397.00	1816.26
397.19	1795.19
397.39	1820.94
397.58	1820.94
397.77	1823.28
397.97	1930.94
398.16	1774.13
398.35	1923.92
398.55	1926.26
398.74	1851.36
398.93	1914.56
399.12	1956.69
399.32	1879.45
399.51	1795.19
399.70	1973.07
399.90	1881.79
400.09	1947.33
400.28	2029.24
400.47	2118.18
400.67	2108.82
400.86	2207.13
401.05	2038.61
401.24	2106.48
401.44	2181.38
401.63	2101.80
401.82	2115.84
402.01	2104.14
402.21	2101.80
402.40	2223.51
402.59	2197.76
402.78	2286.70
402.97	2293.72
403.17	2279.68
403.36	2197.76
403.55	2235.21
403.74	2305.43
403.93	2394.37
404.13	2424.80
404.32	2333.51
404.51	2356.92
404.70	2389.69
404.89	2431.82
405.09	2506.71
405.28	2349.90
405.47	2495.01
405.66	2415.43
405.85	2551.18
406.05	2520.76
406.24	2628.42
406.43	2579.27
406.62	2686.94
406.81	2619.06
407.00	2546.50
407.20	2424.80
407.39	2621.40
407.58	2785.24
407.77	2729.06
407.96	2785.24
408.15	2743.11
408.34	2684.59
408.54	2869.50
408.73	2663.53
408.92	2789.92
409.11	2843.75
409.30	2876.52
409.49	2848.43
409.68	2855.45
409.87	2888.22
410.07	2885.88
410.26	2965.46
410.45	2923.33
410.64	2984.18
410.83	3080.14
411.02	3098.87
411.21	2986.52
411.40	3089.51
411.59	3213.56
411.78	3122.27
411.98	3248.66
412.17	3143.34
412.36	3267.39
412.55	3365.69
412.74	3492.08
412.93	3510.80
413.12	3353.99
413.31	3515.48
413.50	3433.57
413.69	3508.46
413.88	3569.32
414.07	3557.61
414.26	3695.71
414.45	3658.26
414.64	3684.00
414.83	3740.18
415.02	3730.81
415.22	3801.03
415.41	3840.82
415.60	3770.60
415.79	3981.25
415.98	3990.61
416.17	3974.23
416.36	3995.29
416.55	3955.51
416.74	3960.19
416.93	3957.85
417.12	4037.42
417.31	4035.08
417.50	4175.52
417.69	4278.50
417.88	4187.22
418.07	4205.94
418.26	4175.52
418.45	4402.55
418.64	4365.10
418.83	4388.50
419.02	4514.89
419.21	4517.23
419.39	4514.89
419.58	4435.32
419.77	4407.23
419.96	4587.45
420.15	4674.05
420.34	4594.47
420.53	4542.98
420.72	4671.71
420.91	4669.37
421.10	4685.75
421.29	4699.80
421.48	4695.11
421.67	4774.69
421.86	4676.39
422.05	4800.44
422.24	4676.39
422.43	4894.06
422.61	4835.55
422.80	4819.16
422.99	4842.57
423.18	4945.55
423.37	4999.38
423.56	4772.35
423.75	4889.38
423.94	4891.72
424.13	4545.32
424.32	4613.20
424.50	4915.12
424.69	5102.37
424.88	5011.09
425.07	4952.57
425.26	4798.10
425.45	4990.02
425.64	4985.34
425.83	5050.88
426.01	4887.04
426.20	4987.68
426.39	5043.85
426.58	5088.32
426.77	4992.36
426.96	5207.69
427.15	5114.07
427.33	5100.03
427.52	5125.77
427.71	5219.39
427.90	5217.05
428.09	5259.18
428.28	5425.36
428.46	5364.51
428.65	5411.32
428.84	5465.15
429.03	5416.00
429.22	5224.08
429.40	5504.94
429.59	5451.11
429.78	5181.95
429.97	5224.08
430.16	5462.81
430.34	5596.22
430.53	5554.09
430.72	5685.16
430.91	5678.14
431.10	5568.13
431.28	5563.45
431.47	5781.12
431.66	5858.36
431.85	5797.51
432.03	5956.66
432.22	5809.21
432.41	6003.47
432.60	5982.41
432.79	5809.21
432.97	5994.11
433.16	6008.16
433.35	6073.69
433.54	6113.48
433.72	6122.84
433.91	5942.62
434.10	6017.52
434.28	5816.23
434.47	6186.04
434.66	6239.87
434.85	6104.12
435.03	6218.80
435.22	6141.57
435.41	6235.19
435.59	6375.62
435.78	6415.41
435.97	6207.10
436.16	6305.40
436.34	6228.17
436.53	6349.87
436.72	6621.38
436.90	6249.23
437.09	6555.84
437.28	6448.18
437.46	6422.43
437.65	6623.72
437.84	6553.50
438.02	6682.23
438.21	6817.98
438.40	6679.89
438.58	6834.36
438.77	7007.56
438.96	6979.48
439.14	7183.10
439.33	7124.59
439.52	7234.60
439.70	7260.34
439.89	7461.63
440.08	7454.61
440.26	7400.77
440.45	7288.43
440.63	7316.51
440.82	7534.18
441.01	7190.13
441.19	7485.03
441.38	7644.19
441.57	7644.19
441.75	7688.66
441.94	8009.31
442.12	7885.26
442.31	7906.33
442.50	7786.96
442.68	7836.11
442.87	8028.04
443.05	7997.61
443.24	8088.89
443.43	8086.55
443.61	8297.20
443.80	8315.92
443.98	7957.82
444.17	7758.88
444.35	8042.08
444.54	8121.66
444.73	8248.05
444.91	8269.11
445.10	8198.90
445.28	8182.51
445.47	8355.71
445.65	8065.49
445.84	8358.05
446.02	8407.20
446.21	8400.18
446.39	8332.31
446.58	8479.76
446.77	8334.65
446.95	8294.86
447.14	8528.91
447.32	8526.57
447.51	8250.39
447.69	8493.80
447.88	8599.13
448.06	8393.16
448.25	8610.83
448.43	8416.57
448.62	8573.38
448.80	8575.72
448.99	8573.38
449.17	8713.81
449.36	8545.30
449.54	8812.12
449.73	8835.52
449.91	9062.55
450.10	8891.70
450.28	8760.63
450.46	9062.55
450.65	8964.25
450.83	9102.34
451.02	8917.44
451.20	9029.79
451.39	9153.84
451.57	8980.64
451.76	8924.46
451.94	9067.24
452.13	9266.18
452.31	9210.01
452.49	9214.69
452.68	9252.14
452.86	9144.47
453.05	9198.31
453.23	9305.97
453.42	9385.55
453.60	9310.65
453.78	9376.19
453.97	9591.52
454.15	9334.06
454.34	9650.03
454.52	9533.00
454.70	9680.46
454.89	9720.24
455.07	9563.43
455.26	9713.22
455.44	9720.24
455.62	9804.50
455.81	9830.25
455.99	9968.34
456.17	9893.44
456.36	9956.64
456.54	10162.61
456.73	10150.90
456.91	10401.34
457.09	10476.24
457.28	10363.89
457.46	10209.42
457.64	10509.01
457.83	10401.34
458.01	10387.30
458.19	10839.02
458.38	10534.75
458.56	10614.33
458.74	10827.32
458.93	10651.78
459.11	10534.75
459.29	10490.28
459.48	10951.37
459.66	10801.57
459.84	10740.72
460.03	11040.31
460.21	10888.17
460.39	10927.96
460.57	11187.76
460.76	11101.16
460.94	10927.96
461.12	10953.71
461.31	11295.43
461.49	11098.82
461.67	11091.80
461.85	11489.69
462.04	11201.80
462.22	11557.57
462.40	11728.42
462.59	11375.00
462.77	11559.91
462.95	11564.59
463.13	11555.22
463.32	11758.85
463.50	11880.56
463.68	11707.36
463.86	11714.38
464.05	11604.38
464.23	11662.89
464.41	12009.29
464.59	11630.12
464.78	11873.54
464.96	12011.63
465.14	11761.19
465.32	11932.05
465.50	12060.78
465.69	11995.25
465.87	12152.06
466.05	12147.38
466.23	12334.62
466.41	12072.48
466.60	12388.46
466.78	12025.67
466.96	12161.42
467.14	12173.13
467.32	12346.33
467.51	12374.41
467.69	12086.53
467.87	12407.18
468.05	12524.21
468.23	12114.61
468.41	12390.80
468.60	12388.46
468.78	12854.22
468.96	12533.57
469.14	12791.03
469.32	12849.54
469.50	12594.42
469.69	12828.48
469.87	13062.53
470.05	13025.08
470.23	13224.03
470.41	13266.16
470.59	13008.70
470.77	12886.99
470.95	13277.86
471.14	13425.31
471.32	13188.92
471.50	13437.02
471.68	13640.64
471.86	13523.62
472.04	13252.11
472.22	13891.08
472.40	13392.55
472.58	13642.98
472.77	13893.42
472.95	13855.97
473.13	14717.29
473.31	13806.82
473.49	13973.00
473.67	13977.68
473.85	14235.14
474.03	14492.60
474.21	14506.64
474.39	14611.96
474.57	14443.45
474.75	14689.20
474.93	14909.21
475.12	14949.00
475.30	15073.05
475.48	15014.54
475.66	14963.04
475.84	15075.39
476.02	15510.73
476.20	15463.92
476.38	15522.43
476.56	15887.56
476.74	15978.84
476.92	15833.72
477.10	15524.77
477.28	16161.40
477.46	15964.79
477.64	16152.04
477.82	16432.90
478.00	16943.14
478.18	16774.62
478.36	17015.69
478.54	16828.45
478.72	17139.74
478.90	17128.04
479.08	17343.37
479.26	17462.74
479.44	17671.04
479.62	17785.73
479.80	18003.40
479.98	17977.65
480.16	18326.39
480.34	18270.22
480.52	18504.28
480.70	18466.83
480.88	18167.24
481.06	18757.05
481.24	18618.96
481.41	18890.46
481.59	19190.05
481.77	19374.95
481.95	19197.07
482.13	19618.37
482.31	19445.17
482.49	20350.96
482.67	20093.50
482.85	20109.88
483.03	20641.18
483.21	20751.19
483.39	20608.42
483.57	20475.01
483.74	20816.72
483.92	21434.63
484.10	20851.83
484.28	21436.97
484.46	21937.84
484.64	22167.21
484.82	22185.94
485.00	22127.42
485.18	22242.11
485.35	22892.78
485.53	22747.67
485.71	22822.56
485.89	23527.06
486.07	23325.78
486.25	23143.22
486.43	23410.04
486.61	23506.00
486.78	23878.15
486.96	23726.01
487.14	24423.49
487.32	24343.91
487.50	24664.57
487.68	24893.94
487.85	25020.33
488.03	25113.95
488.21	25495.46
488.39	25490.77
488.57	25788.02
488.75	26342.73
488.92	26197.62
489.10	26277.19
489.28	26593.17
489.46	27094.04
489.64	26689.13
489.81	27182.98
489.99	27587.89
490.17	27800.88
490.35	27814.93
490.53	28060.68
490.70	28182.39
490.88	28044.30
491.06	28945.41
491.24	28727.74
491.41	28933.70
491.59	28907.96
491.77	28833.06
491.95	29495.43
492.13	29277.76
492.30	29724.80
492.48	29947.15
492.66	30050.14
492.84	30010.35
493.01	30616.55
493.19	30101.63
493.37	30691.44
493.54	30906.77
493.72	31402.97
493.90	31402.97
494.08	31227.43
494.25	31482.55
494.43	32016.19
494.61	32208.11
494.79	32643.45
494.96	32128.53
495.14	32620.05
495.32	32776.86
495.49	32730.05
495.67	32861.12
495.85	33443.91
496.02	33525.83
496.20	33792.65
496.38	33783.29
496.55	34153.10
496.73	34672.70
496.91	34197.57
497.09	34473.75
497.26	34637.59
497.44	34604.82
497.62	34892.71
497.79	35515.29
497.97	35665.08
498.14	35782.11
498.32	35704.87
498.50	35985.74
498.67	36605.98
498.85	36058.29
499.03	36198.73
499.20	36378.95
499.38	36425.76
499.56	36744.07
499.73	36617.68
499.91	37029.62
500.08	37085.79
500.26	37242.60
500.44	37233.24
500.61	37439.21
500.79	37177.07
500.97	37682.62
501.14	37996.26
501.32	38234.99
501.49	38263.08
501.67	38237.33
501.84	38761.61
502.02	38768.63
502.20	38527.56
502.37	38707.78
502.55	38845.87
502.72	39311.64
502.90	39154.82
503.07	38967.58
503.25	39189.93
503.43	39456.75
503.60	39660.38
503.78	39704.85
503.95	39852.30
504.13	40079.33
504.30	40388.28
504.48	40273.60
504.65	40378.92
504.83	41111.51
505.01	40996.82
505.18	41184.07
505.36	41287.05
505.53	41469.61
505.71	41280.03
505.88	41338.54
506.06	41305.77
506.23	41596.00
506.41	41663.88
506.58	41743.45
506.76	42061.77
506.93	42307.52
507.11	41797.29
507.28	42176.45
507.46	42366.04
507.63	42845.85
507.81	42794.36
507.98	42759.25
508.16	42639.88
508.33	42895.00
508.50	43091.60
508.68	42911.38
508.85	43402.89
509.03	43548.01
509.20	43381.83
509.38	44353.15
509.55	44109.74
509.73	44189.31
509.90	44542.74
510.08	44285.28
510.25	44240.81
510.42	44662.10
510.60	44500.61
510.77	44783.81
510.95	45113.83
511.12	44669.12
511.30	44737.00
511.47	44952.33
511.64	45207.45
511.82	45771.52
511.99	44982.76
512.17	45577.25
512.34	45366.60
512.51	45951.74
512.69	45638.11
512.86	46117.92
513.04	46080.47
513.21	46672.62
513.38	46232.60
513.56	46583.68
513.73	46511.13
513.90	46925.40
514.08	46644.54
514.25	47175.84
514.43	47180.52
514.60	47136.05
514.77	46759.22
514.95	47379.46
515.12	46960.51
515.29	47260.10
515.47	47552.66
515.64	47657.99
515.81	47346.70
515.99	47833.53
516.16	48250.14
516.33	48254.82
516.51	48086.31
516.68	48313.34
516.85	48303.98
517.03	48662.08
517.20	48854.00
517.37	48617.61
517.54	48697.19
517.72	48381.21
517.89	48893.79
518.06	48954.64
518.24	49181.68
518.41	48931.24
518.58	48896.13
518.75	48605.91
518.93	49111.46
519.10	49090.40
519.27	49235.51
519.45	49343.17
519.62	49537.44
519.79	49275.30
519.96	49434.45
520.14	49888.52
520.31	49762.13
520.48	49956.39
520.65	50223.22
520.83	49916.61
521.00	50270.03
521.17	50181.09
521.34	50211.51
521.52	50567.27
521.69	50672.60
521.86	50354.29
522.03	50763.88
522.20	51276.46
522.38	51175.81
522.55	51206.24
522.72	51180.49
522.89	51152.41
523.07	51641.58
523.24	51627.54
523.41	51538.60
523.58	50831.75
523.75	51437.95
523.92	51636.90
524.10	51672.01
524.27	51812.44
524.44	51913.08
524.61	51686.05
524.78	51639.24
524.96	51913.08
525.13	51817.12
525.30	52069.90
525.47	52264.16
525.64	52189.27
525.81	52278.21
525.98	52643.33
526.16	52189.27
526.33	52554.39
526.50	52807.17
526.67	52383.53
526.84	52659.71
527.01	52753.33
527.18	52669.08
527.36	52851.64
527.53	52587.16
527.70	53062.29
527.87	53165.27
528.04	52844.62
528.21	52982.71
528.38	53233.14
528.55	53361.87
528.72	53146.54
528.89	53212.08
529.07	53277.61
529.24	52992.07
529.41	53476.56
529.58	53130.16
529.75	53511.67
529.92	53633.38
530.09	53762.11
530.26	53647.42
530.43	53698.91
530.60	53317.40
530.77	53385.28
530.94	54003.18
531.11	53799.55
531.28	53956.37
531.46	54045.31
531.63	54206.81
531.80	53928.28
531.97	54010.20
532.14	54237.23
532.31	54473.63
532.48	53970.41
532.65	54382.35
532.82	54110.85
532.99	54550.87
533.16	54447.88
533.33	54340.22
533.50	54866.84
533.67	54564.91
533.84	54412.77
534.01	54756.83
534.18	54681.94
534.35	55002.59
534.52	54780.24
534.69	54920.67
534.86	55040.04
535.03	54808.32
535.20	54700.66
535.37	55363.03
535.54	55070.46
535.71	54997.91
535.88	55356.01
536.05	55360.69
536.22	55454.31
536.38	55370.05
536.55	55524.53
536.72	55473.04
536.89	55339.63
537.06	55505.80
537.23	55618.15
537.40	55267.07
537.57	55613.47
537.74	55536.23
537.91	55861.57
538.08	55756.24
538.25	55423.89
538.42	55714.11
538.59	55749.22
538.75	55824.12
538.92	55646.24
539.09	55882.63
539.26	55880.29
539.43	55667.30
539.60	56109.66
539.77	56149.45
539.94	56025.40
540.11	56093.28
540.28	56369.46
540.44	56280.52
540.61	56427.98
540.78	56184.56
540.95	56275.84
541.12	56130.73
541.29	56353.08
541.46	56292.22
541.62	56406.91
541.79	56179.88
541.96	56369.46
542.13	56282.86
542.30	56399.89
542.47	56554.36
542.63	56559.05
542.80	56722.88
542.97	56851.61
543.14	57174.61
543.31	57169.93
543.48	57109.07
543.64	56898.42
543.81	57310.36
543.98	57102.05
544.15	57158.22
544.32	57134.82
544.48	57380.57
544.65	57130.14
544.82	57212.06
544.99	57415.68
545.16	57364.19
545.32	57230.78
545.49	57544.41
545.66	57619.31
545.83	57385.25
546.00	57609.95
546.16	57661.44
546.33	57284.61
546.50	57310.36
546.67	57815.91
546.83	57380.57
547.00	57762.08
547.17	57513.98
547.34	57567.82
547.50	57741.02
547.67	57883.79
547.84	57567.82
548.00	57946.98
548.17	58157.63
548.34	57984.43
548.51	58087.42
548.67	57982.09
548.84	58204.44
549.01	57804.21
549.18	58141.25
549.34	57996.13
549.51	58127.20
549.68	58181.04
549.84	58195.08
550.01	57996.13
550.18	58122.52
550.34	58426.79
550.51	58258.27
550.68	58216.14
550.84	57801.87
551.01	58323.81
551.18	58148.27
551.34	58232.53
551.51	58389.34
551.68	58396.37
551.84	58438.50
552.01	58295.72
552.18	58480.63
552.34	58323.81
552.51	58415.09
552.68	58361.26
552.84	58492.33
553.01	58791.92
553.18	58436.16
553.34	58759.15
553.51	58466.58
553.67	58930.01
553.84	58848.09
554.01	58768.51
554.17	58787.24
554.34	58997.88
554.51	58990.86
554.67	59128.95
554.84	58913.62
555.00	58838.73
555.17	58866.81
555.33	58972.14
555.50	58773.19
555.67	59065.76
555.83	58948.73
556.00	58780.21
556.16	59133.63
556.33	59007.25
556.50	58951.07
556.66	59236.62
556.83	58848.09
556.99	59213.21
557.16	59217.89
557.32	59477.69
557.49	59367.69
557.65	59164.06
557.82	59257.68
557.98	59290.45
558.15	59395.77
558.32	59313.86
558.48	59194.49
558.65	59306.83
558.81	59391.09
558.98	59281.09
559.14	59456.63
559.31	59597.06
559.47	59318.54
559.64	59402.80
559.80	59608.76
559.97	59487.06
560.13	59491.74
560.30	59587.70
560.46	59571.32
560.63	59678.98
560.79	59557.27
560.96	59648.55
561.12	59648.55
561.29	59531.53
561.45	59709.41
561.61	59660.26
561.78	59547.91
561.94	59751.54
562.11	59690.68
562.27	59721.11
562.44	59856.86
562.60	59730.47
562.77	59718.77
562.93	59681.32
563.10	59781.96
563.26	59807.71
563.42	59833.46
563.59	59969.21
563.75	59758.56
563.92	59796.01
564.08	59873.24
564.24	59845.16
564.41	59945.80
564.57	60147.09
564.74	59985.59
564.90	60034.74
565.07	59999.63
565.23	59714.09
565.39	60044.10
565.56	59969.21
565.72	60088.57
565.88	59962.18
566.05	59882.61
566.21	60076.87
566.38	60058.15
566.54	59805.37
566.70	60102.62
566.87	60116.66
567.03	59908.35
567.19	60051.12
567.36	60018.36
567.52	60264.11
567.68	60505.19
567.85	60140.07
568.01	60126.02
568.17	60111.98
568.34	60219.64
568.50	60296.88
568.66	60130.70
568.83	60224.32
568.99	60250.07
569.15	60266.45
569.32	60135.38
569.48	60147.09
569.64	60273.48
569.81	60317.95
569.97	60301.56
570.13	60100.28
570.30	60163.47
570.46	60322.63
570.62	60067.51
570.78	60156.45
570.95	60516.89
571.11	60339.01
571.27	60231.35
571.43	60355.39
571.60	60367.10
571.76	60210.28
571.92	60495.83
572.09	60479.44
572.25	60697.11
572.41	60378.80
572.57	60383.48
572.74	60615.19
572.90	60383.48
573.06	60423.27
573.22	60439.65
573.38	60491.15
573.55	60584.77
573.71	60605.83
573.87	60587.11
574.03	60423.27
574.20	60432.63
574.36	60535.62
574.52	60676.05
574.68	60514.55
574.84	60659.66
575.01	60671.37
575.17	60608.17
575.33	60404.55
575.49	60420.93
575.65	60528.59
575.82	60690.09
575.98	60654.98
576.14	60729.88
576.30	60666.69
576.46	60589.45
576.62	60610.51
576.79	60725.20
576.95	60516.89
577.11	60589.45
577.27	60598.81
577.43	60666.69
577.59	60577.75
577.75	60720.52
577.92	60439.65
578.08	60566.04
578.24	60774.35
578.40	60896.06
578.56	60673.71
578.72	60676.05
578.88	60673.71
579.04	60900.74
579.21	60694.77
579.37	60896.06
579.53	60706.47
579.69	60533.28
579.85	60669.03
580.01	60631.58
580.17	60500.51
580.33	60748.60
580.49	60858.61
580.65	60580.09
580.82	60636.26
580.98	60753.29
581.14	60683.07
581.30	60748.60
581.46	60804.78
581.62	60748.60
581.78	60537.96
581.94	60743.92
582.10	60877.33
582.26	60601.15
582.42	60451.36
582.58	60877.33
582.74	60589.45
582.90	60748.60
583.06	60767.33
583.22	60669.03
583.38	60622.22
583.54	60860.95
583.70	60718.18
583.86	61027.13
584.02	60615.19
584.18	60919.46
584.34	60928.83
584.50	60743.92
584.66	60804.78
584.82	60762.65
584.98	60877.33
585.14	61003.72
585.30	60465.40
585.46	60910.10
585.62	60774.35
585.78	60882.02
585.94	60662.00
586.10	60669.03
586.26	60825.84
586.42	60823.50
586.58	60956.91
586.74	60729.88
586.90	60874.99
587.06	60867.97
587.22	60926.49
587.38	60816.48
587.54	60975.64
587.70	60910.10
587.86	60985.00
588.02	60842.23
588.18	61017.77
588.34	60846.91
588.49	60973.30
