SpectraSuite Data File
++++++++++++++++++++++++++++++++++++
Date: Fri Oct 25 10:44:29 EDT 2013
User: price-jones
Dark Spectrum Present: No
Reference Spectrum Present: No
Number of Sampled Component Spectra: 1
Spectrometers: USB2+H05261
Integration Time (usec): 100000 (USB2+H05261)
Spectra Averaged: 1 (USB2+H05261)
Boxcar Smoothing: 0 (USB2+H05261)
Correct for Electrical Dark: No (USB2+H05261)
Strobe/Lamp Enabled: No (USB2+H05261)
Correct for Detector Non-linearity: No (USB2+H05261)
Correct for Stray Light: No (USB2+H05261)
Number of Pixels in Processed Spectrum: 2048
>>>>>Begin Processed Spectral Data<<<<<
365.73	135.75
365.92	135.75
366.12	135.75
366.32	0.00
366.52	0.00
366.72	72.56
366.91	0.00
367.11	0.00
367.31	4.68
367.51	21.06
367.70	42.13
367.90	44.47
368.10	0.00
368.30	11.70
368.49	25.75
368.69	28.09
368.89	58.51
369.09	0.00
369.28	100.64
369.48	0.00
369.68	119.37
369.87	53.83
370.07	79.58
370.27	138.09
370.47	201.29
370.66	425.98
370.86	395.55
371.06	458.74
371.25	496.19
371.45	458.74
371.65	458.74
371.84	500.87
372.04	430.66
372.24	442.36
372.44	505.56
372.63	479.81
372.83	543.00
373.03	582.79
373.22	547.69
373.42	472.79
373.62	491.51
373.81	503.22
374.01	601.52
374.21	622.58
374.40	507.90
374.60	543.00
374.79	505.56
374.99	533.64
375.19	578.11
375.38	608.54
375.58	592.16
375.78	585.13
375.97	615.56
376.17	629.60
376.37	545.34
376.56	582.79
376.76	664.71
376.95	559.39
377.15	575.77
377.35	582.79
377.54	716.20
377.74	669.39
377.93	657.69
378.13	711.52
378.33	645.99
378.52	688.12
378.72	718.54
378.91	704.50
379.11	601.52
379.31	713.86
379.50	709.18
379.70	638.97
379.89	716.20
380.09	669.39
380.28	746.63
380.48	704.50
380.68	697.48
380.87	645.99
381.07	631.94
381.26	734.93
381.46	690.46
381.65	667.05
381.85	681.10
382.04	699.82
382.24	685.78
382.43	685.78
382.63	713.86
382.83	657.69
383.02	763.01
383.22	709.18
383.41	713.86
383.61	734.93
383.80	774.72
384.00	748.97
384.19	683.44
384.39	819.19
384.58	767.70
384.78	795.78
384.97	746.63
385.17	704.50
385.36	807.48
385.56	816.85
385.75	758.33
385.95	739.61
386.14	858.98
386.34	868.34
386.53	821.53
386.72	748.97
386.92	931.53
387.11	950.26
387.31	793.44
387.50	875.36
387.70	929.19
387.89	884.72
388.09	795.78
388.28	854.30
388.48	833.23
388.67	931.53
388.86	1020.47
389.06	954.94
389.25	950.26
389.45	917.49
389.64	964.30
389.84	973.66
390.03	1015.79
390.22	940.90
390.42	971.32
390.61	943.24
390.81	971.32
391.00	971.32
391.19	980.68
391.39	1043.88
391.58	1036.86
391.78	997.07
391.97	1067.28
392.16	1097.71
392.36	1090.69
392.55	971.32
392.75	1102.39
392.94	997.07
393.13	1008.77
393.33	1036.86
393.52	1029.84
393.71	1128.14
393.91	1078.99
394.10	1071.97
394.29	1102.39
394.49	1144.52
394.68	1268.57
394.88	1196.01
395.07	1259.21
395.26	1196.01
395.46	1177.29
395.65	1224.10
395.84	1270.91
396.04	1181.97
396.23	1146.86
396.42	1116.44
396.62	1156.22
396.81	1149.20
397.00	1212.40
397.19	1371.55
397.39	1310.70
397.58	1282.61
397.77	1301.34
397.97	1359.85
398.16	1420.71
398.35	1359.85
398.55	1350.49
398.74	1364.53
398.93	1542.41
399.12	1352.83
399.32	1488.58
399.51	1462.83
399.70	1537.73
399.90	1537.73
400.09	1542.41
400.28	1556.46
400.47	1547.09
400.67	1621.99
400.86	1638.38
401.05	1621.99
401.24	1565.82
401.44	1664.12
401.63	1617.31
401.82	1762.42
402.01	1610.29
402.21	1650.08
402.40	1750.72
402.59	1633.69
402.78	1778.81
402.97	1799.87
403.17	1802.21
403.36	1720.29
403.55	1816.26
403.74	1867.75
403.93	1809.23
404.13	1790.51
404.32	1802.21
404.51	1856.04
404.70	1842.00
404.89	1842.00
405.09	1989.46
405.28	1947.33
405.47	1874.77
405.66	1928.60
405.85	2012.86
406.05	2012.86
406.24	1977.75
406.43	2015.20
406.62	1994.14
406.81	2099.46
407.00	1980.09
407.20	2122.87
407.39	1968.39
407.58	2207.13
407.77	2160.31
407.96	2162.66
408.15	2246.91
408.34	2120.53
408.54	2122.87
408.73	2204.78
408.92	2148.61
409.11	2279.68
409.30	2385.01
409.49	2289.04
409.68	2347.56
409.87	2298.41
410.07	2319.47
410.26	2317.13
410.45	2394.37
410.64	2382.67
410.83	2492.67
411.02	2483.31
411.21	2497.35
411.40	2579.27
411.59	2593.31
411.78	2502.03
411.98	2640.12
412.17	2612.04
412.36	2691.62
412.55	2630.76
412.74	2719.70
412.93	2719.70
413.12	2722.04
413.31	2834.39
413.50	2860.13
413.69	2839.07
413.88	2916.31
414.07	2818.00
414.26	2820.35
414.45	2829.71
414.64	2902.26
414.83	2803.96
415.02	3014.61
415.22	3103.55
415.41	3040.36
415.60	3119.93
415.79	3084.83
415.98	3234.62
416.17	3138.66
416.36	3190.15
416.55	3351.65
416.74	3356.33
416.93	3251.00
417.12	3265.05
417.31	3328.24
417.50	3171.43
417.69	3405.48
417.88	3337.60
418.07	3318.88
418.26	3330.58
418.45	3344.63
418.64	3440.59
418.83	3471.01
419.02	3459.31
419.21	3602.08
419.39	3515.48
419.58	3426.54
419.77	3529.53
419.96	3501.44
420.15	3700.39
420.34	3630.17
420.53	3665.28
420.72	3775.28
420.91	3803.37
421.10	3723.79
421.29	3768.26
421.48	3592.72
421.67	3911.04
421.86	3674.64
422.05	3765.92
422.24	3716.77
422.43	3838.48
422.61	3747.20
422.80	3946.14
422.99	3859.54
423.18	3868.91
423.37	3957.85
423.56	3936.78
423.75	3845.50
423.94	3777.62
424.13	3506.12
424.32	3726.13
424.50	3875.93
424.69	4053.81
424.88	3920.40
425.07	3992.95
425.26	3845.50
425.45	3829.12
425.64	4011.68
425.83	3957.85
426.01	4063.17
426.20	3936.78
426.39	4004.66
426.58	3943.80
426.77	3904.01
426.96	3901.67
427.15	4102.96
427.33	3857.20
427.52	3934.44
427.71	4039.76
427.90	4182.54
428.09	4091.26
428.28	4056.15
428.46	4065.51
428.65	4147.43
428.84	4208.28
429.03	4173.18
429.22	4009.34
429.40	4035.08
429.59	4053.81
429.78	3904.01
429.97	3824.44
430.16	4042.11
430.34	4044.45
430.53	4084.23
430.72	4189.56
430.91	4203.60
431.10	4280.84
431.28	4369.78
431.47	4580.43
431.66	4493.83
431.85	4416.59
432.03	4585.11
432.22	4603.83
432.41	4587.45
432.60	4638.94
432.79	4662.35
432.97	4685.75
433.16	4596.81
433.35	4475.10
433.54	4641.28
433.72	4638.94
433.91	4578.09
434.10	4622.56
434.28	4713.84
434.47	4809.80
434.66	4809.80
434.85	4788.74
435.03	4936.19
435.22	4943.21
435.41	4971.30
435.59	4910.44
435.78	5022.79
435.97	5104.71
436.16	4990.02
436.34	4954.91
436.53	5025.13
436.72	5170.24
436.90	4938.53
437.09	5029.81
437.28	5022.79
437.46	5046.20
437.65	4891.72
437.84	5100.03
438.02	5121.09
438.21	5184.29
438.40	5067.26
438.58	5212.37
438.77	5507.28
438.96	5352.81
439.14	5355.15
439.33	5547.07
439.52	5516.64
439.70	5523.66
439.89	5830.27
440.08	5603.24
440.26	5600.90
440.45	5755.38
440.63	5771.76
440.82	5963.68
441.01	5900.49
441.19	5834.96
441.38	5959.00
441.57	5989.43
441.75	6162.63
441.94	6200.08
442.12	6153.27
442.31	6164.97
442.50	6359.24
442.68	6132.20
442.87	6209.44
443.05	6160.29
443.24	6349.87
443.43	6263.27
443.61	6242.21
443.80	6590.95
443.98	6167.31
444.17	6092.41
444.35	6422.43
444.54	6464.56
444.73	6530.09
444.91	6340.51
445.10	6413.07
445.28	6331.15
445.47	6207.10
445.65	6333.49
445.84	6424.77
446.02	6623.72
446.21	6513.71
446.39	6548.82
446.58	6619.04
446.77	6520.73
446.95	6450.52
447.14	6626.06
447.32	6705.63
447.51	6614.35
447.69	6623.72
447.88	6408.39
448.06	6516.05
448.25	6579.25
448.43	6757.13
448.62	6642.44
448.80	6588.61
448.99	6782.87
449.17	6932.67
449.36	6630.74
449.54	6822.66
449.73	6874.15
449.91	6902.24
450.10	6988.84
450.28	7220.55
450.46	7185.44
450.65	7052.03
450.83	6991.18
451.02	7037.99
451.20	7133.95
451.39	7115.23
451.57	7199.49
451.76	7073.10
451.94	7148.00
452.13	7082.46
452.31	7000.54
452.49	7129.27
452.68	7143.32
452.86	7033.31
453.05	7119.91
453.23	7358.64
453.42	7197.15
453.60	7389.07
453.78	7349.28
453.97	7290.77
454.15	7309.49
454.34	7164.38
454.52	7438.22
454.70	7461.63
454.89	7379.71
455.07	7442.90
455.26	7559.93
455.44	7421.84
455.62	7665.25
455.81	7578.65
455.99	7529.50
456.17	7709.72
456.36	7709.72
456.54	7651.21
456.73	7838.45
456.91	7934.42
457.09	8163.79
457.28	8049.10
457.46	7859.52
457.64	8021.02
457.83	7953.14
458.01	7850.16
458.19	8283.16
458.38	7999.95
458.56	8030.38
458.74	8109.96
458.93	7744.83
459.11	8105.28
459.29	8210.60
459.48	8376.78
459.66	8177.83
459.84	8257.41
460.03	8325.29
460.21	8355.71
460.39	8449.33
460.57	8442.31
460.76	8723.18
460.94	8332.31
461.12	8557.00
461.31	8580.40
461.49	8491.46
461.67	8308.90
461.85	8690.41
462.04	8702.11
462.22	8926.80
462.40	8748.92
462.59	8638.92
462.77	8833.18
462.95	8779.35
463.13	8769.99
463.32	8767.65
463.50	8947.87
463.68	8863.61
463.86	8966.59
464.05	8758.28
464.23	8774.67
464.41	8947.87
464.59	8842.54
464.78	9078.94
464.96	8987.66
465.14	8971.27
465.32	8777.01
465.50	9303.63
465.69	9252.14
465.87	9092.98
466.05	9022.77
466.23	9266.18
466.41	9135.11
466.60	9179.58
466.78	9125.75
466.96	9167.88
467.14	9118.73
467.32	9284.91
467.51	9345.76
467.69	9015.74
467.87	9156.18
468.05	9364.48
468.23	9383.21
468.41	9284.91
468.60	9329.38
468.78	9465.13
468.96	9427.68
469.14	9607.90
469.32	9680.46
469.50	9383.21
469.69	9572.79
469.87	9806.84
470.05	9533.00
470.23	9554.07
470.41	9736.63
470.59	9804.50
470.77	9666.41
470.95	9923.87
471.14	10092.39
471.32	9926.21
471.50	10029.20
471.68	10087.71
471.86	10169.63
472.04	10129.84
472.22	10200.05
472.40	9919.19
472.58	10115.80
472.77	10480.92
472.95	10349.85
473.13	10682.20
473.31	10448.15
473.49	10239.84
473.67	10368.57
473.85	10534.75
474.03	10588.58
474.21	10712.63
474.39	10855.40
474.57	10850.72
474.75	11262.66
474.93	10979.45
475.12	10808.59
475.30	11073.07
475.48	11096.48
475.66	11070.73
475.84	11054.35
476.02	11122.23
476.20	11227.55
476.38	11400.75
476.56	11662.89
476.74	11583.31
476.92	11609.06
477.10	11889.92
477.28	12231.64
477.46	12004.61
477.64	12035.03
477.82	12081.85
478.00	12517.18
478.18	12212.92
478.36	12512.50
478.54	12774.64
478.72	12463.35
478.90	12758.26
479.08	12922.10
479.26	12901.03
479.44	12989.97
479.62	13081.25
479.80	13186.58
479.98	12961.89
480.16	13394.89
480.34	13336.37
480.52	13586.81
480.70	13359.78
480.88	13645.32
481.06	13795.12
481.24	13554.04
481.41	14087.68
481.59	14127.47
481.77	14288.97
481.95	14214.07
482.13	14338.12
482.31	14298.33
482.49	14808.57
482.67	14611.96
482.85	14892.83
483.03	14860.06
483.21	15204.12
483.39	15288.38
483.57	15225.18
483.74	15250.93
483.92	15503.71
484.10	15232.21
484.28	16035.01
484.46	15929.69
484.64	15896.92
484.82	15749.46
485.00	15950.75
485.18	16177.78
485.35	16365.03
485.53	15917.98
485.71	16049.05
485.89	16500.78
486.07	16294.81
486.25	16163.74
486.43	16709.08
486.61	16823.77
486.78	17041.44
486.96	17097.61
487.14	17551.68
487.32	17511.89
487.50	17790.41
487.68	18040.85
487.85	18045.53
488.03	17923.82
488.21	18331.08
488.39	18340.44
488.57	18750.03
488.75	18497.25
488.92	18595.56
489.10	19295.38
489.28	19356.23
489.46	19332.82
489.64	19351.55
489.81	19716.67
489.99	20004.56
490.17	20100.52
490.35	20243.29
490.53	20189.46
490.70	20224.57
490.88	20152.01
491.06	21111.63
491.24	20327.55
491.41	20533.52
491.59	20168.40
491.77	20477.35
491.95	20999.29
492.13	20980.56
492.30	21301.22
492.48	21223.98
492.66	21553.99
492.84	21490.80
493.01	21289.51
493.19	21413.56
493.37	21781.03
493.54	22022.10
493.72	22394.25
493.90	22279.56
494.08	22806.18
494.25	22920.87
494.43	22663.41
494.61	23068.32
494.79	23323.44
494.96	22963.00
495.14	23112.79
495.32	23477.91
495.49	23293.01
495.67	23391.31
495.85	23836.02
496.02	23859.42
496.20	24081.77
496.38	24203.48
496.55	24404.77
496.73	24687.97
496.91	24678.61
497.09	24704.35
497.26	25029.69
497.44	24723.08
497.62	24781.59
497.79	25135.01
497.97	24741.80
498.14	25167.78
498.32	25310.55
498.50	25460.35
498.67	25715.47
498.85	25818.45
499.03	25759.94
499.20	26099.31
499.38	26314.64
499.56	26075.91
499.73	26363.79
499.91	26096.97
500.08	26108.68
500.26	25851.22
500.44	26089.95
500.61	26398.90
500.79	26405.92
500.97	26541.68
501.14	26831.90
501.32	26984.04
501.49	26864.67
501.67	26974.67
501.84	27037.87
502.02	27068.30
502.20	27564.49
502.37	27555.13
502.55	27248.52
502.72	27683.86
502.90	27953.02
503.07	28006.85
503.25	27618.32
503.43	27487.25
503.60	27744.71
503.78	27796.20
503.95	28023.23
504.13	28533.47
504.30	28496.02
504.48	28276.01
504.65	28390.70
504.83	28659.86
505.01	28725.39
505.18	28610.71
505.36	29165.42
505.53	29067.11
505.71	29340.96
505.88	29209.89
506.06	28910.30
506.23	29457.98
506.41	29209.89
506.58	29605.44
506.76	29455.64
506.93	29584.37
507.11	29575.01
507.28	29762.25
507.46	30031.41
507.63	29759.91
507.81	30148.44
507.98	29926.09
508.16	30148.44
508.33	30366.11
508.50	30569.74
508.68	30408.24
508.85	30927.84
509.03	30651.66
509.20	30756.98
509.38	30665.70
509.55	30925.50
509.73	30752.30
509.90	30958.27
510.08	31009.76
510.25	30785.07
510.42	31491.91
510.60	31194.66
510.77	31604.25
510.95	31309.35
511.12	31740.00
511.30	32016.19
511.47	32460.89
511.64	31931.93
511.82	32411.74
511.99	31824.26
512.17	31943.63
512.34	32290.03
512.51	32177.68
512.69	32163.64
512.86	32299.39
513.04	32594.30
513.21	32486.64
513.38	32582.60
513.56	32435.14
513.73	32381.31
513.90	32982.83
514.08	32559.19
514.25	32814.31
514.43	33099.86
514.60	33177.09
514.77	32947.72
514.95	33244.97
515.12	33422.85
515.29	33317.53
515.47	33504.77
515.64	33764.57
515.81	33109.22
515.99	33853.51
516.16	33394.76
516.33	33432.21
516.51	33425.19
516.68	32889.21
516.85	33062.41
517.03	32884.53
517.20	33336.25
517.37	33799.68
517.54	33851.17
517.72	34143.74
517.89	33701.37
518.06	33703.71
518.24	34054.79
518.41	33806.70
518.58	34185.86
518.75	34047.77
518.93	34548.65
519.10	34396.51
519.27	34785.04
519.45	34941.86
519.62	35229.74
519.79	35103.35
519.96	34934.84
520.14	35014.41
520.31	34733.55
520.48	35260.17
520.65	35131.44
520.83	35421.67
521.00	35948.29
521.17	35531.67
521.34	35709.55
521.52	35962.33
521.69	35824.24
521.86	36091.06
522.03	35910.84
522.20	36058.29
522.38	36184.68
522.55	36151.91
522.72	36355.54
522.89	36163.62
523.07	36648.11
523.24	36416.40
523.41	36711.30
523.58	36402.35
523.75	36938.33
523.92	36828.33
524.10	37090.47
524.27	37036.64
524.44	37041.32
524.61	36613.00
524.78	37385.38
524.96	37244.94
525.13	37317.50
525.30	37574.96
525.47	37769.22
525.64	36884.50
525.81	37572.62
525.98	37481.34
526.16	37134.94
526.33	37195.79
526.50	37191.11
526.67	36692.58
526.84	37172.39
527.01	37057.70
527.18	37916.68
527.36	37528.15
527.53	38171.80
527.70	38543.94
527.87	38272.44
528.04	38043.07
528.21	38295.85
528.38	38040.73
528.55	38941.83
528.72	38763.95
528.89	38775.66
529.07	38473.73
529.24	38117.96
529.41	38464.36
529.58	38014.98
529.75	38279.46
529.92	38813.10
530.09	38869.28
530.26	38855.23
530.43	39220.36
530.60	38768.63
530.77	38754.59
530.94	39154.82
531.11	38913.75
531.28	39063.54
531.46	39154.82
531.63	39421.64
531.80	39604.20
531.97	38930.13
532.14	38806.08
532.31	39241.42
532.48	39201.63
532.65	39466.11
532.82	39503.56
532.99	39409.94
533.16	39531.65
533.33	39625.27
533.50	40046.57
533.67	39934.22
533.84	39721.23
534.01	39700.17
534.18	39889.75
534.35	40133.17
534.52	39761.02
534.69	40325.09
534.86	40491.27
535.03	40224.45
535.20	40243.17
535.37	40215.08
535.54	40484.25
535.71	40336.79
535.88	40725.32
536.05	40231.47
536.22	40694.89
536.38	40561.48
536.55	40304.02
536.72	40575.53
536.89	40512.33
537.06	40701.92
537.23	41212.15
537.40	40587.23
537.57	40856.39
537.74	41186.41
537.91	41223.86
538.08	40655.11
538.25	40811.92
538.42	41155.98
538.59	41139.60
538.75	41109.17
538.92	41268.33
539.09	40985.12
539.26	41265.99
539.43	40851.71
539.60	41237.90
539.77	41153.64
539.94	40933.63
540.11	41219.17
540.28	41118.53
540.44	41263.64
540.61	40898.52
540.78	41092.79
540.95	41193.43
541.12	40870.43
541.29	41249.60
541.46	41368.97
541.62	41352.58
541.79	41818.35
541.96	41097.47
542.13	41504.72
542.30	41600.68
542.47	41523.44
542.63	41757.50
542.80	42057.09
542.97	42616.47
543.14	42169.43
543.31	42459.66
543.48	42635.20
543.64	42829.46
543.81	42871.59
543.98	42281.78
544.15	42405.83
544.32	42417.53
544.48	43049.47
544.65	42541.58
544.82	42529.87
544.99	42586.05
545.16	42794.36
545.32	42618.81
545.49	42916.06
545.66	43077.56
545.83	43012.02
546.00	43559.71
546.16	42806.06
546.33	42990.96
546.50	42902.02
546.67	42651.58
546.83	42705.41
547.00	42862.23
547.17	43002.66
547.34	43119.69
547.50	43335.02
547.67	43222.67
547.84	43136.07
548.00	43143.09
548.17	43213.31
548.34	43585.46
548.51	43564.39
548.67	43201.61
548.84	43505.88
549.01	43353.74
549.18	43377.15
549.34	43358.42
549.51	44083.99
549.68	43531.62
549.84	43906.11
550.01	43934.20
550.18	43210.97
550.34	43711.84
550.51	43856.96
550.68	43555.03
550.84	43374.81
551.01	43711.84
551.18	43702.48
551.34	43889.73
551.51	44016.11
551.68	44250.17
551.84	43753.97
552.01	44191.65
552.18	44198.68
552.34	44067.61
552.51	44378.90
552.68	43971.64
552.84	43917.81
553.01	44481.88
553.18	44313.36
553.34	44271.23
553.51	43686.10
553.67	44514.65
553.84	44760.40
554.01	44268.89
554.17	44587.21
554.34	44554.44
554.51	44423.37
554.67	44645.72
554.84	44765.09
555.00	44729.98
555.17	44790.83
555.33	44563.80
555.50	44289.96
555.67	44350.81
555.83	44531.03
556.00	44610.61
556.16	45078.72
556.33	44715.93
556.50	44395.28
556.66	44617.63
556.83	44505.29
556.99	44844.66
557.16	44704.23
557.32	45052.97
557.49	44947.65
557.65	44549.76
557.82	44989.78
557.98	45275.32
558.15	44861.05
558.32	45099.78
558.48	44652.74
558.65	45111.49
558.81	44800.19
558.98	44774.45
559.14	44762.75
559.31	45647.47
559.47	45177.02
559.64	45153.62
559.80	45228.51
559.97	45022.54
560.13	44612.95
560.30	45242.56
560.46	45001.48
560.63	45151.27
560.79	45294.05
560.96	45439.16
561.12	45556.19
561.29	45476.61
561.45	45310.43
561.61	45380.65
561.78	45153.62
561.94	45153.62
562.11	45109.14
562.27	45427.46
562.44	45315.11
562.60	45251.92
562.77	45460.23
562.93	45397.03
563.10	45865.14
563.26	45013.18
563.42	45354.90
563.59	44980.42
563.75	45326.81
563.92	45741.09
564.08	45455.54
564.24	45357.24
564.41	45509.38
564.57	45958.76
564.74	45551.51
564.90	45043.61
565.07	45549.17
565.23	45603.00
565.39	45509.38
565.56	45380.65
565.72	45525.76
565.88	45567.89
566.05	45731.73
566.21	45563.21
566.38	45729.39
566.54	45827.69
566.70	45914.29
566.87	46059.40
567.03	45806.62
567.19	46326.22
567.36	45591.30
567.52	45490.65
567.68	45837.05
567.85	46061.74
568.01	45895.56
568.17	45811.31
568.34	46038.34
568.50	45450.86
568.66	45361.92
568.83	45682.58
568.99	45373.63
569.15	45790.24
569.32	45715.34
569.48	45497.67
569.64	46024.29
569.81	45933.01
569.97	46150.68
570.13	45790.24
570.30	45418.10
570.46	45848.75
570.62	45488.31
570.78	45820.67
570.95	45652.15
571.11	45654.49
571.27	45375.97
571.43	45610.02
571.60	45783.22
571.76	45860.46
571.92	45773.86
572.09	45909.61
572.25	45401.71
572.41	45689.60
572.57	45605.34
572.74	46284.09
572.90	45701.30
573.06	46312.18
573.22	45787.90
573.38	45848.75
573.55	45577.25
573.71	46237.28
573.87	46014.93
574.03	45577.25
574.20	45928.33
574.36	45904.93
574.52	46047.70
574.68	45977.48
574.84	45986.85
575.01	45663.85
575.17	46066.42
575.33	45603.00
575.49	45481.29
575.65	45940.04
575.82	46122.60
575.98	45624.06
576.14	45977.48
576.30	45748.11
576.46	46120.26
576.62	45904.93
576.79	46143.66
576.95	45694.28
577.11	45799.60
577.27	45731.73
577.43	46220.90
577.59	46054.72
577.75	46036.00
577.92	45579.59
578.08	45661.51
578.24	45804.28
578.40	45277.66
578.56	45399.37
578.72	45736.41
578.88	45979.82
579.04	46190.47
579.21	45661.51
579.37	46115.58
579.53	45874.50
579.69	45605.34
579.85	46031.32
580.01	46120.26
580.17	45925.99
580.33	46209.20
580.49	46064.08
580.65	46234.94
580.82	46340.27
580.98	46176.43
581.14	45972.80
581.30	46525.17
581.46	46017.27
581.62	45928.33
581.78	46309.84
581.94	46223.24
582.10	45902.59
582.26	45902.59
582.42	45521.08
582.58	45975.14
582.74	45954.08
582.90	46267.71
583.06	46431.55
583.22	46522.83
583.38	46548.57
583.54	46122.60
583.70	46251.33
583.86	46302.82
584.02	46007.91
584.18	46227.92
584.34	46199.83
584.50	46199.83
584.66	45925.99
584.82	45837.05
584.98	46415.16
585.14	46321.54
585.30	45965.78
585.46	46146.00
585.62	46057.06
585.78	45968.12
585.94	45684.92
586.10	45645.13
586.26	45846.41
586.42	45895.56
586.58	46014.93
586.74	46122.60
586.90	46043.02
587.06	45900.25
587.22	46103.87
587.38	45504.70
587.54	45792.58
587.70	46693.69
587.86	46073.45
588.02	46295.80
588.18	46019.61
588.34	45923.65
588.49	45507.04
588.65	45724.71
588.81	45448.52
588.97	45687.26
589.13	45481.29
589.29	45642.79
589.45	46178.77
589.61	46005.57
589.77	46263.03
589.93	45851.09
590.08	46483.04
