SpectraSuite Data File
++++++++++++++++++++++++++++++++++++
Date: Fri Oct 25 11:23:33 EDT 2013
User: price-jones
Dark Spectrum Present: No
Reference Spectrum Present: No
Number of Sampled Component Spectra: 1
Spectrometers: USB2+H05261
Integration Time (usec): 100000 (USB2+H05261)
Spectra Averaged: 1 (USB2+H05261)
Boxcar Smoothing: 0 (USB2+H05261)
Correct for Electrical Dark: No (USB2+H05261)
Strobe/Lamp Enabled: No (USB2+H05261)
Correct for Detector Non-linearity: No (USB2+H05261)
Correct for Stray Light: No (USB2+H05261)
Number of Pixels in Processed Spectrum: 2048
>>>>>Begin Processed Spectral Data<<<<<
365.73	259.80
365.92	259.80
366.12	259.80
366.32	93.62
366.52	149.79
366.72	128.73
366.91	159.16
367.11	65.54
367.31	128.73
367.51	39.79
367.70	135.75
367.90	180.22
368.10	112.35
368.30	117.03
368.49	142.77
368.69	84.26
368.89	187.24
369.09	215.33
369.28	215.33
369.48	117.03
369.68	138.09
369.87	217.67
370.07	201.29
370.27	234.05
370.47	325.33
370.66	631.94
370.86	587.47
371.06	638.97
371.25	753.65
371.45	678.76
371.65	617.90
371.84	634.29
372.04	648.33
372.24	688.12
372.44	713.86
372.63	653.01
372.83	732.59
373.03	772.38
373.22	692.80
373.42	683.44
373.62	781.74
373.81	725.57
374.01	755.99
374.21	767.70
374.40	763.01
374.60	791.10
374.79	821.53
374.99	727.91
375.19	805.14
375.38	802.80
375.58	840.25
375.78	877.70
375.97	844.93
376.17	823.87
376.37	802.80
376.56	840.25
376.76	847.27
376.95	849.61
377.15	901.11
377.35	858.98
377.54	802.80
377.74	882.38
377.93	896.43
378.13	856.64
378.33	987.71
378.52	945.58
378.72	929.19
378.91	966.64
379.11	976.00
379.31	936.21
379.50	896.43
379.70	992.39
379.89	1013.45
380.09	929.19
380.28	1011.11
380.48	976.00
380.68	976.00
380.87	1001.75
381.07	1020.47
381.26	1008.77
381.46	999.41
381.65	1095.37
381.85	987.71
382.04	1008.77
382.24	1057.92
382.43	1083.67
382.63	1064.94
382.83	1029.84
383.02	1011.11
383.22	1097.71
383.41	1172.61
383.61	1090.69
383.80	1177.29
384.00	1100.05
384.19	1123.46
384.39	1158.57
384.58	1057.92
384.78	1191.33
384.97	1226.44
385.17	1193.67
385.36	1142.18
385.56	1174.95
385.75	1198.35
385.95	1313.04
386.14	1224.10
386.34	1198.35
386.53	1207.72
386.72	1111.75
386.92	1144.52
387.11	1219.42
387.31	1287.29
387.50	1273.25
387.70	1228.78
387.89	1221.76
388.09	1221.76
388.28	1196.01
388.48	1336.45
388.67	1263.89
388.86	1329.42
389.06	1355.17
389.25	1362.19
389.45	1425.39
389.64	1315.38
389.84	1413.68
390.03	1291.98
390.22	1294.32
390.42	1380.92
390.61	1394.96
390.81	1336.45
391.00	1448.79
391.19	1299.00
391.39	1439.43
391.58	1542.41
391.78	1462.83
391.97	1519.01
392.16	1523.69
392.36	1509.65
392.55	1509.65
392.75	1537.73
392.94	1514.33
393.13	1549.43
393.33	1507.30
393.52	1467.52
393.71	1640.72
393.91	1638.38
394.10	1612.63
394.29	1570.50
394.49	1598.59
394.68	1661.78
394.88	1591.56
395.07	1682.85
395.26	1736.68
395.46	1647.74
395.65	1654.76
395.84	1631.35
396.04	1713.27
396.23	1715.61
396.42	1776.47
396.62	1842.00
396.81	1846.68
397.00	1790.51
397.19	1722.63
397.39	1788.17
397.58	1837.32
397.77	1902.86
397.97	1907.54
398.16	1870.09
398.35	1884.13
398.55	1956.69
398.74	1865.41
398.93	1909.88
399.12	1933.28
399.32	1919.24
399.51	1881.79
399.70	2059.67
399.90	1982.43
400.09	1914.56
400.28	2047.97
400.47	2029.24
400.67	2069.03
400.86	2045.63
401.05	2087.76
401.24	2059.67
401.44	2169.68
401.63	2169.68
401.82	2223.51
402.01	2207.13
402.21	2122.87
402.40	2221.17
402.59	2167.34
402.78	2267.98
402.97	2190.74
403.17	2310.11
403.36	2265.64
403.55	2300.75
403.74	2359.26
403.93	2235.21
404.13	2279.68
404.32	2186.06
404.51	2403.73
404.70	2448.20
404.89	2307.77
405.09	2497.35
405.28	2565.23
405.47	2516.08
405.66	2520.76
405.85	2628.42
406.05	2452.88
406.24	2464.58
406.43	2553.52
406.62	2628.42
406.81	2626.08
407.00	2626.08
407.20	2567.57
407.39	2530.12
407.58	2719.70
407.77	2656.51
407.96	2775.88
408.15	2768.85
408.34	2705.66
408.54	2785.24
408.73	2761.83
408.92	2719.70
409.11	2815.66
409.30	2916.31
409.49	2916.31
409.68	2892.90
409.87	2991.20
410.07	2993.55
410.26	3094.19
410.45	2918.65
410.64	3087.17
410.83	3136.32
411.02	3042.70
411.21	3201.85
411.40	3115.25
411.59	3187.81
411.78	3180.79
411.98	3243.98
412.17	3255.69
412.36	3356.33
412.55	3449.95
412.74	3346.97
412.93	3281.43
413.12	3288.45
413.31	3578.68
413.50	3447.61
413.69	3478.04
413.88	3648.90
414.07	3623.15
414.26	3613.79
414.45	3721.45
414.64	3749.54
414.83	3777.62
415.02	3709.75
415.22	3810.39
415.41	3880.61
415.60	3875.93
415.79	3817.41
415.98	4035.08
416.17	3971.89
416.36	3871.25
416.55	3955.51
416.74	4243.39
416.93	4039.76
417.12	4138.07
417.31	4067.85
417.50	4175.52
417.69	4339.35
417.88	4252.75
418.07	4365.10
418.26	4264.46
418.45	4337.01
418.64	4510.21
418.83	4449.36
419.02	4421.27
419.21	4589.79
419.39	4636.60
419.58	4475.10
419.77	4325.31
419.96	4561.70
420.15	4685.75
420.34	4571.07
420.53	4564.04
420.72	4767.67
420.91	4650.64
421.10	4645.96
421.29	4770.01
421.48	4608.51
421.67	4748.95
421.86	4791.08
422.05	4891.72
422.24	4777.03
422.43	4898.74
422.61	4833.21
422.80	4898.74
422.99	4917.47
423.18	5053.22
423.37	5088.32
423.56	4952.57
423.75	4858.95
423.94	4812.14
424.13	4554.68
424.32	4755.97
424.50	5001.72
424.69	5107.05
424.88	5069.60
425.07	5050.88
425.26	4791.08
425.45	5043.85
425.64	5027.47
425.83	5135.14
426.01	4802.78
426.20	5083.64
426.39	4952.57
426.58	5029.81
426.77	5142.16
426.96	5174.92
427.15	5198.33
427.33	5167.90
427.52	5184.29
427.71	5221.74
427.90	5132.79
428.09	5203.01
428.28	5392.59
428.46	5385.57
428.65	5507.28
428.84	5469.83
429.03	5558.77
429.22	5336.42
429.40	5493.24
429.59	5448.77
429.78	5341.10
429.97	5301.31
430.16	5533.03
430.34	5561.11
430.53	5645.37
430.72	5654.73
430.91	5619.63
431.10	5668.78
431.28	5757.72
431.47	5682.82
431.66	5816.23
431.85	5820.91
432.03	5912.19
432.22	5867.72
432.41	5977.73
432.60	5916.87
432.79	6069.01
432.97	6054.97
433.16	6059.65
433.35	5940.28
433.54	6136.88
433.72	6101.78
433.91	6237.53
434.10	6195.40
434.28	6099.44
434.47	6221.14
434.66	5994.11
434.85	6354.55
435.03	6408.39
435.22	6310.08
435.41	6623.72
435.59	6441.15
435.78	6413.07
435.97	6494.99
436.16	6406.05
436.34	6530.09
436.53	6342.85
436.72	6616.69
436.90	6380.30
437.09	6693.93
437.28	6445.84
437.46	6539.46
437.65	6651.80
437.84	6857.77
438.02	6771.17
438.21	6593.29
438.40	6600.31
438.58	6984.16
438.77	7094.16
438.96	6960.75
439.14	7049.69
439.33	7068.42
439.52	7178.42
439.70	7222.89
439.89	7447.58
440.08	7564.61
440.26	7449.93
440.45	7658.23
440.63	7548.23
440.82	7473.33
441.01	7627.81
441.19	7545.89
441.38	7588.02
441.57	7599.72
441.75	7812.71
441.94	7887.61
442.12	8124.00
442.31	8166.13
442.50	8058.46
442.68	7999.95
442.87	8107.62
443.05	8135.70
443.24	8056.12
443.43	8135.70
443.61	8177.83
443.80	8454.02
443.98	8035.06
444.17	7906.33
444.35	8304.22
444.54	8432.95
444.73	8540.61
444.91	8294.86
445.10	8416.57
445.28	8482.10
445.47	8336.99
445.65	8297.20
445.84	8491.46
446.02	8734.88
446.21	8601.47
446.39	8489.12
446.58	8493.80
446.77	8442.31
446.95	8217.62
447.14	8411.89
447.32	8491.46
447.51	8486.78
447.69	8568.70
447.88	8430.61
448.06	8655.30
448.25	8526.57
448.43	8781.69
448.62	8692.75
448.80	8568.70
448.99	8496.14
449.17	8685.73
449.36	8528.91
449.54	8950.21
449.73	8784.03
449.91	8929.14
450.10	8985.32
450.28	9071.92
450.46	9158.52
450.65	8975.95
450.83	9046.17
451.02	9146.81
451.20	9303.63
451.39	9261.50
451.57	9167.88
451.76	9102.34
451.94	9329.38
452.13	9399.59
452.31	9420.66
452.49	9097.66
452.68	9268.52
452.86	9252.14
453.05	9556.41
453.23	9640.67
453.42	9359.80
453.60	9380.87
453.78	9643.01
453.97	9383.21
454.15	9296.61
454.34	9469.81
454.52	9745.99
454.70	9776.42
454.89	9863.02
455.07	9961.32
455.26	9891.10
455.44	9980.04
455.62	10005.79
455.81	9949.62
455.99	10132.18
456.17	10076.01
456.36	10038.56
456.54	10321.76
456.73	10157.92
456.91	10361.55
457.09	10377.94
457.28	10658.80
457.46	10427.09
457.64	10691.57
457.83	10551.14
458.01	10473.90
458.19	10665.82
458.38	10555.82
458.56	10747.74
458.74	10808.59
458.93	10780.51
459.11	10691.57
459.29	10885.83
459.48	10808.59
459.66	10951.37
459.84	10916.26
460.03	11063.71
460.21	10967.75
460.39	10843.70
460.57	10764.12
460.76	11173.72
460.94	11330.53
461.12	11321.17
461.31	11187.76
461.49	11178.40
461.67	11279.04
461.85	11370.32
462.04	11302.45
462.22	12102.91
462.40	11627.78
462.59	11564.59
462.77	11599.70
462.95	11623.10
463.13	11599.70
463.32	11337.56
463.50	11744.81
463.68	11707.36
463.86	11925.03
464.05	11690.98
464.23	11716.72
464.41	11976.52
464.59	11641.82
464.78	12018.65
464.96	11941.41
465.14	11960.14
465.32	12044.40
465.50	12210.57
465.69	12311.22
465.87	12135.68
466.05	12051.42
466.23	12236.32
466.41	12278.45
466.60	12510.16
466.78	12210.57
466.96	12294.83
467.14	12175.47
467.32	12472.71
467.51	12678.68
467.69	12210.57
467.87	12409.52
468.05	12573.36
468.23	12336.96
468.41	12458.67
468.60	12674.00
468.78	12776.98
468.96	12779.32
469.14	12819.11
469.32	12980.61
469.50	12657.62
469.69	12989.97
469.87	13135.09
470.05	13263.82
470.23	13291.90
470.41	13167.85
470.59	13341.05
470.77	13022.74
470.95	13289.56
471.14	13385.52
471.32	13289.56
471.50	13551.70
471.68	13535.32
471.86	13493.19
472.04	13809.16
472.22	14005.77
472.40	13509.57
472.58	13692.13
472.77	14052.58
472.95	14171.94
473.13	14743.03
473.31	14204.71
473.49	14171.94
473.67	14211.73
473.85	14317.06
474.03	14504.30
474.21	14703.25
474.39	14853.04
474.57	14588.56
474.75	14855.38
474.93	14899.85
475.12	15126.88
475.30	15068.37
475.48	15096.46
475.66	15349.23
475.84	15190.08
476.02	15225.18
476.20	15185.40
476.38	15719.04
476.56	15917.98
476.74	15971.82
476.92	15925.00
477.10	15555.20
477.28	16259.70
477.46	16079.48
477.64	16538.23
477.82	16524.18
478.00	16889.31
478.18	16905.69
478.36	17050.80
478.54	17214.64
478.72	17282.52
478.90	17413.59
479.08	17731.90
479.26	17757.64
479.44	17577.42
479.62	17881.69
479.80	17989.36
479.98	18319.37
480.16	18300.65
480.34	18136.81
480.52	18719.60
480.70	18431.72
480.88	18478.53
481.06	18700.88
481.24	19183.03
481.41	18993.45
481.59	19527.09
481.77	19449.85
481.95	19730.72
482.13	19796.25
482.31	19424.11
482.49	20137.97
482.67	20306.49
482.85	20383.73
483.03	20636.50
483.21	20638.84
483.39	20933.75
483.57	21053.12
483.74	21111.63
483.92	21364.41
484.10	21223.98
484.28	21795.07
484.46	22391.91
484.64	22649.36
484.82	21858.26
485.00	22530.00
485.18	22852.99
485.35	23220.45
485.53	23014.49
485.71	22906.82
485.89	23456.85
486.07	23323.44
486.25	23669.84
486.43	24114.54
486.61	23700.26
486.78	23995.17
486.96	24400.08
487.14	24615.41
487.32	24819.04
487.50	24936.07
487.68	25198.21
487.85	25453.33
488.03	25507.16
488.21	25827.81
488.39	26183.57
488.57	26043.14
488.75	26115.70
488.92	26850.63
489.10	26817.86
489.28	26998.08
489.46	27054.25
489.64	27199.37
489.81	27580.87
489.99	27805.56
490.17	27814.93
490.35	28360.27
490.53	28404.74
490.70	28540.49
490.88	28556.88
491.06	28907.96
491.24	28680.92
491.41	29130.31
491.59	29259.04
491.77	29125.63
491.95	29523.52
492.13	29446.28
492.30	29921.41
492.48	30265.47
492.66	30026.73
492.84	30649.32
493.01	30782.73
493.19	30490.16
493.37	30796.77
493.54	30962.95
493.72	31611.28
493.90	31108.06
494.08	32030.23
494.25	31868.73
494.43	32320.46
494.61	32631.75
494.79	32921.98
494.96	32919.63
495.14	33099.86
495.32	33457.96
495.49	33256.67
495.67	33067.09
495.85	33333.91
496.02	34005.64
496.20	33867.55
496.38	34246.72
496.55	34132.03
496.73	35007.39
496.91	34579.07
497.09	34902.07
497.26	34822.49
497.44	34752.27
497.62	35360.81
497.79	35978.72
497.97	35576.14
498.14	36062.97
498.32	36009.14
498.50	36100.42
498.67	36547.47
498.85	36390.65
499.03	36884.50
499.20	36575.55
499.38	36959.40
499.56	36921.95
499.73	37170.05
499.91	37329.20
500.08	37883.91
500.26	37560.92
500.44	37586.66
500.61	37727.10
500.79	38022.00
500.97	38316.91
501.14	38443.30
501.32	38588.41
501.49	38768.63
501.67	38651.61
501.84	39016.73
502.02	38920.77
502.20	39222.70
502.37	39660.38
502.55	39288.23
502.72	39693.15
502.90	39599.52
503.07	39695.49
503.25	39800.81
503.43	39667.40
503.60	40837.67
503.78	40196.36
503.95	40243.17
504.13	40772.13
504.30	40898.52
504.48	40535.74
504.65	40652.76
504.83	40594.25
505.01	41301.09
505.18	41371.31
505.36	41661.54
505.53	41397.06
505.71	41738.77
505.88	41773.88
506.06	41277.69
506.23	41757.50
506.41	41596.00
506.58	42417.53
506.76	42443.27
506.93	42480.72
507.11	42714.78
507.28	42513.49
507.46	43110.33
507.63	43234.38
507.81	43592.48
507.98	43058.84
508.16	43297.57
508.33	43388.85
508.50	43779.72
508.68	43407.58
508.85	43997.39
509.03	44098.03
509.20	44058.24
509.38	44231.44
509.55	44378.90
509.73	44554.44
509.90	45006.16
510.08	44596.57
510.25	44996.80
510.42	45010.84
510.60	44872.75
510.77	44809.56
510.95	45991.53
511.12	44673.81
511.30	45689.60
511.47	45443.84
511.64	45722.37
511.82	45895.56
511.99	45619.38
512.17	46082.81
512.34	45804.28
512.51	46571.98
512.69	46454.95
512.86	46614.11
513.04	46480.70
513.21	46651.56
513.38	46869.23
513.56	47000.30
513.73	46925.40
513.90	47086.90
514.08	46866.89
514.25	47206.26
514.43	47426.28
514.60	47466.06
514.77	47398.19
514.95	48133.12
515.12	47601.82
515.29	47779.70
515.47	48016.09
515.64	48531.01
515.81	47833.53
515.99	48266.53
516.16	48725.27
516.33	48601.22
516.51	48802.51
516.68	48711.23
516.85	48463.13
517.03	48687.82
517.20	48793.15
517.37	49127.84
517.54	48872.73
517.72	48893.79
517.89	49258.91
518.06	49195.72
518.24	49184.02
518.41	49401.69
518.58	49282.32
518.75	49329.13
518.93	49717.66
519.10	49413.39
519.27	49811.28
519.45	49668.51
519.62	50162.36
519.79	49984.48
519.96	49783.19
520.14	50344.92
520.31	50253.64
520.48	50550.89
520.65	50595.36
520.83	50483.01
521.00	50733.45
521.17	50644.51
521.34	50878.57
521.52	50829.41
521.69	50791.97
521.86	50939.42
522.03	51325.61
522.20	51276.46
522.38	51517.53
522.55	51608.81
522.72	51503.49
522.89	51604.13
523.07	51784.35
523.24	51697.75
523.41	51737.54
523.58	51358.38
523.75	51903.72
523.92	51833.50
524.10	52156.50
524.27	52191.61
524.44	52053.51
524.61	52268.84
524.78	52090.96
524.96	52310.97
525.13	52430.34
525.30	52175.22
525.47	52699.50
525.64	52849.30
525.81	52624.60
525.98	52835.25
526.16	52631.63
526.33	52821.21
526.50	53268.25
526.67	52839.93
526.84	52949.94
527.01	52865.68
527.18	53048.24
527.36	52849.30
527.53	53120.80
527.70	53439.11
527.87	53411.02
528.04	53001.43
528.21	53471.88
528.38	53261.23
528.55	53612.31
528.72	53535.07
528.89	53277.61
529.07	53441.45
529.24	53471.88
529.41	53897.86
529.58	53715.29
529.75	53488.26
529.92	53766.79
530.09	54017.22
530.26	54045.31
530.43	53930.62
530.60	53790.19
530.77	54080.42
530.94	54204.47
531.11	53970.41
531.28	54010.20
531.46	54106.16
531.63	54438.52
531.80	54323.83
531.97	54452.56
532.14	54583.63
532.31	54600.02
532.48	54756.83
532.65	54590.66
532.82	54504.06
532.99	54855.14
533.16	54452.56
533.33	54937.05
533.50	54885.56
533.67	55002.59
533.84	54672.57
534.01	54939.39
534.18	54857.48
534.35	55304.52
534.52	55196.85
534.69	55133.66
534.86	55662.62
535.03	55044.72
535.20	55194.51
535.37	55311.54
535.54	55473.04
535.71	55136.00
535.88	55395.80
536.05	55622.83
536.22	55627.51
536.38	55789.01
536.55	55786.67
536.72	55774.97
536.89	55482.40
537.06	55538.57
537.23	55831.14
537.40	55447.29
537.57	55681.34
537.74	55999.66
537.91	55899.01
538.08	56034.77
538.25	55896.67
538.42	55901.36
538.59	56044.13
538.75	56088.60
538.92	56006.68
539.09	56257.12
539.26	56210.31
539.43	56236.05
539.60	56486.49
539.77	56280.52
539.94	56411.59
540.11	56411.59
540.28	56385.85
540.44	56582.45
540.61	56561.39
540.78	56334.35
540.95	56369.46
541.12	56324.99
541.29	56229.03
541.46	56587.13
541.62	56650.33
541.79	56601.18
541.96	56151.79
542.13	56692.46
542.30	56631.60
542.47	56765.01
542.63	56809.48
542.80	56802.46
542.97	57195.67
543.14	57303.34
543.31	57062.26
543.48	57181.63
543.64	57485.90
543.81	57392.28
543.98	57296.31
544.15	57375.89
544.32	57415.68
544.48	57745.70
544.65	57471.85
544.82	57441.43
544.99	57272.91
545.16	57420.36
545.32	57446.11
545.49	57888.47
545.66	57904.85
545.83	57808.89
546.00	57858.04
546.16	57663.78
546.33	57492.92
546.50	57553.77
546.67	57855.70
546.83	57537.39
547.00	57998.48
547.17	57722.29
547.34	57769.10
547.50	58096.78
547.67	58082.73
547.84	58080.39
548.00	58094.44
548.17	58159.97
548.34	58265.30
548.51	58213.80
548.67	58379.98
548.84	58188.06
549.01	58227.85
549.18	58277.00
549.34	58171.67
549.51	58277.00
549.68	58389.34
549.84	58309.77
550.01	58532.12
550.18	58440.84
550.34	58585.95
550.51	58644.46
550.68	58679.57
550.84	58445.52
551.01	58726.38
551.18	58724.04
551.34	58611.70
551.51	58452.54
551.68	58862.13
551.84	58695.95
552.01	58574.25
552.18	58679.57
552.34	58609.35
552.51	58791.92
552.68	58618.72
552.84	58756.81
553.01	59047.04
553.18	59044.69
553.34	58890.22
553.51	58721.70
553.67	59009.59
553.84	58894.90
554.01	59131.29
554.17	58958.09
554.34	58815.32
554.51	59075.12
554.67	59217.89
554.84	58930.01
555.00	59077.46
555.17	59061.08
555.33	59128.95
555.50	59007.25
555.67	59049.38
555.83	59152.36
556.00	59084.48
556.16	59522.16
556.33	59353.65
556.50	59229.60
556.66	59377.05
556.83	59302.15
556.99	59519.82
557.16	59547.91
557.32	59543.23
557.49	59721.11
557.65	59458.97
557.82	59632.17
557.98	59444.93
558.15	59524.50
558.32	59468.33
558.48	59262.36
558.65	59611.10
558.81	59636.85
558.98	59618.13
559.14	59751.54
559.31	59835.80
559.47	59849.84
559.64	59821.75
559.80	59742.17
559.97	59704.73
560.13	59688.34
560.30	59873.24
560.46	59770.26
560.63	60011.34
560.79	59896.65
560.96	59934.10
561.12	59913.03
561.29	59772.60
561.45	59620.47
561.61	59910.69
561.78	59913.03
561.94	59824.09
562.11	59856.86
562.27	59863.88
562.44	60161.13
562.60	60109.64
562.77	59948.14
562.93	59978.57
563.10	60203.26
563.26	59824.09
563.42	60224.32
563.59	59948.14
563.75	59971.55
563.92	60027.72
564.08	60083.89
564.24	60306.24
564.41	59997.29
564.57	60168.15
564.74	60282.84
564.90	60088.57
565.07	60128.36
565.23	60271.14
565.39	60198.58
565.56	60315.61
565.72	60261.77
565.88	60273.48
566.05	60016.02
566.21	60240.71
566.38	60158.79
566.54	60313.26
566.70	60341.35
566.87	60523.91
567.03	60214.96
567.19	60622.22
567.36	60416.25
567.52	60289.86
567.68	60521.57
567.85	60275.82
568.01	60292.20
568.17	60285.18
568.34	60570.72
568.50	60376.46
568.66	60324.97
568.83	60453.70
568.99	60364.76
569.15	60582.43
569.32	60470.08
569.48	60172.83
569.64	60610.51
569.81	60559.02
569.97	60409.23
570.13	60409.23
570.30	60441.99
570.46	60589.45
570.62	60453.70
570.78	60680.73
570.95	60537.96
571.11	60877.33
571.27	60547.32
571.43	60638.60
571.60	60638.60
571.76	60523.91
571.92	60692.43
572.09	60664.35
572.25	60640.94
572.41	60725.20
572.57	60577.75
572.74	60788.39
572.90	60729.88
573.06	60617.53
573.22	60891.38
573.38	60603.49
573.55	60530.93
573.71	60750.94
573.87	60760.31
574.03	60647.96
574.20	60816.48
574.36	60764.99
574.52	60807.12
574.68	60804.78
574.84	60952.23
575.01	60985.00
575.17	60823.50
575.33	60664.35
575.49	60526.25
575.65	60863.29
575.82	60961.59
575.98	60985.00
576.14	60963.93
576.30	60828.18
576.46	60774.35
576.62	60790.73
576.79	60867.97
576.95	60753.29
577.11	60818.82
577.27	60746.26
577.43	60987.34
577.59	60870.31
577.75	60903.08
577.92	60884.36
578.08	60858.61
578.24	60942.87
578.40	60963.93
578.56	61020.11
578.72	60889.04
578.88	60940.53
579.04	60907.76
579.21	60994.36
579.37	60949.89
579.53	61151.18
579.69	60795.42
579.85	60830.52
580.01	61027.13
580.17	60917.12
580.33	60849.25
580.49	61141.81
580.65	60921.80
580.82	60959.25
580.98	60903.08
581.14	60851.59
581.30	60896.06
581.46	61045.85
581.62	60982.66
581.78	61038.83
581.94	60985.00
582.10	61085.64
582.26	61038.83
582.42	60959.25
582.58	60896.06
582.74	61052.87
582.90	60959.25
583.06	60910.10
583.22	60900.74
583.38	61155.86
583.54	61176.92
583.70	60928.83
583.86	60975.64
584.02	60917.12
584.18	61190.97
584.34	60886.70
584.50	60884.36
584.66	61020.11
584.82	60800.10
584.98	61130.11
585.14	60966.27
585.30	61083.30
585.46	61155.86
585.62	60987.34
585.78	61008.40
585.94	60615.19
586.10	61116.07
586.26	61062.24
586.42	61153.52
586.58	61137.13
586.74	61116.07
586.90	61092.66
587.06	60926.49
587.22	61282.25
587.38	61212.03
587.54	61233.10
587.70	61097.34
587.86	61368.85
588.02	60999.04
588.18	61448.42
588.34	61116.07
588.49	61080.96
