SpectraSuite Data File
++++++++++++++++++++++++++++++++++++
Date: Fri Oct 25 11:25:46 EDT 2013
User: price-jones
Dark Spectrum Present: No
Reference Spectrum Present: No
Number of Sampled Component Spectra: 1
Spectrometers: USB2+H05261
Integration Time (usec): 100000 (USB2+H05261)
Spectra Averaged: 1 (USB2+H05261)
Boxcar Smoothing: 0 (USB2+H05261)
Correct for Electrical Dark: No (USB2+H05261)
Strobe/Lamp Enabled: No (USB2+H05261)
Correct for Detector Non-linearity: No (USB2+H05261)
Correct for Stray Light: No (USB2+H05261)
Number of Pixels in Processed Spectrum: 2048
>>>>>Begin Processed Spectral Data<<<<<
365.73	269.16
365.92	269.16
366.12	269.16
366.32	145.11
366.52	180.22
366.72	110.01
366.91	112.35
367.11	100.64
367.31	133.41
367.51	77.24
367.70	133.41
367.90	126.39
368.10	142.77
368.30	159.16
368.49	117.03
368.69	191.92
368.89	128.73
369.09	156.82
369.28	215.33
369.48	142.77
369.68	145.11
369.87	175.54
370.07	220.01
370.27	330.02
370.47	276.18
370.66	571.09
370.86	638.97
371.06	582.79
371.25	648.33
371.45	608.54
371.65	681.10
371.84	603.86
372.04	730.25
372.24	697.48
372.44	753.65
372.63	624.92
372.83	744.29
373.03	713.86
373.22	777.06
373.42	770.04
373.62	800.46
373.81	713.86
374.01	875.36
374.21	798.12
374.40	770.04
374.60	814.51
374.79	835.57
374.99	770.04
375.19	823.87
375.38	901.11
375.58	814.51
375.78	854.30
375.97	959.62
376.17	919.83
376.37	877.70
376.56	861.32
376.76	875.36
376.95	915.15
377.15	856.64
377.35	882.38
377.54	933.87
377.74	950.26
377.93	887.06
378.13	873.02
378.33	957.28
378.52	919.83
378.72	938.55
378.91	901.11
379.11	884.72
379.31	931.53
379.50	877.70
379.70	961.96
379.89	912.81
380.09	910.47
380.28	1004.09
380.48	968.98
380.68	959.62
380.87	959.62
381.07	987.71
381.26	1022.81
381.46	1114.10
381.65	1046.22
381.85	1034.52
382.04	1071.97
382.24	1039.20
382.43	1104.73
382.63	1102.39
382.83	1046.22
383.02	1032.18
383.22	1130.48
383.41	1081.33
383.61	1071.97
383.80	1193.67
384.00	1160.91
384.19	1135.16
384.39	1109.41
384.58	1165.59
384.78	1139.84
384.97	1137.50
385.17	1177.29
385.36	1135.16
385.56	1123.46
385.75	1107.07
385.95	1212.40
386.14	1270.91
386.34	1193.67
386.53	1128.14
386.72	1198.35
386.92	1252.19
387.11	1233.46
387.31	1266.23
387.50	1231.12
387.70	1270.91
387.89	1313.04
388.09	1341.13
388.28	1324.74
388.48	1303.68
388.67	1291.98
388.86	1418.36
389.06	1303.68
389.25	1338.79
389.45	1275.59
389.64	1315.38
389.84	1357.51
390.03	1282.61
390.22	1378.58
390.42	1247.51
390.61	1324.74
390.81	1327.08
391.00	1401.98
391.19	1394.96
391.39	1437.09
391.58	1488.58
391.78	1446.45
391.97	1535.39
392.16	1376.24
392.36	1495.60
392.55	1467.52
392.75	1458.15
392.94	1521.35
393.13	1561.14
393.33	1507.30
393.52	1514.33
393.71	1495.60
393.91	1600.93
394.10	1504.96
394.29	1544.75
394.49	1621.99
394.68	1680.50
394.88	1544.75
395.07	1682.85
395.26	1610.29
395.46	1748.38
395.65	1771.79
395.84	1722.63
396.04	1689.87
396.23	1713.27
396.42	1708.59
396.62	1750.72
396.81	1769.44
397.00	1643.06
397.19	1741.36
397.39	1947.33
397.58	1912.22
397.77	1767.10
397.97	1856.04
398.16	1837.32
398.35	1935.62
398.55	1846.68
398.74	1926.26
398.93	1980.09
399.12	1872.43
399.32	1879.45
399.51	1987.11
399.70	1989.46
399.90	1973.07
400.09	1998.82
400.28	2005.84
400.47	2076.06
400.67	2165.00
400.86	2045.63
401.05	2057.33
401.24	2080.74
401.44	2150.95
401.63	2153.29
401.82	2132.23
402.01	2097.12
402.21	2069.03
402.40	2244.57
402.59	2181.38
402.78	2162.66
402.97	2267.98
403.17	2303.09
403.36	2228.19
403.55	2300.75
403.74	2298.41
403.93	2319.47
404.13	2361.60
404.32	2373.30
404.51	2291.38
404.70	2361.60
404.89	2366.28
405.09	2415.43
405.28	2415.43
405.47	2459.90
405.66	2525.44
405.85	2511.39
406.05	2504.37
406.24	2525.44
406.43	2602.68
406.62	2668.21
406.81	2672.89
407.00	2581.61
407.20	2527.78
407.39	2672.89
407.58	2686.94
407.77	2607.36
407.96	2724.38
408.15	2832.05
408.34	2778.22
408.54	2780.56
408.73	2803.96
408.92	2710.34
409.11	2855.45
409.30	2869.50
409.49	2766.51
409.68	3054.40
409.87	2888.22
410.07	2977.16
410.26	2944.39
410.45	2920.99
410.64	3026.31
410.83	2986.52
411.02	3164.40
411.21	3316.54
411.40	3077.80
411.59	3197.17
411.78	3094.19
411.98	3157.38
412.17	3199.51
412.36	3208.87
412.55	3339.94
412.74	3419.52
412.93	3426.54
413.12	3302.50
413.31	3515.48
413.50	3400.80
413.69	3529.53
413.88	3585.70
414.07	3541.23
414.26	3644.21
414.45	3754.22
414.64	3651.24
414.83	3730.81
415.02	3693.37
415.22	3868.91
415.41	3784.65
415.60	3829.12
415.79	3957.85
415.98	3864.22
416.17	3929.76
416.36	4056.15
416.55	3939.12
416.74	4053.81
416.93	4067.85
417.12	4231.69
417.31	4126.36
417.50	4095.94
417.69	4156.79
417.88	4236.37
418.07	4245.73
418.26	4255.09
418.45	4351.06
418.64	4498.51
418.83	4402.55
419.02	4372.12
419.21	4379.14
419.39	4430.63
419.58	4479.79
419.77	4503.19
419.96	4545.32
420.15	4596.81
420.34	4629.58
420.53	4414.25
420.72	4650.64
420.91	4634.26
421.10	4578.09
421.29	4887.04
421.48	4657.67
421.67	4835.55
421.86	4774.69
422.05	4770.01
422.24	4837.89
422.43	4950.23
422.61	4931.51
422.80	4933.85
422.99	4898.74
423.18	4943.21
423.37	4929.17
423.56	4940.87
423.75	5034.49
423.94	4957.25
424.13	4629.58
424.32	4709.16
424.50	4830.87
424.69	4826.18
424.88	5008.75
425.07	4971.30
425.26	5071.94
425.45	4837.89
425.64	4901.08
425.83	5008.75
426.01	5046.20
426.20	4880.02
426.39	4933.85
426.58	5174.92
426.77	5034.49
426.96	5240.46
427.15	5217.05
427.33	5111.73
427.52	5006.41
427.71	5060.24
427.90	5298.97
428.09	5263.86
428.28	5305.99
428.46	5273.23
428.65	5207.69
428.84	5497.92
429.03	5504.94
429.22	5282.59
429.40	5369.19
429.59	5462.81
429.78	5247.48
429.97	5261.52
430.16	5455.79
430.34	5554.09
430.53	5790.49
430.72	5682.82
430.91	5778.78
431.10	5535.37
431.28	5631.33
431.47	5785.80
431.66	5685.16
431.85	5685.16
432.03	5886.45
432.22	6059.65
432.41	5984.75
432.60	5893.47
432.79	5942.62
432.97	6022.20
433.16	6071.35
433.35	5966.03
433.54	5959.00
433.72	6141.57
433.91	6047.94
434.10	6092.41
434.28	6150.93
434.47	6167.31
434.66	6087.73
434.85	6342.85
435.03	6310.08
435.22	6214.12
435.41	6473.92
435.59	6462.22
435.78	6326.47
435.97	6394.34
436.16	6406.05
436.34	6338.17
436.53	6546.48
436.72	6572.22
436.90	6265.61
437.09	6590.95
437.28	6565.20
437.46	6487.96
437.65	6569.88
437.84	6623.72
438.02	6520.73
438.21	6752.45
438.40	6729.04
438.58	6986.50
438.77	6981.82
438.96	6841.39
439.14	7045.01
439.33	7094.16
439.52	7173.74
439.70	7218.21
439.89	7290.77
440.08	7323.54
440.26	7391.41
440.45	7166.72
440.63	7358.64
440.82	7482.69
441.01	7339.92
441.19	7691.00
441.38	7466.31
441.57	7801.01
441.75	7655.89
441.94	7889.95
442.12	7981.23
442.31	7763.56
442.50	7957.82
442.68	7878.24
442.87	7939.10
443.05	8079.53
443.24	8098.25
443.43	8028.04
443.61	8135.70
443.80	8489.12
443.98	8065.49
444.17	7812.71
444.35	8168.47
444.54	8243.37
444.73	8329.97
444.91	8308.90
445.10	8386.14
445.28	8149.75
445.47	8180.17
445.65	8449.33
445.84	8512.53
446.02	8276.13
446.21	8383.80
446.39	8451.67
446.58	8468.06
446.77	8409.54
446.95	8203.58
447.14	8297.20
447.32	8402.52
447.51	8615.51
447.69	8348.69
447.88	8538.27
448.06	8477.42
448.25	8451.67
448.43	8486.78
448.62	8484.44
448.80	8414.23
448.99	8461.04
449.17	8545.30
449.36	8798.07
449.54	8798.07
449.73	8894.04
449.91	8971.27
450.10	8882.33
450.28	8915.10
450.46	9090.64
450.65	8858.93
450.83	9008.72
451.02	9092.98
451.20	9046.17
451.39	9252.14
451.57	8961.91
451.76	9055.53
451.94	9132.77
452.13	9202.99
452.31	9282.56
452.49	9188.94
452.68	9184.26
452.86	9268.52
453.05	9312.99
453.23	9341.08
453.42	9200.65
453.60	9284.91
453.78	9547.05
453.97	9334.06
454.15	9317.67
454.34	9357.46
454.52	9525.98
454.70	9717.90
454.89	9547.05
455.07	9657.05
455.26	9781.10
455.44	9867.70
455.62	9832.59
455.81	9914.51
455.99	9886.42
456.17	9727.27
456.36	9902.81
456.54	10099.41
456.73	10291.34
456.91	10317.08
457.09	10373.25
457.28	10483.26
457.46	10167.29
457.64	10546.45
457.83	10314.74
458.01	10429.43
458.19	10602.63
458.38	10504.32
458.56	10590.92
458.74	10766.46
458.93	10675.18
459.11	10497.30
459.29	10832.00
459.48	10827.32
459.66	10820.30
459.84	10846.04
460.03	11143.29
460.21	11002.86
460.39	11171.38
460.57	10932.64
460.76	11129.25
460.94	11112.86
461.12	11117.54
461.31	11028.60
461.49	11103.50
461.67	11117.54
461.85	11412.45
462.04	11033.29
462.22	12006.95
462.40	11508.41
462.59	11576.29
462.77	11379.68
462.95	11566.93
463.13	11536.50
463.32	11499.05
463.50	11501.39
463.68	11688.64
463.86	11791.62
464.05	11590.33
464.23	11587.99
464.41	11768.21
464.59	11733.11
464.78	12149.72
464.96	11950.78
465.14	11833.75
465.32	12081.85
465.50	12138.02
465.69	12257.39
465.87	12081.85
466.05	12056.10
466.23	12105.25
466.41	12044.40
466.60	12510.16
466.78	12079.50
466.96	11887.58
467.14	12252.70
467.32	12233.98
467.51	12336.96
467.69	12138.02
467.87	12217.60
468.05	12489.10
468.23	12531.23
468.41	12461.01
468.60	12620.17
468.78	12503.14
468.96	12521.87
469.14	12835.50
469.32	13032.10
469.50	12652.94
469.69	12758.26
469.87	13076.57
470.05	13282.54
470.23	13062.53
470.41	13231.05
470.59	13114.02
470.77	13163.17
470.95	13095.30
471.14	13689.79
471.32	13177.22
471.50	13516.59
471.68	13745.97
471.86	13640.64
472.04	13652.34
472.22	14031.51
472.40	13668.73
472.58	14022.15
472.77	13940.23
472.95	14174.28
473.13	14661.12
473.31	14073.64
473.49	14106.41
473.67	14059.60
473.85	14377.91
474.03	14691.54
474.21	14354.51
474.39	14778.14
474.57	14878.79
474.75	14780.48
474.93	15068.37
475.12	14679.84
475.30	15080.07
475.48	14932.62
475.66	15367.96
475.84	15096.46
476.02	15096.46
476.20	15463.92
476.38	15721.38
476.56	15864.15
476.74	16023.31
476.92	15611.37
477.10	15770.53
477.28	15850.11
477.46	16203.53
477.64	16341.62
477.82	16397.79
478.00	17008.67
478.18	16636.53
478.36	16884.62
478.54	16905.69
478.72	17193.58
478.90	17371.46
479.08	17434.65
479.26	17359.75
479.44	17738.92
479.62	17776.37
479.80	18092.34
479.98	17975.31
480.16	18506.62
480.34	17980.00
480.52	18623.64
480.70	18359.16
480.88	18293.63
481.06	18611.94
481.24	18530.02
481.41	18974.72
481.59	19330.48
481.77	19623.05
481.95	19278.99
482.13	19625.39
482.31	19503.68
482.49	20060.73
482.67	19894.55
482.85	20046.69
483.03	20638.84
483.21	20521.82
483.39	20592.03
483.57	20872.90
483.74	21067.16
483.92	21181.85
484.10	21202.91
484.28	21537.61
484.46	21743.58
484.64	22408.29
484.82	21970.61
485.00	22415.31
485.18	22789.80
485.35	22878.74
485.53	22670.43
485.71	22764.05
485.89	23552.81
486.07	23555.15
486.25	23211.09
486.43	23548.13
486.61	23550.47
486.78	23814.95
486.96	23985.81
487.14	24435.19
487.32	24210.50
487.50	24875.21
487.68	24919.68
487.85	25282.47
488.03	25450.99
488.21	25696.74
488.39	25851.22
488.57	26085.27
488.75	26026.76
488.92	26263.15
489.10	26522.95
489.28	26576.78
489.46	27016.80
489.64	27094.04
489.81	27438.10
489.99	27758.75
490.17	27414.69
490.35	27824.29
490.53	27751.73
490.70	27936.63
490.88	27999.83
491.06	28627.09
491.24	28905.62
491.41	29291.80
491.59	29521.18
491.77	29120.95
491.95	29481.39
492.13	29764.59
492.30	29900.34
492.48	29977.58
492.66	30218.66
492.84	30129.72
493.01	30403.56
493.19	30490.16
493.37	30665.70
493.54	30740.60
493.72	31283.60
493.90	31222.75
494.08	31342.11
494.25	31821.92
494.43	31531.70
494.61	32191.73
494.79	32100.45
494.96	32283.01
495.14	32708.99
495.32	32999.21
495.49	33149.01
495.67	32868.14
495.85	33256.67
496.02	33525.83
496.20	33970.54
496.38	33865.21
496.55	34015.01
496.73	35070.59
496.91	34527.58
497.09	35154.85
497.26	34740.57
497.44	34731.21
497.62	35402.94
497.79	35526.99
497.97	35264.85
498.14	36140.21
498.32	36020.84
498.50	36425.76
498.67	36451.50
498.85	36210.43
499.03	36362.56
499.20	36446.82
499.38	36636.41
499.56	36818.97
499.73	37003.87
499.91	37153.66
500.08	37378.36
500.26	36992.17
500.44	37572.62
500.61	37493.04
500.79	37890.93
500.97	37486.02
501.14	39042.48
501.32	38616.50
501.49	38237.33
501.67	38721.82
501.84	38986.30
502.02	38401.17
502.20	38885.66
502.37	38667.99
502.55	39159.50
502.72	39084.61
502.90	39126.74
503.07	39356.11
503.25	40079.33
503.43	39079.92
503.60	40156.57
503.78	40442.12
503.95	40252.53
504.13	40264.24
504.30	40533.40
504.48	40407.01
504.65	40556.80
504.83	40809.58
505.01	41104.49
505.18	40933.63
505.36	41603.02
505.53	41254.28
505.71	41504.72
505.88	41308.11
506.06	41043.63
506.23	41851.12
506.41	41347.90
506.58	42036.02
506.76	41958.78
506.93	41989.21
507.11	42237.31
507.28	42218.58
507.46	42342.63
507.63	42497.11
507.81	43295.23
507.98	42958.19
508.16	42820.10
508.33	43217.99
508.50	43344.38
508.68	43533.96
508.85	43938.88
509.03	43559.71
509.20	43765.68
509.38	44226.76
509.55	43957.60
509.73	44198.68
509.90	44041.86
510.08	44418.69
510.25	44465.50
510.42	44608.27
510.60	45050.63
510.77	45064.67
510.95	45544.48
511.12	45139.57
511.30	44568.48
511.47	45579.59
511.64	45254.26
511.82	45755.13
511.99	45387.67
512.17	45429.80
512.34	45537.46
512.51	45883.86
512.69	46536.87
512.86	46131.96
513.04	46394.10
513.21	46431.55
513.38	46450.27
513.56	46899.65
513.73	46424.53
513.90	47072.85
514.08	46532.19
514.25	47309.25
514.43	46932.42
514.60	47084.56
514.77	47372.44
514.95	47634.58
515.12	47171.16
515.29	47597.13
515.47	47566.71
515.64	47828.85
515.81	47524.58
515.99	47746.93
516.16	48119.07
516.33	48006.73
516.51	48421.00
516.68	48339.08
516.85	48341.42
517.03	48488.88
517.20	48917.20
517.37	48446.75
517.54	48940.60
517.72	48720.59
517.89	49010.82
518.06	49092.74
518.24	49104.44
518.41	48821.23
518.58	49186.36
518.75	49076.35
518.93	49705.96
519.10	49235.51
519.27	49394.67
519.45	49813.62
519.62	49932.99
519.79	49808.94
519.96	49998.52
520.14	49841.71
520.31	50057.04
520.48	50073.42
520.65	50171.72
520.83	50611.74
521.00	50120.23
521.17	50309.82
521.34	50712.39
521.52	50829.41
521.69	50703.03
521.86	50644.51
522.03	51121.98
522.20	51196.88
522.38	51557.32
522.55	51379.44
522.72	51126.66
522.89	51091.55
523.07	51536.26
523.24	51274.12
523.41	51529.23
523.58	51302.20
523.75	51632.22
523.92	51653.28
524.10	51618.17
524.27	51847.55
524.44	51952.87
524.61	51943.51
524.78	52226.71
524.96	52327.36
525.13	52065.22
525.30	52198.63
525.47	52226.71
525.64	52306.29
525.81	52413.96
525.98	52435.02
526.16	52177.56
526.33	52329.70
526.50	52816.53
526.67	52762.70
526.84	52734.61
527.01	52598.86
527.18	52839.93
527.36	52619.92
527.53	52863.34
527.70	53361.87
527.87	53116.12
528.04	53069.31
528.21	53160.59
528.38	53350.17
528.55	53502.31
528.72	53301.02
528.89	53406.34
529.07	53399.32
529.24	53139.52
529.41	53607.63
529.58	53434.43
529.75	53422.73
529.92	53563.16
530.09	53436.77
530.26	53715.29
530.43	53942.33
530.60	53645.08
530.77	53890.83
530.94	53827.64
531.11	53785.51
531.28	54101.48
531.46	54162.34
531.63	54274.68
531.80	54024.25
531.97	54045.31
532.14	54218.51
532.31	54431.50
532.48	54281.70
532.65	54370.64
532.82	54429.16
532.99	54588.31
533.16	54461.93
533.33	54543.84
533.50	54927.69
533.67	54642.15
533.84	54520.44
534.01	54705.34
534.18	54808.32
534.35	55145.36
534.52	54878.54
534.69	54995.57
534.86	55028.34
535.03	54721.72
535.20	55217.92
535.37	55173.45
535.54	55309.20
535.71	55257.71
535.88	55246.00
536.05	55241.32
536.22	55517.51
536.38	55437.93
536.55	55618.15
536.72	55571.34
536.89	55143.02
537.06	55381.76
537.23	55545.59
537.40	55487.08
537.57	55489.42
537.74	55613.47
537.91	55826.46
538.08	55674.32
538.25	55641.56
538.42	55870.93
538.59	55966.89
538.75	55896.67
538.92	55896.67
539.09	56236.05
539.26	55931.78
539.43	55877.95
539.60	56016.04
539.77	55927.10
539.94	56425.64
540.11	56388.19
540.28	56168.18
540.44	56322.65
540.61	56481.81
540.78	56130.73
540.95	56250.09
541.12	56353.08
541.29	56308.61
541.46	56385.85
541.62	56285.20
541.79	56626.92
541.96	56385.85
542.13	56294.56
542.30	56530.96
542.47	56694.80
542.63	56830.55
542.80	56760.33
542.97	56940.55
543.14	57167.58
543.31	57027.15
543.48	56975.66
543.64	57418.02
543.81	57361.85
543.98	57251.84
544.15	57076.30
544.32	57373.55
544.48	57368.87
544.65	57275.25
544.82	57272.91
544.99	57195.67
545.16	57408.66
545.32	57008.43
545.49	57401.64
545.66	57511.64
545.83	57364.19
546.00	57762.08
546.16	57626.33
546.33	57378.23
546.50	57558.45
546.67	57743.36
546.83	57293.97
547.00	57755.06
547.17	57766.76
547.34	57815.91
547.50	57904.85
547.67	57865.06
547.84	57710.59
548.00	57986.77
548.17	57958.69
548.34	57932.94
548.51	58110.82
548.67	57914.22
548.84	57968.05
549.01	57972.73
549.18	57900.17
549.34	58258.27
549.51	58089.76
549.68	58239.55
549.84	58120.18
550.01	58445.52
550.18	58319.13
550.34	58117.84
550.51	58410.41
550.68	58274.66
550.84	58066.35
551.01	58464.24
551.18	58555.52
551.34	58415.09
551.51	58504.03
551.68	58454.88
551.84	58546.16
552.01	58071.03
552.18	58461.90
552.34	58412.75
552.51	58571.91
552.68	58422.11
552.84	58447.86
553.01	58651.48
553.18	58852.77
553.34	58679.57
553.51	58684.25
553.67	58738.08
553.84	58691.27
554.01	58983.84
554.17	58859.79
554.34	58873.84
554.51	58941.71
554.67	58890.22
554.84	58780.21
555.00	58852.77
555.17	58822.34
555.33	58988.52
555.50	58780.21
555.67	58810.64
555.83	58939.37
556.00	58997.88
556.16	59330.24
556.33	59023.63
556.50	58932.35
556.66	59302.15
556.83	59138.32
556.99	59185.13
557.16	59416.84
557.32	59306.83
557.49	59440.24
557.65	59248.32
557.82	59133.63
557.98	59346.62
558.15	59405.14
558.32	59377.05
558.48	59423.86
558.65	59351.30
558.81	59309.18
558.98	59267.05
559.14	59412.16
559.31	59599.40
559.47	59360.67
559.64	59566.63
559.80	59409.82
559.97	59559.61
560.13	59487.06
560.30	59683.66
560.46	59580.68
560.63	59653.23
560.79	59671.96
560.96	59709.41
561.12	59664.94
561.29	59690.68
561.45	59648.55
561.61	59842.82
561.78	59777.28
561.94	59625.15
562.11	59770.26
562.27	59842.82
562.44	59798.35
562.60	59906.01
562.77	59796.01
562.93	59840.48
563.10	60119.00
563.26	59728.13
563.42	60137.72
563.59	59840.48
563.75	59849.84
563.92	60060.49
564.08	59756.22
564.24	60205.60
564.41	60088.57
564.57	60048.78
564.74	60046.44
564.90	59994.95
565.07	59882.61
565.23	59971.55
565.39	59934.10
565.56	59929.42
565.72	59997.29
565.88	59913.03
566.05	60147.09
566.21	60011.34
566.38	59957.50
566.54	60303.90
566.70	60254.75
566.87	60427.95
567.03	60254.75
567.19	60268.79
567.36	60243.05
567.52	59943.46
567.68	60484.12
567.85	60224.32
568.01	60182.19
568.17	60133.04
568.34	60446.68
568.50	60182.19
568.66	60086.23
568.83	60189.22
568.99	60280.50
569.15	60336.67
569.32	60381.14
569.48	60289.86
569.64	60470.08
569.81	60294.54
569.97	60170.49
570.13	60360.08
570.30	60219.64
570.46	60193.90
570.62	60327.31
570.78	60357.74
570.95	60378.80
571.11	60353.05
571.27	60317.95
571.43	60369.44
571.60	60395.18
571.76	60395.18
571.92	60561.36
572.09	60285.18
572.25	60463.06
572.41	60402.21
572.57	60437.31
572.74	60472.42
572.90	60474.76
573.06	60486.46
573.22	60505.19
573.38	60687.75
573.55	60523.91
573.71	60566.04
573.87	60612.85
574.03	60453.70
574.20	60608.17
574.36	60512.21
574.52	60495.83
574.68	60589.45
574.84	60856.27
575.01	60659.66
575.17	60629.24
575.33	60582.43
575.49	60505.19
575.65	60591.79
575.82	60685.41
575.98	60638.60
576.14	60844.57
576.30	60669.03
576.46	60650.30
576.62	60601.15
576.79	60343.69
576.95	60441.99
577.11	60678.39
577.27	60781.37
577.43	60835.20
577.59	60652.64
577.75	60608.17
577.92	60725.20
578.08	60542.64
578.24	60849.25
578.40	60823.50
578.56	60835.20
578.72	60814.14
578.88	60963.93
579.04	60992.02
579.21	60830.52
579.37	60872.65
579.53	60968.61
579.69	60533.28
579.85	60615.19
580.01	60500.51
580.17	60671.37
580.33	60727.54
580.49	60790.73
580.65	60818.82
580.82	60786.05
580.98	60790.73
581.14	60722.86
581.30	61064.58
581.46	60804.78
581.62	60835.20
581.78	60584.77
581.94	60746.26
582.10	60963.93
582.26	60734.56
582.42	60823.50
582.58	60828.18
582.74	60687.75
582.90	60596.47
583.06	60706.47
583.22	60807.12
583.38	60755.63
583.54	60907.76
583.70	60750.94
583.86	60987.34
584.02	60893.72
584.18	60900.74
584.34	60914.78
584.50	60849.25
584.66	60933.51
584.82	60858.61
584.98	60858.61
585.14	60842.23
585.30	60877.33
585.46	61024.79
585.62	60793.07
585.78	60921.80
585.94	60636.26
586.10	60830.52
586.26	60893.72
586.42	61034.15
586.58	61064.58
586.74	60942.87
586.90	61066.92
587.06	60837.54
587.22	61050.53
587.38	60938.19
587.54	61059.90
587.70	61176.92
587.86	60963.93
588.02	60839.89
588.18	61062.24
588.34	61172.24
588.49	61080.96
