SpectraSuite Data File
++++++++++++++++++++++++++++++++++++
Date: Fri Oct 25 11:23:33 EDT 2013
User: price-jones
Dark Spectrum Present: No
Reference Spectrum Present: No
Number of Sampled Component Spectra: 1
Spectrometers: USB2+H05261
Integration Time (usec): 100000 (USB2+H05261)
Spectra Averaged: 1 (USB2+H05261)
Boxcar Smoothing: 0 (USB2+H05261)
Correct for Electrical Dark: No (USB2+H05261)
Strobe/Lamp Enabled: No (USB2+H05261)
Correct for Detector Non-linearity: No (USB2+H05261)
Correct for Stray Light: No (USB2+H05261)
Number of Pixels in Processed Spectrum: 2048
>>>>>Begin Processed Spectral Data<<<<<
365.73	212.99
365.92	212.99
366.12	212.99
366.32	149.79
366.52	107.66
366.72	98.30
366.91	58.51
367.11	119.37
367.31	182.56
367.51	159.16
367.70	91.28
367.90	84.26
368.10	93.62
368.30	72.56
368.49	79.58
368.69	142.77
368.89	110.01
369.09	189.58
369.28	205.97
369.48	135.75
369.68	236.39
369.87	173.20
370.07	166.18
370.27	236.39
370.47	292.57
370.66	613.22
370.86	580.45
371.06	622.58
371.25	772.38
371.45	770.04
371.65	653.01
371.84	739.61
372.04	678.76
372.24	795.78
372.44	678.76
372.63	748.97
372.83	741.95
373.03	802.80
373.22	774.72
373.42	760.67
373.62	713.86
373.81	751.31
374.01	802.80
374.21	816.85
374.40	779.40
374.60	901.11
374.79	788.76
374.99	772.38
375.19	791.10
375.38	856.64
375.58	807.48
375.78	912.81
375.97	875.36
376.17	854.30
376.37	851.96
376.56	940.90
376.76	854.30
376.95	807.48
377.15	931.53
377.35	943.24
377.54	936.21
377.74	866.00
377.93	800.46
378.13	905.79
378.33	931.53
378.52	929.19
378.72	929.19
378.91	910.47
379.11	1022.81
379.31	950.26
379.50	919.83
379.70	919.83
379.89	947.92
380.09	901.11
380.28	957.28
380.48	947.92
380.68	945.58
380.87	926.85
381.07	1041.54
381.26	1083.67
381.46	1008.77
381.65	985.37
381.85	1069.62
382.04	1011.11
382.24	1090.69
382.43	997.07
382.63	1027.50
382.83	992.39
383.02	1078.99
383.22	1109.41
383.41	1048.56
383.61	1146.86
383.80	1109.41
384.00	1107.07
384.19	1116.44
384.39	1123.46
384.58	1135.16
384.78	1130.48
384.97	1090.69
385.17	1214.74
385.36	1149.20
385.56	1188.99
385.75	1128.14
385.95	1104.73
386.14	1256.87
386.34	1191.33
386.53	1228.78
386.72	1153.88
386.92	1268.57
387.11	1188.99
387.31	1287.29
387.50	1280.27
387.70	1240.48
387.89	1270.91
388.09	1231.12
388.28	1296.66
388.48	1306.02
388.67	1394.96
388.86	1324.74
389.06	1355.17
389.25	1320.06
389.45	1317.72
389.64	1404.32
389.84	1380.92
390.03	1394.96
390.22	1359.85
390.42	1343.47
390.61	1404.32
390.81	1383.26
391.00	1329.42
391.19	1430.07
391.39	1369.21
391.58	1416.02
391.78	1542.41
391.97	1490.92
392.16	1509.65
392.36	1575.18
392.55	1427.73
392.75	1416.02
392.94	1577.52
393.13	1497.94
393.33	1509.65
393.52	1593.90
393.71	1516.67
393.91	1621.99
394.10	1584.54
394.29	1610.29
394.49	1563.48
394.68	1633.69
394.88	1668.80
395.07	1713.27
395.26	1661.78
395.46	1664.12
395.65	1647.74
395.84	1732.00
396.04	1907.54
396.23	1748.38
396.42	1755.40
396.62	1774.13
396.81	1753.06
397.00	1652.42
397.19	1760.08
397.39	1795.19
397.58	1689.87
397.77	1703.91
397.97	1785.83
398.16	1767.10
398.35	1856.04
398.55	1851.36
398.74	1907.54
398.93	2003.50
399.12	2008.18
399.32	1877.11
399.51	1884.13
399.70	1963.71
399.90	2062.01
400.09	2017.54
400.28	2083.08
400.47	2101.80
400.67	2136.91
400.86	2057.33
401.05	2080.74
401.24	2031.58
401.44	2179.04
401.63	2228.19
401.82	2214.15
402.01	2094.78
402.21	2188.40
402.40	2204.78
402.59	2246.91
402.78	2160.31
402.97	2216.49
403.17	2305.43
403.36	2232.87
403.55	2293.72
403.74	2394.37
403.93	2286.70
404.13	2382.67
404.32	2443.52
404.51	2328.83
404.70	2370.96
404.89	2352.24
405.09	2581.61
405.28	2422.45
405.47	2511.39
405.66	2406.07
405.85	2495.01
406.05	2558.21
406.24	2546.50
406.43	2476.29
406.62	2637.78
406.81	2619.06
407.00	2630.76
407.20	2504.37
407.39	2513.74
407.58	2708.00
407.77	2722.04
407.96	2689.28
408.15	2820.35
408.34	2726.72
408.54	2747.79
408.73	2724.38
408.92	2785.24
409.11	2881.20
409.30	2782.90
409.49	2897.58
409.68	2904.60
409.87	2986.52
410.07	3035.67
410.26	2977.16
410.45	3070.78
410.64	3052.06
410.83	3112.91
411.02	3080.14
411.21	3253.34
411.40	3131.64
411.59	3279.09
411.78	3269.73
411.98	3218.24
412.17	3201.85
412.36	3246.32
412.55	3304.84
412.74	3433.57
412.93	3377.39
413.12	3288.45
413.31	3506.12
413.50	3536.55
413.69	3433.57
413.88	3522.51
414.07	3494.42
414.26	3770.60
414.45	3716.77
414.64	3693.37
414.83	3744.86
415.02	3789.33
415.22	3953.16
415.41	3812.73
415.60	3836.14
415.79	3941.46
415.98	3843.16
416.17	4072.53
416.36	3929.76
416.55	3960.19
416.74	4009.34
416.93	3971.89
417.12	4107.64
417.31	4156.79
417.50	4238.71
417.69	4322.97
417.88	4227.01
418.07	4266.80
418.26	4440.00
418.45	4273.82
418.64	4620.22
418.83	4341.69
419.02	4517.23
419.21	4477.44
419.39	4533.62
419.58	4468.08
419.77	4465.74
419.96	4552.34
420.15	4648.30
420.34	4526.60
420.53	4409.57
420.72	4699.80
420.91	4592.13
421.10	4851.93
421.29	4835.55
421.48	4671.71
421.67	4786.40
421.86	4861.29
422.05	4793.42
422.24	4631.92
422.43	4755.97
422.61	4830.87
422.80	5022.79
422.99	4891.72
423.18	4875.34
423.37	4882.36
423.56	4966.62
423.75	4868.31
423.94	4973.64
424.13	4641.28
424.32	4760.65
424.50	5146.84
424.69	5179.61
424.88	4997.04
425.07	4980.66
425.26	4961.94
425.45	4903.42
425.64	5008.75
425.83	4842.57
426.01	5100.03
426.20	5043.85
426.39	4940.87
426.58	5006.41
426.77	4961.94
426.96	5132.79
427.15	5090.67
427.33	5177.26
427.52	5193.65
427.71	5144.50
427.90	5245.14
428.09	5198.33
428.28	5348.12
428.46	5387.91
428.65	5259.18
428.84	5514.30
429.03	5385.57
429.22	5305.99
429.40	5369.19
429.59	5509.62
429.78	5308.34
429.97	5280.25
430.16	5572.82
430.34	5640.69
430.53	5621.97
430.72	5579.84
430.91	5701.54
431.10	5720.27
431.28	5802.19
431.47	5846.66
431.66	5893.47
431.85	5762.40
432.03	5863.04
432.22	6083.05
432.41	5973.05
432.60	5790.49
432.79	5884.11
432.97	6078.37
433.16	6045.60
433.35	5933.26
433.54	6221.14
433.72	6181.35
433.91	6029.22
434.10	6097.10
434.28	6174.33
434.47	6057.31
434.66	6148.59
434.85	6296.04
435.03	6312.42
435.22	6303.06
435.41	6333.49
435.59	6434.13
435.78	6576.91
435.97	6394.34
436.16	6415.41
436.34	6347.53
436.53	6436.47
436.72	6675.21
436.90	6492.65
437.09	6581.59
437.28	6324.13
437.46	6396.68
437.65	6759.47
437.84	6633.08
438.02	6572.22
438.21	6780.53
438.40	6609.67
438.58	7131.61
438.77	7035.65
438.96	6942.03
439.14	7103.53
439.33	7042.67
439.52	7199.49
439.70	7281.41
439.89	7344.60
440.08	7314.17
440.26	7239.28
440.45	7494.40
440.63	7470.99
440.82	7786.96
441.01	7543.55
441.19	7728.45
441.38	7721.43
441.57	7747.17
441.75	7789.30
441.94	7819.73
442.12	7833.77
442.31	7992.93
442.50	7829.09
442.68	8016.33
442.87	7915.69
443.05	8079.53
443.24	8238.69
443.43	8280.82
443.61	8201.24
443.80	8425.93
443.98	8044.42
444.17	7925.05
444.35	8257.41
444.54	8269.11
444.73	8205.92
444.91	8418.91
445.10	8418.91
445.28	8404.86
445.47	8315.92
445.65	8360.39
445.84	8664.66
446.02	8339.33
446.21	8306.56
446.39	8308.90
446.58	8533.59
446.77	8463.38
446.95	8376.78
447.14	8585.08
447.32	8517.21
447.51	8489.12
447.69	8435.29
447.88	8456.36
448.06	8688.07
448.25	8407.20
448.43	8446.99
448.62	8517.21
448.80	8638.92
448.99	8533.59
449.17	8744.24
449.36	8629.56
449.54	8877.65
449.73	9018.08
449.91	9011.06
450.10	8877.65
450.28	9125.75
450.46	9081.28
450.65	9039.15
450.83	9142.13
451.02	8805.10
451.20	9221.71
451.39	9144.47
451.57	8954.89
451.76	9275.54
451.94	9132.77
452.13	9387.89
452.31	9163.20
452.49	9151.49
452.68	9359.80
452.86	9221.71
453.05	9514.28
453.23	9521.30
453.42	9261.50
453.60	9310.65
453.78	9591.52
453.97	9165.54
454.15	9263.84
454.34	9488.53
454.52	9764.72
454.70	9561.09
454.89	9582.15
455.07	9626.62
455.26	9958.98
455.44	9851.31
455.62	9940.26
455.81	9816.21
455.99	9987.07
456.17	10059.62
456.36	10118.14
456.54	10190.69
456.73	10246.87
456.91	10586.24
457.09	10377.94
457.28	10377.94
457.46	10480.92
457.64	10501.98
457.83	10452.83
458.01	10448.15
458.19	10572.20
458.38	10310.06
458.56	10637.73
458.74	10565.18
458.93	10590.92
459.11	10754.76
459.29	10389.64
459.48	10897.53
459.66	10637.73
459.84	10923.28
460.03	11154.99
460.21	11126.91
460.39	10771.15
460.57	11028.60
460.76	11021.58
460.94	11176.06
461.12	11133.93
461.31	11215.85
461.49	11438.20
461.67	11105.84
461.85	11400.75
462.04	11325.85
462.22	11868.86
462.40	11688.64
462.59	11599.70
462.77	11550.54
462.95	11712.04
463.13	11618.42
463.32	11637.14
463.50	11653.53
463.68	11618.42
463.86	11669.91
464.05	11545.86
464.23	11651.19
464.41	11971.84
464.59	11648.85
464.78	12376.75
464.96	11756.51
465.14	11946.09
465.32	12105.25
465.50	11878.22
465.69	12196.53
465.87	12159.08
466.05	12037.38
466.23	12152.06
466.41	12219.94
466.60	12437.61
466.78	12416.54
466.96	12318.24
467.14	11978.86
467.32	12613.15
467.51	12634.21
467.69	12173.13
467.87	12545.27
468.05	12510.16
468.23	12341.64
468.41	12432.93
468.60	12479.74
468.78	12709.11
468.96	12690.38
469.14	12683.36
469.32	12945.50
469.50	12615.49
469.69	13074.23
469.87	13078.91
470.05	12950.18
470.23	13104.66
470.41	13041.46
470.59	13263.82
470.77	13434.68
470.95	13128.06
471.14	13678.09
471.32	13441.70
471.50	13762.35
471.68	13678.09
471.86	13610.22
472.04	14026.83
472.22	14068.96
472.40	13685.11
472.58	13764.69
472.77	14221.10
472.95	14003.43
473.13	14356.85
473.31	14078.32
473.49	14209.39
473.67	13984.70
473.85	14445.79
474.03	14738.35
474.21	14534.73
474.39	14839.00
474.57	14855.38
474.75	14993.47
474.93	15019.22
475.12	14764.10
475.30	15040.28
475.48	15309.44
475.66	15056.67
475.84	15353.91
476.02	15431.15
476.20	15417.11
476.38	15669.89
476.56	15950.75
476.74	15777.55
476.92	15800.96
477.10	15499.03
477.28	16156.72
477.46	16369.71
477.64	16475.03
477.82	16559.29
478.00	17069.53
478.18	16865.90
478.36	16858.88
478.54	17310.60
478.72	17195.92
478.90	17556.36
479.08	17818.50
479.26	17785.73
479.44	17790.41
479.62	17994.04
479.80	18024.47
479.98	18328.74
480.16	18553.43
480.34	18038.51
480.52	18726.63
480.70	18611.94
480.88	18485.55
481.06	18810.89
481.24	18862.38
481.41	19321.12
481.59	19346.87
481.77	19456.87
481.95	19433.47
482.13	19962.43
482.31	19592.62
482.49	20350.96
482.67	20383.73
482.85	20477.35
483.03	20624.80
483.21	20765.23
483.39	21006.31
483.57	20973.54
483.74	21233.34
483.92	21460.37
484.10	21633.57
484.28	21689.74
484.46	21923.80
484.64	22331.05
484.82	21694.43
485.00	22476.16
485.18	22876.40
485.35	22787.46
485.53	23014.49
485.71	22913.84
485.89	23241.52
486.07	23440.47
486.25	23201.73
486.43	23632.39
486.61	24215.18
486.78	24126.24
486.96	24081.77
487.14	24456.26
487.32	24814.36
487.50	25179.48
487.68	24662.22
487.85	24975.86
488.03	25731.85
488.21	25823.13
488.39	25900.37
488.57	26129.74
488.75	25830.15
488.92	26471.46
489.10	26883.39
489.28	27021.48
489.46	26876.37
489.64	26644.66
489.81	27791.52
489.99	27871.10
490.17	27873.44
490.35	27985.79
490.53	28264.31
490.70	28594.32
490.88	28271.33
491.06	29083.50
491.24	28669.22
491.41	29362.02
491.59	29586.71
491.77	29408.83
491.95	29628.84
492.13	29926.09
492.30	30068.86
492.48	30382.49
492.66	30457.39
492.84	30169.51
493.01	30567.40
493.19	30583.78
493.37	31000.40
493.54	31412.33
493.72	31522.34
493.90	31246.15
494.08	31791.50
494.25	32095.77
494.43	31945.97
494.61	32294.71
494.79	32458.55
494.96	32671.54
495.14	32865.80
495.32	33350.29
495.49	32985.17
495.67	33268.37
495.85	33701.37
496.02	34110.97
496.20	33989.26
496.38	33965.85
496.55	33919.04
496.73	34866.96
496.91	34733.55
497.09	35405.28
497.26	34796.74
497.44	34686.74
497.62	35196.98
497.79	35927.22
497.97	35512.95
498.14	35845.30
498.32	36172.98
498.50	35943.61
498.67	36788.54
498.85	36767.48
499.03	36989.83
499.20	36645.77
499.38	36982.80
499.56	37207.50
499.73	37378.36
499.91	37296.44
500.08	37778.59
500.26	37125.58
500.44	38197.54
500.61	37834.76
500.79	37958.81
500.97	38153.07
501.14	38712.46
501.32	38522.88
501.49	38485.43
501.67	38675.01
501.84	39000.35
502.02	38897.36
502.20	39370.15
502.37	39393.56
502.55	39491.86
502.72	39985.71
502.90	39299.94
503.07	39477.82
503.25	40121.46
503.43	39681.44
503.60	40271.26
503.78	40252.53
503.95	40189.34
504.13	40348.50
504.30	40893.84
504.48	40612.98
504.65	40744.05
504.83	41191.09
505.01	41460.25
505.18	41570.25
505.36	41567.91
505.53	41432.16
505.71	41521.10
505.88	41778.56
506.06	41212.15
506.23	41888.57
506.41	41703.67
506.58	42176.45
506.76	42347.31
506.93	42258.37
507.11	42131.98
507.28	42728.82
507.46	42880.95
507.63	43051.81
507.81	42974.58
507.98	43082.24
508.16	43002.66
508.33	43372.47
508.50	43585.46
508.68	43276.51
508.85	43840.57
509.03	43910.79
509.20	43910.79
509.38	44250.17
509.55	44741.68
509.73	44371.88
509.90	44542.74
510.08	44381.24
510.25	44694.87
510.42	44982.76
510.60	44807.22
510.77	45359.58
510.95	45717.68
511.12	45069.36
511.30	45504.70
511.47	45504.70
511.64	45689.60
511.82	46195.15
511.99	45656.83
512.17	45958.76
512.34	45986.85
512.51	46260.69
512.69	46398.78
512.86	46326.22
513.04	46508.79
513.21	46742.84
513.38	46567.30
513.56	47028.38
513.73	46621.13
513.90	46522.83
514.08	47206.26
514.25	47351.38
514.43	47686.07
514.60	47643.94
514.77	47304.57
514.95	47753.95
515.12	47634.58
515.29	47763.31
515.47	47950.56
515.64	48133.12
515.81	48268.87
515.99	47962.26
516.16	48978.05
516.33	48355.47
516.51	48722.93
516.68	48694.85
516.85	48559.09
517.03	48811.87
517.20	48896.13
517.37	48931.24
517.54	48910.17
517.72	48877.41
517.89	49289.34
518.06	49151.25
518.24	49397.01
518.41	49270.62
518.58	49514.03
518.75	49418.07
518.93	49488.29
519.10	49425.09
519.27	49645.10
519.45	49811.28
519.62	50092.15
519.79	49996.18
519.96	50028.95
520.14	50501.74
520.31	50024.27
520.48	50728.77
520.65	50263.00
520.83	50616.43
521.00	50515.78
521.17	50597.70
521.34	50703.03
521.52	50791.97
521.69	50703.03
521.86	51370.08
522.03	50946.44
522.20	51281.14
522.38	51611.15
522.55	51454.34
522.72	51475.40
522.89	51407.53
523.07	51770.31
523.24	51526.89
523.41	51753.93
523.58	51512.85
523.75	52112.03
523.92	51765.63
524.10	52105.01
524.27	52189.27
524.44	52044.15
524.61	52259.48
524.78	52315.65
524.96	52367.15
525.13	52439.70
525.30	52451.41
525.47	52739.29
525.64	52385.87
525.81	52886.74
525.98	52552.05
526.16	52736.95
526.33	52753.33
526.50	52935.90
526.67	52809.51
526.84	52971.00
527.01	53001.43
527.18	52935.90
527.36	52961.64
527.53	52917.17
527.70	53176.97
527.87	53535.07
528.04	53251.87
528.21	53228.46
528.38	53183.99
528.55	53425.07
528.72	53464.86
528.89	53396.98
529.07	53600.61
529.24	53600.61
529.41	53776.15
529.58	53872.11
529.75	53652.10
529.92	53689.55
530.09	53694.23
530.26	53876.79
530.43	53968.07
530.60	53773.81
530.77	53977.43
530.94	54021.90
531.11	54075.74
531.28	54148.29
531.46	54253.62
531.63	54354.26
531.80	54387.03
531.97	54461.93
532.14	54595.34
532.31	54408.09
532.48	54756.83
532.65	54712.36
532.82	54478.31
532.99	54630.44
533.16	54564.91
533.33	55136.00
533.50	55068.12
533.67	54857.48
533.84	54831.73
534.01	54845.77
534.18	54864.50
534.35	55117.28
534.52	55030.68
534.69	55185.15
534.86	55262.39
535.03	55133.66
535.20	55133.66
535.37	55398.14
535.54	55246.00
535.71	55173.45
535.88	55384.10
536.05	55444.95
536.22	55515.17
536.38	55688.37
536.55	55817.10
536.72	55629.85
536.89	55491.76
537.06	55777.31
537.23	55791.35
537.40	55683.69
537.57	55732.84
537.74	56196.26
537.91	56100.30
538.08	56051.15
538.25	55824.12
538.42	55945.83
538.59	56086.26
538.75	56034.77
538.92	55910.72
539.09	56332.01
539.26	56355.42
539.43	55964.55
539.60	56397.55
539.77	56238.39
539.94	56704.16
540.11	56198.60
540.28	56559.05
540.44	56516.92
540.61	56313.29
540.78	56453.72
540.95	56418.61
541.12	56580.11
541.29	56519.26
541.46	56554.36
541.62	56582.45
541.79	56853.95
541.96	56451.38
542.13	56704.16
542.30	56589.47
542.47	56947.57
542.63	56996.73
542.80	56914.81
542.97	56940.55
543.14	57249.50
543.31	57001.41
543.48	57158.22
543.64	57476.54
543.81	57443.77
543.98	57303.34
544.15	57427.38
544.32	57462.49
544.48	57450.79
544.65	57303.34
544.82	57371.21
544.99	57162.90
545.16	57619.31
545.32	57190.99
545.49	57481.22
545.66	57778.46
545.83	57694.21
546.00	57867.40
546.16	57757.40
546.33	57516.32
546.50	57553.77
546.67	57448.45
546.83	57551.43
547.00	57851.02
547.17	57829.96
547.34	57970.39
547.50	58096.78
547.67	58171.67
547.84	58101.46
548.00	58136.57
548.17	58045.29
548.34	58131.89
548.51	58291.04
548.67	58330.83
548.84	58080.39
549.01	58258.27
549.18	58195.08
549.34	58295.72
549.51	58398.71
549.68	58525.10
549.84	58389.34
550.01	58246.57
550.18	58122.52
550.34	58588.29
550.51	58438.50
550.68	58417.43
550.84	58185.72
551.01	58681.91
551.18	58473.60
551.34	58599.99
551.51	58468.92
551.68	58532.12
551.84	58595.31
552.01	58672.55
552.18	58555.52
552.34	58602.33
552.51	58719.36
552.68	58597.65
552.84	58932.35
553.01	58922.99
553.18	58735.74
553.34	58742.77
553.51	58581.27
553.67	58906.60
553.84	59009.59
554.01	58986.18
554.17	59049.38
554.34	59065.76
554.51	58937.03
554.67	58990.86
554.84	59040.01
555.00	58990.86
555.17	59147.68
555.33	59018.95
555.50	58922.99
555.67	59056.40
555.83	59152.36
556.00	59143.00
556.16	59526.84
556.33	59332.58
556.50	59260.02
556.66	59381.73
556.83	59292.79
556.99	59426.20
557.16	59533.87
557.32	59353.65
557.49	59758.56
557.65	59508.12
557.82	59355.99
557.98	59480.03
558.15	59611.10
558.32	59482.37
558.48	59157.04
558.65	59430.88
558.81	59540.89
558.98	59859.20
559.14	59693.02
559.31	59732.81
559.47	59777.28
559.64	59805.37
559.80	59901.33
559.97	59828.77
560.13	59611.10
560.30	59793.67
560.46	59653.23
560.63	59952.82
560.79	59849.84
560.96	59903.67
561.12	59763.24
561.29	59994.95
561.45	59695.36
561.61	59807.71
561.78	59896.65
561.94	59994.95
562.11	59831.11
562.27	59957.50
562.44	60058.15
562.60	60140.07
562.77	60121.34
562.93	59915.37
563.10	60060.49
563.26	59711.75
563.42	60292.20
563.59	60046.44
563.75	60053.47
563.92	60081.55
564.08	60048.78
564.24	60116.66
564.41	60034.74
564.57	60142.41
564.74	60261.77
564.90	60186.88
565.07	60006.65
565.23	60219.64
565.39	60212.62
565.56	60219.64
565.72	60135.38
565.88	60032.40
566.05	60119.00
566.21	60301.56
566.38	60257.09
566.54	60427.95
566.70	60383.48
566.87	60362.42
567.03	60264.11
567.19	60416.25
567.36	60346.03
567.52	60245.39
567.68	60701.79
567.85	60287.52
568.01	60456.04
568.17	60362.42
568.34	60505.19
568.50	60346.03
568.66	60449.02
568.83	60491.15
568.99	60191.56
569.15	60353.05
569.32	60453.70
569.48	60493.49
569.64	60516.89
569.81	60566.04
569.97	60423.27
570.13	60568.38
570.30	60329.65
570.46	60563.70
570.62	60650.30
570.78	60374.12
570.95	60552.00
571.11	60699.45
571.27	60556.68
571.43	60568.38
571.60	60891.38
571.76	60547.32
571.92	60638.60
572.09	60640.94
572.25	60605.83
572.41	60664.35
572.57	60685.41
572.74	60863.29
572.90	60561.36
573.06	60601.15
573.22	60523.91
573.38	60596.47
573.55	60643.28
573.71	60636.26
573.87	60807.12
574.03	60683.07
574.20	60647.96
574.36	60594.13
574.52	60734.56
574.68	60816.48
574.84	60931.17
575.01	60708.82
575.17	60729.88
575.33	60636.26
575.49	60727.54
575.65	60907.76
575.82	60734.56
575.98	60736.90
576.14	61099.68
576.30	60949.89
576.46	60769.67
576.62	60587.11
576.79	60963.93
576.95	60790.73
577.11	60774.35
577.27	60757.97
577.43	60816.48
577.59	60814.14
577.75	60821.16
577.92	60537.96
578.08	60942.87
578.24	60839.89
578.40	60992.02
578.56	61066.92
578.72	60750.94
578.88	61015.43
579.04	61207.35
579.21	61010.74
579.37	61087.98
579.53	61062.24
579.69	60893.72
579.85	60835.20
580.01	60949.89
580.17	60942.87
580.33	61027.13
580.49	61097.34
580.65	60802.44
580.82	60893.72
580.98	60790.73
581.14	60664.35
581.30	61069.26
581.46	60942.87
581.62	60907.76
581.78	60945.21
581.94	61071.60
582.10	60750.94
582.26	60912.44
582.42	60743.92
582.58	60940.53
582.74	61076.28
582.90	61116.07
583.06	61118.41
583.22	60954.57
583.38	61118.41
583.54	61013.08
583.70	61034.15
583.86	61006.06
584.02	60882.02
584.18	61111.39
584.34	61001.38
584.50	61226.07
584.66	60919.46
584.82	60865.63
584.98	61078.62
585.14	60987.34
585.30	60734.56
585.46	60945.21
585.62	61228.41
585.78	61031.81
585.94	61092.66
586.10	61174.58
586.26	61165.22
586.42	61092.66
586.58	60959.25
586.74	60900.74
586.90	60992.02
587.06	60938.19
587.22	61010.74
587.38	61146.50
587.54	61013.08
587.70	61165.22
587.86	61169.90
588.02	60954.57
588.18	61202.67
588.34	61064.58
588.49	61205.01
