SpectraSuite Data File
++++++++++++++++++++++++++++++++++++
Date: Fri Oct 25 11:23:40 EDT 2013
User: price-jones
Dark Spectrum Present: No
Reference Spectrum Present: No
Number of Sampled Component Spectra: 1
Spectrometers: USB2+H05261
Integration Time (usec): 100000 (USB2+H05261)
Spectra Averaged: 1 (USB2+H05261)
Boxcar Smoothing: 0 (USB2+H05261)
Correct for Electrical Dark: No (USB2+H05261)
Strobe/Lamp Enabled: No (USB2+H05261)
Correct for Detector Non-linearity: No (USB2+H05261)
Correct for Stray Light: No (USB2+H05261)
Number of Pixels in Processed Spectrum: 2048
>>>>>Begin Processed Spectral Data<<<<<
365.73	196.60
365.92	196.60
366.12	196.60
366.32	187.24
366.52	128.73
366.72	140.43
366.91	135.75
367.11	114.69
367.31	154.48
367.51	128.73
367.70	88.94
367.90	159.16
368.10	126.39
368.30	95.96
368.49	93.62
368.69	112.35
368.89	91.28
369.09	142.77
369.28	175.54
369.48	187.24
369.68	217.67
369.87	166.18
370.07	182.56
370.27	135.75
370.47	287.89
370.66	463.43
370.86	620.24
371.06	699.82
371.25	674.07
371.45	655.35
371.65	725.57
371.84	702.16
372.04	695.14
372.24	683.44
372.44	690.46
372.63	793.44
372.83	734.93
373.03	720.88
373.22	671.73
373.42	753.65
373.62	777.06
373.81	739.61
374.01	791.10
374.21	795.78
374.40	800.46
374.60	884.72
374.79	770.04
374.99	833.23
375.19	847.27
375.38	814.51
375.58	880.04
375.78	751.31
375.97	828.55
376.17	954.94
376.37	772.38
376.56	849.61
376.76	898.77
376.95	877.70
377.15	823.87
377.35	877.70
377.54	992.39
377.74	858.98
377.93	964.30
378.13	940.90
378.33	952.60
378.52	924.51
378.72	976.00
378.91	950.26
379.11	945.58
379.31	957.28
379.50	1006.43
379.70	1018.13
379.89	973.66
380.09	905.79
380.28	901.11
380.48	1022.81
380.68	1015.79
380.87	931.53
381.07	1041.54
381.26	1001.75
381.46	1046.22
381.65	1055.58
381.85	978.34
382.04	1018.13
382.24	1027.50
382.43	1055.58
382.63	978.34
382.83	1097.71
383.02	1034.52
383.22	1032.18
383.41	1067.28
383.61	1165.59
383.80	1144.52
384.00	1163.25
384.19	1081.33
384.39	1151.54
384.58	1102.39
384.78	1139.84
384.97	1217.08
385.17	1118.78
385.36	1184.31
385.56	1153.88
385.75	1153.88
385.95	1132.82
386.14	1205.38
386.34	1352.83
386.53	1235.80
386.72	1275.59
386.92	1186.65
387.11	1303.68
387.31	1226.44
387.50	1118.78
387.70	1188.99
387.89	1238.14
388.09	1207.72
388.28	1324.74
388.48	1238.14
388.67	1336.45
388.86	1329.42
389.06	1308.36
389.25	1296.66
389.45	1277.93
389.64	1352.83
389.84	1423.05
390.03	1418.36
390.22	1380.92
390.42	1444.11
390.61	1277.93
390.81	1390.28
391.00	1320.06
391.19	1380.92
391.39	1490.92
391.58	1355.17
391.78	1467.52
391.97	1420.71
392.16	1437.09
392.36	1474.54
392.55	1420.71
392.75	1584.54
392.94	1418.36
393.13	1547.09
393.33	1570.50
393.52	1568.16
393.71	1547.09
393.91	1554.12
394.10	1565.82
394.29	1715.61
394.49	1551.78
394.68	1619.65
394.88	1699.23
395.07	1708.59
395.26	1593.90
395.46	1675.82
395.65	1638.38
395.84	1729.66
396.04	1820.94
396.23	1678.16
396.42	1720.29
396.62	1748.38
396.81	1743.70
397.00	1790.51
397.19	1816.26
397.39	1837.32
397.58	1748.38
397.77	1680.50
397.97	1830.30
398.16	1870.09
398.35	1921.58
398.55	1806.89
398.74	1961.37
398.93	1942.64
399.12	1879.45
399.32	1994.14
399.51	1984.77
399.70	1980.09
399.90	2008.18
400.09	2029.24
400.28	2101.80
400.47	2047.97
400.67	2066.69
400.86	2076.06
401.05	2193.08
401.24	2080.74
401.44	2031.58
401.63	1961.37
401.82	2132.23
402.01	2078.40
402.21	2186.06
402.40	2188.40
402.59	2188.40
402.78	2113.50
402.97	2211.81
403.17	2373.30
403.36	2289.04
403.55	2289.04
403.74	2303.09
403.93	2324.15
404.13	2303.09
404.32	2560.55
404.51	2286.70
404.70	2349.90
404.89	2389.69
405.09	2403.73
405.28	2459.90
405.47	2586.29
405.66	2626.08
405.85	2553.52
406.05	2427.14
406.24	2588.63
406.43	2583.95
406.62	2572.25
406.81	2654.17
407.00	2560.55
407.20	2635.44
407.39	2546.50
407.58	2574.59
407.77	2689.28
407.96	2909.29
408.15	2759.49
408.34	2782.90
408.54	2778.22
408.73	2712.68
408.92	2778.22
409.11	2843.75
409.30	2920.99
409.49	2829.71
409.68	2916.31
409.87	2806.30
410.07	2970.14
410.26	3049.72
410.45	3145.68
410.64	3035.67
410.83	2949.08
411.02	3155.04
411.21	3227.60
411.40	3096.53
411.59	3248.66
411.78	3187.81
411.98	3218.24
412.17	3267.39
412.36	3286.11
412.55	3421.86
412.74	3368.03
412.93	3403.14
413.12	3279.09
413.31	3557.61
413.50	3588.04
413.69	3475.70
413.88	3494.42
414.07	3585.70
414.26	3517.83
414.45	3557.61
414.64	3705.07
414.83	3794.01
415.02	3812.73
415.22	3896.99
415.41	3896.99
415.60	3843.16
415.79	3758.90
415.98	3854.86
416.17	3880.61
416.36	3859.54
416.55	3967.21
416.74	3976.57
416.93	3983.59
417.12	4135.73
417.31	4332.33
417.50	4107.64
417.69	4229.35
417.88	4332.33
418.07	4163.81
418.26	4219.99
418.45	4320.63
418.64	4437.66
418.83	4489.15
419.02	4369.78
419.21	4514.89
419.39	4477.44
419.58	4491.49
419.77	4463.40
419.96	4491.49
420.15	4592.13
420.34	4662.35
420.53	4580.43
420.72	4716.18
420.91	4683.41
421.10	4667.03
421.29	4816.82
421.48	4674.05
421.67	4805.12
421.86	4805.12
422.05	4774.69
422.24	4823.84
422.43	4851.93
422.61	4929.17
422.80	5071.94
422.99	5039.17
423.18	5088.32
423.37	4917.47
423.56	4837.89
423.75	5004.07
423.94	4926.83
424.13	4507.87
424.32	4821.50
424.50	4849.59
424.69	5109.39
424.88	5039.17
425.07	4837.89
425.26	4809.80
425.45	4985.34
425.64	4929.17
425.83	5032.15
426.01	5006.41
426.20	5039.17
426.39	5210.03
426.58	5050.88
426.77	4987.68
426.96	5165.56
427.15	5165.56
427.33	5076.62
427.52	5193.65
427.71	5303.65
427.90	5228.76
428.09	5413.66
428.28	5373.87
428.46	5376.21
428.65	5341.10
428.84	5603.24
429.03	5432.38
429.22	5317.70
429.40	5469.83
429.59	5659.42
429.78	5408.98
429.97	5359.83
430.16	5446.43
430.34	5565.79
430.53	5727.29
430.72	5624.31
430.91	5598.56
431.10	5685.16
431.28	5860.70
431.47	5832.62
431.66	5919.21
431.85	5919.21
432.03	5898.15
432.22	5909.85
432.41	6017.52
432.60	6003.47
432.79	5912.19
432.97	5954.32
433.16	6097.10
433.35	5968.37
433.54	6071.35
433.72	6251.57
433.91	6059.65
434.10	6176.67
434.28	6040.92
434.47	6141.57
434.66	6183.70
434.85	6490.31
435.03	6366.26
435.22	6284.34
435.41	6415.41
435.59	6513.71
435.78	6448.18
435.97	6352.21
436.16	6363.92
436.34	6392.00
436.53	6480.94
436.72	6464.56
436.90	6434.13
437.09	6532.44
437.28	6457.54
437.46	6672.87
437.65	6705.63
437.84	6778.19
438.02	6689.25
438.21	6785.21
438.40	6661.16
438.58	6988.84
438.77	7066.08
438.96	6913.94
439.14	7028.63
439.33	7173.74
439.52	7424.18
439.70	7229.91
439.89	7215.87
440.08	7435.88
440.26	7403.11
440.45	7386.73
440.63	7456.95
440.82	7688.66
441.01	7377.37
441.19	7623.12
441.38	7716.75
441.57	7796.32
441.75	7801.01
441.94	7875.90
442.12	7927.39
442.31	7969.52
442.50	8226.98
442.68	7939.10
442.87	7903.99
443.05	7964.84
443.24	8241.03
443.43	8236.35
443.61	8042.08
443.80	8388.48
443.98	8077.19
444.17	7889.95
444.35	8271.45
444.54	8313.58
444.73	8322.94
444.91	8294.86
445.10	8351.03
445.28	8346.35
445.47	8358.05
445.65	8416.57
445.84	8542.96
446.02	8514.87
446.21	8425.93
446.39	8351.03
446.58	8421.25
446.77	8528.91
446.95	8374.44
447.14	8540.61
447.32	8557.00
447.51	8432.95
447.69	8367.42
447.88	8451.67
448.06	8461.04
448.25	8332.31
448.43	8580.40
448.62	8444.65
448.80	8634.24
448.99	8791.05
449.17	8716.16
449.36	8606.15
449.54	8905.74
449.73	9092.98
449.91	8882.33
450.10	9034.47
450.28	9071.92
450.46	9125.75
450.65	8917.44
450.83	9097.66
451.02	9085.96
451.20	9369.16
451.39	9048.51
451.57	9144.47
451.76	9132.77
451.94	9156.18
452.13	9481.51
452.31	9067.24
452.49	9090.64
452.68	9551.73
452.86	9179.58
453.05	9675.77
453.23	9453.42
453.42	9362.14
453.60	9202.99
453.78	9479.17
453.97	9493.21
454.15	9497.89
454.34	9619.60
454.52	9715.56
454.70	9804.50
454.89	9727.27
455.07	9703.86
455.26	9764.72
455.44	10087.71
455.62	9891.10
455.81	10155.58
455.99	10017.49
456.17	10026.86
456.36	10068.98
456.54	10286.65
456.73	10253.89
456.91	10410.70
457.09	10270.27
457.28	10415.38
457.46	10092.39
457.64	10469.22
457.83	10534.75
458.01	10382.62
458.19	10527.73
458.38	10441.13
458.56	10857.75
458.74	10626.03
458.93	10698.59
459.11	10703.27
459.29	10743.06
459.48	10761.78
459.66	10721.99
459.84	10813.28
460.03	11162.01
460.21	11075.42
460.39	11016.90
460.57	11075.42
460.76	11030.94
460.94	11225.21
461.12	11400.75
461.31	11056.69
461.49	11349.26
461.67	11215.85
461.85	11438.20
462.04	11232.23
462.22	11262.66
462.40	11573.95
462.59	11389.05
462.77	11578.63
462.95	11534.16
463.13	11461.60
463.32	11700.34
463.50	11751.83
463.68	11653.53
463.86	11705.02
464.05	11686.29
464.23	11786.94
464.41	11871.20
464.59	11688.64
464.78	12100.57
464.96	11810.34
465.14	12074.82
465.32	12028.01
465.50	12098.23
465.69	12107.59
465.87	12226.96
466.05	12184.83
466.23	12393.14
466.41	12245.68
466.60	12542.93
466.78	12056.10
466.96	12241.00
467.14	12262.07
467.32	12468.03
467.51	12641.23
467.69	12351.01
467.87	12217.60
468.05	12659.96
468.23	12423.56
468.41	12517.18
468.60	12622.51
468.78	12734.85
468.96	12793.37
469.14	12807.41
469.32	12861.24
469.50	12781.67
469.69	12952.52
469.87	13181.90
470.05	13046.15
470.23	13071.89
470.41	13118.70
470.59	13078.91
470.77	13252.11
470.95	13373.82
471.14	13205.30
471.32	13062.53
471.50	13589.15
471.68	13495.53
471.86	13731.92
472.04	13497.87
472.22	14143.86
472.40	13736.60
472.58	13977.68
472.77	13788.10
472.95	14342.80
473.13	14492.60
473.31	14090.02
473.49	14228.12
473.67	14160.24
473.85	14171.94
474.03	14853.04
474.21	14637.71
474.39	14743.03
474.57	14590.90
474.75	14782.82
474.93	14855.38
475.12	14941.98
475.30	15246.25
475.48	15019.22
475.66	15124.54
475.84	15040.28
476.02	15508.39
476.20	15651.16
476.38	15716.70
476.56	16058.42
476.74	15925.00
476.92	15723.72
477.10	15641.80
477.28	16315.87
477.46	16255.02
477.64	16369.71
477.82	16386.09
478.00	17055.48
478.18	16737.17
478.36	17022.72
478.54	17198.26
478.72	17245.07
478.90	17231.02
479.08	17661.68
479.26	17678.07
479.44	17720.20
479.62	17902.76
479.80	17919.14
479.98	18377.89
480.16	18745.35
480.34	17954.25
480.52	18759.39
480.70	18588.53
480.88	18417.68
481.06	18766.42
481.24	18885.78
481.41	19328.14
481.59	19314.10
481.77	19616.03
481.95	19552.84
482.13	19800.93
482.31	19997.54
482.49	20285.42
482.67	20484.37
482.85	20599.05
483.03	20683.31
483.21	20781.62
483.39	20793.32
483.57	20786.30
483.74	20966.52
483.92	21451.01
484.10	21153.76
484.28	21703.79
484.46	22104.02
484.64	22410.63
484.82	22225.73
485.00	22415.31
485.18	22714.90
485.35	22913.84
485.53	22892.78
485.71	22796.82
485.89	23417.06
486.07	23335.14
486.25	23407.70
486.43	23506.00
486.61	23812.61
486.78	23988.15
486.96	24372.00
487.14	24325.19
487.32	24837.76
487.50	24807.34
487.68	25130.33
487.85	25067.14
488.03	25516.52
488.21	25832.49
488.39	25729.51
488.57	26038.46
488.75	26244.43
488.92	26520.61
489.10	26569.76
489.28	26656.36
489.46	27182.98
489.64	26923.18
489.81	27946.00
489.99	27597.26
490.17	28041.96
490.35	28187.07
490.53	28109.83
490.70	28842.42
490.88	28238.56
491.06	28938.38
491.24	28882.21
491.41	29233.29
491.59	29095.20
491.77	29097.54
491.95	29474.37
492.13	29930.77
492.30	29907.37
492.48	30389.52
492.66	29893.32
492.84	30160.14
493.01	30911.46
493.19	30932.52
493.37	30754.64
493.54	31171.25
493.72	31480.21
493.90	31817.24
494.08	31697.88
494.25	31864.05
494.43	32259.60
494.61	32629.41
494.79	32648.13
494.96	32624.73
495.14	32542.81
495.32	33078.79
495.49	33163.05
495.67	33165.39
495.85	33612.43
496.02	33654.56
496.20	33757.55
496.38	34412.90
496.55	33947.13
496.73	35182.93
496.91	34754.61
497.09	35065.91
497.26	35173.57
497.44	34747.59
497.62	35306.98
497.79	35786.79
497.97	35316.34
498.14	35964.67
498.32	36187.02
498.50	36215.11
498.67	36392.99
498.85	36236.17
499.03	36858.76
499.20	36704.28
499.38	36727.69
499.56	37490.70
499.73	36947.70
499.91	37525.81
500.08	37755.18
500.26	37792.63
500.44	37998.60
500.61	38096.90
500.79	37780.93
500.97	37935.40
501.14	38632.88
501.32	38869.28
501.49	38602.46
501.67	39236.74
501.84	38953.54
502.02	39005.03
502.20	39309.30
502.37	39103.33
502.55	39208.65
502.72	39330.36
502.90	39606.55
503.07	39742.30
503.25	39899.11
503.43	39854.64
503.60	40273.60
503.78	40137.85
503.95	40236.15
504.13	40428.07
504.30	40620.00
504.48	40603.61
504.65	41200.45
504.83	41111.51
505.01	41453.23
505.18	41165.34
505.36	41474.29
505.53	41596.00
505.71	41687.28
505.88	41666.22
506.06	41703.67
506.23	42220.92
506.41	41778.56
506.58	42483.06
506.76	42103.90
506.93	42576.69
507.11	42639.88
507.28	42108.58
507.46	42508.81
507.63	43103.31
507.81	43604.18
507.98	43091.60
508.16	43124.37
508.33	43428.64
508.50	43470.77
508.68	43648.65
508.85	44032.50
509.03	44168.25
509.20	43845.26
509.38	44325.07
509.55	44650.40
509.73	44577.84
509.90	44643.38
510.08	44999.14
510.25	44552.10
510.42	44650.40
510.60	45186.38
510.77	45102.12
510.95	45270.64
511.12	45268.30
511.30	45312.77
511.47	45586.61
511.64	45397.03
511.82	46028.98
511.99	45675.55
512.17	46000.89
512.34	45675.55
512.51	47004.98
512.69	46281.75
512.86	46258.35
513.04	46541.55
513.21	46258.35
513.38	46422.19
513.56	47276.48
513.73	46541.55
513.90	47189.88
514.08	47049.45
514.25	47505.85
514.43	47281.16
514.60	47187.54
514.77	47484.79
514.95	48079.28
515.12	47625.22
515.29	47524.58
515.47	48053.54
515.64	48189.29
515.81	47924.81
515.99	48437.39
516.16	48559.09
516.33	48264.19
516.51	48835.28
516.68	48626.97
516.85	48552.07
517.03	48741.66
517.20	48893.79
517.37	48542.71
517.54	48961.67
517.72	48868.05
517.89	48842.30
518.06	49015.50
518.24	49125.50
518.41	49214.44
518.58	49638.08
518.75	49375.94
518.93	49436.80
519.10	49471.90
519.27	50138.96
519.45	49991.50
519.62	49993.84
519.79	50286.41
519.96	49968.10
520.14	49954.05
520.31	50213.85
520.48	50578.98
520.65	50485.36
520.83	50754.52
521.00	50951.12
521.17	50824.73
521.34	50450.25
521.52	50834.10
521.69	50834.10
521.86	51215.60
522.03	50761.54
522.20	51164.11
522.38	51421.57
522.55	51351.35
522.72	51000.27
522.89	51121.98
523.07	51732.86
523.24	51543.28
523.41	51618.17
523.58	51634.56
523.75	52144.80
523.92	51470.72
524.10	51758.61
524.27	52285.23
524.44	51803.08
524.61	51863.93
524.78	52233.74
524.96	52058.20
525.13	52259.48
525.30	52189.27
525.47	52549.71
525.64	52390.55
525.81	52376.51
525.98	52758.02
526.16	52486.51
526.33	52502.90
526.50	52694.82
526.67	52938.24
526.84	52816.53
527.01	52704.18
527.18	52884.40
527.36	53221.44
527.53	53085.69
527.70	53399.32
527.87	53167.61
528.04	53066.97
528.21	53350.17
528.38	53338.47
528.55	53780.83
528.72	53654.44
528.89	53303.36
529.07	53506.99
529.24	53357.19
529.41	53921.26
529.58	53680.19
529.75	53785.51
529.92	53811.26
530.09	53818.28
530.26	53909.56
530.43	53979.78
530.60	53661.46
530.77	53881.47
530.94	53815.94
531.11	54160.00
531.28	54365.96
531.46	54265.32
531.63	54211.49
531.80	54321.49
531.97	54298.09
532.14	54593.00
532.31	54391.71
532.48	54480.65
532.65	54550.87
532.82	54454.90
532.99	54756.83
533.16	54490.01
533.33	54904.29
533.50	54897.27
533.67	54644.49
533.84	54686.62
534.01	54850.45
534.18	55121.96
534.35	55164.09
534.52	55154.72
534.69	55262.39
534.86	55173.45
535.03	55325.58
535.20	55107.91
535.37	55185.15
535.54	55189.83
535.71	55334.95
535.88	55330.26
536.05	55461.33
536.22	55583.04
536.38	55749.22
536.55	55510.49
536.72	55533.89
536.89	55442.61
537.06	55667.30
537.23	55587.72
537.40	55746.88
537.57	55358.35
537.74	55807.73
537.91	55840.50
538.08	56074.55
538.25	55683.69
538.42	55950.51
538.59	56006.68
538.75	55962.21
538.92	56259.46
539.09	55999.66
539.26	56151.79
539.43	56144.77
539.60	56236.05
539.77	56055.83
539.94	56467.76
540.11	56315.63
540.28	56645.65
540.44	56280.52
540.61	56545.00
540.78	56367.12
540.95	56226.69
541.12	56432.66
541.29	56399.89
541.46	56584.79
541.62	56722.88
541.79	56732.25
541.96	56416.27
542.13	56315.63
542.30	56657.35
542.47	56830.55
542.63	56865.66
542.80	57202.69
542.97	57055.24
543.14	57322.06
543.31	57165.24
543.48	57235.46
543.64	57504.62
543.81	57542.07
543.98	57221.42
544.15	57172.27
544.32	57396.96
544.48	57453.13
544.65	57375.89
544.82	57572.50
544.99	57305.68
545.16	57403.98
545.32	57499.94
545.49	57492.92
545.66	57741.02
545.83	57745.70
546.00	57825.28
546.16	57717.61
546.33	57736.34
546.50	57666.12
546.67	57797.19
546.83	57457.81
547.00	57778.46
547.17	57621.65
547.34	57832.30
547.50	58129.54
547.67	58131.89
547.84	58066.35
548.00	58284.02
548.17	58377.64
548.34	58120.18
548.51	58440.84
548.67	58188.06
548.84	58216.14
549.01	58131.89
549.18	58354.24
549.34	58291.04
549.51	58230.19
549.68	58571.91
549.84	58398.71
550.01	58417.43
550.18	58403.39
550.34	58515.73
550.51	58539.14
550.68	58471.26
550.84	58312.11
551.01	58497.01
551.18	58710.00
551.34	58372.96
551.51	58562.54
551.68	58637.44
551.84	58691.27
552.01	58667.87
552.18	58698.30
552.34	58473.60
552.51	58714.68
552.68	58557.86
552.84	58836.39
553.01	58820.00
553.18	58922.99
553.34	58581.27
553.51	58838.73
553.67	58724.04
553.84	58976.82
554.01	58960.44
554.17	59105.55
554.34	59035.33
554.51	59178.10
554.67	59075.12
554.84	59150.02
555.00	58997.88
555.17	58885.54
555.33	59028.31
555.50	58827.02
555.67	59025.97
555.83	59072.78
556.00	59264.70
556.16	59461.31
556.33	59372.37
556.50	59260.02
556.66	59566.63
556.83	59295.13
556.99	59454.29
557.16	59681.32
557.32	59501.10
557.49	59718.77
557.65	59416.84
557.82	59297.47
557.98	59381.73
558.15	59316.20
558.32	59559.61
558.48	59456.63
558.65	59395.77
558.81	59412.16
558.98	59660.26
559.14	59817.07
559.31	59578.34
559.47	59599.40
559.64	59854.52
559.80	59810.05
559.97	59753.88
560.13	59519.82
560.30	59856.86
560.46	59854.52
560.63	59880.27
560.79	59908.35
560.96	60055.81
561.12	59786.64
561.29	59983.25
561.45	59835.80
561.61	59791.33
561.78	59824.09
561.94	60020.70
562.11	59882.61
562.27	59938.78
562.44	60013.68
562.60	59934.10
562.77	59983.25
562.93	59826.43
563.10	60240.71
563.26	59884.95
563.42	60034.74
563.59	60123.68
563.75	60175.17
563.92	59943.46
564.08	59901.33
564.24	60100.28
564.41	59957.50
564.57	60060.49
564.74	60254.75
564.90	60123.68
565.07	60140.07
565.23	60044.10
565.39	60203.26
565.56	60198.58
565.72	60240.71
565.88	60065.17
566.05	60252.41
566.21	60069.85
566.38	60250.07
566.54	60456.04
566.70	60285.18
566.87	60544.98
567.03	60214.96
567.19	60479.44
567.36	60357.74
567.52	60259.43
567.68	60486.46
567.85	60409.23
568.01	60542.64
568.17	60224.32
568.34	60547.32
568.50	60425.61
568.66	60119.00
568.83	60446.68
568.99	60355.39
569.15	60544.98
569.32	60383.48
569.48	60484.12
569.64	60577.75
569.81	60334.33
569.97	60355.39
570.13	60488.80
570.30	60547.32
570.46	60523.91
570.62	60528.59
570.78	60685.41
570.95	60399.86
571.11	60713.50
571.27	60605.83
571.43	60652.64
571.60	60683.07
571.76	60640.94
571.92	60582.43
572.09	60781.37
572.25	60537.96
572.41	60537.96
572.57	60638.60
572.74	60816.48
572.90	60671.37
573.06	60463.06
573.22	60772.01
573.38	60411.57
573.55	60584.77
573.71	60804.78
573.87	60797.76
574.03	60577.75
574.20	60547.32
574.36	60615.19
574.52	60797.76
574.68	60680.73
574.84	60907.76
575.01	60863.29
575.17	60729.88
575.33	60552.00
575.49	60743.92
575.65	60722.86
575.82	60926.49
575.98	60762.65
576.14	61090.32
576.30	60844.57
576.46	60832.86
576.62	60713.50
576.79	60814.14
576.95	60867.97
577.11	60734.56
577.27	60746.26
577.43	60917.12
577.59	60832.86
577.75	60659.66
577.92	60615.19
578.08	60863.29
578.24	60912.44
578.40	60903.08
578.56	60884.36
578.72	60879.67
578.88	60985.00
579.04	60973.30
579.21	60945.21
579.37	60940.53
579.53	61118.41
579.69	60870.31
579.85	60757.97
580.01	60772.01
580.17	60708.82
580.33	60851.59
580.49	61169.90
580.65	60739.24
580.82	60554.34
580.98	60825.84
581.14	60945.21
581.30	60996.70
581.46	60837.54
581.62	61076.28
581.78	60954.57
581.94	61188.63
582.10	60982.66
582.26	60961.59
582.42	60931.17
582.58	60891.38
582.74	61010.74
582.90	60970.96
583.06	61052.87
583.22	60940.53
583.38	60985.00
583.54	60874.99
583.70	60977.98
583.86	61071.60
584.02	60814.14
584.18	61247.14
584.34	60996.70
584.50	60982.66
584.66	60846.91
584.82	60804.78
584.98	61073.94
585.14	61073.94
585.30	60886.70
585.46	61160.54
585.62	61256.50
585.78	61155.86
585.94	60844.57
586.10	61017.77
586.26	60933.51
586.42	61071.60
586.58	61036.49
586.74	61104.37
586.90	61104.37
587.06	61120.75
587.22	61300.97
587.38	61013.08
587.54	61233.10
587.70	61186.28
587.86	61282.25
588.02	61045.85
588.18	61275.22
588.34	60959.25
588.49	61132.45
