SpectraSuite Data File
++++++++++++++++++++++++++++++++++++
Date: Fri Oct 25 11:33:14 EDT 2013
User: price-jones
Dark Spectrum Present: No
Reference Spectrum Present: No
Number of Sampled Component Spectra: 1
Spectrometers: USB2+H05261
Integration Time (usec): 100000 (USB2+H05261)
Spectra Averaged: 1 (USB2+H05261)
Boxcar Smoothing: 0 (USB2+H05261)
Correct for Electrical Dark: No (USB2+H05261)
Strobe/Lamp Enabled: No (USB2+H05261)
Correct for Detector Non-linearity: No (USB2+H05261)
Correct for Stray Light: No (USB2+H05261)
Number of Pixels in Processed Spectrum: 2048
>>>>>Begin Processed Spectral Data<<<<<
365.73	292.57
365.92	292.57
366.12	292.57
366.32	212.99
366.52	222.35
366.72	182.56
366.91	205.97
367.11	100.64
367.31	170.86
367.51	124.05
367.70	184.90
367.90	182.56
368.10	170.86
368.30	166.18
368.49	210.65
368.69	187.24
368.89	212.99
369.09	215.33
369.28	262.14
369.48	210.65
369.68	248.10
369.87	304.27
370.07	208.31
370.27	266.82
370.47	327.68
370.66	472.79
370.86	440.02
371.06	547.69
371.25	568.75
371.45	519.60
371.65	575.77
371.84	451.72
372.04	507.90
372.24	552.37
372.44	545.34
372.63	561.73
372.83	554.71
373.03	578.11
373.22	636.63
373.42	500.87
373.62	638.97
373.81	641.31
374.01	622.58
374.21	622.58
374.40	645.99
374.60	704.50
374.79	645.99
374.99	643.65
375.19	685.78
375.38	718.54
375.58	657.69
375.78	685.78
375.97	709.18
376.17	681.10
376.37	718.54
376.56	669.39
376.76	613.22
376.95	669.39
377.15	690.46
377.35	667.05
377.54	720.88
377.74	702.16
377.93	718.54
378.13	763.01
378.33	620.24
378.52	629.60
378.72	779.40
378.91	695.14
379.11	770.04
379.31	718.54
379.50	709.18
379.70	795.78
379.89	767.70
380.09	732.59
380.28	716.20
380.48	727.91
380.68	791.10
380.87	720.88
381.07	732.59
381.26	697.48
381.46	849.61
381.65	709.18
381.85	751.31
382.04	788.76
382.24	809.83
382.43	734.93
382.63	755.99
382.83	795.78
383.02	779.40
383.22	816.85
383.41	802.80
383.61	777.06
383.80	842.59
384.00	781.74
384.19	784.08
384.39	795.78
384.58	828.55
384.78	802.80
384.97	774.72
385.17	847.27
385.36	880.04
385.56	875.36
385.75	898.77
385.95	842.59
386.14	861.32
386.34	777.06
386.53	858.98
386.72	868.34
386.92	894.08
387.11	882.38
387.31	830.89
387.50	877.70
387.70	910.47
387.89	919.83
388.09	898.77
388.28	854.30
388.48	945.58
388.67	903.45
388.86	976.00
389.06	964.30
389.25	905.79
389.45	976.00
389.64	976.00
389.84	940.90
390.03	1004.09
390.22	938.55
390.42	947.92
390.61	933.87
390.81	1046.22
391.00	954.94
391.19	1025.15
391.39	1027.50
391.58	1011.11
391.78	1086.01
391.97	1048.56
392.16	1064.94
392.36	1060.26
392.55	1088.35
392.75	1100.05
392.94	1109.41
393.13	1041.54
393.33	1034.52
393.52	1151.54
393.71	1146.86
393.91	1048.56
394.10	1071.97
394.29	1050.90
394.49	1125.80
394.68	1198.35
394.88	1184.31
395.07	1128.14
395.26	1071.97
395.46	1224.10
395.65	1200.69
395.84	1254.53
396.04	1158.57
396.23	1214.74
396.42	1137.50
396.62	1228.78
396.81	1177.29
397.00	1214.74
397.19	1245.16
397.39	1261.55
397.58	1146.86
397.77	1205.38
397.97	1291.98
398.16	1282.61
398.35	1242.82
398.55	1301.34
398.74	1280.27
398.93	1299.00
399.12	1416.02
399.32	1291.98
399.51	1348.15
399.70	1380.92
399.90	1430.07
400.09	1282.61
400.28	1306.02
400.47	1383.26
400.67	1493.26
400.86	1460.49
401.05	1387.94
401.24	1439.43
401.44	1439.43
401.63	1509.65
401.82	1502.62
402.01	1465.18
402.21	1446.45
402.40	1509.65
402.59	1458.15
402.78	1516.67
402.97	1542.41
403.17	1540.07
403.36	1507.30
403.55	1678.16
403.74	1619.65
403.93	1614.97
404.13	1678.16
404.32	1629.01
404.51	1598.59
404.70	1666.46
404.89	1636.03
405.09	1724.97
405.28	1654.76
405.47	1818.60
405.66	1678.16
405.85	1732.00
406.05	1734.34
406.24	1790.51
406.43	1781.15
406.62	1748.38
406.81	1846.68
407.00	1781.15
407.20	1764.76
407.39	1802.21
407.58	1788.17
407.77	1834.98
407.96	1935.62
408.15	1973.07
408.34	1792.85
408.54	1949.67
408.73	1954.35
408.92	1905.20
409.11	1984.77
409.30	1970.73
409.49	1982.43
409.68	2019.88
409.87	1952.01
410.07	2043.29
410.26	2129.89
410.45	2101.80
410.64	2106.48
410.83	1996.48
411.02	2069.03
411.21	2115.84
411.40	2153.29
411.59	2202.44
411.78	2237.55
411.98	2202.44
412.17	2193.08
412.36	2172.02
412.55	2272.66
412.74	2244.57
412.93	2401.39
413.12	2333.51
413.31	2495.01
413.50	2326.49
413.69	2469.27
413.88	2513.74
414.07	2485.65
414.26	2497.35
414.45	2490.33
414.64	2504.37
414.83	2530.12
415.02	2602.68
415.22	2623.74
415.41	2675.23
415.60	2623.74
415.79	2750.13
415.98	2672.89
416.17	2771.19
416.36	2766.51
416.55	2738.43
416.74	2810.98
416.93	2761.83
417.12	2825.03
417.31	2796.94
417.50	2972.48
417.69	2930.35
417.88	2796.94
418.07	2843.75
418.26	2843.75
418.45	2953.76
418.64	2993.55
418.83	2998.23
419.02	3061.42
419.21	3094.19
419.39	3042.70
419.58	3157.38
419.77	3131.64
419.96	3215.90
420.15	3201.85
420.34	3162.06
420.53	3082.49
420.72	3295.47
420.91	3297.81
421.10	3201.85
421.29	3454.63
421.48	3251.00
421.67	3290.79
421.86	3265.05
422.05	3276.75
422.24	3468.67
422.43	3421.86
422.61	3316.54
422.80	3435.91
422.99	3485.06
423.18	3459.31
423.37	3564.64
423.56	3496.76
423.75	3426.54
423.94	3344.63
424.13	3281.43
424.32	3218.24
424.50	3517.83
424.69	3468.67
424.88	3506.12
425.07	3419.52
425.26	3389.10
425.45	3379.73
425.64	3398.46
425.83	3375.05
426.01	3588.04
426.20	3627.83
426.39	3508.46
426.58	3421.86
426.77	3557.61
426.96	3686.34
427.15	3330.58
427.33	3676.98
427.52	3466.33
427.71	3667.62
427.90	3665.28
428.09	3700.39
428.28	3695.71
428.46	3747.20
428.65	3714.43
428.84	3737.84
429.03	3845.50
429.22	3705.07
429.40	3805.71
429.59	3808.05
429.78	3691.02
429.97	3618.47
430.16	3772.94
430.34	3805.71
430.53	3875.93
430.72	3889.97
430.91	3871.25
431.10	3843.16
431.28	3997.64
431.47	3896.99
431.66	3985.93
431.85	3925.08
432.03	4025.72
432.22	4287.86
432.41	4058.49
432.60	3885.29
432.79	4145.09
432.97	4126.36
433.16	4301.90
433.35	4271.48
433.54	4234.03
433.72	4344.03
433.91	4376.80
434.10	4299.56
434.28	4210.62
434.47	4348.72
434.66	4334.67
434.85	4360.42
435.03	4402.55
435.22	4334.67
435.41	4589.79
435.59	4358.08
435.78	4498.51
435.97	4287.86
436.16	4404.89
436.34	4430.63
436.53	4379.14
436.72	4622.56
436.90	4472.76
437.09	4559.36
437.28	4454.04
437.46	4407.23
437.65	4561.70
437.84	4620.22
438.02	4582.77
438.21	4734.90
438.40	4631.92
438.58	4830.87
438.77	4814.48
438.96	4795.76
439.14	4732.56
439.33	4999.38
439.52	5163.22
439.70	5001.72
439.89	4999.38
440.08	4968.96
440.26	4968.96
440.45	5048.54
440.63	5055.56
440.82	5322.38
441.01	5088.32
441.19	5235.78
441.38	5167.90
441.57	5256.84
441.75	5289.61
441.94	5390.25
442.12	5334.08
442.31	5413.66
442.50	5413.66
442.68	5547.07
442.87	5416.00
443.05	5451.11
443.24	5645.37
443.43	5418.34
443.61	5645.37
443.80	5923.90
443.98	5423.02
444.17	5348.12
444.35	5633.67
444.54	5743.67
444.73	5631.33
444.91	5654.73
445.10	5570.48
445.28	5699.20
445.47	5561.11
445.65	5561.11
445.84	5668.78
446.02	5792.83
446.21	5760.06
446.39	5586.86
446.58	5846.66
446.77	5802.19
446.95	5654.73
447.14	5783.46
447.32	5849.00
447.51	5968.37
447.69	5734.31
447.88	5734.31
448.06	5804.53
448.25	5827.93
448.43	5809.21
448.62	5778.78
448.80	5834.96
448.99	5851.34
449.17	5891.13
449.36	5982.41
449.54	6108.80
449.73	6080.71
449.91	6090.07
450.10	6059.65
450.28	6204.76
450.46	6242.21
450.65	6052.63
450.83	6260.93
451.02	6069.01
451.20	6345.19
451.39	6403.71
451.57	6026.88
451.76	6190.72
451.94	6352.21
452.13	6485.62
452.31	6296.04
452.49	6256.25
452.68	6359.24
452.86	6394.34
453.05	6312.42
453.23	6511.37
453.42	6291.36
453.60	6363.92
453.78	6516.05
453.97	6555.84
454.15	6450.52
454.34	6462.22
454.52	6703.29
454.70	6595.63
454.89	6724.36
455.07	6792.23
455.26	6733.72
455.44	6813.30
455.62	6698.61
455.81	6869.47
455.99	6768.83
456.17	6663.51
456.36	6698.61
456.54	6902.24
456.73	7155.02
456.91	7201.83
457.09	7218.21
457.28	7250.98
457.46	7014.59
457.64	7173.74
457.83	7178.42
458.01	7087.14
458.19	7311.83
458.38	7211.19
458.56	7199.49
458.74	7150.34
458.93	7274.38
459.11	7323.54
459.29	7197.15
459.48	7297.79
459.66	7407.80
459.84	7478.01
460.03	7569.29
460.21	7456.95
460.39	7573.97
460.57	7459.29
460.76	7693.34
460.94	7639.51
461.12	7630.15
461.31	7552.91
461.49	7555.25
461.67	7557.59
461.85	7531.84
462.04	7775.26
462.22	8035.06
462.40	7822.07
462.59	7833.77
462.77	7810.37
462.95	7964.84
463.13	7714.41
463.32	7744.83
463.50	7932.08
463.68	7868.88
463.86	7978.89
464.05	7885.26
464.23	7932.08
464.41	8109.96
464.59	8037.40
464.78	8114.64
464.96	8124.00
465.14	7857.18
465.32	8191.88
465.50	8098.25
465.69	8308.90
465.87	8161.45
466.05	8074.85
466.23	8360.39
466.41	8238.69
466.60	8500.83
466.78	8322.94
466.96	8383.80
467.14	8243.37
467.32	8329.97
467.51	8402.52
467.69	8084.21
467.87	8489.12
468.05	8381.46
468.23	8280.82
468.41	8421.25
468.60	8400.18
468.78	8514.87
468.96	8500.83
469.14	8564.02
469.32	8751.26
469.50	8561.68
469.69	8943.19
469.87	8805.10
470.05	8828.50
470.23	8765.31
470.41	8758.28
470.59	8954.89
470.77	8954.89
470.95	8987.66
471.14	9121.07
471.32	8826.16
471.50	9088.30
471.68	9100.00
471.86	9172.56
472.04	9142.13
472.22	9366.82
472.40	9083.62
472.58	9280.22
472.77	9420.66
472.95	9458.10
473.13	9647.69
473.31	9518.96
473.49	9427.68
473.67	9479.17
473.85	9404.27
474.03	9813.87
474.21	9727.27
474.39	9851.31
474.57	9928.55
474.75	9949.62
474.93	10122.82
475.12	10005.79
475.30	10195.37
475.48	10026.86
475.66	10356.87
475.84	10303.04
476.02	10509.01
476.20	10249.21
476.38	10586.24
476.56	10562.84
476.74	10759.44
476.92	10703.27
477.10	10647.10
477.28	10787.53
477.46	10733.70
477.64	10846.04
477.82	11061.37
478.00	11272.02
478.18	11288.40
478.36	11279.04
478.54	11232.23
478.72	11382.03
478.90	11452.24
479.08	11887.58
479.26	11716.72
479.44	11698.00
479.62	11796.30
479.80	12013.97
479.98	12065.46
480.16	12449.31
480.34	12248.02
480.52	12140.36
480.70	12355.69
480.88	12297.17
481.06	12542.93
481.24	12606.13
481.41	12695.07
481.59	12671.66
481.77	13060.19
481.95	12898.69
482.13	13242.75
482.31	12872.95
482.49	13355.10
482.67	13130.41
482.85	13774.05
483.03	13568.09
483.21	13776.39
483.39	14015.13
483.57	13919.17
483.74	14122.79
483.92	14073.64
484.10	14087.68
484.28	14569.83
484.46	14609.62
484.64	14817.93
484.82	14548.77
485.00	14523.02
485.18	14974.75
485.35	15410.09
485.53	15068.37
485.71	15225.18
485.89	15573.92
486.07	15403.07
486.25	15672.23
486.43	15543.50
486.61	15449.88
486.78	15658.18
486.96	16093.52
487.14	16182.46
487.32	16074.80
487.50	16294.81
487.68	16526.52
487.85	16877.60
488.03	16858.88
488.21	17067.19
488.39	17116.34
488.57	17149.11
488.75	17413.59
488.92	17675.73
489.10	17490.82
489.28	17752.96
489.46	17879.35
489.64	17767.01
489.81	18368.52
489.99	18422.36
490.17	18136.81
490.35	18913.87
490.53	18747.69
490.70	18855.36
490.88	18974.72
491.06	18963.02
491.24	18944.30
491.41	19012.17
491.59	19396.02
491.77	19391.34
491.95	19791.57
492.13	19623.05
492.30	19711.99
492.48	19857.10
492.66	19831.36
492.84	20074.77
493.01	20465.64
493.19	20423.51
493.37	20451.60
493.54	20580.33
493.72	20669.27
493.90	20889.28
494.08	20758.21
494.25	21179.51
494.43	20996.95
494.61	21341.00
494.79	21539.95
494.96	21359.73
495.14	21635.91
495.32	21979.97
495.49	22075.93
495.67	21994.01
495.85	21947.20
496.02	22457.44
496.20	22469.14
496.38	22642.34
496.55	22632.98
496.73	22920.87
496.91	23126.83
497.09	22618.94
497.26	23126.83
497.44	23147.90
497.62	23585.58
497.79	23367.91
497.97	23454.51
498.14	23517.70
498.32	23985.81
498.50	23751.76
498.67	24383.70
498.85	24016.24
499.03	24006.87
499.20	24348.59
499.38	24254.97
499.56	24807.34
499.73	24758.19
499.91	24730.10
500.08	24877.55
500.26	24774.57
500.44	25003.94
500.61	25102.25
500.79	24725.42
500.97	25694.40
501.14	25343.32
501.32	25488.43
501.49	25458.01
501.67	25422.90
501.84	26040.80
502.02	25635.89
502.20	25809.09
502.37	25848.88
502.55	25762.28
502.72	26059.52
502.90	26101.65
503.07	26223.36
503.25	26258.47
503.43	26525.29
503.60	26309.96
503.78	26719.56
503.95	26892.76
504.13	26661.04
504.30	26967.65
504.48	27147.87
504.65	27225.11
504.83	27143.19
505.01	27531.72
505.18	27281.28
505.36	27634.71
505.53	27587.89
505.71	27410.01
505.88	27613.64
506.06	27508.32
506.23	28023.23
506.41	27840.67
506.58	27803.22
506.76	28273.67
506.93	28369.63
507.11	28526.45
507.28	28320.48
507.46	28245.58
507.63	28676.24
507.81	28877.53
507.98	28648.16
508.16	28603.69
508.33	28912.64
508.50	28863.49
508.68	29074.13
508.85	29237.97
509.03	29153.71
509.20	28989.88
509.38	29804.38
509.55	29621.82
509.73	29383.09
509.90	29546.92
510.08	29951.84
510.25	29268.40
510.42	29933.11
510.60	30160.14
510.77	30015.03
510.95	30150.78
511.12	29890.98
511.30	30455.05
511.47	29998.65
511.64	30410.58
511.82	30476.12
511.99	30345.05
512.17	30588.46
512.34	30848.26
512.51	30871.67
512.69	30920.82
512.86	31115.08
513.04	31473.18
513.21	31204.02
513.38	31087.00
513.56	31412.33
513.73	31667.45
513.90	31484.89
514.08	31580.85
514.25	31770.43
514.43	32032.57
514.60	31807.88
514.77	31864.05
514.95	32336.84
515.12	31915.54
515.29	31924.91
515.47	31859.37
515.64	32573.24
515.81	32044.27
515.99	32634.09
516.16	32409.40
516.33	32451.53
516.51	32856.44
516.68	32133.21
516.85	32900.91
517.03	33149.01
517.20	33191.14
517.37	32912.61
517.54	33174.75
517.72	33123.26
517.89	32940.70
518.06	33322.21
518.24	33350.29
518.41	33514.13
518.58	33074.11
518.75	32910.27
518.93	33563.28
519.10	33949.47
519.27	33907.34
519.45	33593.71
519.62	33748.18
519.79	34375.45
519.96	33565.62
520.14	33916.70
520.31	34239.70
520.48	34153.10
520.65	33907.34
520.83	34911.43
521.00	34429.28
521.17	34242.04
521.34	34649.29
521.52	34981.65
521.69	35110.38
521.86	35005.05
522.03	35196.98
522.20	35501.25
522.38	35058.88
522.55	35550.40
522.72	35339.75
522.89	35007.39
523.07	35555.08
523.24	35597.21
523.41	35901.48
523.58	35086.97
523.75	35807.86
523.92	35732.96
524.10	36081.70
524.27	35744.66
524.44	36191.70
524.61	36105.10
524.78	36126.17
524.96	36233.83
525.13	36648.11
525.30	36280.64
525.47	36266.60
525.64	36392.99
525.81	36325.11
525.98	36919.61
526.16	36442.14
526.33	36669.17
526.50	36601.30
526.67	36219.79
526.84	36657.47
527.01	36610.66
527.18	37158.34
527.36	36872.80
527.53	37605.39
527.70	37394.74
527.87	37525.81
528.04	37282.39
528.21	37350.27
528.38	37347.93
528.55	37069.40
528.72	37563.26
528.89	37563.26
529.07	37167.71
529.24	37500.06
529.41	37516.45
529.58	37755.18
529.75	37837.10
529.92	37624.11
530.09	37792.63
530.26	37792.63
530.43	38183.50
530.60	37469.64
530.77	38059.45
530.94	38117.96
531.11	38108.60
531.28	38328.61
531.46	38492.45
531.63	38499.47
531.80	38363.72
531.97	39215.68
532.14	38880.98
532.31	38590.75
532.48	38792.04
532.65	38817.78
532.82	38754.59
532.99	38644.59
533.16	38787.36
533.33	39267.17
533.50	39115.03
533.67	38979.28
533.84	38822.47
534.01	39269.51
534.18	39201.63
534.35	39929.54
534.52	39199.29
534.69	39407.60
534.86	39524.63
535.03	39571.44
535.20	39468.45
535.37	39679.10
535.54	39751.66
535.71	39377.17
535.88	39950.60
536.05	40231.47
536.22	40067.63
536.38	40027.84
536.55	39917.84
536.72	39901.45
536.89	39899.11
537.06	40128.48
537.23	40453.82
537.40	39550.37
537.57	39419.30
537.74	40329.77
537.91	40603.61
538.08	40563.82
538.25	40472.54
538.42	40385.94
538.59	40973.42
538.75	40156.57
538.92	40753.41
539.09	40678.51
539.26	40694.89
539.43	40804.90
539.60	40872.78
539.77	40512.33
539.94	41462.59
540.11	40842.35
540.28	40978.10
540.44	41017.89
540.61	41317.48
540.78	40694.89
540.95	41069.38
541.12	41205.13
541.29	41141.94
541.46	41345.56
541.62	41481.31
541.79	41720.05
541.96	41481.31
542.13	41551.53
542.30	41181.73
542.47	41357.27
542.63	41940.06
542.80	41827.71
542.97	42330.93
543.14	42239.65
543.31	42241.99
543.48	41918.99
543.64	42370.72
543.81	42316.89
543.98	42256.03
544.15	42080.49
544.32	42387.10
544.48	42967.55
544.65	42312.20
544.82	42981.60
544.99	42473.70
545.16	42476.04
545.32	42398.80
545.49	42770.95
545.66	43063.52
545.83	42904.36
546.00	43157.14
546.16	42890.32
546.33	42333.27
546.50	42569.66
546.67	43168.84
546.83	42895.00
547.00	42913.72
547.17	43079.90
547.34	43079.90
547.50	43393.53
547.67	43599.50
547.84	43201.61
548.00	43562.05
548.17	43562.05
548.34	43393.53
548.51	44065.27
548.67	43639.29
548.84	43608.86
549.01	43784.40
549.18	43381.83
549.34	44114.42
549.51	43564.39
549.68	43580.78
549.84	43709.50
550.01	43835.89
550.18	43690.78
550.34	43828.87
550.51	43903.77
550.68	44456.14
550.84	43910.79
551.01	44189.31
551.18	43854.62
551.34	44196.34
551.51	44198.68
551.68	44432.73
551.84	43828.87
552.01	43901.43
552.18	44460.82
552.34	44318.04
552.51	44402.30
552.68	43920.15
552.84	44332.09
553.01	44458.48
553.18	44259.53
553.34	44732.32
553.51	44439.75
553.67	44825.94
553.84	44856.37
554.01	44676.15
554.17	44818.92
554.34	44378.90
554.51	44818.92
554.67	45230.85
554.84	44891.48
555.00	44940.63
555.17	44823.60
555.33	44863.39
555.50	44851.69
555.67	44971.05
555.83	45062.33
556.00	45151.27
556.16	45663.85
556.33	45202.77
556.50	45099.78
556.66	45272.98
556.83	44942.97
556.99	45595.98
557.16	45375.97
557.32	45434.48
557.49	45528.10
557.65	45216.81
557.82	45443.84
557.98	45462.57
558.15	45401.71
558.32	45338.52
558.48	45291.71
558.65	45703.64
558.81	45722.37
558.98	45488.31
559.14	45577.25
559.31	45724.71
559.47	45619.38
559.64	46155.36
559.80	46028.98
559.97	45916.63
560.13	45471.93
560.30	45717.68
560.46	45972.80
560.63	45918.97
560.79	45965.78
560.96	46342.61
561.12	45879.18
561.29	46408.14
561.45	46176.43
561.61	45942.38
561.78	45928.33
561.94	46253.67
562.11	45940.04
562.27	46028.98
562.44	45806.62
562.60	46136.64
562.77	46197.49
562.93	46167.07
563.10	46653.90
563.26	46157.70
563.42	46403.46
563.59	46108.55
563.75	45855.78
563.92	46220.90
564.08	46279.41
564.24	46520.49
564.41	46611.77
564.57	46382.40
564.74	46473.68
564.90	46178.77
565.07	46621.13
565.23	46138.98
565.39	46527.51
565.56	46593.04
565.72	46047.70
565.88	46810.71
566.05	46550.91
566.21	46178.77
566.38	46302.82
566.54	46733.48
566.70	46717.09
566.87	46756.88
567.03	46452.61
567.19	46483.04
567.36	46770.93
567.52	46656.24
567.68	47100.94
567.85	46815.40
568.01	46801.35
568.17	47002.64
568.34	46906.68
568.50	46766.24
568.66	46766.24
568.83	46719.43
568.99	46665.60
569.15	46948.81
569.32	46944.12
569.48	46944.12
569.64	46927.74
569.81	46988.60
569.97	47227.33
570.13	47257.76
570.30	46571.98
570.46	47089.24
570.62	47360.74
570.78	47215.63
570.95	46749.86
571.11	46955.83
571.27	46883.27
571.43	46754.54
571.60	47082.22
571.76	47398.19
571.92	46979.23
572.09	47138.39
572.25	47122.01
572.41	47051.79
572.57	46808.37
572.74	47536.28
572.90	46955.83
573.06	47250.74
573.22	47199.24
573.38	47358.40
573.55	46773.27
573.71	47473.09
573.87	47077.54
574.03	47334.99
574.20	47557.35
574.36	47449.68
574.52	47358.40
574.68	47297.55
574.84	47468.40
575.01	47402.87
575.17	47498.83
575.33	47440.32
575.49	47423.93
575.65	47648.63
575.82	47592.45
575.98	47182.86
576.14	47662.67
576.30	48016.09
576.46	47540.96
576.62	47339.68
576.79	47269.46
576.95	46803.69
577.11	47185.20
577.27	47470.75
577.43	47257.76
577.59	47590.11
577.75	47224.99
577.92	46960.51
578.08	47423.93
578.24	47667.35
578.40	47627.56
578.56	47730.54
578.72	47672.03
578.88	47679.05
579.04	47292.86
579.21	47550.32
579.37	47643.94
579.53	47402.87
579.69	47379.46
579.85	47430.96
580.01	47540.96
580.17	47463.72
580.33	47718.84
580.49	47646.29
580.65	47767.99
580.82	47814.80
580.98	47346.70
581.14	47236.69
581.30	47625.22
581.46	47243.71
581.62	47613.52
581.78	47262.44
581.94	47129.03
582.10	47393.51
582.26	47887.36
582.42	47145.41
582.58	47306.91
582.74	47889.70
582.90	47887.36
583.06	47526.92
583.22	47704.80
583.38	47578.41
583.54	47648.63
583.70	47627.56
583.86	47452.02
584.02	47405.21
584.18	48079.28
584.34	47861.61
584.50	47992.68
584.66	47936.51
584.82	47718.84
584.98	48289.93
585.14	48011.41
585.30	47388.83
585.46	47889.70
585.62	47599.47
585.78	47599.47
585.94	47531.60
586.10	47833.53
586.26	47346.70
586.42	47856.93
586.58	47934.17
586.74	47702.46
586.90	48046.52
587.06	47625.22
587.22	47721.18
587.38	47859.27
587.54	47775.02
587.70	48191.63
587.86	47931.83
588.02	47597.13
588.18	48107.37
588.34	47683.73
588.49	48018.43
588.65	47796.08
588.81	48062.90
588.97	47962.26
589.13	47749.27
589.29	47725.86
589.45	48409.30
589.61	47913.11
589.77	48023.11
589.93	48032.47
