SpectraSuite Data File
++++++++++++++++++++++++++++++++++++
Date: Fri Oct 25 11:24:05 EDT 2013
User: price-jones
Dark Spectrum Present: No
Reference Spectrum Present: No
Number of Sampled Component Spectra: 1
Spectrometers: USB2+H05261
Integration Time (usec): 100000 (USB2+H05261)
Spectra Averaged: 1 (USB2+H05261)
Boxcar Smoothing: 0 (USB2+H05261)
Correct for Electrical Dark: No (USB2+H05261)
Strobe/Lamp Enabled: No (USB2+H05261)
Correct for Detector Non-linearity: No (USB2+H05261)
Correct for Stray Light: No (USB2+H05261)
Number of Pixels in Processed Spectrum: 2048
>>>>>Begin Processed Spectral Data<<<<<
365.73	243.42
365.92	243.42
366.12	243.42
366.32	161.50
366.52	159.16
366.72	117.03
366.91	149.79
367.11	159.16
367.31	128.73
367.51	128.73
367.70	124.05
367.90	74.90
368.10	133.41
368.30	161.50
368.49	187.24
368.69	138.09
368.89	138.09
369.09	91.28
369.28	173.20
369.48	128.73
369.68	154.48
369.87	198.95
370.07	201.29
370.27	212.99
370.47	280.86
370.66	552.37
370.86	643.65
371.06	697.48
371.25	748.97
371.45	704.50
371.65	641.31
371.84	678.76
372.04	667.05
372.24	748.97
372.44	706.84
372.63	730.25
372.83	634.29
373.03	706.84
373.22	767.70
373.42	786.42
373.62	802.80
373.81	805.14
374.01	858.98
374.21	837.91
374.40	723.23
374.60	887.06
374.79	844.93
374.99	828.55
375.19	868.34
375.38	835.57
375.58	861.32
375.78	870.68
375.97	863.66
376.17	952.60
376.37	894.08
376.56	863.66
376.76	758.33
376.95	901.11
377.15	926.85
377.35	882.38
377.54	863.66
377.74	851.96
377.93	889.40
378.13	912.81
378.33	943.24
378.52	910.47
378.72	1011.11
378.91	933.87
379.11	973.66
379.31	976.00
379.50	924.51
379.70	990.05
379.89	950.26
380.09	994.73
380.28	976.00
380.48	924.51
380.68	1029.84
380.87	987.71
381.07	978.34
381.26	1027.50
381.46	1050.90
381.65	1025.15
381.85	1067.28
382.04	1041.54
382.24	1114.10
382.43	1050.90
382.63	1022.81
382.83	1076.65
383.02	1172.61
383.22	1135.16
383.41	980.68
383.61	1114.10
383.80	1053.24
384.00	1088.35
384.19	1128.14
384.39	1172.61
384.58	1156.22
384.78	1163.25
384.97	1158.57
385.17	1240.48
385.36	1102.39
385.56	1144.52
385.75	1172.61
385.95	1191.33
386.14	1210.06
386.34	1217.08
386.53	1095.37
386.72	1090.69
386.92	1231.12
387.11	1294.32
387.31	1306.02
387.50	1219.42
387.70	1210.06
387.89	1282.61
388.09	1212.40
388.28	1345.81
388.48	1275.59
388.67	1362.19
388.86	1336.45
389.06	1299.00
389.25	1383.26
389.45	1270.91
389.64	1315.38
389.84	1357.51
390.03	1469.86
390.22	1378.58
390.42	1404.32
390.61	1357.51
390.81	1380.92
391.00	1362.19
391.19	1483.90
391.39	1453.47
391.58	1423.05
391.78	1558.80
391.97	1448.79
392.16	1561.14
392.36	1507.30
392.55	1519.01
392.75	1612.63
392.94	1507.30
393.13	1554.12
393.33	1455.81
393.52	1629.01
393.71	1577.52
393.91	1558.80
394.10	1624.33
394.29	1610.29
394.49	1586.88
394.68	1694.55
394.88	1556.46
395.07	1746.04
395.26	1619.65
395.46	1561.14
395.65	1671.14
395.84	1694.55
396.04	1830.30
396.23	1739.02
396.42	1834.98
396.62	1909.88
396.81	1781.15
397.00	1732.00
397.19	1727.32
397.39	1893.49
397.58	1743.70
397.77	1879.45
397.97	1860.73
398.16	1813.92
398.35	1853.70
398.55	1877.11
398.74	1933.28
398.93	2047.97
399.12	1991.80
399.32	1970.73
399.51	1961.37
399.70	2017.54
399.90	1893.49
400.09	1989.46
400.28	2031.58
400.47	1923.92
400.67	2076.06
400.86	2146.27
401.05	2001.16
401.24	2230.53
401.44	2092.44
401.63	2115.84
401.82	2230.53
402.01	2136.91
402.21	2120.53
402.40	2230.53
402.59	2246.91
402.78	2218.83
402.97	2310.11
403.17	2300.75
403.36	2235.21
403.55	2326.49
403.74	2312.45
403.93	2263.30
404.13	2349.90
404.32	2305.43
404.51	2373.30
404.70	2392.03
404.89	2387.35
405.09	2513.74
405.28	2422.45
405.47	2502.03
405.66	2509.05
405.85	2483.31
406.05	2544.16
406.24	2609.70
406.43	2658.85
406.62	2726.72
406.81	2656.51
407.00	2612.04
407.20	2677.57
407.39	2731.41
407.58	2759.49
407.77	2745.45
407.96	2832.05
408.15	2682.25
408.34	2731.41
408.54	2803.96
408.73	2736.09
408.92	2853.11
409.11	2740.77
409.30	2913.97
409.49	2906.95
409.68	2974.82
409.87	3023.97
410.07	2963.12
410.26	3061.42
410.45	2925.67
410.64	3070.78
410.83	3068.44
411.02	3133.98
411.21	3159.72
411.40	2979.50
411.59	3157.38
411.78	3180.79
411.98	3279.09
412.17	3258.03
412.36	3316.54
412.55	3318.88
412.74	3438.25
412.93	3459.31
413.12	3236.96
413.31	3616.13
413.50	3548.25
413.69	3447.61
413.88	3508.46
414.07	3557.61
414.26	3667.62
414.45	3791.67
414.64	3634.85
414.83	3674.64
415.02	3913.38
415.22	3894.65
415.41	3908.69
415.60	3885.29
415.79	3866.56
415.98	4053.81
416.17	3981.25
416.36	3929.76
416.55	4088.92
416.74	4105.30
416.93	4074.87
417.12	4102.96
417.31	4201.26
417.50	4210.62
417.69	4313.61
417.88	4320.63
418.07	4334.67
418.26	4374.46
418.45	4308.93
418.64	4484.47
418.83	4564.04
419.02	4290.20
419.21	4624.90
419.39	4337.01
419.58	4472.76
419.77	4444.68
419.96	4564.04
420.15	4638.94
420.34	4699.80
420.53	4762.99
420.72	4784.06
420.91	4711.50
421.10	4767.67
421.29	4760.65
421.48	4645.96
421.67	4812.14
421.86	4830.87
422.05	4917.47
422.24	4786.40
422.43	4870.65
422.61	4844.91
422.80	4994.70
422.99	4999.38
423.18	4943.21
423.37	5020.45
423.56	4968.96
423.75	5104.71
423.94	4870.65
424.13	4723.20
424.32	4877.68
424.50	5172.58
424.69	5111.73
424.88	5050.88
425.07	4938.53
425.26	4858.95
425.45	5036.83
425.64	4987.68
425.83	4929.17
426.01	5050.88
426.20	5149.18
426.39	5172.58
426.58	5083.64
426.77	5109.39
426.96	5132.79
427.15	5125.77
427.33	5259.18
427.52	5324.72
427.71	5280.25
427.90	5406.64
428.09	5282.59
428.28	5490.90
428.46	5444.09
428.65	5460.47
428.84	5547.07
429.03	5523.66
429.22	5247.48
429.40	5474.51
429.59	5490.90
429.78	5348.12
429.97	5301.31
430.16	5657.07
430.34	5563.45
430.53	5598.56
430.72	5675.80
430.91	5537.71
431.10	5584.52
431.28	5830.27
431.47	5870.06
431.66	5912.19
431.85	5657.07
432.03	5975.39
432.22	6057.31
432.41	5891.13
432.60	5944.96
432.79	5940.28
432.97	6071.35
433.16	5994.11
433.35	6031.56
433.54	6094.76
433.72	6296.04
433.91	5996.45
434.10	6052.63
434.28	6104.12
434.47	6293.70
434.66	6366.26
434.85	6146.25
435.03	6293.70
435.22	6352.21
435.41	6424.77
435.59	6487.96
435.78	6567.54
435.97	6373.28
436.16	6415.41
436.34	6342.85
436.53	6455.20
436.72	6644.78
436.90	6359.24
437.09	6637.76
437.28	6516.05
437.46	6675.21
437.65	6773.51
437.84	6750.10
438.02	6829.68
438.21	6775.85
438.40	6817.98
438.58	7091.82
438.77	7040.33
438.96	7049.69
439.14	7260.34
439.33	7213.53
439.52	7220.55
439.70	7344.60
439.89	7342.26
440.08	7452.27
440.26	7403.11
440.45	7442.90
440.63	7494.40
440.82	7604.40
441.01	7676.96
441.19	7581.00
441.38	7599.72
441.57	7749.51
441.75	7812.71
441.94	8030.38
442.12	8023.36
442.31	7981.23
442.50	8156.77
442.68	8095.91
442.87	7936.76
443.05	8205.92
443.24	8072.51
443.43	8093.57
443.61	8334.65
443.80	8386.14
443.98	8124.00
444.17	8088.89
444.35	8294.86
444.54	8386.14
444.73	8271.45
444.91	8437.63
445.10	8194.22
445.28	8442.31
445.47	8287.84
445.65	8381.46
445.84	8603.81
446.02	8606.15
446.21	8695.09
446.39	8557.00
446.58	8617.85
446.77	8685.73
446.95	8463.38
447.14	8592.11
447.32	8491.46
447.51	8678.71
447.69	8491.46
447.88	8667.00
448.06	8409.54
448.25	8507.85
448.43	8500.83
448.62	8601.47
448.80	8704.45
448.99	8690.41
449.17	8816.80
449.36	8685.73
449.54	8791.05
449.73	9324.69
449.91	9020.42
450.10	8973.61
450.28	9195.96
450.46	9088.30
450.65	9198.31
450.83	9352.78
451.02	8945.53
451.20	9315.33
451.39	9242.78
451.57	9249.80
451.76	9011.06
451.94	9210.01
452.13	9387.89
452.31	9394.91
452.49	9233.41
452.68	9341.08
452.86	9593.86
453.05	9504.92
453.23	9575.13
453.42	9586.83
453.60	9308.31
453.78	9565.77
453.97	9277.88
454.15	9589.17
454.34	9530.66
454.52	9926.21
454.70	9757.69
454.89	9717.90
455.07	9968.34
455.26	9944.94
455.44	9933.23
455.62	9919.19
455.81	10064.30
455.99	10022.17
456.17	10083.03
456.36	10181.33
456.54	10347.51
456.73	10408.36
456.91	10406.02
457.09	10562.84
457.28	10693.91
457.46	10286.65
457.64	10532.41
457.83	10689.23
458.01	10604.97
458.19	10796.89
458.38	10712.63
458.56	10796.89
458.74	10633.05
458.93	10773.49
459.11	10740.72
459.29	10616.67
459.48	10909.24
459.66	10705.61
459.84	10902.22
460.03	11164.36
460.21	11119.89
460.39	11077.76
460.57	11269.68
460.76	11262.66
460.94	11117.54
461.12	11304.79
461.31	11154.99
461.49	11302.45
461.67	11426.50
461.85	11569.27
462.04	11382.03
462.22	11557.57
462.40	11681.61
462.59	11552.88
462.77	11477.99
462.95	11672.25
463.13	11632.46
463.32	11798.64
463.50	11967.16
463.68	11976.52
463.86	11974.18
464.05	11700.34
464.23	11815.02
464.41	11995.25
464.59	11726.08
464.78	12236.32
464.96	12367.39
465.14	12016.31
465.32	12180.15
465.50	12425.90
465.69	12386.12
465.87	12091.21
466.05	12453.99
466.23	12566.34
466.41	12219.94
466.60	12393.14
466.78	12142.70
466.96	12322.92
467.14	12243.34
467.32	12748.90
467.51	12695.07
467.69	12278.45
467.87	12318.24
468.05	12748.90
468.23	12596.76
468.41	12400.16
468.60	12538.25
468.78	12821.45
468.96	12552.29
469.14	12992.31
469.32	13289.56
469.50	12695.07
469.69	12992.31
469.87	13240.41
470.05	13219.35
470.23	13146.79
470.41	13263.82
470.59	13291.90
470.77	13350.42
470.95	13001.68
471.14	13731.92
471.32	13184.24
471.50	13408.93
471.68	13366.80
471.86	13706.18
472.04	13827.88
472.22	14176.62
472.40	13879.38
472.58	13916.83
472.77	14097.05
472.95	14127.47
473.13	14628.35
473.31	14525.36
473.49	14221.10
473.67	14143.86
473.85	14473.87
474.03	14703.25
474.21	14647.07
474.39	14806.23
474.57	14824.95
474.75	14846.02
474.93	15059.01
475.12	15101.14
475.30	15197.10
475.48	15056.67
475.66	15227.53
475.84	15330.51
476.02	15594.99
476.20	15644.14
476.38	15606.69
476.56	16189.49
476.74	16175.44
476.92	15875.85
477.10	15800.96
477.28	16304.17
477.46	16376.73
477.64	16393.11
477.82	16528.86
478.00	16893.99
478.18	17025.06
478.36	17092.93
478.54	17128.04
478.72	17509.55
478.90	17444.01
479.08	17696.79
479.26	17902.76
479.44	17914.46
479.62	18099.36
479.80	17970.63
479.98	18176.60
480.16	18586.19
480.34	18384.91
480.52	18750.03
480.70	18930.25
480.88	18642.37
481.06	18654.07
481.24	18890.46
481.41	18871.74
481.59	19295.38
481.77	19616.03
481.95	19634.75
482.13	19772.85
482.31	19840.72
482.49	20236.27
482.67	20184.78
482.85	20776.94
483.03	20783.96
483.21	20758.21
483.39	21296.53
483.57	20975.88
483.74	21092.91
483.92	21462.71
484.10	21301.22
484.28	21944.86
484.46	22162.53
484.64	22389.56
484.82	22207.00
485.00	22670.43
485.18	22831.93
485.35	23365.57
485.53	23002.78
485.71	23063.64
485.89	23777.50
486.07	23391.31
486.25	23466.21
486.43	23632.39
486.61	23971.77
486.78	24631.80
486.96	24315.83
487.14	24917.34
487.32	24608.39
487.50	24900.96
487.68	25233.32
487.85	25542.27
488.03	25703.76
488.21	26066.55
488.39	26026.76
488.57	26085.27
488.75	26125.06
488.92	26639.98
489.10	27253.20
489.28	27061.27
489.46	27091.70
489.64	27138.51
489.81	27674.49
489.99	27978.76
490.17	27999.83
490.35	28287.71
490.53	28371.97
490.70	28521.77
490.88	28376.66
491.06	28879.87
491.24	28861.15
491.41	29113.92
491.59	29455.64
491.77	29692.04
491.95	29731.83
492.13	29930.77
492.30	29872.26
492.48	30717.19
492.66	30328.66
492.84	30593.14
493.01	30913.80
493.19	30969.97
493.37	31323.39
493.54	31426.37
493.72	31864.05
493.90	31732.98
494.08	31592.55
494.25	32273.65
494.43	32313.44
494.61	32496.00
494.79	32877.51
494.96	32397.70
495.14	32835.38
495.32	33413.49
495.49	33488.38
495.67	33448.60
495.85	34043.09
496.02	34092.24
496.20	34536.94
496.38	34333.32
496.55	34623.54
496.73	35047.18
496.91	34569.71
497.09	34710.14
497.26	35145.48
497.44	35264.85
497.62	35459.12
497.79	35880.41
497.97	35737.64
498.14	36334.48
498.32	36458.52
498.50	36474.91
498.67	36917.27
498.85	36910.25
499.03	36987.49
499.20	37092.81
499.38	37266.01
499.56	37338.57
499.73	37268.35
499.91	37516.45
500.08	37886.25
500.26	37682.62
500.44	37830.08
500.61	38000.94
500.79	38277.12
500.97	38412.87
501.14	39189.93
501.32	38373.08
501.49	38382.45
501.67	39117.37
501.84	39559.73
502.02	39435.69
502.20	39519.95
502.37	39445.05
502.55	39550.37
502.72	39793.79
502.90	39585.48
503.07	39765.70
503.25	40058.27
503.43	39562.08
503.60	40247.85
503.78	40418.71
503.95	40732.34
504.13	40828.30
504.30	40748.73
504.48	40914.90
504.65	40875.12
504.83	41237.90
505.01	41495.36
505.18	41764.52
505.36	41954.10
505.53	41275.35
505.71	41661.54
505.88	41972.83
506.06	41750.48
506.23	42113.26
506.41	42038.36
506.58	42073.47
506.76	42628.18
506.93	42623.50
507.11	42628.18
507.28	42838.83
507.46	43243.74
507.63	43328.00
507.81	43583.12
507.98	42895.00
508.16	43821.85
508.33	43976.33
508.50	43477.79
508.68	43571.41
508.85	43950.58
509.03	43768.02
509.20	44147.18
509.38	44692.53
509.55	44741.68
509.73	44767.43
509.90	45064.67
510.08	44870.41
510.25	45043.61
510.42	45083.40
510.60	45038.93
510.77	45757.47
510.95	45956.42
511.12	45488.31
511.30	45226.17
511.47	45773.86
511.64	45457.88
511.82	46328.56
511.99	46230.26
512.17	46436.23
512.34	46373.03
512.51	46754.54
512.69	46461.97
512.86	47035.41
513.04	46883.27
513.21	47173.50
513.38	47049.45
513.56	47194.56
513.73	47302.23
513.90	46939.44
514.08	46962.85
514.25	47412.23
514.43	47723.52
514.60	47782.04
514.77	47564.37
514.95	47648.63
515.12	47636.92
515.29	48161.20
515.47	48259.51
515.64	48257.17
515.81	48243.12
515.99	48563.78
516.16	48893.79
516.33	48570.80
516.51	48753.36
516.68	48921.88
516.85	48748.68
517.03	49268.28
517.20	49371.26
517.37	49022.52
517.54	49043.59
517.72	49188.70
517.89	49104.44
518.06	49626.38
518.24	49605.31
518.41	49680.21
518.58	49588.93
518.75	49883.84
518.93	50155.34
519.10	50005.55
519.27	49769.15
519.45	50092.15
519.62	50164.70
519.79	50260.66
519.96	50312.16
520.14	50162.36
520.31	50401.10
520.48	50586.00
520.65	50754.52
520.83	51229.65
521.00	50850.48
521.17	50836.44
521.34	50763.88
521.52	51079.85
521.69	51292.84
521.86	51180.49
522.03	51559.66
522.20	51531.57
522.38	51690.73
522.55	51643.92
522.72	51859.25
522.89	51536.26
523.07	51906.06
523.24	51896.70
523.41	51812.44
523.58	51653.28
523.75	52116.71
523.92	52203.31
524.10	52278.21
524.27	52027.77
524.44	52313.31
524.61	52151.82
524.78	52360.12
524.96	52390.55
525.13	52430.34
525.30	52671.42
525.47	52772.06
525.64	52662.05
525.81	52982.71
525.98	52830.57
526.16	52662.05
526.33	52891.43
526.50	53148.88
526.67	53013.13
526.84	53130.16
527.01	52835.25
527.18	53081.01
527.36	53120.80
527.53	53312.72
527.70	53649.76
527.87	53670.82
528.04	53404.00
528.21	53558.48
528.38	53331.45
528.55	53745.72
528.72	53750.40
528.89	53439.11
529.07	53532.73
529.24	53874.45
529.41	54129.57
529.58	53502.31
529.75	53869.77
529.92	54026.59
530.09	54342.56
530.26	54190.42
530.43	54185.74
530.60	54003.18
530.77	54227.87
530.94	54363.62
531.11	54326.17
531.28	54410.43
531.46	54321.49
531.63	54475.97
531.80	54525.12
531.97	54354.26
532.14	54681.94
532.31	54618.74
532.48	54763.85
532.65	54560.23
532.82	54557.89
532.99	54780.24
533.16	54937.05
533.33	55164.09
533.50	54960.46
533.67	55393.46
533.84	54777.90
534.01	55000.25
534.18	54927.69
534.35	55330.26
534.52	55487.08
534.69	55203.88
534.86	55512.83
535.03	55311.54
535.20	55484.74
535.37	55826.46
535.54	55522.19
535.71	55543.25
535.88	55704.75
536.05	55370.05
536.22	55758.58
536.38	55831.14
536.55	55648.58
536.72	56067.53
536.89	55835.82
537.06	55948.17
537.23	56023.06
537.40	55714.11
537.57	56100.30
537.74	56313.29
537.91	56123.71
538.08	56317.97
538.25	55906.04
538.42	56090.94
538.59	56465.42
538.75	55833.48
538.92	56289.88
539.09	56334.35
539.26	56296.91
539.43	56198.60
539.60	56451.38
539.77	56217.33
539.94	56687.78
540.11	56612.88
540.28	56786.08
540.44	56669.05
540.61	56486.49
540.78	56903.10
540.95	56526.28
541.12	56884.38
541.29	56568.41
541.46	56898.42
541.62	56809.48
541.79	56970.98
541.96	56673.73
542.13	56704.16
542.30	56858.63
542.47	56973.32
542.63	57034.17
542.80	56947.57
542.97	57286.95
543.14	57116.09
543.31	57406.32
543.48	57476.54
543.64	57652.08
543.81	57530.37
543.98	57357.17
544.15	57464.83
544.32	57691.86
544.48	57525.69
544.65	57635.69
544.82	57542.07
544.99	57544.41
545.16	57570.16
545.32	57645.05
545.49	57921.24
545.66	57743.36
545.83	57925.92
546.00	58061.67
546.16	57741.02
546.33	57764.42
546.50	57506.96
546.67	57951.66
546.83	57584.20
547.00	57923.58
547.17	58056.99
547.34	57986.77
547.50	58094.44
547.67	58124.86
547.84	57996.13
548.00	58269.98
548.17	58419.77
548.34	58237.21
548.51	58239.55
548.67	58513.39
548.84	58262.96
549.01	58445.52
549.18	58349.56
549.34	58433.81
549.51	58473.60
549.68	58422.11
549.84	58749.79
550.01	58614.04
550.18	58354.24
550.34	58419.77
550.51	58585.95
550.68	58679.57
550.84	58279.34
551.01	58829.37
551.18	58597.65
551.34	58543.82
551.51	58773.19
551.68	58918.31
551.84	58801.28
552.01	58595.31
552.18	58827.02
552.34	58770.85
552.51	58974.48
552.68	58862.13
552.84	58773.19
553.01	59138.32
553.18	58894.90
553.34	59082.14
553.51	59023.63
553.67	59068.10
553.84	59243.64
554.01	58932.35
554.17	59182.79
554.34	59164.06
554.51	59030.65
554.67	59288.11
554.84	59430.88
555.00	59126.61
555.17	59243.64
555.33	59168.74
555.50	59025.97
555.67	59283.43
555.83	59175.76
556.00	59391.09
556.16	59435.56
556.33	59281.09
556.50	59341.94
556.66	59475.35
556.83	59341.94
556.99	59683.66
557.16	59554.93
557.32	59716.43
557.49	59753.88
557.65	59458.97
557.82	59522.16
557.98	59285.77
558.15	59578.34
558.32	59686.00
558.48	59515.14
558.65	59737.49
558.81	59629.83
558.98	59737.49
559.14	59650.89
559.31	59758.56
559.47	59788.98
559.64	59817.07
559.80	59746.86
559.97	59700.04
560.13	59737.49
560.30	59884.95
560.46	59927.08
560.63	59969.21
560.79	60025.38
560.96	60041.76
561.12	60060.49
561.29	59976.23
561.45	59927.08
561.61	60053.47
561.78	59964.52
561.94	59915.37
562.11	59980.91
562.27	60095.60
562.44	60226.66
562.60	60268.79
562.77	60100.28
562.93	60011.34
563.10	60360.08
563.26	60177.51
563.42	60236.03
563.59	60247.73
563.75	60137.72
563.92	60196.24
564.08	60104.96
564.24	60217.30
564.41	60280.50
564.57	60275.82
564.74	60123.68
564.90	60343.69
565.07	60266.45
565.23	60144.75
565.39	60479.44
565.56	60224.32
565.72	60252.41
565.88	60425.61
566.05	60280.50
566.21	60097.94
566.38	60444.33
566.54	60294.54
566.70	60533.28
566.87	60563.70
567.03	60243.05
567.19	60638.60
567.36	60470.08
567.52	60460.72
567.68	60788.39
567.85	60683.07
568.01	60481.78
568.17	60331.99
568.34	60540.30
568.50	60547.32
568.66	60568.38
568.83	60631.58
568.99	60687.75
569.15	60540.30
569.32	60629.24
569.48	60594.13
569.64	60451.36
569.81	60416.25
569.97	60437.31
570.13	60692.43
570.30	60357.74
570.46	60530.93
570.62	60484.12
570.78	60573.06
570.95	60830.52
571.11	60559.02
571.27	60430.29
571.43	60708.82
571.60	60949.89
571.76	60706.47
571.92	60507.53
572.09	60750.94
572.25	60748.60
572.41	60694.77
572.57	60683.07
572.74	61059.90
572.90	60858.61
573.06	60793.07
573.22	60823.50
573.38	60619.88
573.55	60755.63
573.71	60956.91
573.87	60926.49
574.03	60549.66
574.20	60851.59
574.36	60776.69
574.52	60896.06
574.68	60886.70
574.84	60900.74
575.01	60996.70
575.17	60797.76
575.33	60776.69
575.49	60779.03
575.65	61083.30
575.82	60912.44
575.98	60919.46
576.14	60907.76
576.30	61001.38
576.46	60748.60
576.62	60919.46
576.79	61130.11
576.95	60748.60
577.11	60982.66
577.27	61134.79
577.43	61155.86
577.59	60760.31
577.75	60870.31
577.92	60912.44
578.08	60994.36
578.24	61034.15
578.40	61099.68
578.56	61134.79
578.72	61034.15
578.88	61167.56
579.04	61015.43
579.21	60921.80
579.37	61186.28
579.53	61069.26
579.69	60851.59
579.85	60729.88
580.01	60886.70
580.17	61059.90
580.33	61158.20
580.49	61127.77
580.65	60985.00
580.82	61087.98
580.98	60788.39
581.14	60921.80
581.30	61240.12
581.46	61020.11
581.62	61017.77
581.78	60907.76
581.94	61073.94
582.10	60905.42
582.26	60884.36
582.42	61214.37
582.58	60942.87
582.74	60924.14
582.90	61031.81
583.06	60952.23
583.22	61036.49
583.38	60938.19
583.54	61106.71
583.70	61043.51
583.86	61048.19
584.02	61099.68
584.18	61062.24
584.34	61183.94
584.50	61125.43
584.66	61125.43
584.82	61010.74
584.98	61319.70
585.14	61228.41
585.30	61013.08
585.46	61366.51
585.62	61141.81
585.78	61186.28
585.94	60893.72
586.10	61123.09
586.26	61144.16
586.42	61003.72
586.58	61432.04
586.74	61272.88
586.90	61041.17
587.06	61062.24
587.22	61247.14
587.38	61291.61
587.54	61413.32
587.70	61155.86
587.86	61336.08
588.02	61174.58
588.18	61506.94
588.34	61132.45
588.49	61223.73
