SpectraSuite Data File
++++++++++++++++++++++++++++++++++++
Date: Fri Oct 25 11:23:04 EDT 2013
User: price-jones
Dark Spectrum Present: No
Reference Spectrum Present: No
Number of Sampled Component Spectra: 1
Spectrometers: USB2+H05261
Integration Time (usec): 100000 (USB2+H05261)
Spectra Averaged: 1 (USB2+H05261)
Boxcar Smoothing: 0 (USB2+H05261)
Correct for Electrical Dark: No (USB2+H05261)
Strobe/Lamp Enabled: No (USB2+H05261)
Correct for Detector Non-linearity: No (USB2+H05261)
Correct for Stray Light: No (USB2+H05261)
Number of Pixels in Processed Spectrum: 2048
>>>>>Begin Processed Spectral Data<<<<<
365.73	191.92
365.92	191.92
366.12	191.92
366.32	124.05
366.52	100.64
366.72	229.37
366.91	152.13
367.11	117.03
367.31	121.71
367.51	147.45
367.70	154.48
367.90	210.65
368.10	124.05
368.30	107.66
368.49	121.71
368.69	91.28
368.89	133.41
369.09	159.16
369.28	156.82
369.48	133.41
369.68	114.69
369.87	215.33
370.07	222.35
370.27	229.37
370.47	320.65
370.66	521.94
370.86	580.45
371.06	669.39
371.25	767.70
371.45	737.27
371.65	739.61
371.84	681.10
372.04	732.59
372.24	681.10
372.44	706.84
372.63	807.48
372.83	781.74
373.03	767.70
373.22	730.25
373.42	718.54
373.62	779.40
373.81	774.72
374.01	777.06
374.21	805.14
374.40	870.68
374.60	915.15
374.79	868.34
374.99	798.12
375.19	828.55
375.38	833.23
375.58	837.91
375.78	851.96
375.97	833.23
376.17	868.34
376.37	849.61
376.56	894.08
376.76	866.00
376.95	861.32
377.15	912.81
377.35	861.32
377.54	805.14
377.74	870.68
377.93	957.28
378.13	896.43
378.33	947.92
378.52	851.96
378.72	877.70
378.91	898.77
379.11	870.68
379.31	912.81
379.50	973.66
379.70	1027.50
379.89	999.41
380.09	936.21
380.28	994.73
380.48	1039.20
380.68	1025.15
380.87	990.05
381.07	997.07
381.26	1039.20
381.46	999.41
381.65	1004.09
381.85	1001.75
382.04	992.39
382.24	1043.88
382.43	1043.88
382.63	1034.52
382.83	1048.56
383.02	1165.59
383.22	1083.67
383.41	1060.26
383.61	1100.05
383.80	1116.44
384.00	1160.91
384.19	1118.78
384.39	1188.99
384.58	1144.52
384.78	1198.35
384.97	1139.84
385.17	1130.48
385.36	1102.39
385.56	1158.57
385.75	1184.31
385.95	1228.78
386.14	1116.44
386.34	1114.10
386.53	1177.29
386.72	1188.99
386.92	1231.12
387.11	1280.27
387.31	1221.76
387.50	1252.19
387.70	1259.21
387.89	1294.32
388.09	1242.82
388.28	1299.00
388.48	1167.93
388.67	1348.15
388.86	1348.15
389.06	1348.15
389.25	1327.08
389.45	1327.08
389.64	1371.55
389.84	1380.92
390.03	1345.81
390.22	1371.55
390.42	1324.74
390.61	1413.68
390.81	1341.13
391.00	1416.02
391.19	1409.00
391.39	1451.13
391.58	1479.22
391.78	1397.30
391.97	1490.92
392.16	1469.86
392.36	1549.43
392.55	1577.52
392.75	1540.07
392.94	1547.09
393.13	1511.99
393.33	1500.28
393.52	1565.82
393.71	1528.37
393.91	1612.63
394.10	1654.76
394.29	1636.03
394.49	1586.88
394.68	1577.52
394.88	1671.14
395.07	1696.89
395.26	1624.33
395.46	1664.12
395.65	1774.13
395.84	1638.38
396.04	1872.43
396.23	1795.19
396.42	1732.00
396.62	1699.23
396.81	1671.14
397.00	1818.60
397.19	1757.74
397.39	1785.83
397.58	1937.96
397.77	1825.62
397.97	1886.47
398.16	1898.17
398.35	1884.13
398.55	1860.73
398.74	1893.49
398.93	1888.81
399.12	1933.28
399.32	1886.47
399.51	1973.07
399.70	2017.54
399.90	1970.73
400.09	1963.71
400.28	2008.18
400.47	1987.11
400.67	2090.10
400.86	2069.03
401.05	2169.68
401.24	2090.10
401.44	2064.35
401.63	2139.25
401.82	2225.85
402.01	2115.84
402.21	2216.49
402.40	2263.30
402.59	2186.06
402.78	2108.82
402.97	2216.49
403.17	2296.07
403.36	2256.28
403.55	2279.68
403.74	2366.28
403.93	2387.35
404.13	2401.39
404.32	2382.67
404.51	2396.71
404.70	2399.05
404.89	2441.18
405.09	2434.16
405.28	2609.70
405.47	2443.52
405.66	2532.46
405.85	2455.22
406.05	2513.74
406.24	2420.11
406.43	2595.65
406.62	2677.57
406.81	2773.53
407.00	2663.53
407.20	2616.72
407.39	2572.25
407.58	2794.60
407.77	2918.65
407.96	2700.98
408.15	2836.73
408.34	2754.81
408.54	2855.45
408.73	2825.03
408.92	2883.54
409.11	2883.54
409.30	2951.42
409.49	2937.37
409.68	3005.25
409.87	2878.86
410.07	3091.85
410.26	2953.76
410.45	3009.93
410.64	2998.23
410.83	3091.85
411.02	3063.76
411.21	3272.07
411.40	3201.85
411.59	3190.15
411.78	3169.09
411.98	3199.51
412.17	3218.24
412.36	3251.00
412.55	3391.44
412.74	3361.01
412.93	3342.28
413.12	3440.59
413.31	3536.55
413.50	3517.83
413.69	3412.50
413.88	3653.58
414.07	3632.51
414.26	3660.60
414.45	3658.26
414.64	3857.20
414.83	3845.50
415.02	3777.62
415.22	3939.12
415.41	3901.67
415.60	3721.45
415.79	3817.41
415.98	4039.76
416.17	3943.80
416.36	3932.10
416.55	3896.99
416.74	3983.59
416.93	4187.22
417.12	4170.83
417.31	4079.55
417.50	4149.77
417.69	4222.33
417.88	4311.27
418.07	4341.69
418.26	4273.82
418.45	4194.24
418.64	4526.60
418.83	4407.23
419.02	4535.96
419.21	4575.75
419.39	4650.64
419.58	4456.38
419.77	4594.47
419.96	4606.17
420.15	4660.01
420.34	4788.74
420.53	4449.36
420.72	4678.73
420.91	4596.81
421.10	4826.18
421.29	4849.59
421.48	4767.67
421.67	4837.89
421.86	4807.46
422.05	4922.15
422.24	4798.10
422.43	4973.64
422.61	4791.08
422.80	5004.07
422.99	4929.17
423.18	5046.20
423.37	4992.36
423.56	5029.81
423.75	4929.17
423.94	4798.10
424.13	4620.22
424.32	4912.78
424.50	4971.30
424.69	5095.35
424.88	5160.88
425.07	4966.62
425.26	4980.66
425.45	5048.54
425.64	4936.19
425.83	4884.70
426.01	5081.30
426.20	5032.15
426.39	5041.51
426.58	5057.90
426.77	4926.83
426.96	5221.74
427.15	5160.88
427.33	5226.42
427.52	5294.29
427.71	5144.50
427.90	5275.57
428.09	5240.46
428.28	5453.45
428.46	5446.43
428.65	5270.89
428.84	5535.37
429.03	5727.29
429.22	5458.13
429.40	5357.49
429.59	5661.76
429.78	5350.46
429.97	5221.74
430.16	5544.73
430.34	5631.33
430.53	5713.25
430.72	5701.54
430.91	5703.89
431.10	5561.11
431.28	5748.36
431.47	5755.38
431.66	6010.50
431.85	5736.65
432.03	5863.04
432.22	6167.31
432.41	5834.96
432.60	5977.73
432.79	6115.82
432.97	6155.61
433.16	6012.84
433.35	6031.56
433.54	6356.90
433.72	6232.85
433.91	5933.26
434.10	6223.48
434.28	6104.12
434.47	6263.27
434.66	6480.94
434.85	6279.66
435.03	6317.11
435.22	6417.75
435.41	6623.72
435.59	6410.73
435.78	6422.43
435.97	6537.12
436.16	6359.24
436.34	6431.79
436.53	6675.21
436.72	6544.14
436.90	6602.65
437.09	6841.39
437.28	6607.33
437.46	6754.79
437.65	6780.53
437.84	6738.40
438.02	6686.91
438.21	6803.94
438.40	6766.49
438.58	7108.21
438.77	7059.06
438.96	7005.22
439.14	7309.49
439.33	7201.83
439.52	7325.88
439.70	7595.04
439.89	7398.43
440.08	7552.91
440.26	7569.29
440.45	7541.21
440.63	7588.02
440.82	7653.55
441.01	7597.38
441.19	7623.12
441.38	7805.69
441.57	7852.50
441.75	7894.63
441.94	7955.48
442.12	7948.46
442.31	8201.24
442.50	8105.28
442.68	8131.02
442.87	8124.00
443.05	8243.37
443.24	8252.73
443.43	8168.47
443.61	8297.20
443.80	8578.06
443.98	8149.75
444.17	7995.27
444.35	8383.80
444.54	8407.20
444.73	8456.36
444.91	8461.04
445.10	8498.49
445.28	8231.66
445.47	8325.29
445.65	8568.70
445.84	8755.94
446.02	8500.83
446.21	8444.65
446.39	8507.85
446.58	8613.17
446.77	8344.01
446.95	8547.64
447.14	8580.40
447.32	8667.00
447.51	8641.26
447.69	8524.23
447.88	8725.52
448.06	8500.83
448.25	8711.47
448.43	8734.88
448.62	8699.77
448.80	8393.16
448.99	8664.66
449.17	8929.14
449.36	8791.05
449.54	8926.80
449.73	9121.07
449.91	9095.32
450.10	9123.41
450.28	9041.49
450.46	9076.60
450.65	9261.50
450.83	9179.58
451.02	9266.18
451.20	9544.70
451.39	9284.91
451.57	9207.67
451.76	9128.09
451.94	9392.57
452.13	9444.06
452.31	9277.88
452.49	9238.09
452.68	9561.09
452.86	9394.91
453.05	9525.98
453.23	9825.57
453.42	9453.42
453.60	9315.33
453.78	9483.85
453.97	9511.94
454.15	9493.21
454.34	9727.27
454.52	9703.86
454.70	9659.39
454.89	9802.16
455.07	10099.41
455.26	9823.23
455.44	9867.70
455.62	9834.93
455.81	9853.66
455.99	10097.07
456.17	10122.82
456.36	10174.31
456.54	10286.65
456.73	10073.67
456.91	10619.01
457.09	10490.28
457.28	10581.56
457.46	10434.11
457.64	10782.85
457.83	10462.19
458.01	10480.92
458.19	10860.09
458.38	10544.11
458.56	11096.48
458.74	10726.68
458.93	10743.06
459.11	10703.27
459.29	10724.33
459.48	10892.85
459.66	11014.56
459.84	11016.90
460.03	11178.40
460.21	11126.91
460.39	11098.82
460.57	11211.17
460.76	10998.18
460.94	11344.58
461.12	11534.16
461.31	11321.17
461.49	11208.83
461.67	11419.47
461.85	11595.01
462.04	11524.80
462.22	11480.33
462.40	11777.58
462.59	11676.93
462.77	11501.39
462.95	11864.18
463.13	11573.95
463.32	11541.18
463.50	11875.88
463.68	11688.64
463.86	12067.80
464.05	11868.86
464.23	11726.08
464.41	12025.67
464.59	11887.58
464.78	12070.14
464.96	12250.36
465.14	12065.46
465.32	12175.47
465.50	12372.07
465.69	12397.82
465.87	12259.73
466.05	12348.67
466.23	12334.62
466.41	12273.77
466.60	12568.68
466.78	12285.47
466.96	12355.69
467.14	12463.35
467.32	12468.03
467.51	12760.60
467.69	12140.36
467.87	12554.63
468.05	12638.89
468.23	12580.38
468.41	12430.59
468.60	12571.02
468.78	12858.90
468.96	12692.73
469.14	12816.77
469.32	13114.02
469.50	12812.09
469.69	13034.44
469.87	13214.66
470.05	13195.94
470.23	13294.24
470.41	13242.75
470.59	13359.78
470.77	13444.04
470.95	13303.60
471.14	13652.34
471.32	13315.31
471.50	13949.59
471.68	13860.65
471.86	13778.73
472.04	14092.37
472.22	14155.56
472.40	13792.78
472.58	14003.43
472.77	14015.13
472.95	14106.41
473.13	14813.25
473.31	14230.46
473.49	14284.29
473.67	14492.60
473.85	14340.46
474.03	14693.88
474.21	14698.56
474.39	14721.97
474.57	14874.10
474.75	14951.34
474.93	15206.46
475.12	15208.80
475.30	15117.52
475.48	15248.59
475.66	15417.11
475.84	15119.86
476.02	15765.85
476.20	15515.41
476.38	15529.45
476.56	16187.14
476.74	16116.93
476.92	16355.66
477.10	16013.95
477.28	16538.23
477.46	16432.90
477.64	16592.06
477.82	16779.30
478.00	17383.16
478.18	17039.10
478.36	17060.16
478.54	17221.66
478.72	17249.75
478.90	17586.79
479.08	17671.04
479.26	17998.72
479.44	17996.38
479.62	18160.22
479.80	18331.08
479.98	18216.39
480.16	18719.60
480.34	18775.78
480.52	18838.97
480.70	18878.76
480.88	18733.65
481.06	18752.37
481.24	19201.76
481.41	19264.95
481.59	19878.17
481.77	19639.44
481.95	19484.96
482.13	20084.14
482.31	19683.91
482.49	20524.16
482.67	20262.02
482.85	20631.82
483.03	20613.10
483.21	21200.57
483.39	20973.54
483.57	21113.97
483.74	21469.73
483.92	21841.88
484.10	21212.28
484.28	22125.08
484.46	21942.52
484.64	22382.54
484.82	22473.82
485.00	22560.42
485.18	23405.36
485.35	23274.29
485.53	23208.75
485.71	23672.18
485.89	23461.53
486.07	23711.97
486.25	23791.55
486.43	24065.39
486.61	24173.05
486.78	24374.34
486.96	24299.44
487.14	24875.21
487.32	24376.68
487.50	25022.67
487.68	25259.06
487.85	25378.43
488.03	26019.74
488.21	26380.18
488.39	25963.56
488.57	26192.94
488.75	26380.18
488.92	26590.83
489.10	27304.69
489.28	26984.04
489.46	27309.37
489.64	27395.97
489.81	28107.49
489.99	28233.88
490.17	28168.35
490.35	28336.87
490.53	28561.56
490.70	28662.20
490.88	28664.54
491.06	29024.98
491.24	29041.37
491.41	29069.45
491.59	29565.65
491.77	29467.34
491.95	30110.99
492.13	30242.06
492.30	30377.81
492.48	30419.94
492.66	30326.32
492.84	30354.41
493.01	30822.51
493.19	30944.22
493.37	31562.12
493.54	31342.11
493.72	31983.42
493.90	31775.11
494.08	31835.97
494.25	32299.39
494.43	32329.82
494.61	32486.64
494.79	33483.70
494.96	33062.41
495.14	33366.68
495.32	33483.70
495.49	33696.69
495.67	33956.49
495.85	34000.96
496.02	33928.41
496.20	34553.33
496.38	34345.02
496.55	34567.37
496.73	35220.38
496.91	34534.60
497.09	35119.74
497.26	35136.12
497.44	35325.71
497.62	35634.66
497.79	36065.31
497.97	35880.41
498.14	36156.60
498.32	36428.10
498.50	36793.22
498.67	36858.76
498.85	36919.61
499.03	37085.79
499.20	36795.56
499.38	37242.60
499.56	37317.50
499.73	37404.10
499.91	37137.28
500.08	37975.19
500.26	38099.24
500.44	38258.40
500.61	38031.36
500.79	38031.36
500.97	38487.77
501.14	39047.16
501.32	39215.68
501.49	38995.67
501.67	39267.17
501.84	39175.89
502.02	39246.10
502.20	39281.21
502.37	39669.74
502.55	40013.80
502.72	39737.62
502.90	39814.85
503.07	39742.30
503.25	40535.74
503.43	39948.26
503.60	40217.43
503.78	40624.68
503.95	40921.93
504.13	41085.76
504.30	41214.49
504.48	41181.73
504.65	40985.12
504.83	41116.19
505.01	41694.30
505.18	41425.14
505.36	41708.35
505.53	41818.35
505.71	42040.70
505.88	42157.73
506.06	41949.42
506.23	42754.57
506.41	42445.62
506.58	42684.35
506.76	42761.59
506.93	42918.40
507.11	42763.93
507.28	42698.39
507.46	42974.58
507.63	43402.89
507.81	43765.68
507.98	43246.08
508.16	43620.56
508.33	43894.41
508.50	43868.66
508.68	44016.11
508.85	44294.64
509.03	44231.44
509.20	44189.31
509.38	44910.20
509.55	44772.11
509.73	44865.73
509.90	45085.74
510.08	45024.89
510.25	44479.54
510.42	45062.33
510.60	45406.39
510.77	45783.22
510.95	46031.32
511.12	45542.14
511.30	45514.06
511.47	46099.19
511.64	46389.42
511.82	46206.86
511.99	45900.25
512.17	46473.68
512.34	46279.41
512.51	46426.87
512.69	46913.70
512.86	46841.14
513.04	46752.20
513.21	47051.79
513.38	47168.82
513.56	47412.23
513.73	46967.53
513.90	47402.87
514.08	47386.49
514.25	47583.09
514.43	47674.37
514.60	48037.16
514.77	47896.72
514.95	48030.13
515.12	48224.40
515.29	47885.02
515.47	48449.09
515.64	48570.80
515.81	48556.75
515.99	48814.21
516.16	49111.46
516.33	48844.64
516.51	49066.99
516.68	49015.50
516.85	49043.59
517.03	49134.87
517.20	49411.05
517.37	49525.74
517.54	49099.76
517.72	49399.35
517.89	49364.24
518.06	49539.78
518.24	49591.27
518.41	49734.04
518.58	49600.63
518.75	49682.55
518.93	49963.42
519.10	49872.14
519.27	50227.90
519.45	50178.75
519.62	50075.76
519.79	50429.18
519.96	50305.13
520.14	50712.39
520.31	50405.78
520.48	50660.90
520.65	50777.92
520.83	51033.04
521.00	50808.35
521.17	51040.06
521.34	51182.84
521.52	50913.67
521.69	51189.86
521.86	51253.05
522.03	51519.87
522.20	51285.82
522.38	51826.48
522.55	51903.72
522.72	51601.79
522.89	51576.04
523.07	51812.44
523.24	51840.53
523.41	52065.22
523.58	51793.71
523.75	52353.10
523.92	51931.81
524.10	52294.59
524.27	52446.72
524.44	52725.25
524.61	52493.54
524.78	52612.90
524.96	52526.30
525.13	52467.79
525.30	52774.40
525.47	53003.77
525.64	52589.50
525.81	52830.57
525.98	53059.94
526.16	53024.84
526.33	53130.16
526.50	53457.84
526.67	53205.06
526.84	53331.45
527.01	53247.19
527.18	53209.74
527.36	53443.79
527.53	53216.76
527.70	53375.92
527.87	53736.36
528.04	53418.05
528.21	53804.24
528.38	53719.98
528.55	53825.30
528.72	53867.43
528.89	53820.62
529.07	53609.97
529.24	53797.21
529.41	54000.84
529.58	54145.95
529.75	53902.54
529.92	54003.18
530.09	54167.02
530.26	54375.33
530.43	54188.08
530.60	54152.97
530.77	54040.63
530.94	54169.36
531.11	54363.62
531.28	54571.93
531.46	54630.44
531.63	54611.72
531.80	54604.70
531.97	54686.62
532.14	54719.38
532.31	54831.73
532.48	54794.28
532.65	54766.20
532.82	54541.50
532.99	54915.99
533.16	54948.76
533.33	54962.80
533.50	55243.66
533.67	55189.83
533.84	55042.38
534.01	55187.49
534.18	55136.00
534.35	55660.28
534.52	55573.68
534.69	55508.14
534.86	55735.18
535.03	55222.60
535.20	55494.10
535.37	55636.87
535.54	55859.23
535.71	55547.93
535.88	55683.69
536.05	55531.55
536.22	55976.25
536.38	55824.12
536.55	55866.25
536.72	56051.15
536.89	55920.08
537.06	55992.64
537.23	55931.78
537.40	55957.53
537.57	55915.40
537.74	56236.05
537.91	55994.98
538.08	56179.88
538.25	55994.98
538.42	56165.84
538.59	56409.25
538.75	56179.88
538.92	56397.55
539.09	56427.98
539.26	56610.54
539.43	56343.72
539.60	56404.57
539.77	56526.28
539.94	56664.37
540.11	56652.67
540.28	56769.69
540.44	56739.27
540.61	56577.77
540.78	56519.26
540.95	56540.32
541.12	56896.08
541.29	56739.27
541.46	56699.48
541.62	56856.29
541.79	56706.50
541.96	56657.35
542.13	56832.89
542.30	57052.90
542.47	57275.25
542.63	57176.95
542.80	57078.64
542.97	57303.34
543.14	57408.66
543.31	57530.37
543.48	57448.45
543.64	57581.86
543.81	57542.07
543.98	57525.69
544.15	57813.57
544.32	57895.49
544.48	57867.40
544.65	57602.92
544.82	57825.28
544.99	57460.15
545.16	57813.57
545.32	57759.74
545.49	57769.10
545.66	57979.75
545.83	57832.30
546.00	58071.03
546.16	57923.58
546.33	57780.81
546.50	57642.71
546.67	57836.98
546.83	57577.18
547.00	58064.01
547.17	58166.99
547.34	58110.82
547.50	58295.72
547.67	58349.56
547.84	58251.25
548.00	58431.47
548.17	58616.38
548.34	58248.91
548.51	58625.74
548.67	58230.19
548.84	58368.28
549.01	58457.22
549.18	58691.27
549.34	58597.65
549.51	58578.93
549.68	58592.97
549.84	58770.85
550.01	58639.78
550.18	58543.82
550.34	58712.34
550.51	58803.62
550.68	58710.00
550.84	58520.41
551.01	58848.09
551.18	58663.19
551.34	58953.41
551.51	58684.25
551.68	58827.02
551.84	58841.07
552.01	58770.85
552.18	58702.98
552.34	58721.70
552.51	58969.80
552.68	58829.37
552.84	59105.55
553.01	59304.49
553.18	59068.10
553.34	59192.15
553.51	59100.87
553.67	59145.34
553.84	59220.23
554.01	59131.29
554.17	59309.18
554.34	59278.75
554.51	59159.38
554.67	59210.87
554.84	59274.07
555.00	59367.69
555.17	59063.42
555.33	59150.02
555.50	59089.16
555.67	58962.78
555.83	59384.07
556.00	59201.51
556.16	59723.45
556.33	59332.58
556.50	59428.54
556.66	59585.36
556.83	59339.60
556.99	59522.16
557.16	59756.22
557.32	59751.54
557.49	59828.77
557.65	59374.71
557.82	59580.68
557.98	59693.02
558.15	59629.83
558.32	59920.05
558.48	59566.63
558.65	59636.85
558.81	59667.28
558.98	59842.82
559.14	59812.39
559.31	60074.53
559.47	59917.71
559.64	60048.78
559.80	59805.37
559.97	60083.89
560.13	59791.33
560.30	59821.75
560.46	59845.16
560.63	60001.97
560.79	59955.16
560.96	60229.01
561.12	60041.76
561.29	60170.49
561.45	60011.34
561.61	60226.66
561.78	59985.59
561.94	59929.42
562.11	60116.66
562.27	60364.76
562.44	60324.97
562.60	60348.37
562.77	60243.05
562.93	60119.00
563.10	60287.52
563.26	60088.57
563.42	60404.55
563.59	60114.32
563.75	60233.69
563.92	60236.03
564.08	60058.15
564.24	60434.97
564.41	60287.52
564.57	60446.68
564.74	60062.83
564.90	60364.76
565.07	60310.92
565.23	60376.46
565.39	60395.18
565.56	60226.66
565.72	60278.16
565.88	60434.97
566.05	60364.76
566.21	60292.20
566.38	60629.24
566.54	60544.98
566.70	60453.70
566.87	60481.78
567.03	60467.74
567.19	60732.22
567.36	60530.93
567.52	60376.46
567.68	60732.22
567.85	60580.09
568.01	60514.55
568.17	60458.38
568.34	60654.98
568.50	60589.45
568.66	60608.17
568.83	60587.11
568.99	60566.04
569.15	60626.90
569.32	60460.72
569.48	60514.55
569.64	60711.16
569.81	60631.58
569.97	60589.45
570.13	60774.35
570.30	60654.98
570.46	60711.16
570.62	60734.56
570.78	60828.18
570.95	60889.04
571.11	60905.42
571.27	60912.44
571.43	60694.77
571.60	60917.12
571.76	60615.19
571.92	61031.81
572.09	60835.20
572.25	60879.67
572.41	60772.01
572.57	60816.48
572.74	61055.21
572.90	61024.79
573.06	60779.03
573.22	60872.65
573.38	60959.25
573.55	60851.59
573.71	61045.85
573.87	60774.35
574.03	60650.30
574.20	60975.64
574.36	60860.95
574.52	60900.74
574.68	60893.72
574.84	60790.73
575.01	60975.64
575.17	60884.36
575.33	61104.37
575.49	60907.76
575.65	61027.13
575.82	61183.94
575.98	61104.37
576.14	61120.75
576.30	61237.78
576.46	61118.41
576.62	61127.77
576.79	60956.91
576.95	60928.83
577.11	61202.67
577.27	61043.51
577.43	61029.47
577.59	60931.17
577.75	61066.92
577.92	61071.60
578.08	60942.87
578.24	61083.30
578.40	61160.54
578.56	61326.72
578.72	61097.34
578.88	61254.16
579.04	61312.67
579.21	61087.98
579.37	61200.33
579.53	61275.22
579.69	61050.53
579.85	61085.64
580.01	61064.58
580.17	60945.21
580.33	61207.35
580.49	61247.14
580.65	61132.45
580.82	61116.07
580.98	60921.80
581.14	60954.57
581.30	61221.39
581.46	60989.68
581.62	61188.63
581.78	61080.96
581.94	61357.14
582.10	61125.43
582.26	61221.39
582.42	61169.90
582.58	61123.09
582.74	61214.37
582.90	61247.14
583.06	61207.35
583.22	61071.60
583.38	61169.90
583.54	61099.68
583.70	61209.69
583.86	61329.06
584.02	61085.64
584.18	61286.93
584.34	61265.86
584.50	61020.11
584.66	61048.19
584.82	61062.24
584.98	61322.04
585.14	61104.37
585.30	61183.94
585.46	61322.04
585.62	61378.21
585.78	61359.48
585.94	61132.45
586.10	61319.70
586.26	61080.96
586.42	61254.16
586.58	61446.08
586.74	61151.18
586.90	61490.55
587.06	61116.07
587.22	61432.04
587.38	61418.00
587.54	61347.78
587.70	61420.34
587.86	61305.65
588.02	61305.65
588.18	61343.10
588.34	61104.37
588.49	61317.35
