SpectraSuite Data File
++++++++++++++++++++++++++++++++++++
Date: Fri Oct 25 10:48:15 EDT 2013
User: price-jones
Dark Spectrum Present: No
Reference Spectrum Present: No
Number of Sampled Component Spectra: 1
Spectrometers: USB2+H05261
Integration Time (usec): 100000 (USB2+H05261)
Spectra Averaged: 1 (USB2+H05261)
Boxcar Smoothing: 0 (USB2+H05261)
Correct for Electrical Dark: No (USB2+H05261)
Strobe/Lamp Enabled: No (USB2+H05261)
Correct for Detector Non-linearity: No (USB2+H05261)
Correct for Stray Light: No (USB2+H05261)
Number of Pixels in Processed Spectrum: 2048
>>>>>Begin Processed Spectral Data<<<<<
365.73	135.75
365.92	135.75
366.12	135.75
366.32	70.22
366.52	16.38
366.72	0.00
366.91	53.83
367.11	25.75
367.31	42.13
367.51	28.09
367.70	35.11
367.90	74.90
368.10	0.00
368.30	0.00
368.49	46.81
368.69	81.92
368.89	51.49
369.09	63.19
369.28	98.30
369.48	53.83
369.68	91.28
369.87	88.94
370.07	180.22
370.27	131.07
370.47	215.33
370.66	425.98
370.86	482.15
371.06	407.25
371.25	465.77
371.45	421.30
371.65	479.81
371.84	463.43
372.04	519.60
372.24	507.90
372.44	484.49
372.63	503.22
372.83	521.94
373.03	550.03
373.22	458.74
373.42	526.62
373.62	486.83
373.81	519.60
374.01	543.00
374.21	592.16
374.40	566.41
374.60	667.05
374.79	554.71
374.99	550.03
375.19	568.75
375.38	669.39
375.58	575.77
375.78	573.43
375.97	636.63
376.17	613.22
376.37	587.47
376.56	648.33
376.76	566.41
376.95	662.37
377.15	650.67
377.35	592.16
377.54	606.20
377.74	653.01
377.93	648.33
378.13	685.78
378.33	706.84
378.52	631.94
378.72	587.47
378.91	755.99
379.11	592.16
379.31	606.20
379.50	655.35
379.70	725.57
379.89	641.31
380.09	610.88
380.28	681.10
380.48	655.35
380.68	723.23
380.87	683.44
381.07	711.52
381.26	779.40
381.46	697.48
381.65	791.10
381.85	674.07
382.04	662.37
382.24	760.67
382.43	755.99
382.63	660.03
382.83	716.20
383.02	755.99
383.22	727.91
383.41	758.33
383.61	636.63
383.80	870.68
384.00	713.86
384.19	734.93
384.39	788.76
384.58	767.70
384.78	725.57
384.97	814.51
385.17	751.31
385.36	791.10
385.56	884.72
385.75	767.70
385.95	819.19
386.14	861.32
386.34	807.48
386.53	891.74
386.72	858.98
386.92	854.30
387.11	800.46
387.31	821.53
387.50	798.12
387.70	763.01
387.89	835.57
388.09	833.23
388.28	837.91
388.48	915.15
388.67	882.38
388.86	910.47
389.06	945.58
389.25	1015.79
389.45	931.53
389.64	926.85
389.84	961.96
390.03	1053.24
390.22	959.62
390.42	940.90
390.61	983.02
390.81	987.71
391.00	1029.84
391.19	1027.50
391.39	985.37
391.58	973.66
391.78	1034.52
391.97	1008.77
392.16	1011.11
392.36	1095.37
392.55	952.60
392.75	997.07
392.94	945.58
393.13	1053.24
393.33	1057.92
393.52	1004.09
393.71	1078.99
393.91	1057.92
394.10	1071.97
394.29	1165.59
394.49	1111.75
394.68	1116.44
394.88	1151.54
395.07	1249.85
395.26	1224.10
395.46	1196.01
395.65	1256.87
395.84	1228.78
396.04	1186.65
396.23	1198.35
396.42	1224.10
396.62	1217.08
396.81	1249.85
397.00	1111.75
397.19	1121.12
397.39	1242.82
397.58	1275.59
397.77	1228.78
397.97	1273.25
398.16	1282.61
398.35	1336.45
398.55	1387.94
398.74	1369.21
398.93	1413.68
399.12	1418.36
399.32	1289.64
399.51	1373.89
399.70	1483.90
399.90	1451.13
400.09	1514.33
400.28	1504.96
400.47	1507.30
400.67	1568.16
400.86	1572.84
401.05	1533.05
401.24	1561.14
401.44	1605.61
401.63	1629.01
401.82	1600.93
402.01	1647.74
402.21	1579.86
402.40	1556.46
402.59	1633.69
402.78	1638.38
402.97	1650.08
403.17	1579.86
403.36	1650.08
403.55	1823.28
403.74	1741.36
403.93	1736.68
404.13	1729.66
404.32	1753.06
404.51	1797.53
404.70	1722.63
404.89	1809.23
405.09	1827.96
405.28	1856.04
405.47	1879.45
405.66	1923.92
405.85	1860.73
406.05	1837.32
406.24	1975.41
406.43	1970.73
406.62	1930.94
406.81	2090.10
407.00	1827.96
407.20	1947.33
407.39	2071.37
407.58	1942.64
407.77	2038.61
407.96	2111.16
408.15	2052.65
408.34	2026.90
408.54	2120.53
408.73	2090.10
408.92	2179.04
409.11	2204.78
409.30	2129.89
409.49	2127.55
409.68	2141.59
409.87	2162.66
410.07	2125.21
410.26	2277.34
410.45	2289.04
410.64	2335.85
410.83	2312.45
411.02	2340.54
411.21	2368.62
411.40	2377.98
411.59	2317.13
411.78	2417.77
411.98	2420.11
412.17	2476.29
412.36	2495.01
412.55	2469.27
412.74	2572.25
412.93	2509.05
413.12	2595.65
413.31	2724.38
413.50	2712.68
413.69	2560.55
413.88	2576.93
414.07	2567.57
414.26	2710.34
414.45	2808.64
414.64	2747.79
414.83	2839.07
415.02	2862.48
415.22	2883.54
415.41	2920.99
415.60	2986.52
415.79	2984.18
415.98	2988.86
416.17	3145.68
416.36	3096.53
416.55	3056.74
416.74	2979.50
416.93	3119.93
417.12	3157.38
417.31	3141.00
417.50	3056.74
417.69	3272.07
417.88	3248.66
418.07	3192.49
418.26	3232.28
418.45	3286.11
418.64	3403.14
418.83	3403.14
419.02	3272.07
419.21	3391.44
419.39	3389.10
419.58	3379.73
419.77	3353.99
419.96	3496.76
420.15	3356.33
420.34	3506.12
420.53	3386.76
420.72	3576.34
420.91	3639.53
421.10	3597.40
421.29	3676.98
421.48	3454.63
421.67	3609.11
421.86	3517.83
422.05	3534.21
422.24	3515.48
422.43	3494.42
422.61	3602.08
422.80	3616.13
422.99	3674.64
423.18	3763.58
423.37	3660.60
423.56	3684.00
423.75	3810.39
423.94	3613.79
424.13	3361.01
424.32	3478.04
424.50	3609.11
424.69	3850.18
424.88	3791.67
425.07	3716.77
425.26	3777.62
425.45	3660.60
425.64	3761.24
425.83	3742.52
426.01	3859.54
426.20	3688.68
426.39	3686.34
426.58	3770.60
426.77	3705.07
426.96	3779.97
427.15	3723.79
427.33	3801.03
427.52	3796.35
427.71	3978.91
427.90	3948.48
428.09	3911.04
428.28	3969.55
428.46	3985.93
428.65	4039.76
428.84	4070.19
429.03	4053.81
429.22	3985.93
429.40	3962.53
429.59	3838.48
429.78	3667.62
429.97	3946.14
430.16	3854.86
430.34	3920.40
430.53	4042.11
430.72	3899.33
430.91	4142.75
431.10	4046.79
431.28	4121.68
431.47	4332.33
431.66	4432.97
431.85	4259.78
432.03	4397.87
432.22	4346.37
432.41	4301.90
432.60	4386.16
432.79	4435.32
432.97	4507.87
433.16	4456.38
433.35	4533.62
433.54	4367.44
433.72	4437.66
433.91	4409.57
434.10	4631.92
434.28	4470.42
434.47	4482.13
434.66	4685.75
434.85	4580.43
435.03	4692.77
435.22	4564.04
435.41	4760.65
435.59	4594.47
435.78	4753.63
435.97	4875.34
436.16	4791.08
436.34	4812.14
436.53	4858.95
436.72	4816.82
436.90	4873.00
437.09	4840.23
437.28	4779.37
437.46	4802.78
437.65	4683.41
437.84	4940.87
438.02	4814.48
438.21	4844.91
438.40	4870.65
438.58	5022.79
438.77	4985.34
438.96	5093.01
439.14	5167.90
439.33	5163.22
439.52	5287.27
439.70	5401.96
439.89	5362.17
440.08	5369.19
440.26	5458.13
440.45	5233.44
440.63	5476.85
440.82	5507.28
441.01	5636.01
441.19	5579.84
441.38	5584.52
441.57	5680.48
441.75	5809.21
441.94	5884.11
442.12	5874.74
442.31	6066.67
442.50	5916.87
442.68	5959.00
442.87	6061.99
443.05	5921.56
443.24	6066.67
443.43	6073.69
443.61	6260.93
443.80	6092.41
443.98	6069.01
444.17	5907.51
444.35	5977.73
444.54	6179.01
444.73	6143.91
444.91	6132.20
445.10	6066.67
445.28	6132.20
445.47	6106.46
445.65	5982.41
445.84	6176.67
446.02	6216.46
446.21	6125.18
446.39	6040.92
446.58	6303.06
446.77	6324.13
446.95	6155.61
447.14	6214.12
447.32	6370.94
447.51	6349.87
447.69	6347.53
447.88	6279.66
448.06	6305.40
448.25	6319.45
448.43	6190.72
448.62	6270.30
448.80	6380.30
448.99	6429.45
449.17	6354.55
449.36	6338.17
449.54	6544.14
449.73	6609.67
449.91	6698.61
450.10	6597.97
450.28	6869.47
450.46	6715.00
450.65	6778.19
450.83	6607.33
451.02	6656.48
451.20	6825.00
451.39	6757.13
451.57	6679.89
451.76	6614.35
451.94	6663.51
452.13	6953.73
452.31	6825.00
452.49	6740.74
452.68	6820.32
452.86	6834.36
453.05	6761.81
453.23	6853.09
453.42	6738.40
453.60	6913.94
453.78	6949.05
453.97	6817.98
454.15	6813.30
454.34	6841.39
454.52	7021.61
454.70	6913.94
454.89	6986.50
455.07	6995.86
455.26	7157.36
455.44	7269.70
455.62	7269.70
455.81	7258.00
455.99	7318.86
456.17	7382.05
456.36	7267.36
456.54	7407.80
456.73	7456.95
456.91	7637.17
457.09	7585.68
457.28	7819.73
457.46	7489.71
457.64	7805.69
457.83	7573.97
458.01	7691.00
458.19	7669.94
458.38	7613.76
458.56	7915.69
458.74	7691.00
458.93	7999.95
459.11	7896.97
459.29	7744.83
459.48	7791.64
459.66	7836.11
459.84	7735.47
460.03	8006.97
460.21	7967.18
460.39	7913.35
460.57	7981.23
460.76	8018.68
460.94	7985.91
461.12	8065.49
461.31	8049.10
461.49	8325.29
461.67	7953.14
461.85	8234.00
462.04	8194.22
462.22	8669.34
462.40	8341.67
462.59	8287.84
462.77	8215.28
462.95	8507.85
463.13	8341.67
463.32	8414.23
463.50	8557.00
463.68	8620.19
463.86	8603.81
464.05	8266.77
464.23	8365.07
464.41	8479.76
464.59	8500.83
464.78	8713.81
464.96	8388.48
465.14	8613.17
465.32	8655.30
465.50	8702.11
465.69	8547.64
465.87	8896.38
466.05	8777.01
466.23	8741.90
466.41	8554.66
466.60	8758.28
466.78	8650.62
466.96	8814.46
467.14	8610.83
467.32	8922.12
467.51	9043.83
467.69	8702.11
467.87	8819.14
468.05	8947.87
468.23	8922.12
468.41	8779.35
468.60	8887.01
468.78	9177.24
468.96	9193.62
469.14	9174.90
469.32	9167.88
469.50	8929.14
469.69	9020.42
469.87	9378.53
470.05	9451.08
470.23	9334.06
470.41	9345.76
470.59	9380.87
470.77	9355.12
470.95	9301.29
471.14	9596.20
471.32	9406.61
471.50	9671.09
471.68	9827.91
471.86	9720.24
472.04	9923.87
472.22	10162.61
472.40	9748.33
472.58	9785.78
472.77	10003.45
472.95	9785.78
473.13	10443.47
473.31	9975.36
473.49	9982.38
473.67	9991.75
473.85	10228.14
474.03	10326.44
474.21	10265.59
474.39	10492.62
474.57	10509.01
474.75	10513.69
474.93	10450.49
475.12	10387.30
475.30	10668.16
475.48	10560.50
475.66	10815.62
475.84	10656.46
476.02	10714.97
476.20	10991.16
476.38	10857.75
476.56	11211.17
476.74	11143.29
476.92	11138.61
477.10	11178.40
477.28	11370.32
477.46	11185.42
477.64	11417.13
477.82	11920.35
478.00	12100.57
478.18	11929.71
478.36	11655.87
478.54	11873.54
478.72	12102.91
478.90	12203.55
479.08	12119.29
479.26	12329.94
479.44	12453.99
479.62	12575.70
479.80	12613.15
479.98	12666.98
480.16	13205.30
480.34	12966.57
480.52	12936.14
480.70	13041.46
480.88	12795.71
481.06	13415.95
481.24	13114.02
481.41	13408.93
481.59	13650.00
481.77	13394.89
481.95	13788.10
482.13	13902.78
482.31	13792.78
482.49	13954.27
482.67	14150.88
482.85	14085.34
483.03	14251.52
483.21	14476.21
483.39	14429.40
483.57	14438.76
483.74	14726.65
483.92	14787.50
484.10	14691.54
484.28	14897.51
484.46	15295.40
484.64	15377.32
484.82	15412.43
485.00	15293.06
485.18	15754.15
485.35	15646.48
485.53	15733.08
485.71	15377.32
485.89	15868.83
486.07	15623.08
486.25	15903.94
486.43	16011.60
486.61	16177.78
486.78	16341.62
486.96	16547.59
487.14	17053.14
487.32	16713.77
487.50	17334.01
487.68	17146.76
487.85	17289.54
488.03	17593.81
488.21	17818.50
488.39	17659.34
488.57	17820.84
488.75	18026.81
488.92	18064.25
489.10	18515.98
489.28	18204.69
489.46	18326.39
489.64	18761.73
489.81	19028.56
489.99	19150.26
490.17	19232.18
490.35	19499.00
490.53	19314.10
490.70	19686.25
490.88	19351.55
491.06	19864.13
491.24	19782.21
491.41	19807.95
491.59	19637.09
491.77	20191.80
491.95	20243.29
492.13	20381.38
492.30	20205.84
492.48	20617.78
492.66	20833.11
492.84	20683.31
493.01	20912.69
493.19	21123.33
493.37	21282.49
493.54	21446.33
493.72	21600.80
493.90	21656.98
494.08	21940.18
494.25	21898.05
494.43	21788.05
494.61	22136.79
494.79	22235.09
494.96	22230.41
495.14	22398.93
495.32	22686.81
495.49	22693.83
495.67	22841.29
495.85	22932.57
496.02	23143.22
496.20	23515.36
496.38	23110.45
496.55	23220.45
496.73	24025.60
496.91	23548.13
497.09	23758.78
497.26	24212.84
497.44	24044.32
497.62	24018.58
497.79	24566.26
497.97	23929.64
498.14	24233.91
498.32	24774.57
498.50	24482.00
498.67	24657.54
498.85	24882.24
499.03	25015.65
499.20	25151.40
499.38	25170.12
499.56	25305.87
499.73	25160.76
499.91	25170.12
500.08	25516.52
500.26	25465.03
500.44	25340.98
500.61	25373.75
500.79	25577.37
500.97	26089.95
501.14	26487.84
501.32	25874.62
501.49	25661.63
501.67	26132.08
501.84	26216.34
502.02	26206.98
502.20	26569.76
502.37	26668.06
502.55	26244.43
502.72	27175.96
502.90	26607.21
503.07	26565.08
503.25	27271.92
503.43	27014.46
503.60	27131.49
503.78	27105.74
503.95	26878.71
504.13	27147.87
504.30	27168.94
504.48	27433.42
504.65	27824.29
504.83	27573.85
505.01	28203.46
505.18	27552.79
505.36	28386.02
505.53	28360.27
505.71	27777.48
505.88	28126.22
506.06	28074.73
506.23	28535.81
506.41	28240.90
506.58	28676.24
506.76	28652.84
506.93	28662.20
507.11	28910.30
507.28	29034.35
507.46	29003.92
507.63	28751.14
507.81	28884.55
507.98	28980.51
508.16	29102.22
508.33	29312.87
508.50	29366.70
508.68	29266.06
508.85	29902.68
509.03	29584.37
509.20	29837.15
509.38	30213.98
509.55	30047.80
509.73	30171.85
509.90	30101.63
510.08	30080.56
510.25	30408.24
510.42	30218.66
510.60	30412.92
510.77	30771.02
510.95	30609.53
511.12	30558.03
511.30	30356.75
511.47	31119.76
511.64	31239.13
511.82	31449.78
511.99	30682.08
512.17	31077.63
512.34	30902.09
512.51	31590.21
512.69	31412.33
512.86	31599.57
513.04	31875.76
513.21	31747.03
513.38	31697.88
513.56	31618.30
513.73	31517.65
513.90	31847.67
514.08	31784.48
514.25	32116.83
514.43	31983.42
514.60	31934.27
514.77	31749.37
514.95	32474.93
515.12	32407.06
515.29	32421.10
515.47	32800.27
515.64	32414.08
515.81	32652.81
515.99	32418.76
516.16	32980.49
516.33	32648.13
516.51	32444.51
516.68	32144.92
516.85	32233.86
517.03	32631.75
517.20	32608.34
517.37	33141.99
517.54	33008.58
517.72	32959.42
517.89	32692.60
518.06	33003.89
518.24	33111.56
518.41	33343.27
518.58	33369.02
518.75	33329.23
518.93	33713.08
519.10	33472.00
519.27	34199.91
519.45	33680.31
519.62	34202.25
519.79	34108.63
519.96	34057.14
520.14	33874.57
520.31	33942.45
520.48	34295.87
520.65	34583.76
520.83	34696.10
521.00	34852.92
521.17	34532.26
521.34	34920.79
521.52	34646.95
521.69	35220.38
521.86	34759.30
522.03	35330.39
522.20	34859.94
522.38	35438.05
522.55	35159.53
522.72	35084.63
522.89	35342.09
523.07	35419.33
523.24	35023.78
523.41	35751.68
523.58	35704.87
523.75	36023.19
523.92	35917.86
524.10	36112.13
524.27	36032.55
524.44	35899.14
524.61	36336.82
524.78	35990.42
524.96	36362.56
525.13	36147.23
525.30	36577.89
525.47	36854.08
525.64	36753.43
525.81	36322.77
525.98	36226.81
526.16	36231.49
526.33	35952.97
526.50	36582.57
526.67	36397.67
526.84	36821.31
527.01	36458.52
527.18	36648.11
527.36	36830.67
527.53	36788.54
527.70	37450.91
527.87	37275.37
528.04	37209.84
528.21	37340.91
528.38	37727.10
528.55	37659.22
528.72	37811.35
528.89	37848.80
529.07	37708.37
529.24	37268.35
529.41	37691.99
529.58	37521.13
529.75	37256.65
529.92	37556.24
530.09	37738.80
530.26	37958.81
530.43	38265.42
530.60	37993.92
530.77	37933.06
530.94	38380.10
531.11	37979.87
531.28	38010.30
531.46	38698.42
531.63	38335.63
531.80	38291.16
531.97	38129.67
532.14	38110.94
532.31	38335.63
532.48	38218.61
532.65	38485.43
532.82	38609.48
532.99	38948.85
533.16	38665.65
533.33	38459.68
533.50	39171.21
533.67	38644.59
533.84	38691.40
534.01	38712.46
534.18	39079.92
534.35	39491.86
534.52	39110.35
534.69	38803.74
534.86	39253.12
535.03	38902.04
535.20	39126.74
535.37	39538.67
535.54	39454.41
535.71	39246.10
535.88	39707.19
536.05	39782.09
536.22	39548.03
536.38	40076.99
536.55	39711.87
536.72	39924.86
536.89	39423.98
537.06	39463.77
537.23	40100.40
537.40	39742.30
537.57	39814.85
537.74	39849.96
537.91	40158.91
538.08	40142.53
538.25	39831.24
538.42	40212.74
538.59	40392.97
538.75	39978.69
538.92	40128.48
539.09	40025.50
539.26	40582.55
539.43	40357.86
539.60	40343.81
539.77	40168.27
539.94	40584.89
540.11	40432.75
540.28	40236.15
540.44	40430.41
540.61	40556.80
540.78	40605.95
540.95	40343.81
541.12	40903.20
541.29	40641.06
541.46	40280.62
541.62	40905.54
541.79	40999.16
541.96	40390.62
542.13	40727.66
542.30	40835.33
542.47	40872.78
542.63	40921.93
542.80	41078.74
542.97	41530.47
543.14	41708.35
543.31	41118.53
543.48	41673.24
543.64	42103.90
543.81	41727.07
543.98	41881.55
544.15	41565.57
544.32	41727.07
544.48	42181.13
544.65	42195.18
544.82	42057.09
544.99	41736.43
545.16	41881.55
545.32	41844.10
545.49	41860.48
545.66	41794.95
545.83	42361.36
546.00	42539.24
546.16	42218.58
546.33	42417.53
546.50	42050.06
546.67	42110.92
546.83	41823.03
547.00	41848.78
547.17	42244.33
547.34	41764.52
547.50	42457.32
547.67	42497.11
547.84	42454.98
548.00	42684.35
548.17	42939.47
548.34	42410.51
548.51	42930.11
548.67	43199.27
548.84	42663.28
549.01	42714.78
549.18	42728.82
549.34	42909.04
549.51	42625.84
549.68	43049.47
549.84	42822.44
550.01	42913.72
550.18	42995.64
550.34	42323.91
550.51	42923.08
550.68	42515.83
550.84	42637.54
551.01	42927.77
551.18	42862.23
551.34	43040.11
551.51	43047.13
551.68	43566.73
551.84	43456.73
552.01	43192.25
552.18	42990.96
552.34	42719.46
552.51	43349.06
552.68	43686.10
552.84	43152.46
553.01	43838.23
553.18	43613.54
553.34	43555.03
553.51	43306.93
553.67	43672.06
553.84	43831.21
554.01	43995.05
554.17	43632.27
554.34	44388.26
554.51	43658.01
554.67	44018.46
554.84	43845.26
555.00	43901.43
555.17	43484.81
555.33	43772.70
555.50	43643.97
555.67	43807.81
555.83	43901.43
556.00	44186.97
556.16	44526.35
556.33	43772.70
556.50	44135.48
556.66	43650.99
556.83	44093.35
556.99	44320.38
557.16	44161.23
557.32	44322.72
557.49	44622.31
557.65	44065.27
557.82	43854.62
557.98	44079.31
558.15	44474.86
558.32	44509.97
558.48	44266.55
558.65	44238.47
558.81	44058.24
558.98	44123.78
559.14	44355.49
559.31	44210.38
559.47	44587.21
559.64	44140.16
559.80	44474.86
559.97	44856.37
560.13	44327.41
560.30	44318.04
560.46	44332.09
560.63	44552.10
560.79	44753.38
560.96	44992.12
561.12	44453.79
561.29	44704.23
561.45	44437.41
561.61	44704.23
561.78	44516.99
561.94	44245.49
562.11	44257.19
562.27	45052.97
562.44	44315.70
562.60	44605.93
562.77	45031.91
562.93	44797.85
563.10	45158.30
563.26	44444.43
563.42	44622.31
563.59	44598.91
563.75	44690.19
563.92	44673.81
564.08	44748.70
564.24	44896.16
564.41	44800.19
564.57	44964.03
564.74	44971.05
564.90	45198.09
565.07	45209.79
565.23	45074.04
565.39	45076.38
565.56	44987.44
565.72	44629.34
565.88	44563.80
566.05	45043.61
566.21	44809.56
566.38	44741.68
566.54	44968.71
566.70	45378.31
566.87	45315.11
567.03	45052.97
567.19	45439.16
567.36	45193.40
567.52	45130.21
567.68	45301.07
567.85	44568.48
568.01	45177.02
568.17	44744.02
568.34	45097.44
568.50	44940.63
568.66	44652.74
568.83	44804.88
568.99	44891.48
569.15	45162.98
569.32	44807.22
569.48	44900.84
569.64	45319.79
569.81	44739.34
569.97	45237.87
570.13	45392.35
570.30	44821.26
570.46	45050.63
570.62	44507.63
570.78	44919.56
570.95	45081.06
571.11	45202.77
571.27	45132.55
571.43	45202.77
571.60	45411.07
571.76	45331.50
571.92	45315.11
572.09	45544.48
572.25	45102.12
572.41	44891.48
572.57	45549.17
572.74	45902.59
572.90	45162.98
573.06	45411.07
573.22	45652.15
573.38	44931.26
573.55	45006.16
573.71	45425.12
573.87	45015.52
574.03	45258.94
574.20	45544.48
574.36	45312.77
574.52	45563.21
574.68	45766.84
574.84	45984.51
575.01	45333.84
575.17	45198.09
575.33	44795.51
575.49	44807.22
575.65	45258.94
575.82	45518.74
575.98	45619.38
576.14	45752.79
576.30	45375.97
576.46	45127.87
576.62	45404.05
576.79	45343.20
576.95	45319.79
577.11	45298.73
577.27	45261.28
577.43	45640.45
577.59	45488.31
577.75	45247.24
577.92	44907.86
578.08	45141.91
578.24	44753.38
578.40	45167.66
578.56	45570.23
578.72	45249.58
578.88	45649.81
579.04	45689.60
579.21	45406.39
579.37	45455.54
579.53	45064.67
579.69	45338.52
579.85	45165.32
580.01	45776.20
580.17	45439.16
580.33	45715.34
580.49	45689.60
580.65	45514.06
580.82	45385.33
580.98	45352.56
581.14	45502.35
581.30	45474.27
581.46	45298.73
581.62	45436.82
581.78	45546.82
581.94	45872.16
582.10	46024.29
582.26	46195.15
582.42	45429.80
582.58	45502.35
582.74	45174.68
582.90	45745.77
583.06	45530.44
583.22	45773.86
583.38	45862.80
583.54	45617.04
583.70	45474.27
583.86	45268.30
584.02	45221.49
584.18	45415.76
584.34	45509.38
584.50	45722.37
584.66	45064.67
584.82	45415.76
584.98	45689.60
585.14	45586.61
585.30	45310.43
585.46	45738.75
585.62	45588.95
585.78	45345.54
585.94	45230.85
586.10	45329.16
586.26	45537.46
586.42	45951.74
586.58	45844.07
586.74	45488.31
586.90	45200.43
587.06	45329.16
587.22	45638.11
587.38	45294.05
587.54	45729.39
587.70	45806.62
587.86	45691.94
588.02	45469.59
588.18	45649.81
588.34	45380.65
588.49	45621.72
588.65	44854.03
588.81	45572.57
588.97	45310.43
589.13	45303.41
589.29	45102.12
589.45	45687.26
589.61	45387.67
589.77	45907.27
589.93	45546.82
590.08	45998.55
