SpectraSuite Data File
++++++++++++++++++++++++++++++++++++
Date: Fri Oct 25 10:47:51 EDT 2013
User: price-jones
Dark Spectrum Present: No
Reference Spectrum Present: No
Number of Sampled Component Spectra: 1
Spectrometers: USB2+H05261
Integration Time (usec): 100000 (USB2+H05261)
Spectra Averaged: 1 (USB2+H05261)
Boxcar Smoothing: 0 (USB2+H05261)
Correct for Electrical Dark: No (USB2+H05261)
Strobe/Lamp Enabled: No (USB2+H05261)
Correct for Detector Non-linearity: No (USB2+H05261)
Correct for Stray Light: No (USB2+H05261)
Number of Pixels in Processed Spectrum: 2048
>>>>>Begin Processed Spectral Data<<<<<
365.73	124.05
365.92	124.05
366.12	124.05
366.32	42.13
366.52	74.90
366.72	44.47
366.91	25.75
367.11	95.96
367.31	4.68
367.51	100.64
367.70	79.58
367.90	28.09
368.10	51.49
368.30	32.77
368.49	32.77
368.69	0.00
368.89	119.37
369.09	117.03
369.28	107.66
369.48	128.73
369.68	53.83
369.87	81.92
370.07	44.47
370.27	161.50
370.47	259.80
370.66	351.08
370.86	379.17
371.06	521.94
371.25	552.37
371.45	449.38
371.65	479.81
371.84	442.36
372.04	479.81
372.24	510.24
372.44	463.43
372.63	430.66
372.83	517.26
373.03	564.07
373.22	498.53
373.42	540.66
373.62	486.83
373.81	514.92
374.01	540.66
374.21	489.17
374.40	479.81
374.60	627.26
374.79	475.13
374.99	524.28
375.19	557.05
375.38	557.05
375.58	594.50
375.78	615.56
375.97	540.66
376.17	585.13
376.37	634.29
376.56	660.03
376.76	599.18
376.95	571.09
377.15	608.54
377.35	627.26
377.54	657.69
377.74	674.07
377.93	638.97
378.13	592.16
378.33	641.31
378.52	601.52
378.72	601.52
378.91	617.90
379.11	599.18
379.31	585.13
379.50	641.31
379.70	657.69
379.89	657.69
380.09	638.97
380.28	641.31
380.48	617.90
380.68	685.78
380.87	596.84
381.07	704.50
381.26	671.73
381.46	767.70
381.65	755.99
381.85	678.76
382.04	615.56
382.24	690.46
382.43	667.05
382.63	627.26
382.83	657.69
383.02	751.31
383.22	777.06
383.41	671.73
383.61	770.04
383.80	711.52
384.00	760.67
384.19	695.14
384.39	777.06
384.58	732.59
384.78	727.91
384.97	819.19
385.17	812.17
385.36	837.91
385.56	777.06
385.75	695.14
385.95	800.46
386.14	828.55
386.34	741.95
386.53	814.51
386.72	833.23
386.92	842.59
387.11	842.59
387.31	725.57
387.50	826.21
387.70	786.42
387.89	891.74
388.09	894.08
388.28	833.23
388.48	802.80
388.67	833.23
388.86	858.98
389.06	950.26
389.25	875.36
389.45	894.08
389.64	884.72
389.84	910.47
390.03	908.13
390.22	901.11
390.42	940.90
390.61	938.55
390.81	973.66
391.00	945.58
391.19	997.07
391.39	1001.75
391.58	976.00
391.78	1029.84
391.97	985.37
392.16	1064.94
392.36	985.37
392.55	1015.79
392.75	1004.09
392.94	980.68
393.13	959.62
393.33	997.07
393.52	1086.01
393.71	1090.69
393.91	1015.79
394.10	1069.62
394.29	980.68
394.49	1093.03
394.68	1102.39
394.88	1128.14
395.07	1186.65
395.26	1174.95
395.46	1067.28
395.65	1130.48
395.84	1165.59
396.04	1156.22
396.23	1067.28
396.42	1130.48
396.62	1128.14
396.81	1188.99
397.00	1198.35
397.19	1247.51
397.39	1163.25
397.58	1233.46
397.77	1233.46
397.97	1224.10
398.16	1303.68
398.35	1329.42
398.55	1268.57
398.74	1423.05
398.93	1348.15
399.12	1289.64
399.32	1409.00
399.51	1345.81
399.70	1376.24
399.90	1324.74
400.09	1334.11
400.28	1439.43
400.47	1451.13
400.67	1472.20
400.86	1488.58
401.05	1497.94
401.24	1472.20
401.44	1528.37
401.63	1521.35
401.82	1476.88
402.01	1535.39
402.21	1523.69
402.40	1579.86
402.59	1533.05
402.78	1516.67
402.97	1530.71
403.17	1586.88
403.36	1577.52
403.55	1591.56
403.74	1633.69
403.93	1710.93
404.13	1589.22
404.32	1727.32
404.51	1717.95
404.70	1753.06
404.89	1699.23
405.09	1764.76
405.28	1706.25
405.47	1706.25
405.66	1722.63
405.85	1678.16
406.05	1771.79
406.24	1813.92
406.43	1743.70
406.62	1839.66
406.81	1891.15
407.00	1858.39
407.20	1776.47
407.39	1905.20
407.58	1839.66
407.77	1984.77
407.96	2005.84
408.15	1926.26
408.34	2045.63
408.54	1984.77
408.73	2022.22
408.92	2076.06
409.11	2040.95
409.30	2054.99
409.49	1984.77
409.68	2038.61
409.87	1940.30
410.07	2015.20
410.26	2073.71
410.45	2146.27
410.64	2310.11
410.83	2230.53
411.02	2172.02
411.21	2265.64
411.40	2352.24
411.59	2333.51
411.78	2186.06
411.98	2298.41
412.17	2300.75
412.36	2319.47
412.55	2441.18
412.74	2459.90
412.93	2385.01
413.12	2356.92
413.31	2436.50
413.50	2415.43
413.69	2558.21
413.88	2614.38
414.07	2480.97
414.26	2551.18
414.45	2759.49
414.64	2527.78
414.83	2766.51
415.02	2600.34
415.22	2834.39
415.41	2782.90
415.60	2729.06
415.79	2771.19
415.98	2937.37
416.17	2836.73
416.36	2789.92
416.55	2958.44
416.74	2834.39
416.93	2930.35
417.12	2895.24
417.31	2993.55
417.50	2986.52
417.69	3155.04
417.88	3028.65
418.07	3157.38
418.26	3133.98
418.45	3054.40
418.64	3187.81
418.83	3239.30
419.02	3126.96
419.21	3162.06
419.39	3185.47
419.58	3096.53
419.77	3103.55
419.96	3222.92
420.15	3265.05
420.34	3269.73
420.53	3335.26
420.72	3421.86
420.91	3218.24
421.10	3456.97
421.29	3389.10
421.48	3325.90
421.67	3438.25
421.86	3396.12
422.05	3438.25
422.24	3400.80
422.43	3314.20
422.61	3403.14
422.80	3471.01
422.99	3545.91
423.18	3499.10
423.37	3658.26
423.56	3611.45
423.75	3604.42
423.94	3435.91
424.13	3272.07
424.32	3398.46
424.50	3412.50
424.69	3672.30
424.88	3646.55
425.07	3555.27
425.26	3461.65
425.45	3440.59
425.64	3468.67
425.83	3552.93
426.01	3641.87
426.20	3805.71
426.39	3564.64
426.58	3520.17
426.77	3700.39
426.96	3543.57
427.15	3658.26
427.33	3653.58
427.52	3583.36
427.71	3810.39
427.90	3826.78
428.09	3719.11
428.28	3801.03
428.46	3684.00
428.65	3646.55
428.84	3843.16
429.03	3772.94
429.22	3763.58
429.40	3892.31
429.59	3702.73
429.78	3646.55
429.97	3576.34
430.16	3740.18
430.34	3915.72
430.53	3815.07
430.72	3918.06
430.91	3719.11
431.10	3946.14
431.28	4128.70
431.47	4105.30
431.66	4173.18
431.85	4112.32
432.03	4196.58
432.22	4285.52
432.41	4140.41
432.60	4255.09
432.79	4105.30
432.97	4241.05
433.16	4327.65
433.35	4133.39
433.54	4259.78
433.72	4280.84
433.91	4198.92
434.10	4266.80
434.28	4276.16
434.47	4449.36
434.66	4540.64
434.85	4400.21
435.03	4306.59
435.22	4505.53
435.41	4535.96
435.59	4496.17
435.78	4624.90
435.97	4521.92
436.16	4585.11
436.34	4479.79
436.53	4484.47
436.72	4657.67
436.90	4524.26
437.09	4613.20
437.28	4641.28
437.46	4685.75
437.65	4615.54
437.84	4746.61
438.02	4739.58
438.21	4678.73
438.40	4582.77
438.58	4973.64
438.77	5004.07
438.96	4870.65
439.14	4997.04
439.33	5170.24
439.52	4990.02
439.70	5144.50
439.89	5137.48
440.08	5207.69
440.26	5226.42
440.45	5172.58
440.63	5198.33
440.82	5472.17
441.01	5179.61
441.19	5425.36
441.38	5476.85
441.57	5418.34
441.75	5343.44
441.94	5547.07
442.12	5650.05
442.31	5736.65
442.50	5717.93
442.68	5547.07
442.87	5516.64
443.05	5647.71
443.24	5799.85
443.43	5818.57
443.61	5968.37
443.80	5951.98
443.98	5888.79
444.17	5542.39
444.35	5755.38
444.54	5769.42
444.73	5853.68
444.91	5846.66
445.10	5891.13
445.28	5804.53
445.47	5837.30
445.65	5734.31
445.84	5706.23
446.02	5984.75
446.21	5849.00
446.39	5790.49
446.58	6026.88
446.77	5881.77
446.95	5884.11
447.14	5994.11
447.32	6090.07
447.51	5942.62
447.69	5968.37
447.88	5963.68
448.06	5884.11
448.25	5933.26
448.43	6061.99
448.62	5940.28
448.80	6143.91
448.99	5949.64
449.17	6214.12
449.36	6148.59
449.54	6361.58
449.73	6122.84
449.91	6253.91
450.10	6506.69
450.28	6331.15
450.46	6399.02
450.65	6394.34
450.83	6565.20
451.02	6459.88
451.20	6389.66
451.39	6483.28
451.57	6436.47
451.76	6424.77
451.94	6319.45
452.13	6476.26
452.31	6464.56
452.49	6354.55
452.68	6310.08
452.86	6317.11
453.05	6384.98
453.23	6745.42
453.42	6370.94
453.60	6672.87
453.78	6597.97
453.97	6473.92
454.15	6726.70
454.34	6616.69
454.52	6752.45
454.70	6747.76
454.89	6820.32
455.07	6789.89
455.26	6738.40
455.44	6939.69
455.62	6998.20
455.81	7037.99
455.99	7122.25
456.17	7009.90
456.36	6998.20
456.54	7075.44
456.73	7145.66
456.91	7337.58
457.09	7342.26
457.28	7309.49
457.46	7164.38
457.64	7508.44
457.83	7276.73
458.01	7276.73
458.19	7382.05
458.38	7176.08
458.56	7421.84
458.74	7304.81
458.93	7356.30
459.11	7304.81
459.29	7618.44
459.48	7576.31
459.66	7573.97
459.84	7454.61
460.03	7545.89
460.21	7592.70
460.39	7691.00
460.57	7562.27
460.76	7695.68
460.94	7719.09
461.12	7969.52
461.31	8002.29
461.49	7836.11
461.67	7686.32
461.85	7786.96
462.04	7934.42
462.22	8374.44
462.40	7817.39
462.59	8039.74
462.77	7803.35
462.95	8021.02
463.13	8107.62
463.32	8063.15
463.50	8219.96
463.68	7995.27
463.86	7983.57
464.05	8210.60
464.23	7880.58
464.41	8149.75
464.59	7964.84
464.78	8152.09
464.96	8358.05
465.14	8086.55
465.32	8482.10
465.50	8542.96
465.69	8346.35
465.87	8442.31
466.05	8369.76
466.23	8374.44
466.41	8285.50
466.60	8723.18
466.78	8184.85
466.96	8351.03
467.14	8430.61
467.32	8388.48
467.51	8526.57
467.69	8496.14
467.87	8437.63
468.05	8709.13
468.23	8655.30
468.41	8468.06
468.60	8451.67
468.78	8713.81
468.96	8587.43
469.14	8898.72
469.32	8903.40
469.50	8730.20
469.69	8751.26
469.87	8926.80
470.05	9022.77
470.23	9011.06
470.41	9029.79
470.59	9064.89
470.77	8861.27
470.95	9210.01
471.14	9170.22
471.32	8975.95
471.50	9291.93
471.68	9301.29
471.86	9327.03
472.04	9348.10
472.22	9565.77
472.40	9301.29
472.58	9462.79
472.77	9542.36
472.95	9621.94
473.13	9921.53
473.31	9692.16
473.49	9577.47
473.67	9685.14
473.85	9722.59
474.03	9699.18
474.21	10045.58
474.39	10174.31
474.57	9956.64
474.75	10092.39
474.93	10066.64
475.12	10029.20
475.30	10094.73
475.48	9935.57
475.66	10040.90
475.84	10296.02
476.02	10260.91
476.20	10298.36
476.38	10572.20
476.56	10817.96
476.74	10684.55
476.92	10682.20
477.10	10750.08
477.28	10888.17
477.46	10909.24
477.64	10911.58
477.82	11059.03
478.00	11515.44
478.18	11276.70
478.36	11396.07
478.54	11597.35
478.72	11459.26
478.90	11641.82
479.08	11522.46
479.26	12175.47
479.44	12025.67
479.62	11995.25
479.80	12135.68
479.98	12182.49
480.16	12393.14
480.34	12533.57
480.52	12383.77
480.70	12603.78
480.88	12313.56
481.06	12601.44
481.24	12540.59
481.41	12894.01
481.59	12919.76
481.77	13085.94
481.95	13275.52
482.13	13289.56
482.31	12973.59
482.49	13383.18
482.67	13673.41
482.85	13469.78
483.03	13755.33
483.21	13963.64
483.39	14092.37
483.57	13872.36
483.74	14073.64
483.92	14391.95
484.10	14333.44
484.28	14633.03
484.46	14466.85
484.64	14707.93
484.82	14588.56
485.00	15033.26
485.18	15014.54
485.35	15131.56
485.53	15059.01
485.71	15002.83
485.89	15414.77
486.07	15110.50
486.25	15262.63
486.43	15487.32
486.61	15723.72
486.78	16009.26
486.96	16145.02
487.14	16163.74
487.32	16229.27
487.50	16376.73
487.68	16407.16
487.85	16688.02
488.03	16812.07
488.21	17282.52
488.39	17039.10
488.57	17336.35
488.75	17144.42
488.92	17462.74
489.10	17764.67
489.28	17675.73
489.46	18022.12
489.64	17638.28
489.81	18504.28
489.99	18302.99
490.17	18625.98
490.35	18792.16
490.53	18410.65
490.70	18752.37
490.88	19035.58
491.06	19208.78
491.24	18981.74
491.41	18890.46
491.59	18829.61
491.77	19159.63
491.95	19573.90
492.13	19784.55
492.30	19571.56
492.48	19871.15
492.66	20004.56
492.84	20002.22
493.01	20482.03
493.19	20053.71
493.37	20374.36
493.54	20662.25
493.72	20795.66
493.90	20877.58
494.08	20821.41
494.25	21106.95
494.43	21441.65
494.61	21301.22
494.79	21600.80
494.96	21509.52
495.14	21240.36
495.32	21687.40
495.49	21696.77
495.67	21893.37
495.85	21996.35
496.02	22349.78
496.20	22462.12
496.38	22366.16
496.55	22452.76
496.73	22946.61
496.91	22843.63
497.09	22897.46
497.26	22934.91
497.44	22806.18
497.62	23166.62
497.79	23328.12
497.97	23302.37
498.14	23522.38
498.32	23756.44
498.50	23637.07
498.67	23854.74
498.85	23807.93
499.03	24027.94
499.20	24372.00
499.38	24210.50
499.56	24053.69
499.73	24304.12
499.91	24650.52
500.08	24929.05
500.26	24528.81
500.44	24783.93
500.61	24620.10
500.79	24540.52
500.97	25083.52
501.14	25525.88
501.32	25305.87
501.49	25076.50
501.67	25348.00
501.84	25373.75
502.02	25163.10
502.20	25827.81
502.37	25338.64
502.55	25736.53
502.72	25888.67
502.90	25532.90
503.07	25795.04
503.25	25898.03
503.43	25956.54
503.60	26710.19
503.78	25757.60
503.95	26616.57
504.13	26721.90
504.30	26672.74
504.48	26625.93
504.65	26693.81
504.83	26745.30
505.01	27033.19
505.18	26923.18
505.36	27138.51
505.53	27089.36
505.71	27232.13
505.88	27367.88
506.06	27159.58
506.23	27634.71
506.41	27402.99
506.58	27812.59
506.76	27695.56
506.93	27791.52
507.11	28027.92
507.28	28222.18
507.46	27817.27
507.63	27929.61
507.81	28182.39
507.98	28016.21
508.16	28037.28
508.33	28732.42
508.50	28301.76
508.68	28568.58
508.85	28701.99
509.03	28854.12
509.20	29069.45
509.38	28797.95
509.55	29200.52
509.73	28765.18
509.90	29617.14
510.08	29322.23
510.25	29277.76
510.42	29514.16
510.60	29823.11
510.77	29539.90
510.95	29167.76
511.12	29570.33
511.30	29771.61
511.47	29872.26
511.64	30040.78
511.82	30356.75
511.99	30033.75
512.17	29919.07
512.34	30228.02
512.51	30235.04
512.69	30654.00
512.86	30455.05
513.04	30670.38
513.21	30579.10
513.38	30342.70
513.56	30441.01
513.73	30733.57
513.90	30721.87
514.08	30939.54
514.25	31035.50
514.43	30895.07
514.60	30988.69
514.77	30984.01
514.95	31150.19
515.12	31250.83
515.29	31601.91
515.47	31814.90
515.64	31693.19
515.81	31573.83
515.99	31571.49
516.16	31641.70
516.33	31749.37
516.51	32067.68
516.68	31887.46
516.85	31700.22
517.03	32187.05
517.20	31840.65
517.37	31969.38
517.54	32521.74
517.72	32198.75
517.89	32119.17
518.06	32245.56
518.24	32219.81
518.41	32308.76
518.58	32559.19
518.75	32409.40
518.93	32650.47
519.10	32596.64
519.27	32591.96
519.45	32720.69
519.62	32989.85
519.79	32816.65
519.96	33242.63
520.14	33420.51
520.31	33383.06
520.48	33862.87
520.65	33369.02
520.83	33895.64
521.00	33270.72
521.17	33785.63
521.34	33757.55
521.52	34012.66
521.69	33319.87
521.86	34227.99
522.03	34101.61
522.20	33905.00
522.38	34288.85
522.55	34490.13
522.72	34370.77
522.89	34398.85
523.07	34408.22
523.24	34153.10
523.41	34377.79
523.58	34373.11
523.75	34761.64
523.92	34897.39
524.10	35222.72
524.27	35250.81
524.44	35023.78
524.61	35143.14
524.78	35042.50
524.96	35311.66
525.13	35269.53
525.30	35358.47
525.47	35421.67
525.64	35419.33
525.81	35655.72
525.98	35676.79
526.16	35302.30
526.33	35716.58
526.50	35264.85
526.67	35243.79
526.84	35812.54
527.01	34899.73
527.18	36208.09
527.36	35959.99
527.53	36367.24
527.70	36842.37
527.87	36364.90
528.04	35931.90
528.21	36140.21
528.38	36074.68
528.55	36149.57
528.72	35835.94
528.89	36690.24
529.07	36137.87
529.24	36339.16
529.41	36566.19
529.58	36617.68
529.75	36297.03
529.92	36797.90
530.09	36409.37
530.26	37132.60
530.43	36973.44
530.60	36495.97
530.77	37146.64
530.94	37219.20
531.11	36886.84
531.28	37036.64
531.46	36966.42
531.63	37310.48
531.80	37153.66
531.97	37216.86
532.14	37050.68
532.31	37422.83
532.48	37263.67
532.65	37322.18
532.82	37979.87
532.99	37649.86
533.16	37539.85
533.33	37954.13
533.50	37785.61
533.67	37607.73
533.84	37507.08
534.01	37684.97
534.18	37755.18
534.35	38199.88
534.52	37865.19
534.69	38307.55
534.86	38291.16
535.03	38326.27
535.20	38080.52
535.37	38536.92
535.54	38731.18
535.71	38211.59
535.88	38333.29
536.05	38731.18
536.22	38562.67
536.38	38541.60
536.55	38504.15
536.72	38529.90
536.89	38361.38
537.06	38483.09
537.23	38562.67
537.40	38644.59
537.57	38759.27
537.74	39000.35
537.91	39433.35
538.08	39147.80
538.25	38569.69
538.42	38981.62
538.59	39168.87
538.75	39218.02
538.92	39210.99
539.09	39210.99
539.26	39512.92
539.43	39349.09
539.60	39297.59
539.77	39166.52
539.94	39594.84
540.11	39470.79
540.28	39175.89
540.44	39440.37
540.61	39452.07
540.78	39335.04
540.95	39693.15
541.12	39086.95
541.29	39098.65
541.46	39473.13
541.62	39283.55
541.79	40259.55
541.96	39681.44
542.13	39690.80
542.30	39913.16
542.47	39990.39
542.63	39754.00
542.80	40037.20
542.97	40451.48
543.14	40304.02
543.31	40505.31
543.48	40313.39
543.64	41024.91
543.81	40620.00
543.98	40680.85
544.15	40954.69
544.32	40811.92
544.48	40809.58
544.65	40575.53
544.82	40861.07
544.99	40428.07
545.16	40612.98
545.32	40676.17
545.49	41092.79
545.66	40973.42
545.83	41055.34
546.00	41336.20
546.16	41256.62
546.33	40591.91
546.50	41130.23
546.67	41013.21
546.83	41064.70
547.00	41530.47
547.17	40872.78
547.34	40847.03
547.50	41488.34
547.67	41214.49
547.84	41177.04
548.00	41741.11
548.17	41703.67
548.34	41457.91
548.51	41778.56
548.67	41694.30
548.84	41970.49
549.01	41521.10
549.18	41844.10
549.34	41432.16
549.51	41897.93
549.68	42174.11
549.84	41886.23
550.01	42387.10
550.18	41818.35
550.34	42190.50
550.51	41750.48
550.68	41813.67
550.84	41708.35
551.01	41907.29
551.18	41855.80
551.34	41998.57
551.51	42113.26
551.68	42178.79
551.84	42014.96
552.01	41598.34
552.18	41933.04
552.34	41820.69
552.51	42508.81
552.68	42452.64
552.84	42602.43
553.01	42995.64
553.18	42298.16
553.34	42384.76
553.51	42057.09
553.67	42494.77
553.84	42562.64
554.01	42794.36
554.17	43007.34
554.34	43044.79
554.51	42623.50
554.67	42904.36
554.84	42707.76
555.00	42635.20
555.17	42780.31
555.33	42635.20
555.50	42813.08
555.67	43323.32
555.83	42930.11
556.00	42707.76
556.16	43374.81
556.33	42941.81
556.50	42623.50
556.66	43423.96
556.83	42419.87
556.99	43594.82
557.16	43393.53
557.32	42941.81
557.49	43206.29
557.65	43299.91
557.82	43367.79
557.98	42967.55
558.15	42829.46
558.32	43320.98
558.48	43154.80
558.65	43438.00
558.81	43119.69
558.98	43405.23
559.14	43246.08
559.31	43639.29
559.47	43433.32
559.64	43463.75
559.80	43875.68
559.97	43578.43
560.13	43777.38
560.30	43655.67
560.46	43374.81
560.63	43196.93
560.79	43517.58
560.96	43695.46
561.12	43758.66
561.29	43590.14
561.45	43775.04
561.61	43227.35
561.78	43770.36
561.94	43632.27
562.11	43526.94
562.27	43487.15
562.44	43660.35
562.60	44083.99
562.77	44086.33
562.93	43845.26
563.10	43779.72
563.26	43552.69
563.42	44147.18
563.59	43398.21
563.75	43896.75
563.92	44009.09
564.08	44121.44
564.24	44123.78
564.41	43952.92
564.57	44039.52
564.74	43676.74
564.90	43765.68
565.07	44119.10
565.23	43601.84
565.39	43908.45
565.56	44315.70
565.72	43887.39
565.88	43728.23
566.05	43779.72
566.21	43856.96
566.38	43910.79
566.54	44076.97
566.70	44182.29
566.87	44388.26
567.03	44105.06
567.19	44472.52
567.36	44147.18
567.52	44194.00
567.68	44325.07
567.85	44203.36
568.01	44346.13
568.17	44231.44
568.34	44388.26
568.50	44285.28
568.66	44105.06
568.83	44388.26
568.99	43988.03
569.15	43973.98
569.32	44081.65
569.48	43643.97
569.64	44622.31
569.81	44622.31
569.97	43943.56
570.13	44360.17
570.30	44194.00
570.46	44100.37
570.62	44343.79
570.78	44212.72
570.95	43969.30
571.11	44203.36
571.27	44463.16
571.43	44463.16
571.60	44430.39
571.76	44147.18
571.92	44327.41
572.09	44406.98
572.25	44170.59
572.41	44634.02
572.57	44577.84
572.74	44729.98
572.90	44584.86
573.06	44664.44
573.22	44601.25
573.38	44369.54
573.55	44502.95
573.71	44685.51
573.87	44208.04
574.03	44051.22
574.20	44512.31
574.36	44547.42
574.52	44498.26
574.68	44896.16
574.84	44711.25
575.01	44355.49
575.17	44575.50
575.33	44718.28
575.49	44608.27
575.65	44739.34
575.82	44765.09
575.98	44931.26
576.14	44425.71
576.30	44531.03
576.46	44428.05
576.62	44327.41
576.79	44610.61
576.95	43985.69
577.11	44285.28
577.27	44439.75
577.43	44912.54
577.59	44327.41
577.75	44676.15
577.92	44535.71
578.08	44259.53
578.24	44385.92
578.40	44821.26
578.56	44287.62
578.72	44861.05
578.88	44765.09
579.04	44692.53
579.21	44662.10
579.37	44722.96
579.53	44713.59
579.69	44093.35
579.85	44364.85
580.01	44634.02
580.17	45034.25
580.33	44690.19
580.49	44306.34
580.65	45020.20
580.82	44844.66
580.98	44889.13
581.14	44460.82
581.30	44957.01
581.46	44587.21
581.62	44397.62
581.78	44863.39
581.94	44739.34
582.10	45067.02
582.26	45226.17
582.42	44437.41
582.58	44708.91
582.74	44636.36
582.90	44690.19
583.06	44879.77
583.22	45006.16
583.38	44858.71
583.54	44727.64
583.70	45069.36
583.86	44538.05
584.02	44390.60
584.18	44612.95
584.34	44442.09
584.50	44769.77
584.66	44463.16
584.82	44708.91
584.98	44708.91
585.14	44802.53
585.30	44177.61
585.46	44718.28
585.62	44430.39
585.78	44561.46
585.94	44151.87
586.10	44669.12
586.26	44765.09
586.42	44769.77
586.58	44556.78
586.74	44596.57
586.90	44547.42
587.06	44411.67
587.22	45006.16
587.38	44430.39
587.54	44718.28
587.70	45006.16
587.86	44893.82
588.02	45043.61
588.18	45015.52
588.34	44669.12
588.49	44683.17
588.65	44465.50
588.81	44362.51
588.97	44605.93
589.13	44404.64
589.29	44418.69
589.45	44650.40
589.61	45359.58
589.77	45333.84
589.93	44891.48
590.08	45202.77
590.24	44762.75
