SpectraSuite Data File
++++++++++++++++++++++++++++++++++++
Date: Fri Oct 25 10:46:58 EDT 2013
User: price-jones
Dark Spectrum Present: No
Reference Spectrum Present: No
Number of Sampled Component Spectra: 1
Spectrometers: USB2+H05261
Integration Time (usec): 100000 (USB2+H05261)
Spectra Averaged: 1 (USB2+H05261)
Boxcar Smoothing: 0 (USB2+H05261)
Correct for Electrical Dark: No (USB2+H05261)
Strobe/Lamp Enabled: No (USB2+H05261)
Correct for Detector Non-linearity: No (USB2+H05261)
Correct for Stray Light: No (USB2+H05261)
Number of Pixels in Processed Spectrum: 2048
>>>>>Begin Processed Spectral Data<<<<<
365.73	161.50
365.92	161.50
366.12	161.50
366.32	110.01
366.52	51.49
366.72	67.88
366.91	46.81
367.11	67.88
367.31	25.75
367.51	4.68
367.70	110.01
367.90	65.54
368.10	30.43
368.30	30.43
368.49	28.09
368.69	49.15
368.89	0.00
369.09	95.96
369.28	159.16
369.48	142.77
369.68	79.58
369.87	60.85
370.07	86.60
370.27	142.77
370.47	203.63
370.66	416.62
370.86	409.59
371.06	468.11
371.25	435.34
371.45	433.00
371.65	468.11
371.84	498.53
372.04	433.00
372.24	493.85
372.44	479.81
372.63	524.28
372.83	482.15
373.03	472.79
373.22	496.19
373.42	545.34
373.62	498.53
373.81	500.87
374.01	594.50
374.21	550.03
374.40	559.39
374.60	631.94
374.79	554.71
374.99	601.52
375.19	505.56
375.38	615.56
375.58	606.20
375.78	545.34
375.97	587.47
376.17	671.73
376.37	578.11
376.56	620.24
376.76	655.35
376.95	585.13
377.15	711.52
377.35	594.50
377.54	657.69
377.74	582.79
377.93	634.29
378.13	667.05
378.33	610.88
378.52	657.69
378.72	631.94
378.91	657.69
379.11	629.60
379.31	660.03
379.50	573.43
379.70	690.46
379.89	660.03
380.09	615.56
380.28	655.35
380.48	748.97
380.68	699.82
380.87	636.63
381.07	655.35
381.26	660.03
381.46	681.10
381.65	732.59
381.85	592.16
382.04	779.40
382.24	660.03
382.43	674.07
382.63	662.37
382.83	657.69
383.02	650.67
383.22	788.76
383.41	662.37
383.61	781.74
383.80	737.27
384.00	732.59
384.19	748.97
384.39	819.19
384.58	791.10
384.78	723.23
384.97	760.67
385.17	676.41
385.36	734.93
385.56	774.72
385.75	851.96
385.95	755.99
386.14	821.53
386.34	908.13
386.53	826.21
386.72	858.98
386.92	919.83
387.11	858.98
387.31	938.55
387.50	784.08
387.70	870.68
387.89	917.49
388.09	917.49
388.28	844.93
388.48	833.23
388.67	945.58
388.86	898.77
389.06	950.26
389.25	924.51
389.45	1020.47
389.64	889.40
389.84	1008.77
390.03	931.53
390.22	933.87
390.42	938.55
390.61	856.64
390.81	985.37
391.00	987.71
391.19	1013.45
391.39	973.66
391.58	1067.28
391.78	1032.18
391.97	976.00
392.16	961.96
392.36	1034.52
392.55	1050.90
392.75	1039.20
392.94	1008.77
393.13	1093.03
393.33	1036.86
393.52	1039.20
393.71	1100.05
393.91	1083.67
394.10	1025.15
394.29	1039.20
394.49	1116.44
394.68	1149.20
394.88	1109.41
395.07	1238.14
395.26	1273.25
395.46	1153.88
395.65	1254.53
395.84	1252.19
396.04	1160.91
396.23	1198.35
396.42	1088.35
396.62	1132.82
396.81	1109.41
397.00	1156.22
397.19	1205.38
397.39	1228.78
397.58	1334.11
397.77	1343.47
397.97	1334.11
398.16	1341.13
398.35	1387.94
398.55	1420.71
398.74	1472.20
398.93	1535.39
399.12	1458.15
399.32	1490.92
399.51	1444.11
399.70	1593.90
399.90	1401.98
400.09	1540.07
400.28	1495.60
400.47	1551.78
400.67	1570.50
400.86	1582.20
401.05	1502.62
401.24	1554.12
401.44	1647.74
401.63	1610.29
401.82	1673.48
402.01	1657.10
402.21	1504.96
402.40	1638.38
402.59	1645.40
402.78	1675.82
402.97	1675.82
403.17	1647.74
403.36	1652.42
403.55	1706.25
403.74	1741.36
403.93	1774.13
404.13	1804.55
404.32	1696.89
404.51	1764.76
404.70	1788.17
404.89	1720.29
405.09	1851.36
405.28	1867.75
405.47	1813.92
405.66	1881.79
405.85	1914.56
406.05	1919.24
406.24	2003.50
406.43	1837.32
406.62	2024.56
406.81	1959.03
407.00	1975.41
407.20	1902.86
407.39	1994.14
407.58	2047.97
407.77	2129.89
407.96	2083.08
408.15	2134.57
408.34	2113.50
408.54	2172.02
408.73	2251.60
408.92	2282.02
409.11	2134.57
409.30	2129.89
409.49	2186.06
409.68	2225.85
409.87	2214.15
410.07	2155.63
410.26	2275.00
410.45	2183.72
410.64	2232.87
410.83	2328.83
411.02	2375.64
411.21	2401.39
411.40	2436.50
411.59	2429.48
411.78	2408.41
411.98	2450.54
412.17	2523.10
412.36	2523.10
412.55	2574.59
412.74	2612.04
412.93	2469.27
413.12	2506.71
413.31	2661.19
413.50	2539.48
413.69	2712.68
413.88	2761.83
414.07	2752.47
414.26	2806.30
414.45	2789.92
414.64	2691.62
414.83	2874.18
415.02	2935.03
415.22	2956.10
415.41	3005.25
415.60	2946.73
415.79	3054.40
415.98	2834.39
416.17	3033.33
416.36	3038.02
416.55	3199.51
416.74	3141.00
416.93	3215.90
417.12	3248.66
417.31	3087.17
417.50	3131.64
417.69	3229.94
417.88	3314.20
418.07	3267.39
418.26	3288.45
418.45	3236.96
418.64	3421.86
418.83	3421.86
419.02	3218.24
419.21	3363.35
419.39	3447.61
419.58	3258.03
419.77	3426.54
419.96	3365.69
420.15	3461.65
420.34	3482.72
420.53	3613.79
420.72	3606.77
420.91	3599.74
421.10	3791.67
421.29	3583.36
421.48	3597.40
421.67	3641.87
421.86	3698.05
422.05	3648.90
422.24	3571.66
422.43	3527.19
422.61	3552.93
422.80	3646.55
422.99	3644.21
423.18	3826.78
423.37	3838.48
423.56	3723.79
423.75	3730.81
423.94	3772.94
424.13	3646.55
424.32	3667.62
424.50	3674.64
424.69	3754.22
424.88	3763.58
425.07	3672.30
425.26	3698.05
425.45	3761.24
425.64	3632.51
425.83	3662.94
426.01	3957.85
426.20	3887.63
426.39	3803.37
426.58	3705.07
426.77	3843.16
426.96	3801.03
427.15	3946.14
427.33	3808.05
427.52	3995.29
427.71	4037.42
427.90	3892.31
428.09	3887.63
428.28	3922.74
428.46	3847.84
428.65	4133.39
428.84	4021.04
429.03	4004.66
429.22	3929.76
429.40	3999.98
429.59	3873.59
429.78	3908.69
429.97	3808.05
430.16	3960.19
430.34	3864.22
430.53	4021.04
430.72	4030.40
430.91	4051.47
431.10	4238.71
431.28	4320.63
431.47	4407.23
431.66	4432.97
431.85	4278.50
432.03	4442.34
432.22	4351.06
432.41	4332.33
432.60	4603.83
432.79	4517.23
432.97	4454.04
433.16	4470.42
433.35	4496.17
433.54	4608.51
433.72	4603.83
433.91	4444.68
434.10	4432.97
434.28	4643.62
434.47	4489.15
434.66	4681.07
434.85	4702.14
435.03	4627.24
435.22	4741.93
435.41	4954.91
435.59	4840.23
435.78	4823.84
435.97	4870.65
436.16	4877.68
436.34	4856.61
436.53	4931.51
436.72	5093.01
436.90	4800.44
437.09	4987.68
437.28	4812.14
437.46	4924.49
437.65	4968.96
437.84	5069.60
438.02	5029.81
438.21	4802.78
438.40	5081.30
438.58	4873.00
438.77	5249.82
438.96	5268.55
439.14	5390.25
439.33	5364.51
439.52	5378.55
439.70	5434.72
439.89	5479.19
440.08	5434.72
440.26	5453.45
440.45	5467.49
440.63	5544.73
440.82	5621.97
441.01	5533.03
441.19	5750.70
441.38	5804.53
441.57	5673.46
441.75	5912.19
441.94	5858.36
442.12	6017.52
442.31	5973.05
442.50	5994.11
442.68	5830.27
442.87	5921.56
443.05	5914.53
443.24	6167.31
443.43	6125.18
443.61	6216.46
443.80	6312.42
443.98	6169.65
444.17	6064.33
444.35	6188.38
444.54	6373.28
444.73	6097.10
444.91	6111.14
445.10	6146.25
445.28	6209.44
445.47	6090.07
445.65	6118.16
445.84	6303.06
446.02	6162.63
446.21	6293.70
446.39	6249.23
446.58	6363.92
446.77	6225.82
446.95	6284.34
447.14	6361.58
447.32	6373.28
447.51	6331.15
447.69	6340.51
447.88	6305.40
448.06	6532.44
448.25	6434.13
448.43	6345.19
448.62	6373.28
448.80	6331.15
448.99	6438.81
449.17	6551.16
449.36	6429.45
449.54	6677.55
449.73	6590.95
449.91	6628.40
450.10	6806.28
450.28	6874.15
450.46	7030.97
450.65	6752.45
450.83	6874.15
451.02	6768.83
451.20	6925.65
451.39	6979.48
451.57	6923.30
451.76	6752.45
451.94	6965.43
452.13	6885.86
452.31	7042.67
452.49	6736.06
452.68	6932.67
452.86	6890.54
453.05	6998.20
453.23	7094.16
453.42	6817.98
453.60	6899.90
453.78	7068.42
453.97	6810.96
454.15	7124.59
454.34	7143.32
454.52	7176.08
454.70	7225.23
454.89	7077.78
455.07	7171.40
455.26	7412.48
455.44	7351.62
455.62	7405.46
455.81	7456.95
455.99	7337.58
456.17	7435.88
456.36	7389.07
456.54	7534.18
456.73	7440.56
456.91	7758.88
457.09	7756.54
457.28	7686.32
457.46	7693.34
457.64	7721.43
457.83	7707.38
458.01	7428.86
458.19	8018.68
458.38	7719.09
458.56	7885.26
458.74	7878.24
458.93	7765.90
459.11	7854.84
459.29	7810.37
459.48	7829.09
459.66	8037.40
459.84	8191.88
460.03	8262.09
460.21	8182.51
460.39	8060.80
460.57	8077.19
460.76	8013.99
460.94	8049.10
461.12	8327.63
461.31	8259.75
461.49	8306.56
461.67	8032.72
461.85	8465.72
462.04	8500.83
462.22	8812.12
462.40	8599.13
462.59	8402.52
462.77	8545.30
462.95	8505.51
463.13	8512.53
463.32	8674.03
463.50	8498.49
463.68	8528.91
463.86	8608.49
464.05	8475.08
464.23	8524.23
464.41	8650.62
464.59	8479.76
464.78	8835.52
464.96	8535.93
465.14	8793.39
465.32	8578.06
465.50	8884.67
465.69	8877.65
465.87	8784.03
466.05	8849.57
466.23	8732.54
466.41	8727.86
466.60	9121.07
466.78	8929.14
466.96	8917.44
467.14	8929.14
467.32	8964.25
467.51	9284.91
467.69	8767.65
467.87	9125.75
468.05	9057.87
468.23	9022.77
468.41	9006.38
468.60	8961.91
468.78	9245.12
468.96	9240.44
469.14	9156.18
469.32	9291.93
469.50	9071.92
469.69	9467.47
469.87	9530.66
470.05	9256.82
470.23	9476.83
470.41	9315.33
470.59	9785.78
470.77	9563.43
470.95	9540.02
471.14	9689.82
471.32	9528.32
471.50	9755.35
471.68	9825.57
471.86	9884.08
472.04	9811.53
472.22	10174.31
472.40	9736.63
472.58	9785.78
472.77	10043.24
472.95	10076.01
473.13	10417.72
473.31	10010.47
473.49	10132.18
473.67	10120.48
473.85	10345.17
474.03	10314.74
474.21	10546.45
474.39	10420.06
474.57	10604.97
474.75	10672.84
474.93	10658.80
475.12	10623.69
475.30	10817.96
475.48	10757.10
475.66	10860.09
475.84	10843.70
476.02	10661.14
476.20	10792.21
476.38	11108.18
476.56	11297.77
476.74	11154.99
476.92	11494.37
477.10	11166.70
477.28	11571.61
477.46	11583.31
477.64	11831.41
477.82	11698.00
478.00	12205.89
478.18	12140.36
478.36	11852.47
478.54	12084.19
478.72	12334.62
478.90	12507.82
479.08	12517.18
479.26	12463.35
479.44	12521.87
479.62	12784.01
479.80	12875.29
479.98	12795.71
480.16	13310.63
480.34	12968.91
480.52	13081.25
480.70	13207.64
480.88	13020.40
481.06	13259.13
481.24	13198.28
481.41	13912.14
481.59	13736.60
481.77	14071.30
481.95	13762.35
482.13	14059.60
482.31	13886.40
482.49	14429.40
482.67	14188.33
482.85	14436.42
483.03	14532.39
483.21	14501.96
483.39	14951.34
483.57	14813.25
483.74	14998.15
483.92	15033.26
484.10	15084.75
484.28	15222.84
484.46	15304.76
484.64	15953.09
484.82	15531.80
485.00	15709.68
485.18	15840.75
485.35	15632.44
485.53	15695.63
485.71	15758.83
485.89	15726.06
486.07	16081.82
486.25	15992.88
486.43	16402.47
486.61	16692.70
486.78	16610.78
486.96	16966.54
487.14	16971.22
487.32	16931.44
487.50	17355.07
487.68	17453.37
487.85	17745.94
488.03	17825.52
488.21	17778.71
488.39	17963.61
488.57	18169.58
488.75	18310.01
488.92	18719.60
489.10	18703.22
489.28	18630.66
489.46	19190.05
489.64	18871.74
489.81	19250.91
489.99	19323.46
490.17	19363.25
490.35	19681.56
490.53	19487.30
490.70	19845.40
490.88	19765.82
491.06	20184.78
491.24	20098.18
491.41	20013.92
491.59	20039.67
491.77	20098.18
491.95	20458.62
492.13	20680.97
492.30	20903.32
492.48	20830.77
492.66	21102.27
492.84	21200.57
493.01	21259.09
493.19	21266.11
493.37	21717.83
493.54	21628.89
493.72	21998.70
493.90	21848.90
494.08	22237.43
494.25	22274.88
494.43	22068.91
494.61	22541.70
494.79	22827.24
494.96	22490.21
495.14	22693.83
495.32	22792.14
495.49	22614.26
495.67	23009.81
495.85	23484.94
496.02	23421.74
496.20	23372.59
496.38	23555.15
496.55	23693.24
496.73	24301.78
496.91	23941.34
497.09	24250.29
497.26	24404.77
497.44	23969.43
497.62	24357.96
497.79	24348.59
497.97	24170.71
498.14	24730.10
498.32	24694.99
498.50	24931.39
498.67	24912.66
498.85	25294.17
499.03	25429.92
499.20	25429.92
499.38	25298.85
499.56	25378.43
499.73	25008.62
499.91	25663.97
500.08	26136.76
500.26	25366.73
500.44	26052.50
500.61	25947.18
500.79	25893.35
500.97	26019.74
501.14	26302.94
501.32	26120.38
501.49	26045.48
501.67	26073.57
501.84	26876.37
502.02	26731.26
502.20	27007.44
502.37	26761.69
502.55	27042.55
502.72	27353.84
502.90	26974.67
503.07	27103.40
503.25	27637.05
503.43	27110.43
503.60	27587.89
503.78	27166.60
503.95	27721.30
504.13	27278.94
504.30	27791.52
504.48	27716.62
504.65	28121.54
504.83	28311.12
505.01	28259.63
505.18	28233.88
505.36	28584.96
505.53	28341.55
505.71	28659.86
505.88	28720.71
506.06	28599.01
506.23	28496.02
506.41	28760.50
506.58	28776.89
506.76	28723.05
506.93	29226.27
507.11	28992.22
507.28	29013.28
507.46	29198.18
507.63	29266.06
507.81	29582.03
507.98	29317.55
508.16	29654.59
508.33	29640.54
508.50	29762.25
508.68	29680.33
508.85	30167.16
509.03	30410.58
509.20	30323.98
509.38	30185.89
509.55	30408.24
509.73	30541.65
509.90	30361.43
510.08	30136.74
510.25	30677.40
510.42	30747.62
510.60	30876.35
510.77	31253.17
510.95	31360.84
511.12	31033.16
511.30	31101.04
511.47	31363.18
511.64	31566.81
511.82	31690.85
511.99	31255.51
512.17	31594.89
512.34	31426.37
512.51	31548.08
512.69	31477.86
512.86	32245.56
513.04	32245.56
513.21	32147.26
513.38	32048.96
513.56	31732.98
513.73	31414.67
513.90	31901.50
514.08	32308.76
514.25	32215.13
514.43	32144.92
514.60	32624.73
514.77	32205.77
514.95	32823.67
515.12	32802.61
515.29	32238.54
515.47	32851.76
515.64	33106.88
515.81	33385.40
515.99	32762.82
516.16	33434.55
516.33	32720.69
516.51	33219.22
516.68	32652.81
516.85	32683.24
517.03	32826.01
517.20	33184.12
517.37	33404.13
517.54	33776.27
517.72	33692.01
517.89	33460.30
518.06	33207.52
518.24	33219.22
518.41	33582.01
518.58	33684.99
518.75	33799.68
518.93	34202.25
519.10	34026.71
519.27	34338.00
519.45	34216.29
519.62	34281.83
519.79	34548.65
519.96	34644.61
520.14	34522.90
520.31	34368.43
520.48	34611.84
520.65	34501.84
520.83	35042.50
521.00	35501.25
521.17	35204.00
521.34	34834.19
521.52	35335.07
521.69	35306.98
521.86	35438.05
522.03	35543.38
522.20	35358.47
522.38	35887.43
522.55	35758.70
522.72	35510.61
522.89	35629.98
523.07	35503.59
523.24	36374.27
523.41	36158.94
523.58	35845.30
523.75	36758.11
523.92	36285.33
524.10	36315.75
524.27	36170.64
524.44	36615.34
524.61	36809.61
524.78	36444.48
524.96	36718.32
525.13	36650.45
525.30	36830.67
525.47	36821.31
525.64	36896.20
525.81	36416.40
525.98	36676.19
526.16	36587.25
526.33	36266.60
526.50	37207.50
526.67	36662.15
526.84	36772.16
527.01	36753.43
527.18	36980.46
527.36	37240.26
527.53	37301.12
527.70	37645.18
527.87	37436.87
528.04	37598.37
528.21	37280.05
528.38	37937.74
528.55	37937.74
528.72	37750.50
528.89	37886.25
529.07	37895.61
529.24	37600.71
529.41	37799.65
529.58	37935.40
529.75	37656.88
529.92	38061.79
530.09	37834.76
530.26	38176.48
530.43	38382.45
530.60	38277.12
530.77	38321.59
530.94	39007.37
531.11	38256.06
531.28	38740.55
531.46	39086.95
531.63	38628.20
531.80	38447.98
531.97	38916.09
532.14	38829.49
532.31	38167.12
532.48	38656.29
532.65	38787.36
532.82	39295.25
532.99	38904.38
533.16	39136.10
533.33	38930.13
533.50	39096.31
533.67	38937.15
533.84	39227.38
534.01	39110.35
534.18	38902.04
534.35	39225.04
534.52	39229.72
534.69	39651.02
534.86	39613.57
535.03	39409.94
535.20	39590.16
535.37	40004.44
535.54	40179.98
535.71	39634.63
535.88	39594.84
536.05	39908.47
536.22	39770.38
536.38	40133.17
536.55	40268.92
536.72	40130.83
536.89	39512.92
537.06	39749.32
537.23	39805.49
537.40	40472.54
537.57	40205.72
537.74	40428.07
537.91	40395.31
538.08	40414.03
538.25	40032.52
538.42	40292.32
538.59	40563.82
538.75	40334.45
538.92	40648.08
539.09	40404.67
539.26	40233.81
539.43	40629.36
539.60	40392.97
539.77	40596.59
539.94	41383.01
540.11	40865.75
540.28	40596.59
540.44	40755.75
540.61	40882.14
540.78	40762.77
540.95	41034.27
541.12	40889.16
541.29	40671.49
541.46	41188.75
541.62	41165.34
541.79	41394.71
541.96	40779.15
542.13	41053.00
542.30	40793.20
542.47	41350.24
542.63	41525.78
542.80	41415.78
542.97	41839.42
543.14	41848.78
543.31	41652.17
543.48	41834.74
543.64	42356.67
543.81	42007.94
543.98	41813.67
544.15	41553.87
544.32	41841.76
544.48	42131.98
544.65	41996.23
544.82	42092.19
544.99	41715.37
545.16	42096.88
545.32	42021.98
545.49	42546.26
545.66	42169.43
545.83	42225.60
546.00	42188.16
546.16	42534.56
546.33	42279.44
546.50	42183.48
546.67	42646.90
546.83	41752.82
547.00	42529.87
547.17	42567.32
547.34	42307.52
547.50	42363.70
547.67	42979.26
547.84	42260.71
548.00	42698.39
548.17	42906.70
548.34	42787.33
548.51	43227.35
548.67	42829.46
548.84	43468.43
549.01	42958.19
549.18	42944.15
549.34	42745.20
549.51	43257.78
549.68	43384.17
549.84	43344.38
550.01	43243.74
550.18	43009.68
550.34	43246.08
550.51	43140.75
550.68	42883.30
550.84	42820.10
551.01	43548.01
551.18	43147.78
551.34	43126.71
551.51	43386.51
551.68	43578.43
551.84	43288.21
552.01	43398.21
552.18	43487.15
552.34	43349.06
552.51	43688.44
552.68	43543.33
552.84	43501.20
553.01	43672.06
553.18	44140.16
553.34	43868.66
553.51	43768.02
553.67	43908.45
553.84	43962.28
554.01	44313.36
554.17	44231.44
554.34	44322.72
554.51	43622.90
554.67	44311.02
554.84	44030.16
555.00	43807.81
555.17	43929.51
555.33	44229.10
555.50	43854.62
555.67	44362.51
555.83	44357.83
556.00	44383.58
556.16	44662.10
556.33	44261.87
556.50	44128.46
556.66	44430.39
556.83	44318.04
556.99	44388.26
557.16	44535.71
557.32	44121.44
557.49	44591.89
557.65	43962.28
557.82	44013.77
557.98	44252.51
558.15	44542.74
558.32	44683.17
558.48	43917.81
558.65	44907.86
558.81	44552.10
558.98	44509.97
559.14	44786.15
559.31	44603.59
559.47	44327.41
559.64	44945.31
559.80	44842.32
559.97	44570.82
560.13	44467.84
560.30	44720.62
560.46	44664.44
560.63	44718.28
560.79	44964.03
560.96	45282.34
561.12	44720.62
561.29	44591.89
561.45	44765.09
561.61	44814.24
561.78	44978.07
561.94	44591.89
562.11	44474.86
562.27	44863.39
562.44	44519.33
562.60	45209.79
562.77	45071.70
562.93	45099.78
563.10	44935.95
563.26	44603.59
563.42	45277.66
563.59	45052.97
563.75	45495.33
563.92	45333.84
564.08	45123.19
564.24	45467.25
564.41	45282.34
564.57	45008.50
564.74	45003.82
564.90	45462.57
565.07	45322.13
565.23	45022.54
565.39	45425.12
565.56	44900.84
565.72	45090.42
565.88	44842.32
566.05	45167.66
566.21	45181.70
566.38	44835.30
566.54	45097.44
566.70	45235.53
566.87	45780.88
567.03	45280.00
567.19	45401.71
567.36	45514.06
567.52	45062.33
567.68	45427.46
567.85	45420.44
568.01	45139.57
568.17	44952.33
568.34	45179.36
568.50	45500.01
568.66	45097.44
568.83	45523.42
568.99	45102.12
569.15	44928.92
569.32	45010.84
569.48	45195.74
569.64	45848.75
569.81	45935.35
569.97	45490.65
570.13	45603.00
570.30	45088.08
570.46	45244.90
570.62	44584.86
570.78	45144.25
570.95	45340.86
571.11	45270.64
571.27	45354.90
571.43	45305.75
571.60	45998.55
571.76	45556.19
571.92	45123.19
572.09	45144.25
572.25	45439.16
572.41	45518.74
572.57	45595.98
572.74	45888.54
572.90	45471.93
573.06	45736.41
573.22	45525.76
573.38	45713.00
573.55	45492.99
573.71	45556.19
573.87	45221.49
574.03	45757.47
574.20	45516.40
574.36	45633.42
574.52	45769.18
574.68	45563.21
574.84	45577.25
575.01	45626.40
575.17	45549.17
575.33	45443.84
575.49	45504.70
575.65	45886.20
575.82	45528.10
575.98	45418.10
576.14	46146.00
576.30	45872.16
576.46	45439.16
576.62	45352.56
576.79	45698.96
576.95	45155.96
577.11	45394.69
577.27	45834.71
577.43	45434.48
577.59	45553.85
577.75	45368.94
577.92	45153.62
578.08	45324.47
578.24	45457.88
578.40	45502.35
578.56	45776.20
578.72	45715.34
578.88	46197.49
579.04	45631.08
579.21	45607.68
579.37	45787.90
579.53	45752.79
579.69	45364.26
579.85	45645.13
580.01	45958.76
580.17	45471.93
580.33	45755.13
580.49	45806.62
580.65	46064.08
580.82	45701.30
580.98	45336.18
581.14	45420.44
581.30	45820.67
581.46	45752.79
581.62	45696.62
581.78	45696.62
581.94	46138.98
582.10	45897.91
582.26	45701.30
582.42	45708.32
582.58	45586.61
582.74	45745.77
582.90	45743.43
583.06	45951.74
583.22	45890.88
583.38	46265.37
583.54	46096.85
583.70	46031.32
583.86	45680.24
584.02	45359.58
584.18	45640.45
584.34	45925.99
584.50	45485.97
584.66	45502.35
584.82	45439.16
584.98	45624.06
585.14	45799.60
585.30	45399.37
585.46	45441.50
585.62	45574.91
585.78	45635.77
585.94	45425.12
586.10	45780.88
586.26	45624.06
586.42	45947.06
586.58	45977.48
586.74	45586.61
586.90	45663.85
587.06	45502.35
587.22	46197.49
587.38	45776.20
587.54	45614.70
587.70	46066.42
587.86	46024.29
588.02	45773.86
588.18	46239.62
588.34	45663.85
588.49	45549.17
588.65	45460.23
588.81	45813.65
588.97	45380.65
589.13	45586.61
589.29	45628.74
589.45	45549.17
589.61	45970.46
589.77	46103.87
589.93	45968.12
590.08	46078.13
