SpectraSuite Data File
++++++++++++++++++++++++++++++++++++
Date: Fri Oct 25 11:25:23 EDT 2013
User: price-jones
Dark Spectrum Present: No
Reference Spectrum Present: No
Number of Sampled Component Spectra: 1
Spectrometers: USB2+H05261
Integration Time (usec): 100000 (USB2+H05261)
Spectra Averaged: 1 (USB2+H05261)
Boxcar Smoothing: 0 (USB2+H05261)
Correct for Electrical Dark: No (USB2+H05261)
Strobe/Lamp Enabled: No (USB2+H05261)
Correct for Detector Non-linearity: No (USB2+H05261)
Correct for Stray Light: No (USB2+H05261)
Number of Pixels in Processed Spectrum: 2048
>>>>>Begin Processed Spectral Data<<<<<
365.73	259.80
365.92	259.80
366.12	259.80
366.32	126.39
366.52	107.66
366.72	140.43
366.91	145.11
367.11	114.69
367.31	28.09
367.51	173.20
367.70	110.01
367.90	163.84
368.10	110.01
368.30	140.43
368.49	105.32
368.69	147.45
368.89	126.39
369.09	208.31
369.28	163.84
369.48	140.43
369.68	198.95
369.87	194.26
370.07	297.25
370.27	212.99
370.47	383.85
370.66	606.20
370.86	601.52
371.06	723.23
371.25	723.23
371.45	582.79
371.65	737.27
371.84	629.60
372.04	641.31
372.24	767.70
372.44	746.63
372.63	814.51
372.83	777.06
373.03	734.93
373.22	748.97
373.42	800.46
373.62	779.40
373.81	814.51
374.01	772.38
374.21	807.48
374.40	833.23
374.60	816.85
374.79	809.83
374.99	840.25
375.19	889.40
375.38	833.23
375.58	788.76
375.78	870.68
375.97	805.14
376.17	917.49
376.37	882.38
376.56	922.17
376.76	889.40
376.95	873.02
377.15	884.72
377.35	861.32
377.54	903.45
377.74	884.72
377.93	926.85
378.13	980.68
378.33	917.49
378.52	926.85
378.72	938.55
378.91	950.26
379.11	950.26
379.31	933.87
379.50	978.34
379.70	938.55
379.89	1032.18
380.09	931.53
380.28	999.41
380.48	971.32
380.68	959.62
380.87	1015.79
381.07	983.02
381.26	1006.43
381.46	983.02
381.65	1088.35
381.85	1074.31
382.04	1132.82
382.24	1114.10
382.43	1048.56
382.63	1025.15
382.83	1041.54
383.02	1076.65
383.22	1121.12
383.41	1083.67
383.61	1111.75
383.80	1198.35
384.00	1053.24
384.19	1055.58
384.39	1102.39
384.58	1093.03
384.78	1172.61
384.97	1179.63
385.17	1149.20
385.36	1198.35
385.56	1186.65
385.75	1104.73
385.95	1158.57
386.14	1167.93
386.34	1090.69
386.53	1177.29
386.72	1207.72
386.92	1165.59
387.11	1200.69
387.31	1235.80
387.50	1308.36
387.70	1310.70
387.89	1203.04
388.09	1299.00
388.28	1310.70
388.48	1240.48
388.67	1362.19
388.86	1383.26
389.06	1317.72
389.25	1345.81
389.45	1308.36
389.64	1296.66
389.84	1373.89
390.03	1338.79
390.22	1444.11
390.42	1392.62
390.61	1385.60
390.81	1373.89
391.00	1306.02
391.19	1432.41
391.39	1439.43
391.58	1387.94
391.78	1542.41
391.97	1490.92
392.16	1502.62
392.36	1493.26
392.55	1502.62
392.75	1533.05
392.94	1486.24
393.13	1589.22
393.33	1458.15
393.52	1483.90
393.71	1598.59
393.91	1528.37
394.10	1549.43
394.29	1509.65
394.49	1577.52
394.68	1591.56
394.88	1570.50
395.07	1638.38
395.26	1703.91
395.46	1694.55
395.65	1715.61
395.84	1652.42
396.04	1734.34
396.23	1680.50
396.42	1809.23
396.62	1825.62
396.81	1760.08
397.00	1771.79
397.19	1802.21
397.39	1727.32
397.58	1788.17
397.77	1813.92
397.97	1853.70
398.16	1832.64
398.35	1827.96
398.55	1837.32
398.74	1907.54
398.93	1907.54
399.12	1858.39
399.32	1933.28
399.51	1933.28
399.70	2043.29
399.90	1942.64
400.09	2031.58
400.28	1956.69
400.47	2005.84
400.67	2043.29
400.86	2134.57
401.05	2054.99
401.24	2045.63
401.44	2122.87
401.63	2155.63
401.82	2097.12
402.01	2225.85
402.21	2118.18
402.40	2228.19
402.59	2239.89
402.78	2207.13
402.97	2153.29
403.17	2108.82
403.36	2186.06
403.55	2331.17
403.74	2307.77
403.93	2385.01
404.13	2312.45
404.32	2431.82
404.51	2338.20
404.70	2422.45
404.89	2385.01
405.09	2466.92
405.28	2445.86
405.47	2499.69
405.66	2497.35
405.85	2478.63
406.05	2513.74
406.24	2569.91
406.43	2523.10
406.62	2597.99
406.81	2708.00
407.00	2544.16
407.20	2497.35
407.39	2640.12
407.58	2733.75
407.77	2729.06
407.96	2717.36
408.15	2745.45
408.34	2597.99
408.54	2757.15
408.73	2724.38
408.92	2860.13
409.11	2860.13
409.30	2818.00
409.49	2773.53
409.68	2717.36
409.87	2890.56
410.07	2998.23
410.26	2906.95
410.45	2836.73
410.64	2911.63
410.83	3054.40
411.02	3084.83
411.21	3155.04
411.40	3101.21
411.59	3281.43
411.78	3110.57
411.98	3220.58
412.17	3199.51
412.36	3318.88
412.55	3239.30
412.74	3393.78
412.93	3407.82
413.12	3337.60
413.31	3499.10
413.50	3445.27
413.69	3478.04
413.88	3644.21
414.07	3548.25
414.26	3578.68
414.45	3536.55
414.64	3709.75
414.83	3676.98
415.02	3728.47
415.22	3723.79
415.41	3695.71
415.60	3847.84
415.79	3873.59
415.98	3882.95
416.17	3826.78
416.36	3789.33
416.55	3939.12
416.74	4016.36
416.93	4077.21
417.12	4095.94
417.31	4205.94
417.50	4147.43
417.69	4283.18
417.88	4138.07
418.07	4262.12
418.26	4337.01
418.45	4308.93
418.64	4390.84
418.83	4489.15
419.02	4395.53
419.21	4484.47
419.39	4526.60
419.58	4449.36
419.77	4418.93
419.96	4496.17
420.15	4512.55
420.34	4486.81
420.53	4636.60
420.72	4690.43
420.91	4648.30
421.10	4657.67
421.29	4692.77
421.48	4718.52
421.67	4746.61
421.86	4865.97
422.05	4671.71
422.24	4760.65
422.43	4868.31
422.61	4952.57
422.80	4983.00
422.99	4835.55
423.18	4950.23
423.37	5050.88
423.56	4924.49
423.75	4903.42
423.94	4840.23
424.13	4655.33
424.32	4716.18
424.50	5008.75
424.69	5001.72
424.88	4961.94
425.07	4889.38
425.26	4933.85
425.45	5011.09
425.64	4784.06
425.83	5015.77
426.01	4985.34
426.20	4997.04
426.39	5142.16
426.58	4952.57
426.77	4985.34
426.96	5114.07
427.15	5270.89
427.33	5128.11
427.52	5282.59
427.71	5160.88
427.90	5200.67
428.09	5280.25
428.28	5291.95
428.46	5509.62
428.65	5310.68
428.84	5516.64
429.03	5540.05
429.22	5359.83
429.40	5430.04
429.59	5479.19
429.78	5313.02
429.97	5308.34
430.16	5528.35
430.34	5621.97
430.53	5668.78
430.72	5696.86
430.91	5619.63
431.10	5535.37
431.28	5708.57
431.47	5764.74
431.66	5708.57
431.85	5811.55
432.03	5790.49
432.22	5909.85
432.41	5881.77
432.60	5870.06
432.79	5994.11
432.97	5949.64
433.16	6052.63
433.35	5940.28
433.54	6230.51
433.72	6005.81
433.91	6164.97
434.10	6071.35
434.28	6125.18
434.47	6118.16
434.66	6162.63
434.85	6127.52
435.03	6321.79
435.22	6263.27
435.41	6527.75
435.59	6340.51
435.78	6324.13
435.97	6431.79
436.16	6296.04
436.34	6317.11
436.53	6326.47
436.72	6609.67
436.90	6408.39
437.09	6555.84
437.28	6429.45
437.46	6567.54
437.65	6719.68
437.84	6626.06
438.02	6698.61
438.21	6768.83
438.40	6572.22
438.58	6803.94
438.77	7009.90
438.96	6986.50
439.14	7016.93
439.33	7056.72
439.52	7133.95
439.70	7140.97
439.89	7370.35
440.08	7370.35
440.26	7492.05
440.45	7316.51
440.63	7431.20
440.82	7669.94
441.01	7447.58
441.19	7583.34
441.38	7538.87
441.57	7590.36
441.75	7808.03
441.94	7831.43
442.12	7679.30
442.31	7899.31
442.50	7782.28
442.68	7836.11
442.87	7901.65
443.05	8013.99
443.24	8245.71
443.43	8135.70
443.61	8198.90
443.80	8245.71
443.98	8072.51
444.17	7971.86
444.35	7971.86
444.54	8264.43
444.73	8243.37
444.91	8095.91
445.10	8154.43
445.28	8142.72
445.47	8189.53
445.65	8224.64
445.84	8365.07
446.02	8500.83
446.21	8390.82
446.39	8311.24
446.58	8454.02
446.77	8329.97
446.95	8311.24
447.14	8135.70
447.32	8355.71
447.51	8407.20
447.69	8351.03
447.88	8404.86
448.06	8386.14
448.25	8395.50
448.43	8400.18
448.62	8430.61
448.80	8486.78
448.99	8514.87
449.17	8681.05
449.36	8587.43
449.54	8657.64
449.73	8723.18
449.91	9006.38
450.10	8826.16
450.28	9015.74
450.46	8877.65
450.65	9078.94
450.83	9116.39
451.02	8856.59
451.20	9193.62
451.39	9238.09
451.57	9142.13
451.76	9083.62
451.94	9109.36
452.13	9184.26
452.31	9076.60
452.49	9170.22
452.68	9139.79
452.86	9247.46
453.05	9357.46
453.23	9320.01
453.42	9214.69
453.60	9156.18
453.78	9507.26
453.97	9331.72
454.15	9561.09
454.34	9420.66
454.52	9518.96
454.70	9614.92
454.89	9521.30
455.07	9549.39
455.26	9736.63
455.44	9963.66
455.62	9825.57
455.81	9891.10
455.99	9898.13
456.17	10012.81
456.36	10164.95
456.54	10246.87
456.73	10052.60
456.91	10452.83
457.09	10310.06
457.28	10656.46
457.46	10186.01
457.64	10438.79
457.83	10326.44
458.01	10235.16
458.19	10597.95
458.38	10534.75
458.56	10913.92
458.74	10555.82
458.93	10567.52
459.11	10696.25
459.29	10597.95
459.48	10565.18
459.66	10487.94
459.84	10689.23
460.03	10920.94
460.21	10963.07
460.39	11070.73
460.57	11052.01
460.76	10850.72
460.94	10956.05
461.12	11140.95
461.31	10977.11
461.49	11253.30
461.67	11112.86
461.85	11133.93
462.04	11234.57
462.22	11854.81
462.40	11763.53
462.59	11506.07
462.77	11393.73
462.95	11641.82
463.13	11412.45
463.32	11506.07
463.50	11695.66
463.68	11620.76
463.86	11920.35
464.05	11747.15
464.23	11571.61
464.41	11805.66
464.59	11428.84
464.78	12011.63
464.96	11896.94
465.14	11707.36
465.32	11840.77
465.50	12016.31
465.69	12030.35
465.87	11910.99
466.05	12163.76
466.23	12037.38
466.41	12133.34
466.60	12400.16
466.78	11939.07
466.96	12236.32
467.14	12037.38
467.32	12145.04
467.51	12484.42
467.69	11971.84
467.87	12266.75
468.05	12369.73
468.23	12362.71
468.41	12517.18
468.60	12629.53
468.78	12496.12
468.96	12655.28
469.14	12624.85
469.32	12772.30
469.50	12512.50
469.69	13050.83
469.87	12994.65
470.05	12950.18
470.23	13188.92
470.41	12814.43
470.59	13090.62
470.77	12835.50
470.95	13102.32
471.14	13483.83
471.32	13006.36
471.50	13371.48
471.68	13387.86
471.86	13521.27
472.04	13624.26
472.22	13982.36
472.40	13638.30
472.58	13654.69
472.77	13706.18
472.95	14225.78
473.13	14326.42
473.31	14052.58
473.49	14141.52
473.67	13973.00
473.85	14246.84
474.03	14448.13
474.21	14389.61
474.39	14434.08
474.57	14604.94
474.75	14677.50
474.93	14934.96
475.12	14909.21
475.30	15014.54
475.48	14848.36
475.66	14782.82
475.84	15056.67
476.02	15370.30
476.20	15274.34
476.38	15728.40
476.56	15761.17
476.74	15978.84
476.92	15686.27
477.10	15793.94
477.28	15616.05
477.46	15960.11
477.64	16051.39
477.82	16011.60
478.00	16704.40
478.18	16524.18
478.36	16643.55
478.54	17348.05
478.72	17048.46
478.90	17413.59
479.08	17481.46
479.26	17598.49
479.44	17486.14
479.62	17535.29
479.80	18071.28
479.98	17980.00
480.16	18307.67
480.34	18225.75
480.52	18567.47
480.70	18312.35
480.88	18218.73
481.06	18558.11
481.24	18934.93
481.41	19012.17
481.59	18967.70
481.77	19220.48
481.95	19246.23
482.13	19190.05
482.31	19545.81
482.49	20191.80
482.67	19999.88
482.85	20144.99
483.03	20350.96
483.21	20547.56
483.39	20737.15
483.57	20854.17
483.74	20688.00
483.92	21312.92
484.10	21041.42
484.28	21591.44
484.46	22047.85
484.64	22441.06
484.82	21722.51
485.00	21855.92
485.18	22532.34
485.35	22773.41
485.53	22724.26
485.71	22780.43
485.89	23175.98
486.07	23278.97
486.25	23147.90
486.43	23396.00
486.61	23360.89
486.78	24130.92
486.96	23836.02
487.14	24645.84
487.32	24592.01
487.50	24723.08
487.68	24802.66
487.85	24893.94
488.03	25352.68
488.21	25570.35
488.39	25584.40
488.57	25914.41
488.75	26148.46
488.92	25984.63
489.10	26600.19
489.28	26536.99
489.46	26855.31
489.64	26637.64
489.81	27400.65
489.99	27498.95
490.17	27276.60
490.35	27723.65
490.53	27967.06
490.70	27908.55
490.88	28077.07
491.06	28594.32
491.24	28797.95
491.41	28872.85
491.59	29062.43
491.77	29165.42
491.95	29439.26
492.13	29071.79
492.30	29542.24
492.48	29546.92
492.66	29912.05
492.84	30370.79
493.01	30644.63
493.19	30164.82
493.37	30494.84
493.54	30632.93
493.72	31297.64
493.90	30976.99
494.08	31585.53
494.25	32081.72
494.43	31896.82
494.61	32170.66
494.79	32294.71
494.96	32360.25
495.14	32760.48
495.32	32959.42
495.49	32973.47
495.67	33041.34
495.85	33502.43
496.02	33607.75
496.20	33741.16
496.38	33579.67
496.55	33909.68
496.73	34443.32
496.91	34307.57
497.09	35143.14
497.26	34251.40
497.44	34747.59
497.62	35314.00
497.79	35292.94
497.97	35136.12
498.14	35637.00
498.32	35852.33
498.50	36055.95
498.67	36261.92
498.85	36378.95
499.03	36643.43
499.20	36470.23
499.38	36385.97
499.56	36673.85
499.73	36910.25
499.91	36608.32
500.08	37556.24
500.26	36882.16
500.44	36999.19
500.61	37668.58
500.79	37120.90
500.97	38078.18
501.14	38361.38
501.32	38052.43
501.49	38607.14
501.67	38370.74
501.84	38902.04
502.02	38675.01
502.20	38326.27
502.37	38740.55
502.55	38927.79
502.72	39058.86
502.90	39463.77
503.07	38810.76
503.25	39346.75
503.43	39625.27
503.60	39548.03
503.78	40004.44
503.95	40020.82
504.13	40301.68
504.30	40210.40
504.48	40187.00
504.65	40311.05
504.83	40624.68
505.01	40816.60
505.18	41090.44
505.36	41340.88
505.53	40568.51
505.71	41574.94
505.88	41390.03
506.06	41240.24
506.23	41434.50
506.41	41563.23
506.58	41464.93
506.76	41942.40
506.93	42167.09
507.11	41872.18
507.28	42045.38
507.46	42010.28
507.63	42539.24
507.81	42883.30
507.98	42466.68
508.16	43154.80
508.33	43129.05
508.50	43065.86
508.68	43505.88
508.85	43655.67
509.03	43161.82
509.20	43962.28
509.38	44170.59
509.55	44247.83
509.73	43952.92
509.90	44212.72
510.08	44275.91
510.25	43789.08
510.42	44713.59
510.60	44488.90
510.77	44928.92
510.95	45474.27
511.12	44952.33
511.30	44292.30
511.47	45071.70
511.64	45605.34
511.82	45492.99
511.99	45415.76
512.17	45918.97
512.34	45738.75
512.51	46047.70
512.69	45830.03
512.86	46270.05
513.04	46426.87
513.21	46354.31
513.38	46712.41
513.56	46511.13
513.73	46361.33
513.90	46525.17
514.08	46752.20
514.25	47187.54
514.43	46997.96
514.60	47339.68
514.77	46976.89
514.95	47405.21
515.12	47320.95
515.29	47463.72
515.47	47538.62
515.64	47812.46
515.81	47529.26
515.99	47854.59
516.16	48238.44
516.33	48395.26
516.51	48196.31
516.68	48252.48
516.85	48294.61
517.03	48673.78
517.20	48587.18
517.37	48385.89
517.54	48638.67
517.72	48493.56
517.89	48736.98
518.06	48928.90
518.24	49050.61
518.41	49141.89
518.58	49270.62
518.75	48725.27
518.93	49439.14
519.10	49106.78
519.27	49434.45
519.45	49282.32
519.62	49792.56
519.79	49478.92
519.96	49687.23
520.14	49696.59
520.31	49867.45
520.48	50223.22
520.65	50375.35
520.83	50323.86
521.00	50162.36
521.17	50424.50
521.34	50068.74
521.52	50230.24
521.69	50213.85
521.86	50794.31
522.03	51030.70
522.20	51222.62
522.38	51126.66
522.55	51117.30
522.72	50899.63
522.89	51358.38
523.07	51290.50
523.24	51332.63
523.41	51468.38
523.58	51077.51
523.75	51866.27
523.92	51526.89
524.10	51599.45
524.27	51915.42
524.44	51604.13
524.61	51770.31
524.78	51934.15
524.96	51798.40
525.13	52037.13
525.30	51987.98
525.47	52273.52
525.64	51983.30
525.81	52390.55
525.98	52390.55
526.16	52325.02
526.33	52062.88
526.50	52884.40
526.67	52573.11
526.84	52381.19
527.01	52383.53
527.18	52638.65
527.36	52732.27
527.53	52889.09
527.70	52989.73
527.87	53169.95
528.04	52853.98
528.21	53158.25
528.38	52961.64
528.55	53448.47
528.72	53256.55
528.89	53247.19
529.07	53169.95
529.24	53111.44
529.41	53329.11
529.58	53546.78
529.75	53701.25
529.92	53556.14
530.09	53598.27
530.26	53792.53
530.43	53841.68
530.60	53621.67
530.77	53755.08
530.94	53921.26
531.11	53586.57
531.28	53858.07
531.46	54005.52
531.63	53932.96
531.80	53961.05
531.97	54073.40
532.14	54248.94
532.31	54220.85
532.48	54417.46
532.65	54403.41
532.82	54178.72
532.99	54543.84
533.16	54248.94
533.33	54686.62
533.50	54571.93
533.67	54461.93
533.84	54342.56
534.01	54541.50
534.18	54639.81
534.35	55164.09
534.52	54972.16
534.69	54794.28
534.86	54878.54
535.03	54850.45
535.20	55152.38
535.37	55100.89
535.54	55187.49
535.71	55093.87
535.88	54960.46
536.05	55227.28
536.22	55208.56
536.38	55569.00
536.55	55503.46
536.72	55356.01
536.89	55246.00
537.06	55412.18
537.23	55482.40
537.40	55304.52
537.57	55433.25
537.74	55468.36
537.91	55793.69
538.08	55730.50
538.25	55463.67
538.42	55611.13
538.59	55842.84
538.75	55803.05
538.92	55950.51
539.09	55980.93
539.26	56086.26
539.43	55957.53
539.60	56102.64
539.77	56264.14
539.94	56151.79
540.11	56030.08
540.28	56126.05
540.44	56119.02
540.61	56385.85
540.78	55936.46
540.95	55999.66
541.12	56027.74
541.29	56427.98
541.46	56200.94
541.62	56418.61
541.79	56519.26
541.96	56186.90
542.13	56317.97
542.30	56561.39
542.47	56596.49
542.63	56577.77
542.80	56692.46
542.97	56598.83
543.14	56910.13
543.31	56877.36
543.48	56954.60
543.64	57207.37
543.81	57336.10
543.98	57141.84
544.15	56837.57
544.32	57172.27
544.48	57279.93
544.65	57155.88
544.82	57490.58
544.99	57029.49
545.16	57312.70
545.32	57415.68
545.49	57609.95
545.66	57427.38
545.83	57244.82
546.00	57528.03
546.16	57513.98
546.33	57422.70
546.50	57240.14
546.67	57474.20
546.83	57308.02
547.00	57453.13
547.17	57588.88
547.34	57654.42
547.50	57745.70
547.67	57806.55
547.84	57928.26
548.00	57958.69
548.17	58131.89
548.34	57834.64
548.51	57858.04
548.67	57914.22
548.84	57965.71
549.01	57822.93
549.18	57811.23
549.34	57893.15
549.51	58244.23
549.68	58096.78
549.84	58080.39
550.01	58365.94
550.18	58141.25
550.34	58171.67
550.51	58267.64
550.68	58227.85
550.84	58021.88
551.01	58225.51
551.18	58202.10
551.34	58548.50
551.51	58162.31
551.68	58431.47
551.84	58349.56
552.01	58143.59
552.18	58328.49
552.34	58447.86
552.51	58618.72
552.68	58347.21
552.84	58529.78
553.01	58834.05
553.18	58656.17
553.34	58656.17
553.51	58560.20
553.67	58855.11
553.84	58824.68
554.01	58782.55
554.17	58908.94
554.34	58948.73
554.51	58752.13
554.67	59063.42
554.84	58869.15
555.00	58763.83
555.17	58599.99
555.33	58702.98
555.50	58976.82
555.67	58721.70
555.83	58812.98
556.00	59009.59
556.16	59112.57
556.33	59250.66
556.50	59089.16
556.66	58997.88
556.83	58752.13
556.99	59185.13
557.16	59465.99
557.32	59451.95
557.49	59414.50
557.65	59035.33
557.82	59147.68
557.98	59166.40
558.15	59238.96
558.32	59248.32
558.48	59295.13
558.65	59189.81
558.81	59437.90
558.98	59306.83
559.14	59271.73
559.31	59320.88
559.47	59505.78
559.64	59461.31
559.80	59402.80
559.97	59580.68
560.13	59391.09
560.30	59475.35
560.46	59435.56
560.63	59498.76
560.79	59660.26
560.96	59543.23
561.12	59522.16
561.29	59742.17
561.45	59627.49
561.61	59608.76
561.78	59568.97
561.94	59594.72
562.11	59667.28
562.27	59580.68
562.44	59709.41
562.60	59707.07
562.77	59730.47
562.93	59730.47
563.10	59723.45
563.26	59526.84
563.42	60111.98
563.59	59817.07
563.75	59817.07
563.92	59870.90
564.08	59826.43
564.24	60076.87
564.41	59798.35
564.57	60189.22
564.74	60069.85
564.90	59994.95
565.07	59943.46
565.23	59880.27
565.39	59924.74
565.56	59980.91
565.72	59945.80
565.88	60140.07
566.05	59997.29
566.21	59992.61
566.38	60074.53
566.54	60004.31
566.70	60067.51
566.87	60212.62
567.03	59891.97
567.19	60294.54
567.36	59929.42
567.52	60156.45
567.68	60477.10
567.85	60025.38
568.01	60217.30
568.17	60226.66
568.34	60214.96
568.50	60058.15
568.66	60037.08
568.83	60250.07
568.99	60058.15
569.15	60154.11
569.32	59997.29
569.48	60254.75
569.64	60399.86
569.81	60193.90
569.97	60238.37
570.13	60458.38
570.30	60205.60
570.46	60430.29
570.62	60409.23
570.78	60353.05
570.95	60350.71
571.11	60420.93
571.27	60280.50
571.43	60282.84
571.60	60575.40
571.76	60355.39
571.92	60353.05
572.09	60512.21
572.25	60425.61
572.41	60273.48
572.57	60420.93
572.74	60575.40
572.90	60439.65
573.06	60458.38
573.22	60467.74
573.38	60378.80
573.55	60441.99
573.71	60591.79
573.87	60575.40
574.03	60465.40
574.20	60540.30
574.36	60458.38
574.52	60690.09
574.68	60638.60
574.84	60608.17
575.01	60617.53
575.17	60243.05
575.33	60446.68
575.49	60603.49
575.65	60402.21
575.82	60612.85
575.98	60736.90
576.14	60603.49
576.30	60654.98
576.46	60743.92
576.62	60708.82
576.79	60500.51
576.95	60456.04
577.11	60720.52
577.27	60650.30
577.43	60575.40
577.59	60636.26
577.75	60427.95
577.92	60516.89
578.08	60608.17
578.24	60622.22
578.40	60884.36
578.56	60823.50
578.72	60577.75
578.88	60793.07
579.04	60907.76
579.21	60650.30
579.37	60823.50
579.53	60704.13
579.69	60491.15
579.85	60605.83
580.01	60413.91
580.17	60484.12
580.33	60727.54
580.49	60746.26
580.65	60669.03
580.82	60584.77
580.98	60537.96
581.14	60657.32
581.30	60910.10
581.46	60844.57
581.62	60760.31
581.78	60666.69
581.94	60832.86
582.10	60505.19
582.26	60685.41
582.42	60816.48
582.58	60664.35
582.74	60867.97
582.90	60776.69
583.06	60942.87
583.22	60561.36
583.38	60720.52
583.54	60582.43
583.70	60844.57
583.86	60715.84
584.02	60647.96
584.18	61013.08
584.34	60767.33
584.50	60956.91
584.66	60633.92
584.82	60484.12
584.98	61038.83
585.14	60940.53
585.30	60619.88
585.46	60851.59
585.62	60893.72
585.78	60947.55
585.94	60589.45
586.10	60720.52
586.26	60786.05
586.42	60818.82
586.58	60907.76
586.74	60741.58
586.90	60910.10
587.06	60786.05
587.22	61057.56
587.38	60867.97
587.54	60931.17
587.70	60942.87
587.86	60790.73
588.02	60867.97
588.18	60970.96
588.34	60980.32
588.49	61064.58
