SpectraSuite Data File
++++++++++++++++++++++++++++++++++++
Date: Fri Oct 25 10:44:28 EDT 2013
User: price-jones
Dark Spectrum Present: No
Reference Spectrum Present: No
Number of Sampled Component Spectra: 1
Spectrometers: USB2+H05261
Integration Time (usec): 100000 (USB2+H05261)
Spectra Averaged: 1 (USB2+H05261)
Boxcar Smoothing: 0 (USB2+H05261)
Correct for Electrical Dark: No (USB2+H05261)
Strobe/Lamp Enabled: No (USB2+H05261)
Correct for Detector Non-linearity: No (USB2+H05261)
Correct for Stray Light: No (USB2+H05261)
Number of Pixels in Processed Spectrum: 2048
>>>>>Begin Processed Spectral Data<<<<<
365.73	161.50
365.92	161.50
366.12	161.50
366.32	4.68
366.52	49.15
366.72	117.03
366.91	39.79
367.11	102.98
367.31	0.00
367.51	0.00
367.70	70.22
367.90	84.26
368.10	0.00
368.30	0.00
368.49	37.45
368.69	49.15
368.89	25.75
369.09	23.41
369.28	37.45
369.48	84.26
369.68	110.01
369.87	121.71
370.07	88.94
370.27	154.48
370.47	196.60
370.66	297.25
370.86	430.66
371.06	484.49
371.25	451.72
371.45	454.06
371.65	435.34
371.84	472.79
372.04	355.76
372.24	498.53
372.44	510.24
372.63	411.93
372.83	449.38
373.03	531.30
373.22	489.17
373.42	568.75
373.62	526.62
373.81	573.43
374.01	554.71
374.21	568.75
374.40	589.82
374.60	573.43
374.79	554.71
374.99	528.96
375.19	610.88
375.38	491.51
375.58	601.52
375.78	660.03
375.97	566.41
376.17	669.39
376.37	547.69
376.56	559.39
376.76	552.37
376.95	641.31
377.15	653.01
377.35	594.50
377.54	662.37
377.74	676.41
377.93	648.33
378.13	683.44
378.33	660.03
378.52	603.86
378.72	615.56
378.91	641.31
379.11	690.46
379.31	657.69
379.50	697.48
379.70	641.31
379.89	638.97
380.09	727.91
380.28	608.54
380.48	695.14
380.68	760.67
380.87	727.91
381.07	594.50
381.26	713.86
381.46	664.71
381.65	709.18
381.85	713.86
382.04	631.94
382.24	730.25
382.43	695.14
382.63	690.46
382.83	683.44
383.02	690.46
383.22	772.38
383.41	699.82
383.61	779.40
383.80	765.36
384.00	770.04
384.19	685.78
384.39	821.53
384.58	770.04
384.78	812.17
384.97	809.83
385.17	730.25
385.36	826.21
385.56	723.23
385.75	791.10
385.95	823.87
386.14	866.00
386.34	919.83
386.53	858.98
386.72	877.70
386.92	891.74
387.11	873.02
387.31	954.94
387.50	802.80
387.70	837.91
387.89	849.61
388.09	919.83
388.28	908.13
388.48	936.21
388.67	891.74
388.86	1020.47
389.06	945.58
389.25	957.28
389.45	1046.22
389.64	919.83
389.84	1015.79
390.03	1060.26
390.22	1001.75
390.42	1013.45
390.61	931.53
390.81	1057.92
391.00	987.71
391.19	1071.97
391.39	1057.92
391.58	1137.50
391.78	1011.11
391.97	992.39
392.16	1027.50
392.36	1102.39
392.55	1011.11
392.75	1008.77
392.94	1043.88
393.13	1001.75
393.33	999.41
393.52	1057.92
393.71	1104.73
393.91	1170.27
394.10	1093.03
394.29	1095.37
394.49	1107.07
394.68	1221.76
394.88	1177.29
395.07	1226.44
395.26	1231.12
395.46	1224.10
395.65	1231.12
395.84	1142.18
396.04	1296.66
396.23	1224.10
396.42	1088.35
396.62	1130.48
396.81	1160.91
397.00	1128.14
397.19	1198.35
397.39	1371.55
397.58	1320.06
397.77	1348.15
397.97	1437.09
398.16	1409.00
398.35	1420.71
398.55	1507.30
398.74	1467.52
398.93	1577.52
399.12	1530.71
399.32	1430.07
399.51	1476.88
399.70	1488.58
399.90	1500.28
400.09	1526.03
400.28	1619.65
400.47	1624.33
400.67	1673.48
400.86	1511.99
401.05	1650.08
401.24	1640.72
401.44	1645.40
401.63	1724.97
401.82	1675.82
402.01	1647.74
402.21	1781.15
402.40	1760.08
402.59	1657.10
402.78	1699.23
402.97	1647.74
403.17	1666.46
403.36	1762.42
403.55	1834.98
403.74	1884.13
403.93	1900.52
404.13	1884.13
404.32	1858.39
404.51	1830.30
404.70	1937.96
404.89	1872.43
405.09	1907.54
405.28	1912.22
405.47	1846.68
405.66	1856.04
405.85	1949.67
406.05	1947.33
406.24	2059.67
406.43	2038.61
406.62	1966.05
406.81	2050.31
407.00	1980.09
407.20	2083.08
407.39	2033.93
407.58	2040.95
407.77	2015.20
407.96	1991.80
408.15	2127.55
408.34	2181.38
408.54	2204.78
408.73	2256.28
408.92	2289.04
409.11	2279.68
409.30	2321.81
409.49	2307.77
409.68	2289.04
409.87	2195.42
410.07	2342.88
410.26	2235.21
410.45	2347.56
410.64	2504.37
410.83	2415.43
411.02	2541.82
411.21	2686.94
411.40	2532.46
411.59	2588.63
411.78	2574.59
411.98	2684.59
412.17	2605.02
412.36	2509.05
412.55	2696.30
412.74	2752.47
412.93	2729.06
413.12	2675.23
413.31	2846.09
413.50	2818.00
413.69	2860.13
413.88	2892.90
414.07	2883.54
414.26	3014.61
414.45	2839.07
414.64	2904.60
414.83	2951.42
415.02	2988.86
415.22	3077.80
415.41	3080.14
415.60	3126.96
415.79	3185.47
415.98	3220.58
416.17	3101.21
416.36	3199.51
416.55	3152.70
416.74	3218.24
416.93	3141.00
417.12	3246.32
417.31	3349.31
417.50	3335.26
417.69	3452.29
417.88	3363.35
418.07	3351.65
418.26	3499.10
418.45	3466.33
418.64	3515.48
418.83	3515.48
419.02	3475.70
419.21	3574.00
419.39	3618.47
419.58	3403.14
419.77	3524.85
419.96	3492.08
420.15	3681.66
420.34	3660.60
420.53	3716.77
420.72	3705.07
420.91	3810.39
421.10	3822.09
421.29	3763.58
421.48	3742.52
421.67	3880.61
421.86	3796.35
422.05	3712.09
422.24	3712.09
422.43	3822.09
422.61	3812.73
422.80	3957.85
422.99	3779.97
423.18	3885.29
423.37	3962.53
423.56	3822.09
423.75	3768.26
423.94	3721.45
424.13	3616.13
424.32	3847.84
424.50	3934.44
424.69	3922.74
424.88	3805.71
425.07	3969.55
425.26	3859.54
425.45	3868.91
425.64	3894.65
425.83	3932.10
426.01	4077.21
426.20	3967.21
426.39	4025.72
426.58	3995.29
426.77	3794.01
426.96	3794.01
427.15	3974.23
427.33	3976.57
427.52	3976.57
427.71	4093.60
427.90	4257.43
428.09	4180.20
428.28	4025.72
428.46	4091.26
428.65	4177.86
428.84	4168.49
429.03	4177.86
429.22	4102.96
429.40	4222.33
429.59	4154.45
429.78	3934.44
429.97	3974.23
430.16	4109.98
430.34	3990.61
430.53	4318.29
430.72	4308.93
430.91	4159.13
431.10	4081.89
431.28	4489.15
431.47	4564.04
431.66	4636.60
431.85	4486.81
432.03	4589.79
432.22	4709.16
432.41	4500.85
432.60	4655.33
432.79	4533.62
432.97	4627.24
433.16	4704.48
433.35	4720.86
433.54	4819.16
433.72	4683.41
433.91	4571.07
434.10	4699.80
434.28	4772.35
434.47	4741.93
434.66	4994.70
434.85	4896.40
435.03	4844.91
435.22	5064.92
435.41	5071.94
435.59	4978.32
435.78	5034.49
435.97	5088.32
436.16	5064.92
436.34	5210.03
436.53	5137.48
436.72	5163.22
436.90	4905.76
437.09	5228.76
437.28	5085.98
437.46	5317.70
437.65	5238.12
437.84	5231.10
438.02	5057.90
438.21	5158.54
438.40	5160.88
438.58	5341.10
438.77	5198.33
438.96	5369.19
439.14	5434.72
439.33	5479.19
439.52	5582.18
439.70	5696.86
439.89	5687.50
440.08	5694.52
440.26	5621.97
440.45	5706.23
440.63	5654.73
440.82	5926.24
441.01	5680.48
441.19	5863.04
441.38	6005.81
441.57	6047.94
441.75	6040.92
441.94	6235.19
442.12	6118.16
442.31	6211.78
442.50	6317.11
442.68	6188.38
442.87	6190.72
443.05	6190.72
443.24	6457.54
443.43	6394.34
443.61	6338.17
443.80	6523.07
443.98	6193.06
444.17	6157.95
444.35	6293.70
444.54	6523.07
444.73	6513.71
444.91	6190.72
445.10	6354.55
445.28	6518.39
445.47	6307.74
445.65	6356.90
445.84	6373.28
446.02	6593.29
446.21	6574.56
446.39	6644.78
446.58	6679.89
446.77	6569.88
446.95	6546.48
447.14	6754.79
447.32	6612.01
447.51	6693.93
447.69	6579.25
447.88	6640.10
448.06	6752.45
448.25	6502.01
448.43	6654.14
448.62	6743.08
448.80	6656.48
448.99	6668.19
449.17	6904.58
449.36	6796.92
449.54	6981.82
449.73	6953.73
449.91	6946.71
450.10	7194.81
450.28	7084.80
450.46	7119.91
450.65	7173.74
450.83	7112.89
451.02	6993.52
451.20	7222.89
451.39	7222.89
451.57	7126.93
451.76	7152.68
451.94	7073.10
452.13	7049.69
452.31	7192.47
452.49	6974.80
452.68	7124.59
452.86	7227.57
453.05	7328.22
453.23	7297.79
453.42	7346.94
453.60	7262.68
453.78	7499.08
453.97	7293.11
454.15	7433.54
454.34	7360.98
454.52	7564.61
454.70	7424.18
454.89	7417.16
455.07	7440.56
455.26	7445.24
455.44	7541.21
455.62	7676.96
455.81	7686.32
455.99	7702.70
456.17	7744.83
456.36	7906.33
456.54	7803.35
456.73	7955.48
456.91	8056.12
457.09	7962.50
457.28	7997.61
457.46	7988.25
457.64	8133.36
457.83	8023.36
458.01	7922.71
458.19	7999.95
458.38	7934.42
458.56	8210.60
458.74	7981.23
458.93	8351.03
459.11	8248.05
459.29	8229.32
459.48	8297.20
459.66	8191.88
459.84	8486.78
460.03	8617.85
460.21	8388.48
460.39	8512.53
460.57	8468.06
460.76	8540.61
460.94	8662.32
461.12	8608.49
461.31	8477.42
461.49	8571.04
461.67	8489.12
461.85	8877.65
462.04	8760.63
462.22	8922.12
462.40	8802.75
462.59	8805.10
462.77	8901.06
462.95	8863.61
463.13	8805.10
463.32	8678.71
463.50	9060.21
463.68	8887.01
463.86	8999.36
464.05	8765.31
464.23	8842.54
464.41	8973.61
464.59	8891.70
464.78	9165.54
464.96	8924.46
465.14	8978.30
465.32	9118.73
465.50	9114.05
465.69	9205.33
465.87	8997.02
466.05	9219.37
466.23	9085.96
466.41	9116.39
466.60	9320.01
466.78	9034.47
466.96	9116.39
467.14	9343.42
467.32	9547.05
467.51	9247.46
467.69	9172.56
467.87	9458.10
468.05	9521.30
468.23	9345.76
468.41	9277.88
468.60	9345.76
468.78	9474.49
468.96	9404.27
469.14	9643.01
469.32	9748.33
469.50	9509.60
469.69	9689.82
469.87	10045.58
470.05	9811.53
470.23	9825.57
470.41	9806.84
470.59	9982.38
470.77	9797.48
470.95	9827.91
471.14	9989.41
471.32	9675.77
471.50	10293.68
471.68	10368.57
471.86	10209.42
472.04	10218.78
472.22	10794.55
472.40	10267.93
472.58	10324.10
472.77	10230.48
472.95	10597.95
473.13	10757.10
473.31	10274.95
473.49	10546.45
473.67	10588.58
473.85	10476.24
474.03	10857.75
474.21	10885.83
474.39	11009.88
474.57	11110.52
474.75	11030.94
474.93	10995.84
475.12	11070.73
475.30	11094.14
475.48	10904.56
475.66	11218.19
475.84	11129.25
476.02	11342.24
476.20	11342.24
476.38	11538.84
476.56	11751.83
476.74	11817.36
476.92	11571.61
477.10	11779.92
477.28	12236.32
477.46	11971.84
477.64	11896.94
477.82	12123.98
478.00	12432.93
478.18	12444.63
478.36	12390.80
478.54	12723.15
478.72	12559.31
478.90	12659.96
479.08	12786.35
479.26	13090.62
479.44	12980.61
479.62	13228.71
479.80	13172.54
479.98	13245.09
480.16	13579.79
480.34	13591.49
480.52	13666.39
480.70	13537.66
480.88	13694.47
481.06	13642.98
481.24	14045.55
481.41	13813.84
481.59	14600.26
481.77	14111.09
481.95	14434.08
482.13	14408.34
482.31	14574.52
482.49	14651.75
482.67	14539.41
482.85	15007.52
483.03	15180.71
483.21	15077.73
483.39	15412.43
483.57	14974.75
483.74	15424.13
483.92	15421.79
484.10	15393.70
484.28	15737.76
484.46	15976.50
484.64	15939.05
484.82	15789.25
485.00	16081.82
485.18	16163.74
485.35	16547.59
485.53	16119.27
485.71	16159.06
485.89	16266.72
486.07	16528.86
486.25	16613.12
486.43	16765.26
486.61	16798.02
486.78	16819.09
486.96	17039.10
487.14	17811.48
487.32	17640.62
487.50	17621.89
487.68	17912.12
487.85	18321.71
488.03	18326.39
488.21	18518.32
488.39	18618.96
488.57	18757.05
488.75	18728.97
488.92	18761.73
489.10	19389.00
489.28	19246.23
489.46	19541.13
489.64	19501.34
489.81	19906.26
489.99	19878.17
490.17	20152.01
490.35	20109.88
490.53	20100.52
490.70	20379.04
490.88	20526.50
491.06	20676.29
491.24	20500.75
491.41	20304.15
491.59	20725.44
491.77	20938.43
491.95	21020.35
492.13	21329.30
492.30	21231.00
492.48	21525.91
492.66	21869.97
492.84	21429.94
493.01	21750.60
493.19	21919.12
493.37	22001.04
493.54	21989.33
493.72	22499.57
493.90	22537.02
494.08	22731.28
494.25	22831.93
494.43	22946.61
494.61	23314.08
494.79	23372.59
494.96	23108.11
495.14	23241.52
495.32	23487.28
495.49	23522.38
495.67	23768.14
495.85	23896.87
496.02	23779.84
496.20	24168.37
496.38	24325.19
496.55	24680.95
496.73	24872.87
496.91	24673.93
497.09	24833.08
497.26	24788.61
497.44	25050.75
497.62	24844.79
497.79	25022.67
497.97	24992.24
498.14	24987.56
498.32	24933.73
498.50	25678.02
498.67	26190.59
498.85	25715.47
499.03	25759.94
499.20	26225.70
499.38	26103.99
499.56	26024.42
499.73	26040.80
499.91	26375.50
500.08	26331.03
500.26	26005.69
500.44	26441.03
500.61	26438.69
500.79	26658.70
500.97	26904.46
501.14	26745.30
501.32	26867.01
501.49	27157.24
501.67	27026.17
501.84	27393.63
502.02	27250.86
502.20	27412.35
502.37	27608.96
502.55	27491.93
502.72	27363.20
502.90	27718.96
503.07	27962.38
503.25	28102.81
503.43	27962.38
503.60	27901.53
503.78	27990.47
503.95	28231.54
504.13	28491.34
504.30	28528.79
504.48	28489.00
504.65	28559.22
504.83	28746.46
505.01	29151.37
505.18	29046.05
505.36	29132.65
505.53	29254.36
505.71	29439.26
505.88	29600.76
506.06	29289.46
506.23	29600.76
506.41	29244.99
506.58	29598.41
506.76	29741.19
506.93	30064.18
507.11	29790.34
507.28	29841.83
507.46	29804.38
507.63	29818.42
507.81	30080.56
507.98	29713.10
508.16	30389.52
508.33	30663.36
508.50	30312.28
508.68	30721.87
508.85	30815.49
509.03	30824.86
509.20	30787.41
509.38	31264.88
509.55	30724.21
509.73	31115.08
509.90	31028.48
510.08	31009.76
510.25	31276.58
510.42	31611.28
510.60	31894.48
510.77	31667.45
510.95	31782.13
511.12	31683.83
511.30	32058.32
511.47	32240.88
511.64	32470.25
511.82	32334.50
511.99	32161.30
512.17	32086.40
512.34	32233.86
512.51	32669.20
512.69	32524.08
512.86	32669.20
513.04	32844.74
513.21	33015.60
513.38	32629.41
513.56	32589.62
513.73	32598.98
513.90	32910.27
514.08	32943.04
514.25	33048.36
514.43	32912.61
514.60	32727.71
514.77	32809.63
514.95	33371.36
515.12	33764.57
515.29	33317.53
515.47	33642.86
515.64	34260.76
515.81	33876.91
515.99	33729.46
516.16	33411.15
516.33	33282.42
516.51	33525.83
516.68	33139.65
516.85	33017.94
517.03	33333.91
517.20	33762.23
517.37	34059.48
517.54	34309.91
517.72	33944.79
517.89	33846.49
518.06	34146.08
518.24	34113.31
518.41	33897.98
518.58	34387.15
518.75	34672.70
518.93	34885.68
519.10	34742.91
519.27	35201.66
519.45	35058.88
519.62	35129.10
519.79	35061.22
519.96	35150.17
520.14	35225.06
520.31	35220.38
520.48	35349.11
520.65	35255.49
520.83	35646.36
521.00	35501.25
521.17	35852.33
521.34	35810.20
521.52	35852.33
521.69	36133.19
521.86	36238.51
522.03	36264.26
522.20	36336.82
522.38	36219.79
522.55	36545.12
522.72	35962.33
522.89	36318.09
523.07	36561.51
523.24	36163.62
523.41	36959.40
523.58	36388.31
523.75	37474.32
523.92	37120.90
524.10	37184.09
524.27	37462.61
524.44	37156.00
524.61	37504.74
524.78	37455.59
524.96	37610.07
525.13	37642.84
525.30	37776.25
525.47	37734.12
525.64	37439.21
525.81	37734.12
525.98	37654.54
526.16	37266.01
526.33	37432.19
526.50	37581.98
526.67	37383.04
526.84	37457.93
527.01	37352.61
527.18	37542.19
527.36	38043.07
527.53	38232.65
527.70	38337.98
527.87	38054.77
528.04	38054.77
528.21	38239.67
528.38	38511.17
528.55	38649.27
528.72	38576.71
528.89	39051.84
529.07	38244.35
529.24	38728.84
529.41	38625.86
529.58	38623.52
529.75	38810.76
529.92	38855.23
530.09	39171.21
530.26	38658.63
530.43	39082.27
530.60	38817.78
530.77	38965.24
530.94	39538.67
531.11	39082.27
531.28	39749.32
531.46	39580.80
531.63	39618.25
531.80	39033.11
531.97	39606.55
532.14	39372.49
532.31	38979.28
532.48	39445.05
532.65	39552.71
532.82	39636.97
532.99	39482.50
533.16	39552.71
533.33	40098.06
533.50	40041.88
533.67	39966.99
533.84	39866.34
534.01	40046.57
534.18	39974.01
534.35	40474.88
534.52	40098.06
534.69	40297.00
534.86	40397.65
535.03	40348.50
535.20	40627.02
535.37	40634.04
535.54	40935.97
535.71	40126.14
535.88	40896.18
536.05	40559.14
536.22	40364.88
536.38	40940.65
536.55	40528.72
536.72	40741.71
536.89	40313.39
537.06	41013.21
537.23	41034.27
537.40	40774.47
537.57	40844.69
537.74	40818.94
537.91	41413.44
538.08	41069.38
538.25	41050.66
538.42	40741.71
538.59	41481.31
538.75	40884.48
538.92	41336.20
539.09	41434.50
539.26	41130.23
539.43	41263.64
539.60	41483.66
539.77	41188.75
539.94	41385.35
540.11	40837.67
540.28	41214.49
540.44	41593.66
540.61	41495.36
540.78	41345.56
540.95	41247.26
541.12	41600.68
541.29	41640.47
541.46	41769.20
541.62	41958.78
541.79	42005.59
541.96	41701.32
542.13	41923.68
542.30	41783.24
542.47	41890.91
542.63	41731.75
542.80	42171.77
542.97	42567.32
543.14	42471.36
543.31	42272.42
543.48	42508.81
543.64	43002.66
543.81	42946.49
543.98	42878.61
544.15	42351.99
544.32	42754.57
544.48	42976.92
544.65	43000.32
544.82	43023.73
544.99	42789.67
545.16	42366.04
545.32	42618.81
545.49	43089.26
545.66	43309.27
545.83	43243.74
546.00	43379.49
546.16	43220.33
546.33	42974.58
546.50	42777.97
546.67	43344.38
546.83	42621.16
547.00	43234.38
547.17	43140.75
547.34	43400.55
547.50	43288.21
547.67	43681.42
547.84	43185.22
548.00	43622.90
548.17	43819.51
548.34	43470.77
548.51	43580.78
548.67	43866.32
548.84	43995.05
549.01	43569.07
549.18	43702.48
549.34	43730.57
549.51	43957.60
549.68	43201.61
549.84	43973.98
550.01	44137.82
550.18	43878.02
550.34	43920.15
550.51	43765.68
550.68	43835.89
550.84	43950.58
551.01	43770.36
551.18	44425.71
551.34	44016.11
551.51	43861.64
551.68	43885.04
551.84	43948.24
552.01	44121.44
552.18	44081.65
552.34	43934.20
552.51	44002.07
552.68	44135.48
552.84	44772.11
553.01	44547.42
553.18	44367.20
553.34	44470.18
553.51	44343.79
553.67	44648.06
553.84	45106.80
554.01	44722.96
554.17	44907.86
554.34	44734.66
554.51	44493.58
554.67	44751.04
554.84	44704.23
555.00	44577.84
555.17	44671.46
555.33	44933.60
555.50	44294.64
555.67	44692.53
555.83	44748.70
556.00	45015.52
556.16	45581.93
556.33	44893.82
556.50	44776.79
556.66	45111.49
556.83	44839.98
556.99	45338.52
557.16	45062.33
557.32	45123.19
557.49	45064.67
557.65	44849.35
557.82	44893.82
557.98	44729.98
558.15	45081.06
558.32	44985.10
558.48	45069.36
558.65	44814.24
558.81	44968.71
558.98	44872.75
559.14	45160.64
559.31	45059.99
559.47	45338.52
559.64	45432.14
559.80	45471.93
559.97	45511.72
560.13	45015.52
560.30	45125.53
560.46	45296.39
560.63	45617.04
560.79	45680.24
560.96	45748.11
561.12	45270.64
561.29	45467.25
561.45	45193.40
561.61	45137.23
561.78	45546.82
561.94	45378.31
562.11	45883.86
562.27	45565.55
562.44	45464.91
562.60	45511.72
562.77	45659.17
562.93	45284.68
563.10	45673.21
563.26	45071.70
563.42	45705.98
563.59	45291.71
563.75	45385.33
563.92	45691.94
564.08	45687.26
564.24	45832.37
564.41	45628.74
564.57	45296.39
564.74	45591.30
564.90	45745.77
565.07	45998.55
565.23	45542.14
565.39	45404.05
565.56	45893.22
565.72	45682.58
565.88	45834.71
566.05	45390.01
566.21	45577.25
566.38	45925.99
566.54	45553.85
566.70	46014.93
566.87	45766.84
567.03	46061.74
567.19	46206.86
567.36	45806.62
567.52	45727.05
567.68	46092.17
567.85	45832.37
568.01	45673.21
568.17	45542.14
568.34	45818.33
568.50	45535.12
568.66	46031.32
568.83	45872.16
568.99	45734.07
569.15	45727.05
569.32	45425.12
569.48	45614.70
569.64	46307.50
569.81	46045.36
569.97	46031.32
570.13	45996.21
570.30	45429.80
570.46	45378.31
570.62	45467.25
570.78	45200.43
570.95	45610.02
571.11	45600.66
571.27	45621.72
571.43	45930.67
571.60	45925.99
571.76	45933.01
571.92	45741.09
572.09	46305.16
572.25	46263.03
572.41	45879.18
572.57	45979.82
572.74	46719.43
572.90	45972.80
573.06	45949.40
573.22	46176.43
573.38	46003.23
573.55	45925.99
573.71	45624.06
573.87	46244.30
574.03	46038.34
574.20	45858.12
574.36	45663.85
574.52	45853.44
574.68	45755.13
574.84	46314.52
575.01	45811.31
575.17	46026.63
575.33	45897.91
575.49	45844.07
575.65	46146.00
575.82	46410.48
575.98	46216.22
576.14	46059.40
576.30	46153.02
576.46	45911.95
576.62	45752.79
576.79	45968.12
576.95	45787.90
577.11	45741.09
577.27	46124.94
577.43	46094.51
577.59	46174.09
577.75	45944.72
577.92	45759.81
578.08	45633.42
578.24	45904.93
578.40	46253.67
578.56	46061.74
578.72	45776.20
578.88	46248.99
579.04	46649.22
579.21	46108.55
579.37	46059.40
579.53	46337.93
579.69	46117.92
579.85	45986.85
580.01	45975.14
580.17	46211.54
580.33	46337.93
580.49	46450.27
580.65	46471.34
580.82	46220.90
580.98	45982.16
581.14	46473.68
581.30	46480.70
581.46	46466.66
581.62	46476.02
581.78	46417.50
581.94	46377.72
582.10	46272.39
582.26	46536.87
582.42	45972.80
582.58	46248.99
582.74	46391.76
582.90	45874.50
583.06	46511.13
583.22	46075.79
583.38	46574.32
583.54	46375.37
583.70	46508.79
583.86	46244.30
584.02	45876.84
584.18	45874.50
584.34	46328.56
584.50	46373.03
584.66	46258.35
584.82	45677.90
584.98	46443.25
585.14	46218.56
585.30	46253.67
585.46	46417.50
585.62	45832.37
585.78	45888.54
585.94	45815.99
586.10	46094.51
586.26	46075.79
586.42	46358.99
586.58	46478.36
586.74	46370.69
586.90	45516.40
587.06	46237.28
587.22	46291.12
587.38	45525.76
587.54	46387.08
587.70	46302.82
587.86	46471.34
588.02	46459.63
588.18	46581.34
588.34	46012.59
588.49	45947.06
588.65	45453.20
588.81	45558.53
588.97	45804.28
589.13	45841.73
589.29	46122.60
589.45	45968.12
589.61	46061.74
589.77	46508.79
589.93	46040.68
