SpectraSuite Data File
++++++++++++++++++++++++++++++++++++
Date: Fri Oct 25 11:34:18 EDT 2013
User: price-jones
Dark Spectrum Present: No
Reference Spectrum Present: No
Number of Sampled Component Spectra: 1
Spectrometers: USB2+H05261
Integration Time (usec): 100000 (USB2+H05261)
Spectra Averaged: 1 (USB2+H05261)
Boxcar Smoothing: 0 (USB2+H05261)
Correct for Electrical Dark: No (USB2+H05261)
Strobe/Lamp Enabled: No (USB2+H05261)
Correct for Detector Non-linearity: No (USB2+H05261)
Correct for Stray Light: No (USB2+H05261)
Number of Pixels in Processed Spectrum: 2048
>>>>>Begin Processed Spectral Data<<<<<
365.73	259.80
365.92	259.80
366.12	259.80
366.32	222.35
366.52	173.20
366.72	159.16
366.91	210.65
367.11	147.45
367.31	131.07
367.51	278.52
367.70	170.86
367.90	170.86
368.10	194.26
368.30	212.99
368.49	149.79
368.69	273.84
368.89	203.63
369.09	229.37
369.28	205.97
369.48	187.24
369.68	189.58
369.87	201.29
370.07	198.95
370.27	276.18
370.47	285.55
370.66	477.47
370.86	531.30
371.06	493.85
371.25	582.79
371.45	531.30
371.65	510.24
371.84	442.36
372.04	550.03
372.24	566.41
372.44	653.01
372.63	702.16
372.83	564.07
373.03	545.34
373.22	578.11
373.42	645.99
373.62	594.50
373.81	578.11
374.01	671.73
374.21	662.37
374.40	580.45
374.60	645.99
374.79	634.29
374.99	650.67
375.19	573.43
375.38	657.69
375.58	650.67
375.78	568.75
375.97	676.41
376.17	685.78
376.37	669.39
376.56	690.46
376.76	716.20
376.95	664.71
377.15	669.39
377.35	758.33
377.54	683.44
377.74	685.78
377.93	655.35
378.13	718.54
378.33	706.84
378.52	664.71
378.72	730.25
378.91	702.16
379.11	678.76
379.31	660.03
379.50	695.14
379.70	683.44
379.89	720.88
380.09	739.61
380.28	727.91
380.48	767.70
380.68	685.78
380.87	681.10
381.07	741.95
381.26	805.14
381.46	753.65
381.65	767.70
381.85	800.46
382.04	767.70
382.24	772.38
382.43	854.30
382.63	706.84
382.83	791.10
383.02	791.10
383.22	861.32
383.41	753.65
383.61	777.06
383.80	812.17
384.00	856.64
384.19	809.83
384.39	812.17
384.58	819.19
384.78	833.23
384.97	901.11
385.17	826.21
385.36	873.02
385.56	828.55
385.75	786.42
385.95	723.23
386.14	856.64
386.34	823.87
386.53	896.43
386.72	873.02
386.92	880.04
387.11	851.96
387.31	905.79
387.50	842.59
387.70	830.89
387.89	800.46
388.09	823.87
388.28	943.24
388.48	875.36
388.67	894.08
388.86	983.02
389.06	940.90
389.25	903.45
389.45	903.45
389.64	840.25
389.84	1050.90
390.03	915.15
390.22	929.19
390.42	891.74
390.61	854.30
390.81	917.49
391.00	936.21
391.19	954.94
391.39	994.73
391.58	983.02
391.78	1046.22
391.97	1081.33
392.16	912.81
392.36	1001.75
392.55	1001.75
392.75	926.85
392.94	990.05
393.13	997.07
393.33	1036.86
393.52	1083.67
393.71	1097.71
393.91	1076.65
394.10	1069.62
394.29	1050.90
394.49	1078.99
394.68	1100.05
394.88	1118.78
395.07	1086.01
395.26	1184.31
395.46	1060.26
395.65	1188.99
395.84	1132.82
396.04	1198.35
396.23	1109.41
396.42	1139.84
396.62	1210.06
396.81	1212.40
397.00	1158.57
397.19	1254.53
397.39	1160.91
397.58	1242.82
397.77	1203.04
397.97	1203.04
398.16	1219.42
398.35	1289.64
398.55	1252.19
398.74	1219.42
398.93	1350.49
399.12	1224.10
399.32	1221.76
399.51	1310.70
399.70	1261.55
399.90	1303.68
400.09	1310.70
400.28	1294.32
400.47	1324.74
400.67	1380.92
400.86	1355.17
401.05	1418.36
401.24	1355.17
401.44	1350.49
401.63	1418.36
401.82	1359.85
402.01	1411.34
402.21	1434.75
402.40	1341.13
402.59	1369.21
402.78	1441.77
402.97	1413.68
403.17	1509.65
403.36	1603.27
403.55	1535.39
403.74	1481.56
403.93	1577.52
404.13	1621.99
404.32	1614.97
404.51	1547.09
404.70	1589.22
404.89	1479.22
405.09	1739.02
405.28	1572.84
405.47	1619.65
405.66	1703.91
405.85	1694.55
406.05	1645.40
406.24	1682.85
406.43	1720.29
406.62	1806.89
406.81	1750.72
407.00	1732.00
407.20	1636.03
407.39	1708.59
407.58	1783.49
407.77	1706.25
407.96	1818.60
408.15	1865.41
408.34	1769.44
408.54	1839.66
408.73	1877.11
408.92	1851.36
409.11	1846.68
409.30	1954.35
409.49	1928.60
409.68	2001.16
409.87	1926.26
410.07	1968.39
410.26	2054.99
410.45	1935.62
410.64	2012.86
410.83	2036.27
411.02	2101.80
411.21	2073.71
411.40	2108.82
411.59	2134.57
411.78	2113.50
411.98	2083.08
412.17	2204.78
412.36	2275.00
412.55	2258.62
412.74	2312.45
412.93	2300.75
413.12	2148.61
413.31	2366.28
413.50	2326.49
413.69	2459.90
413.88	2415.43
414.07	2436.50
414.26	2452.88
414.45	2387.35
414.64	2469.27
414.83	2495.01
415.02	2389.69
415.22	2626.08
415.41	2588.63
415.60	2537.14
415.79	2628.42
415.98	2651.83
416.17	2724.38
416.36	2635.44
416.55	2609.70
416.74	2738.43
416.93	2656.51
417.12	2693.96
417.31	2792.26
417.50	2712.68
417.69	2806.30
417.88	2846.09
418.07	2888.22
418.26	2855.45
418.45	2860.13
418.64	2984.18
418.83	2998.23
419.02	3054.40
419.21	3016.95
419.39	3073.12
419.58	3056.74
419.77	3040.36
419.96	3143.34
420.15	3073.12
420.34	2977.16
420.53	3075.46
420.72	3063.76
420.91	3082.49
421.10	3122.27
421.29	3234.62
421.48	3279.09
421.67	3241.64
421.86	3115.25
422.05	3227.60
422.24	3246.32
422.43	3274.41
422.61	3276.75
422.80	3332.92
422.99	3239.30
423.18	3276.75
423.37	3304.84
423.56	3344.63
423.75	3274.41
423.94	3087.17
424.13	3040.36
424.32	3281.43
424.50	3246.32
424.69	3370.37
424.88	3265.05
425.07	3356.33
425.26	3258.03
425.45	3368.03
425.64	3307.18
425.83	3356.33
426.01	3368.03
426.20	3499.10
426.39	3489.74
426.58	3286.11
426.77	3361.01
426.96	3452.29
427.15	3485.06
427.33	3520.17
427.52	3543.57
427.71	3637.19
427.90	3541.23
428.09	3606.77
428.28	3559.95
428.46	3595.06
428.65	3501.44
428.84	3709.75
429.03	3737.84
429.22	3665.28
429.40	3658.26
429.59	3702.73
429.78	3595.06
429.97	3599.74
430.16	3576.34
430.34	3770.60
430.53	3801.03
430.72	3740.18
430.91	3892.31
431.10	3805.71
431.28	3840.82
431.47	3920.40
431.66	3929.76
431.85	3829.12
432.03	3939.12
432.22	3911.04
432.41	3943.80
432.60	3889.97
432.79	3892.31
432.97	4053.81
433.16	4067.85
433.35	4009.34
433.54	4004.66
433.72	4145.09
433.91	4077.21
434.10	4051.47
434.28	4072.53
434.47	4126.36
434.66	4131.05
434.85	4161.47
435.03	4100.62
435.22	4180.20
435.41	4332.33
435.59	4262.12
435.78	4182.54
435.97	4196.58
436.16	4290.20
436.34	4273.82
436.53	4285.52
436.72	4484.47
436.90	4416.59
437.09	4388.50
437.28	4348.72
437.46	4423.61
437.65	4564.04
437.84	4400.21
438.02	4535.96
438.21	4627.24
438.40	4519.57
438.58	4533.62
438.77	4711.50
438.96	4428.29
439.14	4793.42
439.33	4784.06
439.52	4854.27
439.70	4823.84
439.89	4877.68
440.08	4887.04
440.26	4847.25
440.45	4924.49
440.63	4922.15
440.82	5088.32
441.01	4915.12
441.19	5125.77
441.38	5034.49
441.57	5015.77
441.75	5231.10
441.94	5083.64
442.12	5083.64
442.31	5242.80
442.50	5111.73
442.68	5301.31
442.87	5341.10
443.05	5256.84
443.24	5458.13
443.43	5399.62
443.61	5427.70
443.80	5451.11
443.98	5348.12
444.17	5083.64
444.35	5420.68
444.54	5486.22
444.73	5408.98
444.91	5357.49
445.10	5565.79
445.28	5425.36
445.47	5376.21
445.65	5418.34
445.84	5490.90
446.02	5638.35
446.21	5427.70
446.39	5469.83
446.58	5542.39
446.77	5401.96
446.95	5446.43
447.14	5600.90
447.32	5631.33
447.51	5605.58
447.69	5530.69
447.88	5481.53
448.06	5479.19
448.25	5668.78
448.43	5654.73
448.62	5614.95
448.80	5626.65
448.99	5626.65
449.17	5582.18
449.36	5689.84
449.54	5753.04
449.73	6031.56
449.91	6033.90
450.10	5919.21
450.28	5881.77
450.46	6052.63
450.65	6139.23
450.83	5968.37
451.02	5863.04
451.20	6038.58
451.39	5949.64
451.57	6045.60
451.76	5893.47
451.94	6207.10
452.13	6057.31
452.31	6181.35
452.49	5933.26
452.68	6153.27
452.86	6115.82
453.05	6216.46
453.23	6377.96
453.42	6169.65
453.60	6122.84
453.78	6293.70
453.97	6202.42
454.15	6125.18
454.34	6188.38
454.52	6338.17
454.70	6333.49
454.89	6452.86
455.07	6328.81
455.26	6370.94
455.44	6487.96
455.62	6370.94
455.81	6518.39
455.99	6445.84
456.17	6551.16
456.36	6455.20
456.54	6677.55
456.73	6626.06
456.91	6913.94
457.09	6768.83
457.28	6836.70
457.46	6719.68
457.64	6977.14
457.83	6787.55
458.01	6754.79
458.19	6846.07
458.38	6963.09
458.56	7016.93
458.74	6904.58
458.93	6916.28
459.11	7122.25
459.29	7091.82
459.48	7096.50
459.66	6953.73
459.84	7096.50
460.03	7309.49
460.21	7124.59
460.39	7073.10
460.57	7234.60
460.76	7452.27
460.94	7117.57
461.12	7267.36
461.31	7276.73
461.49	7379.71
461.67	7304.81
461.85	7503.76
462.04	7522.48
462.22	7793.98
462.40	7426.52
462.59	7646.53
462.77	7332.90
462.95	7597.38
463.13	7515.46
463.32	7639.51
463.50	7583.34
463.68	7744.83
463.86	7569.29
464.05	7625.47
464.23	7609.08
464.41	7644.19
464.59	7646.53
464.78	7723.77
464.96	7777.60
465.14	7726.11
465.32	7737.81
465.50	7819.73
465.69	7709.72
465.87	7864.20
466.05	7896.97
466.23	7932.08
466.41	7908.67
466.60	8088.89
466.78	7894.63
466.96	7911.01
467.14	8002.29
467.32	8063.15
467.51	8212.94
467.69	8004.63
467.87	7964.84
468.05	8159.11
468.23	7943.78
468.41	8018.68
468.60	8336.99
468.78	8205.92
468.96	7983.57
469.14	8372.10
469.32	8395.50
469.50	8339.33
469.69	8479.76
469.87	8393.16
470.05	8177.83
470.23	8542.96
470.41	8538.27
470.59	8510.19
470.77	8404.86
470.95	8620.19
471.14	8702.11
471.32	8589.77
471.50	8650.62
471.68	8805.10
471.86	9034.47
472.04	9015.74
472.22	8947.87
472.40	8870.63
472.58	8755.94
472.77	9050.85
472.95	8978.30
473.13	9345.76
473.31	9158.52
473.49	9235.75
473.67	9214.69
473.85	9373.85
474.03	9373.85
474.21	9488.53
474.39	9308.31
474.57	9640.67
474.75	9497.89
474.93	9533.00
475.12	9657.05
475.30	9668.75
475.48	9729.61
475.66	9900.47
475.84	9647.69
476.02	9942.60
476.20	10073.67
476.38	10242.18
476.56	10209.42
476.74	10391.98
476.92	10134.52
477.10	10017.49
477.28	10408.36
477.46	10031.54
477.64	10328.78
477.82	10787.53
478.00	10710.29
478.18	10855.40
478.36	10934.98
478.54	10881.15
478.72	10836.68
478.90	11035.63
479.08	11234.57
479.26	11194.78
479.44	11480.33
479.62	11274.36
479.80	11672.25
479.98	11569.27
480.16	11761.19
480.34	11698.00
480.52	11868.86
480.70	11978.86
480.88	11564.59
481.06	12016.31
481.24	11850.13
481.41	12175.47
481.59	12273.77
481.77	12395.48
481.95	12451.65
482.13	12746.56
482.31	12718.47
482.49	12793.37
482.67	13043.81
482.85	13022.74
483.03	13015.72
483.21	13099.98
483.39	13469.78
483.57	13312.97
483.74	13516.59
483.92	13638.30
484.10	13516.59
484.28	13881.72
484.46	13965.98
484.64	14300.67
484.82	13937.89
485.00	14204.71
485.18	14033.85
485.35	14663.46
485.53	14455.15
485.71	15019.22
485.89	15012.20
486.07	14588.56
486.25	14799.21
486.43	15279.02
486.61	15367.96
486.78	15187.74
486.96	15412.43
487.14	15536.48
487.32	15627.76
487.50	15854.79
487.68	15985.86
487.85	16027.99
488.03	16051.39
488.21	16505.46
488.39	16500.78
488.57	16570.99
488.75	16542.91
488.92	16739.51
489.10	17144.42
489.28	16994.63
489.46	16959.52
489.64	17160.81
489.81	17617.21
489.99	17329.33
490.17	17446.35
490.35	17972.97
490.53	18012.76
490.70	17895.74
490.88	17928.50
491.06	18621.30
491.24	18380.23
491.41	18111.07
491.59	18544.06
491.77	18445.76
491.95	18927.91
492.13	18714.92
492.30	19129.20
492.48	18970.04
492.66	19070.68
492.84	19147.92
493.01	19503.68
493.19	19339.85
493.37	19836.04
493.54	19669.86
493.72	19943.70
493.90	19798.59
494.08	20032.65
494.25	20133.29
494.43	20339.26
494.61	20325.21
494.79	20704.38
494.96	20292.44
495.14	20580.33
495.32	21118.65
495.49	21076.52
495.67	21289.51
495.85	21558.67
496.02	21238.02
496.20	21425.26
496.38	21628.89
496.55	21582.08
496.73	22349.78
496.91	21942.52
497.09	22211.68
497.26	22089.98
497.44	22181.26
497.62	22197.64
497.79	23061.30
497.97	22455.10
498.14	22782.77
498.32	22806.18
498.50	22946.61
498.67	23290.67
498.85	23073.00
499.03	22874.06
499.20	23548.13
499.38	23194.71
499.56	23566.85
499.73	23990.49
499.91	23716.65
500.08	23917.93
500.26	23957.72
500.44	23845.38
500.61	24182.42
500.79	24299.44
500.97	24236.25
501.14	24594.35
501.32	24556.90
501.49	24247.95
501.67	24748.82
501.84	24648.18
502.02	24840.11
502.20	24877.55
502.37	24999.26
502.55	25207.57
502.72	25060.12
502.90	25214.59
503.07	24840.11
503.25	25418.22
503.43	25298.85
503.60	25741.21
503.78	25699.08
503.95	25837.17
504.13	25722.49
504.30	25792.70
504.48	25951.86
504.65	26017.40
504.83	26237.41
505.01	26064.21
505.18	26511.25
505.36	26499.55
505.53	25975.27
505.71	26356.77
505.88	26937.23
506.06	26235.06
506.23	26611.89
506.41	26525.29
506.58	27021.48
506.76	27129.15
506.93	27285.97
507.11	26843.60
507.28	27218.09
507.46	27040.21
507.63	27520.02
507.81	27447.46
507.98	27321.07
508.16	27435.76
508.33	27807.90
508.50	27740.03
508.68	27587.89
508.85	28259.63
509.03	27868.76
509.20	28053.66
509.38	28290.06
509.55	28570.92
509.73	28355.59
509.90	28683.27
510.08	28510.07
510.25	28599.01
510.42	28545.17
510.60	28769.86
510.77	28533.47
510.95	29312.87
511.12	29064.77
511.30	29017.96
511.47	29076.48
511.64	29544.58
511.82	29532.88
511.99	29305.85
512.17	29457.98
512.34	29685.01
512.51	29944.81
512.69	30209.29
512.86	29949.50
513.04	29958.86
513.21	30066.52
513.38	30129.72
513.56	30267.81
513.73	30178.87
513.90	30150.78
514.08	29970.56
514.25	30761.66
514.43	30464.41
514.60	30609.53
514.77	30394.20
514.95	30595.48
515.12	30312.28
515.29	30859.96
515.47	30778.04
515.64	31180.62
515.81	30703.15
515.99	30991.03
516.16	31271.90
516.33	31229.77
516.51	31299.98
516.68	31323.39
516.85	31267.22
517.03	31473.18
517.20	31393.61
517.37	31723.62
517.54	31414.67
517.72	32060.66
517.89	32123.85
518.06	32250.24
518.24	32208.11
518.41	31882.78
518.58	32198.75
518.75	31470.84
518.93	32109.81
519.10	31857.03
519.27	32533.45
519.45	32510.04
519.62	32615.37
519.79	32580.26
519.96	33006.23
520.14	32938.36
520.31	32762.82
520.48	32964.10
520.65	33071.77
520.83	33294.12
521.00	33230.93
521.17	33329.23
521.34	33067.09
521.52	33291.78
521.69	33493.07
521.86	33603.07
522.03	33511.79
522.20	33970.54
522.38	34078.20
522.55	34132.03
522.72	33673.29
522.89	33790.31
523.07	34015.01
523.24	34005.64
523.41	34005.64
523.58	34225.65
523.75	34335.66
523.92	34401.19
524.10	34586.10
524.27	34433.96
524.44	34436.30
524.61	34352.04
524.78	34890.37
524.96	35098.67
525.13	34873.98
525.30	34962.92
525.47	35058.88
525.64	34335.66
525.81	35225.06
525.98	35133.78
526.16	35035.48
526.33	34946.54
526.50	35482.52
526.67	34904.41
526.84	35564.44
527.01	35208.68
527.18	35323.36
527.36	35957.65
527.53	35714.23
527.70	35875.73
527.87	36364.90
528.04	35683.81
528.21	35943.61
528.38	35967.01
528.55	36306.39
528.72	36172.98
528.89	36196.38
529.07	36016.16
529.24	35620.61
529.41	36467.89
529.58	36112.13
529.75	36290.01
529.92	36451.50
530.09	36290.01
530.26	36325.11
530.43	36446.82
530.60	36545.12
530.77	36711.30
530.94	36657.47
531.11	36627.04
531.28	36851.73
531.46	36865.78
531.63	37251.97
531.80	36662.15
531.97	37368.99
532.14	37104.51
532.31	37390.06
532.48	37130.26
532.65	37378.36
532.82	37123.24
532.99	37308.14
533.16	36982.80
533.33	37493.04
533.50	37235.58
533.67	37645.18
533.84	37546.87
534.01	37572.62
534.18	37556.24
534.35	37801.99
534.52	38384.79
534.69	38174.14
534.86	38064.13
535.03	38043.07
535.20	38380.10
535.37	38052.43
535.54	38443.30
535.71	38150.73
535.88	38192.86
536.05	38300.53
536.22	38061.79
536.38	38955.88
536.55	38298.19
536.72	38040.73
536.89	37827.74
537.06	38522.88
537.23	38897.36
537.40	38234.99
537.57	38529.90
537.74	38305.21
537.91	38862.26
538.08	38672.67
538.25	38490.11
538.42	38937.15
538.59	39154.82
538.75	38843.53
538.92	39225.04
539.09	39365.47
539.26	38789.70
539.43	39089.29
539.60	39154.82
539.77	39096.31
539.94	39225.04
540.11	39407.60
540.28	39674.42
540.44	39578.46
540.61	39271.85
540.78	39842.94
540.95	39550.37
541.12	39431.01
541.29	39690.80
541.46	39721.23
541.62	39533.99
541.79	39735.27
541.96	39676.76
542.13	39571.44
542.30	39847.62
542.47	40105.08
542.63	39817.19
542.80	40116.78
542.97	40432.75
543.14	40226.79
543.31	40802.56
543.48	40369.56
543.64	40519.35
543.81	40821.28
543.98	40587.23
544.15	40842.35
544.32	40849.37
544.48	41017.89
544.65	40725.32
544.82	40610.64
544.99	40591.91
545.16	40814.26
545.32	40744.05
545.49	41207.47
545.66	41514.08
545.83	41015.55
546.00	41436.84
546.16	40818.94
546.33	40872.78
546.50	41631.11
546.67	41464.93
546.83	40612.98
547.00	41256.62
547.17	40907.88
547.34	41448.55
547.50	41748.14
547.67	41933.04
547.84	41572.60
548.00	41956.44
548.17	41715.37
548.34	41916.65
548.51	41996.23
548.67	41624.09
548.84	41724.73
549.01	41413.44
549.18	41801.97
549.34	42096.88
549.51	42155.39
549.68	42281.78
549.84	42080.49
550.01	41951.76
550.18	42036.02
550.34	42370.72
550.51	42312.20
550.68	42539.24
550.84	42220.92
551.01	42153.05
551.18	41933.04
551.34	42326.25
551.51	42415.19
551.68	42375.40
551.84	42829.46
552.01	42312.20
552.18	42726.48
552.34	42670.31
552.51	43065.86
552.68	42728.82
552.84	42951.17
553.01	42855.21
553.18	43377.15
553.34	42588.39
553.51	42611.79
553.67	43103.31
553.84	42721.80
554.01	43213.31
554.17	43295.23
554.34	43215.65
554.51	42859.89
554.67	43311.61
554.84	43737.59
555.00	43178.20
555.17	43110.33
555.33	43271.82
555.50	43440.34
555.67	43342.04
555.83	43358.42
556.00	43262.46
556.16	43456.73
556.33	43374.81
556.50	43470.77
556.66	43164.16
556.83	43529.28
556.99	43681.42
557.16	43868.66
557.32	43978.67
557.49	43821.85
557.65	43662.69
557.82	43573.75
557.98	43608.86
558.15	43913.13
558.32	43601.84
558.48	43880.36
558.65	43906.11
558.81	44301.66
558.98	44201.02
559.14	43945.90
559.31	44163.57
559.47	43896.75
559.64	44186.97
559.80	44247.83
559.97	43505.88
560.13	43765.68
560.30	43828.87
560.46	44421.03
560.63	44516.99
560.79	44364.85
560.96	44481.88
561.12	44030.16
561.29	44313.36
561.45	44217.40
561.61	44266.55
561.78	44151.87
561.94	44151.87
562.11	44348.47
562.27	44549.76
562.44	44751.04
562.60	44516.99
562.77	44226.76
562.93	44512.31
563.10	44587.21
563.26	44086.33
563.42	44713.59
563.59	44048.88
563.75	44072.29
563.92	44626.99
564.08	44758.06
564.24	44924.24
564.41	44060.58
564.57	44746.36
564.74	45064.67
564.90	44406.98
565.07	44938.29
565.23	44524.01
565.39	44837.64
565.56	44753.38
565.72	44650.40
565.88	44397.62
566.05	44783.81
566.21	44940.63
566.38	44657.42
566.54	45034.25
566.70	44966.37
566.87	45099.78
567.03	44645.72
567.19	45179.36
567.36	44608.27
567.52	45441.50
567.68	45200.43
567.85	45024.89
568.01	45022.54
568.17	44575.50
568.34	45214.47
568.50	45111.49
568.66	44978.07
568.83	44982.76
568.99	45095.10
569.15	45153.62
569.32	45074.04
569.48	44872.75
569.64	45357.24
569.81	45392.35
569.97	45076.38
570.13	45404.05
570.30	45141.91
570.46	45127.87
570.62	45483.63
570.78	45174.68
570.95	45457.88
571.11	45336.18
571.27	44947.65
571.43	45441.50
571.60	45230.85
571.76	45237.87
571.92	45200.43
572.09	45146.59
572.25	45125.53
572.41	45537.46
572.57	45497.67
572.74	45645.13
572.90	45329.16
573.06	45560.87
573.22	45867.48
573.38	45830.03
573.55	45612.36
573.71	45881.52
573.87	45542.14
574.03	45661.51
574.20	45808.96
574.36	45127.87
574.52	45485.97
574.68	45755.13
574.84	45862.80
575.01	45755.13
575.17	45801.94
575.33	46043.02
575.49	45308.09
575.65	45792.58
575.82	45563.21
575.98	45642.79
576.14	45851.09
576.30	45329.16
576.46	45595.98
576.62	45532.78
576.79	45532.78
576.95	45429.80
577.11	45390.01
577.27	45731.73
577.43	45860.46
577.59	45605.34
577.75	45731.73
577.92	45666.19
578.08	45448.52
578.24	45553.85
578.40	45748.11
578.56	45691.94
578.72	45914.29
578.88	45593.64
579.04	45567.89
579.21	45436.82
579.37	45790.24
579.53	45626.40
579.69	45537.46
579.85	45394.69
580.01	45284.68
580.17	45455.54
580.33	45942.38
580.49	45663.85
580.65	45542.14
580.82	45663.85
580.98	45862.80
581.14	45474.27
581.30	45808.96
581.46	45874.50
581.62	45418.10
581.78	45497.67
581.94	45968.12
582.10	45738.75
582.26	45918.97
582.42	45776.20
582.58	45490.65
582.74	45820.67
582.90	45738.75
583.06	46342.61
583.22	45656.83
583.38	45846.41
583.54	45897.91
583.70	45975.14
583.86	46387.08
584.02	45556.19
584.18	46312.18
584.34	46239.62
584.50	46382.40
584.66	46153.02
584.82	46134.30
584.98	46326.22
585.14	46382.40
585.30	45820.67
585.46	45944.72
585.62	46129.62
585.78	46347.29
585.94	45291.71
586.10	46300.48
586.26	45954.08
586.42	45818.33
586.58	45680.24
586.74	45911.95
586.90	45844.07
587.06	45855.78
587.22	46066.42
587.38	46096.85
587.54	46366.01
587.70	46293.46
587.86	46082.81
588.02	45567.89
588.18	45909.61
588.34	45815.99
588.49	45954.08
588.65	45645.13
588.81	45811.31
588.97	46131.96
589.13	46031.32
589.29	46190.47
589.45	46504.10
589.61	46218.56
589.77	46354.31
589.93	46344.95
590.08	46237.28
