SpectraSuite Data File
++++++++++++++++++++++++++++++++++++
Date: Fri Oct 25 11:23:40 EDT 2013
User: price-jones
Dark Spectrum Present: No
Reference Spectrum Present: No
Number of Sampled Component Spectra: 1
Spectrometers: USB2+H05261
Integration Time (usec): 100000 (USB2+H05261)
Spectra Averaged: 1 (USB2+H05261)
Boxcar Smoothing: 0 (USB2+H05261)
Correct for Electrical Dark: No (USB2+H05261)
Strobe/Lamp Enabled: No (USB2+H05261)
Correct for Detector Non-linearity: No (USB2+H05261)
Correct for Stray Light: No (USB2+H05261)
Number of Pixels in Processed Spectrum: 2048
>>>>>Begin Processed Spectral Data<<<<<
365.73	264.48
365.92	264.48
366.12	264.48
366.32	135.75
366.52	135.75
366.72	149.79
366.91	117.03
367.11	142.77
367.31	168.52
367.51	112.35
367.70	138.09
367.90	145.11
368.10	70.22
368.30	46.81
368.49	93.62
368.69	114.69
368.89	180.22
369.09	95.96
369.28	166.18
369.48	107.66
369.68	175.54
369.87	138.09
370.07	203.63
370.27	168.52
370.47	271.50
370.66	521.94
370.86	678.76
371.06	667.05
371.25	645.99
371.45	695.14
371.65	718.54
371.84	657.69
372.04	713.86
372.24	704.50
372.44	784.08
372.63	732.59
372.83	709.18
373.03	802.80
373.22	744.29
373.42	732.59
373.62	772.38
373.81	814.51
374.01	870.68
374.21	744.29
374.40	746.63
374.60	903.45
374.79	833.23
374.99	730.25
375.19	912.81
375.38	877.70
375.58	788.76
375.78	835.57
375.97	910.47
376.17	844.93
376.37	877.70
376.56	987.71
376.76	882.38
376.95	896.43
377.15	873.02
377.35	840.25
377.54	870.68
377.74	933.87
377.93	866.00
378.13	940.90
378.33	926.85
378.52	866.00
378.72	823.87
378.91	833.23
379.11	954.94
379.31	896.43
379.50	950.26
379.70	954.94
379.89	966.64
380.09	945.58
380.28	894.08
380.48	1013.45
380.68	1025.15
380.87	931.53
381.07	999.41
381.26	992.39
381.46	992.39
381.65	1022.81
381.85	997.07
382.04	1041.54
382.24	1034.52
382.43	997.07
382.63	1043.88
382.83	1146.86
383.02	1011.11
383.22	1167.93
383.41	954.94
383.61	1055.58
383.80	1116.44
384.00	1130.48
384.19	1102.39
384.39	1132.82
384.58	1137.50
384.78	1121.12
384.97	1055.58
385.17	1025.15
385.36	1116.44
385.56	1242.82
385.75	1212.40
385.95	1144.52
386.14	1219.42
386.34	1224.10
386.53	1217.08
386.72	1256.87
386.92	1188.99
387.11	1336.45
387.31	1411.34
387.50	1247.51
387.70	1238.14
387.89	1259.21
388.09	1273.25
388.28	1287.29
388.48	1364.53
388.67	1296.66
388.86	1352.83
389.06	1270.91
389.25	1331.76
389.45	1404.32
389.64	1404.32
389.84	1397.30
390.03	1364.53
390.22	1465.18
390.42	1306.02
390.61	1350.49
390.81	1434.75
391.00	1383.26
391.19	1448.79
391.39	1502.62
391.58	1404.32
391.78	1371.55
391.97	1401.98
392.16	1472.20
392.36	1406.66
392.55	1577.52
392.75	1493.26
392.94	1502.62
393.13	1593.90
393.33	1544.75
393.52	1572.84
393.71	1572.84
393.91	1570.50
394.10	1568.16
394.29	1563.48
394.49	1593.90
394.68	1675.82
394.88	1619.65
395.07	1685.19
395.26	1610.29
395.46	1610.29
395.65	1753.06
395.84	1764.76
396.04	1753.06
396.23	1820.94
396.42	1692.21
396.62	1715.61
396.81	1851.36
397.00	1797.53
397.19	1816.26
397.39	1820.94
397.58	1806.89
397.77	1806.89
397.97	1820.94
398.16	1830.30
398.35	1921.58
398.55	1877.11
398.74	1926.26
398.93	1949.67
399.12	1994.14
399.32	1919.24
399.51	2031.58
399.70	1966.05
399.90	1980.09
400.09	1954.35
400.28	2015.20
400.47	1977.75
400.67	2139.25
400.86	2113.50
401.05	2120.53
401.24	2029.24
401.44	2047.97
401.63	2155.63
401.82	2200.10
402.01	2047.97
402.21	2186.06
402.40	2167.34
402.59	2272.66
402.78	2214.15
402.97	2237.55
403.17	2260.96
403.36	2263.30
403.55	2214.15
403.74	2305.43
403.93	2326.49
404.13	2324.15
404.32	2338.20
404.51	2375.64
404.70	2462.24
404.89	2377.98
405.09	2436.50
405.28	2473.95
405.47	2511.39
405.66	2527.78
405.85	2562.89
406.05	2544.16
406.24	2476.29
406.43	2490.33
406.62	2698.64
406.81	2796.94
407.00	2612.04
407.20	2469.27
407.39	2628.42
407.58	2750.13
407.77	2715.02
407.96	2689.28
408.15	2745.45
408.34	2684.59
408.54	2764.17
408.73	2750.13
408.92	2829.71
409.11	2916.31
409.30	2899.92
409.49	2888.22
409.68	3016.95
409.87	2906.95
410.07	2993.55
410.26	2942.05
410.45	3082.49
410.64	3101.21
410.83	2998.23
411.02	2963.12
411.21	3220.58
411.40	3239.30
411.59	3255.69
411.78	3211.22
411.98	3225.26
412.17	3316.54
412.36	3190.15
412.55	3258.03
412.74	3342.28
412.93	3279.09
413.12	3349.31
413.31	3496.76
413.50	3508.46
413.69	3400.80
413.88	3583.36
414.07	3606.77
414.26	3618.47
414.45	3674.64
414.64	3709.75
414.83	3920.40
415.02	3728.47
415.22	3840.82
415.41	3899.33
415.60	3864.22
415.79	3845.50
415.98	3838.48
416.17	3946.14
416.36	4009.34
416.55	3992.95
416.74	4112.32
416.93	4025.72
417.12	4023.38
417.31	4210.62
417.50	4107.64
417.69	4257.43
417.88	4243.39
418.07	4245.73
418.26	4203.60
418.45	4245.73
418.64	4418.93
418.83	4451.70
419.02	4383.82
419.21	4510.21
419.39	4559.36
419.58	4376.80
419.77	4477.44
419.96	4578.09
420.15	4449.36
420.34	4596.81
420.53	4585.11
420.72	4645.96
420.91	4676.39
421.10	4603.83
421.29	4788.74
421.48	4627.24
421.67	4833.21
421.86	4624.90
422.05	4826.18
422.24	4828.53
422.43	4917.47
422.61	4819.16
422.80	4889.38
422.99	4828.53
423.18	4880.02
423.37	5116.41
423.56	4868.31
423.75	4880.02
423.94	4896.40
424.13	4671.71
424.32	4779.37
424.50	5109.39
424.69	5172.58
424.88	5146.84
425.07	5008.75
425.26	4840.23
425.45	4947.89
425.64	4983.00
425.83	5095.35
426.01	4957.25
426.20	5085.98
426.39	4954.91
426.58	5041.51
426.77	5111.73
426.96	5114.07
427.15	5181.95
427.33	4947.89
427.52	5214.71
427.71	5371.53
427.90	5226.42
428.09	5268.55
428.28	5348.12
428.46	5329.40
428.65	5310.68
428.84	5518.98
429.03	5572.82
429.22	5284.93
429.40	5327.06
429.59	5537.71
429.78	5385.57
429.97	5343.44
430.16	5547.07
430.34	5547.07
430.53	5668.78
430.72	5640.69
430.91	5598.56
431.10	5628.99
431.28	5720.27
431.47	5762.40
431.66	5806.87
431.85	5771.76
432.03	5827.93
432.22	6003.47
432.41	5881.77
432.60	6003.47
432.79	6043.26
432.97	5991.77
433.16	6078.37
433.35	6207.10
433.54	6157.95
433.72	6094.76
433.91	6129.86
434.10	6120.50
434.28	6183.70
434.47	6218.80
434.66	6272.64
434.85	6368.60
435.03	6319.45
435.22	6293.70
435.41	6408.39
435.59	6392.00
435.78	6462.22
435.97	6530.09
436.16	6389.66
436.34	6204.76
436.53	6562.86
436.72	6558.18
436.90	6490.31
437.09	6509.03
437.28	6420.09
437.46	6637.76
437.65	6686.91
437.84	6747.76
438.02	6806.28
438.21	6883.52
438.40	6506.69
438.58	7040.33
438.77	6902.24
438.96	7016.93
439.14	7016.93
439.33	7157.36
439.52	7393.75
439.70	7253.32
439.89	7288.43
440.08	7358.64
440.26	7297.79
440.45	7417.16
440.63	7531.84
440.82	7665.25
441.01	7328.22
441.19	7517.80
441.38	7653.55
441.57	7637.17
441.75	7896.97
441.94	7761.22
442.12	7911.01
442.31	7943.78
442.50	7995.27
442.68	7971.86
442.87	8100.59
443.05	8285.50
443.24	8257.41
443.43	8276.13
443.61	8203.58
443.80	8505.51
443.98	8086.55
444.17	7868.88
444.35	8056.12
444.54	8276.13
444.73	8322.94
444.91	8198.90
445.10	8297.20
445.28	8264.43
445.47	8346.35
445.65	8351.03
445.84	8304.22
446.02	8468.06
446.21	8241.03
446.39	8407.20
446.58	8557.00
446.77	8444.65
446.95	8161.45
447.14	8393.16
447.32	8582.74
447.51	8266.77
447.69	8336.99
447.88	8706.79
448.06	8573.38
448.25	8381.46
448.43	8416.57
448.62	8592.11
448.80	8704.45
448.99	8531.25
449.17	8592.11
449.36	8557.00
449.54	8905.74
449.73	8856.59
449.91	9011.06
450.10	8865.95
450.28	9011.06
450.46	9046.17
450.65	9034.47
450.83	9078.94
451.02	9242.78
451.20	9193.62
451.39	9013.40
451.57	9238.09
451.76	9219.37
451.94	9310.65
452.13	9355.12
452.31	9357.46
452.49	9238.09
452.68	9371.50
452.86	9423.00
453.05	9277.88
453.23	9406.61
453.42	9397.25
453.60	9294.27
453.78	9385.55
453.97	9394.91
454.15	9458.10
454.34	9624.28
454.52	9909.83
454.70	9858.34
454.89	9863.02
455.07	9661.73
455.26	9884.08
455.44	9973.02
455.62	9832.59
455.81	9942.60
455.99	9874.72
456.17	10211.76
456.36	9930.89
456.54	10153.24
456.73	10312.40
456.91	10438.79
457.09	10415.38
457.28	10396.66
457.46	10253.89
457.64	10263.25
457.83	10410.70
458.01	10480.92
458.19	10621.35
458.38	10471.56
458.56	10740.72
458.74	10670.50
458.93	10714.97
459.11	10885.83
459.29	10682.20
459.48	10745.40
459.66	10759.44
459.84	11138.61
460.03	11154.99
460.21	11173.72
460.39	10883.49
460.57	10853.06
460.76	10984.13
460.94	11026.26
461.12	11194.78
461.31	11344.58
461.49	11080.10
461.67	11164.36
461.85	11377.34
462.04	11154.99
462.22	11559.91
462.40	11470.97
462.59	11487.35
462.77	11417.13
462.95	11562.25
463.13	11655.87
463.32	11604.38
463.50	11918.01
463.68	11812.68
463.86	11660.55
464.05	11726.08
464.23	11763.53
464.41	11957.80
464.59	11768.21
464.78	12006.95
464.96	12264.41
465.14	11712.04
465.32	12030.35
465.50	12163.76
465.69	12140.36
465.87	11995.25
466.05	11913.33
466.23	12205.89
466.41	12145.04
466.60	12435.27
466.78	12025.67
466.96	12318.24
467.14	12241.00
467.32	12383.77
467.51	12479.74
467.69	11885.24
467.87	12341.64
468.05	12744.22
468.23	12575.70
468.41	12437.61
468.60	12762.94
468.78	12666.98
468.96	12659.96
469.14	12737.20
469.32	12926.78
469.50	12940.82
469.69	13081.25
469.87	13043.81
470.05	13001.68
470.23	13163.17
470.41	13184.24
470.59	13371.48
470.77	13245.09
470.95	13373.82
471.14	13472.12
471.32	13018.06
471.50	13675.75
471.68	13563.40
471.86	13504.89
472.04	13853.63
472.22	13956.61
472.40	13713.20
472.58	13919.17
472.77	13778.73
472.95	14253.86
473.13	14455.15
473.31	14232.80
473.49	14043.21
473.67	14207.05
473.85	14394.29
474.03	14602.60
474.21	14544.09
474.39	14785.16
474.57	14829.63
474.75	14986.45
474.93	14867.08
475.12	14761.76
475.30	15367.96
475.48	15002.83
475.66	15180.71
475.84	14974.75
476.02	15435.83
476.20	15360.94
476.38	15721.38
476.56	16116.93
476.74	15955.43
476.92	16058.42
477.10	16025.65
477.28	16081.82
477.46	16095.86
477.64	16362.69
477.82	16566.31
478.00	17085.91
478.18	16940.80
478.36	16482.05
478.54	17275.49
478.72	17020.38
478.90	17376.14
479.08	17500.19
479.26	17720.20
479.44	17582.10
479.62	17905.10
479.80	17956.59
479.98	18171.92
480.16	18520.66
480.34	18307.67
480.52	18787.48
480.70	18520.66
480.88	18625.98
481.06	18885.78
481.24	18897.49
481.41	19171.33
481.59	19264.95
481.77	19990.52
481.95	19665.18
482.13	19871.15
482.31	19716.67
482.49	20343.94
482.67	19896.89
482.85	20247.97
483.03	20531.18
483.21	20659.91
483.39	20795.66
483.57	20900.98
483.74	20896.30
483.92	21575.06
484.10	21212.28
484.28	21860.60
484.46	21902.73
484.64	22260.84
484.82	22209.34
485.00	22412.97
485.18	23054.28
485.35	23063.64
485.53	22881.08
485.71	23314.08
485.89	23349.18
486.07	23147.90
486.25	23513.02
486.43	23461.53
486.61	23796.23
486.78	24315.83
486.96	24339.23
487.14	24151.99
487.32	24592.01
487.50	25202.89
487.68	24730.10
487.85	25209.91
488.03	25490.77
488.21	25944.84
488.39	25996.33
488.57	26036.12
488.75	25954.20
488.92	26464.44
489.10	26831.90
489.28	26972.33
489.46	27154.90
489.64	27033.19
489.81	27896.85
489.99	27779.82
490.17	27730.67
490.35	28151.96
490.53	28233.88
490.70	28374.31
490.88	28158.99
491.06	28996.90
491.24	28816.68
491.41	29280.10
491.59	29336.27
491.77	29163.08
491.95	29537.56
492.13	29689.70
492.30	29963.54
492.48	29825.45
492.66	30441.01
492.84	30548.67
493.01	30590.80
493.19	30780.39
493.37	30855.28
493.54	31129.12
493.72	31578.51
493.90	31510.63
494.08	31702.56
494.25	32517.06
494.43	32327.48
494.61	32416.42
494.79	32395.35
494.96	32723.03
495.14	32800.27
495.32	33137.30
495.49	33240.29
495.67	33312.84
495.85	33619.46
496.02	33790.31
496.20	34155.44
496.38	34227.99
496.55	34499.50
496.73	34801.43
496.91	34660.99
497.09	34740.57
497.26	34848.24
497.44	35171.23
497.62	35166.55
497.79	36208.09
497.97	35789.13
498.14	35945.95
498.32	36130.85
498.50	36264.26
498.67	36921.95
498.85	36481.93
499.03	36617.68
499.20	36891.52
499.38	37172.39
499.56	36912.59
499.73	37345.59
499.91	37221.54
500.08	37270.69
500.26	37448.57
500.44	38047.75
500.61	37481.34
500.79	37743.48
500.97	38122.65
501.14	38478.41
501.32	38543.94
501.49	38801.40
501.67	38789.70
501.84	39105.67
502.02	39370.15
502.20	39255.46
502.37	39627.61
502.55	38930.13
502.72	39459.09
502.90	39555.05
503.07	39709.53
503.25	39931.88
503.43	39597.18
503.60	39971.67
503.78	39805.49
503.95	40294.66
504.13	40608.29
504.30	40666.81
504.48	40708.94
504.65	40509.99
504.83	40718.30
505.01	41528.13
505.18	41350.24
505.36	41755.16
505.53	41378.33
505.71	41832.39
505.88	42426.89
506.06	41240.24
506.23	42328.59
506.41	41867.50
506.58	42092.19
506.76	42202.20
506.93	42876.27
507.11	42405.83
507.28	42539.24
507.46	42670.31
507.63	42714.78
507.81	43339.70
507.98	42588.39
508.16	43075.22
508.33	43519.92
508.50	43807.81
508.68	43798.44
508.85	43674.40
509.03	43697.80
509.20	43945.90
509.38	44142.50
509.55	44608.27
509.73	44631.68
509.90	44753.38
510.08	44835.30
510.25	44357.83
510.42	44385.92
510.60	45280.00
510.77	45067.02
510.95	45701.30
511.12	44973.39
511.30	45036.59
511.47	45780.88
511.64	45481.29
511.82	45886.20
511.99	45750.45
512.17	45965.78
512.34	45462.57
512.51	46225.58
512.69	46307.50
512.86	46649.22
513.04	46934.76
513.21	46403.46
513.38	46724.11
513.56	46829.44
513.73	46714.75
513.90	47192.22
514.08	47168.82
514.25	47224.99
514.43	47306.91
514.60	47583.09
514.77	47679.05
514.95	47550.32
515.12	47873.32
515.29	47711.82
515.47	47220.31
515.64	48095.67
515.81	47789.06
515.99	48385.89
516.16	48451.43
516.33	48327.38
516.51	48844.64
516.68	48701.87
516.85	48692.50
517.03	49102.10
517.20	48612.93
517.37	48844.64
517.54	48940.60
517.72	49027.20
517.89	48971.03
518.06	49277.64
518.24	48947.62
518.41	49366.58
518.58	49315.09
518.75	49415.73
518.93	49507.01
519.10	49600.63
519.27	50026.61
519.45	49799.58
519.62	50012.57
519.79	49656.81
519.96	49867.45
520.14	50302.79
520.31	49902.56
520.48	50665.58
520.65	50426.84
520.83	50417.48
521.00	50731.11
521.17	50590.68
521.34	50768.56
521.52	50656.21
521.69	50887.93
521.86	50918.35
522.03	51398.16
522.20	51496.47
522.38	51475.40
522.55	51154.75
522.72	51470.72
522.89	51224.96
523.07	51739.88
523.24	51529.23
523.41	51819.46
523.58	51456.68
523.75	52058.20
523.92	51522.21
524.10	51831.16
524.27	51913.08
524.44	52055.85
524.61	51997.34
524.78	52350.76
524.96	52622.26
525.13	52472.47
525.30	52268.84
525.47	52725.25
525.64	52390.55
525.81	52711.20
525.98	52896.11
526.16	52711.20
526.33	52608.22
526.50	53296.34
526.67	52715.89
526.84	53057.60
527.01	52825.89
527.18	53022.50
527.36	53055.26
527.53	53144.20
527.70	53308.04
527.87	53600.61
528.04	53226.12
528.21	53324.43
528.38	53371.24
528.55	53467.20
528.72	53298.68
528.89	53450.81
529.07	53193.36
529.24	53446.13
529.41	53825.30
529.58	53748.06
529.75	53338.47
529.92	53897.86
530.09	53811.26
530.26	54197.44
530.43	53820.62
530.60	53661.46
530.77	53902.54
530.94	54124.89
531.11	54190.42
531.28	54117.87
531.46	54337.88
531.63	54237.23
531.80	54019.56
531.97	54323.83
532.14	54525.12
532.31	54532.14
532.48	54403.41
532.65	54508.74
532.82	54756.83
532.99	54688.96
533.16	54468.95
533.33	55180.47
533.50	55112.59
533.67	55040.04
533.84	54635.13
534.01	54918.33
534.18	54965.14
534.35	55388.78
534.52	55175.79
534.69	55395.80
534.86	55189.83
535.03	55166.43
535.20	55257.71
535.37	55344.31
535.54	55501.12
535.71	55042.38
535.88	55360.69
536.05	55388.78
536.22	55402.82
536.38	55765.60
536.55	55552.62
536.72	55833.48
536.89	55461.33
537.06	55636.87
537.23	55856.88
537.40	55386.44
537.57	55845.18
537.74	55868.59
537.91	56193.92
538.08	55835.82
538.25	55807.73
538.42	55877.95
538.59	56060.51
538.75	55868.59
538.92	56137.75
539.09	55969.23
539.26	56163.50
539.43	56254.78
539.60	56296.91
539.77	56123.71
539.94	56425.64
540.11	56671.39
540.28	56420.95
540.44	56343.72
540.61	56638.62
540.78	56442.02
540.95	56299.25
541.12	56484.15
541.29	56463.08
541.46	56711.18
541.62	56633.94
541.79	56666.71
541.96	56502.87
542.13	56760.33
542.30	56739.27
542.47	57038.86
542.63	56877.36
542.80	57034.17
542.97	57055.24
543.14	57301.00
543.31	57251.84
543.48	57088.01
543.64	57432.07
543.81	57261.21
543.98	57263.55
544.15	57345.47
544.32	57513.98
544.48	57544.41
544.65	57478.88
544.82	57502.28
544.99	57165.24
545.16	57710.59
545.32	57406.32
545.49	57640.37
545.66	57631.01
545.83	57588.88
546.00	57710.59
546.16	57907.19
546.33	57565.48
546.50	57518.67
546.67	57635.69
546.83	57411.00
547.00	57731.65
547.17	57670.80
547.34	57752.72
547.50	58117.84
547.67	58288.70
547.84	57982.09
548.00	58232.53
548.17	58302.74
548.34	58106.14
548.51	58272.32
548.67	58319.13
548.84	58159.97
549.01	58171.67
549.18	58255.93
549.34	58211.46
549.51	58286.36
549.68	58260.62
549.84	58417.43
550.01	58478.28
550.18	58291.04
550.34	58539.14
550.51	58464.24
550.68	58592.97
550.84	58298.06
551.01	58431.47
551.18	58597.65
551.34	58309.77
551.51	58836.39
551.68	58693.61
551.84	58499.35
552.01	58550.84
552.18	58667.87
552.34	58735.74
552.51	58672.55
552.68	58473.60
552.84	58670.21
553.01	58831.71
553.18	58705.32
553.34	58904.26
553.51	58834.05
553.67	58752.13
553.84	58976.82
554.01	58885.54
554.17	58782.55
554.34	59145.34
554.51	59051.72
554.67	58972.14
554.84	58880.86
555.00	58838.73
555.17	59014.27
555.33	58937.03
555.50	58911.28
555.67	59035.33
555.83	59018.95
556.00	59260.02
556.16	59283.43
556.33	59276.41
556.50	59306.83
556.66	59306.83
556.83	59124.27
556.99	59608.76
557.16	59461.31
557.32	59327.90
557.49	59519.82
557.65	59475.35
557.82	59587.70
557.98	59566.63
558.15	59468.33
558.32	59690.68
558.48	59564.29
558.65	59515.14
558.81	59517.48
558.98	59725.79
559.14	59449.61
559.31	59576.00
559.47	59573.66
559.64	59697.70
559.80	59693.02
559.97	59840.48
560.13	59494.08
560.30	59781.96
560.46	59917.71
560.63	59887.29
560.79	59697.70
560.96	59884.95
561.12	59707.07
561.29	59898.99
561.45	59877.93
561.61	59863.88
561.78	59856.86
561.94	59852.18
562.11	60079.21
562.27	59889.63
562.44	59767.92
562.60	60065.17
562.77	59943.46
562.93	59824.09
563.10	60053.47
563.26	59929.42
563.42	60233.69
563.59	59976.23
563.75	59931.76
563.92	59922.40
564.08	59849.84
564.24	60243.05
564.41	60203.26
564.57	60214.96
564.74	60170.49
564.90	60142.41
565.07	60292.20
565.23	60133.04
565.39	60273.48
565.56	60266.45
565.72	60116.66
565.88	60168.15
566.05	60362.42
566.21	60444.33
566.38	60266.45
566.54	60313.26
566.70	60350.71
566.87	60378.80
567.03	60069.85
567.19	60725.20
567.36	60425.61
567.52	60327.31
567.68	60741.58
567.85	60402.21
568.01	60402.21
568.17	60367.10
568.34	60320.29
568.50	60430.29
568.66	60350.71
568.83	60444.33
568.99	60219.64
569.15	60434.97
569.32	60409.23
569.48	60556.68
569.64	60458.38
569.81	60683.07
569.97	60334.33
570.13	60598.81
570.30	60420.93
570.46	60523.91
570.62	60580.09
570.78	60343.69
570.95	60638.60
571.11	60537.96
571.27	60470.08
571.43	60392.84
571.60	60734.56
571.76	60420.93
571.92	60664.35
572.09	60690.09
572.25	60640.94
572.41	60481.78
572.57	60514.55
572.74	60853.93
572.90	60498.17
573.06	60807.12
573.22	60575.40
573.38	60729.88
573.55	60577.75
573.71	60786.05
573.87	60764.99
574.03	60617.53
574.20	60662.00
574.36	60526.25
574.52	60804.78
574.68	60680.73
574.84	60711.16
575.01	60935.85
575.17	60891.38
575.33	60697.11
575.49	60500.51
575.65	60889.04
575.82	60853.93
575.98	60779.03
576.14	60945.21
576.30	60977.98
576.46	60666.69
576.62	60807.12
576.79	60779.03
576.95	60760.31
577.11	60919.46
577.27	60776.69
577.43	60917.12
577.59	60645.62
577.75	60718.18
577.92	60772.01
578.08	60673.71
578.24	60779.03
578.40	60942.87
578.56	61179.26
578.72	60779.03
578.88	61160.54
579.04	60910.10
579.21	60980.32
579.37	60999.04
579.53	60933.51
579.69	60589.45
579.85	60764.99
580.01	60633.92
580.17	60755.63
580.33	61022.45
580.49	61043.51
580.65	61092.66
580.82	61097.34
580.98	60769.67
581.14	60743.92
581.30	60903.08
581.46	60945.21
581.62	60860.95
581.78	60917.12
581.94	60994.36
582.10	60945.21
582.26	60872.65
582.42	60977.98
582.58	60882.02
582.74	60910.10
582.90	61083.30
583.06	60977.98
583.22	60884.36
583.38	60994.36
583.54	60963.93
583.70	60973.30
583.86	60996.70
584.02	61006.06
584.18	61181.60
584.34	61146.50
584.50	60996.70
584.66	60818.82
584.82	60968.61
584.98	61041.17
585.14	60907.76
585.30	60910.10
585.46	61090.32
585.62	60987.34
585.78	61174.58
585.94	60741.58
586.10	60891.38
586.26	60987.34
586.42	61029.47
586.58	61148.84
586.74	61167.56
586.90	61010.74
587.06	60959.25
587.22	61020.11
587.38	61207.35
587.54	61139.47
587.70	61244.80
587.86	61172.24
588.02	61130.11
588.18	61202.67
588.34	61165.22
588.49	61029.47
