SpectraSuite Data File
++++++++++++++++++++++++++++++++++++
Date: Fri Oct 25 11:25:52 EDT 2013
User: price-jones
Dark Spectrum Present: No
Reference Spectrum Present: No
Number of Sampled Component Spectra: 1
Spectrometers: USB2+H05261
Integration Time (usec): 100000 (USB2+H05261)
Spectra Averaged: 1 (USB2+H05261)
Boxcar Smoothing: 0 (USB2+H05261)
Correct for Electrical Dark: No (USB2+H05261)
Strobe/Lamp Enabled: No (USB2+H05261)
Correct for Detector Non-linearity: No (USB2+H05261)
Correct for Stray Light: No (USB2+H05261)
Number of Pixels in Processed Spectrum: 2048
>>>>>Begin Processed Spectral Data<<<<<
365.73	264.48
365.92	264.48
366.12	264.48
366.32	215.33
366.52	173.20
366.72	161.50
366.91	102.98
367.11	88.94
367.31	102.98
367.51	107.66
367.70	156.82
367.90	124.05
368.10	215.33
368.30	182.56
368.49	149.79
368.69	140.43
368.89	128.73
369.09	217.67
369.28	175.54
369.48	175.54
369.68	215.33
369.87	234.05
370.07	220.01
370.27	229.37
370.47	397.89
370.66	585.13
370.86	638.97
371.06	730.25
371.25	688.12
371.45	692.80
371.65	631.94
371.84	648.33
372.04	650.67
372.24	730.25
372.44	753.65
372.63	727.91
372.83	758.33
373.03	732.59
373.22	739.61
373.42	713.86
373.62	791.10
373.81	781.74
374.01	880.04
374.21	844.93
374.40	767.70
374.60	851.96
374.79	807.48
374.99	861.32
375.19	915.15
375.38	966.64
375.58	812.17
375.78	882.38
375.97	800.46
376.17	894.08
376.37	795.78
376.56	891.74
376.76	840.25
376.95	854.30
377.15	938.55
377.35	903.45
377.54	896.43
377.74	833.23
377.93	924.51
378.13	964.30
378.33	898.77
378.52	866.00
378.72	961.96
378.91	882.38
379.11	1015.79
379.31	964.30
379.50	837.91
379.70	966.64
379.89	985.37
380.09	901.11
380.28	915.15
380.48	938.55
380.68	1029.84
380.87	997.07
381.07	866.00
381.26	1011.11
381.46	940.90
381.65	1011.11
381.85	1025.15
382.04	994.73
382.24	1036.86
382.43	1104.73
382.63	1100.05
382.83	1071.97
383.02	1114.10
383.22	1034.52
383.41	1022.81
383.61	1177.29
383.80	1156.22
384.00	1064.94
384.19	1151.54
384.39	1111.75
384.58	1156.22
384.78	1144.52
384.97	1177.29
385.17	1167.93
385.36	1184.31
385.56	1116.44
385.75	1158.57
385.95	1203.04
386.14	1109.41
386.34	1198.35
386.53	1160.91
386.72	1130.48
386.92	1287.29
387.11	1284.95
387.31	1193.67
387.50	1212.40
387.70	1181.97
387.89	1275.59
388.09	1366.87
388.28	1331.76
388.48	1390.28
388.67	1289.64
388.86	1329.42
389.06	1364.53
389.25	1406.66
389.45	1282.61
389.64	1394.96
389.84	1329.42
390.03	1359.85
390.22	1378.58
390.42	1432.41
390.61	1343.47
390.81	1420.71
391.00	1366.87
391.19	1441.77
391.39	1392.62
391.58	1526.03
391.78	1376.24
391.97	1486.24
392.16	1432.41
392.36	1486.24
392.55	1434.75
392.75	1488.58
392.94	1516.67
393.13	1486.24
393.33	1472.20
393.52	1547.09
393.71	1579.86
393.91	1502.62
394.10	1563.48
394.29	1647.74
394.49	1659.44
394.68	1554.12
394.88	1724.97
395.07	1659.44
395.26	1659.44
395.46	1701.57
395.65	1650.08
395.84	1603.27
396.04	1727.32
396.23	1755.40
396.42	1797.53
396.62	1755.40
396.81	1846.68
397.00	1713.27
397.19	1664.12
397.39	1870.09
397.58	1797.53
397.77	1746.04
397.97	1825.62
398.16	1790.51
398.35	1912.22
398.55	1867.75
398.74	1942.64
398.93	1952.01
399.12	1991.80
399.32	1837.32
399.51	1944.99
399.70	2024.56
399.90	2012.86
400.09	2090.10
400.28	2113.50
400.47	1956.69
400.67	2033.93
400.86	2040.95
401.05	2017.54
401.24	1982.43
401.44	2139.25
401.63	2120.53
401.82	2139.25
402.01	2120.53
402.21	2125.21
402.40	2225.85
402.59	2115.84
402.78	2246.91
402.97	2183.72
403.17	2286.70
403.36	2321.81
403.55	2237.55
403.74	2331.17
403.93	2305.43
404.13	2408.41
404.32	2366.28
404.51	2235.21
404.70	2452.88
404.89	2567.57
405.09	2471.61
405.28	2422.45
405.47	2413.09
405.66	2497.35
405.85	2567.57
406.05	2429.48
406.24	2429.48
406.43	2448.20
406.62	2516.08
406.81	2635.44
407.00	2607.36
407.20	2621.40
407.39	2705.66
407.58	2698.64
407.77	2665.87
407.96	2740.77
408.15	2836.73
408.34	2621.40
408.54	2771.19
408.73	2787.58
408.92	2911.63
409.11	2965.46
409.30	2862.48
409.49	2902.26
409.68	2883.54
409.87	2942.05
410.07	3007.59
410.26	3054.40
410.45	2928.01
410.64	3056.74
410.83	3002.91
411.02	3033.33
411.21	3342.28
411.40	3148.02
411.59	3204.19
411.78	3155.04
411.98	3274.41
412.17	3180.79
412.36	3307.18
412.55	3293.13
412.74	3421.86
412.93	3524.85
413.12	3286.11
413.31	3564.64
413.50	3431.23
413.69	3520.17
413.88	3660.60
414.07	3662.94
414.26	3695.71
414.45	3609.11
414.64	3574.00
414.83	3707.41
415.02	3698.05
415.22	3817.41
415.41	3911.04
415.60	3941.46
415.79	3927.42
415.98	3967.21
416.17	3990.61
416.36	3981.25
416.55	3992.95
416.74	3974.23
416.93	4004.66
417.12	4079.55
417.31	4058.49
417.50	4145.09
417.69	4297.22
417.88	4304.25
418.07	4339.35
418.26	4301.90
418.45	4290.20
418.64	4475.10
418.83	4383.82
419.02	4414.25
419.21	4521.92
419.39	4484.47
419.58	4454.04
419.77	4559.36
419.96	4393.19
420.15	4655.33
420.34	4601.49
420.53	4704.48
420.72	4606.17
420.91	4667.03
421.10	4741.93
421.29	4730.22
421.48	4592.13
421.67	4702.14
421.86	4765.33
422.05	4830.87
422.24	4844.91
422.43	4690.43
422.61	4697.46
422.80	4898.74
422.99	4856.61
423.18	4931.51
423.37	4814.48
423.56	4884.70
423.75	4887.04
423.94	4884.70
424.13	4655.33
424.32	4711.50
424.50	5027.47
424.69	5050.88
424.88	5097.69
425.07	4971.30
425.26	4828.53
425.45	4887.04
425.64	4887.04
425.83	4947.89
426.01	5083.64
426.20	5006.41
426.39	5132.79
426.58	5203.01
426.77	4917.47
426.96	5212.37
427.15	5167.90
427.33	5174.92
427.52	5111.73
427.71	5186.63
427.90	5303.65
428.09	5287.27
428.28	5362.17
428.46	5448.77
428.65	5331.74
428.84	5460.47
429.03	5284.93
429.22	5348.12
429.40	5530.69
429.59	5469.83
429.78	5387.91
429.97	5305.99
430.16	5490.90
430.34	5619.63
430.53	5757.72
430.72	5682.82
430.91	5575.16
431.10	5575.16
431.28	5884.11
431.47	5748.36
431.66	5816.23
431.85	5762.40
432.03	5912.19
432.22	5916.87
432.41	5865.38
432.60	6003.47
432.79	5860.70
432.97	6122.84
433.16	6026.88
433.35	5947.30
433.54	5881.77
433.72	6190.72
433.91	6090.07
434.10	6132.20
434.28	6069.01
434.47	6101.78
434.66	6300.72
434.85	6307.74
435.03	6410.73
435.22	6282.00
435.41	6509.03
435.59	6399.02
435.78	6326.47
435.97	6429.45
436.16	6375.62
436.34	6436.47
436.53	6523.07
436.72	6354.55
436.90	6471.58
437.09	6637.76
437.28	6338.17
437.46	6527.75
437.65	6764.15
437.84	6810.96
438.02	6712.66
438.21	6909.26
438.40	6705.63
438.58	7047.35
438.77	6913.94
438.96	6904.58
439.14	7061.40
439.33	7180.76
439.52	7353.96
439.70	7119.91
439.89	7382.05
440.08	7241.62
440.26	7503.76
440.45	7468.65
440.63	7499.08
440.82	7517.80
441.01	7538.87
441.19	7573.97
441.38	7597.38
441.57	7840.79
441.75	7859.52
441.94	7985.91
442.12	7903.99
442.31	7906.33
442.50	8002.29
442.68	7864.20
442.87	7960.16
443.05	7859.52
443.24	8306.56
443.43	8072.51
443.61	8028.04
443.80	8451.67
443.98	7896.97
444.17	7803.35
444.35	8028.04
444.54	8360.39
444.73	8180.17
444.91	8217.62
445.10	8348.69
445.28	8215.28
445.47	8437.63
445.65	8262.09
445.84	8301.88
446.02	8517.21
446.21	8477.42
446.39	8578.06
446.58	8510.19
446.77	8311.24
446.95	8070.17
447.14	8451.67
447.32	8533.59
447.51	8645.94
447.69	8479.76
447.88	8439.97
448.06	8622.53
448.25	8458.70
448.43	8224.64
448.62	8491.46
448.80	8355.71
448.99	8784.03
449.17	8659.98
449.36	8741.90
449.54	8795.73
449.73	8870.63
449.91	8891.70
450.10	8924.46
450.28	8985.32
450.46	9263.84
450.65	9261.50
450.83	8917.44
451.02	9137.45
451.20	9256.82
451.39	9195.96
451.57	9188.94
451.76	9170.22
451.94	9235.75
452.13	9221.71
452.31	9191.28
452.49	9034.47
452.68	9282.56
452.86	9507.26
453.05	9378.53
453.23	9591.52
453.42	9268.52
453.60	9125.75
453.78	9533.00
453.97	9444.06
454.15	9441.72
454.34	9483.85
454.52	9624.28
454.70	9661.73
454.89	9685.14
455.07	9738.97
455.26	9741.31
455.44	10022.17
455.62	9963.66
455.81	9877.06
455.99	9975.36
456.17	9895.78
456.36	10153.24
456.54	10134.52
456.73	10239.84
456.91	10506.66
457.09	10352.19
457.28	10537.09
457.46	10406.02
457.64	10462.19
457.83	10616.67
458.01	10399.00
458.19	10703.27
458.38	10427.09
458.56	10668.16
458.74	10750.08
458.93	10803.91
459.11	10789.87
459.29	10537.09
459.48	10677.52
459.66	10815.62
459.84	11009.88
460.03	10733.70
460.21	10593.26
460.39	10906.90
460.57	11204.14
460.76	11222.87
460.94	11290.74
461.12	11028.60
461.31	11300.11
461.49	10979.45
461.67	11014.56
461.85	11117.54
462.04	11206.48
462.22	11847.79
462.40	11660.55
462.59	11728.42
462.77	11604.38
462.95	11620.76
463.13	11407.77
463.32	11590.33
463.50	11564.59
463.68	11772.89
463.86	11751.83
464.05	11683.95
464.23	11590.33
464.41	11634.80
464.59	11756.51
464.78	12266.75
464.96	11927.37
465.14	11740.13
465.32	12077.16
465.50	12046.74
465.69	12184.83
465.87	12079.50
466.05	12203.55
466.23	12304.20
466.41	12016.31
466.60	12596.76
466.78	12180.15
466.96	12098.23
467.14	12421.22
467.32	12259.73
467.51	12479.74
467.69	12086.53
467.87	12313.56
468.05	12519.53
468.23	12418.88
468.41	12327.60
468.60	12678.68
468.78	12751.24
468.96	12706.77
469.14	12725.49
469.32	12961.89
469.50	12648.26
469.69	12950.18
469.87	12999.34
470.05	13060.19
470.23	13378.50
470.41	13053.17
470.59	13422.97
470.77	13102.32
470.95	13322.33
471.14	13467.44
471.32	13055.51
471.50	13612.56
471.68	13245.09
471.86	13504.89
472.04	13884.06
472.22	14190.67
472.40	13809.16
472.58	13914.48
472.77	13965.98
472.95	13954.27
473.13	14546.43
473.31	14083.00
473.49	14148.54
473.67	14026.83
473.85	14050.24
474.03	14707.93
474.21	14223.44
474.39	14626.01
474.57	14600.26
474.75	14967.73
474.93	15115.18
475.12	14771.12
475.30	15115.18
475.48	14902.19
475.66	15176.03
475.84	15257.95
476.02	15566.90
476.20	15438.17
476.38	15609.03
476.56	15819.68
476.74	16056.08
476.92	15831.38
477.10	15604.35
477.28	16217.57
477.46	16229.27
477.64	16439.92
477.82	16594.40
478.00	16681.00
478.18	16580.36
478.36	16767.60
478.54	17043.78
478.72	17334.01
478.90	17429.97
479.08	17357.41
479.26	17568.06
479.44	17582.10
479.62	17869.99
479.80	17713.17
479.98	18157.88
480.16	18562.79
480.34	17994.04
480.52	18782.80
480.70	18459.81
480.88	18267.88
481.06	18625.98
481.24	18693.86
481.41	19075.37
481.59	19278.99
481.77	19290.70
481.95	19901.58
482.13	19632.41
482.31	19714.33
482.49	20034.99
482.67	20255.00
482.85	20250.32
483.03	20201.16
483.21	20828.43
483.39	21120.99
483.57	20643.52
483.74	21123.33
483.92	21319.94
484.10	21109.29
484.28	21802.09
484.46	21944.86
484.64	22113.38
484.82	21940.18
485.00	22260.84
485.18	22714.90
485.35	22707.88
485.53	22871.72
485.71	22747.67
485.89	23253.22
486.07	23218.11
486.25	23197.05
486.43	23384.29
486.61	23768.14
486.78	24121.56
486.96	24133.26
487.14	24596.69
487.32	24379.02
487.50	24720.74
487.68	24842.45
487.85	25312.89
488.03	25516.52
488.21	25614.82
488.39	25731.85
488.57	25996.33
488.75	26183.57
488.92	26583.80
489.10	26768.71
489.28	26490.18
489.46	27030.85
489.64	27070.64
489.81	27094.04
489.99	27505.98
490.17	27777.48
490.35	28247.93
490.53	28198.77
490.70	28325.16
490.88	28699.65
491.06	28741.78
491.24	28940.72
491.41	28980.51
491.59	28999.24
491.77	29329.25
491.95	29291.80
492.13	29865.24
492.30	30183.55
492.48	29741.19
492.66	30389.52
492.84	30391.86
493.01	30705.49
493.19	30679.74
493.37	31302.32
493.54	30656.34
493.72	31351.48
493.90	31578.51
494.08	31323.39
494.25	31899.16
494.43	31908.52
494.61	32278.33
494.79	32622.39
494.96	32655.15
495.14	32655.15
495.32	33579.67
495.49	33638.18
495.67	32753.46
495.85	33251.99
496.02	33200.50
496.20	34036.07
496.38	33680.31
496.55	33961.17
496.73	34576.73
496.91	34476.09
497.09	34892.71
497.26	35009.73
497.44	34850.58
497.62	34595.46
497.79	35564.44
497.97	35449.75
498.14	35725.94
498.32	35632.32
498.50	36163.62
498.67	36495.97
498.85	36339.16
499.03	36392.99
499.20	36701.94
499.38	36926.63
499.56	36975.78
499.73	37111.53
499.91	37184.09
500.08	37610.07
500.26	37383.04
500.44	37537.51
500.61	37684.97
500.79	37799.65
500.97	37883.91
501.14	38476.07
501.32	38518.20
501.49	38675.01
501.67	38829.49
501.84	38562.67
502.02	39026.09
502.20	39098.65
502.37	39164.18
502.55	39012.05
502.72	39782.09
502.90	39487.18
503.07	39426.32
503.25	39672.08
503.43	39452.07
503.60	40348.50
503.78	40004.44
503.95	40278.28
504.13	40275.94
504.30	40460.84
504.48	40856.39
504.65	40308.71
504.83	41345.56
505.01	40996.82
505.18	41074.06
505.36	41329.18
505.53	41378.33
505.71	41205.13
505.88	41701.32
506.06	41242.58
506.23	41598.34
506.41	41731.75
506.58	42003.25
506.76	41659.20
506.93	42440.93
507.11	41977.51
507.28	42370.72
507.46	42614.13
507.63	42995.64
507.81	42838.83
507.98	42932.45
508.16	43419.28
508.33	43262.46
508.50	43515.24
508.68	43398.21
508.85	43548.01
509.03	43714.19
509.20	43775.04
509.38	44500.61
509.55	44114.42
509.73	44250.17
509.90	44493.58
510.08	44341.45
510.25	44591.89
510.42	44753.38
510.60	44734.66
510.77	44856.37
510.95	45223.83
511.12	44727.64
511.30	44980.42
511.47	45155.96
511.64	45588.95
511.82	45986.85
511.99	45970.46
512.17	45975.14
512.34	45823.01
512.51	45996.21
512.69	46300.48
512.86	46176.43
513.04	46529.85
513.21	46532.19
513.38	46597.73
513.56	46801.35
513.73	46567.30
513.90	47138.39
514.08	46876.25
514.25	46927.74
514.43	47463.72
514.60	46848.16
514.77	46906.68
514.95	47459.04
515.12	47351.38
515.29	47360.74
515.47	48025.45
515.64	48004.39
515.81	47533.94
515.99	48121.41
516.16	48044.18
516.33	48268.87
516.51	48463.13
516.68	48334.40
516.85	48500.58
517.03	48626.97
517.20	48610.59
517.37	48589.52
517.54	48727.61
517.72	49198.06
517.89	48793.15
518.06	49223.81
518.24	48914.86
518.41	49331.47
518.58	49375.94
518.75	49069.33
518.93	49600.63
519.10	49071.67
519.27	49385.30
519.45	49750.43
519.62	49963.42
519.79	49916.61
519.96	49595.95
520.14	50047.68
520.31	49874.48
520.48	49911.92
520.65	50122.57
520.83	50408.12
521.00	50658.56
521.17	50108.53
521.34	50691.32
521.52	50677.28
521.69	50787.28
521.86	50742.81
522.03	50817.71
522.20	51178.15
522.38	51569.02
522.55	51337.31
522.72	51215.60
522.89	51168.79
523.07	51793.71
523.24	51437.95
523.41	51995.00
523.58	51573.70
523.75	51763.29
523.92	51512.85
524.10	51824.14
524.27	51894.36
524.44	52055.85
524.61	51910.74
524.78	52018.41
524.96	52247.78
525.13	52025.43
525.30	52112.03
525.47	52547.37
525.64	52479.49
525.81	52477.15
525.98	52584.82
526.16	52577.79
526.33	52568.43
526.50	52715.89
526.67	52631.63
526.84	52863.34
527.01	52858.66
527.18	52708.86
527.36	52842.27
527.53	52907.81
527.70	53368.90
527.87	53221.44
528.04	53125.48
528.21	53251.87
528.38	53148.88
528.55	53598.27
528.72	53427.41
528.89	53336.13
529.07	53186.33
529.24	53371.24
529.41	53764.45
529.58	53614.65
529.75	53769.13
529.92	53717.64
530.09	53914.24
530.26	53792.53
530.43	53862.75
530.60	53790.19
530.77	53811.26
530.94	53928.28
531.11	54143.61
531.28	53914.24
531.46	53944.67
531.63	54429.16
531.80	53958.71
531.97	54358.94
532.14	54443.20
532.31	54305.11
532.48	54314.47
532.65	54419.80
532.82	54192.76
532.99	54611.72
533.16	54508.74
533.33	54646.83
533.50	54981.52
533.67	54864.50
533.84	54593.00
534.01	54897.27
534.18	54855.14
534.35	55203.88
534.52	54958.12
534.69	54969.82
534.86	55145.36
535.03	54911.31
535.20	54988.55
535.37	55363.03
535.54	55248.35
535.71	55374.73
535.88	55271.75
536.05	55253.03
536.22	55723.47
536.38	55529.21
536.55	55512.83
536.72	55512.83
536.89	55356.01
537.06	55676.66
537.23	55608.79
537.40	55554.96
537.57	55639.22
537.74	55444.95
537.91	55877.95
538.08	55758.58
538.25	55543.25
538.42	55812.41
538.59	56002.00
538.75	55927.10
538.92	55983.27
539.09	56109.66
539.26	56006.68
539.43	56055.83
539.60	56112.00
539.77	56175.20
539.94	56409.25
540.11	56322.65
540.28	56203.28
540.44	56264.14
540.61	56456.06
540.78	56076.90
540.95	56442.02
541.12	56413.93
541.29	56559.05
541.46	56573.09
541.62	56519.26
541.79	56603.52
541.96	56383.51
542.13	56556.70
542.30	56554.36
542.47	56669.05
542.63	56683.09
542.80	57146.52
542.97	57031.83
543.14	57127.80
543.31	57104.39
543.48	57148.86
543.64	57167.58
543.81	57368.87
543.98	57249.50
544.15	57418.02
544.32	57162.90
544.48	57703.57
544.65	57303.34
544.82	57436.75
544.99	57174.61
545.16	57296.31
545.32	57312.70
545.49	57579.52
545.66	57687.18
545.83	57656.76
546.00	57736.34
546.16	57544.41
546.33	57537.39
546.50	57247.16
546.67	57509.30
546.83	57387.60
547.00	57783.15
547.17	57724.63
547.34	57893.15
547.50	57935.28
547.67	57975.07
547.84	57895.49
548.00	58181.04
548.17	58237.21
548.34	58103.80
548.51	58071.03
548.67	58108.48
548.84	58052.31
549.01	58017.20
549.18	58103.80
549.34	58007.84
549.51	58295.72
549.68	58281.68
549.84	58213.80
550.01	58340.19
550.18	58164.65
550.34	58394.03
550.51	58431.47
550.68	58356.58
550.84	58461.90
551.01	58372.96
551.18	58494.67
551.34	58394.03
551.51	58480.63
551.68	58674.89
551.84	58672.55
552.01	58534.46
552.18	58550.84
552.34	58387.00
552.51	58616.38
552.68	58621.06
552.84	58646.80
553.01	58972.14
553.18	58759.15
553.34	58679.57
553.51	58691.27
553.67	58782.55
553.84	58962.78
554.01	58890.22
554.17	58937.03
554.34	58841.07
554.51	58852.77
554.67	58941.71
554.84	59119.59
555.00	58857.45
555.17	59030.65
555.33	58937.03
555.50	59030.65
555.67	59009.59
555.83	58850.43
556.00	58899.58
556.16	59337.26
556.33	59189.81
556.50	59098.53
556.66	59402.80
556.83	58939.37
556.99	59276.41
557.16	59480.03
557.32	59379.39
557.49	59590.04
557.65	59143.00
557.82	59391.09
557.98	59215.55
558.15	59227.26
558.32	59463.65
558.48	59334.92
558.65	59473.01
558.81	59363.01
558.98	59414.50
559.14	59554.93
559.31	59578.34
559.47	59526.84
559.64	59690.68
559.80	59508.12
559.97	59573.66
560.13	59660.26
560.30	59770.26
560.46	59655.57
560.63	59695.36
560.79	59739.83
560.96	59786.64
561.12	59891.97
561.29	59756.22
561.45	59737.49
561.61	59611.10
561.78	59840.48
561.94	59716.43
562.11	59669.62
562.27	59845.16
562.44	59966.87
562.60	60158.79
562.77	59941.12
562.93	59683.66
563.10	59929.42
563.26	59908.35
563.42	60191.56
563.59	59791.33
563.75	59732.81
563.92	60032.40
564.08	59945.80
564.24	60004.31
564.41	59927.08
564.57	59943.46
564.74	59861.54
564.90	59948.14
565.07	60023.04
565.23	59973.89
565.39	59969.21
565.56	60140.07
565.72	60149.43
565.88	60294.54
566.05	60023.04
566.21	60013.68
566.38	60161.13
566.54	60182.19
566.70	60275.82
566.87	60086.23
567.03	60252.41
567.19	60109.64
567.36	60275.82
567.52	60327.31
567.68	60544.98
567.85	60271.14
568.01	60418.59
568.17	60313.26
568.34	60200.92
568.50	60184.54
568.66	60287.52
568.83	60413.91
568.99	60116.66
569.15	60360.08
569.32	60191.56
569.48	60250.07
569.64	60580.09
569.81	60205.60
569.97	60406.89
570.13	60439.65
570.30	60109.64
570.46	60243.05
570.62	60432.63
570.78	60310.92
570.95	60603.49
571.11	60554.34
571.27	60322.63
571.43	60420.93
571.60	60406.89
571.76	60603.49
571.92	60608.17
572.09	60495.83
572.25	60584.77
572.41	60254.75
572.57	60390.50
572.74	60561.36
572.90	60519.23
573.06	60470.08
573.22	60603.49
573.38	60509.87
573.55	60781.37
573.71	60673.71
573.87	60420.93
574.03	60287.52
574.20	60956.91
574.36	60540.30
574.52	60697.11
574.68	60715.84
574.84	60608.17
575.01	60748.60
575.17	60643.28
575.33	60608.17
575.49	60514.55
575.65	60683.07
575.82	60591.79
575.98	60746.26
576.14	60797.76
576.30	60727.54
576.46	60633.92
576.62	60549.66
576.79	60587.11
576.95	60514.55
577.11	60767.33
577.27	60566.04
577.43	60783.71
577.59	60718.18
577.75	60811.80
577.92	60486.46
578.08	60720.52
578.24	60659.66
578.40	60949.89
578.56	60739.24
578.72	60886.70
578.88	61036.49
579.04	60800.10
579.21	60711.16
579.37	61029.47
579.53	60966.27
579.69	60762.65
579.85	60561.36
580.01	60809.46
580.17	60790.73
580.33	60786.05
580.49	60938.19
580.65	60926.49
580.82	60704.13
580.98	60823.50
581.14	60662.00
581.30	61066.92
581.46	60800.10
581.62	60643.28
581.78	60825.84
581.94	60919.46
582.10	60851.59
582.26	60755.63
582.42	60786.05
582.58	60683.07
582.74	60755.63
582.90	60919.46
583.06	60905.42
583.22	60699.45
583.38	60860.95
583.54	60853.93
583.70	60903.08
583.86	61085.64
584.02	60879.67
584.18	61034.15
584.34	60750.94
584.50	60992.02
584.66	60996.70
584.82	60821.16
584.98	60980.32
585.14	60893.72
585.30	60879.67
585.46	60961.59
585.62	60898.40
585.78	60954.57
585.94	60701.79
586.10	60837.54
586.26	60814.14
586.42	60870.31
586.58	61017.77
586.74	60973.30
586.90	60776.69
587.06	61036.49
587.22	61024.79
587.38	60884.36
587.54	61064.58
587.70	61104.37
587.86	60886.70
588.02	60928.83
588.18	61230.75
588.34	61109.05
588.49	61141.81
