SpectraSuite Data File
++++++++++++++++++++++++++++++++++++
Date: Fri Oct 25 11:26:39 EDT 2013
User: price-jones
Dark Spectrum Present: No
Reference Spectrum Present: No
Number of Sampled Component Spectra: 1
Spectrometers: USB2+H05261
Integration Time (usec): 100000 (USB2+H05261)
Spectra Averaged: 1 (USB2+H05261)
Boxcar Smoothing: 0 (USB2+H05261)
Correct for Electrical Dark: No (USB2+H05261)
Strobe/Lamp Enabled: No (USB2+H05261)
Correct for Detector Non-linearity: No (USB2+H05261)
Correct for Stray Light: No (USB2+H05261)
Number of Pixels in Processed Spectrum: 2048
>>>>>Begin Processed Spectral Data<<<<<
365.73	255.12
365.92	255.12
366.12	255.12
366.32	217.67
366.52	140.43
366.72	161.50
366.91	154.48
367.11	140.43
367.31	86.60
367.51	145.11
367.70	142.77
367.90	173.20
368.10	154.48
368.30	156.82
368.49	133.41
368.69	198.95
368.89	180.22
369.09	147.45
369.28	238.73
369.48	248.10
369.68	166.18
369.87	241.08
370.07	290.23
370.27	241.08
370.47	337.04
370.66	627.26
370.86	664.71
371.06	697.48
371.25	734.93
371.45	699.82
371.65	645.99
371.84	739.61
372.04	704.50
372.24	732.59
372.44	678.76
372.63	671.73
372.83	748.97
373.03	748.97
373.22	730.25
373.42	737.27
373.62	706.84
373.81	777.06
374.01	828.55
374.21	849.61
374.40	863.66
374.60	837.91
374.79	896.43
374.99	833.23
375.19	882.38
375.38	847.27
375.58	849.61
375.78	884.72
375.97	875.36
376.17	861.32
376.37	950.26
376.56	903.45
376.76	896.43
376.95	908.13
377.15	863.66
377.35	950.26
377.54	936.21
377.74	947.92
377.93	880.04
378.13	870.68
378.33	903.45
378.52	917.49
378.72	929.19
378.91	983.02
379.11	954.94
379.31	877.70
379.50	950.26
379.70	1015.79
379.89	959.62
380.09	1027.50
380.28	884.72
380.48	997.07
380.68	940.90
380.87	926.85
381.07	1011.11
381.26	1055.58
381.46	961.96
381.65	1053.24
381.85	1025.15
382.04	1078.99
382.24	1160.91
382.43	1111.75
382.63	1135.16
382.83	1064.94
383.02	1086.01
383.22	1104.73
383.41	1132.82
383.61	1263.89
383.80	1118.78
384.00	1081.33
384.19	1149.20
384.39	1118.78
384.58	1139.84
384.78	1149.20
384.97	1184.31
385.17	1188.99
385.36	1151.54
385.56	1186.65
385.75	1144.52
385.95	1200.69
386.14	1198.35
386.34	1245.16
386.53	1256.87
386.72	1219.42
386.92	1231.12
387.11	1247.51
387.31	1249.85
387.50	1343.47
387.70	1280.27
387.89	1268.57
388.09	1299.00
388.28	1210.06
388.48	1291.98
388.67	1296.66
388.86	1233.46
389.06	1249.85
389.25	1336.45
389.45	1341.13
389.64	1327.08
389.84	1427.73
390.03	1341.13
390.22	1406.66
390.42	1364.53
390.61	1362.19
390.81	1401.98
391.00	1481.56
391.19	1444.11
391.39	1490.92
391.58	1511.99
391.78	1507.30
391.97	1453.47
392.16	1448.79
392.36	1577.52
392.55	1533.05
392.75	1577.52
392.94	1519.01
393.13	1612.63
393.33	1558.80
393.52	1495.60
393.71	1650.08
393.91	1561.14
394.10	1607.95
394.29	1607.95
394.49	1488.58
394.68	1607.95
394.88	1638.38
395.07	1619.65
395.26	1603.27
395.46	1736.68
395.65	1762.42
395.84	1720.29
396.04	1851.36
396.23	1771.79
396.42	1748.38
396.62	1865.41
396.81	1811.57
397.00	1713.27
397.19	1802.21
397.39	1753.06
397.58	1844.34
397.77	1736.68
397.97	1860.73
398.16	1923.92
398.35	1900.52
398.55	1900.52
398.74	1923.92
398.93	1949.67
399.12	1956.69
399.32	2001.16
399.51	2022.22
399.70	2017.54
399.90	1912.22
400.09	1982.43
400.28	2069.03
400.47	2052.65
400.67	2064.35
400.86	2111.16
401.05	2108.82
401.24	2047.97
401.44	2162.66
401.63	2193.08
401.82	2167.34
402.01	2118.18
402.21	2256.28
402.40	2207.13
402.59	2190.74
402.78	2139.25
402.97	2272.66
403.17	2361.60
403.36	2307.77
403.55	2366.28
403.74	2298.41
403.93	2342.88
404.13	2403.73
404.32	2326.49
404.51	2363.94
404.70	2382.67
404.89	2392.03
405.09	2480.97
405.28	2499.69
405.47	2457.56
405.66	2562.89
405.85	2602.68
406.05	2530.12
406.24	2642.46
406.43	2551.18
406.62	2647.15
406.81	2698.64
407.00	2595.65
407.20	2635.44
407.39	2658.85
407.58	2810.98
407.77	2637.78
407.96	2719.70
408.15	2761.83
408.34	2715.02
408.54	2787.58
408.73	2764.17
408.92	2815.66
409.11	2864.82
409.30	2864.82
409.49	2986.52
409.68	3038.02
409.87	2832.05
410.07	3026.31
410.26	3061.42
410.45	2925.67
410.64	3096.53
410.83	3080.14
411.02	3108.23
411.21	3190.15
411.40	3267.39
411.59	3176.11
411.78	3370.37
411.98	3215.90
412.17	3288.45
412.36	3295.47
412.55	3339.94
412.74	3508.46
412.93	3407.82
413.12	3335.26
413.31	3543.57
413.50	3447.61
413.69	3620.81
413.88	3564.64
414.07	3599.74
414.26	3672.30
414.45	3557.61
414.64	3625.49
414.83	3794.01
415.02	3798.69
415.22	3742.52
415.41	3784.65
415.60	3868.91
415.79	3871.25
415.98	4023.38
416.17	4009.34
416.36	4095.94
416.55	4079.55
416.74	4131.05
416.93	4117.00
417.12	4067.85
417.31	4217.65
417.50	4208.28
417.69	4306.59
417.88	4215.30
418.07	4273.82
418.26	4245.73
418.45	4376.80
418.64	4498.51
418.83	4320.63
419.02	4416.59
419.21	4418.93
419.39	4627.24
419.58	4580.43
419.77	4662.35
419.96	4461.06
420.15	4669.37
420.34	4622.56
420.53	4638.94
420.72	4727.88
420.91	4685.75
421.10	4807.46
421.29	4835.55
421.48	4655.33
421.67	4704.48
421.86	4880.02
422.05	4875.34
422.24	4903.42
422.43	4873.00
422.61	4978.32
422.80	5046.20
422.99	4922.15
423.18	4994.70
423.37	5083.64
423.56	5008.75
423.75	5027.47
423.94	4901.08
424.13	4746.61
424.32	4737.24
424.50	4957.25
424.69	5158.54
424.88	4945.55
425.07	5006.41
425.26	4964.28
425.45	5217.05
425.64	5111.73
425.83	4973.64
426.01	5006.41
426.20	5156.20
426.39	5146.84
426.58	5238.12
426.77	5013.43
426.96	5139.82
427.15	5008.75
427.33	5137.48
427.52	5305.99
427.71	5280.25
427.90	5327.06
428.09	5394.93
428.28	5373.87
428.46	5331.74
428.65	5486.22
428.84	5614.95
429.03	5544.73
429.22	5289.61
429.40	5563.45
429.59	5692.18
429.78	5380.89
429.97	5376.21
430.16	5633.67
430.34	5584.52
430.53	5778.78
430.72	5685.16
430.91	5631.33
431.10	5678.14
431.28	5757.72
431.47	6012.84
431.66	5895.81
431.85	5816.23
432.03	6050.28
432.22	6164.97
432.41	5905.17
432.60	6029.22
432.79	6045.60
432.97	6143.91
433.16	6092.41
433.35	6190.72
433.54	6040.92
433.72	6153.27
433.91	6029.22
434.10	6157.95
434.28	6244.55
434.47	6239.87
434.66	6368.60
434.85	6499.67
435.03	6368.60
435.22	6244.55
435.41	6590.95
435.59	6476.26
435.78	6429.45
435.97	6509.03
436.16	6572.22
436.34	6523.07
436.53	6518.39
436.72	6553.50
436.90	6478.60
437.09	6761.81
437.28	6422.43
437.46	6904.58
437.65	6705.63
437.84	6885.86
438.02	7000.54
438.21	6651.80
438.40	6766.49
438.58	6984.16
438.77	7122.25
438.96	7073.10
439.14	7316.51
439.33	7140.97
439.52	7241.62
439.70	7293.11
439.89	7391.41
440.08	7400.77
440.26	7342.26
440.45	7342.26
440.63	7489.71
440.82	7709.72
441.01	7440.56
441.19	7805.69
441.38	7810.37
441.57	7726.11
441.75	7801.01
441.94	8056.12
442.12	8009.31
442.31	8175.49
442.50	8102.93
442.68	8051.44
442.87	8114.64
443.05	8149.75
443.24	8276.13
443.43	8234.00
443.61	8114.64
443.80	8519.55
443.98	8152.09
444.17	7911.01
444.35	8229.32
444.54	8369.76
444.73	8428.27
444.91	8327.63
445.10	8292.52
445.28	8521.89
445.47	8287.84
445.65	8252.73
445.84	8414.23
446.02	8442.31
446.21	8514.87
446.39	8250.39
446.58	8578.06
446.77	8697.43
446.95	8493.80
447.14	8655.30
447.32	8638.92
447.51	8711.47
447.69	8507.85
447.88	8690.41
448.06	8519.55
448.25	8542.96
448.43	8650.62
448.62	8809.78
448.80	8695.09
448.99	8727.86
449.17	8685.73
449.36	8706.79
449.54	8851.91
449.73	9015.74
449.91	8959.57
450.10	8973.61
450.28	8980.64
450.46	9130.43
450.65	9202.99
450.83	9198.31
451.02	9125.75
451.20	9242.78
451.39	9156.18
451.57	9188.94
451.76	9191.28
451.94	9294.27
452.13	9448.74
452.31	9212.35
452.49	9165.54
452.68	9366.82
452.86	9324.69
453.05	9551.73
453.23	9469.81
453.42	9336.40
453.60	9624.28
453.78	9647.69
453.97	9701.52
454.15	9502.58
454.34	9666.41
454.52	9799.82
454.70	9621.94
454.89	9790.46
455.07	9937.91
455.26	9832.59
455.44	10050.26
455.62	10078.35
455.81	9961.32
455.99	10176.65
456.17	10209.42
456.36	10171.97
456.54	10286.65
456.73	10532.41
456.91	10511.35
457.09	10396.66
457.28	10668.16
457.46	10366.23
457.64	10537.09
457.83	10626.03
458.01	10459.85
458.19	10710.29
458.38	10499.64
458.56	10916.26
458.74	10712.63
458.93	10738.38
459.11	10738.38
459.29	10761.78
459.48	10904.56
459.66	10843.70
459.84	11012.22
460.03	11016.90
460.21	11068.39
460.39	11145.63
460.57	11009.88
460.76	11363.30
460.94	11372.66
461.12	11328.19
461.31	11173.72
461.49	11190.10
461.67	11117.54
461.85	11393.73
462.04	11169.04
462.22	11562.25
462.40	11927.37
462.59	11611.40
462.77	11620.76
462.95	11690.98
463.13	11573.95
463.32	11775.24
463.50	12109.93
463.68	11999.93
463.86	11880.56
464.05	11763.53
464.23	11690.98
464.41	12053.76
464.59	11768.21
464.78	11833.75
464.96	12011.63
465.14	11859.49
465.32	11976.52
465.50	12072.48
465.69	12229.30
465.87	12180.15
466.05	12149.72
466.23	12229.30
466.41	12280.79
466.60	12599.10
466.78	12315.90
466.96	12173.13
467.14	12306.54
467.32	12432.93
467.51	12732.51
467.69	12446.97
467.87	12386.12
468.05	12805.07
468.23	12439.95
468.41	12395.48
468.60	12704.43
468.78	12739.54
468.96	12645.91
469.14	12894.01
469.32	12774.64
469.50	12671.66
469.69	13298.92
469.87	13046.15
470.05	13137.43
470.23	13207.64
470.41	13561.06
470.59	13504.89
470.77	13341.05
470.95	13322.33
471.14	13432.33
471.32	13336.37
471.50	13584.47
471.68	13778.73
471.86	13689.79
472.04	13713.20
472.22	14029.17
472.40	13710.86
472.58	13846.61
472.77	14136.84
472.95	14174.28
473.13	14506.64
473.31	13977.68
473.49	14253.86
473.67	14258.54
473.85	14513.66
474.03	14642.39
474.21	14633.03
474.39	14916.23
474.57	14754.74
474.75	15096.46
474.93	14970.07
475.12	15117.52
475.30	15382.00
475.48	15129.22
475.66	15140.93
475.84	15330.51
476.02	15740.10
476.20	15545.84
476.38	15646.48
476.56	16046.71
476.74	16182.46
476.92	15704.99
477.10	15679.25
477.28	15908.62
477.46	16404.81
477.64	16552.27
477.82	16601.42
478.00	17001.65
478.18	16868.24
478.36	17081.23
478.54	16985.27
478.72	17050.80
478.90	17394.86
479.08	17355.07
479.26	17778.71
479.44	17834.88
479.62	17778.71
479.80	17820.84
479.98	18228.09
480.16	18981.74
480.34	18146.17
480.52	18684.50
480.70	18602.58
480.88	18743.01
481.06	19061.32
481.24	19157.28
481.41	19381.98
481.59	19389.00
481.77	19716.67
481.95	19604.33
482.13	19934.34
482.31	19728.38
482.49	20365.00
482.67	20215.21
482.85	20496.07
483.03	20833.11
483.21	20795.66
483.39	20936.09
483.57	21165.46
483.74	21371.43
483.92	21418.24
484.10	21305.90
484.28	21682.72
484.46	22218.71
484.64	22480.85
484.82	22225.73
485.00	22340.41
485.18	22759.37
485.35	23051.94
485.53	23197.05
485.71	23260.24
485.89	23648.77
486.07	23206.41
486.25	23515.36
486.43	23798.57
486.61	24004.53
486.78	24175.39
486.96	24320.51
487.14	24765.21
487.32	24727.76
487.50	25060.12
487.68	25149.06
487.85	25226.29
488.03	25649.93
488.21	26169.53
488.39	25549.29
488.57	26251.45
488.75	26274.85
488.92	26871.69
489.10	26600.19
489.28	26897.44
489.46	27316.39
489.64	27197.02
489.81	27346.82
489.99	27749.39
490.17	27789.18
490.35	28348.57
490.53	28130.90
490.70	28528.79
490.88	28290.06
491.06	29188.82
491.24	29181.80
491.41	29158.39
491.59	29666.29
491.77	29436.92
491.95	29802.04
492.13	29755.23
492.30	29982.26
492.48	30452.71
492.66	30019.71
492.84	30380.15
493.01	31154.87
493.19	30731.23
493.37	31335.09
493.54	31255.51
493.72	31630.00
493.90	31550.42
494.08	31931.93
494.25	32266.63
494.43	32184.71
494.61	32222.16
494.79	32964.10
494.96	32353.23
495.14	32966.45
495.32	33118.58
495.49	33521.15
495.67	33200.50
495.85	33593.71
496.02	34150.76
496.20	34312.25
496.38	34176.50
496.55	34284.17
496.73	35098.67
496.91	34913.77
497.09	35196.98
497.26	34909.09
497.44	35089.31
497.62	35241.45
497.79	36093.40
497.97	35440.39
498.14	35777.43
498.32	36430.44
498.50	36545.12
498.67	36718.32
498.85	36671.51
499.03	36947.70
499.20	37036.64
499.38	37160.69
499.56	37141.96
499.73	37450.91
499.91	37134.94
500.08	37778.59
500.26	37507.08
500.44	37881.57
500.61	38022.00
500.79	37851.14
500.97	38368.40
501.14	38946.51
501.32	38314.57
501.49	39049.50
501.67	38639.90
501.84	38899.70
502.02	39227.38
502.20	39115.03
502.37	39433.35
502.55	39206.31
502.72	39442.71
502.90	39810.17
503.07	39634.63
503.25	39718.89
503.43	39887.41
503.60	40620.00
503.78	40587.23
503.95	40568.51
504.13	40250.19
504.30	40854.05
504.48	40711.28
504.65	40507.65
504.83	41439.18
505.01	41268.33
505.18	41130.23
505.36	41865.16
505.53	41750.48
505.71	41991.55
505.88	42218.58
506.06	41762.18
506.23	42419.87
506.41	42092.19
506.58	42244.33
506.76	42567.32
506.93	42745.20
507.11	42651.58
507.28	42682.01
507.46	42543.92
507.63	43119.69
507.81	43594.82
507.98	43342.04
508.16	43288.21
508.33	43494.18
508.50	44048.88
508.68	43681.42
508.85	44095.69
509.03	43817.17
509.20	44287.62
509.38	44175.27
509.55	44573.16
509.73	44404.64
509.90	44875.09
510.08	45148.93
510.25	44910.20
510.42	44914.88
510.60	45212.13
510.77	45509.38
510.95	45591.30
511.12	45378.31
511.30	45460.23
511.47	45497.67
511.64	45734.07
511.82	45776.20
511.99	45888.54
512.17	46424.53
512.34	45874.50
512.51	46646.88
512.69	46642.20
512.86	46017.27
513.04	46738.16
513.21	46712.41
513.38	47042.43
513.56	47199.24
513.73	46902.00
513.90	47454.36
514.08	47110.30
514.25	47686.07
514.43	47531.60
514.60	47475.43
514.77	47442.66
514.95	47964.60
515.12	47452.02
515.29	47643.94
515.47	48039.50
515.64	48411.64
515.81	48301.64
515.99	48196.31
516.16	48416.32
516.33	48608.25
516.51	48816.55
516.68	48715.91
516.85	48357.81
517.03	49200.40
517.20	49331.47
517.37	48919.54
517.54	49071.67
517.72	49022.52
517.89	49038.90
518.06	49495.31
518.24	49595.95
518.41	49397.01
518.58	49485.95
518.75	49490.63
518.93	49748.09
519.10	49359.56
519.27	49975.12
519.45	50258.32
519.62	50305.13
519.79	49911.92
519.96	50167.04
520.14	50410.46
520.31	50003.20
520.48	50583.66
520.65	50305.13
520.83	50630.47
521.00	50798.99
521.17	50775.58
521.34	51058.79
521.52	51072.83
521.69	51297.52
521.86	51140.71
522.03	51330.29
522.20	51304.54
522.38	51461.36
522.55	51585.41
522.72	51107.94
522.89	51367.74
523.07	52102.67
523.24	51786.69
523.41	51718.82
523.58	51409.87
523.75	51987.98
523.92	51498.81
524.10	52170.54
524.27	52392.89
524.44	52126.07
524.61	52154.16
524.78	52186.92
524.96	52460.77
525.13	52289.91
525.30	52420.98
525.47	52601.20
525.64	52612.90
525.81	52685.46
525.98	52928.87
526.16	52699.50
526.33	52973.34
526.50	52945.26
526.67	52910.15
526.84	53188.67
527.01	52989.73
527.18	53188.67
527.36	53448.47
527.53	53233.14
527.70	53523.37
527.87	53385.28
528.04	53357.19
528.21	53422.73
528.38	53708.27
528.55	53719.98
528.72	53635.72
528.89	53446.13
529.07	53598.27
529.24	53602.95
529.41	53769.13
529.58	53635.72
529.75	53670.82
529.92	53958.71
530.09	53820.62
530.26	54169.36
530.43	54068.72
530.60	53888.49
530.77	54099.14
530.94	54237.23
531.11	53961.05
531.28	54405.75
531.46	54234.89
531.63	54433.84
531.80	54401.07
531.97	54688.96
532.14	54550.87
532.31	54695.98
532.48	54798.96
532.65	54850.45
532.82	54543.84
532.99	54789.60
533.16	54817.69
533.33	54869.18
533.50	55229.62
533.67	55004.93
533.84	54773.22
534.01	54962.80
534.18	55063.44
534.35	55236.64
534.52	55154.72
534.69	55451.97
534.86	55437.93
535.03	55033.02
535.20	55103.23
535.37	55487.08
535.54	55707.09
535.71	55327.92
535.88	55449.63
536.05	55744.54
536.22	55632.19
536.38	55751.56
536.55	55735.18
536.72	55540.91
536.89	55515.17
537.06	55435.59
537.23	55931.78
537.40	55388.78
537.57	55803.05
537.74	55873.27
537.91	56086.26
538.08	56306.27
538.25	56086.26
538.42	55854.54
538.59	56147.11
538.75	55707.09
538.92	56189.24
539.09	56222.01
539.26	56222.01
539.43	56287.54
539.60	56317.97
539.77	56378.82
539.94	56605.86
540.11	56549.68
540.28	56629.26
540.44	56856.29
540.61	56470.11
540.78	56479.47
540.95	56498.19
541.12	56610.54
541.29	56561.39
541.46	56594.15
541.62	56767.35
541.79	56910.13
541.96	56453.72
542.13	56418.61
542.30	56795.44
542.47	56882.04
542.63	56900.76
542.80	57036.51
542.97	57111.41
543.14	57485.90
543.31	57277.59
543.48	57343.12
543.64	57396.96
543.81	57631.01
543.98	57506.96
544.15	57219.08
544.32	57415.68
544.48	57677.82
544.65	57462.49
544.82	57518.67
544.99	57443.77
545.16	57675.48
545.32	57422.70
545.49	57890.81
545.66	57876.77
545.83	57710.59
546.00	57937.62
546.16	57696.55
546.33	57584.20
546.50	57490.58
546.67	57745.70
546.83	57460.15
547.00	58003.16
547.17	57759.74
547.34	57733.99
547.50	58103.80
547.67	58384.66
547.84	57916.56
548.00	58075.71
548.17	58363.60
548.34	58305.09
548.51	58267.64
548.67	58277.00
548.84	58258.27
549.01	58204.44
549.18	58291.04
549.34	58234.87
549.51	58293.38
549.68	58277.00
549.84	58330.83
550.01	58487.65
550.18	58293.38
550.34	58695.95
550.51	58656.17
550.68	58344.87
550.84	58183.38
551.01	58721.70
551.18	58497.01
551.34	58454.88
551.51	58560.20
551.68	58787.24
551.84	58749.79
552.01	58667.87
552.18	58497.01
552.34	58742.77
552.51	58724.04
552.68	58621.06
552.84	58670.21
553.01	59100.87
553.18	58908.94
553.34	58805.96
553.51	58878.52
553.67	59086.82
553.84	59023.63
554.01	59178.10
554.17	59201.51
554.34	59164.06
554.51	59110.23
554.67	59262.36
554.84	59206.19
555.00	59070.44
555.17	58965.12
555.33	59253.00
555.50	59007.25
555.67	58983.84
555.83	59187.47
556.00	59309.18
556.16	59395.77
556.33	59360.67
556.50	59365.35
556.66	59346.62
556.83	59299.81
556.99	59458.97
557.16	59501.10
557.32	59583.02
557.49	59522.16
557.65	59395.77
557.82	59299.81
557.98	59674.30
558.15	59498.76
558.32	59718.77
558.48	59627.49
558.65	59526.84
558.81	59641.53
558.98	59735.15
559.14	59533.87
559.31	59702.38
559.47	59753.88
559.64	59908.35
559.80	59852.18
559.97	59817.07
560.13	59739.83
560.30	59653.23
560.46	59929.42
560.63	59891.97
560.79	59854.52
560.96	59929.42
561.12	59952.82
561.29	59819.41
561.45	60001.97
561.61	59805.37
561.78	59941.12
561.94	59721.11
562.11	59847.50
562.27	60001.97
562.44	60107.30
562.60	60217.30
562.77	59964.52
562.93	59915.37
563.10	60165.81
563.26	59863.88
563.42	60039.42
563.59	59873.24
563.75	60128.36
563.92	60034.74
564.08	59952.82
564.24	60451.36
564.41	60266.45
564.57	60320.29
564.74	60147.09
564.90	60245.39
565.07	60104.96
565.23	60027.72
565.39	60210.28
565.56	60334.33
565.72	60254.75
565.88	60334.33
566.05	60133.04
566.21	60339.01
566.38	60381.14
566.54	60320.29
566.70	60451.36
566.87	60528.59
567.03	60144.75
567.19	60420.93
567.36	60556.68
567.52	60486.46
567.68	60697.11
567.85	60449.02
568.01	60612.85
568.17	60423.27
568.34	60647.96
568.50	60446.68
568.66	60399.86
568.83	60516.89
568.99	60299.22
569.15	60465.40
569.32	60484.12
569.48	60240.71
569.64	60734.56
569.81	60502.85
569.97	60640.94
570.13	60463.06
570.30	60357.74
570.46	60640.94
570.62	60711.16
570.78	60584.77
570.95	60537.96
571.11	60753.29
571.27	60453.70
571.43	60701.79
571.60	60694.77
571.76	60636.26
571.92	60633.92
572.09	60720.52
572.25	60678.39
572.41	60580.09
572.57	60671.37
572.74	60987.34
572.90	60612.85
573.06	60879.67
573.22	60802.44
573.38	60692.43
573.55	60610.51
573.71	60842.23
573.87	60736.90
574.03	60570.72
574.20	60795.42
574.36	60748.60
574.52	60828.18
574.68	60699.45
574.84	60764.99
575.01	60690.09
575.17	60905.42
575.33	60715.84
575.49	60795.42
575.65	60617.53
575.82	60903.08
575.98	60954.57
576.14	60987.34
576.30	60940.53
576.46	60713.50
576.62	60640.94
576.79	60865.63
576.95	60652.64
577.11	60954.57
577.27	61069.26
577.43	61085.64
577.59	60804.78
577.75	60786.05
577.92	60919.46
578.08	60947.55
578.24	60989.68
578.40	61118.41
578.56	60989.68
578.72	60797.76
578.88	61366.51
579.04	61066.92
579.21	61013.08
579.37	61034.15
579.53	61041.17
579.69	60882.02
579.85	60863.29
580.01	60879.67
580.17	60734.56
580.33	61008.40
580.49	61052.87
580.65	61106.71
580.82	61071.60
580.98	60987.34
581.14	60837.54
581.30	61183.94
581.46	61010.74
581.62	61111.39
581.78	60961.59
581.94	61008.40
582.10	61006.06
582.26	60832.86
582.42	60856.27
582.58	61083.30
582.74	61080.96
582.90	60963.93
583.06	60949.89
583.22	61090.32
583.38	61116.07
583.54	61031.81
583.70	60959.25
583.86	61282.25
584.02	60980.32
584.18	61146.50
584.34	61160.54
584.50	61197.99
584.66	61080.96
584.82	60914.78
584.98	61300.97
585.14	61123.09
585.30	60910.10
585.46	61286.93
585.62	61085.64
585.78	61418.00
585.94	60919.46
586.10	61223.73
586.26	61244.80
586.42	61174.58
586.58	61272.88
586.74	61254.16
586.90	61197.99
587.06	60949.89
587.22	61176.92
587.38	61097.34
587.54	61141.81
587.70	61289.27
587.86	61076.28
588.02	61141.81
588.18	61322.04
588.34	61052.87
