SpectraSuite Data File
++++++++++++++++++++++++++++++++++++
Date: Fri Oct 25 11:25:32 EDT 2013
User: price-jones
Dark Spectrum Present: No
Reference Spectrum Present: No
Number of Sampled Component Spectra: 1
Spectrometers: USB2+H05261
Integration Time (usec): 100000 (USB2+H05261)
Spectra Averaged: 1 (USB2+H05261)
Boxcar Smoothing: 0 (USB2+H05261)
Correct for Electrical Dark: No (USB2+H05261)
Strobe/Lamp Enabled: No (USB2+H05261)
Correct for Detector Non-linearity: No (USB2+H05261)
Correct for Stray Light: No (USB2+H05261)
Number of Pixels in Processed Spectrum: 2048
>>>>>Begin Processed Spectral Data<<<<<
365.73	245.76
365.92	245.76
366.12	245.76
366.32	135.75
366.52	77.24
366.72	135.75
366.91	98.30
367.11	124.05
367.31	145.11
367.51	184.90
367.70	102.98
367.90	168.52
368.10	102.98
368.30	145.11
368.49	58.51
368.69	222.35
368.89	98.30
369.09	77.24
369.28	191.92
369.48	184.90
369.68	180.22
369.87	189.58
370.07	259.80
370.27	234.05
370.47	334.70
370.66	552.37
370.86	645.99
371.06	645.99
371.25	638.97
371.45	650.67
371.65	671.73
371.84	730.25
372.04	690.46
372.24	800.46
372.44	678.76
372.63	723.23
372.83	751.31
373.03	692.80
373.22	788.76
373.42	795.78
373.62	765.36
373.81	833.23
374.01	763.01
374.21	861.32
374.40	758.33
374.60	875.36
374.79	823.87
374.99	887.06
375.19	880.04
375.38	858.98
375.58	793.44
375.78	856.64
375.97	866.00
376.17	849.61
376.37	861.32
376.56	858.98
376.76	791.10
376.95	835.57
377.15	940.90
377.35	992.39
377.54	938.55
377.74	889.40
377.93	889.40
378.13	851.96
378.33	1008.77
378.52	875.36
378.72	999.41
378.91	973.66
379.11	908.13
379.31	912.81
379.50	896.43
379.70	910.47
379.89	990.05
380.09	987.71
380.28	1015.79
380.48	908.13
380.68	947.92
380.87	926.85
381.07	1025.15
381.26	1013.45
381.46	1053.24
381.65	1041.54
381.85	1055.58
382.04	1018.13
382.24	999.41
382.43	1095.37
382.63	1086.01
382.83	1128.14
383.02	1071.97
383.22	1151.54
383.41	1041.54
383.61	1067.28
383.80	1151.54
384.00	1130.48
384.19	1109.41
384.39	1116.44
384.58	1130.48
384.78	1167.93
384.97	1114.10
385.17	1114.10
385.36	1137.50
385.56	1144.52
385.75	1163.25
385.95	1102.39
386.14	1205.38
386.34	1165.59
386.53	1245.16
386.72	1214.74
386.92	1299.00
387.11	1226.44
387.31	1331.76
387.50	1210.06
387.70	1214.74
387.89	1181.97
388.09	1233.46
388.28	1296.66
388.48	1315.38
388.67	1306.02
388.86	1219.42
389.06	1273.25
389.25	1263.89
389.45	1277.93
389.64	1324.74
389.84	1352.83
390.03	1291.98
390.22	1315.38
390.42	1390.28
390.61	1430.07
390.81	1427.73
391.00	1394.96
391.19	1394.96
391.39	1439.43
391.58	1469.86
391.78	1460.49
391.97	1448.79
392.16	1366.87
392.36	1441.77
392.55	1479.22
392.75	1514.33
392.94	1521.35
393.13	1514.33
393.33	1605.61
393.52	1575.18
393.71	1626.67
393.91	1514.33
394.10	1544.75
394.29	1591.56
394.49	1617.31
394.68	1633.69
394.88	1612.63
395.07	1680.50
395.26	1530.71
395.46	1687.53
395.65	1661.78
395.84	1724.97
396.04	1781.15
396.23	1783.49
396.42	1799.87
396.62	1816.26
396.81	1668.80
397.00	1797.53
397.19	1689.87
397.39	1699.23
397.58	1809.23
397.77	1853.70
397.97	1778.81
398.16	1881.79
398.35	1865.41
398.55	1849.02
398.74	1916.90
398.93	1940.30
399.12	1856.04
399.32	1832.64
399.51	1823.28
399.70	2019.88
399.90	1947.33
400.09	1949.67
400.28	1980.09
400.47	1977.75
400.67	2115.84
400.86	2047.97
401.05	2015.20
401.24	2076.06
401.44	2094.78
401.63	2129.89
401.82	2073.71
402.01	2165.00
402.21	2155.63
402.40	2249.25
402.59	2183.72
402.78	2216.49
402.97	2200.10
403.17	2277.34
403.36	2314.79
403.55	2293.72
403.74	2324.15
403.93	2377.98
404.13	2448.20
404.32	2345.22
404.51	2389.69
404.70	2394.37
404.89	2244.57
405.09	2452.88
405.28	2370.96
405.47	2368.62
405.66	2497.35
405.85	2502.03
406.05	2462.24
406.24	2534.80
406.43	2483.31
406.62	2626.08
406.81	2670.55
407.00	2614.38
407.20	2642.46
407.39	2548.84
407.58	2715.02
407.77	2612.04
407.96	2715.02
408.15	2703.32
408.34	2656.51
408.54	2780.56
408.73	2810.98
408.92	2895.24
409.11	2876.52
409.30	2993.55
409.49	2780.56
409.68	2932.69
409.87	2970.14
410.07	2939.71
410.26	3023.97
410.45	2909.29
410.64	3038.02
410.83	3115.25
411.02	3005.25
411.21	3171.43
411.40	3126.96
411.59	3190.15
411.78	3094.19
411.98	3110.57
412.17	3281.43
412.36	3372.71
412.55	3379.73
412.74	3438.25
412.93	3258.03
413.12	3283.77
413.31	3527.19
413.50	3487.40
413.69	3379.73
413.88	3602.08
414.07	3658.26
414.26	3618.47
414.45	3578.68
414.64	3592.72
414.83	3562.30
415.02	3801.03
415.22	3695.71
415.41	3957.85
415.60	3801.03
415.79	3873.59
415.98	3974.23
416.17	3936.78
416.36	4004.66
416.55	3859.54
416.74	4077.21
416.93	4149.77
417.12	4100.62
417.31	4058.49
417.50	4166.15
417.69	4205.94
417.88	4353.40
418.07	4210.62
418.26	4311.27
418.45	4292.54
418.64	4500.85
418.83	4367.44
419.02	4404.89
419.21	4510.21
419.39	4526.60
419.58	4456.38
419.77	4332.33
419.96	4435.32
420.15	4585.11
420.34	4491.49
420.53	4650.64
420.72	4667.03
420.91	4674.05
421.10	4631.92
421.29	4791.08
421.48	4718.52
421.67	4699.80
421.86	4737.24
422.05	4741.93
422.24	4819.16
422.43	4784.06
422.61	4891.72
422.80	5111.73
422.99	4774.69
423.18	4985.34
423.37	4975.98
423.56	5029.81
423.75	4947.89
423.94	4819.16
424.13	4599.15
424.32	4770.01
424.50	4997.04
424.69	5139.82
424.88	5006.41
425.07	5022.79
425.26	4734.90
425.45	4865.97
425.64	4926.83
425.83	4966.62
426.01	5015.77
426.20	5111.73
426.39	5013.43
426.58	5085.98
426.77	4968.96
426.96	5188.97
427.15	5277.91
427.33	5324.72
427.52	5104.71
427.71	5193.65
427.90	5224.08
428.09	5114.07
428.28	5336.42
428.46	5348.12
428.65	5345.78
428.84	5540.05
429.03	5619.63
429.22	5254.50
429.40	5453.45
429.59	5406.64
429.78	5179.61
429.97	5259.18
430.16	5568.13
430.34	5621.97
430.53	5598.56
430.72	5589.20
430.91	5645.37
431.10	5685.16
431.28	5724.95
431.47	5928.58
431.66	5731.97
431.85	5678.14
432.03	5944.96
432.22	6038.58
432.41	5668.78
432.60	5989.43
432.79	5921.56
432.97	5858.36
433.16	5966.03
433.35	6022.20
433.54	5984.75
433.72	6019.86
433.91	6033.90
434.10	6026.88
434.28	6120.50
434.47	6193.06
434.66	6342.85
434.85	6218.80
435.03	6249.23
435.22	6354.55
435.41	6401.37
435.59	6366.26
435.78	6530.09
435.97	6333.49
436.16	6277.32
436.34	6356.90
436.53	6700.95
436.72	6375.62
436.90	6452.86
437.09	6548.82
437.28	6480.94
437.46	6509.03
437.65	6684.57
437.84	6836.70
438.02	6424.77
438.21	6836.70
438.40	6600.31
438.58	6970.12
438.77	6949.05
438.96	6904.58
439.14	7171.40
439.33	7206.51
439.52	7101.19
439.70	7068.42
439.89	7379.71
440.08	7272.04
440.26	7304.81
440.45	7225.23
440.63	7332.90
440.82	7428.86
441.01	7595.04
441.19	7639.51
441.38	7765.90
441.57	7681.64
441.75	7709.72
441.94	7852.50
442.12	7927.39
442.31	7896.97
442.50	7967.18
442.68	7901.65
442.87	7950.80
443.05	7978.89
443.24	8023.36
443.43	8093.57
443.61	8109.96
443.80	8404.86
443.98	8009.31
444.17	7754.19
444.35	8170.81
444.54	8198.90
444.73	8180.17
444.91	8278.47
445.10	8154.43
445.28	8308.90
445.47	8147.40
445.65	8287.84
445.84	8184.85
446.02	8456.36
446.21	8477.42
446.39	8468.06
446.58	8236.35
446.77	8285.50
446.95	8145.06
447.14	8381.46
447.32	8617.85
447.51	8456.36
447.69	8168.47
447.88	8421.25
448.06	8606.15
448.25	8386.14
448.43	8489.12
448.62	8514.87
448.80	8425.93
448.99	8517.21
449.17	8709.13
449.36	8706.79
449.54	8809.78
449.73	8791.05
449.91	8847.22
450.10	8872.97
450.28	9055.53
450.46	9048.51
450.65	8961.91
450.83	8800.41
451.02	8931.48
451.20	9193.62
451.39	9123.41
451.57	9057.87
451.76	9055.53
451.94	9053.19
452.13	9415.98
452.31	9191.28
452.49	9032.13
452.68	9305.97
452.86	9357.46
453.05	9268.52
453.23	9334.06
453.42	9451.08
453.60	9341.08
453.78	9528.32
453.97	9334.06
454.15	9394.91
454.34	9404.27
454.52	9750.67
454.70	9617.26
454.89	9582.15
455.07	9830.25
455.26	9638.33
455.44	9856.00
455.62	9872.38
455.81	9830.25
455.99	9909.83
456.17	9926.21
456.36	10054.94
456.54	9888.76
456.73	9940.26
456.91	10333.47
457.09	10406.02
457.28	10675.18
457.46	10317.08
457.64	10431.77
457.83	10518.37
458.01	10401.34
458.19	10579.22
458.38	10478.58
458.56	10429.43
458.74	10621.35
458.93	10630.71
459.11	10689.23
459.29	10780.51
459.48	10754.76
459.66	10824.98
459.84	10970.09
460.03	10972.43
460.21	10878.81
460.39	11103.50
460.57	10827.32
460.76	10967.75
460.94	11070.73
461.12	10956.05
461.31	11077.76
461.49	11091.80
461.67	11173.72
461.85	11314.15
462.04	11229.89
462.22	11538.84
462.40	11583.31
462.59	11396.07
462.77	11461.60
462.95	11709.70
463.13	11337.56
463.32	11393.73
463.50	11712.04
463.68	11580.97
463.86	11735.45
464.05	11817.36
464.23	11496.71
464.41	11826.73
464.59	11494.37
464.78	12051.42
464.96	11934.39
465.14	11953.12
465.32	11934.39
465.50	12077.16
465.69	12006.95
465.87	12098.23
466.05	12058.44
466.23	12009.29
466.41	12208.23
466.60	12219.94
466.78	12177.81
466.96	11901.62
467.14	12404.84
467.32	12341.64
467.51	12549.95
467.69	12208.23
467.87	12486.76
468.05	12561.66
468.23	12341.64
468.41	12594.42
468.60	12578.04
468.78	12470.37
468.96	12732.51
469.14	12861.24
469.32	12751.24
469.50	12538.25
469.69	12734.85
469.87	12840.18
470.05	13064.87
470.23	13144.45
470.41	12791.03
470.59	13083.59
470.77	13055.51
470.95	13034.44
471.14	13434.68
471.32	13039.12
471.50	13596.17
471.68	13598.51
471.86	13694.47
472.04	13792.78
472.22	13951.93
472.40	13783.41
472.58	13738.94
472.77	14134.50
472.95	14148.54
473.13	14464.51
473.31	14033.85
473.49	14078.32
473.67	14167.26
473.85	14427.06
474.03	14747.72
474.21	14581.54
474.39	14691.54
474.57	14623.67
474.75	14712.61
474.93	14874.10
475.12	14834.32
475.30	15037.94
475.48	15063.69
475.66	14953.68
475.84	14806.23
476.02	15339.87
476.20	15154.97
476.38	15623.08
476.56	15765.85
476.74	15887.56
476.92	15836.06
477.10	15880.53
477.28	16224.59
477.46	16088.84
477.64	16238.64
477.82	16582.70
478.00	16917.39
478.18	16666.95
478.36	16758.24
478.54	16835.47
478.72	17039.10
478.90	17198.26
479.08	17516.57
479.26	17481.46
479.44	17612.53
479.62	17764.67
479.80	17802.11
479.98	18101.70
480.16	18417.68
480.34	18087.66
480.52	18586.19
480.70	18389.59
480.88	18370.86
481.06	18600.24
481.24	18597.90
481.41	18857.70
481.59	19346.87
481.77	19346.87
481.95	19267.29
482.13	19578.58
482.31	19454.53
482.49	20030.30
482.67	19974.13
482.85	20297.13
483.03	20395.43
483.21	20411.81
483.39	20865.88
483.57	20620.12
483.74	20938.43
483.92	21263.77
484.10	21015.67
484.28	21383.13
484.46	22005.72
484.64	22026.78
484.82	21764.64
485.00	22295.94
485.18	22576.81
485.35	22836.61
485.53	22527.66
485.71	23007.47
485.89	23119.81
486.07	23112.79
486.25	23213.43
486.43	23438.12
486.61	23487.28
486.78	23702.61
486.96	23943.68
487.14	24599.03
487.32	24327.53
487.50	24863.51
487.68	24699.67
487.85	25064.80
488.03	25413.54
488.21	25865.26
488.39	25577.37
488.57	25673.34
488.75	26050.16
488.92	26066.55
489.10	26434.01
489.28	26253.79
489.46	27065.96
489.64	26979.36
489.81	27573.85
489.99	27501.29
490.17	27648.75
490.35	27957.70
490.53	28229.20
490.70	28421.13
490.88	28514.75
491.06	28531.13
491.24	28570.92
491.41	28870.51
491.59	28833.06
491.77	29275.42
491.95	29656.93
492.13	29345.64
492.30	29752.89
492.48	29841.83
492.66	29921.41
492.84	29982.26
493.01	30389.52
493.19	30562.72
493.37	30958.27
493.54	30724.21
493.72	31072.95
493.90	31414.67
494.08	31515.31
494.25	31917.89
494.43	31569.15
494.61	32304.07
494.79	32383.65
494.96	32243.22
495.14	32336.84
495.32	32486.64
495.49	33202.84
495.67	32926.66
495.85	33221.56
496.02	33450.94
496.20	33897.98
496.38	33766.91
496.55	33773.93
496.73	34607.16
496.91	34340.34
497.09	34628.23
497.26	34230.33
497.44	34649.29
497.62	35129.10
497.79	35892.12
497.97	35405.28
498.14	35431.03
498.32	35873.39
498.50	36329.80
498.67	36119.15
498.85	36624.70
499.03	36182.34
499.20	36318.09
499.38	36879.82
499.56	36870.46
499.73	36676.19
499.91	37106.85
500.08	37289.42
500.26	37514.11
500.44	37635.81
500.61	37368.99
500.79	37563.26
500.97	37703.69
501.14	38462.02
501.32	38101.58
501.49	38068.81
501.67	37872.21
501.84	38380.10
502.02	38604.80
502.20	38452.66
502.37	38689.06
502.55	38888.00
502.72	38904.38
502.90	38869.28
503.07	39150.14
503.25	39587.82
503.43	39470.79
503.60	39763.36
503.78	39861.66
503.95	40170.61
504.13	40051.25
504.30	40067.63
504.48	40601.27
504.65	40346.15
504.83	40926.61
505.01	40634.04
505.18	40711.28
505.36	41441.53
505.53	40938.31
505.71	41263.64
505.88	41687.28
506.06	41350.24
506.23	41904.95
506.41	41837.08
506.58	42115.60
506.76	41776.22
506.93	42295.82
507.11	41783.24
507.28	42527.53
507.46	42356.67
507.63	42672.65
507.81	42850.53
507.98	42450.30
508.16	43206.29
508.33	43349.06
508.50	43337.36
508.68	43564.39
508.85	44154.21
509.03	43737.59
509.20	43358.42
509.38	44229.10
509.55	43889.73
509.73	44081.65
509.90	44322.72
510.08	44355.49
510.25	44147.18
510.42	44418.69
510.60	44617.63
510.77	44715.93
510.95	45193.40
511.12	44739.34
511.30	45380.65
511.47	45242.56
511.64	45338.52
511.82	45488.31
511.99	44842.32
512.17	45621.72
512.34	45614.70
512.51	45853.44
512.69	46197.49
512.86	46026.63
513.04	46443.25
513.21	46150.68
513.38	46190.47
513.56	46679.64
513.73	46677.30
513.90	47040.09
514.08	46447.93
514.25	46483.04
514.43	46866.89
514.60	47199.24
514.77	47061.15
514.95	47285.84
515.12	47178.18
515.29	47386.49
515.47	47468.40
515.64	47901.40
515.81	47562.03
515.99	48062.90
516.16	48030.13
516.33	48105.03
516.51	48044.18
516.68	48095.67
516.85	48584.84
517.03	48491.22
517.20	48608.25
517.37	48540.37
517.54	48629.31
517.72	48830.60
517.89	48741.66
518.06	48917.20
518.24	48994.43
518.41	48767.40
518.58	48891.45
518.75	49160.61
518.93	49263.60
519.10	49013.16
519.27	49364.24
519.45	49453.18
519.62	49588.93
519.79	49701.28
519.96	49921.29
520.14	49851.07
520.31	49689.57
520.48	50017.25
520.65	49972.78
520.83	50197.47
521.00	50438.54
521.17	50216.19
521.34	50473.65
521.52	50494.72
521.69	50578.98
521.86	50667.92
522.03	50796.65
522.20	51320.93
522.38	51299.86
522.55	51231.99
522.72	51019.00
522.89	51173.47
523.07	51466.04
523.24	51208.58
523.41	51311.56
523.58	51131.34
523.75	51793.71
523.92	51683.71
524.10	52128.41
524.27	51882.66
524.44	51892.02
524.61	51805.42
524.78	51866.27
524.96	52065.22
525.13	52041.81
525.30	52142.45
525.47	52294.59
525.64	52317.99
525.81	52154.16
525.98	52362.46
526.16	52254.80
526.33	52245.44
526.50	52669.08
526.67	52383.53
526.84	52853.98
527.01	52802.49
527.18	52715.89
527.36	53183.99
527.53	53022.50
527.70	53001.43
527.87	53188.67
528.04	52889.09
528.21	53013.13
528.38	53207.40
528.55	53373.58
528.72	53202.72
528.89	53340.81
529.07	53069.31
529.24	53268.25
529.41	53448.47
529.58	53565.50
529.75	53382.94
529.92	53481.24
530.09	53614.65
530.26	53703.59
530.43	53923.60
530.60	53727.00
530.77	53818.28
530.94	53904.88
531.11	53881.47
531.28	54164.68
531.46	53844.02
531.63	54003.18
531.80	53853.39
531.97	54014.88
532.14	54061.69
532.31	54251.28
532.48	54457.24
532.65	54319.15
532.82	54178.72
532.99	54223.19
533.16	54232.55
533.33	54677.25
533.50	54567.25
533.67	54691.30
533.84	54506.40
534.01	54541.50
534.18	54473.63
534.35	54822.37
534.52	54955.78
534.69	55283.45
534.86	55196.85
535.03	54965.14
535.20	55194.51
535.37	55133.66
535.54	55248.35
535.71	55128.98
535.88	55152.38
536.05	55255.37
536.22	55487.08
536.38	55444.95
536.55	55412.18
536.72	55695.39
536.89	55309.20
537.06	55213.24
537.23	55627.51
537.40	55393.46
537.57	55606.45
537.74	55241.32
537.91	55931.78
538.08	55690.71
538.25	55458.99
538.42	55849.86
538.59	55950.51
538.75	55732.84
538.92	55721.13
539.09	56041.79
539.26	56074.55
539.43	55910.72
539.60	56184.56
539.77	56189.24
539.94	56456.06
540.11	56069.87
540.28	56184.56
540.44	56229.03
540.61	56423.29
540.78	56317.97
540.95	56083.92
541.12	56046.47
541.29	56079.24
541.46	56390.53
541.62	56521.60
541.79	56638.62
541.96	56182.22
542.13	56418.61
542.30	56573.09
542.47	56748.63
542.63	56678.41
542.80	56755.65
542.97	56704.16
543.14	57130.14
543.31	57027.15
543.48	57008.43
543.64	57265.89
543.81	57212.06
543.98	57144.18
544.15	57113.75
544.32	57406.32
544.48	57308.02
544.65	57134.82
544.82	57228.44
544.99	57301.00
545.16	57329.08
545.32	57228.44
545.49	57373.55
545.66	57446.11
545.83	57258.87
546.00	57736.34
546.16	57495.26
546.33	57389.94
546.50	57373.55
546.67	57354.83
546.83	56921.83
547.00	57701.23
547.17	57488.24
547.34	57771.44
547.50	57745.70
547.67	57975.07
547.84	57839.32
548.00	58035.92
548.17	58026.56
548.34	57769.10
548.51	57984.43
548.67	58071.03
548.84	57944.64
549.01	57790.17
549.18	57792.51
549.34	58110.82
549.51	58188.06
549.68	58171.67
549.84	58209.12
550.01	58319.13
550.18	58092.10
550.34	58354.24
550.51	58333.17
550.68	58457.22
550.84	58092.10
551.01	58391.68
551.18	58401.05
551.34	58518.07
551.51	58464.24
551.68	58370.62
551.84	58562.54
552.01	58422.11
552.18	58424.45
552.34	58269.98
552.51	58585.95
552.68	58429.13
552.84	58607.01
553.01	58745.11
553.18	58705.32
553.34	58721.70
553.51	58658.51
553.67	58852.77
553.84	58855.11
554.01	58827.02
554.17	58677.23
554.34	58878.52
554.51	58787.24
554.67	58831.71
554.84	58836.39
555.00	58735.74
555.17	58681.91
555.33	58827.02
555.50	58927.67
555.67	58581.27
555.83	58878.52
556.00	58883.20
556.16	59248.32
556.33	59070.44
556.50	59004.91
556.66	59182.79
556.83	59077.46
556.99	59295.13
557.16	59358.33
557.32	59330.24
557.49	59463.65
557.65	59311.52
557.82	59164.06
557.98	59278.75
558.15	59391.09
558.32	59318.54
558.48	59262.36
558.65	59229.60
558.81	59501.10
558.98	59440.24
559.14	59323.22
559.31	59281.09
559.47	59419.18
559.64	59405.14
559.80	59465.99
559.97	59662.60
560.13	59409.82
560.30	59608.76
560.46	59662.60
560.63	59714.09
560.79	59800.69
560.96	59714.09
561.12	59599.40
561.29	59901.33
561.45	59826.43
561.61	59728.13
561.78	59639.19
561.94	59585.36
562.11	59833.46
562.27	59657.91
562.44	59674.30
562.60	59966.87
562.77	59990.27
562.93	59529.19
563.10	59945.80
563.26	59807.71
563.42	60023.04
563.59	59845.16
563.75	59793.67
563.92	59861.54
564.08	59625.15
564.24	59943.46
564.41	59831.11
564.57	59777.28
564.74	59969.21
564.90	59964.52
565.07	59803.03
565.23	59817.07
565.39	59913.03
565.56	60069.85
565.72	60044.10
565.88	59997.29
566.05	60133.04
566.21	59910.69
566.38	60097.94
566.54	60322.63
566.70	60163.47
566.87	60147.09
567.03	60088.57
567.19	60266.45
567.36	60027.72
567.52	60032.40
567.68	60423.27
567.85	59908.35
568.01	60229.01
568.17	60198.58
568.34	60261.77
568.50	60224.32
568.66	60247.73
568.83	60331.99
568.99	60151.77
569.15	60271.14
569.32	60179.85
569.48	60184.54
569.64	60484.12
569.81	60088.57
569.97	60200.92
570.13	60282.84
570.30	60179.85
570.46	60205.60
570.62	60285.18
570.78	60334.33
570.95	60121.34
571.11	60460.72
571.27	60224.32
571.43	60378.80
571.60	60493.49
571.76	60374.12
571.92	60381.14
572.09	60568.38
572.25	60299.22
572.41	60135.38
572.57	60336.67
572.74	60587.11
572.90	60512.21
573.06	60324.97
573.22	60434.97
573.38	60528.59
573.55	60423.27
573.71	60722.86
573.87	60619.88
574.03	60465.40
574.20	60495.83
574.36	60554.34
574.52	60598.81
574.68	60523.91
574.84	60685.41
575.01	60638.60
575.17	60547.32
575.33	60521.57
575.49	60638.60
575.65	60650.30
575.82	60657.32
575.98	60704.13
576.14	60636.26
576.30	60523.91
576.46	60573.06
576.62	60547.32
576.79	60580.09
576.95	60556.68
577.11	60605.83
577.27	60617.53
577.43	60699.45
577.59	60697.11
577.75	60612.85
577.92	60624.56
578.08	60743.92
578.24	60823.50
578.40	61087.98
578.56	60753.29
578.72	60631.58
578.88	60690.09
579.04	60933.51
579.21	60591.79
579.37	60882.02
579.53	60872.65
579.69	60495.83
579.85	60587.11
580.01	60671.37
580.17	60645.62
580.33	60767.33
580.49	60708.82
580.65	60774.35
580.82	60732.22
580.98	60615.19
581.14	60650.30
581.30	60823.50
581.46	60722.86
581.62	60622.22
581.78	60535.62
581.94	60669.03
582.10	60666.69
582.26	60795.42
582.42	60692.43
582.58	60863.29
582.74	60603.49
582.90	60795.42
583.06	60832.86
583.22	60601.15
583.38	60830.52
583.54	60903.08
583.70	60973.30
583.86	60788.39
584.02	60556.68
584.18	60786.05
584.34	60786.05
584.50	60722.86
584.66	60680.73
584.82	60865.63
584.98	60865.63
585.14	61013.08
585.30	60715.84
585.46	60853.93
585.62	60970.96
585.78	60849.25
585.94	60624.56
586.10	60795.42
586.26	61027.13
586.42	60837.54
586.58	60849.25
586.74	60839.89
586.90	61071.60
587.06	60814.14
587.22	60795.42
587.38	60928.83
587.54	61062.24
587.70	61029.47
587.86	60678.39
588.02	60959.25
588.18	60996.70
588.34	60814.14
588.49	60769.67
