SpectraSuite Data File
++++++++++++++++++++++++++++++++++++
Date: Fri Oct 25 11:23:46 EDT 2013
User: price-jones
Dark Spectrum Present: No
Reference Spectrum Present: No
Number of Sampled Component Spectra: 1
Spectrometers: USB2+H05261
Integration Time (usec): 100000 (USB2+H05261)
Spectra Averaged: 1 (USB2+H05261)
Boxcar Smoothing: 0 (USB2+H05261)
Correct for Electrical Dark: No (USB2+H05261)
Strobe/Lamp Enabled: No (USB2+H05261)
Correct for Detector Non-linearity: No (USB2+H05261)
Correct for Stray Light: No (USB2+H05261)
Number of Pixels in Processed Spectrum: 2048
>>>>>Begin Processed Spectral Data<<<<<
365.73	269.16
365.92	269.16
366.12	269.16
366.32	159.16
366.52	194.26
366.72	182.56
366.91	91.28
367.11	131.07
367.31	163.84
367.51	177.88
367.70	121.71
367.90	112.35
368.10	180.22
368.30	102.98
368.49	147.45
368.69	149.79
368.89	168.52
369.09	56.17
369.28	170.86
369.48	102.98
369.68	173.20
369.87	131.07
370.07	191.92
370.27	229.37
370.47	379.17
370.66	528.96
370.86	580.45
371.06	653.01
371.25	643.65
371.45	723.23
371.65	713.86
371.84	685.78
372.04	739.61
372.24	718.54
372.44	718.54
372.63	755.99
372.83	781.74
373.03	770.04
373.22	699.82
373.42	807.48
373.62	812.17
373.81	725.57
374.01	816.85
374.21	873.02
374.40	805.14
374.60	840.25
374.79	870.68
374.99	781.74
375.19	819.19
375.38	828.55
375.58	898.77
375.78	950.26
375.97	945.58
376.17	973.66
376.37	903.45
376.56	912.81
376.76	849.61
376.95	849.61
377.15	903.45
377.35	887.06
377.54	898.77
377.74	924.51
377.93	788.76
378.13	917.49
378.33	912.81
378.52	896.43
378.72	917.49
378.91	851.96
379.11	971.32
379.31	875.36
379.50	901.11
379.70	994.73
379.89	994.73
380.09	968.98
380.28	992.39
380.48	1011.11
380.68	976.00
380.87	931.53
381.07	994.73
381.26	1041.54
381.46	1006.43
381.65	1097.71
381.85	957.28
382.04	1062.60
382.24	1102.39
382.43	1053.24
382.63	1128.14
382.83	1118.78
383.02	1111.75
383.22	1214.74
383.41	1081.33
383.61	980.68
383.80	1151.54
384.00	1100.05
384.19	1121.12
384.39	1139.84
384.58	1151.54
384.78	1228.78
384.97	1186.65
385.17	1121.12
385.36	1240.48
385.56	1153.88
385.75	1149.20
385.95	1121.12
386.14	1233.46
386.34	1205.38
386.53	1188.99
386.72	1242.82
386.92	1245.16
387.11	1263.89
387.31	1203.04
387.50	1282.61
387.70	1259.21
387.89	1259.21
388.09	1296.66
388.28	1186.65
388.48	1235.80
388.67	1350.49
388.86	1287.29
389.06	1334.11
389.25	1373.89
389.45	1252.19
389.64	1294.32
389.84	1404.32
390.03	1469.86
390.22	1294.32
390.42	1287.29
390.61	1390.28
390.81	1355.17
391.00	1437.09
391.19	1383.26
391.39	1416.02
391.58	1530.71
391.78	1479.22
391.97	1507.30
392.16	1483.90
392.36	1533.05
392.55	1589.22
392.75	1462.83
392.94	1575.18
393.13	1502.62
393.33	1411.34
393.52	1643.06
393.71	1603.27
393.91	1607.95
394.10	1565.82
394.29	1582.20
394.49	1643.06
394.68	1668.80
394.88	1575.18
395.07	1687.53
395.26	1722.63
395.46	1673.48
395.65	1696.89
395.84	1736.68
396.04	1724.97
396.23	1839.66
396.42	1767.10
396.62	1732.00
396.81	1823.28
397.00	1881.79
397.19	1823.28
397.39	1813.92
397.58	1860.73
397.77	1769.44
397.97	1907.54
398.16	1832.64
398.35	1940.30
398.55	1799.87
398.74	1912.22
398.93	1977.75
399.12	1937.96
399.32	1879.45
399.51	1940.30
399.70	2029.24
399.90	1891.15
400.09	2036.27
400.28	2040.95
400.47	1975.41
400.67	2179.04
400.86	2036.27
401.05	2094.78
401.24	2150.95
401.44	2129.89
401.63	2099.46
401.82	2078.40
402.01	2125.21
402.21	2263.30
402.40	2275.00
402.59	2200.10
402.78	2260.96
402.97	2207.13
403.17	2317.13
403.36	2162.66
403.55	2377.98
403.74	2317.13
403.93	2242.23
404.13	2319.47
404.32	2366.28
404.51	2342.88
404.70	2534.80
404.89	2410.75
405.09	2532.46
405.28	2490.33
405.47	2441.18
405.66	2466.92
405.85	2462.24
406.05	2658.85
406.24	2633.10
406.43	2502.03
406.62	2520.76
406.81	2581.61
407.00	2693.96
407.20	2600.34
407.39	2583.95
407.58	2693.96
407.77	2658.85
407.96	2679.91
408.15	2733.75
408.34	2768.85
408.54	2736.09
408.73	2682.25
408.92	2839.07
409.11	2853.11
409.30	2878.86
409.49	2806.30
409.68	2911.63
409.87	2897.58
410.07	2864.82
410.26	2995.89
410.45	3077.80
410.64	3070.78
410.83	3166.74
411.02	2946.73
411.21	3208.87
411.40	3222.92
411.59	3236.96
411.78	3145.68
411.98	3276.75
412.17	3178.45
412.36	3290.79
412.55	3400.80
412.74	3468.67
412.93	3375.05
413.12	3279.09
413.31	3597.40
413.50	3513.14
413.69	3496.76
413.88	3613.79
414.07	3590.38
414.26	3679.32
414.45	3655.92
414.64	3674.64
414.83	3728.47
415.02	3782.31
415.22	3765.92
415.41	3880.61
415.60	3861.88
415.79	3978.91
415.98	3967.21
416.17	3978.91
416.36	3922.74
416.55	3985.93
416.74	4011.68
416.93	4159.13
417.12	4145.09
417.31	4046.79
417.50	4119.34
417.69	4308.93
417.88	4180.20
418.07	4287.86
418.26	4248.07
418.45	4451.70
418.64	4339.35
418.83	4306.59
419.02	4470.42
419.21	4507.87
419.39	4500.85
419.58	4514.89
419.77	4332.33
419.96	4587.45
420.15	4645.96
420.34	4608.51
420.53	4528.94
420.72	4688.09
420.91	4842.57
421.10	4697.46
421.29	4940.87
421.48	4678.73
421.67	4821.50
421.86	4875.34
422.05	4868.31
422.24	4901.08
422.43	4959.60
422.61	5022.79
422.80	5172.58
422.99	4870.65
423.18	4992.36
423.37	5008.75
423.56	5020.45
423.75	4912.78
423.94	4812.14
424.13	4725.54
424.32	4744.27
424.50	4929.17
424.69	5149.18
424.88	5060.24
425.07	5043.85
425.26	4826.18
425.45	4978.32
425.64	5006.41
425.83	5193.65
426.01	5135.14
426.20	5242.80
426.39	5181.95
426.58	5008.75
426.77	4980.66
426.96	5231.10
427.15	5245.14
427.33	5083.64
427.52	5015.77
427.71	5270.89
427.90	5336.42
428.09	5317.70
428.28	5371.53
428.46	5497.92
428.65	5458.13
428.84	5507.28
429.03	5507.28
429.22	5490.90
429.40	5465.15
429.59	5500.26
429.78	5305.99
429.97	5404.30
430.16	5537.71
430.34	5802.19
430.53	5701.54
430.72	5809.21
430.91	5654.73
431.10	5748.36
431.28	5741.33
431.47	5633.67
431.66	5638.35
431.85	5631.33
432.03	6033.90
432.22	6282.00
432.41	6005.81
432.60	5919.21
432.79	5902.83
432.97	6066.67
433.16	6001.13
433.35	6052.63
433.54	6076.03
433.72	6230.51
433.91	6052.63
434.10	6052.63
434.28	6139.23
434.47	6333.49
434.66	6457.54
434.85	6384.98
435.03	6293.70
435.22	6246.89
435.41	6459.88
435.59	6471.58
435.78	6464.56
435.97	6569.88
436.16	6403.71
436.34	6483.28
436.53	6459.88
436.72	6663.51
436.90	6600.31
437.09	6485.62
437.28	6525.41
437.46	6677.55
437.65	6832.02
437.84	6829.68
438.02	6820.32
438.21	6754.79
438.40	6803.94
438.58	7021.61
438.77	7075.44
438.96	7054.37
439.14	7033.31
439.33	7176.08
439.52	7171.40
439.70	7096.50
439.89	7440.56
440.08	7400.77
440.26	7445.24
440.45	7449.93
440.63	7679.30
440.82	7712.07
441.01	7653.55
441.19	7714.41
441.38	7655.89
441.57	7583.34
441.75	7836.11
441.94	7850.16
442.12	7995.27
442.31	8168.47
442.50	7934.42
442.68	8140.38
442.87	8077.19
443.05	8070.17
443.24	8360.39
443.43	8152.09
443.61	8229.32
443.80	8428.27
443.98	8128.68
444.17	7815.05
444.35	8358.05
444.54	8451.67
444.73	8248.05
444.91	8266.77
445.10	8388.48
445.28	8414.23
445.47	8329.97
445.65	8301.88
445.84	8383.80
446.02	8468.06
446.21	8465.72
446.39	8524.23
446.58	8461.04
446.77	8425.93
446.95	8187.19
447.14	8435.29
447.32	8788.71
447.51	8533.59
447.69	8482.10
447.88	8601.47
448.06	8603.81
448.25	8444.65
448.43	8650.62
448.62	8561.68
448.80	8849.57
448.99	8762.97
449.17	8739.56
449.36	8774.67
449.54	8809.78
449.73	9048.51
449.91	9123.41
450.10	8992.34
450.28	9153.84
450.46	9137.45
450.65	9160.86
450.83	9032.13
451.02	8994.68
451.20	9305.97
451.39	9135.11
451.57	9090.64
451.76	9111.71
451.94	9191.28
452.13	9390.23
452.31	9425.34
452.49	9179.58
452.68	9451.08
452.86	9186.60
453.05	9504.92
453.23	9455.76
453.42	9549.39
453.60	9336.40
453.78	9490.87
453.97	9570.45
454.15	9511.94
454.34	9593.86
454.52	9607.90
454.70	9680.46
454.89	9891.10
455.07	9881.74
455.26	9884.08
455.44	10036.22
455.62	10024.51
455.81	10073.67
455.99	10101.75
456.17	9909.83
456.36	10216.44
456.54	10265.59
456.73	10349.85
456.91	10406.02
457.09	10431.77
457.28	10567.52
457.46	10303.04
457.64	10509.01
457.83	10579.22
458.01	10452.83
458.19	10635.39
458.38	10661.14
458.56	10668.16
458.74	10693.91
458.93	10890.51
459.11	10712.63
459.29	10822.64
459.48	10782.85
459.66	11014.56
459.84	11084.78
460.03	11234.57
460.21	10991.16
460.39	11098.82
460.57	11000.52
460.76	11227.55
460.94	11431.18
461.12	11328.19
461.31	11487.35
461.49	11063.71
461.67	11222.87
461.85	11585.65
462.04	11569.27
462.22	11681.61
462.40	11861.84
462.59	11351.60
462.77	11517.78
462.95	11740.13
463.13	11625.44
463.32	11822.05
463.50	11808.00
463.68	11836.09
463.86	11978.86
464.05	11688.64
464.23	11709.70
464.41	11726.08
464.59	11777.58
464.78	12107.59
464.96	11985.88
465.14	11805.66
465.32	12166.10
465.50	12112.27
465.69	12299.52
465.87	12194.19
466.05	11929.71
466.23	12077.16
466.41	12292.49
466.60	12601.44
466.78	12135.68
466.96	12236.32
467.14	12278.45
467.32	12629.53
467.51	12648.26
467.69	12152.06
467.87	12226.96
468.05	12589.74
468.23	12379.09
468.41	12336.96
468.60	12648.26
468.78	12709.11
468.96	12791.03
469.14	12666.98
469.32	12903.37
469.50	12692.73
469.69	13184.24
469.87	13242.75
470.05	13156.15
470.23	13397.23
470.41	13270.84
470.59	13415.95
470.77	13242.75
470.95	13305.95
471.14	13668.73
471.32	13128.06
471.50	13462.76
471.68	13713.20
471.86	13848.95
472.04	13729.58
472.22	14209.39
472.40	14008.11
472.58	13724.90
472.77	14033.85
472.95	14263.22
473.13	14607.28
473.31	14059.60
473.49	14394.29
473.67	14197.69
473.85	14377.91
474.03	14473.87
474.21	14796.87
474.39	15075.39
474.57	14764.10
474.75	14689.20
474.93	15332.85
475.12	14932.62
475.30	15356.25
475.48	15112.84
475.66	15302.42
475.84	15410.09
476.02	15449.88
476.20	15604.35
476.38	15836.06
476.56	16184.80
476.74	16126.29
476.92	16044.37
477.10	16100.55
477.28	16507.80
477.46	16128.63
477.64	16203.53
477.82	16664.61
478.00	16985.27
478.18	16798.02
478.36	17123.36
478.54	17233.36
478.72	17205.28
478.90	17420.61
479.08	17551.68
479.26	17558.70
479.44	17942.55
479.62	18108.72
479.80	17980.00
479.98	18373.21
480.16	18618.96
480.34	18478.53
480.52	18710.24
480.70	18916.21
480.88	18721.95
481.06	18576.83
481.24	18860.04
481.41	19016.85
481.59	19480.28
481.77	19749.44
481.95	19529.43
482.13	19978.81
482.31	19946.05
482.49	20283.08
482.67	20067.75
482.85	20404.79
483.03	20685.65
483.21	21053.12
483.39	20905.66
483.57	20959.50
483.74	21612.51
483.92	21125.68
484.10	21228.66
484.28	22052.53
484.46	21949.54
484.64	22242.11
484.82	22293.60
485.00	22363.82
485.18	22967.68
485.35	23204.07
485.53	22871.72
485.71	23035.55
485.89	23529.41
486.07	23431.10
486.25	23332.80
486.43	23924.96
486.61	24044.32
486.78	24374.34
486.96	24208.16
487.14	24851.81
487.32	24664.57
487.50	25195.87
487.68	25142.03
487.85	25596.10
488.03	25465.03
488.21	25727.17
488.39	25919.09
488.57	26122.72
488.75	26230.38
488.92	26478.48
489.10	27047.23
489.28	26672.74
489.46	27180.64
489.64	26616.57
489.81	27892.16
489.99	27796.20
490.17	27749.39
490.35	28379.00
490.53	28446.87
490.70	28491.34
490.88	28177.71
491.06	29230.95
491.24	29069.45
491.41	29113.92
491.59	29521.18
491.77	29535.22
491.95	29818.42
492.13	29764.59
492.30	30146.10
492.48	30438.67
492.66	30258.45
492.84	30445.69
493.01	31068.27
493.19	31016.78
493.37	30927.84
493.54	31459.14
493.72	31374.88
493.90	31630.00
494.08	32233.86
494.25	32292.37
494.43	32339.18
494.61	32313.44
494.79	32943.04
494.96	32826.01
495.14	32669.20
495.32	33303.48
495.49	33668.61
495.67	33413.49
495.85	33890.96
496.02	34171.82
496.20	34162.46
496.38	34553.33
496.55	34281.83
496.73	34864.62
496.91	34897.39
497.09	35054.20
497.26	35229.74
497.44	35091.65
497.62	35180.59
497.79	36067.66
497.97	35566.78
498.14	35988.08
498.32	36397.67
498.50	36414.05
498.67	36683.22
498.85	36500.65
499.03	37158.34
499.20	37074.09
499.38	37247.29
499.56	37085.79
499.73	37570.28
499.91	37338.57
500.08	38000.94
500.26	37986.89
500.44	37727.10
500.61	37979.87
500.79	37851.14
500.97	38183.50
501.14	38686.71
501.32	38836.51
501.49	38892.68
501.67	38986.30
501.84	39550.37
502.02	39370.15
502.20	39108.01
502.37	38988.64
502.55	39592.50
502.72	40137.85
502.90	39847.62
503.07	39894.43
503.25	40329.77
503.43	40285.30
503.60	39791.45
503.78	40479.57
503.95	40088.70
504.13	40638.72
504.30	40762.77
504.48	40713.62
504.65	41195.77
504.83	41275.35
505.01	41640.47
505.18	41069.38
505.36	41818.35
505.53	41406.42
505.71	41659.20
505.88	41750.48
506.06	41727.07
506.23	42354.33
506.41	42043.04
506.58	42146.03
506.76	42241.99
506.93	42490.09
507.11	42447.96
507.28	42763.93
507.46	42810.74
507.63	42761.59
507.81	43388.85
507.98	43115.01
508.16	43470.77
508.33	43810.15
508.50	43540.99
508.68	43786.74
508.85	44271.23
509.03	43803.13
509.20	44189.31
509.38	44603.59
509.55	44641.04
509.73	44554.44
509.90	44781.47
510.08	44797.85
510.25	44591.89
510.42	45263.62
510.60	45275.32
510.77	45467.25
510.95	45673.21
511.12	45769.18
511.30	45551.51
511.47	45790.24
511.64	45661.51
511.82	46050.04
511.99	45895.56
512.17	46487.72
512.34	46293.46
512.51	46649.22
512.69	46490.06
512.86	46707.73
513.04	46892.63
513.21	46920.72
513.38	47077.54
513.56	47234.35
513.73	47215.63
513.90	46976.89
514.08	46930.08
514.25	47337.33
514.43	47484.79
514.60	47601.82
514.77	47349.04
514.95	47969.28
515.12	47721.18
515.29	47746.93
515.47	48531.01
515.64	48341.42
515.81	47959.92
515.99	48582.50
516.16	48531.01
516.33	48598.88
516.51	49155.93
516.68	49301.04
516.85	48697.19
517.03	49052.95
517.20	48956.99
517.37	48973.37
517.54	49378.28
517.72	49312.75
517.89	49020.18
518.06	49483.61
518.24	49598.29
518.41	49368.92
518.58	49879.16
518.75	49254.23
518.93	49830.01
519.10	49539.78
519.27	49628.72
519.45	50141.30
519.62	50150.66
519.79	50085.12
519.96	50071.08
520.14	50110.87
520.31	50330.88
520.48	50192.79
520.65	50223.22
520.83	50653.87
521.00	50735.79
521.17	50473.65
521.34	50768.56
521.52	50955.80
521.69	51222.62
521.86	51105.60
522.03	51344.33
522.20	51695.41
522.38	51632.22
522.55	51611.15
522.72	51604.13
522.89	51861.59
523.07	51751.59
523.24	51604.13
523.41	52088.62
523.58	51611.15
523.75	52315.65
523.92	51915.42
524.10	52264.16
524.27	52381.19
524.44	52140.11
524.61	52453.75
524.78	52172.88
524.96	52224.37
525.13	52552.05
525.30	52765.04
525.47	52956.96
525.64	52842.27
525.81	52762.70
525.98	53118.46
526.16	52659.71
526.33	53013.13
526.50	53057.60
526.67	52989.73
526.84	53146.54
527.01	53088.03
527.18	52776.74
527.36	53123.14
527.53	53359.53
527.70	53497.62
527.87	53422.73
528.04	53382.94
528.21	53396.98
528.38	53453.15
528.55	53542.10
528.72	53448.47
528.89	53839.34
529.07	53638.06
529.24	53303.36
529.41	53961.05
529.58	53797.21
529.75	53848.71
529.92	53993.82
530.09	53986.80
530.26	54223.19
530.43	54330.86
530.60	53989.14
530.77	53902.54
530.94	54218.51
531.11	54122.55
531.28	54183.40
531.46	54167.02
531.63	54445.54
531.80	54560.23
531.97	54632.78
532.14	54497.03
532.31	54681.94
532.48	54759.17
532.65	54813.01
532.82	54646.83
532.99	54726.41
533.16	54637.47
533.33	54871.52
533.50	55206.22
533.67	54693.64
533.84	54948.76
534.01	55070.46
534.18	54920.67
534.35	55309.20
534.52	55187.49
534.69	55444.95
534.86	55496.44
535.03	55346.65
535.20	55325.58
535.37	55557.30
535.54	55466.02
535.71	55210.90
535.88	55669.64
536.05	55604.11
536.22	55882.63
536.38	55690.71
536.55	55854.54
536.72	55863.91
536.89	55494.10
537.06	55774.97
537.23	55889.65
537.40	55604.11
537.57	55547.93
537.74	55910.72
537.91	56395.21
538.08	56023.06
538.25	56109.66
538.42	56168.18
538.59	56275.84
538.75	56016.04
538.92	56250.09
539.09	56252.44
539.26	56383.51
539.43	56507.55
539.60	56430.32
539.77	56617.56
539.94	56488.83
540.11	56662.03
540.28	56575.43
540.44	56750.97
540.61	56727.56
540.78	56589.47
540.95	56741.61
541.12	56528.62
541.29	56519.26
541.46	56612.88
541.62	56837.57
541.79	56973.32
541.96	56556.70
542.13	56924.17
542.30	56718.20
542.47	56882.04
542.63	56809.48
542.80	57097.37
542.97	57111.41
543.14	57308.02
543.31	57378.23
543.48	57443.77
543.64	57609.95
543.81	57497.60
543.98	57499.94
544.15	57539.73
544.32	57446.11
544.48	57574.84
544.65	57502.28
544.82	57448.45
544.99	57626.33
545.16	57469.51
545.32	57401.64
545.49	57822.93
545.66	57963.37
545.83	57738.68
546.00	57911.88
546.16	57897.83
546.33	57733.99
546.50	57549.09
546.67	57879.11
546.83	57513.98
547.00	58000.82
547.17	57907.19
547.34	57925.92
547.50	58211.46
547.67	58183.38
547.84	58159.97
548.00	58190.40
548.17	58389.34
548.34	58330.83
548.51	58382.32
548.67	58410.41
548.84	58141.25
549.01	58316.79
549.18	58185.72
549.34	58482.97
549.51	58394.03
549.68	58569.57
549.84	58564.88
550.01	58412.75
550.18	58534.46
550.34	58466.58
550.51	58560.20
550.68	58597.65
550.84	58316.79
551.01	58543.82
551.18	58522.76
551.34	58560.20
551.51	58841.07
551.68	58735.74
551.84	58852.77
552.01	58571.91
552.18	58801.28
552.34	58665.53
552.51	58864.47
552.68	58695.95
552.84	58887.88
553.01	59025.97
553.18	58904.26
553.34	58876.18
553.51	58726.38
553.67	58951.07
553.84	59112.57
554.01	59260.02
554.17	59082.14
554.34	59227.26
554.51	59161.72
554.67	59199.17
554.84	59077.46
555.00	59185.13
555.17	59096.19
555.33	59068.10
555.50	59210.87
555.67	59147.68
555.83	59049.38
556.00	59353.65
556.16	59730.47
556.33	59613.44
556.50	59386.41
556.66	59531.53
556.83	59299.81
556.99	59646.21
557.16	59585.36
557.32	59585.36
557.49	59847.50
557.65	59416.84
557.82	59564.29
557.98	59578.34
558.15	59585.36
558.32	59669.62
558.48	59384.07
558.65	59681.32
558.81	59770.26
558.98	59671.96
559.14	59744.51
559.31	59765.58
559.47	59849.84
559.64	59891.97
559.80	59739.83
559.97	59934.10
560.13	59803.03
560.30	59889.63
560.46	59636.85
560.63	60027.72
560.79	59826.43
560.96	60067.51
561.12	60058.15
561.29	59901.33
561.45	59941.12
561.61	59994.95
561.78	59882.61
561.94	59945.80
562.11	59803.03
562.27	59887.29
562.44	60121.34
562.60	60093.25
562.77	60308.58
562.93	59746.86
563.10	60123.68
563.26	60034.74
563.42	60149.43
563.59	60123.68
563.75	60046.44
563.92	60044.10
564.08	60065.17
564.24	60331.99
564.41	60226.66
564.57	60374.12
564.74	60308.58
564.90	60498.17
565.07	60212.62
565.23	60254.75
565.39	60315.61
565.56	60303.90
565.72	60357.74
565.88	60411.57
566.05	60224.32
566.21	60355.39
566.38	60427.95
566.54	60514.55
566.70	60343.69
566.87	60514.55
567.03	60252.41
567.19	60556.68
567.36	60608.17
567.52	60313.26
567.68	60786.05
567.85	60397.52
568.01	60479.44
568.17	60439.65
568.34	60636.26
568.50	60624.56
568.66	60472.42
568.83	60704.13
568.99	60608.17
569.15	60544.98
569.32	60584.77
569.48	60842.23
569.64	60519.23
569.81	60685.41
569.97	60474.76
570.13	60673.71
570.30	60488.80
570.46	60823.50
570.62	60654.98
570.78	60568.38
570.95	60514.55
571.11	60788.39
571.27	60692.43
571.43	60683.07
571.60	60992.02
571.76	60842.23
571.92	60865.63
572.09	60638.60
572.25	60764.99
572.41	60662.00
572.57	60772.01
572.74	60905.42
572.90	60757.97
573.06	60896.06
573.22	60802.44
573.38	60626.90
573.55	60537.96
573.71	60882.02
573.87	60818.82
574.03	60615.19
574.20	60893.72
574.36	60650.30
574.52	60970.96
574.68	60626.90
574.84	60938.19
575.01	60891.38
575.17	60844.57
575.33	60900.74
575.49	60865.63
575.65	61197.99
575.82	60954.57
575.98	61083.30
576.14	61209.69
576.30	61118.41
576.46	60713.50
576.62	60657.32
576.79	60940.53
576.95	60706.47
577.11	60959.25
577.27	60835.20
577.43	60928.83
577.59	60970.96
577.75	60973.30
577.92	60804.78
578.08	60811.80
578.24	60973.30
578.40	61008.40
578.56	61146.50
578.72	61080.96
578.88	61104.37
579.04	61099.68
579.21	61099.68
579.37	61181.60
579.53	61078.62
579.69	60809.46
579.85	61017.77
580.01	60961.59
580.17	60837.54
580.33	61080.96
580.49	60987.34
580.65	60954.57
580.82	60898.40
580.98	61212.03
581.14	60907.76
581.30	61006.06
581.46	60830.52
581.62	60926.49
581.78	60921.80
581.94	61050.53
582.10	61099.68
582.26	61076.28
582.42	61209.69
582.58	60935.85
582.74	61073.94
582.90	61146.50
583.06	61013.08
583.22	61076.28
583.38	61092.66
583.54	61158.20
583.70	60989.68
583.86	61041.17
584.02	60928.83
584.18	61235.44
584.34	61202.67
584.50	61087.98
584.66	61045.85
584.82	61102.03
584.98	61315.01
585.14	61048.19
585.30	61092.66
585.46	61268.20
585.62	61020.11
585.78	61354.80
585.94	60973.30
586.10	61109.05
586.26	61008.40
586.42	60968.61
586.58	61162.88
586.74	61148.84
586.90	61087.98
587.06	61071.60
587.22	61102.03
587.38	61242.46
587.54	61195.65
587.70	61483.53
587.86	61310.33
588.02	61085.64
588.18	61179.26
588.34	61083.30
588.49	61247.14
