SpectraSuite Data File
++++++++++++++++++++++++++++++++++++
Date: Fri Oct 25 11:23:04 EDT 2013
User: price-jones
Dark Spectrum Present: No
Reference Spectrum Present: No
Number of Sampled Component Spectra: 1
Spectrometers: USB2+H05261
Integration Time (usec): 100000 (USB2+H05261)
Spectra Averaged: 1 (USB2+H05261)
Boxcar Smoothing: 0 (USB2+H05261)
Correct for Electrical Dark: No (USB2+H05261)
Strobe/Lamp Enabled: No (USB2+H05261)
Correct for Detector Non-linearity: No (USB2+H05261)
Correct for Stray Light: No (USB2+H05261)
Number of Pixels in Processed Spectrum: 2048
>>>>>Begin Processed Spectral Data<<<<<
365.73	252.78
365.92	252.78
366.12	252.78
366.32	166.18
366.52	128.73
366.72	107.66
366.91	124.05
367.11	138.09
367.31	121.71
367.51	131.07
367.70	95.96
367.90	131.07
368.10	100.64
368.30	56.17
368.49	107.66
368.69	152.13
368.89	124.05
369.09	65.54
369.28	201.29
369.48	154.48
369.68	196.60
369.87	175.54
370.07	126.39
370.27	222.35
370.47	287.89
370.66	578.11
370.86	603.86
371.06	690.46
371.25	627.26
371.45	660.03
371.65	706.84
371.84	709.18
372.04	713.86
372.24	702.16
372.44	690.46
372.63	681.10
372.83	718.54
373.03	779.40
373.22	706.84
373.42	784.08
373.62	765.36
373.81	884.72
374.01	866.00
374.21	791.10
374.40	812.17
374.60	823.87
374.79	791.10
374.99	791.10
375.19	828.55
375.38	798.12
375.58	770.04
375.78	835.57
375.97	819.19
376.17	844.93
376.37	887.06
376.56	840.25
376.76	898.77
376.95	781.74
377.15	938.55
377.35	910.47
377.54	961.96
377.74	894.08
377.93	866.00
378.13	891.74
378.33	943.24
378.52	875.36
378.72	1013.45
378.91	954.94
379.11	915.15
379.31	983.02
379.50	1027.50
379.70	940.90
379.89	994.73
380.09	926.85
380.28	990.05
380.48	1057.92
380.68	973.66
380.87	994.73
381.07	1001.75
381.26	1064.94
381.46	922.17
381.65	1011.11
381.85	1029.84
382.04	1043.88
382.24	1093.03
382.43	1076.65
382.63	1006.43
382.83	1050.90
383.02	1193.67
383.22	1153.88
383.41	1100.05
383.61	1095.37
383.80	1118.78
384.00	1125.80
384.19	1142.18
384.39	1039.20
384.58	1104.73
384.78	1137.50
384.97	1123.46
385.17	1177.29
385.36	1207.72
385.56	1207.72
385.75	1114.10
385.95	1160.91
386.14	1235.80
386.34	1249.85
386.53	1228.78
386.72	1224.10
386.92	1235.80
387.11	1301.34
387.31	1200.69
387.50	1247.51
387.70	1221.76
387.89	1217.08
388.09	1200.69
388.28	1275.59
388.48	1287.29
388.67	1291.98
388.86	1235.80
389.06	1383.26
389.25	1343.47
389.45	1277.93
389.64	1423.05
389.84	1406.66
390.03	1355.17
390.22	1380.92
390.42	1397.30
390.61	1348.15
390.81	1537.73
391.00	1465.18
391.19	1413.68
391.39	1469.86
391.58	1441.77
391.78	1533.05
391.97	1434.75
392.16	1448.79
392.36	1551.78
392.55	1488.58
392.75	1486.24
392.94	1530.71
393.13	1423.05
393.33	1629.01
393.52	1659.44
393.71	1617.31
393.91	1535.39
394.10	1671.14
394.29	1629.01
394.49	1629.01
394.68	1652.42
394.88	1729.66
395.07	1633.69
395.26	1668.80
395.46	1666.46
395.65	1624.33
395.84	1722.63
396.04	1849.02
396.23	1760.08
396.42	1659.44
396.62	1771.79
396.81	1746.04
397.00	1909.88
397.19	1792.85
397.39	1771.79
397.58	1830.30
397.77	1797.53
397.97	1818.60
398.16	1879.45
398.35	1956.69
398.55	1914.56
398.74	1865.41
398.93	1987.11
399.12	1963.71
399.32	1853.70
399.51	1973.07
399.70	1954.35
399.90	2026.90
400.09	2022.22
400.28	2080.74
400.47	2040.95
400.67	2132.23
400.86	2064.35
401.05	2122.87
401.24	2064.35
401.44	2186.06
401.63	2113.50
401.82	2200.10
402.01	2172.02
402.21	2141.59
402.40	2162.66
402.59	2176.70
402.78	2195.42
402.97	2242.23
403.17	2298.41
403.36	2300.75
403.55	2270.32
403.74	2286.70
403.93	2361.60
404.13	2431.82
404.32	2314.79
404.51	2363.94
404.70	2321.81
404.89	2422.45
405.09	2539.48
405.28	2462.24
405.47	2427.14
405.66	2523.10
405.85	2630.76
406.05	2483.31
406.24	2499.69
406.43	2628.42
406.62	2705.66
406.81	2672.89
407.00	2635.44
407.20	2705.66
407.39	2712.68
407.58	2810.98
407.77	2710.34
407.96	2862.48
408.15	2724.38
408.34	2761.83
408.54	2808.64
408.73	2841.41
408.92	2935.03
409.11	2874.18
409.30	2841.41
409.49	3030.99
409.68	2988.86
409.87	2890.56
410.07	2995.89
410.26	2984.18
410.45	3002.91
410.64	3033.33
410.83	3143.34
411.02	3234.62
411.21	3222.92
411.40	3194.83
411.59	3321.22
411.78	3194.83
411.98	3155.04
412.17	3419.52
412.36	3328.24
412.55	3258.03
412.74	3337.60
412.93	3391.44
413.12	3304.84
413.31	3672.30
413.50	3494.42
413.69	3496.76
413.88	3655.92
414.07	3602.08
414.26	3637.19
414.45	3620.81
414.64	3700.39
414.83	3854.86
415.02	3794.01
415.22	3831.46
415.41	3803.37
415.60	3882.95
415.79	4102.96
415.98	3990.61
416.17	3960.19
416.36	3988.27
416.55	3906.35
416.74	4145.09
416.93	4105.30
417.12	4002.32
417.31	4131.05
417.50	4133.39
417.69	4245.73
417.88	4369.78
418.07	4147.43
418.26	4266.80
418.45	4440.00
418.64	4557.02
418.83	4449.36
419.02	4580.43
419.21	4458.72
419.39	4547.66
419.58	4500.85
419.77	4533.62
419.96	4603.83
420.15	4540.64
420.34	4615.54
420.53	4634.26
420.72	4657.67
420.91	4737.24
421.10	4865.97
421.29	4798.10
421.48	4751.29
421.67	5006.41
421.86	4692.77
422.05	4870.65
422.24	4837.89
422.43	4966.62
422.61	5011.09
422.80	5008.75
422.99	4938.53
423.18	4887.04
423.37	4999.38
423.56	4990.02
423.75	5067.26
423.94	4837.89
424.13	4634.26
424.32	4734.90
424.50	4957.25
424.69	5118.75
424.88	5107.05
425.07	4997.04
425.26	4905.76
425.45	5064.92
425.64	5020.45
425.83	4917.47
426.01	5217.05
426.20	5114.07
426.39	5137.48
426.58	5163.22
426.77	5144.50
426.96	5345.78
427.15	5193.65
427.33	5172.58
427.52	5139.82
427.71	5359.83
427.90	5289.61
428.09	5324.72
428.28	5394.93
428.46	5313.02
428.65	5249.82
428.84	5640.69
429.03	5722.61
429.22	5481.53
429.40	5523.66
429.59	5640.69
429.78	5451.11
429.97	5268.55
430.16	5561.11
430.34	5734.31
430.53	5577.50
430.72	5710.91
430.91	5647.71
431.10	5600.90
431.28	5764.74
431.47	5760.06
431.66	5860.70
431.85	5776.44
432.03	5902.83
432.22	5930.92
432.41	5944.96
432.60	6033.90
432.79	5996.45
432.97	5998.79
433.16	6256.25
433.35	5949.64
433.54	6043.26
433.72	6108.80
433.91	6125.18
434.10	6005.81
434.28	6120.50
434.47	6209.44
434.66	6324.13
434.85	6366.26
435.03	6300.72
435.22	6317.11
435.41	6448.18
435.59	6469.24
435.78	6429.45
435.97	6511.37
436.16	6354.55
436.34	6609.67
436.53	6658.82
436.72	6752.45
436.90	6532.44
437.09	6651.80
437.28	6579.25
437.46	6892.88
437.65	6757.13
437.84	6832.02
438.02	6696.27
438.21	6841.39
438.40	6869.47
438.58	6984.16
438.77	6988.84
438.96	7061.40
439.14	7040.33
439.33	7096.50
439.52	7265.02
439.70	7398.43
439.89	7405.46
440.08	7332.90
440.26	7517.80
440.45	7438.22
440.63	7438.22
440.82	7543.55
441.01	7672.28
441.19	7639.51
441.38	7716.75
441.57	7721.43
441.75	7911.01
441.94	8194.22
442.12	7932.08
442.31	7976.55
442.50	8128.68
442.68	8095.91
442.87	8018.68
443.05	8159.11
443.24	8348.69
443.43	8292.52
443.61	8290.18
443.80	8674.03
443.98	7995.27
444.17	7985.91
444.35	8449.33
444.54	8489.12
444.73	8517.21
444.91	8491.46
445.10	8372.10
445.28	8353.37
445.47	8156.77
445.65	8479.76
445.84	8510.19
446.02	8510.19
446.21	8587.43
446.39	8423.59
446.58	8578.06
446.77	8435.29
446.95	8344.01
447.14	8367.42
447.32	8587.43
447.51	8540.61
447.69	8439.97
447.88	8578.06
448.06	8814.46
448.25	8697.43
448.43	8688.07
448.62	8477.42
448.80	8549.98
448.99	8863.61
449.17	8784.03
449.36	8805.10
449.54	8917.44
449.73	9011.06
449.91	9018.08
450.10	9144.47
450.28	9057.87
450.46	9193.62
450.65	8915.10
450.83	9008.72
451.02	9160.86
451.20	9362.14
451.39	9364.48
451.57	9252.14
451.76	9170.22
451.94	9460.45
452.13	9441.72
452.31	9479.17
452.49	9411.29
452.68	9533.00
452.86	9362.14
453.05	9497.89
453.23	9717.90
453.42	9380.87
453.60	9605.56
453.78	9680.46
453.97	9516.62
454.15	9568.11
454.34	9839.61
454.52	9865.36
454.70	9865.36
454.89	9797.48
455.07	9933.23
455.26	9902.81
455.44	10071.33
455.62	9951.96
455.81	9989.41
455.99	10052.60
456.17	10094.73
456.36	10373.25
456.54	10338.15
456.73	10509.01
456.91	10633.05
457.09	10572.20
457.28	10616.67
457.46	10354.53
457.64	10586.24
457.83	10635.39
458.01	10644.76
458.19	10651.78
458.38	10813.28
458.56	10686.89
458.74	10836.68
458.93	11000.52
459.11	10682.20
459.29	10960.73
459.48	11096.48
459.66	10808.59
459.84	10946.69
460.03	11276.70
460.21	11164.36
460.39	11049.67
460.57	10918.60
460.76	11162.01
460.94	11073.07
461.12	11253.30
461.31	11337.56
461.49	11400.75
461.67	11414.79
461.85	11632.46
462.04	11545.86
462.22	11571.61
462.40	11775.24
462.59	11513.10
462.77	11531.82
462.95	11707.36
463.13	11693.32
463.32	11768.21
463.50	11798.64
463.68	11812.68
463.86	12093.55
464.05	11683.95
464.23	12112.27
464.41	12060.78
464.59	11817.36
464.78	12294.83
464.96	12245.68
465.14	11805.66
465.32	12201.21
465.50	12332.28
465.69	12189.51
465.87	12379.09
466.05	12259.73
466.23	12226.96
466.41	12313.56
466.60	12578.04
466.78	12201.21
466.96	12465.69
467.14	12458.67
467.32	12699.75
467.51	12662.30
467.69	12449.31
467.87	12517.18
468.05	12685.70
468.23	12435.27
468.41	12737.20
468.60	12697.41
468.78	12828.48
468.96	12746.56
469.14	12924.44
469.32	12926.78
469.50	12812.09
469.69	13268.50
469.87	13322.33
470.05	13312.97
470.23	13509.57
470.41	13324.67
470.59	13324.67
470.77	13467.44
470.95	13291.90
471.14	13874.70
471.32	13238.07
471.50	13373.82
471.68	13696.82
471.86	13872.36
472.04	13837.25
472.22	14115.77
472.40	13706.18
472.58	14204.71
472.77	14038.53
472.95	14279.61
473.13	14824.95
473.31	14389.61
473.49	14127.47
473.67	14317.06
473.85	14406.00
474.03	15080.07
474.21	14649.41
474.39	14808.57
474.57	15044.96
474.75	15028.58
474.93	15447.54
475.12	14970.07
475.30	15328.17
475.48	15192.42
475.66	15431.15
475.84	15218.16
476.02	15770.53
476.20	15639.46
476.38	15840.75
476.56	16060.76
476.74	16123.95
476.92	15995.22
477.10	15983.52
477.28	16301.83
477.46	16470.35
477.64	16372.05
477.82	16652.91
478.00	17326.99
478.18	17062.51
478.36	17254.43
478.54	17336.35
478.72	17441.67
478.90	17853.61
479.08	17820.84
479.26	17891.06
479.44	18015.10
479.62	17776.37
479.80	18188.30
479.98	18221.07
480.16	18831.95
480.34	18560.45
480.52	18555.77
480.70	18934.93
480.88	18434.06
481.06	19178.35
481.24	19087.07
481.41	19208.78
481.59	19260.27
481.77	19613.69
481.95	19838.38
482.13	19988.18
482.31	19807.95
482.49	20463.30
482.67	20341.60
482.85	21088.23
483.03	21142.06
483.21	20987.58
483.39	21090.57
483.57	21167.80
483.74	21404.20
483.92	21610.17
484.10	21497.82
484.28	22052.53
484.46	22251.47
484.64	22471.48
484.82	22068.91
485.00	22391.91
485.18	22822.56
485.35	22981.72
485.53	23002.78
485.71	23300.03
485.89	23838.36
486.07	23367.91
486.25	23761.12
486.43	24013.90
486.61	24311.14
486.78	24341.57
486.96	24596.69
487.14	24762.87
487.32	24769.89
487.50	25095.22
487.68	25322.26
487.85	25811.43
488.03	25493.12
488.21	26153.15
488.39	26387.20
488.57	26216.34
488.75	26452.73
488.92	26558.06
489.10	27054.25
489.28	26799.13
489.46	27962.38
489.64	27594.92
489.81	27908.55
489.99	27981.10
490.17	27751.73
490.35	28526.45
490.53	28147.28
490.70	28510.07
490.88	28673.90
491.06	29102.22
491.24	29076.48
491.41	28987.53
491.59	29198.18
491.77	29476.71
491.95	30043.12
492.13	29741.19
492.30	30366.11
492.48	30340.36
492.66	30576.76
492.84	30609.53
493.01	30899.75
493.19	30927.84
493.37	31353.82
493.54	31391.26
493.72	31660.43
493.90	31775.11
494.08	32091.09
494.25	31997.46
494.43	32465.57
494.61	32231.52
494.79	32900.91
494.96	32678.56
495.14	32870.48
495.32	33366.68
495.49	33488.38
495.67	33149.01
495.85	33837.12
496.02	33874.57
496.20	34277.15
496.38	34213.95
496.55	34422.26
496.73	35037.82
496.91	35021.44
497.09	35105.70
497.26	35339.75
497.44	35267.19
497.62	35906.16
497.79	36404.69
497.97	35948.29
498.14	36229.15
498.32	36701.94
498.50	36971.10
498.67	36662.15
498.85	37081.11
499.03	37207.50
499.20	37113.87
499.38	37703.69
499.56	37567.94
499.73	37411.12
499.91	37504.74
500.08	38038.39
500.26	37855.82
500.44	38330.95
500.61	38469.04
500.79	38096.90
500.97	38862.26
501.14	38948.85
501.32	39236.74
501.49	38745.23
501.67	39161.84
501.84	39028.43
502.02	39206.31
502.20	39124.40
502.37	39363.13
502.55	39798.47
502.72	39842.94
502.90	39803.15
503.07	39854.64
503.25	40086.36
503.43	40084.01
503.60	40631.70
503.78	40519.35
503.95	40591.91
504.13	40793.20
504.30	41017.89
504.48	40999.16
504.65	41198.11
504.83	41364.29
505.01	41549.19
505.18	41528.13
505.36	41872.18
505.53	41565.57
505.71	41832.39
505.88	42241.99
506.06	41731.75
506.23	42876.27
506.41	41846.44
506.58	43077.56
506.76	42569.66
506.93	42866.91
507.11	42501.79
507.28	43171.18
507.46	43400.55
507.63	43398.21
507.81	43622.90
507.98	43482.47
508.16	43548.01
508.33	43856.96
508.50	44088.67
508.68	44098.03
508.85	44566.14
509.03	44589.55
509.20	44458.48
509.38	44746.36
509.55	44659.76
509.73	44842.32
509.90	45090.42
510.08	45305.75
510.25	44968.71
510.42	44891.48
510.60	45743.43
510.77	45385.33
510.95	45469.59
511.12	45968.12
511.30	45617.04
511.47	46143.66
511.64	45670.87
511.82	46546.23
511.99	46073.45
512.17	46541.55
512.34	46487.72
512.51	46749.86
512.69	46855.18
512.86	46916.04
513.04	46827.10
513.21	47325.63
513.38	46658.58
513.56	47276.48
513.73	47189.88
513.90	47430.96
514.08	47325.63
514.25	47721.18
514.43	48048.86
514.60	47697.78
514.77	47959.92
514.95	48196.31
515.12	47985.66
515.29	47859.27
515.47	48676.12
515.64	48603.56
515.81	48130.78
515.99	48842.30
516.16	48690.16
516.33	48978.05
516.51	49071.67
516.68	49113.80
516.85	49132.53
517.03	49055.29
517.20	49495.31
517.37	49069.33
517.54	49446.16
517.72	49272.96
517.89	49698.94
518.06	49834.69
518.24	49839.37
518.41	49614.68
518.58	49825.32
518.75	49621.70
518.93	49841.71
519.10	49822.98
519.27	50265.34
519.45	50298.11
519.62	50274.71
519.79	50714.73
519.96	50047.68
520.14	50590.68
520.31	50405.78
520.48	50705.37
520.65	50876.22
520.83	51161.77
521.00	51016.66
521.17	50611.74
521.34	50937.08
521.52	51091.55
521.69	51210.92
521.86	51278.80
522.03	51683.71
522.20	51456.68
522.38	51688.39
522.55	51854.57
522.72	51742.22
522.89	51810.10
523.07	52107.35
523.24	51824.14
523.41	51980.96
523.58	51824.14
523.75	52247.78
523.92	52329.70
524.10	52207.99
524.27	52411.62
524.44	52582.48
524.61	52498.22
524.78	52631.63
524.96	52547.37
525.13	52809.51
525.30	53146.54
525.47	53052.92
525.64	52624.60
525.81	52989.73
525.98	53003.77
526.16	52811.85
526.33	53034.20
526.50	53319.74
526.67	53062.29
526.84	53680.19
527.01	53088.03
527.18	53457.84
527.36	53289.32
527.53	53549.12
527.70	53553.80
527.87	53769.13
528.04	53436.77
528.21	53553.80
528.38	53825.30
528.55	54136.59
528.72	53724.66
528.89	53909.56
529.07	53701.25
529.24	53712.95
529.41	54045.31
529.58	53794.87
529.75	54188.08
529.92	54171.70
530.09	54160.00
530.26	54415.11
530.43	54244.26
530.60	54068.72
530.77	54171.70
530.94	54401.07
531.11	54454.90
531.28	54452.56
531.46	54667.89
531.63	54623.42
531.80	54663.21
531.97	54787.26
532.14	54901.95
532.31	54789.60
532.48	54703.00
532.65	55093.87
532.82	54770.88
532.99	55030.68
533.16	54822.37
533.33	55334.95
533.50	55260.05
533.67	55061.10
533.84	54941.74
534.01	55152.38
534.18	55299.84
534.35	55498.78
534.52	55608.79
534.69	55533.89
534.86	55587.72
535.03	55557.30
535.20	55526.87
535.37	55477.72
535.54	55671.98
535.71	55482.40
535.88	55657.94
536.05	55941.14
536.22	55833.48
536.38	55917.74
536.55	55690.71
536.72	55915.40
536.89	55964.55
537.06	55908.38
537.23	56025.40
537.40	55753.90
537.57	55817.10
537.74	55945.83
537.91	56343.72
538.08	56189.24
538.25	56224.35
538.42	56154.13
538.59	56671.39
538.75	56266.48
538.92	56556.70
539.09	56357.76
539.26	56353.08
539.43	56498.19
539.60	56542.66
539.77	56605.86
539.94	56708.84
540.11	56500.53
540.28	56676.07
540.44	56636.28
540.61	56713.52
540.78	56711.18
540.95	56636.28
541.12	56685.43
541.29	56615.22
541.46	56762.67
541.62	56736.93
541.79	57209.71
541.96	56596.49
542.13	56793.10
542.30	56804.80
542.47	57298.65
542.63	57008.43
542.80	57134.82
542.97	57469.51
543.14	57289.29
543.31	57488.24
543.48	57506.96
543.64	57513.98
543.81	57783.15
543.98	57525.69
544.15	57296.31
544.32	57689.52
544.48	57855.70
544.65	57663.78
544.82	57738.68
544.99	57609.95
545.16	57680.16
545.32	57750.38
545.49	57687.18
545.66	57975.07
545.83	57916.56
546.00	58082.73
546.16	58014.86
546.33	57825.28
546.50	57668.46
546.67	57916.56
546.83	57595.90
547.00	57963.37
547.17	58110.82
547.34	58033.58
547.50	58087.42
547.67	58239.55
547.84	58136.57
548.00	58309.77
548.17	58398.71
548.34	58363.60
548.51	58595.31
548.67	58410.41
548.84	58307.43
549.01	58361.26
549.18	58253.59
549.34	58609.35
549.51	58625.74
549.68	58443.18
549.84	58724.04
550.01	58710.00
550.18	58443.18
550.34	58628.08
550.51	58848.09
550.68	58815.32
550.84	58459.56
551.01	58695.95
551.18	58763.83
551.34	58747.45
551.51	58805.96
551.68	58845.75
551.84	58791.92
552.01	58885.54
552.18	59007.25
552.34	58805.96
552.51	58937.03
552.68	58805.96
552.84	58899.58
553.01	59480.03
553.18	59044.69
553.34	59245.98
553.51	59096.19
553.67	58986.18
553.84	59231.94
554.01	59231.94
554.17	59260.02
554.34	59241.30
554.51	59278.75
554.67	59264.70
554.84	59260.02
555.00	59416.84
555.17	59049.38
555.33	59414.50
555.50	59365.35
555.67	59208.53
555.83	59339.60
556.00	59238.96
556.16	59657.91
556.33	59458.97
556.50	59618.13
556.66	59594.72
556.83	59353.65
556.99	59580.68
557.16	59877.93
557.32	59540.89
557.49	59901.33
557.65	59760.90
557.82	59627.49
557.98	59599.40
558.15	59662.60
558.32	59721.11
558.48	59744.51
558.65	59618.13
558.81	59693.02
558.98	59812.39
559.14	59739.83
559.31	59793.67
559.47	59987.93
559.64	60172.83
559.80	59934.10
559.97	59805.37
560.13	59845.16
560.30	60090.91
560.46	60053.47
560.63	60156.45
560.79	59999.63
560.96	59898.99
561.12	60090.91
561.29	60048.78
561.45	60170.49
561.61	60189.22
561.78	60037.08
561.94	60076.87
562.11	60072.19
562.27	60072.19
562.44	60133.04
562.60	60285.18
562.77	60275.82
562.93	60102.62
563.10	60301.56
563.26	60100.28
563.42	60495.83
563.59	60231.35
563.75	60289.86
563.92	60350.71
564.08	60289.86
564.24	60704.13
564.41	60212.62
564.57	60158.79
564.74	60378.80
564.90	60470.08
565.07	60259.43
565.23	60498.17
565.39	60357.74
565.56	60348.37
565.72	60245.39
565.88	60404.55
566.05	60430.29
566.21	60273.48
566.38	60526.25
566.54	60589.45
566.70	60484.12
566.87	60605.83
567.03	60528.59
567.19	60622.22
567.36	60594.13
567.52	60453.70
567.68	60807.12
567.85	60619.88
568.01	60493.49
568.17	60549.66
568.34	60750.94
568.50	60257.09
568.66	60640.94
568.83	60542.64
568.99	60575.40
569.15	60526.25
569.32	60528.59
569.48	60722.86
569.64	60676.05
569.81	60669.03
569.97	60769.67
570.13	60582.43
570.30	60631.58
570.46	60762.65
570.62	60931.17
570.78	60814.14
570.95	60582.43
571.11	60853.93
571.27	60615.19
571.43	60732.22
571.60	61059.90
571.76	60790.73
571.92	60832.86
572.09	60837.54
572.25	60694.77
572.41	60764.99
572.57	60907.76
572.74	61153.52
572.90	60652.64
573.06	60933.51
573.22	60992.02
573.38	60891.38
573.55	60882.02
573.71	60933.51
573.87	60832.86
574.03	60816.48
574.20	60898.40
574.36	60720.52
574.52	61038.83
574.68	60872.65
574.84	61144.16
575.01	61022.45
575.17	60999.04
575.33	60942.87
575.49	60697.11
575.65	61073.94
575.82	60959.25
575.98	61087.98
576.14	61104.37
576.30	61228.41
576.46	60926.49
576.62	60884.36
576.79	60947.55
576.95	60776.69
577.11	60886.70
577.27	61078.62
577.43	61069.26
577.59	61027.13
577.75	60907.76
577.92	61073.94
578.08	61174.58
578.24	60973.30
578.40	61265.86
578.56	61205.01
578.72	61013.08
578.88	61111.39
579.04	61277.57
579.21	61165.22
579.37	61296.29
579.53	61450.77
579.69	60989.68
579.85	61029.47
580.01	61207.35
580.17	61123.09
580.33	61378.21
580.49	61270.54
580.65	61146.50
580.82	61057.56
580.98	61059.90
581.14	61097.34
581.30	61371.19
581.46	60942.87
581.62	61368.85
581.78	61048.19
581.94	61221.39
582.10	61069.26
582.26	61343.10
582.42	61020.11
582.58	61031.81
582.74	61141.81
582.90	61209.69
583.06	61087.98
583.22	60921.80
583.38	61247.14
583.54	61240.12
583.70	61303.31
583.86	61385.23
584.02	61015.43
584.18	61254.16
584.34	61368.85
584.50	61190.97
584.66	61010.74
584.82	61010.74
584.98	61518.64
585.14	61415.66
585.30	61104.37
585.46	61326.72
585.62	61097.34
585.78	61366.51
585.94	61085.64
586.10	61247.14
586.26	61307.99
586.42	61464.81
586.58	61319.70
586.74	61069.26
586.90	61202.67
587.06	61338.42
587.22	61223.73
587.38	61331.40
587.54	61394.59
587.70	61572.47
587.86	61214.37
588.02	61263.52
588.18	61303.31
588.34	61179.26
588.49	61190.97
