SpectraSuite Data File
++++++++++++++++++++++++++++++++++++
Date: Fri Oct 25 11:25:31 EDT 2013
User: price-jones
Dark Spectrum Present: No
Reference Spectrum Present: No
Number of Sampled Component Spectra: 1
Spectrometers: USB2+H05261
Integration Time (usec): 100000 (USB2+H05261)
Spectra Averaged: 1 (USB2+H05261)
Boxcar Smoothing: 0 (USB2+H05261)
Correct for Electrical Dark: No (USB2+H05261)
Strobe/Lamp Enabled: No (USB2+H05261)
Correct for Detector Non-linearity: No (USB2+H05261)
Correct for Stray Light: No (USB2+H05261)
Number of Pixels in Processed Spectrum: 2048
>>>>>Begin Processed Spectral Data<<<<<
365.73	191.92
365.92	191.92
366.12	191.92
366.32	161.50
366.52	86.60
366.72	131.07
366.91	128.73
367.11	170.86
367.31	205.97
367.51	154.48
367.70	168.52
367.90	114.69
368.10	154.48
368.30	135.75
368.49	117.03
368.69	177.88
368.89	236.39
369.09	191.92
369.28	175.54
369.48	119.37
369.68	166.18
369.87	208.31
370.07	203.63
370.27	259.80
370.47	353.42
370.66	517.26
370.86	608.54
371.06	634.29
371.25	678.76
371.45	725.57
371.65	634.29
371.84	676.41
372.04	711.52
372.24	772.38
372.44	699.82
372.63	718.54
372.83	716.20
373.03	753.65
373.22	709.18
373.42	751.31
373.62	746.63
373.81	791.10
374.01	821.53
374.21	793.44
374.40	809.83
374.60	814.51
374.79	802.80
374.99	840.25
375.19	781.74
375.38	835.57
375.58	840.25
375.78	898.77
375.97	922.17
376.17	851.96
376.37	873.02
376.56	875.36
376.76	910.47
376.95	800.46
377.15	861.32
377.35	844.93
377.54	898.77
377.74	917.49
377.93	964.30
378.13	894.08
378.33	954.94
378.52	868.34
378.72	1015.79
378.91	961.96
379.11	964.30
379.31	950.26
379.50	891.74
379.70	959.62
379.89	964.30
380.09	947.92
380.28	945.58
380.48	997.07
380.68	919.83
380.87	901.11
381.07	983.02
381.26	1029.84
381.46	973.66
381.65	1004.09
381.85	1001.75
382.04	1097.71
382.24	1022.81
382.43	1069.62
382.63	1076.65
382.83	1008.77
383.02	1029.84
383.22	1111.75
383.41	1043.88
383.61	1114.10
383.80	1081.33
384.00	1078.99
384.19	1193.67
384.39	1034.52
384.58	1100.05
384.78	1275.59
384.97	1137.50
385.17	1153.88
385.36	1214.74
385.56	1238.14
385.75	1146.86
385.95	1217.08
386.14	1224.10
386.34	1135.16
386.53	1172.61
386.72	1177.29
386.92	1266.23
387.11	1284.95
387.31	1188.99
387.50	1165.59
387.70	1306.02
387.89	1238.14
388.09	1254.53
388.28	1217.08
388.48	1256.87
388.67	1291.98
388.86	1345.81
389.06	1355.17
389.25	1343.47
389.45	1324.74
389.64	1453.47
389.84	1383.26
390.03	1387.94
390.22	1383.26
390.42	1299.00
390.61	1291.98
390.81	1434.75
391.00	1338.79
391.19	1397.30
391.39	1446.45
391.58	1563.48
391.78	1511.99
391.97	1521.35
392.16	1474.54
392.36	1511.99
392.55	1467.52
392.75	1533.05
392.94	1451.13
393.13	1526.03
393.33	1488.58
393.52	1547.09
393.71	1575.18
393.91	1577.52
394.10	1579.86
394.29	1633.69
394.49	1535.39
394.68	1586.88
394.88	1629.01
395.07	1696.89
395.26	1607.95
395.46	1652.42
395.65	1715.61
395.84	1654.76
396.04	1713.27
396.23	1732.00
396.42	1764.76
396.62	1734.34
396.81	1664.12
397.00	1661.78
397.19	1830.30
397.39	1771.79
397.58	1867.75
397.77	1865.41
397.97	1919.24
398.16	1830.30
398.35	1802.21
398.55	1926.26
398.74	1893.49
398.93	1998.82
399.12	1926.26
399.32	1830.30
399.51	2038.61
399.70	2050.31
399.90	1902.86
400.09	2010.52
400.28	1980.09
400.47	2062.01
400.67	2080.74
400.86	2097.12
401.05	2008.18
401.24	2064.35
401.44	2104.14
401.63	2099.46
401.82	2094.78
402.01	2076.06
402.21	2207.13
402.40	2181.38
402.59	2122.87
402.78	2270.32
402.97	2310.11
403.17	2310.11
403.36	2165.00
403.55	2207.13
403.74	2396.71
403.93	2338.20
404.13	2366.28
404.32	2392.03
404.51	2401.39
404.70	2370.96
404.89	2335.85
405.09	2483.31
405.28	2375.64
405.47	2499.69
405.66	2485.65
405.85	2569.91
406.05	2469.27
406.24	2597.99
406.43	2523.10
406.62	2558.21
406.81	2633.10
407.00	2462.24
407.20	2541.82
407.39	2612.04
407.58	2628.42
407.77	2761.83
407.96	2789.92
408.15	2736.09
408.34	2677.57
408.54	2855.45
408.73	2871.84
408.92	2768.85
409.11	2902.26
409.30	2857.79
409.49	2960.78
409.68	2876.52
409.87	2984.18
410.07	2972.48
410.26	3023.97
410.45	2883.54
410.64	3061.42
410.83	3042.70
411.02	3038.02
411.21	3040.36
411.40	3133.98
411.59	3274.41
411.78	3169.09
411.98	3234.62
412.17	3328.24
412.36	3293.13
412.55	3253.34
412.74	3510.80
412.93	3522.51
413.12	3342.28
413.31	3421.86
413.50	3515.48
413.69	3424.20
413.88	3658.26
414.07	3536.55
414.26	3658.26
414.45	3623.15
414.64	3646.55
414.83	3695.71
415.02	3644.21
415.22	3911.04
415.41	3929.76
415.60	3871.25
415.79	3786.99
415.98	3901.67
416.17	3929.76
416.36	3962.53
416.55	3899.33
416.74	3899.33
416.93	3992.95
417.12	4056.15
417.31	3995.29
417.50	4060.83
417.69	4126.36
417.88	4269.14
418.07	4131.05
418.26	4388.50
418.45	4276.16
418.64	4428.29
418.83	4337.01
419.02	4344.03
419.21	4550.00
419.39	4477.44
419.58	4379.14
419.77	4479.79
419.96	4465.74
420.15	4608.51
420.34	4519.57
420.53	4716.18
420.72	4660.01
420.91	4690.43
421.10	4779.37
421.29	4755.97
421.48	4681.07
421.67	4739.58
421.86	4762.99
422.05	4805.12
422.24	4877.68
422.43	4997.04
422.61	4774.69
422.80	4844.91
422.99	4826.18
423.18	4842.57
423.37	4992.36
423.56	4889.38
423.75	4945.55
423.94	4959.60
424.13	4575.75
424.32	4748.95
424.50	4898.74
424.69	5060.24
424.88	5081.30
425.07	4924.49
425.26	4875.34
425.45	4903.42
425.64	4903.42
425.83	4863.63
426.01	5132.79
426.20	4992.36
426.39	4985.34
426.58	5004.07
426.77	4938.53
426.96	5170.24
427.15	5102.37
427.33	5200.67
427.52	5067.26
427.71	5343.44
427.90	5235.78
428.09	5167.90
428.28	5331.74
428.46	5249.82
428.65	5280.25
428.84	5444.09
429.03	5406.64
429.22	5369.19
429.40	5469.83
429.59	5418.34
429.78	5434.72
429.97	5111.73
430.16	5458.13
430.34	5434.72
430.53	5696.86
430.72	5617.29
430.91	5689.84
431.10	5540.05
431.28	5678.14
431.47	5708.57
431.66	5724.95
431.85	5666.44
432.03	5778.78
432.22	5930.92
432.41	5785.80
432.60	5645.37
432.79	5783.46
432.97	5942.62
433.16	6069.01
433.35	5980.07
433.54	6164.97
433.72	6040.92
433.91	6143.91
434.10	6186.04
434.28	6162.63
434.47	6066.67
434.66	6171.99
434.85	6214.12
435.03	6324.13
435.22	6202.42
435.41	6403.71
435.59	6384.98
435.78	6415.41
435.97	6354.55
436.16	6513.71
436.34	6307.74
436.53	6438.81
436.72	6473.92
436.90	6523.07
437.09	6530.09
437.28	6504.35
437.46	6511.37
437.65	6590.95
437.84	6698.61
438.02	6729.04
438.21	6857.77
438.40	6534.78
438.58	6761.81
438.77	7049.69
438.96	6820.32
439.14	7096.50
439.33	7028.63
439.52	7258.00
439.70	6913.94
439.89	7403.11
440.08	7442.90
440.26	7328.22
440.45	7384.39
440.63	7379.71
440.82	7447.58
441.01	7442.90
441.19	7555.25
441.38	7463.97
441.57	7662.91
441.75	7754.19
441.94	7941.44
442.12	7852.50
442.31	8072.51
442.50	8098.25
442.68	7887.61
442.87	7826.75
443.05	8018.68
443.24	8184.85
443.43	8163.79
443.61	8152.09
443.80	8372.10
443.98	8145.06
444.17	7709.72
444.35	8205.92
444.54	8273.79
444.73	8203.58
444.91	8107.62
445.10	8208.26
445.28	8212.94
445.47	8290.18
445.65	8182.51
445.84	8503.17
446.02	8351.03
446.21	8411.89
446.39	8393.16
446.58	8346.35
446.77	8332.31
446.95	8304.22
447.14	8304.22
447.32	8390.82
447.51	8222.30
447.69	8386.14
447.88	8552.32
448.06	8465.72
448.25	8498.49
448.43	8383.80
448.62	8454.02
448.80	8559.34
448.99	8571.04
449.17	8769.99
449.36	8695.09
449.54	8734.88
449.73	8901.06
449.91	8816.80
450.10	8868.29
450.28	9102.34
450.46	8915.10
450.65	8748.92
450.83	9013.40
451.02	8908.08
451.20	8950.21
451.39	9174.90
451.57	9034.47
451.76	9128.09
451.94	9053.19
452.13	9343.42
452.31	9177.24
452.49	9226.39
452.68	9418.32
452.86	9298.95
453.05	9359.80
453.23	9502.58
453.42	9537.68
453.60	9345.76
453.78	9397.25
453.97	9558.75
454.15	9490.87
454.34	9394.91
454.52	9722.59
454.70	9504.92
454.89	9713.22
455.07	9778.76
455.26	9699.18
455.44	9774.08
455.62	9856.00
455.81	9851.31
455.99	10153.24
456.17	9923.87
456.36	10050.26
456.54	9891.10
456.73	10050.26
456.91	10396.66
457.09	10413.04
457.28	10422.41
457.46	10305.38
457.64	10668.16
457.83	10335.81
458.01	10368.57
458.19	10736.04
458.38	10396.66
458.56	10611.99
458.74	10525.39
458.93	10569.86
459.11	10712.63
459.29	10721.99
459.48	10738.38
459.66	10719.65
459.84	10918.60
460.03	10988.82
460.21	10820.30
460.39	11005.20
460.57	11080.10
460.76	11023.92
460.94	10782.85
461.12	11023.92
461.31	11098.82
461.49	11075.42
461.67	10951.37
461.85	11255.64
462.04	11449.90
462.22	11737.79
462.40	11489.69
462.59	11218.19
462.77	11325.85
462.95	11496.71
463.13	11492.03
463.32	11529.48
463.50	11625.44
463.68	11700.34
463.86	11698.00
464.05	11683.95
464.23	11744.81
464.41	11988.22
464.59	11719.06
464.78	11847.79
464.96	11934.39
465.14	11763.53
465.32	11990.56
465.50	11901.62
465.69	12025.67
465.87	12180.15
466.05	12081.85
466.23	12123.98
466.41	11880.56
466.60	12304.20
466.78	12245.68
466.96	12018.65
467.14	12383.77
467.32	12362.71
467.51	12400.16
467.69	12149.72
467.87	12423.56
468.05	12362.71
468.23	12226.96
468.41	12372.07
468.60	12732.51
468.78	12769.96
468.96	12566.34
469.14	12692.73
469.32	13008.70
469.50	12578.04
469.69	12868.27
469.87	12938.48
470.05	13022.74
470.23	13036.78
470.41	13219.35
470.59	13305.95
470.77	12964.23
470.95	13137.43
471.14	13535.32
471.32	13191.26
471.50	13476.80
471.68	13446.38
471.86	13577.45
472.04	13666.39
472.22	14038.53
472.40	13881.72
472.58	13870.01
472.77	13851.29
472.95	13668.73
473.13	14848.36
473.31	13867.67
473.49	13944.91
473.67	14153.22
473.85	14310.04
474.03	14539.41
474.21	14506.64
474.39	14780.48
474.57	14415.36
474.75	14686.86
474.93	14846.02
475.12	15084.75
475.30	14902.19
475.48	14813.25
475.66	15131.56
475.84	15192.42
476.02	15227.53
476.20	15295.40
476.38	15431.15
476.56	15880.53
476.74	16027.99
476.92	15800.96
477.10	15859.47
477.28	15721.38
477.46	16233.96
477.64	16184.80
477.82	16414.18
478.00	16732.49
478.18	16886.97
478.36	16922.07
478.54	16870.58
478.72	17167.83
478.90	17158.47
479.08	17289.54
479.26	17626.57
479.44	17495.50
479.62	17825.52
479.80	18068.94
479.98	18071.28
480.16	18551.09
480.34	18141.49
480.52	18326.39
480.70	18548.75
480.88	18377.89
481.06	18398.95
481.24	18607.26
481.41	19014.51
481.59	19140.90
481.77	19283.67
481.95	19344.53
482.13	19934.34
482.31	20013.92
482.49	19924.98
482.67	19910.94
482.85	20355.64
483.03	19978.81
483.21	20718.42
483.39	20840.13
483.57	20671.61
483.74	21088.23
483.92	21149.08
484.10	21039.08
484.28	21666.34
484.46	21795.07
484.64	21907.41
484.82	21968.27
485.00	22092.32
485.18	22518.29
485.35	22651.70
485.53	22647.02
485.71	22827.24
485.89	23194.71
486.07	22995.76
486.25	23227.48
486.43	23234.50
486.61	23608.98
486.78	24142.63
486.96	23971.77
487.14	24510.09
487.32	24463.28
487.50	24538.18
487.68	24844.79
487.85	25329.28
488.03	25483.75
488.21	25584.40
488.39	25781.00
488.57	25720.15
488.75	25979.95
488.92	26274.85
489.10	26682.11
489.28	26536.99
489.46	26527.63
489.64	26829.56
489.81	27681.52
489.99	27412.35
490.17	27445.12
490.35	27910.89
490.53	27880.46
490.70	28531.13
490.88	28294.74
491.06	28472.62
491.24	28706.67
491.41	28790.93
491.59	28844.76
491.77	29486.07
491.95	29291.80
492.13	29633.52
492.30	29654.59
492.48	30040.78
492.66	30230.36
492.84	30115.67
493.01	30459.73
493.19	30649.32
493.37	30656.34
493.54	31035.50
493.72	31154.87
493.90	31098.70
494.08	31770.43
494.25	31702.56
494.43	31592.55
494.61	32002.14
494.79	32175.34
494.96	32072.36
495.14	32512.38
495.32	32678.56
495.49	33158.37
495.67	32498.34
495.85	33366.68
496.02	33528.17
496.20	33692.01
496.38	33811.38
496.55	33979.90
496.73	34675.04
496.91	34141.39
497.09	34881.00
497.26	34452.69
497.44	34621.20
497.62	34974.63
497.79	36027.87
497.97	35133.78
498.14	35473.16
498.32	36362.56
498.50	35814.88
498.67	36264.26
498.85	36453.84
499.03	36512.36
499.20	36531.08
499.38	36526.40
499.56	36994.51
499.73	36514.70
499.91	36835.35
500.08	37380.70
500.26	37177.07
500.44	37104.51
500.61	37750.50
500.79	37434.53
500.97	38223.29
501.14	38527.56
501.32	38043.07
501.49	38181.16
501.67	38422.23
501.84	38417.55
502.02	38841.19
502.20	38721.82
502.37	38965.24
502.55	39232.06
502.72	39225.04
502.90	39428.66
503.07	39309.30
503.25	39367.81
503.43	39667.40
503.60	40088.70
503.78	39931.88
503.95	39716.55
504.13	40179.98
504.30	40245.51
504.48	40395.31
504.65	40261.90
504.83	40886.82
505.01	40996.82
505.18	40877.46
505.36	41205.13
505.53	40898.52
505.71	40985.12
505.88	41516.42
506.06	41280.03
506.23	41432.16
506.41	41666.22
506.58	41846.44
506.76	41991.55
506.93	42202.20
507.11	41883.89
507.28	42476.04
507.46	42272.42
507.63	42838.83
507.81	42960.53
507.98	42564.98
508.16	42902.02
508.33	43585.46
508.50	42948.83
508.68	43309.27
508.85	43131.39
509.03	43019.05
509.20	43641.63
509.38	44121.44
509.55	44151.87
509.73	44250.17
509.90	44563.80
510.08	44041.86
510.25	44240.81
510.42	44774.45
510.60	44505.29
510.77	44966.37
510.95	45031.91
511.12	44758.06
511.30	44978.07
511.47	45172.34
511.64	45104.46
511.82	45394.69
511.99	45471.93
512.17	45624.06
512.34	45303.41
512.51	46092.17
512.69	45844.07
512.86	45965.78
513.04	46209.20
513.21	46740.50
513.38	46623.47
513.56	46960.51
513.73	46028.98
513.90	47033.07
514.08	46412.82
514.25	46597.73
514.43	46883.27
514.60	47072.85
514.77	47372.44
514.95	47512.88
515.12	47175.84
515.29	47363.08
515.47	47569.05
515.64	47648.63
515.81	47529.26
515.99	47859.27
516.16	48203.33
516.33	48023.11
516.51	48570.80
516.68	48254.82
516.85	47952.90
517.03	48914.86
517.20	48793.15
517.37	48165.88
517.54	48753.36
517.72	48711.23
517.89	49226.15
518.06	48992.09
518.24	48903.15
518.41	49036.56
518.58	49254.23
518.75	49038.90
518.93	49317.43
519.10	49172.31
519.27	49303.38
519.45	49659.15
519.62	49631.06
519.79	49731.70
519.96	49558.50
520.14	49741.06
520.31	49757.45
520.48	50120.23
520.65	50157.68
520.83	50160.02
521.00	50571.96
521.17	50553.23
521.34	50307.47
521.52	50892.61
521.69	50916.01
521.86	50586.00
522.03	50937.08
522.20	51086.87
522.38	51203.90
522.55	50997.93
522.72	51213.26
522.89	51016.66
523.07	51559.66
523.24	51147.73
523.41	51643.92
523.58	51372.42
523.75	51863.93
523.92	51164.11
524.10	51791.37
524.27	51751.59
524.44	51791.37
524.61	51721.16
524.78	51903.72
524.96	51737.54
525.13	51847.55
525.30	52149.48
525.47	52320.34
525.64	52200.97
525.81	52449.06
525.98	52444.38
526.16	52367.15
526.33	52051.17
526.50	52844.62
526.67	52673.76
526.84	52987.39
527.01	52580.13
527.18	52779.08
527.36	52924.19
527.53	52760.36
527.70	53017.82
527.87	53052.92
528.04	53057.60
528.21	53308.04
528.38	53024.84
528.55	53553.80
528.72	53277.61
528.89	53235.48
529.07	53237.83
529.24	53097.39
529.41	53588.91
529.58	53399.32
529.75	53731.68
529.92	53581.88
530.09	53717.64
530.26	53825.30
530.43	53921.26
530.60	53712.95
530.77	53609.97
530.94	53790.19
531.11	53727.00
531.28	54049.99
531.46	53897.86
531.63	54162.34
531.80	54049.99
531.97	54169.36
532.14	54262.98
532.31	54270.00
532.48	54548.53
532.65	54490.01
532.82	54136.59
532.99	54323.83
533.16	54082.76
533.33	54698.32
533.50	54897.27
533.67	54560.23
533.84	54394.05
534.01	54515.76
534.18	54768.54
534.35	55110.25
534.52	54693.64
534.69	54658.53
534.86	54953.44
535.03	54852.80
535.20	54824.71
535.37	55021.31
535.54	55274.09
535.71	55117.28
535.88	55323.24
536.05	55007.27
536.22	55456.65
536.38	55533.89
536.55	55246.00
536.72	55428.57
536.89	55384.10
537.06	55128.98
537.23	55538.57
537.40	55365.37
537.57	55571.34
537.74	55590.06
537.91	55805.39
538.08	55835.82
538.25	55592.40
538.42	55667.30
538.59	55948.17
538.75	55789.01
538.92	55896.67
539.09	55863.91
539.26	55955.19
539.43	55884.97
539.60	56207.97
539.77	56090.94
539.94	56285.20
540.11	56378.82
540.28	56378.82
540.44	56402.23
540.61	56278.18
540.78	56044.13
540.95	56245.41
541.12	56147.11
541.29	56416.27
541.46	56219.67
541.62	56402.23
541.79	56603.52
541.96	56186.90
542.13	56521.60
542.30	56676.07
542.47	56650.33
542.63	56708.84
542.80	56804.80
542.97	57088.01
543.14	56849.27
543.31	56924.17
543.48	57027.15
543.64	57291.63
543.81	57279.93
543.98	57190.99
544.15	57228.44
544.32	57270.57
544.48	57382.91
544.65	57176.95
544.82	57434.41
544.99	57134.82
545.16	57282.27
545.32	57202.69
545.49	57518.67
545.66	57815.91
545.83	57401.64
546.00	57389.94
546.16	57602.92
546.33	57378.23
546.50	57148.86
546.67	57521.01
546.83	57240.14
547.00	57623.99
547.17	57684.84
547.34	57572.50
547.50	57764.42
547.67	57951.66
547.84	57890.81
548.00	58129.54
548.17	58150.61
548.34	57846.34
548.51	57942.30
548.67	58199.76
548.84	58066.35
549.01	57972.73
549.18	57970.39
549.34	58211.46
549.51	58127.20
549.68	58192.74
549.84	58258.27
550.01	58361.26
550.18	58223.17
550.34	58258.27
550.51	58340.19
550.68	58209.12
550.84	58188.06
551.01	58464.24
551.18	58323.81
551.34	58225.51
551.51	58457.22
551.68	58412.75
551.84	58443.18
552.01	58174.02
552.18	58623.40
552.34	58534.46
552.51	58539.14
552.68	58468.92
552.84	58599.99
553.01	58677.23
553.18	58614.04
553.34	58693.61
553.51	58798.94
553.67	58656.17
553.84	58665.53
554.01	58773.19
554.17	58871.49
554.34	58974.48
554.51	58824.68
554.67	58934.69
554.84	58848.09
555.00	58827.02
555.17	58944.05
555.33	58878.52
555.50	58674.89
555.67	58871.49
555.83	58855.11
556.00	59147.68
556.16	59224.92
556.33	58934.69
556.50	59089.16
556.66	59194.49
556.83	58822.34
556.99	59238.96
557.16	59381.73
557.32	59437.90
557.49	59627.49
557.65	59089.16
557.82	59262.36
557.98	59105.55
558.15	59152.36
558.32	59449.61
558.48	59290.45
558.65	59440.24
558.81	59274.07
558.98	59138.32
559.14	59353.65
559.31	59554.93
559.47	59449.61
559.64	59440.24
559.80	59475.35
559.97	59606.42
560.13	59664.94
560.30	59592.38
560.46	59419.18
560.63	59604.08
560.79	59414.50
560.96	59550.25
561.12	59604.08
561.29	59536.21
561.45	59671.96
561.61	59798.35
561.78	59812.39
561.94	59671.96
562.11	59611.10
562.27	59695.36
562.44	59772.60
562.60	59866.22
562.77	59796.01
562.93	59554.93
563.10	59861.54
563.26	59683.66
563.42	60126.02
563.59	59763.24
563.75	59721.11
563.92	59936.44
564.08	59735.15
564.24	60198.58
564.41	59955.16
564.57	60001.97
564.74	59931.76
564.90	59861.54
565.07	59840.48
565.23	59877.93
565.39	59678.98
565.56	59990.27
565.72	59882.61
565.88	59980.91
566.05	59700.04
566.21	59990.27
566.38	60135.38
566.54	60102.62
566.70	60142.41
566.87	60198.58
567.03	59859.20
567.19	60383.48
567.36	60107.30
567.52	60154.11
567.68	60313.26
567.85	60104.96
568.01	60360.08
568.17	60224.32
568.34	60243.05
568.50	60102.62
568.66	59917.71
568.83	60177.51
568.99	60109.64
569.15	60278.16
569.32	60182.19
569.48	60329.65
569.64	60573.06
569.81	60465.40
569.97	60341.35
570.13	60177.51
570.30	60039.42
570.46	60278.16
570.62	60350.71
570.78	60301.56
570.95	60493.49
571.11	60264.11
571.27	60322.63
571.43	60252.41
571.60	60523.91
571.76	60385.82
571.92	60566.04
572.09	60402.21
572.25	60434.97
572.41	60212.62
572.57	60369.44
572.74	60608.17
572.90	60458.38
573.06	60481.78
573.22	60474.76
573.38	60498.17
573.55	60491.15
573.71	60764.99
573.87	60570.72
574.03	60474.76
574.20	60559.02
574.36	60516.89
574.52	60561.36
574.68	60608.17
574.84	60507.53
575.01	60521.57
575.17	60568.38
575.33	60444.33
575.49	60477.10
575.65	60395.18
575.82	60467.74
575.98	60694.77
576.14	60779.03
576.30	60680.73
576.46	60554.34
576.62	60589.45
576.79	60619.88
576.95	60491.15
577.11	60711.16
577.27	60846.91
577.43	60640.94
577.59	60636.26
577.75	60566.04
577.92	60603.49
578.08	60432.63
578.24	60795.42
578.40	60931.17
578.56	60741.58
578.72	60575.40
578.88	61017.77
579.04	60727.54
579.21	60772.01
579.37	60708.82
579.53	60781.37
579.69	60451.36
579.85	60587.11
580.01	60437.31
580.17	60519.23
580.33	60931.17
580.49	60935.85
580.65	60837.54
580.82	60919.46
580.98	60701.79
581.14	60568.38
581.30	60708.82
581.46	60743.92
581.62	60809.46
581.78	60659.66
581.94	60832.86
582.10	60692.43
582.26	60722.86
582.42	60566.04
582.58	60921.80
582.74	60762.65
582.90	60900.74
583.06	60718.18
583.22	60715.84
583.38	60704.13
583.54	60858.61
583.70	60863.29
583.86	60832.86
584.02	60713.50
584.18	60975.64
584.34	60788.39
584.50	60835.20
584.66	60699.45
584.82	60610.51
584.98	60938.19
585.14	60886.70
585.30	60814.14
585.46	60985.00
585.62	60985.00
585.78	60989.68
585.94	60589.45
586.10	60912.44
586.26	60945.21
586.42	60879.67
586.58	60914.78
586.74	61055.21
586.90	60891.38
587.06	60896.06
587.22	60858.61
587.38	60837.54
587.54	60903.08
587.70	60970.96
587.86	60755.63
588.02	60832.86
588.18	61095.00
588.34	61017.77
588.49	61010.74
