SpectraSuite Data File
++++++++++++++++++++++++++++++++++++
Date: Fri Oct 25 11:25:56 EDT 2013
User: price-jones
Dark Spectrum Present: No
Reference Spectrum Present: No
Number of Sampled Component Spectra: 1
Spectrometers: USB2+H05261
Integration Time (usec): 100000 (USB2+H05261)
Spectra Averaged: 1 (USB2+H05261)
Boxcar Smoothing: 0 (USB2+H05261)
Correct for Electrical Dark: No (USB2+H05261)
Strobe/Lamp Enabled: No (USB2+H05261)
Correct for Detector Non-linearity: No (USB2+H05261)
Correct for Stray Light: No (USB2+H05261)
Number of Pixels in Processed Spectrum: 2048
>>>>>Begin Processed Spectral Data<<<<<
365.73	231.71
365.92	231.71
366.12	231.71
366.32	105.32
366.52	175.54
366.72	156.82
366.91	156.82
367.11	128.73
367.31	182.56
367.51	159.16
367.70	152.13
367.90	180.22
368.10	98.30
368.30	191.92
368.49	107.66
368.69	198.95
368.89	187.24
369.09	215.33
369.28	241.08
369.48	177.88
369.68	152.13
369.87	243.42
370.07	271.50
370.27	236.39
370.47	397.89
370.66	592.16
370.86	617.90
371.06	634.29
371.25	777.06
371.45	657.69
371.65	641.31
371.84	650.67
372.04	664.71
372.24	653.01
372.44	706.84
372.63	828.55
372.83	725.57
373.03	732.59
373.22	746.63
373.42	807.48
373.62	751.31
373.81	856.64
374.01	751.31
374.21	816.85
374.40	725.57
374.60	814.51
374.79	835.57
374.99	877.70
375.19	842.59
375.38	821.53
375.58	922.17
375.78	880.04
375.97	802.80
376.17	840.25
376.37	781.74
376.56	814.51
376.76	844.93
376.95	851.96
377.15	866.00
377.35	931.53
377.54	917.49
377.74	997.07
377.93	875.36
378.13	880.04
378.33	957.28
378.52	819.19
378.72	945.58
378.91	952.60
379.11	938.55
379.31	858.98
379.50	966.64
379.70	987.71
379.89	992.39
380.09	901.11
380.28	947.92
380.48	994.73
380.68	954.94
380.87	917.49
381.07	1071.97
381.26	1001.75
381.46	1011.11
381.65	1046.22
381.85	1006.43
382.04	1067.28
382.24	1090.69
382.43	1074.31
382.63	1053.24
382.83	992.39
383.02	1071.97
383.22	1086.01
383.41	1118.78
383.61	1123.46
383.80	1121.12
384.00	1146.86
384.19	1111.75
384.39	1160.91
384.58	1104.73
384.78	1219.42
384.97	1198.35
385.17	1146.86
385.36	1125.80
385.56	1207.72
385.75	1163.25
385.95	1167.93
386.14	1221.76
386.34	1174.95
386.53	1163.25
386.72	1090.69
386.92	1256.87
387.11	1186.65
387.31	1200.69
387.50	1226.44
387.70	1338.79
387.89	1315.38
388.09	1359.85
388.28	1306.02
388.48	1299.00
388.67	1350.49
388.86	1376.24
389.06	1362.19
389.25	1380.92
389.45	1331.76
389.64	1341.13
389.84	1364.53
390.03	1416.02
390.22	1439.43
390.42	1352.83
390.61	1308.36
390.81	1284.95
391.00	1430.07
391.19	1418.36
391.39	1411.34
391.58	1481.56
391.78	1507.30
391.97	1521.35
392.16	1441.77
392.36	1593.90
392.55	1509.65
392.75	1544.75
392.94	1481.56
393.13	1547.09
393.33	1589.22
393.52	1526.03
393.71	1645.40
393.91	1657.10
394.10	1516.67
394.29	1640.72
394.49	1591.56
394.68	1689.87
394.88	1605.61
395.07	1647.74
395.26	1722.63
395.46	1671.14
395.65	1694.55
395.84	1776.47
396.04	1699.23
396.23	1739.02
396.42	1699.23
396.62	1818.60
396.81	1820.94
397.00	1778.81
397.19	1874.77
397.39	1685.19
397.58	1802.21
397.77	1823.28
397.97	1879.45
398.16	1879.45
398.35	2017.54
398.55	1891.15
398.74	1839.66
398.93	1959.03
399.12	1928.60
399.32	1858.39
399.51	1907.54
399.70	1914.56
399.90	2054.99
400.09	2003.50
400.28	2003.50
400.47	2012.86
400.67	2040.95
400.86	2134.57
401.05	2064.35
401.24	2104.14
401.44	2132.23
401.63	2108.82
401.82	2071.37
402.01	2190.74
402.21	2129.89
402.40	2214.15
402.59	2193.08
402.78	2232.87
402.97	2349.90
403.17	2282.02
403.36	2296.07
403.55	2253.94
403.74	2305.43
403.93	2253.94
404.13	2422.45
404.32	2436.50
404.51	2349.90
404.70	2443.52
404.89	2333.51
405.09	2455.22
405.28	2436.50
405.47	2450.54
405.66	2443.52
405.85	2495.01
406.05	2649.49
406.24	2663.53
406.43	2658.85
406.62	2541.82
406.81	2705.66
407.00	2562.89
407.20	2567.57
407.39	2576.93
407.58	2731.41
407.77	2710.34
407.96	2703.32
408.15	2836.73
408.34	2792.26
408.54	2761.83
408.73	2794.60
408.92	2815.66
409.11	2932.69
409.30	2977.16
409.49	2932.69
409.68	3012.27
409.87	2970.14
410.07	2979.50
410.26	2906.95
410.45	2953.76
410.64	3038.02
410.83	2993.55
411.02	3042.70
411.21	3208.87
411.40	3155.04
411.59	3262.71
411.78	3155.04
411.98	3138.66
412.17	3145.68
412.36	3309.52
412.55	3428.88
412.74	3424.20
412.93	3442.93
413.12	3351.65
413.31	3445.27
413.50	3468.67
413.69	3520.17
413.88	3676.98
414.07	3393.78
414.26	3641.87
414.45	3688.68
414.64	3510.80
414.83	3744.86
415.02	3850.18
415.22	3613.79
415.41	3866.56
415.60	3669.96
415.79	3941.46
415.98	3997.64
416.17	4009.34
416.36	4030.40
416.55	4058.49
416.74	3988.27
416.93	4046.79
417.12	3941.46
417.31	4191.90
417.50	4241.05
417.69	4454.04
417.88	4301.90
418.07	4292.54
418.26	4301.90
418.45	4290.20
418.64	4404.89
418.83	4287.86
419.02	4360.42
419.21	4449.36
419.39	4456.38
419.58	4514.89
419.77	4379.14
419.96	4458.72
420.15	4631.92
420.34	4578.09
420.53	4608.51
420.72	4657.67
420.91	4709.16
421.10	4692.77
421.29	4873.00
421.48	4650.64
421.67	4704.48
421.86	4716.18
422.05	4732.56
422.24	4739.58
422.43	4983.00
422.61	4861.29
422.80	4826.18
422.99	4926.83
423.18	4908.10
423.37	5018.11
423.56	4784.06
423.75	4985.34
423.94	4809.80
424.13	4540.64
424.32	4650.64
424.50	4952.57
424.69	5090.67
424.88	5053.22
425.07	5067.26
425.26	4912.78
425.45	5008.75
425.64	4917.47
425.83	4952.57
426.01	4952.57
426.20	5036.83
426.39	5240.46
426.58	5153.86
426.77	5090.67
426.96	5156.20
427.15	5039.17
427.33	5233.44
427.52	5240.46
427.71	5130.45
427.90	5083.64
428.09	5315.36
428.28	5261.52
428.46	5441.75
428.65	5291.95
428.84	5507.28
429.03	5399.62
429.22	5303.65
429.40	5420.68
429.59	5437.06
429.78	5397.28
429.97	5315.36
430.16	5582.18
430.34	5570.48
430.53	5729.63
430.72	5699.20
430.91	5554.09
431.10	5621.97
431.28	5633.67
431.47	5701.54
431.66	5802.19
431.85	5701.54
432.03	5778.78
432.22	5951.98
432.41	5998.79
432.60	5944.96
432.79	6038.58
432.97	5968.37
433.16	6071.35
433.35	6001.13
433.54	6078.37
433.72	6104.12
433.91	6071.35
434.10	6111.14
434.28	6061.99
434.47	6274.98
434.66	6211.78
434.85	6272.64
435.03	6363.92
435.22	6394.34
435.41	6375.62
435.59	6459.88
435.78	6506.69
435.97	6373.28
436.16	6356.90
436.34	6455.20
436.53	6499.67
436.72	6686.91
436.90	6307.74
437.09	6644.78
437.28	6499.67
437.46	6623.72
437.65	6656.48
437.84	6656.48
438.02	6942.03
438.21	6906.92
438.40	6647.12
438.58	6965.43
438.77	6977.14
438.96	6876.49
439.14	7030.97
439.33	7091.82
439.52	7185.44
439.70	7089.48
439.89	7405.46
440.08	7290.77
440.26	7482.69
440.45	7194.81
440.63	7485.03
440.82	7630.15
441.01	7536.52
441.19	7632.49
441.38	7630.15
441.57	7819.73
441.75	7878.24
441.94	7946.12
442.12	7925.05
442.31	7943.78
442.50	7929.74
442.68	7995.27
442.87	7950.80
443.05	7978.89
443.24	8226.98
443.43	8028.04
443.61	8322.94
443.80	8393.16
443.98	7922.71
444.17	7941.44
444.35	8166.13
444.54	8355.71
444.73	8159.11
444.91	8264.43
445.10	8294.86
445.28	8334.65
445.47	8301.88
445.65	8224.64
445.84	8362.73
446.02	8446.99
446.21	8166.13
446.39	8241.03
446.58	8463.38
446.77	8367.42
446.95	8297.20
447.14	8496.14
447.32	8407.20
447.51	8430.61
447.69	8376.78
447.88	8561.68
448.06	8606.15
448.25	8510.19
448.43	8681.05
448.62	8461.04
448.80	8582.74
448.99	8674.03
449.17	8751.26
449.36	8774.67
449.54	8627.21
449.73	9025.11
449.91	9151.49
450.10	9022.77
450.28	9078.94
450.46	9076.60
450.65	9156.18
450.83	9022.77
451.02	9139.79
451.20	9078.94
451.39	9202.99
451.57	9156.18
451.76	8943.19
451.94	9207.67
452.13	9193.62
452.31	9275.54
452.49	9198.31
452.68	9198.31
452.86	9586.83
453.05	9277.88
453.23	9458.10
453.42	9296.61
453.60	9369.16
453.78	9418.32
453.97	9472.15
454.15	9591.52
454.34	9479.17
454.52	9643.01
454.70	9701.52
454.89	9645.35
455.07	9738.97
455.26	9668.75
455.44	9895.78
455.62	10031.54
455.81	9708.54
455.99	10176.65
456.17	10162.61
456.36	9966.00
456.54	10078.35
456.73	10317.08
456.91	10427.09
457.09	10420.06
457.28	10408.36
457.46	10232.82
457.64	10471.56
457.83	10588.58
458.01	10317.08
458.19	10602.63
458.38	10408.36
458.56	10668.16
458.74	10768.80
458.93	10689.23
459.11	10551.14
459.29	10635.39
459.48	10604.97
459.66	10642.42
459.84	11075.42
460.03	10860.09
460.21	11318.83
460.39	11145.63
460.57	11023.92
460.76	11225.21
460.94	11215.85
461.12	11204.14
461.31	11117.54
461.49	11201.80
461.67	10942.00
461.85	11527.14
462.04	11318.83
462.22	11789.28
462.40	11452.24
462.59	11552.88
462.77	11412.45
462.95	11475.65
463.13	11573.95
463.32	11580.97
463.50	11609.06
463.68	11761.19
463.86	12131.00
464.05	11576.29
464.23	11758.85
464.41	12105.25
464.59	11414.79
464.78	12091.21
464.96	11969.50
465.14	11726.08
465.32	12049.08
465.50	12358.03
465.69	12168.45
465.87	12159.08
466.05	12128.66
466.23	12374.41
466.41	12266.75
466.60	12250.36
466.78	12191.85
466.96	12257.39
467.14	12339.30
467.32	12250.36
467.51	12524.21
467.69	12212.92
467.87	12367.39
468.05	12425.90
468.23	12496.12
468.41	12461.01
468.60	12631.87
468.78	12720.81
468.96	12620.17
469.14	12744.22
469.32	13135.09
469.50	12732.51
469.69	13078.91
469.87	13125.72
470.05	12975.93
470.23	12947.84
470.41	13174.88
470.59	13226.37
470.77	13132.75
470.95	13348.08
471.14	13481.49
471.32	12999.34
471.50	13797.46
471.68	13404.25
471.86	13603.19
472.04	13703.84
472.22	14160.24
472.40	13650.00
472.58	13802.14
472.77	14200.03
472.95	14321.74
473.13	14586.22
473.31	14045.55
473.49	14178.97
473.67	14122.79
473.85	13795.12
474.03	14626.01
474.21	14480.89
474.39	14752.40
474.57	14829.63
474.75	15098.80
474.93	15091.77
475.12	14537.07
475.30	15087.09
475.48	14927.94
475.66	15183.06
475.84	14953.68
476.02	15211.14
476.20	15061.35
476.38	15665.21
476.56	15840.75
476.74	15829.04
476.92	15712.02
477.10	15754.15
477.28	15967.13
477.46	16313.53
477.64	16407.16
477.82	16580.36
478.00	16732.49
478.18	16769.94
478.36	16973.56
478.54	17331.67
478.72	17104.64
478.90	17212.30
479.08	17488.48
479.26	17436.99
479.44	17778.71
479.62	17710.83
479.80	18136.81
479.98	18087.66
480.16	18640.03
480.34	18171.92
480.52	18455.12
480.70	18651.73
480.88	18408.31
481.06	18822.59
481.24	18703.22
481.41	19047.28
481.59	19080.05
481.77	19506.02
481.95	19262.61
482.13	19775.19
482.31	19578.58
482.49	20147.33
482.67	20091.16
482.85	20505.43
483.03	20521.82
483.21	21076.52
483.39	20812.04
483.57	20821.41
483.74	21259.09
483.92	21202.91
484.10	20823.75
484.28	21631.23
484.46	21766.98
484.64	22150.83
484.82	22146.15
485.00	22047.85
485.18	22462.12
485.35	22878.74
485.53	22855.33
485.71	23091.73
485.89	23681.54
486.07	23150.24
486.25	23466.21
486.43	23644.09
486.61	23777.50
486.78	24168.37
486.96	23967.09
487.14	24154.33
487.32	24444.56
487.50	24629.46
487.68	25268.42
487.85	24900.96
488.03	25659.29
488.21	25687.38
488.39	25486.09
488.57	25893.35
488.75	25961.22
488.92	26260.81
489.10	26480.82
489.28	26707.85
489.46	27096.38
489.64	27040.21
489.81	27449.80
489.99	27173.62
490.17	27672.15
490.35	28100.47
490.53	28357.93
490.70	28191.75
490.88	28020.89
491.06	28996.90
491.24	29092.86
491.41	28741.78
491.59	29401.81
491.77	29242.65
491.95	29441.60
492.13	29837.15
492.30	29734.17
492.48	30033.75
492.66	29963.54
492.84	29902.68
493.01	30595.48
493.19	30263.13
493.37	31222.75
493.54	30876.35
493.72	31484.89
493.90	31171.25
494.08	31845.33
494.25	31878.10
494.43	31960.02
494.61	32512.38
494.79	32348.54
494.96	32505.36
495.14	32844.74
495.32	33418.17
495.49	33226.24
495.67	33165.39
495.85	33469.66
496.02	33294.12
496.20	33663.93
496.38	33855.85
496.55	34092.24
496.73	34665.67
496.91	34766.32
497.09	34665.67
497.26	34892.71
497.44	34773.34
497.62	34993.35
497.79	35838.28
497.97	35452.09
498.14	35859.35
498.32	36144.89
498.50	36191.70
498.67	36594.28
498.85	36385.97
499.03	36613.00
499.20	36868.12
499.38	36940.68
499.56	36542.78
499.73	37134.94
499.91	37184.09
500.08	37553.90
500.26	37118.56
500.44	37558.58
500.61	37511.77
500.79	37490.70
500.97	37961.15
501.14	38438.62
501.32	38181.16
501.49	38567.35
501.67	39056.52
501.84	38677.35
502.02	38789.70
502.20	38962.90
502.37	39124.40
502.55	39164.18
502.72	39445.05
502.90	39370.15
503.07	39576.12
503.25	39379.51
503.43	39622.93
503.60	40149.55
503.78	40390.62
503.95	40201.04
504.13	40568.51
504.30	40514.67
504.48	40933.63
504.65	40407.01
504.83	40744.05
505.01	41518.76
505.18	41397.06
505.36	41532.81
505.53	41188.75
505.71	41731.75
505.88	41958.78
506.06	41001.50
506.23	41586.64
506.41	41366.63
506.58	42583.71
506.76	41993.89
506.93	42239.65
507.11	42583.71
507.28	42394.12
507.46	42340.29
507.63	42426.89
507.81	43030.75
507.98	42415.19
508.16	42974.58
508.33	43372.47
508.50	43318.64
508.68	43304.59
508.85	43538.65
509.03	43798.44
509.20	43786.74
509.38	44147.18
509.55	44119.10
509.73	44245.49
509.90	44313.36
510.08	44292.30
510.25	44772.11
510.42	44638.70
510.60	44966.37
510.77	45481.29
510.95	45471.93
511.12	45041.27
511.30	44849.35
511.47	45511.72
511.64	45109.14
511.82	46223.24
511.99	45476.61
512.17	45773.86
512.34	45474.27
512.51	46478.36
512.69	46094.51
512.86	46579.00
513.04	46260.69
513.21	46550.91
513.38	47061.15
513.56	46974.55
513.73	46263.03
513.90	46754.54
514.08	46714.75
514.25	47346.70
514.43	47524.58
514.60	47540.96
514.77	46691.35
514.95	47863.96
515.12	47552.66
515.29	47505.85
515.47	47793.74
515.64	47966.94
515.81	47547.98
515.99	48004.39
516.16	48247.80
516.33	48121.41
516.51	48568.46
516.68	48257.17
516.85	48397.60
517.03	48519.31
517.20	48582.50
517.37	48549.73
517.54	48854.00
517.72	48722.93
517.89	48727.61
518.06	48924.22
518.24	49481.27
518.41	49155.93
518.58	49441.48
518.75	49160.61
518.93	49109.12
519.10	49422.75
519.27	49551.48
519.45	49745.75
519.62	49811.28
519.79	49640.42
519.96	49771.49
520.14	50192.79
520.31	50190.45
520.48	50323.86
520.65	50361.31
520.83	50756.86
521.00	50497.06
521.17	50160.02
521.34	50878.57
521.52	50756.86
521.69	51035.38
521.86	51213.26
522.03	51011.98
522.20	51037.72
522.38	51217.94
522.55	51248.37
522.72	51217.94
522.89	51084.53
523.07	51281.14
523.24	51276.46
523.41	51774.99
523.58	51346.67
523.75	51524.55
523.92	51807.76
524.10	51992.66
524.27	52186.92
524.44	51917.76
524.61	52037.13
524.78	51983.30
524.96	52095.64
525.13	51985.64
525.30	52425.66
525.47	52514.60
525.64	52507.58
525.81	52694.82
525.98	52545.03
526.16	52460.77
526.33	52355.44
526.50	53137.18
526.67	52760.36
526.84	53212.08
527.01	52678.44
527.18	53031.86
527.36	52800.15
527.53	53022.50
527.70	53308.04
527.87	53425.07
528.04	53158.25
528.21	53127.82
528.38	53310.38
528.55	53640.40
528.72	53137.18
528.89	53408.68
529.07	53205.06
529.24	53396.98
529.41	53684.87
529.58	54005.52
529.75	53829.98
529.92	53778.49
530.09	53869.77
530.26	53844.02
530.43	53783.17
530.60	53865.09
530.77	53801.89
530.94	53862.75
531.11	53883.81
531.28	54071.06
531.46	54150.63
531.63	54185.74
531.80	54340.22
531.97	54216.17
532.14	54253.62
532.31	54340.22
532.48	54508.74
532.65	54405.75
532.82	54396.39
532.99	54948.76
533.16	54560.23
533.33	54782.58
533.50	54850.45
533.67	54990.89
533.84	54721.72
534.01	54794.28
534.18	54674.91
534.35	55288.13
534.52	55065.78
534.69	55030.68
534.86	55150.04
535.03	54789.60
535.20	55143.02
535.37	55346.65
535.54	55206.22
535.71	55009.61
535.88	55388.78
536.05	55569.00
536.22	55458.99
536.38	55494.10
536.55	55646.24
536.72	55536.23
536.89	55543.25
537.06	55718.79
537.23	55547.93
537.40	55578.36
537.57	55627.51
537.74	55997.32
537.91	55931.78
538.08	55990.30
538.25	55704.75
538.42	55884.97
538.59	55884.97
538.75	55641.56
538.92	56025.40
539.09	56011.36
539.26	55924.76
539.43	56116.68
539.60	56198.60
539.77	56182.22
539.94	56374.14
540.11	56116.68
540.28	56350.74
540.44	56561.39
540.61	56526.28
540.78	56329.67
540.95	56474.79
541.12	56175.20
541.29	56474.79
541.46	56406.91
541.62	56755.65
541.79	56549.68
541.96	56191.58
542.13	56713.52
542.30	56809.48
542.47	56905.44
542.63	57069.28
542.80	57102.05
542.97	57066.94
543.14	57102.05
543.31	56987.36
543.48	57286.95
543.64	57315.04
543.81	57214.40
543.98	57176.95
544.15	57272.91
544.32	57207.37
544.48	57436.75
544.65	57347.81
544.82	57403.98
544.99	57169.93
545.16	57448.45
545.32	57375.89
545.49	57670.80
545.66	57766.76
545.83	57626.33
546.00	57528.03
546.16	57464.83
546.33	57329.08
546.50	57387.60
546.67	57623.99
546.83	57380.57
547.00	57778.46
547.17	57616.97
547.34	57778.46
547.50	57965.71
547.67	58014.86
547.84	57949.32
548.00	57886.13
548.17	58185.72
548.34	58068.69
548.51	58284.02
548.67	58066.35
548.84	57977.41
549.01	58085.07
549.18	58019.54
549.34	58040.60
549.51	58195.08
549.68	58384.66
549.84	58284.02
550.01	58319.13
550.18	58213.80
550.34	58611.70
550.51	58501.69
550.68	58347.21
550.84	58166.99
551.01	58337.85
551.18	58389.34
551.34	58475.94
551.51	58625.74
551.68	58618.72
551.84	58422.11
552.01	58169.33
552.18	58754.47
552.34	58487.65
552.51	58576.59
552.68	58599.99
552.84	58791.92
553.01	58960.44
553.18	58906.60
553.34	58906.60
553.51	58759.15
553.67	58677.23
553.84	58979.16
554.01	59014.27
554.17	59068.10
554.34	58782.55
554.51	58967.46
554.67	59133.63
554.84	58908.94
555.00	58962.78
555.17	58955.75
555.33	58944.05
555.50	58922.99
555.67	59025.97
555.83	58955.75
556.00	59145.34
556.16	59217.89
556.33	59185.13
556.50	59173.42
556.66	59377.05
556.83	59168.74
556.99	59297.47
557.16	59451.95
557.32	59323.22
557.49	59580.68
557.65	59147.68
557.82	59313.86
557.98	59316.20
558.15	59370.03
558.32	59571.32
558.48	59241.30
558.65	59339.60
558.81	59433.22
558.98	59423.86
559.14	59573.66
559.31	59594.72
559.47	59704.73
559.64	59592.38
559.80	59732.81
559.97	59660.26
560.13	59559.61
560.30	59662.60
560.46	59671.96
560.63	59650.89
560.79	59606.42
560.96	59781.96
561.12	59812.39
561.29	59884.95
561.45	59894.31
561.61	59686.00
561.78	59767.92
561.94	59695.36
562.11	59856.86
562.27	60093.25
562.44	59952.82
562.60	60090.91
562.77	60154.11
562.93	59700.04
563.10	60032.40
563.26	59948.14
563.42	60221.98
563.59	59920.05
563.75	59922.40
563.92	60009.00
564.08	60006.65
564.24	60126.02
564.41	60111.98
564.57	60224.32
564.74	60074.53
564.90	60039.42
565.07	60018.36
565.23	59765.58
565.39	60111.98
565.56	60217.30
565.72	59929.42
565.88	60191.56
566.05	59906.01
566.21	60203.26
566.38	60254.75
566.54	60111.98
566.70	60360.08
566.87	60144.75
567.03	60111.98
567.19	60247.73
567.36	60252.41
567.52	60301.56
567.68	60622.22
567.85	60430.29
568.01	60264.11
568.17	60041.76
568.34	60392.84
568.50	60282.84
568.66	60334.33
568.83	60355.39
568.99	60247.73
569.15	60470.08
569.32	60346.03
569.48	60383.48
569.64	60486.46
569.81	60369.44
569.97	60252.41
570.13	60350.71
570.30	60409.23
570.46	60481.78
570.62	60355.39
570.78	60458.38
570.95	60376.46
571.11	60694.77
571.27	60584.77
571.43	60406.89
571.60	60694.77
571.76	60488.80
571.92	60678.39
572.09	60762.65
572.25	60554.34
572.41	60427.95
572.57	60477.10
572.74	60790.73
572.90	60434.97
573.06	60680.73
573.22	60575.40
573.38	60643.28
573.55	60521.57
573.71	60612.85
573.87	60804.78
574.03	60509.87
574.20	60715.84
574.36	60727.54
574.52	60603.49
574.68	60816.48
574.84	60856.27
575.01	60673.71
575.17	60638.60
575.33	60589.45
575.49	60516.89
575.65	60481.78
575.82	60764.99
575.98	60781.37
576.14	60842.23
576.30	60704.13
576.46	60619.88
576.62	60701.79
576.79	60596.47
576.95	60458.38
577.11	60835.20
577.27	60999.04
577.43	61031.81
577.59	60746.26
577.75	60757.97
577.92	60650.30
578.08	60877.33
578.24	60781.37
578.40	60935.85
578.56	61078.62
578.72	60687.75
578.88	60966.27
579.04	60992.02
579.21	60928.83
579.37	60917.12
579.53	60907.76
579.69	60683.07
579.85	60753.29
580.01	60601.15
580.17	60631.58
580.33	60856.27
580.49	60654.98
580.65	60795.42
580.82	60793.07
580.98	60636.26
581.14	60818.82
581.30	60917.12
581.46	60727.54
581.62	61048.19
581.78	60652.64
581.94	60947.55
582.10	60781.37
582.26	60783.71
582.42	60743.92
582.58	61169.90
582.74	60718.18
582.90	60816.48
583.06	60814.14
583.22	60767.33
583.38	60896.06
583.54	60729.88
583.70	60846.91
583.86	61139.47
584.02	60633.92
584.18	61015.43
584.34	60818.82
584.50	60835.20
584.66	60860.95
584.82	60769.67
584.98	61069.26
585.14	61024.79
585.30	60795.42
585.46	60949.89
585.62	61092.66
585.78	61085.64
585.94	60975.64
586.10	60867.97
586.26	61020.11
586.42	61158.20
586.58	61125.43
586.74	61099.68
586.90	61078.62
587.06	60910.10
587.22	60905.42
587.38	61106.71
587.54	60947.55
587.70	61097.34
587.86	61120.75
588.02	61055.21
588.18	61270.54
588.34	60860.95
588.49	61097.34
