SpectraSuite Data File
++++++++++++++++++++++++++++++++++++
Date: Fri Oct 25 11:33:46 EDT 2013
User: price-jones
Dark Spectrum Present: No
Reference Spectrum Present: No
Number of Sampled Component Spectra: 1
Spectrometers: USB2+H05261
Integration Time (usec): 100000 (USB2+H05261)
Spectra Averaged: 1 (USB2+H05261)
Boxcar Smoothing: 0 (USB2+H05261)
Correct for Electrical Dark: No (USB2+H05261)
Strobe/Lamp Enabled: No (USB2+H05261)
Correct for Detector Non-linearity: No (USB2+H05261)
Correct for Stray Light: No (USB2+H05261)
Number of Pixels in Processed Spectrum: 2048
>>>>>Begin Processed Spectral Data<<<<<
365.73	297.25
365.92	297.25
366.12	297.25
366.32	182.56
366.52	168.52
366.72	147.45
366.91	210.65
367.11	154.48
367.31	138.09
367.51	208.31
367.70	208.31
367.90	142.77
368.10	259.80
368.30	184.90
368.49	191.92
368.69	234.05
368.89	217.67
369.09	175.54
369.28	222.35
369.48	234.05
369.68	196.60
369.87	285.55
370.07	168.52
370.27	292.57
370.47	304.27
370.66	456.40
370.86	578.11
371.06	461.09
371.25	545.34
371.45	505.56
371.65	601.52
371.84	585.13
372.04	519.60
372.24	519.60
372.44	622.58
372.63	559.39
372.83	613.22
373.03	678.76
373.22	521.94
373.42	653.01
373.62	580.45
373.81	615.56
374.01	578.11
374.21	667.05
374.40	653.01
374.60	657.69
374.79	568.75
374.99	695.14
375.19	709.18
375.38	627.26
375.58	641.31
375.78	678.76
375.97	737.27
376.17	725.57
376.37	653.01
376.56	671.73
376.76	671.73
376.95	699.82
377.15	685.78
377.35	650.67
377.54	709.18
377.74	610.88
377.93	704.50
378.13	660.03
378.33	667.05
378.52	723.23
378.72	702.16
378.91	692.80
379.11	657.69
379.31	779.40
379.50	739.61
379.70	727.91
379.89	709.18
380.09	667.05
380.28	746.63
380.48	748.97
380.68	683.44
380.87	704.50
381.07	826.21
381.26	798.12
381.46	823.87
381.65	760.67
381.85	779.40
382.04	816.85
382.24	786.42
382.43	814.51
382.63	734.93
382.83	751.31
383.02	777.06
383.22	833.23
383.41	802.80
383.61	823.87
383.80	755.99
384.00	795.78
384.19	795.78
384.39	819.19
384.58	812.17
384.78	964.30
384.97	791.10
385.17	809.83
385.36	908.13
385.56	933.87
385.75	702.16
385.95	809.83
386.14	873.02
386.34	891.74
386.53	870.68
386.72	882.38
386.92	936.21
387.11	840.25
387.31	849.61
387.50	877.70
387.70	919.83
387.89	856.64
388.09	912.81
388.28	880.04
388.48	922.17
388.67	978.34
388.86	873.02
389.06	929.19
389.25	877.70
389.45	1001.75
389.64	901.11
389.84	978.34
390.03	898.77
390.22	985.37
390.42	901.11
390.61	980.68
390.81	999.41
391.00	938.55
391.19	1057.92
391.39	1020.47
391.58	968.98
391.78	980.68
391.97	1088.35
392.16	999.41
392.36	950.26
392.55	1071.97
392.75	1022.81
392.94	1041.54
393.13	1142.18
393.33	992.39
393.52	1043.88
393.71	1123.46
393.91	1123.46
394.10	1011.11
394.29	1053.24
394.49	1114.10
394.68	1043.88
394.88	1064.94
395.07	1062.60
395.26	1076.65
395.46	1245.16
395.65	1078.99
395.84	1158.57
396.04	1284.95
396.23	1177.29
396.42	1200.69
396.62	1193.67
396.81	1156.22
397.00	1196.01
397.19	1242.82
397.39	1221.76
397.58	1186.65
397.77	1249.85
397.97	1284.95
398.16	1242.82
398.35	1259.21
398.55	1310.70
398.74	1336.45
398.93	1329.42
399.12	1341.13
399.32	1324.74
399.51	1341.13
399.70	1334.11
399.90	1411.34
400.09	1430.07
400.28	1378.58
400.47	1331.76
400.67	1507.30
400.86	1343.47
401.05	1430.07
401.24	1336.45
401.44	1355.17
401.63	1446.45
401.82	1418.36
402.01	1432.41
402.21	1460.49
402.40	1535.39
402.59	1537.73
402.78	1523.69
402.97	1530.71
403.17	1554.12
403.36	1682.85
403.55	1502.62
403.74	1586.88
403.93	1549.43
404.13	1504.96
404.32	1540.07
404.51	1671.14
404.70	1673.48
404.89	1603.27
405.09	1661.78
405.28	1680.50
405.47	1664.12
405.66	1757.74
405.85	1722.63
406.05	1753.06
406.24	1636.03
406.43	1783.49
406.62	1774.13
406.81	1898.17
407.00	1774.13
407.20	1837.32
407.39	1776.47
407.58	1944.99
407.77	1839.66
407.96	1872.43
408.15	1914.56
408.34	1799.87
408.54	1940.30
408.73	1912.22
408.92	1961.37
409.11	1973.07
409.30	1991.80
409.49	1844.34
409.68	1928.60
409.87	2036.27
410.07	2012.86
410.26	2127.55
410.45	2094.78
410.64	2120.53
410.83	2136.91
411.02	2153.29
411.21	2118.18
411.40	2059.67
411.59	2260.96
411.78	2289.04
411.98	2225.85
412.17	2235.21
412.36	2260.96
412.55	2317.13
412.74	2335.85
412.93	2352.24
413.12	2293.72
413.31	2438.84
413.50	2392.03
413.69	2385.01
413.88	2572.25
414.07	2438.84
414.26	2438.84
414.45	2569.91
414.64	2530.12
414.83	2558.21
415.02	2588.63
415.22	2628.42
415.41	2614.38
415.60	2546.50
415.79	2593.31
415.98	2700.98
416.17	2836.73
416.36	2738.43
416.55	2759.49
416.74	2827.37
416.93	2813.32
417.12	2832.05
417.31	2871.84
417.50	2836.73
417.69	2984.18
417.88	2949.08
418.07	2878.86
418.26	2888.22
418.45	3009.93
418.64	3122.27
418.83	3049.72
419.02	2991.20
419.21	3215.90
419.39	3070.78
419.58	3047.38
419.77	3040.36
419.96	3185.47
420.15	3234.62
420.34	3246.32
420.53	3166.74
420.72	3236.96
420.91	3239.30
421.10	3248.66
421.29	3311.86
421.48	3346.97
421.67	3218.24
421.86	3304.84
422.05	3262.71
422.24	3267.39
422.43	3239.30
422.61	3328.24
422.80	3351.65
422.99	3496.76
423.18	3449.95
423.37	3335.26
423.56	3304.84
423.75	3417.18
423.94	3393.78
424.13	3166.74
424.32	3281.43
424.50	3384.41
424.69	3534.21
424.88	3377.39
425.07	3475.70
425.26	3307.18
425.45	3372.71
425.64	3337.60
425.83	3501.44
426.01	3393.78
426.20	3449.95
426.39	3609.11
426.58	3557.61
426.77	3552.93
426.96	3449.95
427.15	3599.74
427.33	3632.51
427.52	3538.89
427.71	3637.19
427.90	3557.61
428.09	3578.68
428.28	3639.53
428.46	3791.67
428.65	3653.58
428.84	3885.29
429.03	3688.68
429.22	3578.68
429.40	3840.82
429.59	3756.56
429.78	3744.86
429.97	3562.30
430.16	3772.94
430.34	3808.05
430.53	3817.41
430.72	3775.28
430.91	3887.63
431.10	3882.95
431.28	3857.20
431.47	3915.72
431.66	4079.55
431.85	3943.80
432.03	3915.72
432.22	4191.90
432.41	4016.36
432.60	4021.04
432.79	4088.92
432.97	4028.06
433.16	4180.20
433.35	4051.47
433.54	4159.13
433.72	4222.33
433.91	4187.22
434.10	4194.24
434.28	4074.87
434.47	4114.66
434.66	4358.08
434.85	4238.71
435.03	4238.71
435.22	4248.07
435.41	4381.48
435.59	4372.12
435.78	4491.49
435.97	4517.23
436.16	4402.55
436.34	4395.53
436.53	4447.02
436.72	4587.45
436.90	4362.76
437.09	4425.95
437.28	4442.34
437.46	4493.83
437.65	4638.94
437.84	4711.50
438.02	4800.44
438.21	4622.56
438.40	4685.75
438.58	4781.71
438.77	4594.47
438.96	4788.74
439.14	4870.65
439.33	4840.23
439.52	4999.38
439.70	4891.72
439.89	5011.09
440.08	4957.25
440.26	4945.55
440.45	5102.37
440.63	5046.20
440.82	5200.67
441.01	4999.38
441.19	5116.41
441.38	5406.64
441.57	5308.34
441.75	5270.89
441.94	5390.25
442.12	5338.76
442.31	5509.62
442.50	5547.07
442.68	5631.33
442.87	5416.00
443.05	5572.82
443.24	5579.84
443.43	5692.18
443.61	5624.31
443.80	5715.59
443.98	5313.02
444.17	5198.33
444.35	5565.79
444.54	5650.05
444.73	5579.84
444.91	5547.07
445.10	5586.86
445.28	5664.10
445.47	5617.29
445.65	5675.80
445.84	5764.74
446.02	5813.89
446.21	5771.76
446.39	5799.85
446.58	5717.93
446.77	5841.98
446.95	5666.44
447.14	5706.23
447.32	5774.10
447.51	5771.76
447.69	5696.86
447.88	5860.70
448.06	5717.93
448.25	5841.98
448.43	5926.24
448.62	5746.02
448.80	5776.44
448.99	5891.13
449.17	5968.37
449.36	5914.53
449.54	5921.56
449.73	6092.41
449.91	6087.73
450.10	6047.94
450.28	6211.78
450.46	6202.42
450.65	6197.74
450.83	6092.41
451.02	6085.39
451.20	6183.70
451.39	6242.21
451.57	6197.74
451.76	6022.20
451.94	6314.77
452.13	6195.40
452.31	6342.85
452.49	6303.06
452.68	6492.65
452.86	6314.77
453.05	6396.68
453.23	6452.86
453.42	6157.95
453.60	6197.74
453.78	6380.30
453.97	6347.53
454.15	6462.22
454.34	6392.00
454.52	6509.03
454.70	6715.00
454.89	6518.39
455.07	6590.95
455.26	6553.50
455.44	6565.20
455.62	6679.89
455.81	6731.38
455.99	6658.82
456.17	6853.09
456.36	6764.15
456.54	6981.82
456.73	7094.16
456.91	7229.91
457.09	7073.10
457.28	7213.53
457.46	6956.07
457.64	6984.16
457.83	7042.67
458.01	7030.97
458.19	7194.81
458.38	7002.88
458.56	7236.94
458.74	7155.02
458.93	7082.46
459.11	7098.84
459.29	7173.74
459.48	7243.96
459.66	7452.27
459.84	7239.28
460.03	7665.25
460.21	7365.67
460.39	7389.07
460.57	7492.05
460.76	7494.40
460.94	7672.28
461.12	7653.55
461.31	7585.68
461.49	7403.11
461.67	7562.27
461.85	7672.28
462.04	7372.69
462.22	7976.55
462.40	7770.58
462.59	7801.01
462.77	7494.40
462.95	7698.02
463.13	7798.66
463.32	7744.83
463.50	7847.82
463.68	8098.25
463.86	8023.36
464.05	7913.35
464.23	7730.79
464.41	7990.59
464.59	7805.69
464.78	8126.34
464.96	7847.82
465.14	7768.24
465.32	8063.15
465.50	8084.21
465.69	8194.22
465.87	8086.55
466.05	7969.52
466.23	8198.90
466.41	8250.39
466.60	8461.04
466.78	8028.04
466.96	8170.81
467.14	8119.32
467.32	8304.22
467.51	8327.63
467.69	8023.36
467.87	8421.25
468.05	8372.10
468.23	8435.29
468.41	8421.25
468.60	8369.76
468.78	8388.48
468.96	8329.97
469.14	8425.93
469.32	8472.74
469.50	8491.46
469.69	8472.74
469.87	8954.89
470.05	8730.20
470.23	8798.07
470.41	8667.00
470.59	9018.08
470.77	8812.12
470.95	8774.67
471.14	9039.15
471.32	8798.07
471.50	8971.27
471.68	9011.06
471.86	9273.20
472.04	9167.88
472.22	9387.89
472.40	9217.03
472.58	9097.66
472.77	9371.50
472.95	9444.06
473.13	9687.48
473.31	9460.45
473.49	9270.86
473.67	9511.94
473.85	9582.15
474.03	9647.69
474.21	9926.21
474.39	9612.58
474.57	9774.08
474.75	9891.10
474.93	10104.09
475.12	9872.38
475.30	10113.45
475.48	9940.26
475.66	10333.47
475.84	10092.39
476.02	10101.75
476.20	10370.91
476.38	10511.35
476.56	10796.89
476.74	10574.54
476.92	10377.94
477.10	10516.03
477.28	10714.97
477.46	10796.89
477.64	10626.03
477.82	10759.44
478.00	11119.89
478.18	11005.20
478.36	11304.79
478.54	11243.93
478.72	11281.38
478.90	11569.27
479.08	11410.11
479.26	11686.29
479.44	11566.93
479.62	11700.34
479.80	11702.68
479.98	11920.35
480.16	12365.05
480.34	12203.55
480.52	12346.33
480.70	12133.34
480.88	12182.49
481.06	12423.56
481.24	12393.14
481.41	12718.47
481.59	12711.45
481.77	13053.17
481.95	12788.69
482.13	12938.48
482.31	12844.86
482.49	13191.26
482.67	13102.32
482.85	13280.20
483.03	13586.81
483.21	13589.15
483.39	13973.00
483.57	13816.18
483.74	14125.13
483.92	13804.48
484.10	13837.25
484.28	14118.11
484.46	14242.16
484.64	14600.26
484.82	14492.60
485.00	14609.62
485.18	14799.21
485.35	15197.10
485.53	15012.20
485.71	15126.88
485.89	15372.64
486.07	15236.89
486.25	15360.94
486.43	15709.68
486.61	15782.23
486.78	15941.39
486.96	16056.08
487.14	16102.89
487.32	16142.67
487.50	16458.65
487.68	16341.62
487.85	16812.07
488.03	16706.74
488.21	16748.87
488.39	17022.72
488.57	17123.36
488.75	17102.29
488.92	17589.13
489.10	17397.20
489.28	17685.09
489.46	17762.33
489.64	17600.83
489.81	18382.57
489.99	18118.09
490.17	18139.15
490.35	18340.44
490.53	18590.88
490.70	18759.39
490.88	18705.56
491.06	19061.32
491.24	19204.10
491.41	19122.18
491.59	19297.72
491.77	19232.18
491.95	19421.77
492.13	19534.11
492.30	19637.09
492.48	19786.89
492.66	19723.69
492.84	19880.51
493.01	20109.88
493.19	20077.12
493.37	20046.69
493.54	20400.11
493.72	20482.03
493.90	20437.56
494.08	20563.95
494.25	20741.83
494.43	21036.74
494.61	21165.46
494.79	21160.78
494.96	21408.88
495.14	21472.07
495.32	21727.19
495.49	21528.25
495.67	21963.59
495.85	21853.58
496.02	22185.94
496.20	22298.28
496.38	22445.74
496.55	22764.05
496.73	22860.01
496.91	23009.81
497.09	22504.25
497.26	22951.29
497.44	23016.83
497.62	22993.42
497.79	23541.11
497.97	23190.03
498.14	23215.77
498.32	23700.26
498.50	23777.50
498.67	23718.99
498.85	23630.05
499.03	23859.42
499.20	24430.51
499.38	23950.70
499.56	24418.81
499.73	24114.54
499.91	24264.33
500.08	24720.74
500.26	24463.28
500.44	24833.08
500.61	24439.87
500.79	24807.34
500.97	24957.13
501.14	25179.48
501.32	25209.91
501.49	25458.01
501.67	25397.15
501.84	25614.82
502.02	25619.50
502.20	25532.90
502.37	25509.50
502.55	25713.13
502.72	25687.38
502.90	26059.52
503.07	25879.30
503.25	26127.40
503.43	26384.86
503.60	26541.68
503.78	26295.92
503.95	26593.17
504.13	26569.76
504.30	26857.65
504.48	26796.79
504.65	26930.20
504.83	26937.23
505.01	26962.97
505.18	26892.76
505.36	27693.22
505.53	27007.44
505.71	27070.64
505.88	27374.91
506.06	27236.81
506.23	27733.01
506.41	27440.44
506.58	27552.79
506.76	27810.25
506.93	28233.88
507.11	28149.62
507.28	28046.64
507.46	28093.45
507.63	28397.72
507.81	28252.61
507.98	28130.90
508.16	28240.90
508.33	28622.41
508.50	28554.54
508.68	28931.36
508.85	28811.99
509.03	29029.66
509.20	29280.10
509.38	29584.37
509.55	29359.68
509.73	29188.82
509.90	29493.09
510.08	29469.69
510.25	29493.09
510.42	29591.39
510.60	29397.13
510.77	30017.37
510.95	29916.73
511.12	29549.26
511.30	29811.40
511.47	30113.33
511.64	29944.81
511.82	30522.93
511.99	30335.68
512.17	30263.13
512.34	30321.64
512.51	30401.22
512.69	30881.03
512.86	30742.94
513.04	31037.84
513.21	31061.25
513.38	31030.82
513.56	31204.02
513.73	31349.14
513.90	31220.41
514.08	31000.40
514.25	31718.94
514.43	31566.81
514.60	31417.01
514.77	31548.08
514.95	31587.87
515.12	31861.71
515.29	31756.39
515.47	31770.43
515.64	32023.21
515.81	31941.29
515.99	32163.64
516.16	32135.56
516.33	32404.72
516.51	32634.09
516.68	32514.72
516.85	32355.57
517.03	33017.94
517.20	32690.26
517.37	32575.58
517.54	32957.08
517.72	32900.91
517.89	32823.67
518.06	33244.97
518.24	33167.73
518.41	32936.02
518.58	33193.48
518.75	33067.09
518.93	33476.68
519.10	33518.81
519.27	33455.62
519.45	33469.66
519.62	33893.30
519.79	33558.60
519.96	33617.11
520.14	33593.71
520.31	33757.55
520.48	33876.91
520.65	33912.02
520.83	34314.59
521.00	34162.46
521.17	33951.81
521.34	34422.26
521.52	34668.02
521.69	34590.78
521.86	34684.40
522.03	34646.95
522.20	34735.89
522.38	34951.22
522.55	35049.52
522.72	34993.35
522.89	34721.85
523.07	35154.85
523.24	34829.51
523.41	35531.67
523.58	35211.02
523.75	35751.68
523.92	35227.40
524.10	35749.34
524.27	35728.28
524.44	35838.28
524.61	35634.66
524.78	35606.57
524.96	36067.66
525.13	36046.59
525.30	35957.65
525.47	36290.01
525.64	36355.54
525.81	36219.79
525.98	36292.35
526.16	36180.00
526.33	36236.17
526.50	36402.35
526.67	36397.67
526.84	36622.36
527.01	36432.78
527.18	36903.23
527.36	36767.48
527.53	37235.58
527.70	37017.91
527.87	36849.39
528.04	36783.86
528.21	37228.56
528.38	36973.44
528.55	37460.27
528.72	36992.17
528.89	37081.11
529.07	37453.25
529.24	37207.50
529.41	37160.69
529.58	37165.37
529.75	37284.73
529.92	37507.08
530.09	38040.73
530.26	37532.83
530.43	37893.27
530.60	37432.19
530.77	37591.34
530.94	37806.67
531.11	37752.84
531.28	38073.49
531.46	38267.76
531.63	38291.16
531.80	37895.61
531.97	38174.14
532.14	38394.15
532.31	38473.73
532.48	38576.71
532.65	38431.60
532.82	38068.81
532.99	38567.35
533.16	38492.45
533.33	38663.31
533.50	38649.27
533.67	38850.55
533.84	38160.09
534.01	38878.64
534.18	39000.35
534.35	39150.14
534.52	38747.57
534.69	39175.89
534.86	39569.10
535.03	39051.84
535.20	39573.78
535.37	38993.32
535.54	39878.05
535.71	39447.39
535.88	39714.21
536.05	40016.14
536.22	40018.48
536.38	39913.16
536.55	39824.22
536.72	39667.40
536.89	39625.27
537.06	39866.34
537.23	40467.86
537.40	39538.67
537.57	39739.96
537.74	39772.72
537.91	39924.86
538.08	39997.41
538.25	39938.90
538.42	39873.37
538.59	40748.73
538.75	40112.10
538.92	40568.51
539.09	40385.94
539.26	40268.92
539.43	40397.65
539.60	40587.23
539.77	40390.62
539.94	40910.22
540.11	40453.82
540.28	40699.58
540.44	41069.38
540.61	40524.04
540.78	40456.16
540.95	41230.88
541.12	40727.66
541.29	40942.99
541.46	40917.25
541.62	40945.33
541.79	41418.12
541.96	40627.02
542.13	41024.91
542.30	41303.43
542.47	41181.73
542.63	40964.06
542.80	41486.00
542.97	41759.84
543.14	41958.78
543.31	41869.84
543.48	41378.33
543.64	42087.51
543.81	42005.59
543.98	41539.83
544.15	41879.21
544.32	42438.59
544.48	42534.56
544.65	41883.89
544.82	42155.39
544.99	42139.00
545.16	42330.93
545.32	41900.27
545.49	42450.30
545.66	42511.15
545.83	42361.36
546.00	42761.59
546.16	42597.75
546.33	42253.69
546.50	42359.02
546.67	42480.72
546.83	42384.76
547.00	42607.11
547.17	42209.22
547.34	42220.92
547.50	43189.91
547.67	43136.07
547.84	42536.90
548.00	43136.07
548.17	43161.82
548.34	43056.50
548.51	43295.23
548.67	43138.41
548.84	43084.58
549.01	43079.90
549.18	43463.75
549.34	43634.61
549.51	43480.13
549.68	43416.94
549.84	43421.62
550.01	43349.06
550.18	43452.05
550.34	43665.03
550.51	43922.49
550.68	43435.66
550.84	43363.11
551.01	44030.16
551.18	43889.73
551.34	43615.88
551.51	43847.60
551.68	43484.81
551.84	43618.22
552.01	43573.75
552.18	44182.29
552.34	43927.17
552.51	43948.24
552.68	43646.31
552.84	43805.47
553.01	44236.12
553.18	44006.75
553.34	44589.55
553.51	43976.33
553.67	44179.95
553.84	44149.53
554.01	44416.35
554.17	44374.22
554.34	44694.87
554.51	44612.95
554.67	44453.79
554.84	44552.10
555.00	44655.08
555.17	44222.08
555.33	44725.30
555.50	44376.56
555.67	44516.99
555.83	44421.03
556.00	45001.48
556.16	45111.49
556.33	45153.62
556.50	44847.00
556.66	44926.58
556.83	44947.65
556.99	45214.47
557.16	44996.80
557.32	44938.29
557.49	45146.59
557.65	44919.56
557.82	45059.99
557.98	45062.33
558.15	44914.88
558.32	45099.78
558.48	45312.77
558.65	45668.53
558.81	44849.35
558.98	44865.73
559.14	44758.06
559.31	45071.70
559.47	45162.98
559.64	45193.40
559.80	45198.09
559.97	45401.71
560.13	45366.60
560.30	45317.45
560.46	45661.51
560.63	45500.01
560.79	45649.81
560.96	45502.35
561.12	45670.87
561.29	45799.60
561.45	45745.77
561.61	45270.64
561.78	45778.54
561.94	45045.95
562.11	45673.21
562.27	45909.61
562.44	45886.20
562.60	45415.76
562.77	46045.36
562.93	45780.88
563.10	45893.22
563.26	45797.26
563.42	46108.55
563.59	45595.98
563.75	46073.45
563.92	46005.57
564.08	45654.49
564.24	45872.16
564.41	45684.92
564.57	45918.97
564.74	46340.27
564.90	46148.34
565.07	46045.36
565.23	46181.11
565.39	46117.92
565.56	46424.53
565.72	45858.12
565.88	46078.13
566.05	45879.18
566.21	46607.09
566.38	45865.14
566.54	46401.12
566.70	45900.25
566.87	46319.20
567.03	45954.08
567.19	46160.05
567.36	46436.23
567.52	46096.85
567.68	46487.72
567.85	46312.18
568.01	46564.96
568.17	46756.88
568.34	46256.01
568.50	46511.13
568.66	46103.87
568.83	46263.03
568.99	46476.02
569.15	46412.82
569.32	46323.88
569.48	46394.10
569.64	46721.77
569.81	46356.65
569.97	46471.34
570.13	46588.36
570.30	46457.29
570.46	46391.76
570.62	46616.45
570.78	46518.15
570.95	46389.42
571.11	46614.11
571.27	46770.93
571.43	46473.68
571.60	46930.08
571.76	46185.79
571.92	46981.57
572.09	46244.30
572.25	46681.98
572.41	46866.89
572.57	46686.67
572.74	47068.17
572.90	46831.78
573.06	46986.25
573.22	46909.02
573.38	46972.21
573.55	46412.82
573.71	47049.45
573.87	46820.08
574.03	47100.94
574.20	47292.86
574.36	46562.62
574.52	46747.52
574.68	46681.98
574.84	47086.90
575.01	46770.93
575.17	47316.27
575.33	46918.38
575.49	47171.16
575.65	46714.75
575.82	47002.64
575.98	47143.07
576.14	47519.90
576.30	47360.74
576.46	47407.55
576.62	47192.22
576.79	47260.10
576.95	46735.82
577.11	46377.72
577.27	46930.08
577.43	47208.61
577.59	47215.63
577.75	46829.44
577.92	46153.02
578.08	46962.85
578.24	47166.48
578.40	47044.77
578.56	46890.29
578.72	46979.23
578.88	47828.85
579.04	47262.44
579.21	47302.23
579.37	47070.51
579.53	47339.68
579.69	47129.03
579.85	46965.19
580.01	46766.24
580.17	47054.13
580.33	47138.39
580.49	47365.42
580.65	47473.09
580.82	47093.92
580.98	46878.59
581.14	47026.04
581.30	47051.79
581.46	46773.27
581.62	46916.04
581.78	47030.72
581.94	47129.03
582.10	47278.82
582.26	47264.78
582.42	47445.00
582.58	47182.86
582.74	47004.98
582.90	47262.44
583.06	47157.11
583.22	47250.74
583.38	47192.22
583.54	47447.34
583.70	47655.65
583.86	47353.72
584.02	47400.53
584.18	47407.55
584.34	47342.02
584.50	47697.78
584.66	47501.17
584.82	47454.36
584.98	47117.32
585.14	47679.05
585.30	47220.31
585.46	47203.92
585.62	47058.81
585.78	47012.00
585.94	47000.30
586.10	47262.44
586.26	46880.93
586.42	47512.88
586.58	46986.25
586.74	47402.87
586.90	47185.20
587.06	47103.28
587.22	47456.70
587.38	47182.86
587.54	47545.64
587.70	47648.63
587.86	47224.99
588.02	47262.44
588.18	47325.63
588.34	47374.78
588.49	47838.21
588.65	46972.21
588.81	47400.53
588.97	47435.64
589.13	47161.79
589.29	47253.08
589.45	47629.90
589.61	47988.00
589.77	47810.12
589.93	47302.23
590.08	47739.91
