SpectraSuite Data File
++++++++++++++++++++++++++++++++++++
Date: Fri Oct 25 11:25:59 EDT 2013
User: price-jones
Dark Spectrum Present: No
Reference Spectrum Present: No
Number of Sampled Component Spectra: 1
Spectrometers: USB2+H05261
Integration Time (usec): 100000 (USB2+H05261)
Spectra Averaged: 1 (USB2+H05261)
Boxcar Smoothing: 0 (USB2+H05261)
Correct for Electrical Dark: No (USB2+H05261)
Strobe/Lamp Enabled: No (USB2+H05261)
Correct for Detector Non-linearity: No (USB2+H05261)
Correct for Stray Light: No (USB2+H05261)
Number of Pixels in Processed Spectrum: 2048
>>>>>Begin Processed Spectral Data<<<<<
365.73	187.24
365.92	187.24
366.12	187.24
366.32	152.13
366.52	100.64
366.72	163.84
366.91	121.71
367.11	107.66
367.31	91.28
367.51	168.52
367.70	81.92
367.90	119.37
368.10	107.66
368.30	119.37
368.49	105.32
368.69	175.54
368.89	42.13
369.09	135.75
369.28	184.90
369.48	205.97
369.68	156.82
369.87	262.14
370.07	194.26
370.27	231.71
370.47	395.55
370.66	641.31
370.86	643.65
371.06	683.44
371.25	671.73
371.45	753.65
371.65	699.82
371.84	732.59
372.04	748.97
372.24	699.82
372.44	746.63
372.63	781.74
372.83	772.38
373.03	755.99
373.22	779.40
373.42	760.67
373.62	744.29
373.81	770.04
374.01	819.19
374.21	854.30
374.40	889.40
374.60	947.92
374.79	816.85
374.99	807.48
375.19	819.19
375.38	844.93
375.58	849.61
375.78	802.80
375.97	877.70
376.17	943.24
376.37	819.19
376.56	936.21
376.76	870.68
376.95	880.04
377.15	854.30
377.35	940.90
377.54	910.47
377.74	866.00
377.93	919.83
378.13	840.25
378.33	931.53
378.52	971.32
378.72	917.49
378.91	943.24
379.11	894.08
379.31	983.02
379.50	945.58
379.70	1025.15
379.89	978.34
380.09	901.11
380.28	992.39
380.48	985.37
380.68	999.41
380.87	1022.81
381.07	1034.52
381.26	1076.65
381.46	1067.28
381.65	1090.69
381.85	1032.18
382.04	1074.31
382.24	1102.39
382.43	1107.07
382.63	1034.52
382.83	1032.18
383.02	1130.48
383.22	1156.22
383.41	1121.12
383.61	1104.73
383.80	1172.61
384.00	1163.25
384.19	1149.20
384.39	1188.99
384.58	1163.25
384.78	1083.67
384.97	1128.14
385.17	1100.05
385.36	1184.31
385.56	1198.35
385.75	1109.41
385.95	1132.82
386.14	1198.35
386.34	1275.59
386.53	1181.97
386.72	1163.25
386.92	1167.93
387.11	1289.64
387.31	1270.91
387.50	1200.69
387.70	1303.68
387.89	1263.89
388.09	1275.59
388.28	1266.23
388.48	1259.21
388.67	1313.04
388.86	1301.34
389.06	1275.59
389.25	1423.05
389.45	1397.30
389.64	1310.70
389.84	1383.26
390.03	1296.66
390.22	1369.21
390.42	1399.64
390.61	1373.89
390.81	1366.87
391.00	1385.60
391.19	1430.07
391.39	1432.41
391.58	1523.69
391.78	1460.49
391.97	1507.30
392.16	1427.73
392.36	1514.33
392.55	1586.88
392.75	1490.92
392.94	1469.86
393.13	1481.56
393.33	1563.48
393.52	1540.07
393.71	1596.25
393.91	1593.90
394.10	1544.75
394.29	1664.12
394.49	1572.84
394.68	1610.29
394.88	1626.67
395.07	1717.95
395.26	1643.06
395.46	1563.48
395.65	1689.87
395.84	1689.87
396.04	1795.19
396.23	1762.42
396.42	1790.51
396.62	1874.77
396.81	1750.72
397.00	1715.61
397.19	1701.57
397.39	1790.51
397.58	1851.36
397.77	1774.13
397.97	1872.43
398.16	1781.15
398.35	1921.58
398.55	1851.36
398.74	1912.22
398.93	1963.71
399.12	1898.17
399.32	1891.15
399.51	1973.07
399.70	1984.77
399.90	1959.03
400.09	1856.04
400.28	2031.58
400.47	2083.08
400.67	2186.06
400.86	1994.14
401.05	2078.40
401.24	2040.95
401.44	2066.69
401.63	2134.57
401.82	2066.69
402.01	2127.55
402.21	2108.82
402.40	2246.91
402.59	2195.42
402.78	2235.21
402.97	2258.62
403.17	2263.30
403.36	2174.36
403.55	2420.11
403.74	2342.88
403.93	2394.37
404.13	2429.48
404.32	2324.15
404.51	2420.11
404.70	2462.24
404.89	2317.13
405.09	2452.88
405.28	2441.18
405.47	2422.45
405.66	2511.39
405.85	2572.25
406.05	2523.10
406.24	2445.86
406.43	2525.44
406.62	2506.71
406.81	2731.41
407.00	2600.34
407.20	2654.17
407.39	2729.06
407.58	2668.21
407.77	2745.45
407.96	2693.96
408.15	2843.75
408.34	2654.17
408.54	2668.21
408.73	2773.53
408.92	2862.48
409.11	2810.98
409.30	2855.45
409.49	2988.86
409.68	2925.67
409.87	2860.13
410.07	3026.31
410.26	2857.79
410.45	2925.67
410.64	3087.17
410.83	3075.46
411.02	3033.33
411.21	3087.17
411.40	3096.53
411.59	3274.41
411.78	3138.66
411.98	3150.36
412.17	3206.53
412.36	3288.45
412.55	3356.33
412.74	3466.33
412.93	3468.67
413.12	3290.79
413.31	3590.38
413.50	3428.88
413.69	3559.95
413.88	3487.40
414.07	3613.79
414.26	3524.85
414.45	3794.01
414.64	3772.94
414.83	3590.38
415.02	3794.01
415.22	3810.39
415.41	3749.54
415.60	3836.14
415.79	3906.35
415.98	3962.53
416.17	3971.89
416.36	3838.48
416.55	3964.87
416.74	4016.36
416.93	4095.94
417.12	4191.90
417.31	4065.51
417.50	4264.46
417.69	4470.42
417.88	4280.84
418.07	4063.17
418.26	4231.69
418.45	4301.90
418.64	4552.34
418.83	4435.32
419.02	4435.32
419.21	4400.21
419.39	4444.68
419.58	4414.25
419.77	4486.81
419.96	4493.83
420.15	4500.85
420.34	4484.47
420.53	4542.98
420.72	4578.09
420.91	4716.18
421.10	4781.71
421.29	4699.80
421.48	4671.71
421.67	4727.88
421.86	4692.77
422.05	4964.28
422.24	4716.18
422.43	4924.49
422.61	4758.31
422.80	4903.42
422.99	4926.83
423.18	4978.32
423.37	4994.70
423.56	4971.30
423.75	4842.57
423.94	4926.83
424.13	4580.43
424.32	4648.30
424.50	4990.02
424.69	5158.54
424.88	4994.70
425.07	4983.00
425.26	4999.38
425.45	4940.87
425.64	4910.44
425.83	4933.85
426.01	5041.51
426.20	5057.90
426.39	5069.60
426.58	4959.60
426.77	4908.10
426.96	5048.54
427.15	5153.86
427.33	5186.63
427.52	5247.48
427.71	5362.17
427.90	5263.86
428.09	5418.34
428.28	5359.83
428.46	5497.92
428.65	5268.55
428.84	5462.81
429.03	5540.05
429.22	5259.18
429.40	5430.04
429.59	5542.39
429.78	5247.48
429.97	5266.21
430.16	5514.30
430.34	5664.10
430.53	5832.62
430.72	5738.99
430.91	5535.37
431.10	5605.58
431.28	5792.83
431.47	5731.97
431.66	5647.71
431.85	5645.37
432.03	6017.52
432.22	5949.64
432.41	5947.30
432.60	5870.06
432.79	5914.53
432.97	6036.24
433.16	5994.11
433.35	6090.07
433.54	6066.67
433.72	6122.84
433.91	5954.32
434.10	6186.04
434.28	6214.12
434.47	6150.93
434.66	6179.01
434.85	6235.19
435.03	6249.23
435.22	6258.59
435.41	6347.53
435.59	6317.11
435.78	6389.66
435.97	6509.03
436.16	6370.94
436.34	6459.88
436.53	6349.87
436.72	6722.02
436.90	6389.66
437.09	6663.51
437.28	6445.84
437.46	6567.54
437.65	6621.38
437.84	6686.91
438.02	6817.98
438.21	6796.92
438.40	6565.20
438.58	6806.28
438.77	7070.76
438.96	6822.66
439.14	6998.20
439.33	7105.87
439.52	7162.04
439.70	7236.94
439.89	7433.54
440.08	7300.13
440.26	7452.27
440.45	7321.20
440.63	7616.10
440.82	7669.94
441.01	7339.92
441.19	7541.21
441.38	7543.55
441.57	7630.15
441.75	7803.35
441.94	7978.89
442.12	8039.74
442.31	8121.66
442.50	8084.21
442.68	8056.12
442.87	7988.25
443.05	8077.19
443.24	8079.53
443.43	8163.79
443.61	8138.04
443.80	8290.18
443.98	7985.91
444.17	7868.88
444.35	8147.40
444.54	8381.46
444.73	8234.00
444.91	8196.56
445.10	8461.04
445.28	8271.45
445.47	8264.43
445.65	8407.20
445.84	8315.92
446.02	8346.35
446.21	8571.04
446.39	8329.97
446.58	8318.26
446.77	8409.54
446.95	8376.78
447.14	8379.12
447.32	8566.36
447.51	8475.08
447.69	8465.72
447.88	8479.76
448.06	8439.97
448.25	8561.68
448.43	8610.83
448.62	8423.59
448.80	8601.47
448.99	8594.45
449.17	8786.37
449.36	8739.56
449.54	8758.28
449.73	8954.89
449.91	8887.01
450.10	8847.22
450.28	8943.19
450.46	9053.19
450.65	8982.98
450.83	9060.21
451.02	9235.75
451.20	8973.61
451.39	9116.39
451.57	9006.38
451.76	8926.80
451.94	9207.67
452.13	9493.21
452.31	9149.15
452.49	9167.88
452.68	9315.33
452.86	9315.33
453.05	9453.42
453.23	9514.28
453.42	9320.01
453.60	9343.42
453.78	9401.93
453.97	9406.61
454.15	9439.38
454.34	9394.91
454.52	9535.34
454.70	9612.58
454.89	9607.90
455.07	9617.26
455.26	9640.67
455.44	10073.67
455.62	10010.47
455.81	9963.66
455.99	9961.32
456.17	9928.55
456.36	9811.53
456.54	10326.44
456.73	10274.95
456.91	10459.85
457.09	10560.50
457.28	10389.64
457.46	10209.42
457.64	10382.62
457.83	10361.55
458.01	10499.64
458.19	10663.48
458.38	10635.39
458.56	10642.42
458.74	10544.11
458.93	10771.15
459.11	10771.15
459.29	10888.17
459.48	10778.17
459.66	10806.25
459.84	10747.74
460.03	10965.41
460.21	10920.94
460.39	10684.55
460.57	11140.95
460.76	10918.60
460.94	11166.70
461.12	11171.38
461.31	11035.63
461.49	11117.54
461.67	11030.94
461.85	11482.67
462.04	11342.24
462.22	11733.11
462.40	11634.80
462.59	11578.63
462.77	11768.21
462.95	11676.93
463.13	11559.91
463.32	11580.97
463.50	11599.70
463.68	11782.26
463.86	11854.81
464.05	11573.95
464.23	11723.74
464.41	11889.92
464.59	11768.21
464.78	11976.52
464.96	11901.62
465.14	11941.41
465.32	11953.12
465.50	12198.87
465.69	12112.27
465.87	12311.22
466.05	12154.40
466.23	12123.98
466.41	12161.42
466.60	12587.40
466.78	11992.90
466.96	12145.04
467.14	12278.45
467.32	12348.67
467.51	12465.69
467.69	12037.38
467.87	12376.75
468.05	12732.51
468.23	12301.86
468.41	12468.03
468.60	12491.44
468.78	12674.00
468.96	12498.46
469.14	12812.09
469.32	12966.57
469.50	12599.10
469.69	12945.50
469.87	12966.57
470.05	13188.92
470.23	13305.95
470.41	12863.58
470.59	13198.28
470.77	13088.28
470.95	13205.30
471.14	13586.81
471.32	13090.62
471.50	13476.80
471.68	13659.37
471.86	13486.17
472.04	13802.14
472.22	14134.50
472.40	13792.78
472.58	13865.33
472.77	13937.89
472.95	14054.92
473.13	14621.33
473.31	14090.02
473.49	14141.52
473.67	14160.24
473.85	14406.00
474.03	14511.32
474.21	14513.66
474.39	14661.12
474.57	14506.64
474.75	14909.21
474.93	14934.96
475.12	14773.46
475.30	14850.70
475.48	15005.17
475.66	15073.05
475.84	15447.54
476.02	15531.80
476.20	15234.55
476.38	15676.91
476.56	15985.86
476.74	15800.96
476.92	15850.11
477.10	15822.02
477.28	16030.33
477.46	15988.20
477.64	16332.26
477.82	16552.27
478.00	16791.00
478.18	17006.33
478.36	16830.79
478.54	17205.28
478.72	17188.89
478.90	17303.58
479.08	17401.88
479.26	17785.73
479.44	17465.08
479.62	17659.34
479.80	17776.37
479.98	17965.95
480.16	18567.47
480.34	18197.67
480.52	18735.99
480.70	18874.08
480.88	18537.04
481.06	18845.99
481.24	18916.21
481.41	19061.32
481.59	19201.76
481.77	19531.77
481.95	19686.25
482.13	20105.20
482.31	19721.35
482.49	20067.75
482.67	20247.97
482.85	20147.33
483.03	20489.05
483.21	20723.10
483.39	21050.78
483.57	20676.29
483.74	20908.01
483.92	21256.75
484.10	21064.82
484.28	21607.83
484.46	21495.48
484.64	22434.03
484.82	21926.14
485.00	22272.54
485.18	22705.54
485.35	22752.35
485.53	22684.47
485.71	22963.00
485.89	23304.71
486.07	23213.43
486.25	23321.10
486.43	23665.16
486.61	23798.57
486.78	23737.71
486.96	23922.62
487.14	24217.52
487.32	24510.09
487.50	24559.24
487.68	24863.51
487.85	25001.60
488.03	25425.24
488.21	25645.25
488.39	25893.35
488.57	25991.65
488.75	26064.21
488.92	26235.06
489.10	26745.30
489.28	26380.18
489.46	26857.65
489.64	26796.79
489.81	27292.99
489.99	27601.94
490.17	27810.25
490.35	27960.04
490.53	28119.20
490.70	28381.34
490.88	28287.71
491.06	28615.39
491.24	28608.37
491.41	29226.27
491.59	29118.60
491.77	29111.58
491.95	29490.75
492.13	29799.70
492.30	29937.79
492.48	30010.35
492.66	30146.10
492.84	30291.21
493.01	30527.61
493.19	30562.72
493.37	30742.94
493.54	30960.61
493.72	31606.59
493.90	31218.07
494.08	31735.32
494.25	31655.75
494.43	32009.17
494.61	32121.51
494.79	32268.97
494.96	32446.85
495.14	32456.21
495.32	33097.52
495.49	33589.03
495.67	33240.29
495.85	33652.22
496.02	33802.02
496.20	33652.22
496.38	33619.46
496.55	34366.09
496.73	34665.67
496.91	34611.84
497.09	34518.22
497.26	35079.95
497.44	34646.95
497.62	35241.45
497.79	35594.87
497.97	35278.89
498.14	35854.67
498.32	36168.30
498.50	36210.43
498.67	36627.04
498.85	36236.17
499.03	36725.35
499.20	36697.26
499.38	36891.52
499.56	36779.18
499.73	37195.79
499.91	37228.56
500.08	37813.70
500.26	37422.83
500.44	37549.21
500.61	37684.97
500.79	37394.74
500.97	37780.93
501.14	38602.46
501.32	38249.03
501.49	38270.10
501.67	38342.66
501.84	38913.75
502.02	39108.01
502.20	39189.93
502.37	38890.34
502.55	39187.59
502.72	39077.58
502.90	39477.82
503.07	39342.06
503.25	39777.40
503.43	39100.99
503.60	39915.50
503.78	39936.56
503.95	40039.54
504.13	40561.48
504.30	40446.80
504.48	40800.22
504.65	40271.26
504.83	41085.76
505.01	41001.50
505.18	40914.90
505.36	41144.28
505.53	41038.95
505.71	41387.69
505.88	41993.89
506.06	41364.29
506.23	41429.82
506.41	41638.13
506.58	41846.44
506.76	42326.25
506.93	42487.74
507.11	42356.67
507.28	42555.62
507.46	43042.45
507.63	42684.35
507.81	43461.41
507.98	42703.07
508.16	42965.21
508.33	43304.59
508.50	43381.83
508.68	43489.49
508.85	43927.17
509.03	43655.67
509.20	43929.51
509.38	44109.74
509.55	44254.85
509.73	44509.97
509.90	44659.76
510.08	44226.76
510.25	44643.38
510.42	44685.51
510.60	45069.36
510.77	45191.06
510.95	45172.34
511.12	45059.99
511.30	45092.76
511.47	45441.50
511.64	45652.15
511.82	45661.51
511.99	45621.72
512.17	45694.28
512.34	46131.96
512.51	46028.98
512.69	46415.16
512.86	46424.53
513.04	46314.52
513.21	46103.87
513.38	46263.03
513.56	46770.93
513.73	46445.59
513.90	46967.53
514.08	46890.29
514.25	46892.63
514.43	47222.65
514.60	47241.37
514.77	47437.98
514.95	47849.91
515.12	47508.19
515.29	47550.32
515.47	48252.48
515.64	47686.07
515.81	47700.12
515.99	47835.87
516.16	48484.20
516.33	48245.46
516.51	48409.30
516.68	48456.11
516.85	48542.71
517.03	48856.34
517.20	48577.82
517.37	48657.40
517.54	48556.75
517.72	48718.25
517.89	48978.05
518.06	49209.76
518.24	49233.17
518.41	48931.24
518.58	49298.70
518.75	49177.00
518.93	49776.17
519.10	49261.26
519.27	49670.85
519.45	49766.81
519.62	49757.45
519.79	49815.96
519.96	50197.47
520.14	50197.47
520.31	49949.37
520.48	50113.21
520.65	50113.21
520.83	50639.83
521.00	50195.13
521.17	50323.86
521.34	50646.85
521.52	50728.77
521.69	50724.09
521.86	50756.86
522.03	50857.50
522.20	51370.08
522.38	51386.46
522.55	51384.12
522.72	51257.73
522.89	50845.80
523.07	51573.70
523.24	51566.68
523.41	51480.08
523.58	51735.20
523.75	51875.63
523.92	51540.94
524.10	51767.97
524.27	51791.37
524.44	52154.16
524.61	52156.50
524.78	51990.32
524.96	51814.78
525.13	52285.23
525.30	52341.40
525.47	52348.42
525.64	52222.03
525.81	52310.97
525.98	52774.40
526.16	52432.68
526.33	52765.04
526.50	52868.02
526.67	52640.99
526.84	52961.64
527.01	52671.42
527.18	52851.64
527.36	52793.12
527.53	52830.57
527.70	53322.08
527.87	53394.64
528.04	53387.62
528.21	53324.43
528.38	53614.65
528.55	53574.86
528.72	53202.72
528.89	53221.44
529.07	53263.57
529.24	53432.09
529.41	53666.14
529.58	53485.92
529.75	53373.58
529.92	53652.10
530.09	53790.19
530.26	54005.52
530.43	53954.03
530.60	53769.13
530.77	53902.54
530.94	54136.59
531.11	53986.80
531.28	53797.21
531.46	54019.56
531.63	54089.78
531.80	54197.44
531.97	54478.31
532.14	54190.42
532.31	54188.08
532.48	54344.90
532.65	54520.44
532.82	54347.24
532.99	54667.89
533.16	54431.50
533.33	54740.45
533.50	54897.27
533.67	54852.80
533.84	54511.08
534.01	54672.57
534.18	54784.92
534.35	55292.82
534.52	54925.35
534.69	55082.17
534.86	55105.57
535.03	54944.08
535.20	55339.63
535.37	55430.91
535.54	55297.50
535.71	55208.56
535.88	55585.38
536.05	55578.36
536.22	55367.71
536.38	55477.72
536.55	55529.21
536.72	55545.59
536.89	55470.70
537.06	55353.67
537.23	55789.01
537.40	55519.85
537.57	55688.37
537.74	55625.17
537.91	55913.06
538.08	55707.09
538.25	55622.83
538.42	55760.92
538.59	56147.11
538.75	55793.69
538.92	55948.17
539.09	56219.67
539.26	56182.22
539.43	56191.58
539.60	56006.68
539.77	56020.72
539.94	56500.53
540.11	56266.48
540.28	56303.93
540.44	56245.41
540.61	56205.62
540.78	56198.60
540.95	56184.56
541.12	56339.04
541.29	56332.01
541.46	56418.61
541.62	56594.15
541.79	56512.23
541.96	56535.64
542.13	56582.45
542.30	56650.33
542.47	56589.47
542.63	56844.59
542.80	57064.60
542.97	57078.64
543.14	57006.09
543.31	57064.60
543.48	57212.06
543.64	57329.08
543.81	57401.64
543.98	57186.31
544.15	57038.86
544.32	57396.96
544.48	57331.42
544.65	57116.09
544.82	57347.81
544.99	57434.41
545.16	57457.81
545.32	57251.84
545.49	57666.12
545.66	57579.52
545.83	57752.72
546.00	57694.21
546.16	57633.35
546.33	57434.41
546.50	57200.35
546.67	57609.95
546.83	57345.47
547.00	57682.50
547.17	57441.43
547.34	57902.51
547.50	57951.66
547.67	57909.53
547.84	57785.49
548.00	58017.20
548.17	58197.42
548.34	58138.91
548.51	57972.73
548.67	58171.67
548.84	58162.31
549.01	58082.73
549.18	57937.62
549.34	58089.76
549.51	58188.06
549.68	58394.03
549.84	58281.68
550.01	58202.10
550.18	58092.10
550.34	58468.92
550.51	58468.92
550.68	58426.79
550.84	58281.68
551.01	58532.12
551.18	58391.68
551.34	58436.16
551.51	58625.74
551.68	58480.63
551.84	58368.28
552.01	58454.88
552.18	58621.06
552.34	58501.69
552.51	58763.83
552.68	58298.06
552.84	58635.10
553.01	58913.62
553.18	58602.33
553.34	58777.87
553.51	58686.59
553.67	58691.27
553.84	58827.02
554.01	58815.32
554.17	58983.84
554.34	58876.18
554.51	59171.08
554.67	59030.65
554.84	59016.61
555.00	58817.66
555.17	59030.65
555.33	59004.91
555.50	58899.58
555.67	58962.78
555.83	58859.79
556.00	58908.94
556.16	59323.22
556.33	59037.67
556.50	59070.44
556.66	59386.41
556.83	59049.38
556.99	59337.26
557.16	59571.32
557.32	59346.62
557.49	59620.47
557.65	59166.40
557.82	59332.58
557.98	59227.26
558.15	59557.27
558.32	59360.67
558.48	59133.63
558.65	59161.72
558.81	59470.67
558.98	59348.96
559.14	59250.66
559.31	59625.15
559.47	59498.76
559.64	59587.70
559.80	59643.87
559.97	59606.42
560.13	59552.59
560.30	59428.54
560.46	59711.75
560.63	59723.45
560.79	59594.72
560.96	59702.38
561.12	59770.26
561.29	59807.71
561.45	59838.14
561.61	59833.46
561.78	59852.18
561.94	59714.09
562.11	59739.83
562.27	59854.52
562.44	59856.86
562.60	60041.76
562.77	59978.57
562.93	59765.58
563.10	60062.83
563.26	59868.56
563.42	59952.82
563.59	59999.63
563.75	60170.49
563.92	59924.74
564.08	59934.10
564.24	60041.76
564.41	59952.82
564.57	60032.40
564.74	60121.34
564.90	60147.09
565.07	60081.55
565.23	60100.28
565.39	60030.06
565.56	60224.32
565.72	60111.98
565.88	60271.14
566.05	59887.29
566.21	60184.54
566.38	60172.83
566.54	60243.05
566.70	60280.50
566.87	60271.14
567.03	60065.17
567.19	60327.31
567.36	60369.44
567.52	60327.31
567.68	60488.80
567.85	60420.93
568.01	60308.58
568.17	60238.37
568.34	60348.37
568.50	60221.98
568.66	60207.94
568.83	60214.96
568.99	60341.35
569.15	60397.52
569.32	60430.29
569.48	60324.97
569.64	60439.65
569.81	60308.58
569.97	60212.62
570.13	60331.99
570.30	60341.35
570.46	60238.37
570.62	60573.06
570.78	60392.84
570.95	60505.19
571.11	60594.13
571.27	60441.99
571.43	60580.09
571.60	60395.18
571.76	60484.12
571.92	60507.53
572.09	60465.40
572.25	60441.99
572.41	60339.01
572.57	60687.75
572.74	60830.52
572.90	60692.43
573.06	60552.00
573.22	60509.87
573.38	60559.02
573.55	60666.69
573.71	60561.36
573.87	60640.94
574.03	60584.77
574.20	60783.71
574.36	60587.11
574.52	60683.07
574.68	60633.92
574.84	60914.78
575.01	60580.09
575.17	60570.72
575.33	60596.47
575.49	60537.96
575.65	60615.19
575.82	60821.16
575.98	60905.42
576.14	60790.73
576.30	60685.41
576.46	60736.90
576.62	60608.17
576.79	60657.32
576.95	60568.38
577.11	60636.26
577.27	60722.86
577.43	61041.17
577.59	60580.09
577.75	60629.24
577.92	60530.93
578.08	60823.50
578.24	60825.84
578.40	60886.70
578.56	60910.10
578.72	60706.47
578.88	60884.36
579.04	60999.04
579.21	60692.43
579.37	60987.34
579.53	61029.47
579.69	60739.24
579.85	60596.47
580.01	60633.92
580.17	60903.08
580.33	60736.90
580.49	60832.86
580.65	60945.21
580.82	60774.35
580.98	60839.89
581.14	60748.60
581.30	60896.06
581.46	60959.25
581.62	60793.07
581.78	60893.72
581.94	60886.70
582.10	60856.27
582.26	60917.12
582.42	60676.05
582.58	60809.46
582.74	60809.46
582.90	60823.50
583.06	60837.54
583.22	60795.42
583.38	61022.45
583.54	60891.38
583.70	60809.46
583.86	60945.21
584.02	60935.85
584.18	61034.15
584.34	60839.89
584.50	60891.38
584.66	60896.06
584.82	60617.53
584.98	61055.21
585.14	60935.85
585.30	60870.31
585.46	60896.06
585.62	61048.19
585.78	60959.25
585.94	60720.52
586.10	60992.02
586.26	61038.83
586.42	61097.34
586.58	61109.05
586.74	60961.59
586.90	60839.89
587.06	60963.93
587.22	61071.60
587.38	60828.18
587.54	61305.65
587.70	61176.92
587.86	61146.50
588.02	61045.85
588.18	61319.70
588.34	60856.27
588.49	60926.49
