SpectraSuite Data File
++++++++++++++++++++++++++++++++++++
Date: Fri Oct 25 11:22:48 EDT 2013
User: price-jones
Dark Spectrum Present: No
Reference Spectrum Present: No
Number of Sampled Component Spectra: 1
Spectrometers: USB2+H05261
Integration Time (usec): 100000 (USB2+H05261)
Spectra Averaged: 1 (USB2+H05261)
Boxcar Smoothing: 0 (USB2+H05261)
Correct for Electrical Dark: No (USB2+H05261)
Strobe/Lamp Enabled: No (USB2+H05261)
Correct for Detector Non-linearity: No (USB2+H05261)
Correct for Stray Light: No (USB2+H05261)
Number of Pixels in Processed Spectrum: 2048
>>>>>Begin Processed Spectral Data<<<<<
365.73	212.99
365.92	212.99
366.12	212.99
366.32	112.35
366.52	133.41
366.72	114.69
366.91	138.09
367.11	124.05
367.31	51.49
367.51	131.07
367.70	93.62
367.90	196.60
368.10	102.98
368.30	53.83
368.49	142.77
368.69	175.54
368.89	208.31
369.09	126.39
369.28	161.50
369.48	70.22
369.68	161.50
369.87	189.58
370.07	140.43
370.27	208.31
370.47	334.70
370.66	662.37
370.86	615.56
371.06	624.92
371.25	681.10
371.45	599.18
371.65	690.46
371.84	716.20
372.04	624.92
372.24	695.14
372.44	753.65
372.63	702.16
372.83	720.88
373.03	706.84
373.22	734.93
373.42	840.25
373.62	821.53
373.81	767.70
374.01	828.55
374.21	744.29
374.40	826.21
374.60	828.55
374.79	755.99
374.99	851.96
375.19	837.91
375.38	819.19
375.58	830.89
375.78	798.12
375.97	863.66
376.17	873.02
376.37	901.11
376.56	884.72
376.76	863.66
376.95	898.77
377.15	936.21
377.35	908.13
377.54	945.58
377.74	931.53
377.93	875.36
378.13	889.40
378.33	973.66
378.52	952.60
378.72	997.07
378.91	943.24
379.11	887.06
379.31	983.02
379.50	959.62
379.70	894.08
379.89	1034.52
380.09	929.19
380.28	940.90
380.48	980.68
380.68	973.66
380.87	1011.11
381.07	961.96
381.26	954.94
381.46	1032.18
381.65	985.37
381.85	999.41
382.04	1076.65
382.24	1090.69
382.43	1057.92
382.63	1006.43
382.83	1027.50
383.02	1156.22
383.22	1158.57
383.41	1109.41
383.61	1102.39
383.80	1196.01
384.00	1078.99
384.19	1165.59
384.39	1172.61
384.58	1086.01
384.78	1233.46
384.97	1078.99
385.17	1130.48
385.36	1109.41
385.56	1179.63
385.75	1146.86
385.95	1165.59
386.14	1186.65
386.34	1109.41
386.53	1228.78
386.72	1144.52
386.92	1247.51
387.11	1130.48
387.31	1282.61
387.50	1256.87
387.70	1231.12
387.89	1263.89
388.09	1301.34
388.28	1287.29
388.48	1254.53
388.67	1310.70
388.86	1357.51
389.06	1371.55
389.25	1399.64
389.45	1301.34
389.64	1401.98
389.84	1387.94
390.03	1348.15
390.22	1493.26
390.42	1385.60
390.61	1371.55
390.81	1394.96
391.00	1387.94
391.19	1416.02
391.39	1394.96
391.58	1406.66
391.78	1511.99
391.97	1542.41
392.16	1437.09
392.36	1540.07
392.55	1521.35
392.75	1439.43
392.94	1502.62
393.13	1561.14
393.33	1490.92
393.52	1577.52
393.71	1638.38
393.91	1626.67
394.10	1563.48
394.29	1528.37
394.49	1533.05
394.68	1589.22
394.88	1671.14
395.07	1636.03
395.26	1680.50
395.46	1647.74
395.65	1720.29
395.84	1678.16
396.04	1865.41
396.23	1781.15
396.42	1708.59
396.62	1820.94
396.81	1799.87
397.00	1678.16
397.19	1755.40
397.39	1743.70
397.58	1816.26
397.77	1720.29
397.97	1739.02
398.16	1863.07
398.35	1849.02
398.55	1818.60
398.74	1944.99
398.93	1954.35
399.12	1926.26
399.32	1966.05
399.51	1963.71
399.70	2066.69
399.90	1984.77
400.09	2076.06
400.28	1933.28
400.47	2026.90
400.67	2076.06
400.86	2097.12
401.05	2101.80
401.24	2169.68
401.44	2155.63
401.63	2127.55
401.82	2069.03
402.01	2101.80
402.21	2193.08
402.40	2197.76
402.59	2186.06
402.78	2181.38
402.97	2239.89
403.17	2235.21
403.36	2298.41
403.55	2197.76
403.74	2312.45
403.93	2485.65
404.13	2478.63
404.32	2317.13
404.51	2417.77
404.70	2434.16
404.89	2436.50
405.09	2553.52
405.28	2516.08
405.47	2410.75
405.66	2495.01
405.85	2607.36
406.05	2541.82
406.24	2438.84
406.43	2628.42
406.62	2609.70
406.81	2682.25
407.00	2658.85
407.20	2649.49
407.39	2722.04
407.58	2642.46
407.77	2715.02
407.96	2738.43
408.15	2703.32
408.34	2759.49
408.54	2754.81
408.73	2796.94
408.92	2832.05
409.11	2705.66
409.30	2902.26
409.49	2949.08
409.68	2958.44
409.87	2916.31
410.07	3119.93
410.26	2920.99
410.45	2937.37
410.64	3068.44
410.83	3021.63
411.02	3098.87
411.21	3073.12
411.40	2972.48
411.59	3281.43
411.78	3180.79
411.98	3112.91
412.17	3272.07
412.36	3197.17
412.55	3382.07
412.74	3316.54
412.93	3517.83
413.12	3337.60
413.31	3473.36
413.50	3400.80
413.69	3623.15
413.88	3471.01
414.07	3550.59
414.26	3714.43
414.45	3665.28
414.64	3763.58
414.83	3719.11
415.02	3829.12
415.22	3742.52
415.41	3960.19
415.60	3913.38
415.79	3852.52
415.98	4002.32
416.17	3939.12
416.36	4018.70
416.55	4079.55
416.74	4152.11
416.93	4088.92
417.12	4114.66
417.31	4205.94
417.50	4264.46
417.69	4301.90
417.88	4243.39
418.07	4294.88
418.26	4311.27
418.45	4339.35
418.64	4479.79
418.83	4449.36
419.02	4400.21
419.21	4409.57
419.39	4575.75
419.58	4496.17
419.77	4447.02
419.96	4456.38
420.15	4599.15
420.34	4491.49
420.53	4566.39
420.72	4809.80
420.91	4730.22
421.10	4844.91
421.29	4910.44
421.48	4706.82
421.67	4741.93
421.86	4744.27
422.05	4894.06
422.24	4723.20
422.43	4884.70
422.61	4840.23
422.80	4954.91
422.99	4940.87
423.18	5018.11
423.37	5114.07
423.56	4983.00
423.75	4781.71
423.94	4851.93
424.13	4510.21
424.32	4533.62
424.50	5046.20
424.69	5067.26
424.88	5132.79
425.07	4901.08
425.26	5008.75
425.45	4858.95
425.64	5100.03
425.83	5046.20
426.01	5057.90
426.20	5177.26
426.39	5111.73
426.58	4997.04
426.77	4994.70
426.96	5022.79
427.15	4964.28
427.33	5034.49
427.52	5186.63
427.71	5357.49
427.90	5296.63
428.09	5242.80
428.28	5357.49
428.46	5408.98
428.65	5186.63
428.84	5638.35
429.03	5476.85
429.22	5420.68
429.40	5507.28
429.59	5568.13
429.78	5118.75
429.97	5399.62
430.16	5542.39
430.34	5572.82
430.53	5664.10
430.72	5816.23
430.91	5638.35
431.10	5750.70
431.28	5774.10
431.47	5757.72
431.66	5764.74
431.85	5813.89
432.03	5942.62
432.22	6050.28
432.41	5905.17
432.60	5905.17
432.79	5944.96
432.97	6118.16
433.16	5970.71
433.35	5954.32
433.54	6193.06
433.72	6134.54
433.91	6066.67
434.10	6118.16
434.28	6153.27
434.47	6256.25
434.66	6176.67
434.85	6335.83
435.03	6296.04
435.22	6415.41
435.41	6616.69
435.59	6384.98
435.78	6480.94
435.97	6544.14
436.16	6319.45
436.34	6509.03
436.53	6548.82
436.72	6768.83
436.90	6497.33
437.09	6661.16
437.28	6670.53
437.46	6567.54
437.65	6789.89
437.84	6707.98
438.02	6904.58
438.21	6782.87
438.40	6789.89
438.58	7028.63
438.77	6984.16
438.96	6984.16
439.14	7080.12
439.33	7243.96
439.52	7314.17
439.70	7281.41
439.89	7384.39
440.08	7297.79
440.26	7353.96
440.45	7487.37
440.63	7517.80
440.82	7730.79
441.01	7569.29
441.19	7665.25
441.38	7798.66
441.57	7866.54
441.75	7815.05
441.94	8091.23
442.12	7971.86
442.31	7918.03
442.50	8093.57
442.68	8025.70
442.87	7927.39
443.05	7836.11
443.24	8126.34
443.43	8079.53
443.61	8025.70
443.80	8425.93
443.98	8250.39
444.17	7850.16
444.35	8205.92
444.54	8355.71
444.73	8287.84
444.91	8325.29
445.10	8264.43
445.28	8444.65
445.47	8376.78
445.65	8461.04
445.84	8306.56
446.02	8540.61
446.21	8437.63
446.39	8568.70
446.58	8463.38
446.77	8645.94
446.95	8524.23
447.14	8549.98
447.32	8819.14
447.51	8444.65
447.69	8428.27
447.88	8414.23
448.06	8552.32
448.25	8489.12
448.43	8711.47
448.62	8692.75
448.80	8624.87
448.99	8681.05
449.17	8835.52
449.36	8592.11
449.54	8655.30
449.73	8910.42
449.91	9090.64
450.10	8985.32
450.28	8954.89
450.46	9018.08
450.65	9018.08
450.83	9214.69
451.02	9121.07
451.20	9240.44
451.39	9296.61
451.57	9022.77
451.76	9163.20
451.94	9350.44
452.13	9315.33
452.31	9254.48
452.49	9224.05
452.68	9165.54
452.86	9390.23
453.05	9511.94
453.23	9453.42
453.42	9294.27
453.60	9158.52
453.78	9397.25
453.97	9434.70
454.15	9465.13
454.34	9423.00
454.52	9844.29
454.70	9591.52
454.89	9811.53
455.07	9970.68
455.26	9891.10
455.44	9940.26
455.62	9811.53
455.81	10061.96
455.99	9991.75
456.17	10087.71
456.36	10061.96
456.54	10174.31
456.73	10169.63
456.91	10583.90
457.09	10462.19
457.28	10422.41
457.46	10497.30
457.64	10525.39
457.83	10593.26
458.01	10523.05
458.19	10974.77
458.38	10710.29
458.56	10567.52
458.74	10626.03
458.93	10752.42
459.11	10878.81
459.29	10827.32
459.48	10846.04
459.66	10813.28
459.84	11019.24
460.03	11250.96
460.21	10874.13
460.39	11047.33
460.57	11030.94
460.76	11005.20
460.94	11377.34
461.12	11508.41
461.31	11267.34
461.49	11211.17
461.67	11173.72
461.85	11389.05
462.04	11133.93
462.22	11838.43
462.40	11742.47
462.59	11618.42
462.77	11501.39
462.95	11676.93
463.13	11501.39
463.32	11716.72
463.50	11864.18
463.68	11796.30
463.86	11887.58
464.05	11751.83
464.23	11817.36
464.41	11990.56
464.59	11559.91
464.78	12262.07
464.96	12119.29
465.14	11946.09
465.32	12170.79
465.50	12255.04
465.69	12397.82
465.87	12168.45
466.05	12285.47
466.23	12336.96
466.41	12072.48
466.60	12542.93
466.78	12201.21
466.96	12362.71
467.14	12503.14
467.32	12348.67
467.51	12641.23
467.69	12145.04
467.87	12379.09
468.05	12690.38
468.23	12578.04
468.41	12540.59
468.60	12781.67
468.78	12718.47
468.96	12542.93
469.14	12943.16
469.32	13011.04
469.50	12547.61
469.69	12837.84
469.87	13107.00
470.05	13172.54
470.23	13263.82
470.41	13247.43
470.59	13266.16
470.77	13327.01
470.95	13493.19
471.14	13481.49
471.32	13294.24
471.50	13811.50
471.68	13603.19
471.86	13659.37
472.04	13579.79
472.22	14040.87
472.40	13834.91
472.58	13867.67
472.77	14155.56
472.95	14237.48
473.13	14567.49
473.31	14420.04
473.49	14253.86
473.67	14288.97
473.85	14408.34
474.03	14920.92
474.21	14420.04
474.39	14888.15
474.57	14876.44
474.75	14707.93
474.93	15161.99
475.12	15227.53
475.30	15133.90
475.48	15061.35
475.66	15382.00
475.84	15297.74
476.02	15503.71
476.20	15480.30
476.38	15833.72
476.56	16123.95
476.74	15910.96
476.92	16194.17
477.10	15683.93
477.28	16257.36
477.46	16318.22
477.64	16362.69
477.82	16683.34
478.00	17067.19
478.18	17036.76
478.36	17130.38
478.54	17507.21
478.72	17095.27
478.90	17280.18
479.08	17530.61
479.26	17603.17
479.44	17797.43
479.62	17837.22
479.80	18050.21
479.98	18291.29
480.16	18602.58
480.34	18204.69
480.52	19161.97
480.70	18726.63
480.88	18541.72
481.06	18733.65
481.24	18834.29
481.41	19255.59
481.59	19332.82
481.77	19646.46
481.95	19442.83
482.13	19634.75
482.31	19810.29
482.49	20051.37
482.67	20180.10
482.85	20526.50
483.03	20695.02
483.21	20774.60
483.39	21055.46
483.57	21139.72
483.74	21001.63
483.92	21509.52
484.10	21223.98
484.28	21841.88
484.46	22293.60
484.64	21921.46
484.82	21979.97
485.00	22522.98
485.18	23002.78
485.35	23133.86
485.53	22813.20
485.71	23126.83
485.89	23613.66
486.07	23388.97
486.25	23391.31
486.43	24023.26
486.61	23733.03
486.78	24126.24
486.96	24189.44
487.14	24758.19
487.32	24510.09
487.50	25010.96
487.68	25160.76
487.85	25406.52
488.03	25575.03
488.21	26087.61
488.39	26022.08
488.57	26183.57
488.75	26597.85
488.92	26375.50
489.10	26998.08
489.28	26663.38
489.46	27122.13
489.64	27206.39
489.81	27711.94
489.99	27627.68
490.17	27910.89
490.35	28016.21
490.53	28615.39
490.70	28786.25
490.88	28177.71
491.06	29106.90
491.24	29207.55
491.41	29333.93
491.59	29394.79
491.77	29600.76
491.95	29656.93
492.13	30089.93
492.30	30101.63
492.48	30263.13
492.66	30424.62
492.84	30522.93
493.01	30759.32
493.19	30600.16
493.37	30965.29
493.54	31257.85
493.72	31463.82
493.90	31370.20
494.08	31765.75
494.25	32222.16
494.43	31967.04
494.61	32381.31
494.79	32655.15
494.96	32460.89
495.14	32877.51
495.32	33390.08
495.49	33221.56
495.67	33216.88
495.85	33879.25
496.02	33624.14
496.20	34038.41
496.38	34330.98
496.55	34279.49
496.73	35250.81
496.91	34834.19
497.09	35185.27
497.26	35379.54
497.44	34815.47
497.62	35344.43
497.79	36074.68
497.97	35260.17
498.14	36355.54
498.32	36350.86
498.50	36554.49
498.67	36552.15
498.85	36664.49
499.03	36758.11
499.20	36786.20
499.38	36893.86
499.56	37340.91
499.73	37560.92
499.91	37631.13
500.08	38010.30
500.26	37483.68
500.44	37916.68
500.61	38078.18
500.79	37441.55
500.97	38354.36
501.14	38611.82
501.32	38754.59
501.49	38600.12
501.67	38939.49
501.84	39220.36
502.02	38824.81
502.20	39225.04
502.37	39618.25
502.55	39416.96
502.72	39550.37
502.90	39737.62
503.07	39594.84
503.25	39674.42
503.43	39641.65
503.60	40893.84
503.78	40189.34
503.95	40374.24
504.13	40425.73
504.30	41057.68
504.48	40568.51
504.65	40996.82
504.83	40755.75
505.01	41235.56
505.18	41326.84
505.36	41713.03
505.53	41460.25
505.71	42150.71
505.88	42305.18
506.06	41759.84
506.23	42389.44
506.41	41993.89
506.58	42323.91
506.76	42356.67
506.93	42291.14
507.11	42911.38
507.28	42813.08
507.46	43234.38
507.63	43147.78
507.81	43269.48
507.98	43044.79
508.16	43299.91
508.33	43739.93
508.50	43679.08
508.68	43962.28
508.85	44205.70
509.03	44065.27
509.20	44224.42
509.38	44704.23
509.55	44334.43
509.73	44643.38
509.90	44947.65
510.08	44479.54
510.25	44842.32
510.42	44868.07
510.60	45188.72
510.77	45289.37
510.95	45539.80
511.12	45036.59
511.30	45382.99
511.47	45535.12
511.64	45954.08
511.82	46218.56
511.99	46078.13
512.17	46146.00
512.34	46295.80
512.51	46337.93
512.69	46447.93
512.86	46387.08
513.04	46995.62
513.21	46836.46
513.38	46876.25
513.56	47330.31
513.73	47065.83
513.90	47122.01
514.08	46925.40
514.25	47267.12
514.43	47847.57
514.60	47723.52
514.77	47529.26
514.95	47526.92
515.12	47931.83
515.29	47749.27
515.47	47924.81
515.64	48088.65
515.81	48048.86
515.99	48460.79
516.16	48816.55
516.33	48605.91
516.51	48692.50
516.68	48650.38
516.85	48638.67
517.03	48865.70
517.20	49474.24
517.37	48996.77
517.54	49254.23
517.72	49401.69
517.89	49338.49
518.06	49359.56
518.24	49581.91
518.41	49137.21
518.58	49415.73
518.75	49256.57
518.93	49705.96
519.10	49591.27
519.27	49584.25
519.45	50117.89
519.62	50052.36
519.79	50401.10
519.96	50169.38
520.14	50300.45
520.31	50028.95
520.48	50656.21
520.65	50349.60
520.83	50845.80
521.00	50988.57
521.17	50887.93
521.34	50923.04
521.52	51072.83
521.69	51019.00
521.86	51330.29
522.03	51175.81
522.20	51222.62
522.38	51554.98
522.55	51344.33
522.72	51594.77
522.89	51491.79
523.07	51772.65
523.24	51681.37
523.41	52081.60
523.58	51672.01
523.75	52088.62
523.92	51824.14
524.10	52196.29
524.27	51875.63
524.44	52317.99
524.61	52236.08
524.78	52294.59
524.96	52367.15
525.13	52329.70
525.30	52903.13
525.47	52708.86
525.64	52582.48
525.81	52655.03
525.98	52762.70
526.16	52722.91
526.33	52514.60
526.50	53055.26
526.67	52884.40
526.84	53099.73
527.01	53127.82
527.18	52863.34
527.36	53265.91
527.53	53324.43
527.70	53642.74
527.87	53511.67
528.04	53251.87
528.21	53464.86
528.38	53425.07
528.55	53265.91
528.72	53546.78
528.89	53609.97
529.07	53553.80
529.24	53565.50
529.41	53542.10
529.58	53815.94
529.75	53734.02
529.92	54108.50
530.09	53874.45
530.26	54244.26
530.43	53970.41
530.60	54019.56
530.77	53977.43
530.94	54251.28
531.11	54017.22
531.28	54129.57
531.46	54260.64
531.63	54387.03
531.80	54475.97
531.97	54698.32
532.14	54791.94
532.31	54534.48
532.48	54679.60
532.65	54880.88
532.82	54499.37
532.99	54721.72
533.16	54703.00
533.33	54726.41
533.50	55047.06
533.67	54901.95
533.84	54883.22
534.01	54981.52
534.18	55058.76
534.35	55372.39
534.52	55110.25
534.69	55320.90
534.86	55236.64
535.03	55236.64
535.20	55107.91
535.37	55576.02
535.54	55496.44
535.71	55264.73
535.88	55454.31
536.05	55461.33
536.22	55688.37
536.38	55849.86
536.55	55786.67
536.72	55629.85
536.89	55512.83
537.06	55866.25
537.23	55627.51
537.40	55632.19
537.57	55505.80
537.74	55863.91
537.91	56051.15
538.08	56032.42
538.25	55704.75
538.42	55976.25
538.59	56435.00
538.75	56259.46
538.92	56135.41
539.09	56355.42
539.26	56161.15
539.43	56327.33
539.60	56247.75
539.77	56142.43
539.94	56430.32
540.11	56556.70
540.28	56615.22
540.44	56144.77
540.61	56488.83
540.78	56652.67
540.95	56427.98
541.12	56486.49
541.29	56573.09
541.46	56697.14
541.62	56626.92
541.79	56671.39
541.96	56631.60
542.13	56399.89
542.30	56865.66
542.47	57071.62
542.63	57165.24
542.80	57141.84
542.97	57111.41
543.14	57382.91
543.31	57207.37
543.48	57265.89
543.64	57614.63
543.81	57279.93
543.98	57319.72
544.15	57497.60
544.32	57593.56
544.48	57811.23
544.65	57551.43
544.82	57556.11
544.99	57427.38
545.16	57605.26
545.32	57577.18
545.49	57764.42
545.66	57876.77
545.83	57708.25
546.00	57654.42
546.16	57895.49
546.33	57654.42
546.50	57605.26
546.67	57937.62
546.83	57691.86
547.00	58003.16
547.17	58000.82
547.34	57787.83
547.50	58052.31
547.67	58021.88
547.84	58148.27
548.00	58085.07
548.17	58307.43
548.34	58239.55
548.51	58494.67
548.67	58370.62
548.84	58265.30
549.01	58333.17
549.18	58298.06
549.34	58169.33
549.51	58377.64
549.68	58592.97
549.84	58443.18
550.01	58438.50
550.18	58539.14
550.34	58424.45
550.51	58691.27
550.68	58691.27
550.84	58354.24
551.01	58794.26
551.18	58719.36
551.34	58798.94
551.51	58663.19
551.68	58674.89
551.84	58560.20
552.01	58347.21
552.18	58810.64
552.34	58815.32
552.51	58969.80
552.68	58731.06
552.84	58707.66
553.01	58990.86
553.18	58955.75
553.34	59135.98
553.51	58883.20
553.67	58663.19
553.84	59121.93
554.01	59121.93
554.17	59131.29
554.34	59220.23
554.51	58948.73
554.67	59271.73
554.84	59260.02
555.00	59166.40
555.17	58852.77
555.33	59086.82
555.50	59330.24
555.67	59201.51
555.83	59096.19
556.00	59313.86
556.16	59428.54
556.33	59583.02
556.50	59241.30
556.66	59426.20
556.83	59283.43
556.99	59444.93
557.16	59456.63
557.32	59540.89
557.49	59819.41
557.65	59667.28
557.82	59550.25
557.98	59604.08
558.15	59447.27
558.32	59444.93
558.48	59398.12
558.65	59526.84
558.81	59671.96
558.98	59669.62
559.14	59625.15
559.31	59774.94
559.47	59674.30
559.64	59924.74
559.80	59859.20
559.97	59840.48
560.13	59798.35
560.30	59627.49
560.46	59938.78
560.63	59962.18
560.79	59976.23
560.96	59987.93
561.12	60170.49
561.29	59973.89
561.45	59833.46
561.61	59894.31
561.78	59817.07
561.94	59784.30
562.11	60020.70
562.27	59941.12
562.44	59903.67
562.60	60144.75
562.77	59938.78
562.93	59896.65
563.10	60144.75
563.26	59821.75
563.42	60303.90
563.59	60086.23
563.75	60128.36
563.92	60137.72
564.08	60027.72
564.24	60198.58
564.41	60207.94
564.57	60041.76
564.74	60278.16
564.90	60268.79
565.07	60186.88
565.23	60322.63
565.39	60360.08
565.56	60212.62
565.72	60331.99
565.88	60327.31
566.05	60324.97
566.21	60252.41
566.38	60441.99
566.54	60278.16
566.70	60549.66
566.87	60521.57
567.03	60229.01
567.19	60416.25
567.36	60334.33
567.52	60306.24
567.68	60603.49
567.85	60474.76
568.01	60601.15
568.17	60198.58
568.34	60512.21
568.50	60470.08
568.66	60233.69
568.83	60247.73
568.99	60411.57
569.15	60542.64
569.32	60636.26
569.48	60598.81
569.64	60598.81
569.81	60575.40
569.97	60493.49
570.13	60542.64
570.30	60587.11
570.46	60341.35
570.62	60718.18
570.78	60505.19
570.95	60617.53
571.11	60671.37
571.27	60530.93
571.43	60598.81
571.60	60956.91
571.76	60683.07
571.92	60673.71
572.09	60729.88
572.25	60839.89
572.41	60486.46
572.57	60636.26
572.74	60970.96
572.90	60685.41
573.06	60643.28
573.22	60608.17
573.38	60767.33
573.55	60736.90
573.71	60657.32
573.87	60832.86
574.03	60563.70
574.20	60757.97
574.36	60762.65
574.52	60893.72
574.68	60924.14
574.84	60814.14
575.01	60690.09
575.17	60772.01
575.33	60821.16
575.49	60839.89
575.65	60935.85
575.82	60846.91
575.98	60884.36
576.14	61102.03
576.30	61036.49
576.46	60800.10
576.62	60767.33
576.79	60919.46
576.95	60814.14
577.11	61085.64
577.27	60945.21
577.43	60835.20
577.59	60884.36
577.75	60809.46
577.92	60706.47
578.08	60872.65
578.24	60942.87
578.40	60947.55
578.56	61083.30
578.72	60940.53
578.88	61001.38
579.04	61130.11
579.21	61050.53
579.37	60959.25
579.53	61048.19
579.69	60954.57
579.85	60970.96
580.01	60882.02
580.17	60891.38
580.33	61013.08
580.49	61083.30
580.65	61027.13
580.82	60954.57
580.98	60912.44
581.14	60767.33
581.30	61202.67
581.46	61027.13
581.62	60999.04
581.78	60973.30
581.94	61010.74
582.10	60816.48
582.26	60949.89
582.42	61071.60
582.58	60938.19
582.74	61073.94
582.90	61127.77
583.06	60949.89
583.22	61003.72
583.38	61172.24
583.54	61069.26
583.70	61113.73
583.86	61123.09
584.02	60807.12
584.18	61132.45
584.34	61181.60
584.50	61109.05
584.66	60874.99
584.82	60872.65
584.98	61258.84
585.14	61216.71
585.30	60928.83
585.46	61113.73
585.62	61120.75
585.78	61380.55
585.94	60924.14
586.10	61095.00
586.26	61343.10
586.42	61174.58
586.58	61176.92
586.74	61069.26
586.90	61073.94
587.06	60912.44
587.22	61249.48
587.38	61254.16
587.54	61366.51
587.70	61546.73
587.86	61226.07
588.02	61291.61
588.18	61422.68
588.34	61183.94
588.49	61254.16
