SpectraSuite Data File
++++++++++++++++++++++++++++++++++++
Date: Fri Oct 25 10:43:33 EDT 2013
User: price-jones
Dark Spectrum Present: No
Reference Spectrum Present: No
Number of Sampled Component Spectra: 1
Spectrometers: USB2+H05261
Integration Time (usec): 100000 (USB2+H05261)
Spectra Averaged: 1 (USB2+H05261)
Boxcar Smoothing: 0 (USB2+H05261)
Correct for Electrical Dark: No (USB2+H05261)
Strobe/Lamp Enabled: No (USB2+H05261)
Correct for Detector Non-linearity: No (USB2+H05261)
Correct for Stray Light: No (USB2+H05261)
Number of Pixels in Processed Spectrum: 2048
>>>>>Begin Processed Spectral Data<<<<<
365.73	105.32
365.92	105.32
366.12	105.32
366.32	30.43
366.52	0.00
366.72	37.45
366.91	0.00
367.11	46.81
367.31	0.00
367.51	2.34
367.70	16.38
367.90	53.83
368.10	0.00
368.30	2.34
368.49	0.00
368.69	93.62
368.89	9.36
369.09	58.51
369.28	46.81
369.48	91.28
369.68	107.66
369.87	121.71
370.07	39.79
370.27	112.35
370.47	201.29
370.66	301.93
370.86	461.09
371.06	433.00
371.25	489.17
371.45	468.11
371.65	456.40
371.84	423.64
372.04	470.45
372.24	430.66
372.44	521.94
372.63	493.85
372.83	458.74
373.03	500.87
373.22	430.66
373.42	533.64
373.62	475.13
373.81	538.32
374.01	585.13
374.21	557.05
374.40	559.39
374.60	643.65
374.79	540.66
374.99	543.00
375.19	601.52
375.38	566.41
375.58	610.88
375.78	624.92
375.97	657.69
376.17	641.31
376.37	566.41
376.56	547.69
376.76	578.11
376.95	638.97
377.15	664.71
377.35	716.20
377.54	610.88
377.74	702.16
377.93	699.82
378.13	599.18
378.33	617.90
378.52	603.86
378.72	638.97
378.91	615.56
379.11	657.69
379.31	725.57
379.50	645.99
379.70	667.05
379.89	653.01
380.09	650.67
380.28	704.50
380.48	751.31
380.68	702.16
380.87	671.73
381.07	692.80
381.26	755.99
381.46	681.10
381.65	671.73
381.85	690.46
382.04	655.35
382.24	676.41
382.43	695.14
382.63	685.78
382.83	720.88
383.02	737.27
383.22	739.61
383.41	690.46
383.61	795.78
383.80	786.42
384.00	770.04
384.19	819.19
384.39	758.33
384.58	873.02
384.78	863.66
384.97	800.46
385.17	709.18
385.36	795.78
385.56	833.23
385.75	826.21
385.95	809.83
386.14	866.00
386.34	847.27
386.53	849.61
386.72	800.46
386.92	805.14
387.11	767.70
387.31	896.43
387.50	880.04
387.70	823.87
387.89	889.40
388.09	919.83
388.28	971.32
388.48	980.68
388.67	875.36
388.86	912.81
389.06	1011.11
389.25	992.39
389.45	985.37
389.64	997.07
389.84	1043.88
390.03	1001.75
390.22	1111.75
390.42	954.94
390.61	971.32
390.81	926.85
391.00	1069.62
391.19	1015.79
391.39	1104.73
391.58	1123.46
391.78	1022.81
391.97	1086.01
392.16	1055.58
392.36	1144.52
392.55	987.71
392.75	931.53
392.94	952.60
393.13	1039.20
393.33	950.26
393.52	997.07
393.71	959.62
393.91	1083.67
394.10	1104.73
394.29	1203.04
394.49	1172.61
394.68	1191.33
394.88	1142.18
395.07	1247.51
395.26	1299.00
395.46	1226.44
395.65	1184.31
395.84	1228.78
396.04	1235.80
396.23	1186.65
396.42	1121.12
396.62	1217.08
396.81	1188.99
397.00	1322.40
397.19	1273.25
397.39	1327.08
397.58	1406.66
397.77	1399.64
397.97	1376.24
398.16	1455.81
398.35	1488.58
398.55	1556.46
398.74	1486.24
398.93	1437.09
399.12	1474.54
399.32	1500.28
399.51	1467.52
399.70	1490.92
399.90	1593.90
400.09	1542.41
400.28	1537.73
400.47	1610.29
400.67	1717.95
400.86	1661.78
401.05	1647.74
401.24	1743.70
401.44	1729.66
401.63	1792.85
401.82	1767.10
402.01	1706.25
402.21	1755.40
402.40	1671.14
402.59	1844.34
402.78	1900.52
402.97	1689.87
403.17	1802.21
403.36	1818.60
403.55	1867.75
403.74	1870.09
403.93	1905.20
404.13	1795.19
404.32	1968.39
404.51	1832.64
404.70	1858.39
404.89	1881.79
405.09	1956.69
405.28	1942.64
405.47	1820.94
405.66	1895.83
405.85	1823.28
406.05	1851.36
406.24	1982.43
406.43	2097.12
406.62	2186.06
406.81	2092.44
407.00	2059.67
407.20	2080.74
407.39	2005.84
407.58	2148.61
407.77	2223.51
407.96	2200.10
408.15	2256.28
408.34	2197.76
408.54	2321.81
408.73	2258.62
408.92	2328.83
409.11	2342.88
409.30	2310.11
409.49	2298.41
409.68	2340.54
409.87	2204.78
410.07	2452.88
410.26	2380.32
410.45	2375.64
410.64	2455.22
410.83	2473.95
411.02	2569.91
411.21	2647.15
411.40	2537.14
411.59	2665.87
411.78	2626.08
411.98	2661.19
412.17	2623.74
412.36	2558.21
412.55	2729.06
412.74	2752.47
412.93	2766.51
413.12	2801.62
413.31	2881.20
413.50	2708.00
413.69	2860.13
413.88	2939.71
414.07	2949.08
414.26	2991.20
414.45	2918.65
414.64	3028.65
414.83	2995.89
415.02	3108.23
415.22	3126.96
415.41	3173.77
415.60	3150.36
415.79	3272.07
415.98	3288.45
416.17	3253.34
416.36	3290.79
416.55	3206.53
416.74	3304.84
416.93	3288.45
417.12	3162.06
417.31	3398.46
417.50	3356.33
417.69	3372.71
417.88	3424.20
418.07	3421.86
418.26	3363.35
418.45	3393.78
418.64	3609.11
418.83	3651.24
419.02	3576.34
419.21	3552.93
419.39	3637.19
419.58	3520.17
419.77	3468.67
419.96	3667.62
420.15	3740.18
420.34	3641.87
420.53	3866.56
420.72	3875.93
420.91	3908.69
421.10	3840.82
421.29	3908.69
421.48	3911.04
421.67	3819.75
421.86	3791.67
422.05	3805.71
422.24	3786.99
422.43	3747.20
422.61	3943.80
422.80	4004.66
422.99	3974.23
423.18	3971.89
423.37	4009.34
423.56	4039.76
423.75	3941.46
423.94	3915.72
424.13	3641.87
424.32	3791.67
424.50	4070.19
424.69	4053.81
424.88	4100.62
425.07	3976.57
425.26	3889.97
425.45	4091.26
425.64	3880.61
425.83	3929.76
426.01	4088.92
426.20	3899.33
426.39	3971.89
426.58	3915.72
426.77	4028.06
426.96	3960.19
427.15	3868.91
427.33	3889.97
427.52	4065.51
427.71	4245.73
427.90	4198.92
428.09	4259.78
428.28	4028.06
428.46	4145.09
428.65	4163.81
428.84	4329.99
429.03	4269.14
429.22	4121.68
429.40	4205.94
429.59	4079.55
429.78	3847.84
429.97	3829.12
430.16	3997.64
430.34	4114.66
430.53	4039.76
430.72	4198.92
430.91	4229.35
431.10	4397.87
431.28	4442.34
431.47	4648.30
431.66	4657.67
431.85	4585.11
432.03	4667.03
432.22	4540.64
432.41	4585.11
432.60	4795.76
432.79	4732.56
432.97	4922.15
433.16	4720.86
433.35	4741.93
433.54	4674.05
433.72	4652.98
433.91	4683.41
434.10	4800.44
434.28	4760.65
434.47	4868.31
434.66	4835.55
434.85	4910.44
435.03	5111.73
435.22	5074.28
435.41	5186.63
435.59	5177.26
435.78	5107.05
435.97	5048.54
436.16	5186.63
436.34	5085.98
436.53	5137.48
436.72	5270.89
436.90	5104.71
437.09	5137.48
437.28	5071.94
437.46	5130.45
437.65	4997.04
437.84	5252.16
438.02	5301.31
438.21	5198.33
438.40	4980.66
438.58	5371.53
438.77	5476.85
438.96	5380.89
439.14	5467.49
439.33	5769.42
439.52	5558.77
439.70	5596.22
439.89	5652.39
440.08	5593.88
440.26	5657.07
440.45	5844.32
440.63	5902.83
440.82	5891.13
441.01	5940.28
441.19	5839.64
441.38	6054.97
441.57	6076.03
441.75	6153.27
441.94	6396.68
442.12	6370.94
442.31	6539.46
442.50	6340.51
442.68	6249.23
442.87	6300.72
443.05	6457.54
443.24	6567.54
443.43	6291.36
443.61	6478.60
443.80	6724.36
443.98	6609.67
444.17	6408.39
444.35	6466.90
444.54	6541.80
444.73	6494.99
444.91	6511.37
445.10	6476.26
445.28	6291.36
445.47	6457.54
445.65	6380.30
445.84	6579.25
446.02	6593.29
446.21	6717.34
446.39	6457.54
446.58	6696.27
446.77	6724.36
446.95	6679.89
447.14	6689.25
447.32	6832.02
447.51	6668.19
447.69	6712.66
447.88	6743.08
448.06	6710.32
448.25	6729.04
448.43	6853.09
448.62	6731.38
448.80	6733.72
448.99	6899.90
449.17	6883.52
449.36	6869.47
449.54	6991.18
449.73	6860.11
449.91	7115.23
450.10	7279.07
450.28	7405.46
450.46	7225.23
450.65	7445.24
450.83	7279.07
451.02	7101.19
451.20	7353.96
451.39	7169.06
451.57	7164.38
451.76	7101.19
451.94	7267.36
452.13	7295.45
452.31	7126.93
452.49	7122.25
452.68	7213.53
452.86	7066.08
453.05	7339.92
453.23	7363.33
453.42	7309.49
453.60	7314.17
453.78	7279.07
453.97	7316.51
454.15	7358.64
454.34	7440.56
454.52	7382.05
454.70	7548.23
454.89	7510.78
455.07	7569.29
455.26	7588.02
455.44	7604.40
455.62	7641.85
455.81	7637.17
455.99	7693.34
456.17	7990.59
456.36	7873.56
456.54	7920.37
456.73	8009.31
456.91	8184.85
457.09	8116.98
457.28	8135.70
457.46	8030.38
457.64	8266.77
457.83	8121.66
458.01	8056.12
458.19	8194.22
458.38	8226.98
458.56	8287.84
458.74	8287.84
458.93	8252.73
459.11	8285.50
459.29	8425.93
459.48	8479.76
459.66	8327.63
459.84	8468.06
460.03	8404.86
460.21	8645.94
460.39	8479.76
460.57	8498.49
460.76	8718.50
460.94	8746.58
461.12	8617.85
461.31	8709.13
461.49	8585.08
461.67	8627.21
461.85	8828.50
462.04	8629.56
462.22	9284.91
462.40	8947.87
462.59	8856.59
462.77	8699.77
462.95	9015.74
463.13	8931.48
463.32	8788.71
463.50	8812.12
463.68	9018.08
463.86	9090.64
464.05	9053.19
464.23	9043.83
464.41	9207.67
464.59	9039.15
464.78	9200.65
464.96	9329.38
465.14	9064.89
465.32	9235.75
465.50	9312.99
465.69	9200.65
465.87	9221.71
466.05	9341.08
466.23	9310.65
466.41	9245.12
466.60	9509.60
466.78	9228.73
466.96	9249.80
467.14	9394.91
467.32	9394.91
467.51	9722.59
467.69	9434.70
467.87	9462.79
468.05	9495.55
468.23	9406.61
468.41	9533.00
468.60	9488.53
468.78	9593.86
468.96	9591.52
469.14	9745.99
469.32	9591.52
469.50	9600.88
469.69	9790.46
469.87	9680.46
470.05	9856.00
470.23	9549.39
470.41	9954.30
470.59	9949.62
470.77	9916.85
470.95	9991.75
471.14	10204.74
471.32	9940.26
471.50	10366.23
471.68	10162.61
471.86	10450.49
472.04	10410.70
472.22	10675.18
472.40	10176.65
472.58	10223.46
472.77	10560.50
472.95	10572.20
473.13	10909.24
473.31	10707.95
473.49	10541.77
473.67	10750.08
473.85	10609.65
474.03	11033.29
474.21	11075.42
474.39	11037.97
474.57	10911.58
474.75	11066.05
474.93	11208.83
475.12	11103.50
475.30	11360.96
475.48	11321.17
475.66	11403.09
475.84	11370.32
476.02	11335.21
476.20	11328.19
476.38	11611.40
476.56	11805.66
476.74	11473.31
476.92	11784.60
477.10	11875.88
477.28	12191.85
477.46	11955.46
477.64	12402.50
477.82	12304.20
478.00	12571.02
478.18	12699.75
478.36	12500.80
478.54	12922.10
478.72	12697.41
478.90	12938.48
479.08	13327.01
479.26	13172.54
479.44	13238.07
479.62	13181.90
479.80	13404.25
479.98	13387.86
480.16	13862.99
480.34	13888.74
480.52	13839.59
480.70	13991.72
480.88	13678.09
481.06	14029.17
481.24	14207.05
481.41	14438.76
481.59	14366.21
481.77	14398.98
481.95	14221.10
482.13	14487.92
482.31	14670.48
482.49	14839.00
482.67	14710.27
482.85	15056.67
483.03	14981.77
483.21	15470.94
483.39	15501.37
483.57	15297.74
483.74	15522.43
483.92	15534.14
484.10	15571.58
484.28	15969.48
484.46	16109.91
484.64	16030.33
484.82	16060.76
485.00	16121.61
485.18	16191.83
485.35	16573.33
485.53	16297.15
485.71	16123.95
485.89	16482.05
486.07	16390.77
486.25	16819.09
486.43	16793.34
486.61	17118.68
486.78	17228.68
486.96	17460.40
487.14	17781.05
487.32	17858.29
487.50	17895.74
487.68	18251.50
487.85	18427.04
488.03	18457.46
488.21	18822.59
488.39	18600.24
488.57	18569.81
488.75	19021.53
488.92	18771.10
489.10	19452.19
489.28	19173.67
489.46	19831.36
489.64	19452.19
489.81	20238.61
489.99	19917.96
490.17	20341.60
490.35	20430.54
490.53	20020.94
490.70	20381.38
490.88	20519.48
491.06	20519.48
491.24	20781.62
491.41	20606.08
491.59	20931.41
491.77	20669.27
491.95	21111.63
492.13	21425.26
492.30	21331.64
492.48	21802.09
492.66	21774.00
492.84	21862.94
493.01	22111.04
493.19	22235.09
493.37	22295.94
493.54	22459.78
493.72	22628.30
493.90	22955.97
494.08	22815.54
494.25	23257.90
494.43	23381.95
494.61	23311.74
494.79	23625.37
494.96	23356.21
495.14	23562.17
495.32	23728.35
495.49	23934.32
495.67	23999.85
495.85	24123.90
496.02	24287.74
496.20	24362.64
496.38	24414.13
496.55	24299.44
496.73	24809.68
496.91	24638.82
497.09	24891.60
497.26	25198.21
497.44	25132.67
497.62	25411.20
497.79	25226.29
497.97	25177.14
498.14	25345.66
498.32	26026.76
498.50	25788.02
498.67	26331.03
498.85	26012.71
499.03	25933.14
499.20	26527.63
499.38	26492.52
499.56	26396.56
499.73	26576.78
499.91	27091.70
500.08	26630.62
500.26	26396.56
500.44	26567.42
500.61	26759.34
500.79	26920.84
500.97	26948.93
501.14	27122.13
501.32	27047.23
501.49	27175.96
501.67	26803.82
501.84	27566.83
502.02	27541.08
502.20	27501.29
502.37	27304.69
502.55	27728.33
502.72	28060.68
502.90	28257.29
503.07	27988.13
503.25	27920.25
503.43	28196.43
503.60	28077.07
503.78	28023.23
503.95	28011.53
504.13	28053.66
504.30	28610.71
504.48	28608.37
504.65	28996.90
504.83	29006.26
505.01	29216.91
505.18	29067.11
505.36	29635.86
505.53	29378.40
505.71	29743.53
505.88	29750.55
506.06	29565.65
506.23	29390.11
506.41	29399.47
506.58	29790.34
506.76	29933.11
506.93	30061.84
507.11	30012.69
507.28	29797.36
507.46	30314.62
507.63	29757.57
507.81	29944.81
507.98	30164.82
508.16	30235.04
508.33	30326.32
508.50	30623.57
508.68	30677.40
508.85	31363.18
509.03	31250.83
509.20	30761.66
509.38	31115.08
509.55	30721.87
509.73	31161.89
509.90	31087.00
510.08	31449.78
510.25	31379.56
510.42	31651.06
510.60	31548.08
510.77	32034.91
510.95	32283.01
511.12	31534.04
511.30	32009.17
511.47	32467.91
511.64	32058.32
511.82	32498.34
511.99	32182.37
512.17	32112.15
512.34	32081.72
512.51	32687.92
512.69	32790.91
512.86	32561.53
513.04	32926.66
513.21	32833.04
513.38	32451.53
513.56	32950.06
513.73	32524.08
513.90	33041.34
514.08	32992.19
514.25	33266.03
514.43	33338.59
514.60	33083.47
514.77	33436.89
514.95	34012.66
515.12	33570.30
515.29	33675.63
515.47	33771.59
515.64	33954.15
515.81	33930.75
515.99	33656.90
516.16	34143.74
516.33	33582.01
516.51	33673.29
516.68	33235.61
516.85	33331.57
517.03	33593.71
517.20	34129.69
517.37	34340.34
517.54	34015.01
517.72	34300.55
517.89	33991.60
518.06	34319.28
518.24	34160.12
518.41	34302.89
518.58	34653.97
518.75	34501.84
518.93	34834.19
519.10	34595.46
519.27	34817.81
519.45	35222.72
519.62	35290.60
519.79	35452.09
519.96	35597.21
520.14	35246.13
520.31	35442.73
520.48	35672.10
520.65	35613.59
520.83	36308.73
521.00	35676.79
521.17	35597.21
521.34	36093.40
521.52	36266.60
521.69	36016.16
521.86	36596.62
522.03	36381.29
522.20	36409.37
522.38	36683.22
522.55	36500.65
522.72	36215.11
522.89	36418.74
523.07	36683.22
523.24	36217.45
523.41	37383.04
523.58	37116.22
523.75	37385.38
523.92	37556.24
524.10	37097.49
524.27	37453.25
524.44	37530.49
524.61	37191.11
524.78	37331.54
524.96	37724.75
525.13	37511.77
525.30	37617.09
525.47	37797.31
525.64	37532.83
525.81	37514.11
525.98	37280.05
526.16	37479.00
526.33	37324.52
526.50	37266.01
526.67	37191.11
526.84	37287.07
527.01	37682.62
527.18	37668.58
527.36	38043.07
527.53	38014.98
527.70	38824.81
527.87	38185.84
528.04	38398.83
528.21	38677.35
528.38	38628.20
528.55	39089.29
528.72	39000.35
528.89	38866.94
529.07	38719.48
529.24	38714.80
529.41	38513.52
529.58	38911.41
529.75	38515.86
529.92	39171.21
530.09	38885.66
530.26	39086.95
530.43	39201.63
530.60	39201.63
530.77	39702.51
530.94	39700.17
531.11	39505.90
531.28	39725.91
531.46	39360.79
531.63	39936.56
531.80	39274.19
531.97	39377.17
532.14	39592.50
532.31	39117.37
532.48	39545.69
532.65	39957.63
532.82	39292.91
532.99	39683.78
533.16	39793.79
533.33	40053.59
533.50	39852.30
533.67	39894.43
533.84	40018.48
534.01	40128.48
534.18	40116.78
534.35	40229.13
534.52	40250.19
534.69	40547.44
534.86	40573.19
535.03	40275.94
535.20	40900.86
535.37	40821.28
535.54	40987.46
535.71	40751.07
535.88	41013.21
536.05	40362.54
536.22	40779.15
536.38	40788.52
536.55	40418.71
536.72	40533.40
536.89	40624.68
537.06	40329.77
537.23	40959.38
537.40	41008.53
537.57	41111.51
537.74	41212.15
537.91	41235.56
538.08	41652.17
538.25	40968.74
538.42	41378.33
538.59	41570.25
538.75	41209.81
538.92	41572.60
539.09	41256.62
539.26	41179.39
539.43	41493.02
539.60	41785.58
539.77	41315.14
539.94	41881.55
540.11	41670.90
540.28	41514.08
540.44	41497.70
540.61	41511.74
540.78	41109.17
540.95	41366.63
541.12	41682.60
541.29	41858.14
541.46	41989.21
541.62	41717.71
541.79	41862.82
541.96	41523.44
542.13	41958.78
542.30	41965.81
542.47	41797.29
542.63	41975.17
542.80	42302.84
542.97	42363.70
543.14	42703.07
543.31	42347.31
543.48	42651.58
543.64	42925.42
543.81	42834.14
543.98	42766.27
544.15	43093.94
544.32	43126.71
544.48	42721.80
544.65	43082.24
544.82	42981.60
544.99	42766.27
545.16	43110.33
545.32	43082.24
545.49	43353.74
545.66	43459.07
545.83	43398.21
546.00	43533.96
546.16	43072.88
546.33	43061.18
546.50	43309.27
546.67	43367.79
546.83	43449.70
547.00	43166.50
547.17	43208.63
547.34	43110.33
547.50	43288.21
547.67	43758.66
547.84	43435.66
548.00	43463.75
548.17	43828.87
548.34	43613.54
548.51	43409.92
548.67	43786.74
548.84	44140.16
549.01	43374.81
549.18	43761.00
549.34	43239.06
549.51	43721.21
549.68	43878.02
549.84	44011.43
550.01	43871.00
550.18	43732.91
550.34	43990.37
550.51	43840.57
550.68	43239.06
550.84	43447.36
551.01	44088.67
551.18	43667.37
551.34	44135.48
551.51	44079.31
551.68	44643.38
551.84	44088.67
552.01	43812.49
552.18	43601.84
552.34	43999.73
552.51	44292.30
552.68	44289.96
552.84	44205.70
553.01	44315.70
553.18	44322.72
553.34	44498.26
553.51	44144.84
553.67	44601.25
553.84	45062.33
554.01	44587.21
554.17	45193.40
554.34	44816.58
554.51	44973.39
554.67	44744.02
554.84	44893.82
555.00	44374.22
555.17	44680.83
555.33	44727.64
555.50	44851.69
555.67	44994.46
555.83	44556.78
556.00	44671.46
556.16	44896.16
556.33	44870.41
556.50	45282.34
556.66	44842.32
556.83	44987.44
556.99	44732.32
557.16	45064.67
557.32	45001.48
557.49	45097.44
557.65	44622.31
557.82	44783.81
557.98	45034.25
558.15	45036.59
558.32	45001.48
558.48	44954.67
558.65	45116.17
558.81	44917.22
558.98	45057.65
559.14	45294.05
559.31	45106.80
559.47	45085.74
559.64	45244.90
559.80	44830.62
559.97	45099.78
560.13	45078.72
560.30	45125.53
560.46	45280.00
560.63	45717.68
560.79	45497.67
560.96	45677.90
561.12	45294.05
561.29	45118.51
561.45	45127.87
561.61	45244.90
561.78	45352.56
561.94	44638.70
562.11	45591.30
562.27	44942.97
562.44	45406.39
562.60	45553.85
562.77	45488.31
562.93	45324.47
563.10	45490.65
563.26	45418.10
563.42	45933.01
563.59	45549.17
563.75	45291.71
563.92	45799.60
564.08	45408.73
564.24	45867.48
564.41	45549.17
564.57	45574.91
564.74	45654.49
564.90	45886.20
565.07	45642.79
565.23	45771.52
565.39	45275.32
565.56	45855.78
565.72	45528.10
565.88	45478.95
566.05	45296.39
566.21	45492.99
566.38	45666.19
566.54	45481.29
566.70	46160.05
566.87	45951.74
567.03	45815.99
567.19	46368.35
567.36	45668.53
567.52	45556.19
567.68	45841.73
567.85	45815.99
568.01	46162.39
568.17	46096.85
568.34	45703.64
568.50	45677.90
568.66	45565.55
568.83	46010.25
568.99	45776.20
569.15	45521.08
569.32	45839.39
569.48	45933.01
569.64	46443.25
569.81	45916.63
569.97	45591.30
570.13	45813.65
570.30	45158.30
570.46	45401.71
570.62	45528.10
570.78	45469.59
570.95	45137.23
571.11	45806.62
571.27	45619.38
571.43	45441.50
571.60	46405.80
571.76	45930.67
571.92	46019.61
572.09	46024.29
572.25	45933.01
572.41	46309.84
572.57	46108.55
572.74	45972.80
572.90	45558.53
573.06	46241.96
573.22	46197.49
573.38	46227.92
573.55	46185.79
573.71	46368.35
573.87	46351.97
574.03	45832.37
574.20	46082.81
574.36	45773.86
574.52	46103.87
574.68	45823.01
574.84	45984.51
575.01	45715.34
575.17	45904.93
575.33	45776.20
575.49	45947.06
575.65	45937.69
575.82	46052.38
575.98	46260.69
576.14	45820.67
576.30	46192.81
576.46	45961.10
576.62	45511.72
576.79	45790.24
576.95	45783.22
577.11	46169.41
577.27	46452.61
577.43	46057.06
577.59	45720.02
577.75	45895.56
577.92	45511.72
578.08	45462.57
578.24	45804.28
578.40	45296.39
578.56	46291.12
578.72	46150.68
578.88	45907.27
579.04	46171.75
579.21	45778.54
579.37	45652.15
579.53	46167.07
579.69	45366.60
579.85	46237.28
580.01	46286.43
580.17	45755.13
580.33	46066.42
580.49	45923.65
580.65	45830.03
580.82	45958.76
580.98	45769.18
581.14	45841.73
581.30	46344.95
581.46	45830.03
581.62	46089.83
581.78	45698.96
581.94	46777.95
582.10	46244.30
582.26	46401.12
582.42	46349.63
582.58	45984.51
582.74	46141.32
582.90	45860.46
583.06	46480.70
583.22	46321.54
583.38	46454.95
583.54	46609.43
583.70	46466.66
583.86	46295.80
584.02	45808.96
584.18	46373.03
584.34	46574.32
584.50	46127.28
584.66	45930.67
584.82	46101.53
584.98	46368.35
585.14	45797.26
585.30	46101.53
585.46	46169.41
585.62	45830.03
585.78	46024.29
585.94	45921.31
586.10	46153.02
586.26	45897.91
586.42	46511.13
586.58	45968.12
586.74	46213.88
586.90	45881.52
587.06	45961.10
587.22	46335.59
587.38	45984.51
587.54	46220.90
587.70	46471.34
587.86	46330.90
588.02	46054.72
588.18	46244.30
588.34	45921.31
588.49	45736.41
588.65	45158.30
588.81	45895.56
588.97	45820.67
589.13	45848.75
589.29	45556.19
589.45	45738.75
589.61	45893.22
589.77	45984.51
589.93	46033.66
590.08	45893.22
