SpectraSuite Data File
++++++++++++++++++++++++++++++++++++
Date: Fri Oct 25 11:23:45 EDT 2013
User: price-jones
Dark Spectrum Present: No
Reference Spectrum Present: No
Number of Sampled Component Spectra: 1
Spectrometers: USB2+H05261
Integration Time (usec): 100000 (USB2+H05261)
Spectra Averaged: 1 (USB2+H05261)
Boxcar Smoothing: 0 (USB2+H05261)
Correct for Electrical Dark: No (USB2+H05261)
Strobe/Lamp Enabled: No (USB2+H05261)
Correct for Detector Non-linearity: No (USB2+H05261)
Correct for Stray Light: No (USB2+H05261)
Number of Pixels in Processed Spectrum: 2048
>>>>>Begin Processed Spectral Data<<<<<
365.73	227.03
365.92	227.03
366.12	227.03
366.32	138.09
366.52	51.49
366.72	133.41
366.91	173.20
367.11	93.62
367.31	140.43
367.51	131.07
367.70	77.24
367.90	212.99
368.10	140.43
368.30	191.92
368.49	142.77
368.69	180.22
368.89	198.95
369.09	79.58
369.28	131.07
369.48	168.52
369.68	177.88
369.87	159.16
370.07	217.67
370.27	236.39
370.47	299.59
370.66	613.22
370.86	589.82
371.06	678.76
371.25	763.01
371.45	676.41
371.65	685.78
371.84	699.82
372.04	697.48
372.24	648.33
372.44	622.58
372.63	725.57
372.83	650.67
373.03	718.54
373.22	723.23
373.42	767.70
373.62	777.06
373.81	777.06
374.01	755.99
374.21	826.21
374.40	926.85
374.60	842.59
374.79	772.38
374.99	823.87
375.19	763.01
375.38	851.96
375.58	854.30
375.78	915.15
375.97	887.06
376.17	851.96
376.37	847.27
376.56	910.47
376.76	861.32
376.95	847.27
377.15	870.68
377.35	943.24
377.54	933.87
377.74	861.32
377.93	861.32
378.13	821.53
378.33	880.04
378.52	933.87
378.72	901.11
378.91	901.11
379.11	922.17
379.31	966.64
379.50	978.34
379.70	1006.43
379.89	1041.54
380.09	919.83
380.28	978.34
380.48	973.66
380.68	1004.09
380.87	933.87
381.07	943.24
381.26	1071.97
381.46	926.85
381.65	1060.26
381.85	1132.82
382.04	1076.65
382.24	1139.84
382.43	1055.58
382.63	1139.84
382.83	1043.88
383.02	1078.99
383.22	1153.88
383.41	1076.65
383.61	1156.22
383.80	1074.31
384.00	1046.22
384.19	1095.37
384.39	1111.75
384.58	1055.58
384.78	1217.08
384.97	1121.12
385.17	1090.69
385.36	1203.04
385.56	1198.35
385.75	1107.07
385.95	1181.97
386.14	1210.06
386.34	1233.46
386.53	1181.97
386.72	1247.51
386.92	1177.29
387.11	1214.74
387.31	1217.08
387.50	1207.72
387.70	1240.48
387.89	1240.48
388.09	1301.34
388.28	1394.96
388.48	1308.36
388.67	1399.64
388.86	1231.12
389.06	1341.13
389.25	1306.02
389.45	1362.19
389.64	1301.34
389.84	1341.13
390.03	1369.21
390.22	1399.64
390.42	1397.30
390.61	1366.87
390.81	1320.06
391.00	1324.74
391.19	1359.85
391.39	1547.09
391.58	1530.71
391.78	1441.77
391.97	1446.45
392.16	1540.07
392.36	1488.58
392.55	1458.15
392.75	1530.71
392.94	1568.16
393.13	1455.81
393.33	1577.52
393.52	1526.03
393.71	1633.69
393.91	1741.36
394.10	1516.67
394.29	1542.41
394.49	1647.74
394.68	1739.02
394.88	1636.03
395.07	1652.42
395.26	1561.14
395.46	1633.69
395.65	1722.63
395.84	1647.74
396.04	1809.23
396.23	1696.89
396.42	1741.36
396.62	1685.19
396.81	1809.23
397.00	1832.64
397.19	1753.06
397.39	1760.08
397.58	1816.26
397.77	1839.66
397.97	1825.62
398.16	1797.53
398.35	1898.17
398.55	1944.99
398.74	1935.62
398.93	1900.52
399.12	1942.64
399.32	1884.13
399.51	1933.28
399.70	2125.21
399.90	1980.09
400.09	1963.71
400.28	1980.09
400.47	2033.93
400.67	2150.95
400.86	2097.12
401.05	2134.57
401.24	2120.53
401.44	2071.37
401.63	2143.93
401.82	2202.44
402.01	2047.97
402.21	2111.16
402.40	2136.91
402.59	2143.93
402.78	2239.89
402.97	2167.34
403.17	2307.77
403.36	2263.30
403.55	2265.64
403.74	2312.45
403.93	2373.30
404.13	2352.24
404.32	2434.16
404.51	2370.96
404.70	2396.71
404.89	2415.43
405.09	2546.50
405.28	2480.97
405.47	2530.12
405.66	2455.22
405.85	2506.71
406.05	2588.63
406.24	2569.91
406.43	2621.40
406.62	2574.59
406.81	2658.85
407.00	2539.48
407.20	2539.48
407.39	2551.18
407.58	2789.92
407.77	2731.41
407.96	2656.51
408.15	2778.22
408.34	2689.28
408.54	2787.58
408.73	2654.17
408.92	2855.45
409.11	2878.86
409.30	2843.75
409.49	2855.45
409.68	2778.22
409.87	3038.02
410.07	2984.18
410.26	2942.05
410.45	2979.50
410.64	3096.53
410.83	3197.17
411.02	2993.55
411.21	3176.11
411.40	3178.45
411.59	3208.87
411.78	3052.06
411.98	3185.47
412.17	3258.03
412.36	3295.47
412.55	3346.97
412.74	3389.10
412.93	3447.61
413.12	3321.22
413.31	3684.00
413.50	3492.08
413.69	3520.17
413.88	3592.72
414.07	3574.00
414.26	3660.60
414.45	3730.81
414.64	3833.80
414.83	3679.32
415.02	3639.53
415.22	3852.52
415.41	3859.54
415.60	3700.39
415.79	3906.35
415.98	4042.11
416.17	4049.13
416.36	3922.74
416.55	3920.40
416.74	4016.36
416.93	4042.11
417.12	4084.23
417.31	4257.43
417.50	4208.28
417.69	4393.19
417.88	4311.27
418.07	4358.08
418.26	4301.90
418.45	4351.06
418.64	4695.11
418.83	4482.13
419.02	4416.59
419.21	4491.49
419.39	4517.23
419.58	4484.47
419.77	4482.13
419.96	4416.59
420.15	4720.86
420.34	4578.09
420.53	4617.88
420.72	4739.58
420.91	4753.63
421.10	4777.03
421.29	4873.00
421.48	4718.52
421.67	4821.50
421.86	4865.97
422.05	4844.91
422.24	4898.74
422.43	4943.21
422.61	4926.83
422.80	5060.24
422.99	5046.20
423.18	4863.63
423.37	4849.59
423.56	5001.72
423.75	5074.28
423.94	4842.57
424.13	4671.71
424.32	4835.55
424.50	4999.38
424.69	5149.18
424.88	5151.52
425.07	4990.02
425.26	4830.87
425.45	4933.85
425.64	5043.85
425.83	5043.85
426.01	5104.71
426.20	5114.07
426.39	5298.97
426.58	4975.98
426.77	5055.56
426.96	5214.71
427.15	5158.54
427.33	5242.80
427.52	5261.52
427.71	5310.68
427.90	5245.14
428.09	5350.46
428.28	5474.51
428.46	5284.93
428.65	5357.49
428.84	5650.05
429.03	5610.26
429.22	5366.85
429.40	5460.47
429.59	5493.24
429.78	5397.28
429.97	5362.17
430.16	5533.03
430.34	5537.71
430.53	5701.54
430.72	5729.63
430.91	5701.54
431.10	5706.23
431.28	5877.09
431.47	5905.17
431.66	5926.24
431.85	5769.42
432.03	5891.13
432.22	5923.90
432.41	5846.66
432.60	5851.34
432.79	5942.62
432.97	5994.11
433.16	5928.58
433.35	6031.56
433.54	6090.07
433.72	6253.91
433.91	6031.56
434.10	6214.12
434.28	6129.86
434.47	6225.82
434.66	6179.01
434.85	6370.94
435.03	6345.19
435.22	6228.17
435.41	6677.55
435.59	6438.81
435.78	6457.54
435.97	6361.58
436.16	6511.37
436.34	6392.00
436.53	6399.02
436.72	6574.56
436.90	6553.50
437.09	6675.21
437.28	6328.81
437.46	6619.04
437.65	6626.06
437.84	6745.42
438.02	6696.27
438.21	6707.98
438.40	6759.47
438.58	7082.46
438.77	7068.42
438.96	7094.16
439.14	7272.04
439.33	7276.73
439.52	7222.89
439.70	7365.67
439.89	7440.56
440.08	7307.15
440.26	7316.51
440.45	7353.96
440.63	7396.09
440.82	7693.34
441.01	7403.11
441.19	7562.27
441.38	7665.25
441.57	7889.95
441.75	7723.77
441.94	7983.57
442.12	8072.51
442.31	8236.35
442.50	7999.95
442.68	7889.95
442.87	8149.75
443.05	8114.64
443.24	8362.73
443.43	8049.10
443.61	8259.75
443.80	8535.93
443.98	8336.99
444.17	7894.63
444.35	8126.34
444.54	8430.61
444.73	8472.74
444.91	8374.44
445.10	8573.38
445.28	8442.31
445.47	8355.71
445.65	8351.03
445.84	8468.06
446.02	8528.91
446.21	8456.36
446.39	8432.95
446.58	8557.00
446.77	8425.93
446.95	8299.54
447.14	8540.61
447.32	8676.37
447.51	8386.14
447.69	8519.55
447.88	8510.19
448.06	8603.81
448.25	8730.20
448.43	8674.03
448.62	8741.90
448.80	8514.87
448.99	8559.34
449.17	8854.25
449.36	8748.92
449.54	8954.89
449.73	8837.86
449.91	9092.98
450.10	9057.87
450.28	9011.06
450.46	9165.54
450.65	8781.69
450.83	9247.46
451.02	9130.43
451.20	9151.49
451.39	9172.56
451.57	9324.69
451.76	8917.44
451.94	9144.47
452.13	9359.80
452.31	9329.38
452.49	9130.43
452.68	9371.50
452.86	9289.59
453.05	9650.03
453.23	9626.62
453.42	9324.69
453.60	9312.99
453.78	9549.39
453.97	9476.83
454.15	9631.30
454.34	9373.85
454.52	9577.47
454.70	9706.20
454.89	9846.63
455.07	9848.97
455.26	9877.06
455.44	9858.34
455.62	10125.16
455.81	10010.47
455.99	10134.52
456.17	10087.71
456.36	10153.24
456.54	10399.00
456.73	10462.19
456.91	10190.69
457.09	10483.26
457.28	10551.14
457.46	10368.57
457.64	10457.51
457.83	10286.65
458.01	10597.95
458.19	10867.11
458.38	10750.08
458.56	10761.78
458.74	10883.49
458.93	10846.04
459.11	10766.46
459.29	10611.99
459.48	10918.60
459.66	10696.25
459.84	10864.77
460.03	11002.86
460.21	11037.97
460.39	10939.66
460.57	11246.27
460.76	11239.25
460.94	11112.86
461.12	11236.91
461.31	11257.98
461.49	11302.45
461.67	11272.02
461.85	11653.53
462.04	11356.28
462.22	11810.34
462.40	11602.04
462.59	11370.32
462.77	11445.22
462.95	11665.23
463.13	11667.57
463.32	11693.32
463.50	11606.72
463.68	12006.95
463.86	11918.01
464.05	11595.01
464.23	11754.17
464.41	11819.71
464.59	11665.23
464.78	12159.08
464.96	12145.04
465.14	11950.78
465.32	12009.29
465.50	12222.28
465.69	12299.52
465.87	11915.67
466.05	12035.03
466.23	11864.18
466.41	12065.46
466.60	12554.63
466.78	12376.75
466.96	12500.80
467.14	12219.94
467.32	12587.40
467.51	12582.72
467.69	12147.38
467.87	12322.92
468.05	12461.01
468.23	12510.16
468.41	12659.96
468.60	12905.71
468.78	12964.23
468.96	12615.49
469.14	12926.78
469.32	12952.52
469.50	12816.77
469.69	13198.28
469.87	13331.69
470.05	13109.34
470.23	13362.12
470.41	13298.92
470.59	13385.52
470.77	13104.66
470.95	13397.23
471.14	13642.98
471.32	13135.09
471.50	13813.84
471.68	13748.31
471.86	13476.80
472.04	13844.27
472.22	14029.17
472.40	13745.97
472.58	13619.58
472.77	13973.00
472.95	14260.88
473.13	14654.09
473.31	14345.14
473.49	14200.03
473.67	14326.42
473.85	14668.14
474.03	14750.06
474.21	14817.93
474.39	14885.81
474.57	14780.48
474.75	14956.02
474.93	14871.76
475.12	14867.08
475.30	15133.90
475.48	14970.07
475.66	15316.47
475.84	14871.76
476.02	15510.73
476.20	15367.96
476.38	15583.29
476.56	16081.82
476.74	15859.47
476.92	15723.72
477.10	15789.25
477.28	16070.12
477.46	16290.13
477.64	16203.53
477.82	16650.57
478.00	17095.27
478.18	16847.18
478.36	16947.82
478.54	17387.84
478.72	17163.15
478.90	17429.97
479.08	17781.05
479.26	17626.57
479.44	17867.65
479.62	17841.90
479.80	18150.85
479.98	18270.22
480.16	18541.72
480.34	18366.18
480.52	18782.80
480.70	18707.90
480.88	18478.53
481.06	19019.19
481.24	18864.72
481.41	19257.93
481.59	19534.11
481.77	19634.75
481.95	19807.95
482.13	19894.55
482.31	19564.54
482.49	20418.83
482.67	20128.61
482.85	20449.26
483.03	20655.23
483.21	20851.83
483.39	21018.01
483.57	20577.99
483.74	21319.94
483.92	21151.42
484.10	21160.78
484.28	22066.57
484.46	22146.15
484.64	22368.50
484.82	22174.24
485.00	22675.11
485.18	22955.97
485.35	22981.72
485.53	22883.42
485.71	23262.58
485.89	23623.03
486.07	23372.59
486.25	23342.16
486.43	23892.19
486.61	23960.06
486.78	24011.56
486.96	24098.16
487.14	24526.47
487.32	24463.28
487.50	25001.60
487.68	24898.62
487.85	25273.10
488.03	25465.03
488.21	25663.97
488.39	26031.44
488.57	26223.36
488.75	26260.81
488.92	26373.16
489.10	26906.80
489.28	26298.26
489.46	27744.71
489.64	27435.76
489.81	27889.82
489.99	27718.96
490.17	27920.25
490.35	28720.71
490.53	28308.78
490.70	28512.41
490.88	28114.52
491.06	28671.56
491.24	28652.84
491.41	29303.51
491.59	29062.43
491.77	29427.56
491.95	29881.62
492.13	29851.19
492.30	30274.83
492.48	30052.48
492.66	30267.81
492.84	30511.22
493.01	30883.37
493.19	30934.86
493.37	31159.55
493.54	31351.48
493.72	31686.17
493.90	31800.86
494.08	31882.78
494.25	32177.68
494.43	32142.58
494.61	32767.50
494.79	32744.09
494.96	32863.46
495.14	32758.14
495.32	33397.10
495.49	33261.35
495.67	33256.67
495.85	33532.86
496.02	33977.56
496.20	34494.82
496.38	34209.27
496.55	33935.43
496.73	34967.60
496.91	34920.79
497.09	34934.84
497.26	35440.39
497.44	34983.99
497.62	35159.53
497.79	36245.54
497.97	35534.01
498.14	36156.60
498.32	36079.36
498.50	36582.57
498.67	36844.71
498.85	36547.47
499.03	36823.65
499.20	36952.38
499.38	37354.95
499.56	37010.89
499.73	37507.08
499.91	37893.27
500.08	37776.25
500.26	37553.90
500.44	37984.55
500.61	38075.84
500.79	38242.01
500.97	38827.15
501.14	38976.94
501.32	38457.34
501.49	38679.69
501.67	38703.10
501.84	39262.49
502.02	38976.94
502.20	39339.72
502.37	39147.80
502.55	39601.86
502.72	39721.23
502.90	39676.76
503.07	39660.38
503.25	40084.01
503.43	40074.65
503.60	40133.17
503.78	40751.07
503.95	40322.75
504.13	40978.10
504.30	40907.88
504.48	40645.74
504.65	40924.27
504.83	40769.79
505.01	41696.64
505.18	41588.98
505.36	41865.16
505.53	41600.68
505.71	41989.21
505.88	41890.91
506.06	41256.62
506.23	42403.49
506.41	41963.46
506.58	42117.94
506.76	42424.55
506.93	42927.77
507.11	42438.59
507.28	42782.65
507.46	42824.78
507.63	43117.35
507.81	43409.92
507.98	43033.09
508.16	43320.98
508.33	43817.17
508.50	43770.36
508.68	43849.94
508.85	44144.84
509.03	44144.84
509.20	44116.76
509.38	44678.49
509.55	44549.76
509.73	44470.18
509.90	45193.40
510.08	44741.68
510.25	44432.73
510.42	44748.70
510.60	44865.73
510.77	45563.21
510.95	45656.83
511.12	44924.24
511.30	45226.17
511.47	45368.94
511.64	45825.35
511.82	45965.78
511.99	46188.13
512.17	45902.59
512.34	46286.43
512.51	46920.72
512.69	46820.08
512.86	47058.81
513.04	47150.09
513.21	47201.58
513.38	46817.74
513.56	47096.26
513.73	46981.57
513.90	47461.38
514.08	46944.12
514.25	47400.53
514.43	47681.39
514.60	47831.19
514.77	47283.50
514.95	47693.10
515.12	47973.96
515.29	47878.00
515.47	48215.04
515.64	48219.72
515.81	48383.55
515.99	48594.20
516.16	48294.61
516.33	48418.66
516.51	49027.20
516.68	48793.15
516.85	49055.29
517.03	48877.41
517.20	49008.48
517.37	48872.73
517.54	49216.78
517.72	49279.98
517.89	49233.17
518.06	49308.07
518.24	49160.61
518.41	49214.44
518.58	49907.24
518.75	49446.16
518.93	50108.53
519.10	50129.59
519.27	50033.63
519.45	49818.30
519.62	50064.06
519.79	49947.03
519.96	50145.98
520.14	50398.76
520.31	50227.90
520.48	50494.72
520.65	50461.95
520.83	50567.27
521.00	50726.43
521.17	50878.57
521.34	50752.18
521.52	51084.53
521.69	51014.32
521.86	51021.34
522.03	51026.02
522.20	51622.86
522.38	51697.75
522.55	51545.62
522.72	51463.70
522.89	51231.99
523.07	51480.08
523.24	51529.23
523.41	51721.16
523.58	51625.20
523.75	52083.94
523.92	51573.70
524.10	52130.75
524.27	51987.98
524.44	52325.02
524.61	52528.64
524.78	52556.73
524.96	52498.22
525.13	52102.67
525.30	52528.64
525.47	52807.17
525.64	52692.48
525.81	52718.23
525.98	52753.33
526.16	52776.74
526.33	53052.92
526.50	53333.79
526.67	53181.65
526.84	53179.31
527.01	53006.11
527.18	52987.39
527.36	53375.92
527.53	53205.06
527.70	53558.48
527.87	53324.43
528.04	53127.82
528.21	53242.51
528.38	53626.35
528.55	53886.15
528.72	53511.67
528.89	53352.51
529.07	53659.12
529.24	53612.31
529.41	53820.62
529.58	53818.28
529.75	53727.00
529.92	53993.82
530.09	53834.66
530.26	54054.67
530.43	53794.87
530.60	53811.26
530.77	53963.39
530.94	54375.33
531.11	54265.32
531.28	54618.74
531.46	54408.09
531.63	54391.71
531.80	54232.55
531.97	54628.10
532.14	54588.31
532.31	54527.46
532.48	54457.24
532.65	55009.61
532.82	54794.28
532.99	54780.24
533.16	54738.11
533.33	54838.75
533.50	55056.42
533.67	55023.65
533.84	54836.41
534.01	55147.70
534.18	55077.49
534.35	55391.12
534.52	55098.55
534.69	55274.09
534.86	55152.38
535.03	55271.75
535.20	55519.85
535.37	55283.45
535.54	55627.51
535.71	55246.00
535.88	55557.30
536.05	55407.50
536.22	55725.81
536.38	55709.43
536.55	55870.93
536.72	55594.74
536.89	55777.31
537.06	55671.98
537.23	55849.86
537.40	55819.44
537.57	55594.74
537.74	55866.25
537.91	56353.08
538.08	56076.90
538.25	55838.16
538.42	55950.51
538.59	56261.80
538.75	56114.34
538.92	56308.61
539.09	56418.61
539.26	56317.97
539.43	56385.85
539.60	56168.18
539.77	56189.24
539.94	56451.38
540.11	56498.19
540.28	56655.01
540.44	56795.44
540.61	56718.20
540.78	56566.07
540.95	56355.42
541.12	56332.01
541.29	56669.05
541.46	56830.55
541.62	56790.76
541.79	56697.14
541.96	56638.62
542.13	56537.98
542.30	56825.87
542.47	57116.09
542.63	57043.54
542.80	57064.60
542.97	57249.50
543.14	57350.15
543.31	57076.30
543.48	57167.58
543.64	57396.96
543.81	57530.37
543.98	57326.74
544.15	57544.41
544.32	57551.43
544.48	57717.61
544.65	57293.97
544.82	57647.39
544.99	57462.49
545.16	57649.74
545.32	57382.91
545.49	57832.30
545.66	57652.08
545.83	57621.65
546.00	57722.29
546.16	57577.18
546.33	57677.82
546.50	57614.63
546.67	57677.82
546.83	57546.75
547.00	57841.66
547.17	57731.65
547.34	57869.75
547.50	58174.02
547.67	58176.36
547.84	58176.36
548.00	58251.25
548.17	58398.71
548.34	58099.12
548.51	58478.28
548.67	58501.69
548.84	58344.87
549.01	58064.01
549.18	58363.60
549.34	58293.38
549.51	58485.31
549.68	58597.65
549.84	58408.07
550.01	58506.37
550.18	58515.73
550.34	58489.99
550.51	58614.04
550.68	58508.71
550.84	58368.28
551.01	58791.92
551.18	58557.86
551.34	58679.57
551.51	58752.13
551.68	58651.48
551.84	58604.67
552.01	58595.31
552.18	58721.70
552.34	58511.05
552.51	58834.05
552.68	58695.95
552.84	58754.47
553.01	58997.88
553.18	59159.38
553.34	58855.11
553.51	59105.55
553.67	58845.75
553.84	59344.28
554.01	58908.94
554.17	59157.04
554.34	59154.70
554.51	59147.68
554.67	59114.91
554.84	59245.98
555.00	59150.02
555.17	58974.48
555.33	59065.76
555.50	59096.19
555.67	58972.14
555.83	59290.45
556.00	59414.50
556.16	59491.74
556.33	59428.54
556.50	59440.24
556.66	59423.86
556.83	59306.83
556.99	59407.48
557.16	59629.83
557.32	59540.89
557.49	59643.87
557.65	59611.10
557.82	59552.59
557.98	59648.55
558.15	59643.87
558.32	59550.25
558.48	59475.35
558.65	59686.00
558.81	59552.59
558.98	59723.45
559.14	59896.65
559.31	59901.33
559.47	59847.50
559.64	59976.23
559.80	59749.20
559.97	59842.82
560.13	59634.51
560.30	59760.90
560.46	59852.18
560.63	59920.05
560.79	59938.78
560.96	60116.66
561.12	59873.24
561.29	59936.44
561.45	59835.80
561.61	59856.86
561.78	59957.50
561.94	59887.29
562.11	59924.74
562.27	60119.00
562.44	59985.59
562.60	60025.38
562.77	60144.75
562.93	59863.88
563.10	60170.49
563.26	60102.62
563.42	60168.15
563.59	60360.08
563.75	60191.56
563.92	60144.75
564.08	60177.51
564.24	60327.31
564.41	60327.31
564.57	60378.80
564.74	60177.51
564.90	60229.01
565.07	60189.22
565.23	60102.62
565.39	60331.99
565.56	60378.80
565.72	60236.03
565.88	60467.74
566.05	60079.21
566.21	60367.10
566.38	60395.18
566.54	60463.06
566.70	60449.02
566.87	60479.44
567.03	60203.26
567.19	60587.11
567.36	60411.57
567.52	60491.15
567.68	60776.69
567.85	60350.71
568.01	60493.49
568.17	60420.93
568.34	60409.23
568.50	60669.03
568.66	60252.41
568.83	60509.87
568.99	60479.44
569.15	60626.90
569.32	60523.91
569.48	60587.11
569.64	60514.55
569.81	60650.30
569.97	60502.85
570.13	60601.15
570.30	60697.11
570.46	60561.36
570.62	60697.11
570.78	60566.04
570.95	60367.10
571.11	60743.92
571.27	60596.47
571.43	60523.91
571.60	60734.56
571.76	60587.11
571.92	60853.93
572.09	60736.90
572.25	60645.62
572.41	60629.24
572.57	60842.23
572.74	60884.36
572.90	60746.26
573.06	60797.76
573.22	60605.83
573.38	60706.47
573.55	60678.39
573.71	60966.27
573.87	60526.25
574.03	60776.69
574.20	60907.76
574.36	60736.90
574.52	60753.29
574.68	60926.49
574.84	61071.60
575.01	60860.95
575.17	60804.78
575.33	60851.59
575.49	60713.50
575.65	60779.03
575.82	60987.34
575.98	61008.40
576.14	61207.35
576.30	60912.44
576.46	60924.14
576.62	60975.64
576.79	60898.40
576.95	60802.44
577.11	60987.34
577.27	61132.45
577.43	60966.27
577.59	60886.70
577.75	60870.31
577.92	60926.49
578.08	60919.46
578.24	60762.65
578.40	61200.33
578.56	61050.53
578.72	61027.13
578.88	60977.98
579.04	61162.88
579.21	61024.79
579.37	61219.05
579.53	61193.31
579.69	60643.28
579.85	61029.47
580.01	61052.87
580.17	60912.44
580.33	60994.36
580.49	61132.45
580.65	61010.74
580.82	61003.72
580.98	60870.31
581.14	60893.72
581.30	61099.68
581.46	61027.13
581.62	61085.64
581.78	60982.66
581.94	61087.98
582.10	61111.39
582.26	60982.66
582.42	61064.58
582.58	61130.11
582.74	60849.25
582.90	61223.73
583.06	61153.52
583.22	60942.87
583.38	61064.58
583.54	61102.03
583.70	61116.07
583.86	61132.45
584.02	60935.85
584.18	61160.54
584.34	61319.70
584.50	61244.80
584.66	61064.58
584.82	60842.23
584.98	61146.50
585.14	61326.72
585.30	60900.74
585.46	61059.90
585.62	61307.99
585.78	61179.26
585.94	61071.60
586.10	61097.34
586.26	61258.84
586.42	61036.49
586.58	61340.76
586.74	60992.02
586.90	61010.74
587.06	61059.90
587.22	61422.68
587.38	61078.62
587.54	61359.48
587.70	61329.06
587.86	61202.67
588.02	61059.90
588.18	61315.01
588.34	61078.62
588.49	61134.79
