SpectraSuite Data File
++++++++++++++++++++++++++++++++++++
Date: Fri Oct 25 11:26:18 EDT 2013
User: price-jones
Dark Spectrum Present: No
Reference Spectrum Present: No
Number of Sampled Component Spectra: 1
Spectrometers: USB2+H05261
Integration Time (usec): 100000 (USB2+H05261)
Spectra Averaged: 1 (USB2+H05261)
Boxcar Smoothing: 0 (USB2+H05261)
Correct for Electrical Dark: No (USB2+H05261)
Strobe/Lamp Enabled: No (USB2+H05261)
Correct for Detector Non-linearity: No (USB2+H05261)
Correct for Stray Light: No (USB2+H05261)
Number of Pixels in Processed Spectrum: 2048
>>>>>Begin Processed Spectral Data<<<<<
365.73	294.91
365.92	294.91
366.12	294.91
366.32	102.98
366.52	152.13
366.72	163.84
366.91	135.75
367.11	117.03
367.31	112.35
367.51	121.71
367.70	191.92
367.90	138.09
368.10	147.45
368.30	170.86
368.49	39.79
368.69	163.84
368.89	152.13
369.09	124.05
369.28	140.43
369.48	231.71
369.68	184.90
369.87	217.67
370.07	149.79
370.27	278.52
370.47	365.12
370.66	638.97
370.86	655.35
371.06	613.22
371.25	734.93
371.45	678.76
371.65	660.03
371.84	671.73
372.04	744.29
372.24	713.86
372.44	765.36
372.63	751.31
372.83	819.19
373.03	800.46
373.22	847.27
373.42	765.36
373.62	819.19
373.81	840.25
374.01	854.30
374.21	805.14
374.40	833.23
374.60	861.32
374.79	788.76
374.99	854.30
375.19	875.36
375.38	882.38
375.58	826.21
375.78	837.91
375.97	919.83
376.17	936.21
376.37	882.38
376.56	870.68
376.76	887.06
376.95	873.02
377.15	849.61
377.35	926.85
377.54	919.83
377.74	894.08
377.93	943.24
378.13	990.05
378.33	938.55
378.52	903.45
378.72	931.53
378.91	1008.77
379.11	922.17
379.31	926.85
379.50	1011.11
379.70	1004.09
379.89	1001.75
380.09	1029.84
380.28	968.98
380.48	961.96
380.68	968.98
380.87	917.49
381.07	901.11
381.26	1034.52
381.46	1004.09
381.65	1078.99
381.85	1088.35
382.04	1090.69
382.24	1048.56
382.43	1167.93
382.63	1074.31
382.83	1076.65
383.02	1207.72
383.22	1135.16
383.41	994.73
383.61	1055.58
383.80	1135.16
384.00	1200.69
384.19	1139.84
384.39	1214.74
384.58	1137.50
384.78	1097.71
384.97	1057.92
385.17	1177.29
385.36	1142.18
385.56	1203.04
385.75	1074.31
385.95	1214.74
386.14	1076.65
386.34	1210.06
386.53	1139.84
386.72	1219.42
386.92	1284.95
387.11	1336.45
387.31	1303.68
387.50	1224.10
387.70	1259.21
387.89	1306.02
388.09	1303.68
388.28	1313.04
388.48	1217.08
388.67	1383.26
388.86	1310.70
389.06	1364.53
389.25	1409.00
389.45	1364.53
389.64	1387.94
389.84	1357.51
390.03	1418.36
390.22	1399.64
390.42	1380.92
390.61	1399.64
390.81	1376.24
391.00	1364.53
391.19	1455.81
391.39	1448.79
391.58	1439.43
391.78	1474.54
391.97	1561.14
392.16	1432.41
392.36	1586.88
392.55	1533.05
392.75	1561.14
392.94	1544.75
393.13	1497.94
393.33	1554.12
393.52	1582.20
393.71	1638.38
393.91	1563.48
394.10	1540.07
394.29	1614.97
394.49	1586.88
394.68	1591.56
394.88	1666.46
395.07	1657.10
395.26	1675.82
395.46	1579.86
395.65	1591.56
395.84	1781.15
396.04	1778.81
396.23	1701.57
396.42	1753.06
396.62	1795.19
396.81	1724.97
397.00	1853.70
397.19	1778.81
397.39	1844.34
397.58	1813.92
397.77	1849.02
397.97	1785.83
398.16	1760.08
398.35	1865.41
398.55	1827.96
398.74	1914.56
398.93	1884.13
399.12	1898.17
399.32	1886.47
399.51	1902.86
399.70	2087.76
399.90	1930.94
400.09	2064.35
400.28	2043.29
400.47	1966.05
400.67	1998.82
400.86	2054.99
401.05	2029.24
401.24	2106.48
401.44	2022.22
401.63	2141.59
401.82	2134.57
402.01	2165.00
402.21	2207.13
402.40	2118.18
402.59	2160.31
402.78	2139.25
402.97	2221.17
403.17	2260.96
403.36	2279.68
403.55	2256.28
403.74	2235.21
403.93	2331.17
404.13	2385.01
404.32	2401.39
404.51	2408.41
404.70	2410.75
404.89	2413.09
405.09	2443.52
405.28	2450.54
405.47	2422.45
405.66	2389.69
405.85	2497.35
406.05	2511.39
406.24	2537.14
406.43	2588.63
406.62	2626.08
406.81	2647.15
407.00	2616.72
407.20	2553.52
407.39	2619.06
407.58	2576.93
407.77	2766.51
407.96	2836.73
408.15	2808.64
408.34	2715.02
408.54	2846.09
408.73	2850.77
408.92	2895.24
409.11	2958.44
409.30	2768.85
409.49	2925.67
409.68	2998.23
409.87	2920.99
410.07	2977.16
410.26	2995.89
410.45	2998.23
410.64	3152.70
410.83	3045.04
411.02	3208.87
411.21	3171.43
411.40	3148.02
411.59	3185.47
411.78	3176.11
411.98	3171.43
412.17	3358.67
412.36	3236.96
412.55	3274.41
412.74	3454.63
412.93	3262.71
413.12	3316.54
413.31	3529.53
413.50	3372.71
413.69	3405.48
413.88	3501.44
414.07	3545.91
414.26	3609.11
414.45	3658.26
414.64	3595.06
414.83	3723.79
415.02	3716.77
415.22	3822.09
415.41	3873.59
415.60	3857.20
415.79	3857.20
415.98	3920.40
416.17	3999.98
416.36	3765.92
416.55	3920.40
416.74	4060.83
416.93	3978.91
417.12	4109.98
417.31	4074.87
417.50	4243.39
417.69	4299.56
417.88	4201.26
418.07	4297.22
418.26	4278.50
418.45	4421.27
418.64	4507.87
418.83	4376.80
419.02	4411.91
419.21	4535.96
419.39	4437.66
419.58	4435.32
419.77	4447.02
419.96	4585.11
420.15	4557.02
420.34	4564.04
420.53	4622.56
420.72	4713.84
420.91	4762.99
421.10	4629.58
421.29	4786.40
421.48	4765.33
421.67	4802.78
421.86	4767.67
422.05	4765.33
422.24	4767.67
422.43	4830.87
422.61	4844.91
422.80	5041.51
422.99	4964.28
423.18	4875.34
423.37	5011.09
423.56	4952.57
423.75	4929.17
423.94	4858.95
424.13	4592.13
424.32	4791.08
424.50	4997.04
424.69	5011.09
424.88	4971.30
425.07	5128.11
425.26	4910.44
425.45	4919.81
425.64	4933.85
425.83	4983.00
426.01	4968.96
426.20	4933.85
426.39	5020.45
426.58	5025.13
426.77	5020.45
426.96	5188.97
427.15	5181.95
427.33	5256.84
427.52	5022.79
427.71	5137.48
427.90	5296.63
428.09	5411.32
428.28	5338.76
428.46	5329.40
428.65	5303.65
428.84	5500.26
429.03	5472.17
429.22	5303.65
429.40	5420.68
429.59	5483.88
429.78	5341.10
429.97	5167.90
430.16	5537.71
430.34	5561.11
430.53	5671.12
430.72	5558.77
430.91	5516.64
431.10	5717.93
431.28	5657.07
431.47	5736.65
431.66	5645.37
431.85	5582.18
432.03	5724.95
432.22	5856.02
432.41	5888.79
432.60	5849.00
432.79	5966.03
432.97	6017.52
433.16	5849.00
433.35	5987.09
433.54	6033.90
433.72	6106.46
433.91	6015.18
434.10	6125.18
434.28	6143.91
434.47	6202.42
434.66	6335.83
434.85	6211.78
435.03	6466.90
435.22	6188.38
435.41	6377.96
435.59	6258.59
435.78	6335.83
435.97	6569.88
436.16	6492.65
436.34	6499.67
436.53	6478.60
436.72	6689.25
436.90	6574.56
437.09	6565.20
437.28	6551.16
437.46	6565.20
437.65	6511.37
437.84	6757.13
438.02	6656.48
438.21	6698.61
438.40	6530.09
438.58	6902.24
438.77	7066.08
438.96	7026.29
439.14	7157.36
439.33	7185.44
439.52	6993.52
439.70	7101.19
439.89	7510.78
440.08	7258.00
440.26	7286.09
440.45	7274.38
440.63	7358.64
440.82	7480.35
441.01	7625.47
441.19	7562.27
441.38	7721.43
441.57	7639.51
441.75	7515.46
441.94	7964.84
442.12	7971.86
442.31	7953.14
442.50	7988.25
442.68	7985.91
442.87	8095.91
443.05	8107.62
443.24	8161.45
443.43	8121.66
443.61	8259.75
443.80	8393.16
443.98	7843.14
444.17	7908.67
444.35	8049.10
444.54	8280.82
444.73	8035.06
444.91	8269.11
445.10	8322.94
445.28	8311.24
445.47	8442.31
445.65	8320.60
445.84	8475.08
446.02	8416.57
446.21	8472.74
446.39	8439.97
446.58	8571.04
446.77	8622.53
446.95	8222.30
447.14	8477.42
447.32	8407.20
447.51	8484.44
447.69	8383.80
447.88	8479.76
448.06	8547.64
448.25	8613.17
448.43	8587.43
448.62	8603.81
448.80	8634.24
448.99	8540.61
449.17	8428.27
449.36	8737.22
449.54	8603.81
449.73	8915.10
449.91	8901.06
450.10	8901.06
450.28	8851.91
450.46	9102.34
450.65	8952.55
450.83	9001.70
451.02	8872.97
451.20	9228.73
451.39	9078.94
451.57	9226.39
451.76	9064.89
451.94	9165.54
452.13	9287.25
452.31	9263.84
452.49	9231.07
452.68	9362.14
452.86	9298.95
453.05	9301.29
453.23	9287.25
453.42	9198.31
453.60	9198.31
453.78	9343.42
453.97	9373.85
454.15	9472.15
454.34	9406.61
454.52	9633.64
454.70	9565.77
454.89	9781.10
455.07	9905.15
455.26	9643.01
455.44	10113.45
455.62	9666.41
455.81	9734.29
455.99	10024.51
456.17	10239.84
456.36	9989.41
456.54	10068.98
456.73	10183.67
456.91	10485.60
457.09	10307.72
457.28	10485.60
457.46	10377.94
457.64	10335.81
457.83	10408.36
458.01	10363.89
458.19	10429.43
458.38	10490.28
458.56	10696.25
458.74	10719.65
458.93	10506.66
459.11	10670.50
459.29	10464.54
459.48	10651.78
459.66	10757.10
459.84	10836.68
460.03	11059.03
460.21	10995.84
460.39	10794.55
460.57	10953.71
460.76	10904.56
460.94	11248.61
461.12	11213.51
461.31	11152.65
461.49	10871.79
461.67	10981.79
461.85	11349.26
462.04	11412.45
462.22	11686.29
462.40	11417.13
462.59	11414.79
462.77	11501.39
462.95	11477.99
463.13	11293.08
463.32	11578.63
463.50	11707.36
463.68	11864.18
463.86	11798.64
464.05	11466.28
464.23	11723.74
464.41	11616.08
464.59	11815.02
464.78	12173.13
464.96	11878.22
465.14	11747.15
465.32	12219.94
465.50	12060.78
465.69	11908.65
465.87	12049.08
466.05	11983.54
466.23	12030.35
466.41	12175.47
466.60	12212.92
466.78	12245.68
466.96	12088.87
467.14	12241.00
467.32	12493.78
467.51	12486.76
467.69	12114.61
467.87	12149.72
468.05	12589.74
468.23	12009.29
468.41	12231.64
468.60	12713.79
468.78	12599.10
468.96	12744.22
469.14	12753.58
469.32	13041.46
469.50	12435.27
469.69	12709.11
469.87	13165.51
470.05	13078.91
470.23	13151.47
470.41	13001.68
470.59	13343.39
470.77	13322.33
470.95	13273.18
471.14	13570.43
471.32	13195.94
471.50	13458.08
471.68	13432.33
471.86	13769.37
472.04	13584.47
472.22	13799.80
472.40	13612.56
472.58	13804.48
472.77	13991.72
472.95	13968.32
473.13	14101.73
473.31	14207.05
473.49	14071.30
473.67	14225.78
473.85	14300.67
474.03	14581.54
474.21	14478.55
474.39	14684.52
474.57	14656.43
474.75	14794.53
474.93	14902.19
475.12	14815.59
475.30	15101.14
475.48	14956.02
475.66	15091.77
475.84	15164.33
476.02	15597.33
476.20	15279.02
476.38	15695.63
476.56	15878.19
476.74	16123.95
476.92	15887.56
477.10	15765.85
477.28	16018.63
477.46	16100.55
477.64	16233.96
477.82	16685.68
478.00	17095.27
478.18	16547.59
478.36	16809.73
478.54	16985.27
478.72	17055.48
478.90	17055.48
479.08	17511.89
479.26	17441.67
479.44	17549.34
479.62	17755.30
479.80	18082.98
479.98	18043.19
480.16	18478.53
480.34	18031.49
480.52	18272.56
480.70	18574.49
480.88	18324.05
481.06	18682.16
481.24	18640.03
481.41	18724.29
481.59	19276.65
481.77	19639.44
481.95	19201.76
482.13	19564.54
482.31	19597.31
482.49	20140.31
482.67	20044.35
482.85	20435.22
483.03	20592.03
483.21	20692.68
483.39	20950.14
483.57	20404.79
483.74	21268.45
483.92	21275.47
484.10	21120.99
484.28	21446.33
484.46	21942.52
484.64	22221.05
484.82	22057.21
485.00	22118.06
485.18	22726.60
485.35	22625.96
485.53	22834.27
485.71	22885.76
485.89	23721.33
486.07	22841.29
486.25	23262.58
486.43	23538.77
486.61	23779.84
486.78	23814.95
486.96	23969.43
487.14	24538.18
487.32	24634.14
487.50	24844.79
487.68	24783.93
487.85	24751.17
488.03	25319.92
488.21	25605.46
488.39	25862.92
488.57	25673.34
488.75	26045.48
488.92	26071.23
489.10	26455.08
489.28	26684.45
489.46	27096.38
489.64	26913.82
489.81	27632.36
489.99	27236.81
490.17	28048.98
490.35	28025.57
490.53	28116.86
490.70	28418.78
490.88	28393.04
491.06	28662.20
491.24	28819.02
491.41	28989.88
491.59	29095.20
491.77	29298.83
491.95	29617.14
492.13	29514.16
492.30	30047.80
492.48	29607.78
492.66	30160.14
492.84	29989.28
493.01	30682.08
493.19	30323.98
493.37	30785.07
493.54	30941.88
493.72	31639.36
493.90	31426.37
494.08	31468.50
494.25	32156.62
494.43	31796.18
494.61	31952.99
494.79	32400.04
494.96	32479.61
495.14	32423.44
495.32	33244.97
495.49	32718.35
495.67	33113.90
495.85	33406.47
496.02	33504.77
496.20	33806.70
496.38	34417.58
496.55	33675.63
496.73	34476.09
496.91	34349.70
497.09	34476.09
497.26	34473.75
497.44	34597.80
497.62	34981.65
497.79	35637.00
497.97	35442.73
498.14	35548.06
498.32	35943.61
498.50	35910.84
498.67	36531.08
498.85	35985.74
499.03	36325.11
499.20	36678.54
499.38	36624.70
499.56	36594.28
499.73	36802.58
499.91	36982.80
500.08	37436.87
500.26	37427.51
500.44	37254.31
500.61	37766.88
500.79	37614.75
500.97	37801.99
501.14	38431.60
501.32	38256.06
501.49	37954.13
501.67	38618.84
501.84	38696.08
502.02	38459.68
502.20	38848.21
502.37	39234.40
502.55	38948.85
502.72	39468.45
502.90	39189.93
503.07	39206.31
503.25	39227.38
503.43	39438.03
503.60	39728.25
503.78	39952.94
503.95	39845.28
504.13	40133.17
504.30	40605.95
504.48	40596.59
504.65	40332.11
504.83	40730.00
505.01	40844.69
505.18	41247.26
505.36	41656.85
505.53	41041.29
505.71	41256.62
505.88	41612.38
506.06	41696.64
506.23	41933.04
506.41	41610.04
506.58	41993.89
506.76	41881.55
506.93	42361.36
507.11	42167.09
507.28	41865.16
507.46	42085.17
507.63	42433.91
507.81	43295.23
507.98	42351.99
508.16	43119.69
508.33	43423.96
508.50	43161.82
508.68	43655.67
508.85	43421.62
509.03	43672.06
509.20	43716.53
509.38	43908.45
509.55	44053.56
509.73	44528.69
509.90	44348.47
510.08	44720.62
510.25	44631.68
510.42	44467.84
510.60	44945.31
510.77	44683.17
510.95	45036.59
511.12	44795.51
511.30	44779.13
511.47	45705.98
511.64	45558.53
511.82	45544.48
511.99	45460.23
512.17	45778.54
512.34	45696.62
512.51	46043.02
512.69	46394.10
512.86	46197.49
513.04	46571.98
513.21	46335.59
513.38	46670.28
513.56	46763.90
513.73	46794.33
513.90	47091.58
514.08	46490.06
514.25	47068.17
514.43	46845.82
514.60	47384.15
514.77	46932.42
514.95	47416.91
515.12	47337.33
515.29	47452.02
515.47	47686.07
515.64	47824.17
515.81	47688.42
515.99	47875.66
516.16	48296.95
516.33	48229.08
516.51	48725.27
516.68	48451.43
516.85	48362.49
517.03	48872.73
517.20	48736.98
517.37	48769.74
517.54	48718.25
517.72	48652.72
517.89	48767.40
518.06	49104.44
518.24	49041.24
518.41	49050.61
518.58	49029.54
518.75	49013.16
518.93	49228.49
519.10	48980.39
519.27	49504.67
519.45	49610.00
519.62	49469.56
519.79	49626.38
519.96	49867.45
520.14	49677.87
520.31	49668.51
520.48	50174.06
520.65	50103.85
520.83	50064.06
521.00	50148.32
521.17	50424.50
521.34	50684.30
521.52	50380.03
521.69	50733.45
521.86	50944.10
522.03	51131.34
522.20	51164.11
522.38	51011.98
522.55	50997.93
522.72	51234.33
522.89	51030.70
523.07	51320.93
523.24	51248.37
523.41	51662.64
523.58	51250.71
523.75	51672.01
523.92	51728.18
524.10	51936.49
524.27	51861.59
524.44	51753.93
524.61	52238.42
524.78	52062.88
524.96	52025.43
525.13	51840.53
525.30	52346.08
525.47	52493.54
525.64	51894.36
525.81	52236.08
525.98	52608.22
526.16	52191.61
526.33	52556.73
526.50	52748.65
526.67	52535.66
526.84	52900.79
527.01	52549.71
527.18	52870.36
527.36	52545.03
527.53	53055.26
527.70	53057.60
527.87	53216.76
528.04	53242.51
528.21	53364.21
528.38	53242.51
528.55	53483.58
528.72	53251.87
528.89	53258.89
529.07	53195.70
529.24	53581.88
529.41	53518.69
529.58	53609.97
529.75	53359.53
529.92	53230.80
530.09	53806.58
530.26	53804.24
530.43	53902.54
530.60	53378.26
530.77	53666.14
530.94	53801.89
531.11	53570.18
531.28	54162.34
531.46	53911.90
531.63	54045.31
531.80	54108.50
531.97	54494.69
532.14	54361.28
532.31	54340.22
532.48	54192.76
532.65	54380.01
532.82	54403.41
532.99	54703.00
533.16	54211.49
533.33	54574.27
533.50	54798.96
533.67	54635.13
533.84	54536.82
534.01	54607.04
534.18	54848.11
534.35	54934.71
534.52	54862.16
534.69	54759.17
534.86	55323.24
535.03	54951.10
535.20	55086.85
535.37	55117.28
535.54	55152.38
535.71	54976.84
535.88	55348.99
536.05	55168.77
536.22	55243.66
536.38	55437.93
536.55	55557.30
536.72	55466.02
536.89	55224.94
537.06	55496.44
537.23	55730.50
537.40	55454.31
537.57	55585.38
537.74	55641.56
537.91	55903.70
538.08	55805.39
538.25	55566.66
538.42	55580.70
538.59	55896.67
538.75	55557.30
538.92	55976.25
539.09	55842.84
539.26	55943.48
539.43	56072.21
539.60	56076.90
539.77	56069.87
539.94	56299.25
540.11	56273.50
540.28	56332.01
540.44	56250.09
540.61	56348.40
540.78	56364.78
540.95	56193.92
541.12	56493.51
541.29	56364.78
541.46	56617.56
541.62	56444.36
541.79	56587.13
541.96	56339.04
542.13	56507.55
542.30	56624.58
542.47	56818.84
542.63	56779.06
542.80	56772.03
542.97	57015.45
543.14	57237.80
543.31	56956.94
543.48	56924.17
543.64	57371.21
543.81	57212.06
543.98	57092.69
544.15	57284.61
544.32	57251.84
544.48	57502.28
544.65	57116.09
544.82	57462.49
544.99	57064.60
545.16	57411.00
545.32	57137.16
545.49	57647.39
545.66	57764.42
545.83	57570.16
546.00	57724.63
546.16	57411.00
546.33	57418.02
546.50	57169.93
546.67	57666.12
546.83	57315.04
547.00	57389.94
547.17	57535.05
547.34	57595.90
547.50	57729.31
547.67	58071.03
547.84	57979.75
548.00	58019.54
548.17	58234.87
548.34	57968.05
548.51	58120.18
548.67	58115.50
548.84	57879.11
549.01	57879.11
549.18	57996.13
549.34	58073.37
549.51	58192.74
549.68	58225.51
549.84	58379.98
550.01	58152.95
550.18	58148.27
550.34	58328.49
550.51	58522.76
550.68	58384.66
550.84	58028.90
551.01	58356.58
551.18	58457.22
551.34	58396.37
551.51	58550.84
551.68	58274.66
551.84	58330.83
552.01	58504.03
552.18	58667.87
552.34	58426.79
552.51	58602.33
552.68	58497.01
552.84	58756.81
553.01	58721.70
553.18	58845.75
553.34	58688.93
553.51	58763.83
553.67	58618.72
553.84	58857.45
554.01	58798.94
554.17	58958.09
554.34	58915.96
554.51	59028.31
554.67	58941.71
554.84	58915.96
555.00	58848.09
555.17	58953.41
555.33	58922.99
555.50	59000.22
555.67	58857.45
555.83	59037.67
556.00	59063.42
556.16	59222.58
556.33	59283.43
556.50	59089.16
556.66	59175.76
556.83	59117.25
556.99	59430.88
557.16	59458.97
557.32	59323.22
557.49	59402.80
557.65	59271.73
557.82	59189.81
557.98	59344.28
558.15	59510.46
558.32	59323.22
558.48	59203.85
558.65	59372.37
558.81	59346.62
558.98	59281.09
559.14	59395.77
559.31	59498.76
559.47	59430.88
559.64	59536.21
559.80	59887.29
559.97	59618.13
560.13	59302.15
560.30	59629.83
560.46	59678.98
560.63	59430.88
560.79	59468.33
560.96	59639.19
561.12	59835.80
561.29	59707.07
561.45	59819.41
561.61	59620.47
561.78	59653.23
561.94	59742.17
562.11	59611.10
562.27	59735.15
562.44	59767.92
562.60	59807.71
562.77	59948.14
562.93	59887.29
563.10	60135.38
563.26	59634.51
563.42	60009.00
563.59	59817.07
563.75	59976.23
563.92	60109.64
564.08	59889.63
564.24	60048.78
564.41	59929.42
564.57	60280.50
564.74	59941.12
564.90	59992.61
565.07	60062.83
565.23	60083.89
565.39	60044.10
565.56	59983.25
565.72	60032.40
565.88	60079.21
566.05	60081.55
566.21	59941.12
566.38	60109.64
566.54	60233.69
566.70	60374.12
566.87	60313.26
567.03	59910.69
567.19	60486.46
567.36	60205.60
567.52	60065.17
567.68	60360.08
567.85	60135.38
568.01	60310.92
568.17	60233.69
568.34	60367.10
568.50	60018.36
568.66	60161.13
568.83	60327.31
568.99	60172.83
569.15	60360.08
569.32	60193.90
569.48	60079.21
569.64	60610.51
569.81	60341.35
569.97	60186.88
570.13	60334.33
570.30	60093.25
570.46	60343.69
570.62	60353.05
570.78	60339.01
570.95	60374.12
571.11	60507.53
571.27	60528.59
571.43	60388.16
571.60	60418.59
571.76	60453.70
571.92	60547.32
572.09	60458.38
572.25	60369.44
572.41	60507.53
572.57	60654.98
572.74	60767.33
572.90	60266.45
573.06	60596.47
573.22	60472.42
573.38	60699.45
573.55	60327.31
573.71	60467.74
573.87	60722.86
574.03	60575.40
574.20	60589.45
574.36	60580.09
574.52	60736.90
574.68	60488.80
574.84	60573.06
575.01	60528.59
575.17	60498.17
575.33	60589.45
575.49	60526.25
575.65	60725.20
575.82	60591.79
575.98	60711.16
576.14	60692.43
576.30	60818.82
576.46	60509.87
576.62	60694.77
576.79	60631.58
576.95	60736.90
577.11	60748.60
577.27	60654.98
577.43	60549.66
577.59	60715.84
577.75	60788.39
577.92	60484.12
578.08	60591.79
578.24	60966.27
578.40	61034.15
578.56	60935.85
578.72	60741.58
578.88	60753.29
579.04	60994.36
579.21	60800.10
579.37	60849.25
579.53	60898.40
579.69	60467.74
579.85	60514.55
580.01	60659.66
580.17	60706.47
580.33	60746.26
580.49	60701.79
580.65	60687.75
580.82	60818.82
580.98	60722.86
581.14	60762.65
581.30	60949.89
581.46	60821.16
581.62	60816.48
581.78	60664.35
581.94	60961.59
582.10	60795.42
582.26	60757.97
582.42	60832.86
582.58	60835.20
582.74	60839.89
582.90	60816.48
583.06	60741.58
583.22	60561.36
583.38	60767.33
583.54	60912.44
583.70	60783.71
583.86	60893.72
584.02	60837.54
584.18	60856.27
584.34	60917.12
584.50	60830.52
584.66	60701.79
584.82	60926.49
584.98	61062.24
585.14	61123.09
585.30	60608.17
585.46	60914.78
585.62	60931.17
585.78	60900.74
585.94	60736.90
586.10	60811.80
586.26	60963.93
586.42	60896.06
586.58	61013.08
586.74	60910.10
586.90	60896.06
587.06	60900.74
587.22	61013.08
587.38	60748.60
587.54	60914.78
587.70	61333.74
587.86	61015.43
588.02	60987.34
588.18	61041.17
588.34	60959.25
