SpectraSuite Data File
++++++++++++++++++++++++++++++++++++
Date: Fri Oct 25 10:47:15 EDT 2013
User: price-jones
Dark Spectrum Present: No
Reference Spectrum Present: No
Number of Sampled Component Spectra: 1
Spectrometers: USB2+H05261
Integration Time (usec): 100000 (USB2+H05261)
Spectra Averaged: 1 (USB2+H05261)
Boxcar Smoothing: 0 (USB2+H05261)
Correct for Electrical Dark: No (USB2+H05261)
Strobe/Lamp Enabled: No (USB2+H05261)
Correct for Detector Non-linearity: No (USB2+H05261)
Correct for Stray Light: No (USB2+H05261)
Number of Pixels in Processed Spectrum: 2048
>>>>>Begin Processed Spectral Data<<<<<
365.73	173.20
365.92	173.20
366.12	173.20
366.32	32.77
366.52	28.09
366.72	58.51
366.91	0.00
367.11	77.24
367.31	0.00
367.51	65.54
367.70	14.04
367.90	124.05
368.10	112.35
368.30	37.45
368.49	18.72
368.69	107.66
368.89	88.94
369.09	44.47
369.28	72.56
369.48	51.49
369.68	58.51
369.87	53.83
370.07	100.64
370.27	175.54
370.47	224.69
370.66	400.23
370.86	362.78
371.06	416.62
371.25	440.02
371.45	437.68
371.65	475.13
371.84	383.85
372.04	437.68
372.24	489.17
372.44	496.19
372.63	503.22
372.83	528.96
373.03	512.58
373.22	528.96
373.42	482.15
373.62	496.19
373.81	608.54
374.01	418.96
374.21	535.98
374.40	484.49
374.60	486.83
374.79	566.41
374.99	521.94
375.19	627.26
375.38	645.99
375.58	557.05
375.78	543.00
375.97	603.86
376.17	571.09
376.37	521.94
376.56	564.07
376.76	589.82
376.95	613.22
377.15	587.47
377.35	554.71
377.54	568.75
377.74	531.30
377.93	641.31
378.13	638.97
378.33	657.69
378.52	660.03
378.72	645.99
378.91	629.60
379.11	589.82
379.31	601.52
379.50	608.54
379.70	674.07
379.89	685.78
380.09	582.79
380.28	564.07
380.48	624.92
380.68	643.65
380.87	580.45
381.07	613.22
381.26	685.78
381.46	688.12
381.65	692.80
381.85	638.97
382.04	608.54
382.24	699.82
382.43	678.76
382.63	543.00
382.83	695.14
383.02	713.86
383.22	692.80
383.41	662.37
383.61	648.33
383.80	720.88
384.00	692.80
384.19	727.91
384.39	674.07
384.58	758.33
384.78	723.23
384.97	704.50
385.17	739.61
385.36	779.40
385.56	699.82
385.75	650.67
385.95	821.53
386.14	711.52
386.34	823.87
386.53	751.31
386.72	779.40
386.92	823.87
387.11	755.99
387.31	844.93
387.50	828.55
387.70	875.36
387.89	781.74
388.09	807.48
388.28	821.53
388.48	765.36
388.67	898.77
388.86	854.30
389.06	767.70
389.25	882.38
389.45	840.25
389.64	833.23
389.84	954.94
390.03	936.21
390.22	950.26
390.42	851.96
390.61	844.93
390.81	912.81
391.00	926.85
391.19	959.62
391.39	954.94
391.58	851.96
391.78	929.19
391.97	891.74
392.16	943.24
392.36	947.92
392.55	938.55
392.75	952.60
392.94	849.61
393.13	947.92
393.33	924.51
393.52	926.85
393.71	1018.13
393.91	973.66
394.10	966.64
394.29	1055.58
394.49	1053.24
394.68	1013.45
394.88	997.07
395.07	1036.86
395.26	1076.65
395.46	1027.50
395.65	1102.39
395.84	1118.78
396.04	1146.86
396.23	1055.58
396.42	1100.05
396.62	1165.59
396.81	1074.31
397.00	1132.82
397.19	1167.93
397.39	1121.12
397.58	1156.22
397.77	1144.52
397.97	1167.93
398.16	1212.40
398.35	1114.10
398.55	1210.06
398.74	1259.21
398.93	1350.49
399.12	1224.10
399.32	1193.67
399.51	1331.76
399.70	1320.06
399.90	1364.53
400.09	1380.92
400.28	1291.98
400.47	1317.72
400.67	1383.26
400.86	1446.45
401.05	1399.64
401.24	1357.51
401.44	1390.28
401.63	1310.70
401.82	1409.00
402.01	1390.28
402.21	1519.01
402.40	1483.90
402.59	1366.87
402.78	1497.94
402.97	1486.24
403.17	1446.45
403.36	1600.93
403.55	1528.37
403.74	1575.18
403.93	1612.63
404.13	1589.22
404.32	1661.78
404.51	1558.80
404.70	1605.61
404.89	1673.48
405.09	1694.55
405.28	1659.44
405.47	1652.42
405.66	1671.14
405.85	1792.85
406.05	1769.44
406.24	1713.27
406.43	1750.72
406.62	1778.81
406.81	1816.26
407.00	1741.36
407.20	1734.34
407.39	1771.79
407.58	1776.47
407.77	1753.06
407.96	1844.34
408.15	1884.13
408.34	1832.64
408.54	1900.52
408.73	1949.67
408.92	1928.60
409.11	1980.09
409.30	1907.54
409.49	1994.14
409.68	1926.26
409.87	1891.15
410.07	2015.20
410.26	2033.93
410.45	2071.37
410.64	2078.40
410.83	2087.76
411.02	2148.61
411.21	2200.10
411.40	2057.33
411.59	2289.04
411.78	2129.89
411.98	2218.83
412.17	2286.70
412.36	2216.49
412.55	2275.00
412.74	2363.94
412.93	2431.82
413.12	2256.28
413.31	2420.11
413.50	2349.90
413.69	2459.90
413.88	2492.67
414.07	2523.10
414.26	2471.61
414.45	2525.44
414.64	2637.78
414.83	2565.23
415.02	2546.50
415.22	2581.61
415.41	2761.83
415.60	2724.38
415.79	2614.38
415.98	2719.70
416.17	2883.54
416.36	2590.97
416.55	2773.53
416.74	2731.41
416.93	2759.49
417.12	2764.17
417.31	2850.77
417.50	2911.63
417.69	2937.37
417.88	2864.82
418.07	2843.75
418.26	2869.50
418.45	3002.91
418.64	3075.46
418.83	2958.44
419.02	3115.25
419.21	2986.52
419.39	3148.02
419.58	3073.12
419.77	3068.44
419.96	3133.98
420.15	3101.21
420.34	3122.27
420.53	3192.49
420.72	3262.71
420.91	3243.98
421.10	3225.26
421.29	3456.97
421.48	3269.73
421.67	3246.32
421.86	3220.58
422.05	3251.00
422.24	3346.97
422.43	3353.99
422.61	3276.75
422.80	3337.60
422.99	3342.28
423.18	3384.41
423.37	3485.06
423.56	3384.41
423.75	3410.16
423.94	3365.69
424.13	3201.85
424.32	3286.11
424.50	3417.18
424.69	3391.44
424.88	3459.31
425.07	3534.21
425.26	3325.90
425.45	3356.33
425.64	3445.27
425.83	3485.06
426.01	3564.64
426.20	3513.14
426.39	3440.59
426.58	3454.63
426.77	3386.76
426.96	3421.86
427.15	3438.25
427.33	3684.00
427.52	3639.53
427.71	3679.32
427.90	3435.91
428.09	3651.24
428.28	3602.08
428.46	3618.47
428.65	3655.92
428.84	3730.81
429.03	3723.79
429.22	3531.87
429.40	3674.64
429.59	3632.51
429.78	3510.80
429.97	3527.19
430.16	3630.17
430.34	3735.50
430.53	3709.75
430.72	3861.88
430.91	3700.39
431.10	3911.04
431.28	3871.25
431.47	3997.64
431.66	4067.85
431.85	3955.51
432.03	4056.15
432.22	4145.09
432.41	4051.47
432.60	4065.51
432.79	3922.74
432.97	4091.26
433.16	4222.33
433.35	3946.14
433.54	4063.17
433.72	4109.98
433.91	4131.05
434.10	4187.22
434.28	4311.27
434.47	4327.65
434.66	4163.81
434.85	4145.09
435.03	4227.01
435.22	4191.90
435.41	4418.93
435.59	4360.42
435.78	4351.06
435.97	4456.38
436.16	4470.42
436.34	4372.12
436.53	4507.87
436.72	4643.62
436.90	4423.61
437.09	4592.13
437.28	4444.68
437.46	4447.02
437.65	4573.41
437.84	4514.89
438.02	4592.13
438.21	4547.66
438.40	4400.21
438.58	4566.39
438.77	4774.69
438.96	4727.88
439.14	4755.97
439.33	4802.78
439.52	5046.20
439.70	4938.53
439.89	4978.32
440.08	4910.44
440.26	4917.47
440.45	4961.94
440.63	5135.14
440.82	5062.58
441.01	5170.24
441.19	5071.94
441.38	5118.75
441.57	5282.59
441.75	5226.42
441.94	5392.59
442.12	5467.49
442.31	5401.96
442.50	5378.55
442.68	5266.21
442.87	5490.90
443.05	5530.69
443.24	5448.77
443.43	5511.96
443.61	5673.46
443.80	5710.91
443.98	5481.53
444.17	5254.50
444.35	5626.65
444.54	5701.54
444.73	5687.50
444.91	5614.95
445.10	5614.95
445.28	5675.80
445.47	5689.84
445.65	5647.71
445.84	5701.54
446.02	5706.23
446.21	5762.40
446.39	5579.84
446.58	5811.55
446.77	5755.38
446.95	5518.98
447.14	5888.79
447.32	5856.02
447.51	5778.78
447.69	5760.06
447.88	5802.19
448.06	5743.67
448.25	5928.58
448.43	5870.06
448.62	5689.84
448.80	5685.16
448.99	5900.49
449.17	5799.85
449.36	5830.27
449.54	5949.64
449.73	6040.92
449.91	6094.76
450.10	6069.01
450.28	6171.99
450.46	6260.93
450.65	6305.40
450.83	6237.53
451.02	6064.33
451.20	6202.42
451.39	6218.80
451.57	6193.06
451.76	6052.63
451.94	6296.04
452.13	6270.30
452.31	6324.13
452.49	6129.86
452.68	6349.87
452.86	6235.19
453.05	6324.13
453.23	6537.12
453.42	6436.47
453.60	6274.98
453.78	6333.49
453.97	6270.30
454.15	6230.51
454.34	6455.20
454.52	6518.39
454.70	6647.12
454.89	6553.50
455.07	6520.73
455.26	6588.61
455.44	6504.35
455.62	6722.02
455.81	6658.82
455.99	6483.28
456.17	6616.69
456.36	6810.96
456.54	6806.28
456.73	6876.49
456.91	7084.80
457.09	7077.78
457.28	7119.91
457.46	6841.39
457.64	7140.97
457.83	6960.75
458.01	6951.39
458.19	7206.51
458.38	6857.77
458.56	7204.17
458.74	7248.64
458.93	7218.21
459.11	7379.71
459.29	7138.63
459.48	7199.49
459.66	7166.72
459.84	7321.20
460.03	7269.70
460.21	7473.33
460.39	7368.01
460.57	7368.01
460.76	7335.24
460.94	7321.20
461.12	7545.89
461.31	7604.40
461.49	7517.80
461.67	7461.63
461.85	7641.85
462.04	7536.52
462.22	8035.06
462.40	7653.55
462.59	7660.57
462.77	7541.21
462.95	7875.90
463.13	7763.56
463.32	7999.95
463.50	7826.75
463.68	7719.09
463.86	7840.79
464.05	7681.64
464.23	7660.57
464.41	7946.12
464.59	7716.75
464.78	8074.85
464.96	7772.92
465.14	7838.45
465.32	8006.97
465.50	8058.46
465.69	7915.69
465.87	8018.68
466.05	7859.52
466.23	8128.68
466.41	8238.69
466.60	8524.23
466.78	7915.69
466.96	8217.62
467.14	8147.40
467.32	8257.41
467.51	8297.20
467.69	8044.42
467.87	8138.04
468.05	8304.22
468.23	8276.13
468.41	8299.54
468.60	8304.22
468.78	8369.76
468.96	8255.07
469.14	8446.99
469.32	8615.51
469.50	8304.22
469.69	8393.16
469.87	8545.30
470.05	8585.08
470.23	8678.71
470.41	8545.30
470.59	8863.61
470.77	8636.58
470.95	8933.82
471.14	8905.74
471.32	8788.71
471.50	8879.99
471.68	8954.89
471.86	9142.13
472.04	9055.53
472.22	9200.65
472.40	8898.72
472.58	9146.81
472.77	9102.34
472.95	9298.95
473.13	9514.28
473.31	9551.73
473.49	9238.09
473.67	9245.12
473.85	9413.63
474.03	9708.54
474.21	9605.56
474.39	9715.56
474.57	9699.18
474.75	9626.62
474.93	9799.82
475.12	9797.48
475.30	9956.64
475.48	9692.16
475.66	10085.37
475.84	10001.11
476.02	10052.60
476.20	9956.64
476.38	10307.72
476.56	10410.70
476.74	10523.05
476.92	10265.59
477.10	10326.44
477.28	10497.30
477.46	10600.29
477.64	10651.78
477.82	10724.33
478.00	11129.25
478.18	11047.33
478.36	11037.97
478.54	11290.74
478.72	11260.32
478.90	11279.04
479.08	11583.31
479.26	11566.93
479.44	11569.27
479.62	11513.10
479.80	12042.06
479.98	11653.53
480.16	12058.44
480.34	12028.01
480.52	12189.51
480.70	12060.78
480.88	12086.53
481.06	12395.48
481.24	12159.08
481.41	12573.36
481.59	12533.57
481.77	12671.66
481.95	12751.24
482.13	12870.61
482.31	12793.37
482.49	13137.43
482.67	13020.40
482.85	13144.45
483.03	13362.12
483.21	13532.98
483.39	13532.98
483.57	13591.49
483.74	13741.29
483.92	13837.25
484.10	13701.50
484.28	13832.57
484.46	14279.61
484.64	14504.30
484.82	14272.59
485.00	14448.13
485.18	14525.36
485.35	14443.45
485.53	14703.25
485.71	14649.41
485.89	14988.79
486.07	14728.99
486.25	14974.75
486.43	15398.38
486.61	15311.78
486.78	15492.01
486.96	15492.01
487.14	15770.53
487.32	15976.50
487.50	15838.41
487.68	16240.98
487.85	16168.42
488.03	16681.00
488.21	16512.48
488.39	16325.24
488.57	16587.38
488.75	16980.59
488.92	17303.58
489.10	17123.36
489.28	17334.01
489.46	17486.14
489.64	17331.67
489.81	17736.58
489.99	17823.18
490.17	18136.81
490.35	18059.57
490.53	17961.27
490.70	18469.17
490.88	18251.50
491.06	18696.20
491.24	18579.17
491.41	18696.20
491.59	18808.54
491.77	18501.93
491.95	18831.95
492.13	19058.98
492.30	19431.13
492.48	19328.14
492.66	19323.46
492.84	19499.00
493.01	19513.05
493.19	19513.05
493.37	19985.83
493.54	19981.15
493.72	20196.48
493.90	19910.94
494.08	20414.15
494.25	20650.55
494.43	20507.77
494.61	20999.29
494.79	21015.67
494.96	20746.51
495.14	20790.98
495.32	21249.72
495.49	21537.61
495.67	21212.28
495.85	21483.78
496.02	21579.74
496.20	21844.22
496.38	21549.31
496.55	21979.97
496.73	22513.61
496.91	22015.08
497.09	22059.55
497.26	22188.28
497.44	22628.30
497.62	22693.83
497.79	22944.27
497.97	22466.80
498.14	22848.31
498.32	22803.84
498.50	22857.67
498.67	23393.65
498.85	23557.49
499.03	23250.88
499.20	23704.95
499.38	23800.91
499.56	23417.06
499.73	24334.55
499.91	24030.28
500.08	23990.49
500.26	23946.02
500.44	24123.90
500.61	23974.11
500.79	24510.09
500.97	24257.31
501.14	24692.65
501.32	24634.14
501.49	24687.97
501.67	24205.82
501.84	24814.36
502.02	24812.02
502.20	25120.97
502.37	24746.48
502.55	24858.83
502.72	25179.48
502.90	25425.24
503.07	25081.18
503.25	25434.60
503.43	25563.33
503.60	25333.96
503.78	25434.60
503.95	25764.62
504.13	25874.62
504.30	26003.35
504.48	25727.17
504.65	26103.99
504.83	26214.00
505.01	26726.58
505.18	26122.72
505.36	26572.10
505.53	26525.29
505.71	26775.73
505.88	26752.32
506.06	26377.84
506.23	26951.27
506.41	26761.69
506.58	27161.92
506.76	26911.48
506.93	27353.84
507.11	26986.38
507.28	27330.44
507.46	27133.83
507.63	26881.05
507.81	27496.61
507.98	27370.22
508.16	27304.69
508.33	27508.32
508.50	27990.47
508.68	27765.78
508.85	28355.59
509.03	28175.37
509.20	28142.60
509.38	28325.16
509.55	28641.14
509.73	28311.12
509.90	28266.65
510.08	28421.13
510.25	28652.84
510.42	28748.80
510.60	28844.76
510.77	28903.28
510.95	29032.00
511.12	28753.48
511.30	29214.57
511.47	29053.07
511.64	29202.86
511.82	29549.26
511.99	28992.22
512.17	29701.40
512.34	29303.51
512.51	29633.52
512.69	29560.97
512.86	29504.79
513.04	30239.72
513.21	29649.91
513.38	30008.01
513.56	29975.24
513.73	30122.69
513.90	30103.97
514.08	30422.28
514.25	30249.08
514.43	30450.37
514.60	30066.52
514.77	30581.44
514.95	30375.47
515.12	30520.59
515.29	30789.75
515.47	30801.45
515.64	31033.16
515.81	30553.35
515.99	31161.89
516.16	30838.90
516.33	30831.88
516.51	31480.21
516.68	31005.08
516.85	31161.89
517.03	31585.53
517.20	31192.32
517.37	30904.43
517.54	31304.67
517.72	31747.03
517.89	31740.00
518.06	31484.89
518.24	31754.05
518.41	31627.66
518.58	31732.98
518.75	31311.69
518.93	32142.58
519.10	32505.36
519.27	32231.52
519.45	32067.68
519.62	32437.48
519.79	32224.50
519.96	32479.61
520.14	33020.28
520.31	32629.41
520.48	32673.88
520.65	32491.32
520.83	33193.48
521.00	33081.13
521.17	32875.16
521.34	33268.37
521.52	33153.69
521.69	33259.01
521.86	33088.15
522.03	33092.83
522.20	33479.02
522.38	33420.51
522.55	33752.87
522.72	33495.41
522.89	33567.96
523.07	33914.36
523.24	33488.38
523.41	33722.44
523.58	33844.15
523.75	34099.26
523.92	34185.86
524.10	34330.98
524.27	34590.78
524.44	34419.92
524.61	34546.31
524.78	34487.79
524.96	34602.48
525.13	34572.05
525.30	34396.51
525.47	35033.14
525.64	34330.98
525.81	34813.13
525.98	34916.11
526.16	34653.97
526.33	34473.75
526.50	35180.59
526.67	34960.58
526.84	35264.85
527.01	34878.66
527.18	35042.50
527.36	35086.97
527.53	34759.30
527.70	35517.63
527.87	35342.09
528.04	35171.23
528.21	35704.87
528.38	35629.98
528.55	35384.22
528.72	35599.55
528.89	36002.12
529.07	36067.66
529.24	35697.85
529.41	35758.70
529.58	35718.92
529.75	35952.97
529.92	35742.32
530.09	36233.83
530.26	36336.82
530.43	36587.25
530.60	35842.96
530.77	36140.21
530.94	36254.90
531.11	36297.03
531.28	36320.43
531.46	36439.80
531.63	36758.11
531.80	36381.29
531.97	36587.25
532.14	36495.97
532.31	36418.74
532.48	36884.50
532.65	37031.96
532.82	36935.99
532.99	37237.92
533.16	36816.63
533.33	36875.14
533.50	37024.93
533.67	37198.13
533.84	36900.89
534.01	37347.93
534.18	37219.20
534.35	37827.74
534.52	37486.02
534.69	37628.79
534.86	37544.53
535.03	37123.24
535.20	37738.80
535.37	37720.07
535.54	38249.03
535.71	37785.61
535.88	37961.15
536.05	37565.60
536.22	37642.84
536.38	37771.57
536.55	38092.22
536.72	37565.60
536.89	37823.06
537.06	37420.48
537.23	38251.38
537.40	37574.96
537.57	38012.64
537.74	38141.37
537.91	38284.14
538.08	38579.05
538.25	38328.61
538.42	38396.49
538.59	38490.11
538.75	38155.41
538.92	38616.50
539.09	38375.42
539.26	38623.52
539.43	38953.54
539.60	38410.53
539.77	38579.05
539.94	39171.21
540.11	38937.15
540.28	38880.98
540.44	39014.39
540.61	39002.69
540.78	38710.12
540.95	38707.78
541.12	38590.75
541.29	38817.78
541.46	38749.91
541.62	38960.56
541.79	38911.41
541.96	38939.49
542.13	39353.77
542.30	39667.40
542.47	39115.03
542.63	39550.37
542.80	39768.04
542.97	39941.24
543.14	39978.69
543.31	39856.98
543.48	40231.47
543.64	39934.22
543.81	39906.13
543.98	39583.14
544.15	40250.19
544.32	39992.73
544.48	40552.12
544.65	39704.85
544.82	40402.33
544.99	39945.92
545.16	40137.85
545.32	40100.40
545.49	40610.64
545.66	40341.47
545.83	40343.81
546.00	40706.60
546.16	40442.12
546.33	40402.33
546.50	40414.03
546.67	40748.73
546.83	40023.16
547.00	40671.49
547.17	40498.29
547.34	40444.46
547.50	40896.18
547.67	40680.85
547.84	40760.43
548.00	40800.22
548.17	41439.18
548.34	40950.01
548.51	41015.55
548.67	40950.01
548.84	41237.90
549.01	40921.93
549.18	40769.79
549.34	41170.02
549.51	41078.74
549.68	41523.44
549.84	41200.45
550.01	41759.84
550.18	41057.68
550.34	41287.05
550.51	41223.86
550.68	41354.93
550.84	40727.66
551.01	40954.69
551.18	41057.68
551.34	40877.46
551.51	41478.97
551.68	41757.50
551.84	41598.34
552.01	41502.38
552.18	41294.07
552.34	41315.14
552.51	41904.95
552.68	41869.84
552.84	42293.48
553.01	41881.55
553.18	41848.78
553.34	41399.40
553.51	41619.41
553.67	42014.96
553.84	42108.58
554.01	42340.29
554.17	42344.97
554.34	42192.84
554.51	42293.48
554.67	42918.40
554.84	42202.20
555.00	42155.39
555.17	42033.68
555.33	42113.26
555.50	41958.78
555.67	42359.02
555.83	42515.83
556.00	42277.10
556.16	42714.78
556.33	42539.24
556.50	42110.92
556.66	42649.24
556.83	42270.08
556.99	42934.79
557.16	42307.52
557.32	42061.77
557.49	42492.43
557.65	41979.85
557.82	42146.03
557.98	42305.18
558.15	42773.29
558.32	42913.72
558.48	42983.94
558.65	42672.65
558.81	43117.35
558.98	42710.10
559.14	42965.21
559.31	42724.14
559.47	42738.18
559.64	43126.71
559.80	43290.55
559.97	42972.24
560.13	42398.80
560.30	42892.66
560.46	42939.47
560.63	43105.65
560.79	42754.57
560.96	42939.47
561.12	42572.00
561.29	43012.02
561.45	42862.23
561.61	42850.53
561.78	42920.74
561.94	43203.95
562.11	43267.14
562.27	42995.64
562.44	42951.17
562.60	43309.27
562.77	43426.30
562.93	42836.48
563.10	43096.28
563.26	43058.84
563.42	43360.76
563.59	42904.36
563.75	43246.08
563.92	43512.90
564.08	42895.00
564.24	43519.92
564.41	43903.77
564.57	43374.81
564.74	43461.41
564.90	43370.13
565.07	43297.57
565.23	43213.31
565.39	43042.45
565.56	43442.68
565.72	43325.66
565.88	43311.61
566.05	43232.04
566.21	43302.25
566.38	43344.38
566.54	43248.42
566.70	43435.66
566.87	43821.85
567.03	43487.15
567.19	43800.79
567.36	43688.44
567.52	43545.67
567.68	43775.04
567.85	43650.99
568.01	43634.61
568.17	43480.13
568.34	43885.04
568.50	43594.82
568.66	43412.26
568.83	43096.28
568.99	43688.44
569.15	43529.28
569.32	43311.61
569.48	42948.83
569.64	43796.10
569.81	43920.15
569.97	43875.68
570.13	43927.17
570.30	43360.76
570.46	43620.56
570.62	43395.87
570.78	43283.53
570.95	43562.05
571.11	44121.44
571.27	44353.15
571.43	43868.66
571.60	43969.30
571.76	43395.87
571.92	43833.55
572.09	43716.53
572.25	43924.83
572.41	43821.85
572.57	44259.53
572.74	44357.83
572.90	44088.67
573.06	43414.60
573.22	43487.15
573.38	44137.82
573.55	43695.46
573.71	44128.46
573.87	43812.49
574.03	43751.63
574.20	43728.23
574.36	43629.93
574.52	43936.54
574.68	44385.92
574.84	43819.51
575.01	43739.93
575.17	43959.94
575.33	43590.14
575.49	43999.73
575.65	44179.95
575.82	44119.10
575.98	44039.52
576.14	44041.86
576.30	44067.61
576.46	43908.45
576.62	44053.56
576.79	44065.27
576.95	43555.03
577.11	44421.03
577.27	43978.67
577.43	44484.22
577.59	44154.21
577.75	44219.74
577.92	43753.97
578.08	44282.94
578.24	43477.79
578.40	43810.15
578.56	44215.06
578.72	43756.32
578.88	44163.57
579.04	44062.93
579.21	43889.73
579.37	43709.50
579.53	43899.09
579.69	43973.98
579.85	44121.44
580.01	44533.37
580.17	43969.30
580.33	44175.27
580.49	44402.30
580.65	44126.12
580.82	44135.48
580.98	44458.48
581.14	44062.93
581.30	44608.27
581.46	44186.97
581.62	44107.40
581.78	44219.74
581.94	44746.36
582.10	44222.08
582.26	44383.58
582.42	44594.23
582.58	44105.06
582.74	44287.62
582.90	44247.83
583.06	44479.54
583.22	44278.25
583.38	44161.23
583.54	44133.14
583.70	44208.04
583.86	44058.24
584.02	43971.64
584.18	44580.18
584.34	44406.98
584.50	44135.48
584.66	44135.48
584.82	44025.48
584.98	44460.82
585.14	44032.50
585.30	44444.43
585.46	43821.85
585.62	44016.11
585.78	44367.20
585.94	43789.08
586.10	44341.45
586.26	44116.76
586.42	44278.25
586.58	44566.14
586.74	43981.01
586.90	43931.86
587.06	44023.14
587.22	44390.60
587.38	44102.71
587.54	44711.25
587.70	44226.76
587.86	44418.69
588.02	44643.38
588.18	44509.97
588.34	44676.15
588.49	43992.71
588.65	43997.39
588.81	43931.86
588.97	44336.77
589.13	44189.31
589.29	44041.86
589.45	44116.76
589.61	44451.45
589.77	44776.79
589.93	44622.31
590.08	44186.97
590.24	44397.62
590.40	44538.05
