SpectraSuite Data File
++++++++++++++++++++++++++++++++++++
Date: Fri Oct 25 11:33:49 EDT 2013
User: price-jones
Dark Spectrum Present: No
Reference Spectrum Present: No
Number of Sampled Component Spectra: 1
Spectrometers: USB2+H05261
Integration Time (usec): 100000 (USB2+H05261)
Spectra Averaged: 1 (USB2+H05261)
Boxcar Smoothing: 0 (USB2+H05261)
Correct for Electrical Dark: No (USB2+H05261)
Strobe/Lamp Enabled: No (USB2+H05261)
Correct for Detector Non-linearity: No (USB2+H05261)
Correct for Stray Light: No (USB2+H05261)
Number of Pixels in Processed Spectrum: 2048
>>>>>Begin Processed Spectral Data<<<<<
365.73	299.59
365.92	299.59
366.12	299.59
366.32	140.43
366.52	184.90
366.72	212.99
366.91	222.35
367.11	191.92
367.31	177.88
367.51	159.16
367.70	156.82
367.90	212.99
368.10	161.50
368.30	163.84
368.49	191.92
368.69	220.01
368.89	234.05
369.09	198.95
369.28	184.90
369.48	182.56
369.68	182.56
369.87	180.22
370.07	245.76
370.27	294.91
370.47	234.05
370.66	376.83
370.86	526.62
371.06	608.54
371.25	575.77
371.45	505.56
371.65	634.29
371.84	500.87
372.04	521.94
372.24	594.50
372.44	610.88
372.63	674.07
372.83	582.79
373.03	648.33
373.22	589.82
373.42	566.41
373.62	613.22
373.81	645.99
374.01	634.29
374.21	643.65
374.40	624.92
374.60	620.24
374.79	620.24
374.99	638.97
375.19	622.58
375.38	669.39
375.58	636.63
375.78	636.63
375.97	681.10
376.17	648.33
376.37	664.71
376.56	667.05
376.76	706.84
376.95	638.97
377.15	648.33
377.35	681.10
377.54	634.29
377.74	730.25
377.93	641.31
378.13	702.16
378.33	723.23
378.52	676.41
378.72	755.99
378.91	624.92
379.11	711.52
379.31	660.03
379.50	643.65
379.70	739.61
379.89	755.99
380.09	727.91
380.28	706.84
380.48	704.50
380.68	650.67
380.87	699.82
381.07	741.95
381.26	774.72
381.46	727.91
381.65	734.93
381.85	802.80
382.04	812.17
382.24	784.08
382.43	793.44
382.63	779.40
382.83	791.10
383.02	856.64
383.22	844.93
383.41	770.04
383.61	781.74
383.80	915.15
384.00	823.87
384.19	814.51
384.39	793.44
384.58	795.78
384.78	896.43
384.97	760.67
385.17	861.32
385.36	868.34
385.56	791.10
385.75	826.21
385.95	800.46
386.14	863.66
386.34	908.13
386.53	894.08
386.72	863.66
386.92	866.00
387.11	774.72
387.31	880.04
387.50	880.04
387.70	847.27
387.89	894.08
388.09	912.81
388.28	894.08
388.48	908.13
388.67	880.04
388.86	926.85
389.06	1011.11
389.25	959.62
389.45	952.60
389.64	976.00
389.84	983.02
390.03	964.30
390.22	1029.84
390.42	950.26
390.61	933.87
390.81	980.68
391.00	891.74
391.19	987.71
391.39	1034.52
391.58	973.66
391.78	1074.31
391.97	983.02
392.16	1071.97
392.36	966.64
392.55	1060.26
392.75	1109.41
392.94	1064.94
393.13	1111.75
393.33	1036.86
393.52	1034.52
393.71	1125.80
393.91	1062.60
394.10	1057.92
394.29	1025.15
394.49	1090.69
394.68	1107.07
394.88	1165.59
395.07	1181.97
395.26	1116.44
395.46	1156.22
395.65	1156.22
395.84	1165.59
396.04	1270.91
396.23	1151.54
396.42	1121.12
396.62	1245.16
396.81	1296.66
397.00	1203.04
397.19	1160.91
397.39	1217.08
397.58	1275.59
397.77	1210.06
397.97	1226.44
398.16	1188.99
398.35	1259.21
398.55	1219.42
398.74	1270.91
398.93	1336.45
399.12	1338.79
399.32	1261.55
399.51	1343.47
399.70	1334.11
399.90	1369.21
400.09	1432.41
400.28	1348.15
400.47	1404.32
400.67	1458.15
400.86	1472.20
401.05	1357.51
401.24	1430.07
401.44	1460.49
401.63	1434.75
401.82	1418.36
402.01	1324.74
402.21	1467.52
402.40	1474.54
402.59	1511.99
402.78	1528.37
402.97	1474.54
403.17	1486.24
403.36	1528.37
403.55	1589.22
403.74	1603.27
403.93	1516.67
404.13	1582.20
404.32	1591.56
404.51	1570.50
404.70	1713.27
404.89	1554.12
405.09	1717.95
405.28	1736.68
405.47	1650.08
405.66	1668.80
405.85	1645.40
406.05	1757.74
406.24	1797.53
406.43	1729.66
406.62	1823.28
406.81	1809.23
407.00	1757.74
407.20	1776.47
407.39	1867.75
407.58	1701.57
407.77	1919.24
407.96	1888.81
408.15	1928.60
408.34	1935.62
408.54	1888.81
408.73	1886.47
408.92	1923.92
409.11	2050.31
409.30	1959.03
409.49	2069.03
409.68	2003.50
409.87	1930.94
410.07	1991.80
410.26	2097.12
410.45	2090.10
410.64	2026.90
410.83	2090.10
411.02	2162.66
411.21	2263.30
411.40	2218.83
411.59	2186.06
411.78	2076.06
411.98	2150.95
412.17	2312.45
412.36	2338.20
412.55	2366.28
412.74	2349.90
412.93	2345.22
413.12	2338.20
413.31	2466.92
413.50	2464.58
413.69	2420.11
413.88	2574.59
414.07	2527.78
414.26	2473.95
414.45	2569.91
414.64	2649.49
414.83	2588.63
415.02	2590.97
415.22	2619.06
415.41	2675.23
415.60	2691.62
415.79	2649.49
415.98	2703.32
416.17	2890.56
416.36	2745.45
416.55	2794.60
416.74	2808.64
416.93	2815.66
417.12	2740.77
417.31	2890.56
417.50	2916.31
417.69	3089.51
417.88	2878.86
418.07	2925.67
418.26	2909.29
418.45	2958.44
418.64	3056.74
418.83	3047.38
419.02	2946.73
419.21	3052.06
419.39	3087.17
419.58	3096.53
419.77	2998.23
419.96	3159.72
420.15	3145.68
420.34	3096.53
420.53	3073.12
420.72	3307.18
420.91	3164.40
421.10	3255.69
421.29	3225.26
421.48	3178.45
421.67	3372.71
421.86	3314.20
422.05	3262.71
422.24	3166.74
422.43	3342.28
422.61	3447.61
422.80	3410.16
422.99	3449.95
423.18	3323.56
423.37	3412.50
423.56	3410.16
423.75	3400.80
423.94	3307.18
424.13	3119.93
424.32	3316.54
424.50	3414.84
424.69	3606.77
424.88	3454.63
425.07	3246.32
425.26	3461.65
425.45	3316.54
425.64	3398.46
425.83	3410.16
426.01	3501.44
426.20	3433.57
426.39	3407.82
426.58	3543.57
426.77	3496.76
426.96	3536.55
427.15	3632.51
427.33	3604.42
427.52	3548.25
427.71	3515.48
427.90	3620.81
428.09	3653.58
428.28	3721.45
428.46	3632.51
428.65	3693.37
428.84	3667.62
429.03	3852.52
429.22	3630.17
429.40	3688.68
429.59	3737.84
429.78	3545.91
429.97	3707.41
430.16	3695.71
430.34	3833.80
430.53	3836.14
430.72	3868.91
430.91	3868.91
431.10	3868.91
431.28	3981.25
431.47	4035.08
431.66	4145.09
431.85	4091.26
432.03	4067.85
432.22	4203.60
432.41	4084.23
432.60	4131.05
432.79	3974.23
432.97	4109.98
433.16	4161.47
433.35	4095.94
433.54	4088.92
433.72	4318.29
433.91	4217.65
434.10	4194.24
434.28	4259.78
434.47	4351.06
434.66	4404.89
434.85	4395.53
435.03	4243.39
435.22	4290.20
435.41	4442.34
435.59	4449.36
435.78	4409.57
435.97	4414.25
436.16	4372.12
436.34	4332.33
436.53	4425.95
436.72	4440.00
436.90	4564.04
437.09	4580.43
437.28	4432.97
437.46	4437.66
437.65	4475.10
437.84	4524.26
438.02	4755.97
438.21	4573.41
438.40	4575.75
438.58	4823.84
438.77	4802.78
438.96	4697.46
439.14	4795.76
439.33	4774.69
439.52	4823.84
439.70	4936.19
439.89	5125.77
440.08	5107.05
440.26	4922.15
440.45	4833.21
440.63	5001.72
440.82	5121.09
441.01	5109.39
441.19	5048.54
441.38	5378.55
441.57	5116.41
441.75	5378.55
441.94	5437.06
442.12	5376.21
442.31	5317.70
442.50	5500.26
442.68	5308.34
442.87	5493.24
443.05	5455.79
443.24	5607.92
443.43	5572.82
443.61	5523.66
443.80	5706.23
443.98	5434.72
444.17	5334.08
444.35	5568.13
444.54	5715.59
444.73	5493.24
444.91	5811.55
445.10	5687.50
445.28	5645.37
445.47	5589.20
445.65	5610.26
445.84	5806.87
446.02	5647.71
446.21	5785.80
446.39	5659.42
446.58	5680.48
446.77	5680.48
446.95	5511.96
447.14	5636.01
447.32	5715.59
447.51	5767.08
447.69	5839.64
447.88	5811.55
448.06	5654.73
448.25	5664.10
448.43	5884.11
448.62	5867.72
448.80	5720.27
448.99	6005.81
449.17	5893.47
449.36	5907.51
449.54	5809.21
449.73	6043.26
449.91	6083.05
450.10	5973.05
450.28	6169.65
450.46	6218.80
450.65	6162.63
450.83	6153.27
451.02	6209.44
451.20	6164.97
451.39	6125.18
451.57	6080.71
451.76	6087.73
451.94	6216.46
452.13	6366.26
452.31	6450.52
452.49	6085.39
452.68	6319.45
452.86	6429.45
453.05	6368.60
453.23	6459.88
453.42	6225.82
453.60	6282.00
453.78	6331.15
453.97	6333.49
454.15	6317.11
454.34	6548.82
454.52	6523.07
454.70	6581.59
454.89	6649.46
455.07	6459.88
455.26	6675.21
455.44	6820.32
455.62	6494.99
455.81	6471.58
455.99	6862.45
456.17	6899.90
456.36	6867.13
456.54	6979.48
456.73	6899.90
456.91	7091.82
457.09	7005.22
457.28	7028.63
457.46	6951.39
457.64	7007.56
457.83	6850.75
458.01	6930.33
458.19	7183.10
458.38	7108.21
458.56	7253.32
458.74	7035.65
458.93	7173.74
459.11	7201.83
459.29	7171.40
459.48	7234.60
459.66	7243.96
459.84	7360.98
460.03	7351.62
460.21	7382.05
460.39	7438.22
460.57	7400.77
460.76	7330.56
460.94	7627.81
461.12	7463.97
461.31	7433.54
461.49	7396.09
461.67	7297.79
461.85	7550.57
462.04	7625.47
462.22	8196.56
462.40	7655.89
462.59	7618.44
462.77	7569.29
462.95	7698.02
463.13	7655.89
463.32	7786.96
463.50	7779.94
463.68	7943.78
463.86	7903.99
464.05	7793.98
464.23	7943.78
464.41	7962.50
464.59	7829.09
464.78	8070.17
464.96	8035.06
465.14	8004.63
465.32	7964.84
465.50	8116.98
465.69	7885.26
465.87	8124.00
466.05	7995.27
466.23	8053.78
466.41	8051.44
466.60	8362.73
466.78	8133.36
466.96	8299.54
467.14	8341.67
467.32	8287.84
467.51	8379.12
467.69	8170.81
467.87	8280.82
468.05	8589.77
468.23	8339.33
468.41	8468.06
468.60	8477.42
468.78	8421.25
468.96	8514.87
469.14	8519.55
469.32	8699.77
469.50	8561.68
469.69	8950.21
469.87	8802.75
470.05	8657.64
470.23	8863.61
470.41	8739.56
470.59	8978.30
470.77	8755.94
470.95	8950.21
471.14	9018.08
471.32	8870.63
471.50	9125.75
471.68	9355.12
471.86	9186.60
472.04	9280.22
472.22	9263.84
472.40	9064.89
472.58	9310.65
472.77	9270.86
472.95	9423.00
473.13	9823.23
473.31	9261.50
473.49	9626.62
473.67	9392.57
473.85	9479.17
474.03	9825.57
474.21	9668.75
474.39	9745.99
474.57	9804.50
474.75	10085.37
474.93	9853.66
475.12	9863.02
475.30	10059.62
475.48	9973.02
475.66	10083.03
475.84	10008.13
476.02	10281.97
476.20	10071.33
476.38	10480.92
476.56	10656.46
476.74	10520.71
476.92	10658.80
477.10	10415.38
477.28	10672.84
477.46	10939.66
477.64	10729.02
477.82	10857.75
478.00	11129.25
478.18	11281.38
478.36	11335.21
478.54	11262.66
478.72	11222.87
478.90	11442.88
479.08	11632.46
479.26	11775.24
479.44	11875.88
479.62	11627.78
479.80	11836.09
479.98	11709.70
480.16	12278.45
480.34	12037.38
480.52	12325.26
480.70	12180.15
480.88	12285.47
481.06	12231.64
481.24	12446.97
481.41	12498.46
481.59	12683.36
481.77	12992.31
481.95	12999.34
482.13	12973.59
482.31	12943.16
482.49	13434.68
482.67	13228.71
482.85	13383.18
483.03	13579.79
483.21	13652.34
483.39	13989.38
483.57	13554.04
483.74	14141.52
483.92	14106.41
484.10	13811.50
484.28	14448.13
484.46	14403.66
484.64	14843.68
484.82	14181.31
485.00	14834.32
485.18	14937.30
485.35	15236.89
485.53	14733.67
485.71	15119.86
485.89	15400.72
486.07	15431.15
486.25	15548.18
486.43	15351.57
486.61	15742.44
486.78	15927.35
486.96	16091.18
487.14	15955.43
487.32	16336.94
487.50	16428.22
487.68	16498.44
487.85	16580.36
488.03	16783.98
488.21	16924.41
488.39	16798.02
488.57	16917.39
488.75	17172.51
488.92	17287.20
489.10	17432.31
489.28	17767.01
489.46	17579.76
489.64	17846.58
489.81	18221.07
489.99	18050.21
490.17	18026.81
490.35	18656.41
490.53	18384.91
490.70	18696.20
490.88	18515.98
491.06	18649.39
491.24	18864.72
491.41	18960.68
491.59	19346.87
491.77	19183.03
491.95	19405.38
492.13	19728.38
492.30	19417.08
492.48	19662.84
492.66	19503.68
492.84	20018.60
493.01	20130.95
493.19	20105.20
493.37	20418.83
493.54	20308.83
493.72	20463.30
493.90	20587.35
494.08	20933.75
494.25	20849.49
494.43	21118.65
494.61	21184.19
494.79	21371.43
494.96	21088.23
495.14	21329.30
495.32	21671.02
495.49	21781.03
495.67	21771.66
495.85	21785.71
496.02	22092.32
496.20	22190.62
496.38	22539.36
496.55	22286.58
496.73	22944.27
496.91	22855.33
497.09	22817.88
497.26	22960.66
497.44	22778.09
497.62	22946.61
497.79	23351.52
497.97	23332.80
498.14	23419.40
498.32	23534.09
498.50	23798.57
498.67	24151.99
498.85	23775.16
499.03	24182.42
499.20	23943.68
499.38	24252.63
499.56	24514.77
499.73	24318.17
499.91	24524.13
500.08	24870.53
500.26	24367.32
500.44	24767.55
500.61	24929.05
500.79	25017.99
500.97	25256.72
501.14	25539.93
501.32	25055.43
501.49	25191.19
501.67	25277.79
501.84	25563.33
502.02	25467.37
502.20	25656.95
502.37	25652.27
502.55	25649.93
502.72	25773.98
502.90	25937.82
503.07	25846.54
503.25	26108.68
503.43	26047.82
503.60	26455.08
503.78	26534.65
503.95	26473.80
504.13	26469.12
504.30	26565.08
504.48	26714.87
504.65	26785.09
504.83	27140.85
505.01	27494.27
505.18	27065.96
505.36	27606.62
505.53	27180.64
505.71	27330.44
505.88	27344.48
506.06	27599.60
506.23	27992.81
506.41	27398.31
506.58	27667.47
506.76	27880.46
506.93	27908.55
507.11	28151.96
507.28	28456.23
507.46	28084.09
507.63	28294.74
507.81	28510.07
507.98	28687.95
508.16	28056.00
508.33	29046.05
508.50	29001.58
508.68	28444.53
508.85	29090.52
509.03	28811.99
509.20	29060.09
509.38	29235.63
509.55	29312.87
509.73	29134.99
509.90	29799.70
510.08	29539.90
510.25	29383.09
510.42	29104.56
510.60	29820.77
510.77	29542.24
510.95	30150.78
511.12	29720.12
511.30	30054.82
511.47	30246.74
511.64	30019.71
511.82	30160.14
511.99	30192.91
512.17	30518.25
512.34	30394.20
512.51	30909.11
512.69	31110.40
512.86	30558.03
513.04	30827.20
513.21	31016.78
513.38	31215.72
513.56	30761.66
513.73	31461.48
513.90	30972.31
514.08	31281.26
514.25	31672.13
514.43	31510.63
514.60	31353.82
514.77	31428.71
514.95	31854.69
515.12	31625.32
515.29	31770.43
515.47	31714.26
515.64	32051.30
515.81	31854.69
515.99	32149.60
516.16	32250.24
516.33	32147.26
516.51	32629.41
516.68	32252.58
516.85	32191.73
517.03	32584.94
517.20	32856.44
517.37	32411.74
517.54	32851.76
517.72	32790.91
517.89	33266.03
518.06	32720.69
518.24	33039.00
518.41	32699.62
518.58	32751.12
518.75	33130.28
518.93	33338.59
519.10	33472.00
519.27	33249.65
519.45	33326.89
519.62	33792.65
519.79	34115.65
519.96	33799.68
520.14	33865.21
520.31	33809.04
520.48	34106.29
520.65	34007.98
520.83	34565.03
521.00	34312.25
521.17	34352.04
521.34	34096.92
521.52	34871.64
521.69	34272.46
521.86	34660.99
522.03	34574.39
522.20	34888.03
522.38	35131.44
522.55	34712.49
522.72	34810.79
522.89	35175.91
523.07	35042.50
523.24	34604.82
523.41	35321.02
523.58	34967.60
523.75	35723.60
523.92	35328.05
524.10	35807.86
524.27	35723.60
524.44	35730.62
524.61	35873.39
524.78	36332.14
524.96	35768.07
525.13	35950.63
525.30	36191.70
525.47	36006.80
525.64	35981.06
525.81	36252.56
525.98	36484.27
526.16	36552.15
526.33	36699.60
526.50	36467.89
526.67	36484.27
526.84	36577.89
527.01	36662.15
527.18	36591.94
527.36	36933.65
527.53	36996.85
527.70	37443.89
527.87	37216.86
528.04	36584.91
528.21	37043.66
528.38	37308.14
528.55	37479.00
528.72	36919.61
528.89	37167.71
529.07	37088.13
529.24	36926.63
529.41	37219.20
529.58	37666.24
529.75	37525.81
529.92	37558.58
530.09	37464.96
530.26	37656.88
530.43	37624.11
530.60	37539.85
530.77	37434.53
530.94	37993.92
531.11	37766.88
531.28	37610.07
531.46	38234.99
531.63	38103.92
531.80	38141.37
531.97	38223.29
532.14	38089.88
532.31	38382.45
532.48	38190.52
532.65	38801.40
532.82	38560.33
532.99	38785.02
533.16	38557.99
533.33	38759.27
533.50	38976.94
533.67	38590.75
533.84	38415.21
534.01	39187.59
534.18	38691.40
534.35	39356.11
534.52	39115.03
534.69	39456.75
534.86	39068.22
535.03	39367.81
535.20	38988.64
535.37	39608.89
535.54	39658.04
535.71	39033.11
535.88	39480.16
536.05	39445.05
536.22	39627.61
536.38	39826.56
536.55	39622.93
536.72	40055.93
536.89	39704.85
537.06	39889.75
537.23	39934.22
537.40	39463.77
537.57	39938.90
537.74	39585.48
537.91	39468.45
538.08	40055.93
538.25	39255.46
538.42	40299.34
538.59	40313.39
538.75	40339.13
538.92	40425.73
539.09	40968.74
539.26	40725.32
539.43	40474.88
539.60	40776.81
539.77	40624.68
539.94	41017.89
540.11	40601.27
540.28	40706.60
540.44	40886.82
540.61	40315.73
540.78	40212.74
540.95	40748.73
541.12	40847.03
541.29	40336.79
541.46	40577.87
541.62	41284.71
541.79	41322.16
541.96	40479.57
542.13	41261.30
542.30	41287.05
542.47	41085.76
542.63	41074.06
542.80	41450.89
542.97	41940.06
543.14	41539.83
543.31	41574.94
543.48	41315.14
543.64	42106.24
543.81	41797.29
543.98	42003.25
544.15	41654.51
544.32	41921.34
544.48	42279.44
544.65	42443.27
544.82	42263.05
544.99	42452.64
545.16	41916.65
545.32	42333.27
545.49	42347.31
545.66	42630.52
545.83	42621.16
546.00	42841.17
546.16	42665.63
546.33	42099.22
546.50	42206.88
546.67	42323.91
546.83	42146.03
547.00	42714.78
547.17	42852.87
547.34	42834.14
547.50	42712.44
547.67	43564.39
547.84	42906.70
548.00	43363.11
548.17	43658.01
548.34	42913.72
548.51	43110.33
548.67	42784.99
548.84	43409.92
549.01	42859.89
549.18	43269.48
549.34	43344.38
549.51	43435.66
549.68	43349.06
549.84	43257.78
550.01	43335.02
550.18	43255.44
550.34	43613.54
550.51	43299.91
550.68	43702.48
550.84	43559.71
551.01	43910.79
551.18	43480.13
551.34	43414.60
551.51	43653.33
551.68	43990.37
551.84	43793.76
552.01	43669.72
552.18	43826.53
552.34	43859.30
552.51	43892.07
552.68	43842.92
552.84	44264.21
553.01	44018.46
553.18	44133.14
553.34	44278.25
553.51	44093.35
553.67	44266.55
553.84	44676.15
554.01	44392.94
554.17	44294.64
554.34	44533.37
554.51	44528.69
554.67	44556.78
554.84	44891.48
555.00	44570.82
555.17	44453.79
555.33	44872.75
555.50	44088.67
555.67	44282.94
555.83	44945.31
556.00	45219.15
556.16	44935.95
556.33	44968.71
556.50	44500.61
556.66	45001.48
556.83	44549.76
556.99	44942.97
557.16	45301.07
557.32	44917.22
557.49	45350.22
557.65	44847.00
557.82	44762.75
557.98	44605.93
558.15	45116.17
558.32	45214.47
558.48	44495.92
558.65	45336.18
558.81	45092.76
558.98	45144.25
559.14	44921.90
559.31	45104.46
559.47	44839.98
559.64	45570.23
559.80	45375.97
559.97	45673.21
560.13	45418.10
560.30	45158.30
560.46	45584.27
560.63	45890.88
560.79	45755.13
560.96	45848.75
561.12	45638.11
561.29	45385.33
561.45	45876.84
561.61	45766.84
561.78	45689.60
561.94	45549.17
562.11	45551.51
562.27	45937.69
562.44	45504.70
562.60	45886.20
562.77	45497.67
562.93	45385.33
563.10	45661.51
563.26	45432.14
563.42	46000.89
563.59	45715.34
563.75	45652.15
563.92	45830.03
564.08	45521.08
564.24	45853.44
564.41	46052.38
564.57	45989.19
564.74	45565.55
564.90	45755.13
565.07	46136.64
565.23	45862.80
565.39	46103.87
565.56	46361.33
565.72	45736.41
565.88	46061.74
566.05	46419.84
566.21	46087.49
566.38	46256.01
566.54	46181.11
566.70	46293.46
566.87	46323.88
567.03	46085.15
567.19	46553.26
567.36	46560.28
567.52	46279.41
567.68	46513.47
567.85	46639.86
568.01	46944.12
568.17	46241.96
568.34	46616.45
568.50	46160.05
568.66	46232.60
568.83	46461.97
568.99	46284.09
569.15	46696.03
569.32	46454.95
569.48	46504.10
569.64	46515.81
569.81	46438.57
569.97	46614.11
570.13	46712.41
570.30	46277.07
570.46	46824.76
570.62	46370.69
570.78	46719.43
570.95	46700.71
571.11	46836.46
571.27	46501.76
571.43	46258.35
571.60	46291.12
571.76	46658.58
571.92	46677.30
572.09	46712.41
572.25	46403.46
572.41	46485.38
572.57	46588.36
572.74	47580.75
572.90	46843.48
573.06	46564.96
573.22	46883.27
573.38	46791.99
573.55	46698.37
573.71	47423.93
573.87	46894.97
574.03	46649.22
574.20	47084.56
574.36	46871.57
574.52	46834.12
574.68	46525.17
574.84	47044.77
575.01	47138.39
575.17	47311.59
575.33	46972.21
575.49	46562.62
575.65	47332.65
575.82	47306.91
575.98	47016.68
576.14	47299.89
576.30	47133.71
576.46	46635.17
576.62	46773.27
576.79	47047.11
576.95	46693.69
577.11	46672.62
577.27	47000.30
577.43	46981.57
577.59	47248.39
577.75	46976.89
577.92	47054.13
578.08	46960.51
578.24	46469.00
578.40	47009.66
578.56	46894.97
578.72	47037.75
578.88	47203.92
579.04	47082.22
579.21	46630.49
579.37	47040.09
579.53	47126.69
579.69	46820.08
579.85	46770.93
580.01	46869.23
580.17	46948.81
580.33	47360.74
580.49	47433.30
580.65	47189.88
580.82	47126.69
580.98	47023.70
581.14	46703.05
581.30	47222.65
581.46	47103.28
581.62	47185.20
581.78	46761.56
581.94	47012.00
582.10	47028.38
582.26	47173.50
582.42	46904.34
582.58	47166.48
582.74	47140.73
582.90	47386.49
583.06	47449.68
583.22	47227.33
583.38	47283.50
583.54	47562.03
583.70	47491.81
583.86	47138.39
584.02	46981.57
584.18	47381.80
584.34	47611.18
584.50	47014.34
584.66	47185.20
584.82	47367.76
584.98	47555.00
585.14	47344.36
585.30	47086.90
585.46	47166.48
585.62	47255.42
585.78	47320.95
585.94	46623.47
586.10	47201.58
586.26	47021.36
586.42	47407.55
586.58	47360.74
586.74	47276.48
586.90	47292.86
587.06	47072.85
587.22	47482.45
587.38	46836.46
587.54	47489.47
587.70	47779.70
587.86	47428.62
588.02	47269.46
588.18	47459.04
588.34	47346.70
588.49	47510.53
588.65	47227.33
588.81	47569.05
588.97	47459.04
589.13	47456.70
589.29	47522.24
589.45	47868.64
589.61	47723.52
589.77	47924.81
589.93	47407.55
590.08	47868.64
