SpectraSuite Data File
++++++++++++++++++++++++++++++++++++
Date: Fri Oct 25 10:47:01 EDT 2013
User: price-jones
Dark Spectrum Present: No
Reference Spectrum Present: No
Number of Sampled Component Spectra: 1
Spectrometers: USB2+H05261
Integration Time (usec): 100000 (USB2+H05261)
Spectra Averaged: 1 (USB2+H05261)
Boxcar Smoothing: 0 (USB2+H05261)
Correct for Electrical Dark: No (USB2+H05261)
Strobe/Lamp Enabled: No (USB2+H05261)
Correct for Detector Non-linearity: No (USB2+H05261)
Correct for Stray Light: No (USB2+H05261)
Number of Pixels in Processed Spectrum: 2048
>>>>>Begin Processed Spectral Data<<<<<
365.73	107.66
365.92	107.66
366.12	107.66
366.32	128.73
366.52	49.15
366.72	0.00
366.91	21.06
367.11	86.60
367.31	42.13
367.51	18.72
367.70	56.17
367.90	51.49
368.10	2.34
368.30	30.43
368.49	63.19
368.69	42.13
368.89	39.79
369.09	46.81
369.28	88.94
369.48	60.85
369.68	18.72
369.87	126.39
370.07	107.66
370.27	131.07
370.47	220.01
370.66	379.17
370.86	400.23
371.06	454.06
371.25	498.53
371.45	482.15
371.65	461.09
371.84	468.11
372.04	409.59
372.24	498.53
372.44	470.45
372.63	526.62
372.83	505.56
373.03	528.96
373.22	547.69
373.42	564.07
373.62	524.28
373.81	615.56
374.01	650.67
374.21	557.05
374.40	500.87
374.60	559.39
374.79	531.30
374.99	564.07
375.19	547.69
375.38	479.81
375.58	608.54
375.78	580.45
375.97	667.05
376.17	627.26
376.37	641.31
376.56	564.07
376.76	615.56
376.95	596.84
377.15	634.29
377.35	589.82
377.54	603.86
377.74	606.20
377.93	653.01
378.13	613.22
378.33	664.71
378.52	608.54
378.72	678.76
378.91	631.94
379.11	645.99
379.31	608.54
379.50	627.26
379.70	667.05
379.89	669.39
380.09	655.35
380.28	608.54
380.48	683.44
380.68	645.99
380.87	638.97
381.07	685.78
381.26	704.50
381.46	795.78
381.65	746.63
381.85	678.76
382.04	709.18
382.24	739.61
382.43	725.57
382.63	718.54
382.83	683.44
383.02	744.29
383.22	697.48
383.41	793.44
383.61	692.80
383.80	774.72
384.00	730.25
384.19	704.50
384.39	826.21
384.58	751.31
384.78	746.63
384.97	718.54
385.17	734.93
385.36	702.16
385.56	779.40
385.75	664.71
385.95	814.51
386.14	823.87
386.34	786.42
386.53	868.34
386.72	821.53
386.92	807.48
387.11	807.48
387.31	877.70
387.50	830.89
387.70	800.46
387.89	800.46
388.09	847.27
388.28	908.13
388.48	830.89
388.67	866.00
388.86	910.47
389.06	919.83
389.25	898.77
389.45	873.02
389.64	866.00
389.84	915.15
390.03	959.62
390.22	926.85
390.42	966.64
390.61	926.85
390.81	978.34
391.00	987.71
391.19	983.02
391.39	936.21
391.58	985.37
391.78	915.15
391.97	971.32
392.16	1004.09
392.36	968.98
392.55	971.32
392.75	940.90
392.94	952.60
393.13	1095.37
393.33	1041.54
393.52	1015.79
393.71	1074.31
393.91	980.68
394.10	1008.77
394.29	1046.22
394.49	1071.97
394.68	1191.33
394.88	1219.42
395.07	1132.82
395.26	1090.69
395.46	1170.27
395.65	1186.65
395.84	1277.93
396.04	1261.55
396.23	1188.99
396.42	1121.12
396.62	1125.80
396.81	1193.67
397.00	1196.01
397.19	1273.25
397.39	1256.87
397.58	1299.00
397.77	1261.55
397.97	1322.40
398.16	1310.70
398.35	1324.74
398.55	1273.25
398.74	1345.81
398.93	1413.68
399.12	1444.11
399.32	1345.81
399.51	1383.26
399.70	1469.86
399.90	1476.88
400.09	1502.62
400.28	1572.84
400.47	1476.88
400.67	1596.25
400.86	1483.90
401.05	1533.05
401.24	1575.18
401.44	1500.28
401.63	1626.67
401.82	1584.54
402.01	1657.10
402.21	1621.99
402.40	1617.31
402.59	1469.86
402.78	1645.40
402.97	1596.25
403.17	1699.23
403.36	1652.42
403.55	1638.38
403.74	1739.02
403.93	1710.93
404.13	1689.87
404.32	1760.08
404.51	1694.55
404.70	1783.49
404.89	1877.11
405.09	1895.83
405.28	1792.85
405.47	1816.26
405.66	1830.30
405.85	1776.47
406.05	1860.73
406.24	1898.17
406.43	1783.49
406.62	1907.54
406.81	1940.30
407.00	1933.28
407.20	1872.43
407.39	1977.75
407.58	1949.67
407.77	1949.67
407.96	2024.56
408.15	2050.31
408.34	2071.37
408.54	2059.67
408.73	2085.42
408.92	2087.76
409.11	2146.27
409.30	2111.16
409.49	2181.38
409.68	2064.35
409.87	2076.06
410.07	2174.36
410.26	2204.78
410.45	2162.66
410.64	2265.64
410.83	2314.79
411.02	2307.77
411.21	2396.71
411.40	2413.09
411.59	2410.75
411.78	2485.65
411.98	2473.95
412.17	2403.73
412.36	2438.84
412.55	2476.29
412.74	2527.78
412.93	2612.04
413.12	2509.05
413.31	2729.06
413.50	2637.78
413.69	2708.00
413.88	2635.44
414.07	2635.44
414.26	2693.96
414.45	2771.19
414.64	2693.96
414.83	2722.04
415.02	2864.82
415.22	2850.77
415.41	2928.01
415.60	2883.54
415.79	2956.10
415.98	2995.89
416.17	2965.46
416.36	2986.52
416.55	2970.14
416.74	3080.14
416.93	2946.73
417.12	3141.00
417.31	3098.87
417.50	2956.10
417.69	3269.73
417.88	3297.81
418.07	3234.62
418.26	3155.04
418.45	3112.91
418.64	3286.11
418.83	3194.83
419.02	3332.92
419.21	3262.71
419.39	3384.41
419.58	3384.41
419.77	3262.71
419.96	3478.04
420.15	3426.54
420.34	3447.61
420.53	3545.91
420.72	3559.95
420.91	3475.70
421.10	3508.46
421.29	3583.36
421.48	3482.72
421.67	3665.28
421.86	3625.49
422.05	3599.74
422.24	3632.51
422.43	3522.51
422.61	3620.81
422.80	3616.13
422.99	3571.66
423.18	3581.02
423.37	3763.58
423.56	3569.32
423.75	3662.94
423.94	3707.41
424.13	3515.48
424.32	3480.38
424.50	3644.21
424.69	3723.79
424.88	3838.48
425.07	3735.50
425.26	3648.90
425.45	3843.16
425.64	3791.67
425.83	3569.32
426.01	3667.62
426.20	3819.75
426.39	3747.20
426.58	3648.90
426.77	3744.86
426.96	3676.98
427.15	3761.24
427.33	3845.50
427.52	3920.40
427.71	3950.82
427.90	3904.01
428.09	3922.74
428.28	3794.01
428.46	3854.86
428.65	3889.97
428.84	4025.72
429.03	4030.40
429.22	3777.62
429.40	3779.97
429.59	3948.48
429.78	3801.03
429.97	3751.88
430.16	3894.65
430.34	3974.23
430.53	4133.39
430.72	4053.81
430.91	4025.72
431.10	4060.83
431.28	4154.45
431.47	4283.18
431.66	4304.25
431.85	4219.99
432.03	4177.86
432.22	4440.00
432.41	4346.37
432.60	4519.57
432.79	4325.31
432.97	4463.40
433.16	4297.22
433.35	4308.93
433.54	4299.56
433.72	4306.59
433.91	4386.16
434.10	4498.51
434.28	4430.63
434.47	4470.42
434.66	4610.86
434.85	4699.80
435.03	4550.00
435.22	4603.83
435.41	4748.95
435.59	4601.49
435.78	4681.07
435.97	4873.00
436.16	4847.25
436.34	4788.74
436.53	4912.78
436.72	4823.84
436.90	4744.27
437.09	4901.08
437.28	4798.10
437.46	4922.15
437.65	4753.63
437.84	4908.10
438.02	4891.72
438.21	4847.25
438.40	4973.64
438.58	5172.58
438.77	4987.68
438.96	5053.22
439.14	5205.35
439.33	5263.86
439.52	5338.76
439.70	5195.99
439.89	5268.55
440.08	5327.06
440.26	5275.57
440.45	5420.68
440.63	5383.23
440.82	5710.91
441.01	5425.36
441.19	5575.16
441.38	5673.46
441.57	5469.83
441.75	5607.92
441.94	5912.19
442.12	5771.76
442.31	5809.21
442.50	5994.11
442.68	6026.88
442.87	5898.15
443.05	6003.47
443.24	5921.56
443.43	6169.65
443.61	6078.37
443.80	6101.78
443.98	5923.90
444.17	5657.07
444.35	5966.03
444.54	6129.86
444.73	6015.18
444.91	6064.33
445.10	5991.77
445.28	6129.86
445.47	6085.39
445.65	6134.54
445.84	6204.76
446.02	6083.05
446.21	6225.82
446.39	6225.82
446.58	6216.46
446.77	6162.63
446.95	5996.45
447.14	6197.74
447.32	6197.74
447.51	6317.11
447.69	6064.33
447.88	6258.59
448.06	6342.85
448.25	6356.90
448.43	6300.72
448.62	6207.10
448.80	6136.88
448.99	6314.77
449.17	6499.67
449.36	6368.60
449.54	6520.73
449.73	6506.69
449.91	6583.93
450.10	6511.37
450.28	6642.44
450.46	6607.33
450.65	6754.79
450.83	6569.88
451.02	6677.55
451.20	6703.29
451.39	6750.10
451.57	6853.09
451.76	6637.76
451.94	6743.08
452.13	6691.59
452.31	6590.95
452.49	6572.22
452.68	6785.21
452.86	6703.29
453.05	6832.02
453.23	6892.88
453.42	7068.42
453.60	6827.34
453.78	7012.24
453.97	6958.41
454.15	7129.27
454.34	6789.89
454.52	6913.94
454.70	7000.54
454.89	7068.42
455.07	7122.25
455.26	7082.46
455.44	7185.44
455.62	7234.60
455.81	7246.30
455.99	7300.13
456.17	7330.56
456.36	7265.02
456.54	7440.56
456.73	7431.20
456.91	7632.49
457.09	7625.47
457.28	7555.25
457.46	7513.12
457.64	7470.99
457.83	7583.34
458.01	7412.48
458.19	7737.81
458.38	7569.29
458.56	7625.47
458.74	7845.48
458.93	7602.06
459.11	7688.66
459.29	7658.23
459.48	7836.11
459.66	7681.64
459.84	7698.02
460.03	7936.76
460.21	7676.96
460.39	8084.21
460.57	7964.84
460.76	8004.63
460.94	8044.42
461.12	8093.57
461.31	8154.43
461.49	8046.76
461.67	8217.62
461.85	8236.35
462.04	8400.18
462.22	8667.00
462.40	8252.73
462.59	8325.29
462.77	8437.63
462.95	8449.33
463.13	8322.94
463.32	8329.97
463.50	8477.42
463.68	8283.16
463.86	8285.50
464.05	8138.04
464.23	8451.67
464.41	8643.60
464.59	8346.35
464.78	8599.13
464.96	8521.89
465.14	8479.76
465.32	8489.12
465.50	8645.94
465.69	8765.31
465.87	8585.08
466.05	8784.03
466.23	8589.77
466.41	8650.62
466.60	8858.93
466.78	8547.64
466.96	8594.45
467.14	8589.77
467.32	8896.38
467.51	8954.89
467.69	8725.52
467.87	8751.26
468.05	9041.49
468.23	8849.57
468.41	9020.42
468.60	8915.10
468.78	8954.89
468.96	8919.78
469.14	9111.71
469.32	9242.78
469.50	8833.18
469.69	9228.73
469.87	9245.12
470.05	9193.62
470.23	9205.33
470.41	9343.42
470.59	9158.52
470.77	9245.12
470.95	9401.93
471.14	9446.40
471.32	9193.62
471.50	9748.33
471.68	9654.71
471.86	9710.88
472.04	9750.67
472.22	9928.55
472.40	9451.08
472.58	9745.99
472.77	9881.74
472.95	9998.77
473.13	10050.26
473.31	9781.10
473.49	9884.08
473.67	9685.14
473.85	9951.96
474.03	10218.78
474.21	10218.78
474.39	10668.16
474.57	10408.36
474.75	10438.79
474.93	10415.38
475.12	10494.96
475.30	10761.78
475.48	10593.26
475.66	10686.89
475.84	10803.91
476.02	10581.56
476.20	10710.29
476.38	10967.75
476.56	11225.21
476.74	10913.92
476.92	10937.32
477.10	10911.58
477.28	11227.55
477.46	11330.53
477.64	11597.35
477.82	11534.16
478.00	11793.96
478.18	11740.13
478.36	12070.14
478.54	11943.75
478.72	11997.59
478.90	12058.44
479.08	12231.64
479.26	12245.68
479.44	12470.37
479.62	12446.97
479.80	12573.36
479.98	12627.19
480.16	13083.59
480.34	12676.34
480.52	12823.80
480.70	13029.76
480.88	13053.17
481.06	13001.68
481.24	12980.61
481.41	13121.04
481.59	13528.30
481.77	13657.03
481.95	13565.74
482.13	13781.07
482.31	13668.73
482.49	13956.61
482.67	13802.14
482.85	14244.50
483.03	14333.44
483.21	14380.25
483.39	14714.95
483.57	14380.25
483.74	14658.78
483.92	14611.96
484.10	14537.07
484.28	14916.23
484.46	15487.32
484.64	15360.94
484.82	15300.08
485.00	15183.06
485.18	15456.90
485.35	15578.61
485.53	15440.51
485.71	15358.60
485.89	15693.29
486.07	15548.18
486.25	15939.05
486.43	16152.04
486.61	16276.09
486.78	16400.13
486.96	16592.06
487.14	16690.36
487.32	16856.54
487.50	16807.39
487.68	16999.31
487.85	17436.99
488.03	17432.31
488.21	17516.57
488.39	17731.90
488.57	17458.06
488.75	17752.96
488.92	18326.39
489.10	18078.30
489.28	18202.35
489.46	18731.31
489.64	18602.58
489.81	18967.70
489.99	19166.65
490.17	18979.40
490.35	19037.92
490.53	19482.62
490.70	19601.99
490.88	19477.94
491.06	19812.63
491.24	19372.61
491.41	19786.89
491.59	19889.87
491.77	19924.98
491.95	20081.80
492.13	20346.28
492.30	20652.89
492.48	20500.75
492.66	20760.55
492.84	20563.95
493.01	20882.26
493.19	20807.36
493.37	21172.49
493.54	21575.06
493.72	21179.51
493.90	21366.75
494.08	21867.63
494.25	21811.45
494.43	22001.04
494.61	22029.12
494.79	22361.48
494.96	22232.75
495.14	21986.99
495.32	22286.58
495.49	22260.84
495.67	22698.52
495.85	22801.50
496.02	23117.47
496.20	22892.78
496.38	23206.41
496.55	23164.28
496.73	23754.10
496.91	23484.94
497.09	23772.82
497.26	23566.85
497.44	23784.52
497.62	23950.70
497.79	24182.42
497.97	23850.06
498.14	24203.48
498.32	24472.64
498.50	24362.64
498.67	24854.15
498.85	24606.05
499.03	24898.62
499.20	24643.50
499.38	24673.93
499.56	25132.67
499.73	24952.45
499.91	25102.25
500.08	25273.10
500.26	25233.32
500.44	25507.16
500.61	25504.82
500.79	25338.64
500.97	26017.40
501.14	26001.01
501.32	26345.07
501.49	25881.64
501.67	25991.65
501.84	26389.54
502.02	26417.63
502.20	26389.54
502.37	26499.55
502.55	26293.58
502.72	26590.83
502.90	26733.60
503.07	26925.52
503.25	26806.16
503.43	26635.30
503.60	27082.34
503.78	26883.39
503.95	26857.65
504.13	27180.64
504.30	27309.37
504.48	27197.02
504.65	27578.53
504.83	27552.79
505.01	27587.89
505.18	27597.26
505.36	28163.67
505.53	28098.13
505.71	28217.50
505.88	28088.77
506.06	27861.74
506.23	28217.50
506.41	28149.62
506.58	28346.23
506.76	28823.70
506.93	28456.23
507.11	28435.17
507.28	28804.97
507.46	28526.45
507.63	28835.40
507.81	29331.59
507.98	29104.56
508.16	29062.43
508.33	29273.08
508.50	29383.09
508.68	29584.37
508.85	29502.45
509.03	29469.69
509.20	29607.78
509.38	30047.80
509.55	29972.90
509.73	29937.79
509.90	29930.77
510.08	29783.32
510.25	30015.03
510.42	30103.97
510.60	30223.34
510.77	30171.85
510.95	30462.07
511.12	30323.98
511.30	30340.36
511.47	31292.96
511.64	31304.67
511.82	30625.91
511.99	31180.62
512.17	30885.71
512.34	30354.41
512.51	31070.61
512.69	31676.81
512.86	31321.05
513.04	31644.04
513.21	31622.98
513.38	31578.51
513.56	31049.55
513.73	31524.68
513.90	31641.70
514.08	31400.63
514.25	31711.92
514.43	31676.81
514.60	31929.59
514.77	31810.22
514.95	32418.76
515.12	31955.33
515.29	32390.67
515.47	32353.23
515.64	33001.55
515.81	32261.94
515.99	32320.46
516.16	32357.91
516.33	32664.52
516.51	32297.05
516.68	32259.60
516.85	32240.88
517.03	32538.13
517.20	32664.52
517.37	33127.94
517.54	33366.68
517.72	33043.68
517.89	32837.72
518.06	33046.02
518.24	32818.99
518.41	33027.30
518.58	33223.90
518.75	33432.21
518.93	33425.19
519.10	33479.02
519.27	33986.92
519.45	33762.23
519.62	33748.18
519.79	33706.05
519.96	33830.10
520.14	33897.98
520.31	33923.72
520.48	34024.37
520.65	34579.07
520.83	34635.25
521.00	34433.96
521.17	34586.10
521.34	34380.13
521.52	34431.62
521.69	34752.27
521.86	34822.49
522.03	34920.79
522.20	34576.73
522.38	34789.72
522.55	35096.33
522.72	34817.81
522.89	35016.75
523.07	35365.49
523.24	35072.93
523.41	35604.23
523.58	35456.78
523.75	35981.06
523.92	35978.72
524.10	35847.64
524.27	35861.69
524.44	36086.38
524.61	36020.84
524.78	35936.59
524.96	35885.09
525.13	36290.01
525.30	36194.04
525.47	36825.99
525.64	36046.59
525.81	36280.64
525.98	36198.73
526.16	36444.48
526.33	36205.75
526.50	36781.52
526.67	36201.07
526.84	36156.60
527.01	36147.23
527.18	36264.26
527.36	36814.29
527.53	36687.90
527.70	37343.25
527.87	37081.11
528.04	36954.72
528.21	36971.10
528.38	37340.91
528.55	37366.65
528.72	37462.61
528.89	37624.11
529.07	37221.54
529.24	37591.34
529.41	37336.23
529.58	37221.54
529.75	37221.54
529.92	37574.96
530.09	37273.03
530.26	37734.12
530.43	37668.58
530.60	37638.15
530.77	37666.24
530.94	38050.09
531.11	38017.32
531.28	38036.05
531.46	38307.55
531.63	38113.28
531.80	38073.49
531.97	38110.94
532.14	37907.32
532.31	38040.73
532.48	38445.64
532.65	38550.96
532.82	38520.54
532.99	38623.52
533.16	38176.48
533.33	38490.11
533.50	38824.81
533.67	38712.46
533.84	38349.68
534.01	38721.82
534.18	39037.80
534.35	38988.64
534.52	38843.53
534.69	39384.19
534.86	39295.25
535.03	38396.49
535.20	39353.77
535.37	39346.75
535.54	39655.70
535.71	39360.79
535.88	39178.23
536.05	39477.82
536.22	39461.43
536.38	39262.49
536.55	39578.46
536.72	39957.63
536.89	39379.51
537.06	39683.78
537.23	39999.76
537.40	39335.04
537.57	39847.62
537.74	39800.81
537.91	40116.78
538.08	40018.48
538.25	39910.82
538.42	39842.94
538.59	40119.12
538.75	40048.91
538.92	39732.93
539.09	40048.91
539.26	40048.91
539.43	40133.17
539.60	40390.62
539.77	39864.00
539.94	40034.86
540.11	40322.75
540.28	39896.77
540.44	40488.93
540.61	40519.35
540.78	40584.89
540.95	40570.85
541.12	40177.64
541.29	40140.19
541.46	40935.97
541.62	40671.49
541.79	40500.63
541.96	40240.83
542.13	40500.63
542.30	40737.02
542.47	41144.28
542.63	40793.20
542.80	41167.68
542.97	41656.85
543.14	41446.21
543.31	41090.44
543.48	41502.38
543.64	42139.00
543.81	41743.45
543.98	41614.72
544.15	41497.70
544.32	41883.89
544.48	42031.34
544.65	41949.42
544.82	41729.41
544.99	41179.39
545.16	41308.11
545.32	41165.34
545.49	42014.96
545.66	41642.81
545.83	41656.85
546.00	42227.95
546.16	41792.61
546.33	41769.20
546.50	41647.49
546.67	42333.27
546.83	41359.61
547.00	42223.26
547.17	42216.24
547.34	42272.42
547.50	42513.49
547.67	42433.91
547.84	42319.23
548.00	42649.24
548.17	42691.37
548.34	42532.22
548.51	42422.21
548.67	42665.63
548.84	42564.98
549.01	42375.40
549.18	42391.78
549.34	42583.71
549.51	42691.37
549.68	43196.93
549.84	42887.98
550.01	43079.90
550.18	42464.34
550.34	42649.24
550.51	42557.96
550.68	42728.82
550.84	43040.11
551.01	42347.31
551.18	43384.17
551.34	42897.34
551.51	43311.61
551.68	42890.32
551.84	42871.59
552.01	43070.54
552.18	43122.03
552.34	43122.03
552.51	43171.18
552.68	43077.56
552.84	43292.89
553.01	43433.32
553.18	43473.11
553.34	43358.42
553.51	43269.48
553.67	43555.03
553.84	43391.19
554.01	43419.28
554.17	43784.40
554.34	43580.78
554.51	43597.16
554.67	43725.89
554.84	43503.54
555.00	43580.78
555.17	43433.32
555.33	43650.99
555.50	43494.18
555.67	43522.26
555.83	43643.97
556.00	43646.31
556.16	44144.84
556.33	43620.56
556.50	43786.74
556.66	43847.60
556.83	43447.36
556.99	44011.43
557.16	44151.87
557.32	44154.21
557.49	44119.10
557.65	43828.87
557.82	44041.86
557.98	43990.37
558.15	44156.55
558.32	43901.43
558.48	44133.14
558.65	44147.18
558.81	44149.53
558.98	43964.62
559.14	44194.00
559.31	44172.93
559.47	44046.54
559.64	44781.47
559.80	44378.90
559.97	44418.69
560.13	44018.46
560.30	44048.88
560.46	44399.96
560.63	44538.05
560.79	44439.75
560.96	44507.63
561.12	44535.71
561.29	44484.22
561.45	44474.86
561.61	44264.21
561.78	44336.77
561.94	44154.21
562.11	44320.38
562.27	44371.88
562.44	44615.29
562.60	44399.96
562.77	44678.49
562.93	44687.85
563.10	44907.86
563.26	44472.52
563.42	44566.14
563.59	44603.59
563.75	44612.95
563.92	44629.34
564.08	44524.01
564.24	44388.26
564.41	44872.75
564.57	44261.87
564.74	44776.79
564.90	44669.12
565.07	44788.49
565.23	44589.55
565.39	44516.99
565.56	45188.72
565.72	44470.18
565.88	45308.09
566.05	44802.53
566.21	44758.06
566.38	44676.15
566.54	44900.84
566.70	44865.73
566.87	45038.93
567.03	45043.61
567.19	45326.81
567.36	45354.90
567.52	45034.25
567.68	44863.39
567.85	44952.33
568.01	44978.07
568.17	45097.44
568.34	44748.70
568.50	44992.12
568.66	44996.80
568.83	44996.80
568.99	44690.19
569.15	44657.42
569.32	45001.48
569.48	44896.16
569.64	45057.65
569.81	45242.56
569.97	45078.72
570.13	44917.22
570.30	45289.37
570.46	44676.15
570.62	44877.43
570.78	44699.55
570.95	45001.48
571.11	45050.63
571.27	44971.05
571.43	45029.57
571.60	45120.85
571.76	44858.71
571.92	44985.10
572.09	44921.90
572.25	45050.63
572.41	44847.00
572.57	45242.56
572.74	45387.67
572.90	45375.97
573.06	45031.91
573.22	45027.23
573.38	45289.37
573.55	44952.33
573.71	45275.32
573.87	45099.78
574.03	45123.19
574.20	45429.80
574.36	44748.70
574.52	45242.56
574.68	45120.85
574.84	45399.37
575.01	45148.93
575.17	45193.40
575.33	45092.76
575.49	45045.95
575.65	45502.35
575.82	45530.44
575.98	45394.69
576.14	45347.88
576.30	45209.79
576.46	45209.79
576.62	45043.61
576.79	45371.28
576.95	44622.31
577.11	45570.23
577.27	45207.45
577.43	45560.87
577.59	45181.70
577.75	45312.77
577.92	45146.59
578.08	44978.07
578.24	44966.37
578.40	45251.92
578.56	45277.66
578.72	44928.92
578.88	45291.71
579.04	45497.67
579.21	45036.59
579.37	45471.93
579.53	45329.16
579.69	45188.72
579.85	45595.98
580.01	45544.48
580.17	45422.78
580.33	45553.85
580.49	45488.31
580.65	45546.82
580.82	45256.60
580.98	45226.17
581.14	45394.69
581.30	45329.16
581.46	45418.10
581.62	45280.00
581.78	45361.92
581.94	45785.56
582.10	45265.96
582.26	45715.34
582.42	45558.53
582.58	45399.37
582.74	45055.31
582.90	45251.92
583.06	45640.45
583.22	45890.88
583.38	45572.57
583.54	45567.89
583.70	45420.44
583.86	45647.47
584.02	45200.43
584.18	45109.14
584.34	45757.47
584.50	45317.45
584.66	45612.36
584.82	45375.97
584.98	45535.12
585.14	45371.28
585.30	45289.37
585.46	45556.19
585.62	45373.63
585.78	45382.99
585.94	45455.54
586.10	45530.44
586.26	45418.10
586.42	45530.44
586.58	45502.35
586.74	45591.30
586.90	45382.99
587.06	45125.53
587.22	45364.26
587.38	45181.70
587.54	45530.44
587.70	45696.62
587.86	45621.72
588.02	45305.75
588.18	45525.76
588.34	45579.59
588.49	45116.17
588.65	44971.05
588.81	45193.40
588.97	45546.82
589.13	45502.35
589.29	45275.32
589.45	45270.64
589.61	45633.42
589.77	45631.08
589.93	45457.88
590.08	45507.04
590.24	45497.67
