SpectraSuite Data File
++++++++++++++++++++++++++++++++++++
Date: Fri Oct 25 11:25:35 EDT 2013
User: price-jones
Dark Spectrum Present: No
Reference Spectrum Present: No
Number of Sampled Component Spectra: 1
Spectrometers: USB2+H05261
Integration Time (usec): 100000 (USB2+H05261)
Spectra Averaged: 1 (USB2+H05261)
Boxcar Smoothing: 0 (USB2+H05261)
Correct for Electrical Dark: No (USB2+H05261)
Strobe/Lamp Enabled: No (USB2+H05261)
Correct for Detector Non-linearity: No (USB2+H05261)
Correct for Stray Light: No (USB2+H05261)
Number of Pixels in Processed Spectrum: 2048
>>>>>Begin Processed Spectral Data<<<<<
365.73	210.65
365.92	210.65
366.12	210.65
366.32	133.41
366.52	163.84
366.72	163.84
366.91	95.96
367.11	49.15
367.31	133.41
367.51	102.98
367.70	84.26
367.90	152.13
368.10	168.52
368.30	133.41
368.49	91.28
368.69	166.18
368.89	163.84
369.09	131.07
369.28	107.66
369.48	194.26
369.68	187.24
369.87	217.67
370.07	273.84
370.27	173.20
370.47	301.93
370.66	500.87
370.86	650.67
371.06	615.56
371.25	676.41
371.45	648.33
371.65	669.39
371.84	718.54
372.04	739.61
372.24	706.84
372.44	664.71
372.63	730.25
372.83	727.91
373.03	741.95
373.22	781.74
373.42	751.31
373.62	786.42
373.81	830.89
374.01	833.23
374.21	816.85
374.40	788.76
374.60	912.81
374.79	774.72
374.99	844.93
375.19	823.87
375.38	854.30
375.58	863.66
375.78	908.13
375.97	866.00
376.17	936.21
376.37	889.40
376.56	894.08
376.76	821.53
376.95	947.92
377.15	877.70
377.35	835.57
377.54	924.51
377.74	896.43
377.93	936.21
378.13	999.41
378.33	868.34
378.52	882.38
378.72	905.79
378.91	950.26
379.11	1018.13
379.31	980.68
379.50	861.32
379.70	987.71
379.89	950.26
380.09	959.62
380.28	961.96
380.48	985.37
380.68	968.98
380.87	945.58
381.07	1011.11
381.26	1177.29
381.46	1025.15
381.65	1036.86
381.85	1043.88
382.04	1004.09
382.24	1022.81
382.43	1071.97
382.63	1104.73
382.83	1025.15
383.02	1102.39
383.22	1067.28
383.41	1109.41
383.61	1102.39
383.80	1081.33
384.00	1188.99
384.19	1137.50
384.39	1071.97
384.58	1064.94
384.78	1177.29
384.97	1135.16
385.17	1093.03
385.36	1071.97
385.56	1249.85
385.75	1177.29
385.95	1116.44
386.14	1132.82
386.34	1212.40
386.53	1219.42
386.72	1191.33
386.92	1242.82
387.11	1217.08
387.31	1261.55
387.50	1284.95
387.70	1170.27
387.89	1254.53
388.09	1247.51
388.28	1331.76
388.48	1240.48
388.67	1303.68
388.86	1210.06
389.06	1282.61
389.25	1320.06
389.45	1394.96
389.64	1434.75
389.84	1507.30
390.03	1425.39
390.22	1488.58
390.42	1416.02
390.61	1378.58
390.81	1476.88
391.00	1448.79
391.19	1409.00
391.39	1385.60
391.58	1427.73
391.78	1317.72
391.97	1563.48
392.16	1448.79
392.36	1582.20
392.55	1563.48
392.75	1474.54
392.94	1544.75
393.13	1458.15
393.33	1507.30
393.52	1540.07
393.71	1591.56
393.91	1598.59
394.10	1554.12
394.29	1535.39
394.49	1631.35
394.68	1568.16
394.88	1565.82
395.07	1666.46
395.26	1610.29
395.46	1689.87
395.65	1715.61
395.84	1727.32
396.04	1762.42
396.23	1818.60
396.42	1729.66
396.62	1813.92
396.81	1839.66
397.00	1839.66
397.19	1734.34
397.39	1907.54
397.58	1874.77
397.77	1743.70
397.97	1849.02
398.16	1818.60
398.35	1849.02
398.55	1935.62
398.74	1884.13
398.93	1959.03
399.12	1898.17
399.32	1980.09
399.51	1989.46
399.70	1970.73
399.90	1963.71
400.09	2054.99
400.28	2073.71
400.47	2090.10
400.67	2029.24
400.86	2045.63
401.05	2115.84
401.24	2200.10
401.44	2043.29
401.63	2097.12
401.82	2244.57
402.01	2172.02
402.21	2186.06
402.40	2202.44
402.59	2256.28
402.78	2207.13
402.97	2296.07
403.17	2272.66
403.36	2211.81
403.55	2321.81
403.74	2317.13
403.93	2324.15
404.13	2326.49
404.32	2420.11
404.51	2368.62
404.70	2415.43
404.89	2495.01
405.09	2518.42
405.28	2480.97
405.47	2480.97
405.66	2431.82
405.85	2551.18
406.05	2511.39
406.24	2581.61
406.43	2509.05
406.62	2565.23
406.81	2644.81
407.00	2619.06
407.20	2567.57
407.39	2558.21
407.58	2745.45
407.77	2834.39
407.96	2719.70
408.15	2729.06
408.34	2719.70
408.54	2818.00
408.73	2848.43
408.92	2759.49
409.11	2825.03
409.30	2832.05
409.49	2864.82
409.68	2930.35
409.87	2963.12
410.07	3035.67
410.26	3002.91
410.45	2923.33
410.64	3028.65
410.83	3054.40
411.02	3119.93
411.21	3136.32
411.40	2977.16
411.59	3138.66
411.78	3173.77
411.98	3075.46
412.17	3400.80
412.36	3414.84
412.55	3407.82
412.74	3349.31
412.93	3377.39
413.12	3290.79
413.31	3421.86
413.50	3349.31
413.69	3564.64
413.88	3550.59
414.07	3463.99
414.26	3597.40
414.45	3609.11
414.64	3714.43
414.83	3791.67
415.02	3777.62
415.22	3896.99
415.41	3889.97
415.60	3810.39
415.79	3829.12
415.98	3939.12
416.17	3859.54
416.36	3894.65
416.55	3974.23
416.74	4093.60
416.93	3995.29
417.12	4065.51
417.31	4100.62
417.50	4105.30
417.69	4269.14
417.88	4234.03
418.07	4287.86
418.26	4334.67
418.45	4344.03
418.64	4559.36
418.83	4430.63
419.02	4491.49
419.21	4503.19
419.39	4550.00
419.58	4454.04
419.77	4526.60
419.96	4622.56
420.15	4606.17
420.34	4496.17
420.53	4629.58
420.72	4610.86
420.91	4669.37
421.10	4669.37
421.29	4741.93
421.48	4636.60
421.67	4678.73
421.86	4821.50
422.05	4758.31
422.24	4940.87
422.43	4950.23
422.61	4814.48
422.80	4908.10
422.99	4936.19
423.18	5041.51
423.37	4905.76
423.56	4940.87
423.75	4823.84
423.94	4816.82
424.13	4606.17
424.32	4798.10
424.50	5001.72
424.69	5032.15
424.88	5085.98
425.07	5013.43
425.26	4915.12
425.45	5041.51
425.64	5020.45
425.83	4851.93
426.01	4950.23
426.20	5020.45
426.39	4933.85
426.58	5027.47
426.77	4936.19
426.96	5214.71
427.15	5078.96
427.33	5165.56
427.52	5191.31
427.71	5282.59
427.90	5245.14
428.09	5249.82
428.28	5390.25
428.46	5334.08
428.65	5303.65
428.84	5462.81
429.03	5511.96
429.22	5212.37
429.40	5493.24
429.59	5643.03
429.78	5359.83
429.97	5352.81
430.16	5334.08
430.34	5619.63
430.53	5554.09
430.72	5738.99
430.91	5488.56
431.10	5598.56
431.28	5729.63
431.47	5687.50
431.66	5872.40
431.85	5706.23
432.03	5823.25
432.22	6005.81
432.41	5884.11
432.60	5912.19
432.79	6134.54
432.97	6157.95
433.16	6054.97
433.35	6024.54
433.54	5902.83
433.72	6022.20
433.91	6029.22
434.10	6141.57
434.28	6038.58
434.47	6094.76
434.66	6335.83
434.85	6352.21
435.03	6282.00
435.22	6190.72
435.41	6424.77
435.59	6413.07
435.78	6452.86
435.97	6473.92
436.16	6612.01
436.34	6413.07
436.53	6523.07
436.72	6626.06
436.90	6532.44
437.09	6691.59
437.28	6649.46
437.46	6743.08
437.65	6569.88
437.84	6731.38
438.02	6551.16
438.21	6693.93
438.40	6771.17
438.58	6991.18
438.77	6972.46
438.96	6991.18
439.14	7077.78
439.33	7080.12
439.52	7265.02
439.70	7035.65
439.89	7438.22
440.08	7508.44
440.26	7342.26
440.45	7281.41
440.63	7440.56
440.82	7662.91
441.01	7599.72
441.19	7545.89
441.38	7747.17
441.57	7634.83
441.75	7808.03
441.94	7953.14
442.12	8028.04
442.31	8025.70
442.50	7974.21
442.68	7964.84
442.87	7899.31
443.05	8257.41
443.24	8355.71
443.43	8013.99
443.61	8035.06
443.80	8344.01
443.98	8121.66
444.17	7698.02
444.35	8219.96
444.54	8372.10
444.73	8388.48
444.91	8409.54
445.10	8217.62
445.28	8318.26
445.47	8376.78
445.65	8180.17
445.84	8301.88
446.02	8379.12
446.21	8334.65
446.39	8393.16
446.58	8496.14
446.77	8383.80
446.95	8315.92
447.14	8257.41
447.32	8315.92
447.51	8521.89
447.69	8531.25
447.88	8549.98
448.06	8421.25
448.25	8575.72
448.43	8610.83
448.62	8629.56
448.80	8557.00
448.99	8657.64
449.17	8786.37
449.36	8674.03
449.54	8837.86
449.73	8716.16
449.91	9036.81
450.10	8922.12
450.28	9060.21
450.46	9095.32
450.65	8954.89
450.83	9116.39
451.02	9144.47
451.20	9020.42
451.39	9057.87
451.57	9006.38
451.76	9156.18
451.94	9240.44
452.13	9336.40
452.31	9266.18
452.49	9266.18
452.68	9465.13
452.86	9359.80
453.05	9411.29
453.23	9497.89
453.42	9329.38
453.60	9179.58
453.78	9343.42
453.97	9320.01
454.15	9535.34
454.34	9563.43
454.52	9774.08
454.70	9776.42
454.89	9830.25
455.07	9776.42
455.26	9703.86
455.44	9944.94
455.62	9942.60
455.81	9898.13
455.99	9954.30
456.17	9937.91
456.36	9879.40
456.54	10099.41
456.73	10333.47
456.91	10317.08
457.09	10267.93
457.28	10420.06
457.46	10125.16
457.64	10600.29
457.83	10441.13
458.01	10396.66
458.19	10548.79
458.38	10640.08
458.56	10761.78
458.74	10471.56
458.93	10611.99
459.11	10878.81
459.29	10773.49
459.48	10918.60
459.66	10663.48
459.84	10960.73
460.03	11087.12
460.21	10909.24
460.39	11084.78
460.57	10967.75
460.76	11117.54
460.94	11197.12
461.12	11049.67
461.31	11384.37
461.49	11246.27
461.67	11250.96
461.85	11393.73
462.04	11145.63
462.22	11658.21
462.40	11742.47
462.59	11449.90
462.77	11524.80
462.95	11627.78
463.13	11536.50
463.32	11634.80
463.50	11910.99
463.68	11672.25
463.86	11749.49
464.05	11583.31
464.23	11658.21
464.41	11981.20
464.59	11702.68
464.78	12107.59
464.96	11941.41
465.14	11906.31
465.32	12079.50
465.50	12257.39
465.69	11887.58
465.87	12128.66
466.05	12287.81
466.23	12135.68
466.41	12226.96
466.60	12519.53
466.78	12035.03
466.96	12201.21
467.14	12222.28
467.32	12332.28
467.51	12390.80
467.69	12205.89
467.87	12446.97
468.05	12484.42
468.23	12362.71
468.41	12353.35
468.60	12498.46
468.78	12985.29
468.96	12865.92
469.14	12814.43
469.32	12936.14
469.50	12669.32
469.69	13013.38
469.87	13195.94
470.05	13006.36
470.23	13053.17
470.41	13078.91
470.59	13331.69
470.77	12999.34
470.95	13069.55
471.14	13481.49
471.32	13139.77
471.50	13523.62
471.68	13444.04
471.86	13586.81
472.04	13507.23
472.22	14101.73
472.40	13830.23
472.58	13970.66
472.77	13954.27
472.95	13949.59
473.13	14445.79
473.31	13940.23
473.49	14258.54
473.67	14111.09
473.85	14253.86
474.03	14658.78
474.21	14642.39
474.39	14544.09
474.57	14677.50
474.75	15012.20
474.93	15019.22
475.12	14602.60
475.30	15066.03
475.48	15073.05
475.66	15257.95
475.84	15293.06
476.02	15393.70
476.20	15272.00
476.38	15225.18
476.56	15864.15
476.74	15920.32
476.92	15889.90
477.10	15889.90
477.28	16147.36
477.46	16128.63
477.64	16074.80
477.82	16449.28
478.00	16898.67
478.18	16685.68
478.36	17039.10
478.54	17027.40
478.72	17109.32
478.90	17385.50
479.08	17439.33
479.26	17680.41
479.44	17451.03
479.62	17556.36
479.80	17708.49
479.98	18230.43
480.16	18368.52
480.34	18579.17
480.52	18679.82
480.70	18534.70
480.88	18239.79
481.06	18623.64
481.24	18785.14
481.41	19222.82
481.59	19150.26
481.77	19487.30
481.95	19447.51
482.13	19744.76
482.31	19665.18
482.49	20107.54
482.67	20109.88
482.85	20444.58
483.03	20563.95
483.21	20790.98
483.39	20613.10
483.57	20915.03
483.74	20982.90
483.92	21181.85
484.10	21174.83
484.28	21628.89
484.46	21956.57
484.64	22270.20
484.82	21893.37
485.00	22118.06
485.18	22281.90
485.35	23119.81
485.53	22841.29
485.71	23166.62
485.89	23342.16
486.07	23300.03
486.25	23227.48
486.43	23592.60
486.61	23786.86
486.78	24067.73
486.96	24194.12
487.14	24629.46
487.32	24732.44
487.50	24673.93
487.68	24781.59
487.85	25383.11
488.03	25275.45
488.21	25750.57
488.39	25937.82
488.57	26155.49
488.75	25977.61
488.92	26314.64
489.10	26621.25
489.28	26590.83
489.46	26958.29
489.64	26906.80
489.81	27751.73
489.99	27751.73
490.17	28006.85
490.35	28018.55
490.53	28322.82
490.70	28393.04
490.88	27985.79
491.06	28496.02
491.24	28751.14
491.41	28985.19
491.59	28893.91
491.77	29039.03
491.95	29682.67
492.13	29837.15
492.30	29851.19
492.48	30059.50
492.66	30190.57
492.84	30377.81
493.01	30628.25
493.19	30506.54
493.37	30916.14
493.54	31028.48
493.72	31192.32
493.90	31222.75
494.08	31538.72
494.25	32025.55
494.43	31913.20
494.61	32189.39
494.79	32292.37
494.96	32451.53
495.14	32816.65
495.32	33057.73
495.49	33039.00
495.67	33088.15
495.85	33500.09
496.02	33565.62
496.20	34141.39
496.38	33844.15
496.55	34075.86
496.73	34478.43
496.91	34415.24
497.09	34689.08
497.26	34927.81
497.44	34574.39
497.62	35051.86
497.79	35711.89
497.97	35304.64
498.14	35709.55
498.32	36102.76
498.50	36161.28
498.67	36095.74
498.85	36538.10
499.03	36503.00
499.20	36598.96
499.38	36877.48
499.56	36697.26
499.73	36737.05
499.91	37244.94
500.08	37483.68
500.26	37605.39
500.44	37537.51
500.61	37809.01
500.79	37378.36
500.97	37797.31
501.14	38726.50
501.32	38593.09
501.49	38377.76
501.67	38916.09
501.84	39187.59
502.02	38782.68
502.20	38707.78
502.37	39051.84
502.55	39070.56
502.72	39681.44
502.90	39384.19
503.07	39321.00
503.25	39550.37
503.43	39707.19
503.60	39978.69
503.78	40081.67
503.95	40346.15
504.13	40481.91
504.30	40463.18
504.48	40044.23
504.65	40388.28
504.83	40931.29
505.01	41481.31
505.18	40999.16
505.36	41598.34
505.53	41148.96
505.71	41544.51
505.88	42160.07
506.06	41371.31
506.23	41872.18
506.41	41869.84
506.58	42014.96
506.76	42068.79
506.93	41900.27
507.11	41975.17
507.28	42375.40
507.46	42656.26
507.63	42763.93
507.81	42904.36
507.98	42745.20
508.16	42937.13
508.33	43196.93
508.50	43384.17
508.68	43751.63
508.85	43732.91
509.03	43840.57
509.20	43917.81
509.38	44123.78
509.55	44123.78
509.73	44479.54
509.90	44397.62
510.08	44453.79
510.25	44928.92
510.42	44685.51
510.60	45102.12
510.77	45078.72
510.95	45343.20
511.12	44905.52
511.30	45027.23
511.47	44835.30
511.64	45205.11
511.82	45757.47
511.99	45455.54
512.17	46349.63
512.34	45422.78
512.51	45872.16
512.69	46101.53
512.86	45928.33
513.04	46571.98
513.21	46857.52
513.38	46611.77
513.56	46780.29
513.73	46309.84
513.90	46745.18
514.08	46642.20
514.25	46869.23
514.43	47278.82
514.60	47222.65
514.77	47290.52
514.95	47519.90
515.12	47091.58
515.29	47210.95
515.47	47669.69
515.64	47777.36
515.81	47973.96
515.99	47711.82
516.16	48217.38
516.33	48200.99
516.51	48470.15
516.68	48491.22
516.85	48664.42
517.03	48589.52
517.20	48746.34
517.37	48325.04
517.54	49020.18
517.72	48687.82
517.89	48940.60
518.06	49212.10
518.24	49015.50
518.41	49139.55
518.58	49511.69
518.75	49127.84
518.93	49254.23
519.10	49186.36
519.27	49593.61
519.45	50000.86
519.62	49647.44
519.79	50038.31
519.96	50103.85
520.14	50398.76
520.31	50174.06
520.48	50576.64
520.65	50356.63
520.83	50419.82
521.00	50679.62
521.17	50475.99
521.34	50459.61
521.52	50649.19
521.69	50862.18
521.86	51185.18
522.03	51075.17
522.20	51381.78
522.38	51372.42
522.55	50979.21
522.72	51210.92
522.89	51199.22
523.07	51674.35
523.24	51349.01
523.41	51690.73
523.58	51180.49
523.75	51859.25
523.92	51943.51
524.10	51966.91
524.27	51838.18
524.44	51629.88
524.61	52196.29
524.78	52200.97
524.96	52315.65
525.13	52189.27
525.30	52446.72
525.47	52547.37
525.64	52240.76
525.81	52626.95
525.98	52423.32
526.16	52530.98
526.33	52453.75
526.50	52783.76
526.67	52942.92
526.84	52802.49
527.01	52870.36
527.18	52877.38
527.36	52596.52
527.53	52949.94
527.70	53237.83
527.87	53048.24
528.04	53078.67
528.21	53071.65
528.38	53331.45
528.55	53502.31
528.72	53364.21
528.89	53279.96
529.07	53408.68
529.24	53401.66
529.41	53820.62
529.58	53605.29
529.75	53544.44
529.92	53666.14
530.09	53673.16
530.26	54005.52
530.43	53958.71
530.60	53771.47
530.77	53708.27
530.94	54129.57
531.11	53944.67
531.28	54012.54
531.46	54265.32
531.63	54206.81
531.80	54127.23
531.97	54284.04
532.14	54160.00
532.31	54220.85
532.48	54431.50
532.65	54405.75
532.82	54340.22
532.99	54815.35
533.16	54628.10
533.33	54588.31
533.50	54983.86
533.67	54894.92
533.84	54394.05
534.01	54918.33
534.18	54892.58
534.35	55150.04
534.52	54827.05
534.69	55536.23
534.86	55161.75
535.03	54983.86
535.20	55033.02
535.37	55253.03
535.54	55351.33
535.71	55412.18
535.88	55227.28
536.05	55496.44
536.22	55456.65
536.38	55545.59
536.55	55571.34
536.72	55561.98
536.89	55391.12
537.06	55402.82
537.23	55877.95
537.40	55189.83
537.57	55552.62
537.74	55512.83
537.91	55880.29
538.08	56041.79
538.25	55569.00
538.42	55966.89
538.59	56116.68
538.75	56088.60
538.92	55840.50
539.09	56074.55
539.26	55943.48
539.43	56282.86
539.60	56175.20
539.77	56217.33
539.94	56339.04
540.11	56390.53
540.28	56484.15
540.44	56451.38
540.61	56275.84
540.78	56320.31
540.95	56191.58
541.12	56268.82
541.29	56238.39
541.46	56545.00
541.62	56488.83
541.79	56837.57
541.96	56329.67
542.13	56554.36
542.30	56465.42
542.47	56811.82
542.63	56720.54
542.80	56809.48
542.97	57090.35
543.14	57214.40
543.31	57043.54
543.48	57080.98
543.64	57205.03
543.81	57338.44
543.98	57200.35
544.15	57277.59
544.32	57293.97
544.48	57502.28
544.65	57303.34
544.82	57214.40
544.99	57247.16
545.16	57364.19
545.32	57399.30
545.49	57556.11
545.66	57801.87
545.83	57584.20
546.00	57600.58
546.16	57593.56
546.33	57368.87
546.50	57366.53
546.67	57659.10
546.83	57485.90
547.00	57790.17
547.17	57586.54
547.34	57631.01
547.50	57911.88
547.67	58059.33
547.84	57970.39
548.00	58078.05
548.17	58035.92
548.34	58010.18
548.51	58024.22
548.67	58284.02
548.84	58066.35
549.01	57928.26
549.18	58068.69
549.34	58066.35
549.51	58159.97
549.68	58279.34
549.84	58319.13
550.01	58277.00
550.18	58244.23
550.34	58436.16
550.51	58370.62
550.68	58459.56
550.84	57965.71
551.01	58520.41
551.18	58342.53
551.34	58403.39
551.51	58672.55
551.68	58604.67
551.84	58513.39
552.01	58171.67
552.18	58468.92
552.34	58581.27
552.51	58667.87
552.68	58445.52
552.84	58578.93
553.01	58855.11
553.18	58632.76
553.34	58906.60
553.51	58705.32
553.67	58745.11
553.84	58927.67
554.01	58941.71
554.17	58855.11
554.34	59145.34
554.51	58976.82
554.67	58892.56
554.84	58988.52
555.00	59018.95
555.17	59002.56
555.33	59018.95
555.50	59051.72
555.67	58871.49
555.83	59000.22
556.00	58967.46
556.16	59402.80
556.33	59234.28
556.50	59229.60
556.66	59302.15
556.83	58939.37
556.99	59377.05
557.16	59447.27
557.32	59423.86
557.49	59498.76
557.65	58932.35
557.82	59236.62
557.98	59227.26
558.15	59461.31
558.32	59379.39
558.48	59278.75
558.65	59494.08
558.81	59269.39
558.98	59391.09
559.14	59473.01
559.31	59707.07
559.47	59557.27
559.64	59629.83
559.80	59695.36
559.97	59723.45
560.13	59550.25
560.30	59725.79
560.46	59660.26
560.63	59716.43
560.79	59667.28
560.96	59725.79
561.12	59838.14
561.29	59676.64
561.45	59842.82
561.61	59840.48
561.78	59597.06
561.94	59732.81
562.11	59664.94
562.27	59756.22
562.44	59952.82
562.60	60020.70
562.77	59796.01
562.93	59770.26
563.10	59913.03
563.26	59807.71
563.42	60210.28
563.59	60030.06
563.75	59749.20
563.92	59854.52
564.08	59957.50
564.24	60097.94
564.41	60060.49
564.57	59971.55
564.74	59978.57
564.90	60032.40
565.07	60069.85
565.23	60046.44
565.39	60107.30
565.56	60100.28
565.72	60051.12
565.88	60126.02
566.05	60097.94
566.21	60083.89
566.38	60086.23
566.54	60116.66
566.70	60317.95
566.87	60329.65
567.03	60123.68
567.19	60367.10
567.36	60163.47
567.52	60013.68
567.68	60685.41
567.85	60348.37
568.01	60411.57
568.17	60282.84
568.34	60500.51
568.50	60069.85
568.66	60229.01
568.83	60268.79
568.99	60364.76
569.15	60390.50
569.32	60268.79
569.48	60406.89
569.64	60266.45
569.81	60334.33
569.97	60420.93
570.13	60392.84
570.30	60114.32
570.46	60324.97
570.62	60385.82
570.78	60362.42
570.95	60397.52
571.11	60544.98
571.27	60500.51
571.43	60434.97
571.60	60416.25
571.76	60547.32
571.92	60486.46
572.09	60690.09
572.25	60449.02
572.41	60453.70
572.57	60559.02
572.74	60654.98
572.90	60491.15
573.06	60603.49
573.22	60474.76
573.38	60566.04
573.55	60671.37
573.71	60853.93
573.87	60615.19
574.03	60638.60
574.20	60542.64
574.36	60507.53
574.52	60683.07
574.68	60767.33
574.84	60659.66
575.01	60479.44
575.17	60879.67
575.33	60748.60
575.49	60530.93
575.65	60678.39
575.82	60570.72
575.98	60851.59
576.14	60853.93
576.30	60797.76
576.46	60654.98
576.62	60664.35
576.79	60685.41
576.95	60615.19
577.11	60739.24
577.27	61087.98
577.43	60544.98
577.59	60479.44
577.75	60858.61
577.92	60704.13
578.08	60743.92
578.24	60664.35
578.40	60975.64
578.56	60865.63
578.72	60788.39
578.88	60947.55
579.04	60893.72
579.21	60809.46
579.37	60975.64
579.53	60942.87
579.69	60493.49
579.85	60608.17
580.01	60669.03
580.17	60580.09
580.33	60907.76
580.49	60928.83
580.65	60956.91
580.82	60956.91
580.98	60893.72
581.14	60739.24
581.30	61118.41
581.46	60818.82
581.62	60985.00
581.78	60694.77
581.94	60940.53
582.10	60535.62
582.26	60708.82
582.42	60542.64
582.58	60961.59
582.74	60882.02
582.90	60856.27
583.06	60870.31
583.22	60804.78
583.38	60975.64
583.54	60919.46
583.70	60839.89
583.86	60874.99
584.02	60970.96
584.18	61031.81
584.34	60982.66
584.50	60872.65
584.66	60757.97
584.82	60722.86
584.98	61282.25
585.14	61010.74
585.30	60729.88
585.46	61127.77
585.62	60863.29
585.78	61202.67
585.94	60713.50
586.10	60687.75
586.26	61083.30
586.42	60977.98
586.58	61188.63
586.74	60954.57
586.90	60830.52
587.06	60769.67
587.22	61139.47
587.38	60874.99
587.54	61132.45
587.70	61099.68
587.86	61043.51
588.02	60748.60
588.18	61111.39
588.34	60982.66
588.49	61022.45
