SpectraSuite Data File
++++++++++++++++++++++++++++++++++++
Date: Fri Oct 25 11:33:24 EDT 2013
User: price-jones
Dark Spectrum Present: No
Reference Spectrum Present: No
Number of Sampled Component Spectra: 1
Spectrometers: USB2+H05261
Integration Time (usec): 100000 (USB2+H05261)
Spectra Averaged: 1 (USB2+H05261)
Boxcar Smoothing: 0 (USB2+H05261)
Correct for Electrical Dark: No (USB2+H05261)
Strobe/Lamp Enabled: No (USB2+H05261)
Correct for Detector Non-linearity: No (USB2+H05261)
Correct for Stray Light: No (USB2+H05261)
Number of Pixels in Processed Spectrum: 2048
>>>>>Begin Processed Spectral Data<<<<<
365.73	320.65
365.92	320.65
366.12	320.65
366.32	149.79
366.52	196.60
366.72	112.35
366.91	215.33
367.11	187.24
367.31	194.26
367.51	152.13
367.70	126.39
367.90	187.24
368.10	182.56
368.30	110.01
368.49	196.60
368.69	184.90
368.89	196.60
369.09	215.33
369.28	259.80
369.48	166.18
369.68	273.84
369.87	194.26
370.07	198.95
370.27	301.93
370.47	290.23
370.66	461.09
370.86	564.07
371.06	557.05
371.25	554.71
371.45	538.32
371.65	505.56
371.84	596.84
372.04	608.54
372.24	617.90
372.44	491.51
372.63	564.07
372.83	578.11
373.03	514.92
373.22	585.13
373.42	674.07
373.62	676.41
373.81	624.92
374.01	620.24
374.21	613.22
374.40	603.86
374.60	718.54
374.79	643.65
374.99	638.97
375.19	669.39
375.38	641.31
375.58	585.13
375.78	683.44
375.97	643.65
376.17	732.59
376.37	657.69
376.56	650.67
376.76	725.57
376.95	587.47
377.15	718.54
377.35	784.08
377.54	676.41
377.74	650.67
377.93	615.56
378.13	678.76
378.33	699.82
378.52	662.37
378.72	767.70
378.91	688.12
379.11	732.59
379.31	718.54
379.50	746.63
379.70	702.16
379.89	678.76
380.09	702.16
380.28	709.18
380.48	676.41
380.68	713.86
380.87	697.48
381.07	748.97
381.26	802.80
381.46	814.51
381.65	746.63
381.85	847.27
382.04	727.91
382.24	830.89
382.43	716.20
382.63	744.29
382.83	678.76
383.02	774.72
383.22	812.17
383.41	807.48
383.61	784.08
383.80	828.55
384.00	809.83
384.19	844.93
384.39	891.74
384.58	741.95
384.78	821.53
384.97	889.40
385.17	919.83
385.36	774.72
385.56	894.08
385.75	828.55
385.95	877.70
386.14	814.51
386.34	821.53
386.53	858.98
386.72	821.53
386.92	868.34
387.11	866.00
387.31	959.62
387.50	924.51
387.70	943.24
387.89	870.68
388.09	854.30
388.28	919.83
388.48	894.08
388.67	929.19
388.86	915.15
389.06	999.41
389.25	968.98
389.45	936.21
389.64	912.81
389.84	908.13
390.03	959.62
390.22	887.06
390.42	1006.43
390.61	1025.15
390.81	954.94
391.00	912.81
391.19	997.07
391.39	1025.15
391.58	1104.73
391.78	999.41
391.97	983.02
392.16	950.26
392.36	1137.50
392.55	999.41
392.75	1025.15
392.94	1074.31
393.13	1086.01
393.33	1102.39
393.52	1053.24
393.71	1020.47
393.91	1078.99
394.10	1111.75
394.29	1167.93
394.49	1144.52
394.68	1128.14
394.88	1130.48
395.07	1156.22
395.26	1170.27
395.46	1121.12
395.65	1186.65
395.84	1210.06
396.04	1329.42
396.23	1193.67
396.42	1200.69
396.62	1226.44
396.81	1221.76
397.00	1212.40
397.19	1247.51
397.39	1291.98
397.58	1256.87
397.77	1214.74
397.97	1263.89
398.16	1245.16
398.35	1284.95
398.55	1359.85
398.74	1355.17
398.93	1214.74
399.12	1249.85
399.32	1327.08
399.51	1268.57
399.70	1378.58
399.90	1327.08
400.09	1441.77
400.28	1357.51
400.47	1390.28
400.67	1455.81
400.86	1401.98
401.05	1383.26
401.24	1495.60
401.44	1448.79
401.63	1486.24
401.82	1444.11
402.01	1387.94
402.21	1533.05
402.40	1481.56
402.59	1561.14
402.78	1533.05
402.97	1441.77
403.17	1488.58
403.36	1593.90
403.55	1614.97
403.74	1537.73
403.93	1528.37
404.13	1605.61
404.32	1636.03
404.51	1490.92
404.70	1645.40
404.89	1605.61
405.09	1701.57
405.28	1678.16
405.47	1661.78
405.66	1577.52
405.85	1636.03
406.05	1675.82
406.24	1792.85
406.43	1778.81
406.62	1863.07
406.81	1762.42
407.00	1785.83
407.20	1792.85
407.39	1788.17
407.58	1804.55
407.77	1802.21
407.96	1830.30
408.15	1916.90
408.34	1790.51
408.54	1905.20
408.73	1891.15
408.92	1949.67
409.11	2033.93
409.30	2019.88
409.49	2031.58
409.68	1991.80
409.87	2001.16
410.07	2026.90
410.26	2024.56
410.45	1975.41
410.64	2054.99
410.83	2129.89
411.02	2256.28
411.21	2160.31
411.40	2237.55
411.59	2209.47
411.78	2094.78
411.98	2228.19
412.17	2249.25
412.36	2214.15
412.55	2356.92
412.74	2368.62
412.93	2286.70
413.12	2284.36
413.31	2401.39
413.50	2387.35
413.69	2277.34
413.88	2352.24
414.07	2499.69
414.26	2588.63
414.45	2642.46
414.64	2576.93
414.83	2600.34
415.02	2558.21
415.22	2558.21
415.41	2658.85
415.60	2621.40
415.79	2740.77
415.98	2782.90
416.17	2775.88
416.36	2719.70
416.55	2731.41
416.74	2853.11
416.93	2712.68
417.12	2834.39
417.31	2860.13
417.50	3007.59
417.69	2986.52
417.88	2979.50
418.07	2970.14
418.26	2942.05
418.45	3009.93
418.64	3047.38
418.83	2988.86
419.02	3066.10
419.21	3002.91
419.39	3056.74
419.58	3080.14
419.77	3016.95
419.96	3122.27
420.15	3164.40
420.34	3047.38
420.53	3108.23
420.72	3349.31
420.91	3297.81
421.10	3253.34
421.29	3323.56
421.48	3176.11
421.67	3304.84
421.86	3382.07
422.05	3337.60
422.24	3349.31
422.43	3489.74
422.61	3428.88
422.80	3456.97
422.99	3293.13
423.18	3433.57
423.37	3501.44
423.56	3447.61
423.75	3506.12
423.94	3241.64
424.13	3335.26
424.32	3368.03
424.50	3435.91
424.69	3431.23
424.88	3581.02
425.07	3475.70
425.26	3396.12
425.45	3452.29
425.64	3459.31
425.83	3564.64
426.01	3501.44
426.20	3428.88
426.39	3531.87
426.58	3405.48
426.77	3571.66
426.96	3468.67
427.15	3538.89
427.33	3613.79
427.52	3611.45
427.71	3698.05
427.90	3662.94
428.09	3684.00
428.28	3765.92
428.46	3803.37
428.65	3768.26
428.84	3812.73
429.03	3850.18
429.22	3674.64
429.40	3822.09
429.59	3838.48
429.78	3658.26
429.97	3552.93
430.16	3730.81
430.34	3756.56
430.53	3904.01
430.72	3819.75
430.91	3866.56
431.10	3730.81
431.28	4009.34
431.47	3990.61
431.66	4065.51
431.85	3997.64
432.03	4060.83
432.22	4121.68
432.41	4112.32
432.60	4018.70
432.79	4032.74
432.97	4049.13
433.16	4166.15
433.35	4032.74
433.54	4208.28
433.72	4238.71
433.91	4166.15
434.10	4259.78
434.28	4161.47
434.47	4269.14
434.66	4259.78
434.85	4386.16
435.03	4358.08
435.22	4264.46
435.41	4554.68
435.59	4456.38
435.78	4449.36
435.97	4479.79
436.16	4447.02
436.34	4447.02
436.53	4418.93
436.72	4531.28
436.90	4482.13
437.09	4645.96
437.28	4535.96
437.46	4624.90
437.65	4526.60
437.84	4449.36
438.02	4521.92
438.21	4739.58
438.40	4629.58
438.58	4709.16
438.77	4830.87
438.96	4704.48
439.14	4821.50
439.33	4947.89
439.52	4903.42
439.70	4823.84
439.89	5081.30
440.08	4950.23
440.26	5064.92
440.45	5053.22
440.63	5004.07
440.82	5160.88
441.01	5095.35
441.19	5289.61
441.38	5121.09
441.57	5282.59
441.75	5289.61
441.94	5469.83
442.12	5479.19
442.31	5366.85
442.50	5493.24
442.68	5469.83
442.87	5542.39
443.05	5423.02
443.24	5551.75
443.43	5589.20
443.61	5640.69
443.80	5741.33
443.98	5582.18
444.17	5100.03
444.35	5678.14
444.54	5584.52
444.73	5584.52
444.91	5568.13
445.10	5659.42
445.28	5584.52
445.47	5643.03
445.65	5682.82
445.84	5673.46
446.02	5715.59
446.21	5727.29
446.39	5710.91
446.58	5802.19
446.77	5825.59
446.95	5657.07
447.14	5633.67
447.32	5727.29
447.51	5746.02
447.69	5757.72
447.88	5891.13
448.06	5858.36
448.25	5827.93
448.43	5666.44
448.62	5797.51
448.80	5771.76
448.99	5841.98
449.17	5811.55
449.36	5757.72
449.54	5975.39
449.73	6200.08
449.91	6101.78
450.10	6017.52
450.28	6047.94
450.46	6150.93
450.65	6134.54
450.83	6076.03
451.02	6054.97
451.20	6204.76
451.39	6333.49
451.57	6370.94
451.76	6115.82
451.94	6305.40
452.13	6345.19
452.31	6296.04
452.49	6155.61
452.68	6183.70
452.86	6307.74
453.05	6473.92
453.23	6544.14
453.42	6317.11
453.60	6380.30
453.78	6469.24
453.97	6326.47
454.15	6574.56
454.34	6597.97
454.52	6640.10
454.70	6576.91
454.89	6497.33
455.07	6534.78
455.26	6656.48
455.44	6768.83
455.62	6810.96
455.81	6715.00
455.99	6782.87
456.17	6864.79
456.36	6888.20
456.54	6839.05
456.73	6956.07
456.91	6998.20
457.09	7021.61
457.28	7133.95
457.46	6991.18
457.64	7000.54
457.83	6963.09
458.01	7176.08
458.19	7290.77
458.38	7105.87
458.56	7290.77
458.74	7234.60
458.93	7157.36
459.11	7218.21
459.29	7096.50
459.48	7255.66
459.66	7435.88
459.84	7424.18
460.03	7576.31
460.21	7463.97
460.39	7335.24
460.57	7550.57
460.76	7527.16
460.94	7552.91
461.12	7543.55
461.31	7463.97
461.49	7501.42
461.67	7459.29
461.85	7581.00
462.04	7618.44
462.22	8037.40
462.40	7836.11
462.59	7786.96
462.77	7878.24
462.95	7950.80
463.13	7761.22
463.32	7887.61
463.50	8009.31
463.68	7906.33
463.86	7826.75
464.05	7875.90
464.23	7929.74
464.41	8159.11
464.59	7866.54
464.78	8142.72
464.96	8191.88
465.14	7779.94
465.32	7978.89
465.50	8241.03
465.69	8046.76
465.87	8140.38
466.05	8121.66
466.23	8121.66
466.41	8159.11
466.60	8451.67
466.78	8166.13
466.96	7985.91
467.14	8379.12
467.32	8259.75
467.51	8388.48
467.69	8241.03
467.87	8376.78
468.05	8329.97
468.23	8322.94
468.41	8397.84
468.60	8332.31
468.78	8540.61
468.96	8493.80
469.14	8505.51
469.32	8622.53
469.50	8477.42
469.69	8730.20
469.87	8884.67
470.05	8676.37
470.23	8610.83
470.41	8833.18
470.59	8800.41
470.77	8741.90
470.95	8884.67
471.14	9247.46
471.32	8842.54
471.50	9114.05
471.68	9327.03
471.86	8875.31
472.04	9174.90
472.22	9591.52
472.40	9048.51
472.58	9097.66
472.77	9320.01
472.95	9355.12
473.13	9673.43
473.31	9282.56
473.49	9373.85
473.67	9530.66
473.85	9586.83
474.03	9797.48
474.21	9710.88
474.39	9893.44
474.57	9783.44
474.75	9783.44
474.93	9848.97
475.12	9930.89
475.30	10052.60
475.48	10153.24
475.66	10090.05
475.84	10204.74
476.02	10270.27
476.20	10188.35
476.38	10534.75
476.56	10661.14
476.74	10417.72
476.92	10546.45
477.10	10675.18
477.28	10640.08
477.46	10829.66
477.64	10958.39
477.82	11110.52
478.00	11185.42
478.18	11190.10
478.36	11587.99
478.54	11295.43
478.72	11585.65
478.90	11627.78
479.08	11740.13
479.26	11616.08
479.44	11632.46
479.62	11819.71
479.80	11817.36
479.98	11915.67
480.16	12458.67
480.34	12191.85
480.52	12390.80
480.70	12236.32
480.88	12046.74
481.06	12423.56
481.24	12421.22
481.41	12540.59
481.59	12837.84
481.77	12517.18
481.95	13088.28
482.13	13280.20
482.31	12826.14
482.49	13238.07
482.67	13481.49
482.85	13427.65
483.03	13551.70
483.21	13797.46
483.39	13830.23
483.57	13884.06
483.74	14092.37
483.92	13898.10
484.10	13994.06
484.28	14401.32
484.46	14265.57
484.64	14719.63
484.82	14527.71
485.00	14640.05
485.18	14998.15
485.35	15152.63
485.53	14946.66
485.71	15028.58
485.89	15321.15
486.07	15655.84
486.25	15541.16
486.43	15707.34
486.61	15634.78
486.78	15934.37
486.96	15981.18
487.14	16135.65
487.32	16318.22
487.50	16346.30
487.68	16428.22
487.85	16753.55
488.03	16833.13
488.21	17102.29
488.39	17039.10
488.57	17298.90
488.75	17181.87
488.92	17324.65
489.10	17694.45
489.28	17429.97
489.46	17664.02
489.64	17694.45
489.81	18108.72
489.99	18169.58
490.17	18036.17
490.35	18663.43
490.53	18607.26
490.70	18958.34
490.88	18672.79
491.06	19208.78
491.24	18881.10
491.41	19264.95
491.59	19229.84
491.77	19243.88
491.95	19452.19
492.13	19445.17
492.30	19742.42
492.48	20051.37
492.66	19730.72
492.84	20088.82
493.01	20325.21
493.19	20147.33
493.37	20402.45
493.54	20514.80
493.72	20912.69
493.90	20830.77
494.08	21090.57
494.25	20980.56
494.43	21167.80
494.61	21284.83
494.79	21149.08
494.96	21446.33
495.14	21642.93
495.32	21921.46
495.49	21853.58
495.67	22188.28
495.85	21769.32
496.02	22202.32
496.20	22157.85
496.38	22302.96
496.55	22747.67
496.73	23094.07
496.91	22789.80
497.09	22480.85
497.26	23143.22
497.44	23122.15
497.62	23407.70
497.79	23644.09
497.97	23365.57
498.14	23421.74
498.32	23737.71
498.50	23805.59
498.67	24243.27
498.85	23751.76
499.03	24308.80
499.20	24079.43
499.38	24266.67
499.56	24273.70
499.73	24884.58
499.91	24657.54
500.08	24952.45
500.26	24512.43
500.44	25069.48
500.61	24821.38
500.79	24882.24
500.97	25167.78
501.14	25853.56
501.32	25647.59
501.49	25343.32
501.67	25364.39
501.84	25860.58
502.02	25539.93
502.20	25586.74
502.37	25923.77
502.55	25996.33
502.72	25975.27
502.90	26082.93
503.07	26221.02
503.25	26103.99
503.43	26118.04
503.60	26232.72
503.78	26953.61
503.95	26766.37
504.13	26757.00
504.30	26883.39
504.48	27068.30
504.65	26757.00
504.83	27325.75
505.01	27611.30
505.18	27274.26
505.36	27433.42
505.53	27131.49
505.71	27402.99
505.88	27267.24
506.06	27281.28
506.23	27810.25
506.41	27859.40
506.58	27637.05
506.76	28074.73
506.93	28304.10
507.11	27913.23
507.28	28266.65
507.46	28180.05
507.63	28493.68
507.81	28591.98
507.98	28622.41
508.16	28243.24
508.33	29116.26
508.50	28882.21
508.68	29013.28
508.85	29106.90
509.03	29055.41
509.20	29207.55
509.38	29156.05
509.55	29558.63
509.73	29567.99
509.90	29687.36
510.08	29738.85
510.25	29591.39
510.42	29666.29
510.60	29956.52
510.77	29837.15
510.95	30288.87
511.12	30202.27
511.30	29933.11
511.47	30148.44
511.64	30298.23
511.82	30466.75
511.99	30384.83
512.17	30363.77
512.34	30642.29
512.51	30698.47
512.69	31000.40
512.86	30925.50
513.04	31005.08
513.21	30967.63
513.38	31250.83
513.56	31311.69
513.73	31145.51
513.90	31419.35
514.08	31358.50
514.25	31732.98
514.43	31475.52
514.60	31585.53
514.77	31754.05
514.95	32067.68
515.12	31835.97
515.29	32058.32
515.47	31765.75
515.64	31978.74
515.81	31709.58
515.99	31990.44
516.16	32659.84
516.33	32779.20
516.51	32538.13
516.68	32577.92
516.85	32730.05
517.03	32804.95
517.20	33006.23
517.37	32872.82
517.54	33083.47
517.72	32762.82
517.89	32788.56
518.06	33191.14
518.24	33268.37
518.41	32758.14
518.58	33111.56
518.75	33139.65
518.93	33773.93
519.10	34033.73
519.27	33659.24
519.45	33654.56
519.62	34167.14
519.79	34000.96
519.96	34026.71
520.14	33933.09
520.31	33745.84
520.48	33954.15
520.65	34052.45
520.83	34527.58
521.00	34330.98
521.17	34164.80
521.34	34766.32
521.52	34951.22
521.69	34684.40
521.86	34728.87
522.03	34761.64
522.20	35412.31
522.38	34866.96
522.55	35264.85
522.72	35297.62
522.89	35747.00
523.07	35917.86
523.24	35433.37
523.41	35330.39
523.58	35536.35
523.75	35402.94
523.92	35615.93
524.10	35681.47
524.27	35868.71
524.44	35449.75
524.61	35524.65
524.78	36025.53
524.96	36011.48
525.13	36311.07
525.30	36130.85
525.47	36210.43
525.64	36055.95
525.81	36261.92
525.98	36650.45
526.16	36582.57
526.33	36381.29
526.50	36580.23
526.67	36765.14
526.84	36800.24
527.01	36872.80
527.18	36945.36
527.36	36720.66
527.53	37083.45
527.70	37029.62
527.87	37284.73
528.04	36837.69
528.21	37322.18
528.38	36872.80
528.55	37031.96
528.72	37237.92
528.89	37294.10
529.07	37170.05
529.24	37275.37
529.41	37771.57
529.58	37361.97
529.75	37509.43
529.92	37118.56
530.09	37869.87
530.26	37600.71
530.43	37617.09
530.60	37563.26
530.77	37776.25
530.94	38185.84
531.11	38316.91
531.28	37909.66
531.46	38101.58
531.63	38684.37
531.80	38508.83
531.97	38181.16
532.14	38719.48
532.31	38335.63
532.48	38747.57
532.65	38829.49
532.82	38831.83
532.99	38866.94
533.16	38574.37
533.33	38843.53
533.50	39257.81
533.67	38939.49
533.84	38682.03
534.01	39000.35
534.18	39042.48
534.35	39679.10
534.52	39651.02
534.69	39206.31
534.86	39569.10
535.03	39641.65
535.20	39452.07
535.37	39299.94
535.54	39880.39
535.71	39957.63
535.88	39873.37
536.05	39622.93
536.22	40011.46
536.38	40048.91
536.55	39775.06
536.72	39782.09
536.89	39950.60
537.06	40025.50
537.23	40212.74
537.40	39889.75
537.57	39817.19
537.74	40212.74
537.91	40392.97
538.08	40229.13
538.25	39962.31
538.42	40343.81
538.59	40669.15
538.75	40357.86
538.92	40467.86
539.09	41148.96
539.26	40769.79
539.43	40863.41
539.60	40615.32
539.77	40598.93
539.94	40795.54
540.11	40615.32
540.28	40861.07
540.44	40968.74
540.61	40802.56
540.78	40985.12
540.95	41036.61
541.12	41518.76
541.29	41443.87
541.46	41060.02
541.62	41427.48
541.79	41486.00
541.96	40751.07
542.13	40966.40
542.30	41284.71
542.47	41471.95
542.63	41869.84
542.80	41792.61
542.97	41572.60
543.14	42024.32
543.31	42230.29
543.48	41890.91
543.64	42066.45
543.81	42344.97
543.98	42363.70
544.15	41448.55
544.32	42342.63
544.48	42335.61
544.65	42213.90
544.82	42518.17
544.99	42249.01
545.16	42658.60
545.32	42651.58
545.49	42850.53
545.66	43241.40
545.83	42658.60
546.00	42712.44
546.16	42834.14
546.33	42209.22
546.50	42913.72
546.67	43452.05
546.83	42553.28
547.00	42794.36
547.17	43175.86
547.34	42740.52
547.50	42684.35
547.67	43325.66
547.84	43330.34
548.00	43615.88
548.17	43634.61
548.34	43423.96
548.51	43461.41
548.67	42946.49
548.84	43573.75
549.01	43325.66
549.18	43159.48
549.34	43667.37
549.51	43758.66
549.68	43894.41
549.84	43564.39
550.01	43730.57
550.18	43550.35
550.34	43739.93
550.51	43924.83
550.68	43955.26
550.84	43838.23
551.01	44528.69
551.18	44058.24
551.34	43906.11
551.51	44282.94
551.68	44172.93
551.84	44304.00
552.01	44032.50
552.18	43849.94
552.34	44163.57
552.51	44172.93
552.68	44549.76
552.84	44264.21
553.01	44301.66
553.18	44474.86
553.34	44397.62
553.51	44034.84
553.67	44765.09
553.84	44264.21
554.01	44580.18
554.17	44470.18
554.34	44594.23
554.51	44516.99
554.67	44793.17
554.84	44685.51
555.00	44727.64
555.17	44781.47
555.33	45188.72
555.50	44650.40
555.67	45205.11
555.83	44954.67
556.00	45092.76
556.16	45588.95
556.33	45048.29
556.50	45139.57
556.66	45509.38
556.83	44940.63
556.99	44987.44
557.16	45275.32
557.32	45308.09
557.49	45689.60
557.65	45289.37
557.82	45155.96
557.98	45588.95
558.15	45275.32
558.32	45242.56
558.48	45301.07
558.65	45485.97
558.81	45696.62
558.98	45429.80
559.14	45366.60
559.31	45106.80
559.47	45621.72
559.64	45642.79
559.80	45563.21
559.97	45673.21
560.13	45375.97
560.30	45469.59
560.46	45846.41
560.63	45965.78
560.79	45881.52
560.96	46010.25
561.12	46267.71
561.29	45858.12
561.45	46066.42
561.61	46085.15
561.78	46117.92
561.94	45968.12
562.11	45923.65
562.27	45727.05
562.44	45776.20
562.60	45851.09
562.77	46265.37
562.93	46071.10
563.10	46138.98
563.26	45935.35
563.42	46115.58
563.59	45958.76
563.75	45808.96
563.92	46181.11
564.08	45928.33
564.24	46450.27
564.41	46174.09
564.57	46326.22
564.74	46394.10
564.90	46162.39
565.07	46110.89
565.23	46499.42
565.39	46529.85
565.56	46791.99
565.72	46370.69
565.88	46141.32
566.05	46307.50
566.21	46232.60
566.38	46534.53
566.54	46398.78
566.70	46710.07
566.87	46710.07
567.03	46099.19
567.19	46361.33
567.36	46553.26
567.52	46335.59
567.68	46637.51
567.85	46773.27
568.01	46955.83
568.17	46389.42
568.34	46789.65
568.50	47164.14
568.66	46529.85
568.83	46597.73
568.99	46878.59
569.15	46780.29
569.32	46794.33
569.48	47185.20
569.64	46939.44
569.81	46663.26
569.97	46564.96
570.13	47194.56
570.30	46880.93
570.46	46410.48
570.62	46642.20
570.78	47187.54
570.95	46775.61
571.11	47100.94
571.27	46794.33
571.43	46995.62
571.60	46890.29
571.76	46539.21
571.92	46988.60
572.09	47009.66
572.25	46789.65
572.41	46976.89
572.57	46927.74
572.74	47089.24
572.90	46974.55
573.06	47241.37
573.22	47306.91
573.38	47103.28
573.55	46873.91
573.71	47625.22
573.87	47454.36
574.03	47278.82
574.20	47440.32
574.36	46969.87
574.52	47133.71
574.68	47274.14
574.84	47012.00
575.01	47180.52
575.17	47503.51
575.33	47437.98
575.49	46902.00
575.65	47250.74
575.82	47065.83
575.98	46607.09
576.14	47503.51
576.30	47138.39
576.46	47271.80
576.62	47543.30
576.79	47220.31
576.95	46866.89
577.11	47164.14
577.27	47217.97
577.43	46946.47
577.59	47536.28
577.75	47180.52
577.92	47136.05
578.08	47086.90
578.24	47531.60
578.40	47445.00
578.56	47477.77
578.72	47555.00
578.88	47393.51
579.04	47217.97
579.21	47239.03
579.37	47564.37
579.53	47419.25
579.69	47213.29
579.85	47503.51
580.01	47136.05
580.17	47222.65
580.33	47398.19
580.49	47377.12
580.65	47208.61
580.82	47278.82
580.98	47447.34
581.14	47253.08
581.30	47583.09
581.46	47276.48
581.62	47566.71
581.78	47210.95
581.94	47894.38
582.10	47086.90
582.26	47683.73
582.42	47482.45
582.58	47131.37
582.74	47398.19
582.90	47531.60
583.06	47711.82
583.22	47239.03
583.38	47524.58
583.54	47131.37
583.70	47704.80
583.86	47564.37
584.02	47503.51
584.18	47613.52
584.34	47737.57
584.50	47803.10
584.66	47922.47
584.82	47466.06
584.98	48051.20
585.14	47281.16
585.30	47241.37
585.46	47620.54
585.62	46981.57
585.78	47632.24
585.94	47367.76
586.10	47723.52
586.26	47098.60
586.42	47522.24
586.58	47512.88
586.74	47524.58
586.90	47636.92
587.06	47494.15
587.22	47856.93
587.38	47545.64
587.54	47491.81
587.70	47957.58
587.86	47980.98
588.02	47489.47
588.18	47817.14
588.34	47557.35
588.49	47440.32
588.65	47430.96
588.81	47716.50
588.97	47716.50
589.13	47601.82
589.29	47863.96
589.45	47744.59
589.61	48020.77
589.77	48055.88
589.93	48142.48
590.08	47807.78
