SpectraSuite Data File
++++++++++++++++++++++++++++++++++++
Date: Fri Oct 25 11:23:55 EDT 2013
User: price-jones
Dark Spectrum Present: No
Reference Spectrum Present: No
Number of Sampled Component Spectra: 1
Spectrometers: USB2+H05261
Integration Time (usec): 100000 (USB2+H05261)
Spectra Averaged: 1 (USB2+H05261)
Boxcar Smoothing: 0 (USB2+H05261)
Correct for Electrical Dark: No (USB2+H05261)
Strobe/Lamp Enabled: No (USB2+H05261)
Correct for Detector Non-linearity: No (USB2+H05261)
Correct for Stray Light: No (USB2+H05261)
Number of Pixels in Processed Spectrum: 2048
>>>>>Begin Processed Spectral Data<<<<<
365.73	177.88
365.92	177.88
366.12	177.88
366.32	173.20
366.52	119.37
366.72	95.96
366.91	102.98
367.11	107.66
367.31	119.37
367.51	149.79
367.70	147.45
367.90	126.39
368.10	224.69
368.30	149.79
368.49	212.99
368.69	126.39
368.89	81.92
369.09	84.26
369.28	173.20
369.48	112.35
369.68	189.58
369.87	175.54
370.07	243.42
370.27	241.08
370.47	355.76
370.66	571.09
370.86	620.24
371.06	645.99
371.25	645.99
371.45	629.60
371.65	690.46
371.84	718.54
372.04	725.57
372.24	720.88
372.44	753.65
372.63	713.86
372.83	690.46
373.03	709.18
373.22	763.01
373.42	779.40
373.62	812.17
373.81	727.91
374.01	786.42
374.21	800.46
374.40	765.36
374.60	758.33
374.79	732.59
374.99	854.30
375.19	826.21
375.38	812.17
375.58	908.13
375.78	861.32
375.97	912.81
376.17	863.66
376.37	856.64
376.56	856.64
376.76	905.79
376.95	856.64
377.15	887.06
377.35	866.00
377.54	833.23
377.74	884.72
377.93	940.90
378.13	908.13
378.33	938.55
378.52	889.40
378.72	840.25
378.91	945.58
379.11	929.19
379.31	905.79
379.50	889.40
379.70	1008.77
379.89	1020.47
380.09	980.68
380.28	971.32
380.48	994.73
380.68	994.73
380.87	961.96
381.07	1025.15
381.26	1097.71
381.46	943.24
381.65	1043.88
381.85	1029.84
382.04	1025.15
382.24	1008.77
382.43	1032.18
382.63	1027.50
382.83	1132.82
383.02	1001.75
383.22	1135.16
383.41	1057.92
383.61	1100.05
383.80	1149.20
384.00	1097.71
384.19	1097.71
384.39	1081.33
384.58	1128.14
384.78	1069.62
384.97	1095.37
385.17	1109.41
385.36	1100.05
385.56	1158.57
385.75	1153.88
385.95	1174.95
386.14	1214.74
386.34	1242.82
386.53	1125.80
386.72	1205.38
386.92	1165.59
387.11	1256.87
387.31	1083.67
387.50	1268.57
387.70	1233.46
387.89	1299.00
388.09	1299.00
388.28	1334.11
388.48	1294.32
388.67	1268.57
388.86	1343.47
389.06	1315.38
389.25	1338.79
389.45	1273.25
389.64	1310.70
389.84	1383.26
390.03	1338.79
390.22	1315.38
390.42	1322.40
390.61	1441.77
390.81	1448.79
391.00	1465.18
391.19	1460.49
391.39	1488.58
391.58	1474.54
391.78	1404.32
391.97	1664.12
392.16	1530.71
392.36	1413.68
392.55	1519.01
392.75	1511.99
392.94	1633.69
393.13	1600.93
393.33	1486.24
393.52	1605.61
393.71	1528.37
393.91	1643.06
394.10	1579.86
394.29	1638.38
394.49	1526.03
394.68	1727.32
394.88	1715.61
395.07	1605.61
395.26	1713.27
395.46	1664.12
395.65	1799.87
395.84	1750.72
396.04	1816.26
396.23	1767.10
396.42	1795.19
396.62	1827.96
396.81	1778.81
397.00	1713.27
397.19	1804.55
397.39	1795.19
397.58	1809.23
397.77	1886.47
397.97	1797.53
398.16	1842.00
398.35	1928.60
398.55	1879.45
398.74	1916.90
398.93	1884.13
399.12	1879.45
399.32	1954.35
399.51	1977.75
399.70	2038.61
399.90	1898.17
400.09	1987.11
400.28	2012.86
400.47	2033.93
400.67	2073.71
400.86	2120.53
401.05	1959.03
401.24	1991.80
401.44	2099.46
401.63	2148.61
401.82	2211.81
402.01	2162.66
402.21	2190.74
402.40	2232.87
402.59	2169.68
402.78	2174.36
402.97	2242.23
403.17	2127.55
403.36	2181.38
403.55	2246.91
403.74	2396.71
403.93	2200.10
404.13	2469.27
404.32	2331.17
404.51	2366.28
404.70	2347.56
404.89	2345.22
405.09	2452.88
405.28	2495.01
405.47	2422.45
405.66	2565.23
405.85	2478.63
406.05	2567.57
406.24	2586.29
406.43	2574.59
406.62	2588.63
406.81	2689.28
407.00	2560.55
407.20	2607.36
407.39	2602.68
407.58	2736.09
407.77	2743.11
407.96	2675.23
408.15	2693.96
408.34	2628.42
408.54	2764.17
408.73	2799.28
408.92	2780.56
409.11	2745.45
409.30	2848.43
409.49	2888.22
409.68	2958.44
409.87	2909.29
410.07	3049.72
410.26	3005.25
410.45	2963.12
410.64	3101.21
410.83	2977.16
411.02	3173.77
411.21	3389.10
411.40	3038.02
411.59	3243.98
411.78	3103.55
411.98	3105.89
412.17	3386.76
412.36	3293.13
412.55	3318.88
412.74	3419.52
412.93	3485.06
413.12	3283.77
413.31	3482.72
413.50	3520.17
413.69	3473.36
413.88	3700.39
414.07	3634.85
414.26	3552.93
414.45	3679.32
414.64	3730.81
414.83	3805.71
415.02	3702.73
415.22	3918.06
415.41	3894.65
415.60	3927.42
415.79	3885.29
415.98	3962.53
416.17	4030.40
416.36	4030.40
416.55	3990.61
416.74	4067.85
416.93	4149.77
417.12	4021.04
417.31	4035.08
417.50	4262.12
417.69	4428.29
417.88	4442.34
418.07	4360.42
418.26	4241.05
418.45	4348.72
418.64	4540.64
418.83	4346.37
419.02	4332.33
419.21	4608.51
419.39	4564.04
419.58	4507.87
419.77	4472.76
419.96	4566.39
420.15	4695.11
420.34	4470.42
420.53	4622.56
420.72	4629.58
420.91	4545.32
421.10	4828.53
421.29	4854.27
421.48	4652.98
421.67	4716.18
421.86	4814.48
422.05	4770.01
422.24	4676.39
422.43	4945.55
422.61	4901.08
422.80	4940.87
422.99	4919.81
423.18	4943.21
423.37	4985.34
423.56	5041.51
423.75	4950.23
423.94	4891.72
424.13	4660.01
424.32	4903.42
424.50	5001.72
424.69	5191.31
424.88	5085.98
425.07	4896.40
425.26	4903.42
425.45	4816.82
425.64	5060.24
425.83	4994.70
426.01	4966.62
426.20	5083.64
426.39	5235.78
426.58	5069.60
426.77	5116.41
426.96	4997.04
427.15	4947.89
427.33	5221.74
427.52	5076.62
427.71	5203.01
427.90	5186.63
428.09	5408.98
428.28	5282.59
428.46	5313.02
428.65	5263.86
428.84	5533.03
429.03	5610.26
429.22	5247.48
429.40	5526.00
429.59	5490.90
429.78	5345.78
429.97	5303.65
430.16	5544.73
430.34	5547.07
430.53	5689.84
430.72	5603.24
430.91	5568.13
431.10	5640.69
431.28	5827.93
431.47	5914.53
431.66	5827.93
431.85	5785.80
432.03	5802.19
432.22	6010.50
432.41	5909.85
432.60	6080.71
432.79	5966.03
432.97	5937.94
433.16	6022.20
433.35	6024.54
433.54	6071.35
433.72	6017.52
433.91	6111.14
434.10	6207.10
434.28	6057.31
434.47	6111.14
434.66	6209.44
434.85	6347.53
435.03	6338.17
435.22	6305.40
435.41	6513.71
435.59	6338.17
435.78	6471.58
435.97	6363.92
436.16	6377.96
436.34	6523.07
436.53	6394.34
436.72	6719.68
436.90	6413.07
437.09	6516.05
437.28	6408.39
437.46	6654.14
437.65	6633.08
437.84	6705.63
438.02	6621.38
438.21	6696.27
438.40	6602.65
438.58	6839.05
438.77	7084.80
438.96	7021.61
439.14	7094.16
439.33	7026.29
439.52	7052.03
439.70	7124.59
439.89	7267.36
440.08	7365.67
440.26	7541.21
440.45	7370.35
440.63	7447.58
440.82	7676.96
441.01	7634.83
441.19	7545.89
441.38	7786.96
441.57	7721.43
441.75	7742.49
441.94	8016.33
442.12	7929.74
442.31	7857.18
442.50	8053.78
442.68	8030.38
442.87	8086.55
443.05	8262.09
443.24	8236.35
443.43	8072.51
443.61	8161.45
443.80	8510.19
443.98	8119.32
444.17	7908.67
444.35	8198.90
444.54	8315.92
444.73	8194.22
444.91	8156.77
445.10	8339.33
445.28	8306.56
445.47	8248.05
445.65	8505.51
445.84	8353.37
446.02	8685.73
446.21	8336.99
446.39	8540.61
446.58	8849.57
446.77	8638.92
446.95	8290.18
447.14	8257.41
447.32	8493.80
447.51	8482.10
447.69	8465.72
447.88	8674.03
448.06	8376.78
448.25	8564.02
448.43	8652.96
448.62	8552.32
448.80	8421.25
448.99	8746.58
449.17	8718.50
449.36	8758.28
449.54	8975.95
449.73	8936.17
449.91	9013.40
450.10	8779.35
450.28	9146.81
450.46	8971.27
450.65	9177.24
450.83	8992.34
451.02	8994.68
451.20	9123.41
451.39	9074.26
451.57	9275.54
451.76	9062.55
451.94	9249.80
452.13	9401.93
452.31	9238.09
452.49	9303.63
452.68	9551.73
452.86	9320.01
453.05	9598.54
453.23	9652.37
453.42	9331.72
453.60	9418.32
453.78	9474.49
453.97	9441.72
454.15	9525.98
454.34	9645.35
454.52	9717.90
454.70	9743.65
454.89	9736.63
455.07	9914.51
455.26	9898.13
455.44	9991.75
455.62	9722.59
455.81	10120.48
455.99	10139.20
456.17	10104.09
456.36	10174.31
456.54	10181.33
456.73	10225.80
456.91	10494.96
457.09	10242.18
457.28	10700.93
457.46	10427.09
457.64	10623.69
457.83	10555.82
458.01	10539.43
458.19	10714.97
458.38	10534.75
458.56	10668.16
458.74	10590.92
458.93	10647.10
459.11	10710.29
459.29	10792.21
459.48	10733.70
459.66	10775.83
459.84	10984.13
460.03	11059.03
460.21	10965.41
460.39	10836.68
460.57	11138.61
460.76	11180.74
460.94	11222.87
461.12	11321.17
461.31	11166.70
461.49	11176.06
461.67	11384.37
461.85	11555.22
462.04	11377.34
462.22	11456.92
462.40	11866.52
462.59	11426.50
462.77	11630.12
462.95	11676.93
463.13	11751.83
463.32	11768.21
463.50	11646.51
463.68	12013.97
463.86	11756.51
464.05	11613.74
464.23	11698.00
464.41	11772.89
464.59	11683.95
464.78	12114.61
464.96	12243.34
465.14	12028.01
465.32	12189.51
465.50	12086.53
465.69	12161.42
465.87	11754.17
466.05	12070.14
466.23	12175.47
466.41	12379.09
466.60	12322.92
466.78	12259.73
466.96	12229.30
467.14	12341.64
467.32	12343.99
467.51	12528.89
467.69	12292.49
467.87	12442.29
468.05	12484.42
468.23	12329.94
468.41	12428.24
468.60	12854.22
468.78	12786.35
468.96	12664.64
469.14	12636.55
469.32	12676.34
469.50	12730.17
469.69	12910.40
469.87	13249.77
470.05	13090.62
470.23	12982.95
470.41	13114.02
470.59	13418.29
470.77	13280.20
470.95	13317.65
471.14	13621.92
471.32	13188.92
471.50	13525.96
471.68	13652.34
471.86	13511.91
472.04	13724.90
472.22	14085.34
472.40	13528.30
472.58	13617.24
472.77	13827.88
472.95	13928.53
473.13	14424.72
473.31	14003.43
473.49	14111.09
473.67	14197.69
473.85	14359.19
474.03	14516.00
474.21	14841.34
474.39	14317.06
474.57	14857.72
474.75	14911.55
474.93	14902.19
475.12	15009.86
475.30	15234.55
475.48	15080.07
475.66	15089.43
475.84	15234.55
476.02	15445.20
476.20	15440.51
476.38	15833.72
476.56	16056.08
476.74	15985.86
476.92	15784.57
477.10	15510.73
477.28	16100.55
477.46	15999.90
477.64	16297.15
477.82	16460.99
478.00	17043.78
478.18	17025.06
478.36	17067.19
478.54	17050.80
478.72	17179.53
478.90	17216.98
479.08	17502.53
479.26	17816.16
479.44	17743.60
479.62	17841.90
479.80	18097.02
479.98	18548.75
480.16	18567.47
480.34	18202.35
480.52	18590.88
480.70	18644.71
480.88	18412.99
481.06	18675.13
481.24	18602.58
481.41	18979.40
481.59	19307.08
481.77	19466.24
481.95	19637.09
482.13	19637.09
482.31	19726.04
482.49	20243.29
482.67	20374.36
482.85	20381.38
483.03	20505.43
483.21	20926.73
483.39	21048.44
483.57	20570.97
483.74	21216.96
483.92	21462.71
484.10	21380.79
484.28	22195.30
484.46	22134.45
484.64	22104.02
484.82	22167.21
485.00	22583.83
485.18	23035.55
485.35	22642.34
485.53	22834.27
485.71	23278.97
485.89	23740.05
486.07	23335.14
486.25	23309.40
486.43	23503.66
486.61	23953.04
486.78	24259.65
486.96	24219.86
487.14	24748.82
487.32	24833.08
487.50	25050.75
487.68	24678.61
487.85	25149.06
488.03	25577.37
488.21	25902.71
488.39	26019.74
488.57	26111.02
488.75	26452.73
488.92	26494.86
489.10	26932.54
489.28	26841.26
489.46	26888.07
489.64	27122.13
489.81	27620.66
489.99	27723.65
490.17	27882.80
490.35	28458.57
490.53	28280.69
490.70	28348.57
490.88	28325.16
491.06	28896.25
491.24	29205.20
491.41	29015.62
491.59	29263.72
491.77	29666.29
491.95	29762.25
492.13	29661.61
492.30	30036.09
492.48	30209.29
492.66	30408.24
492.84	30277.17
493.01	30588.46
493.19	30958.27
493.37	30838.90
493.54	31110.40
493.72	31515.31
493.90	31744.69
494.08	31903.84
494.25	31805.54
494.43	32013.85
494.61	32084.06
494.79	32224.50
494.96	32519.40
495.14	32882.19
495.32	33303.48
495.49	33509.45
495.67	33149.01
495.85	33827.76
496.02	33902.66
496.20	34455.03
496.38	33947.13
496.55	34239.70
496.73	34778.02
496.91	34993.35
497.09	34649.29
497.26	35047.18
497.44	34829.51
497.62	35325.71
497.79	35838.28
497.97	35035.48
498.14	35894.46
498.32	36437.46
498.50	36460.87
498.67	36847.05
498.85	36362.56
499.03	36889.18
499.20	36943.02
499.38	37074.09
499.56	36877.48
499.73	37102.17
499.91	37310.48
500.08	37755.18
500.26	37530.49
500.44	37652.20
500.61	37977.53
500.79	37900.29
500.97	37895.61
501.14	38588.41
501.32	38436.28
501.49	38717.14
501.67	38775.66
501.84	38838.85
502.02	39196.95
502.20	39002.69
502.37	39044.82
502.55	39040.14
502.72	39234.40
502.90	39711.87
503.07	39431.01
503.25	40114.44
503.43	39817.19
503.60	40086.36
503.78	40128.48
503.95	40617.66
504.13	40641.06
504.30	40989.80
504.48	40304.02
504.65	40959.38
504.83	41448.55
505.01	41455.57
505.18	41397.06
505.36	41638.13
505.53	41483.66
505.71	41844.10
505.88	41406.42
506.06	41811.33
506.23	41750.48
506.41	41717.71
506.58	42436.25
506.76	42518.17
506.93	42150.71
507.11	42314.55
507.28	42419.87
507.46	42499.45
507.63	42993.30
507.81	43477.79
507.98	43377.15
508.16	42979.26
508.33	43358.42
508.50	43627.59
508.68	43302.25
508.85	44004.41
509.03	43817.17
509.20	44458.48
509.38	44285.28
509.55	44018.46
509.73	44439.75
509.90	44425.71
510.08	44179.95
510.25	44851.69
510.42	44830.62
510.60	45134.89
510.77	45153.62
510.95	45553.85
511.12	45242.56
511.30	44957.01
511.47	45652.15
511.64	45500.01
511.82	46005.57
511.99	45883.86
512.17	46045.36
512.34	45652.15
512.51	46553.26
512.69	46504.10
512.86	46213.88
513.04	46799.01
513.21	46742.84
513.38	46506.44
513.56	47175.84
513.73	46925.40
513.90	47065.83
514.08	46651.56
514.25	47217.97
514.43	47627.56
514.60	47665.01
514.77	47388.83
514.95	48002.05
515.12	47398.19
515.29	47910.77
515.47	48191.63
515.64	48280.57
515.81	48025.45
515.99	48055.88
516.16	48245.46
516.33	48568.46
516.51	48645.69
516.68	48839.96
516.85	48353.13
517.03	48956.99
517.20	48816.55
517.37	49097.42
517.54	48545.05
517.72	48814.21
517.89	49006.14
518.06	49333.81
518.24	49258.91
518.41	49258.91
518.58	49090.40
518.75	49111.46
518.93	49560.84
519.10	49373.60
519.27	49811.28
519.45	49855.75
519.62	50225.56
519.79	50103.85
519.96	49869.79
520.14	49965.76
520.31	50042.99
520.48	50597.70
520.65	50539.19
520.83	50852.82
521.00	50595.36
521.17	50642.17
521.34	50920.70
521.52	50609.40
521.69	50541.53
521.86	51124.32
522.03	51316.25
522.20	51241.35
522.38	51262.41
522.55	51131.34
522.72	51648.60
522.89	51435.61
523.07	51533.92
523.24	51547.96
523.41	51583.07
523.58	51482.42
523.75	51917.76
523.92	51632.22
524.10	51934.15
524.27	51849.89
524.44	51896.70
524.61	51941.17
524.78	52474.81
524.96	52355.44
525.13	52364.81
525.30	52512.26
525.47	52460.77
525.64	52477.15
525.81	52725.25
525.98	52690.14
526.16	52664.39
526.33	52612.90
526.50	53013.13
526.67	52905.47
526.84	52935.90
527.01	52762.70
527.18	52910.15
527.36	53076.33
527.53	52931.22
527.70	53378.26
527.87	53464.86
528.04	53097.39
528.21	53600.61
528.38	53343.15
528.55	53483.58
528.72	53312.72
528.89	53485.92
529.07	53614.65
529.24	53137.18
529.41	53652.10
529.58	53537.41
529.75	53797.21
529.92	53895.52
530.09	54024.25
530.26	54134.25
530.43	54124.89
530.60	53647.42
530.77	53923.60
530.94	54323.83
531.11	54028.93
531.28	54028.93
531.46	54326.17
531.63	54265.32
531.80	54307.45
531.97	54499.37
532.14	54756.83
532.31	54431.50
532.48	54370.64
532.65	54651.51
532.82	54429.16
532.99	54681.94
533.16	54574.27
533.33	54923.01
533.50	54836.41
533.67	54761.51
533.84	54880.88
534.01	54850.45
534.18	55037.70
534.35	55356.01
534.52	55194.51
534.69	55384.10
534.86	55405.16
535.03	55112.59
535.20	55009.61
535.37	55543.25
535.54	55454.31
535.71	55381.76
535.88	55416.86
536.05	55580.70
536.22	55657.94
536.38	55604.11
536.55	55627.51
536.72	55901.36
536.89	55765.60
537.06	55646.24
537.23	55856.88
537.40	55683.69
537.57	55709.43
537.74	55842.84
537.91	56245.41
538.08	56191.58
538.25	55910.72
538.42	55863.91
538.59	55950.51
538.75	55929.44
538.92	56114.34
539.09	56430.32
539.26	55962.21
539.43	56069.87
539.60	56086.26
539.77	56383.51
539.94	56376.48
540.11	56652.67
540.28	56472.45
540.44	56348.40
540.61	56324.99
540.78	56619.90
540.95	56453.72
541.12	56271.16
541.29	56547.34
541.46	56650.33
541.62	56652.67
541.79	56481.81
541.96	56472.45
542.13	56303.93
542.30	56619.90
542.47	56994.39
542.63	56947.57
542.80	56884.38
542.97	56996.73
543.14	57293.97
543.31	57315.04
543.48	57181.63
543.64	57432.07
543.81	57308.02
543.98	57439.09
544.15	57319.72
544.32	57556.11
544.48	57715.27
544.65	57446.11
544.82	57478.88
544.99	57460.15
545.16	57361.85
545.32	57488.24
545.49	57551.43
545.66	57689.52
545.83	57675.48
546.00	57701.23
546.16	57523.35
546.33	57654.42
546.50	57523.35
546.67	57820.59
546.83	57584.20
547.00	57733.99
547.17	58028.90
547.34	57977.41
547.50	58075.71
547.67	58108.48
547.84	58064.01
548.00	58260.62
548.17	58335.51
548.34	58106.14
548.51	58253.59
548.67	58335.51
548.84	58272.32
549.01	58049.97
549.18	58471.26
549.34	58073.37
549.51	58211.46
549.68	58504.03
549.84	58555.52
550.01	58298.06
550.18	58113.16
550.34	58417.43
550.51	58553.18
550.68	58780.21
550.84	58241.89
551.01	58466.58
551.18	58478.28
551.34	58581.27
551.51	58590.63
551.68	58705.32
551.84	58438.50
552.01	58611.70
552.18	58724.04
552.34	58527.44
552.51	58887.88
552.68	58454.88
552.84	58461.90
553.01	59016.61
553.18	58906.60
553.34	59131.29
553.51	58740.42
553.67	59135.98
553.84	58796.60
554.01	58841.07
554.17	59000.22
554.34	58962.78
554.51	59175.76
554.67	59384.07
554.84	59143.00
555.00	59245.98
555.17	58960.44
555.33	59021.29
555.50	59058.74
555.67	59079.80
555.83	59147.68
556.00	59374.71
556.16	59576.00
556.33	59381.73
556.50	59203.85
556.66	59430.88
556.83	59143.00
556.99	59475.35
557.16	59522.16
557.32	59517.48
557.49	59587.70
557.65	59379.39
557.82	59271.73
557.98	59454.29
558.15	59405.14
558.32	59524.50
558.48	59423.86
558.65	59517.48
558.81	59358.33
558.98	59618.13
559.14	59779.62
559.31	59578.34
559.47	59568.97
559.64	59718.77
559.80	59852.18
559.97	59955.16
560.13	59758.56
560.30	59758.56
560.46	59898.99
560.63	59868.56
560.79	59966.87
560.96	59707.07
561.12	59793.67
561.29	59882.61
561.45	59819.41
561.61	59814.73
561.78	59983.25
561.94	59922.40
562.11	59852.18
562.27	59826.43
562.44	60039.42
562.60	59901.33
562.77	59978.57
562.93	59810.05
563.10	59929.42
563.26	59990.27
563.42	60142.41
563.59	60060.49
563.75	60020.70
563.92	60154.11
564.08	60111.98
564.24	60243.05
564.41	59964.52
564.57	60088.57
564.74	60041.76
564.90	60203.26
565.07	60006.65
565.23	60198.58
565.39	60034.74
565.56	60341.35
565.72	60245.39
565.88	60303.90
566.05	60072.19
566.21	60140.07
566.38	60385.82
566.54	60200.92
566.70	60446.68
566.87	60537.96
567.03	60200.92
567.19	60334.33
567.36	60320.29
567.52	60381.14
567.68	60683.07
567.85	60411.57
568.01	60561.36
568.17	60308.58
568.34	60566.04
568.50	60493.49
568.66	60416.25
568.83	60376.46
568.99	60259.43
569.15	60535.62
569.32	60374.12
569.48	60430.29
569.64	60568.38
569.81	60554.34
569.97	60317.95
570.13	60498.17
570.30	60472.42
570.46	60556.68
570.62	60832.86
570.78	60638.60
570.95	60725.20
571.11	60706.47
571.27	60514.55
571.43	60690.09
571.60	60687.75
571.76	60622.22
571.92	60760.31
572.09	60711.16
572.25	60601.15
572.41	60596.47
572.57	60715.84
572.74	60966.27
572.90	60580.09
573.06	60603.49
573.22	60598.81
573.38	60715.84
573.55	60643.28
573.71	60959.25
573.87	60523.91
574.03	60652.64
574.20	60772.01
574.36	60680.73
574.52	60830.52
574.68	60676.05
574.84	60711.16
575.01	60954.57
575.17	60755.63
575.33	61078.62
575.49	60603.49
575.65	60776.69
575.82	60825.84
575.98	60802.44
576.14	61008.40
576.30	60982.66
576.46	60884.36
576.62	60814.14
576.79	60884.36
576.95	60783.71
577.11	60865.63
577.27	60975.64
577.43	60823.50
577.59	60537.96
577.75	60879.67
577.92	60830.52
578.08	60671.37
578.24	60872.65
578.40	60949.89
578.56	60945.21
578.72	60938.19
578.88	61027.13
579.04	61036.49
579.21	61031.81
579.37	61024.79
579.53	61087.98
579.69	60860.95
579.85	60856.27
580.01	60837.54
580.17	60900.74
580.33	60910.10
580.49	61127.77
580.65	61029.47
580.82	60980.32
580.98	60800.10
581.14	60704.13
581.30	61066.92
581.46	61013.08
581.62	61120.75
581.78	60741.58
581.94	61020.11
582.10	60973.30
582.26	60996.70
582.42	61078.62
582.58	61109.05
582.74	60928.83
582.90	60891.38
583.06	60933.51
583.22	60938.19
583.38	60980.32
583.54	60839.89
583.70	61003.72
583.86	60928.83
584.02	60872.65
584.18	61151.18
584.34	60989.68
584.50	61043.51
584.66	60938.19
584.82	60872.65
584.98	61092.66
585.14	60947.55
585.30	60919.46
585.46	60928.83
585.62	61104.37
585.78	61106.71
585.94	61031.81
586.10	61120.75
586.26	61214.37
586.42	61062.24
586.58	61052.87
586.74	60987.34
586.90	61062.24
587.06	61066.92
587.22	61233.10
587.38	61151.18
587.54	60996.70
587.70	61343.10
587.86	61221.39
588.02	61123.09
588.18	61256.50
588.34	60844.57
588.49	61031.81
