SpectraSuite Data File
++++++++++++++++++++++++++++++++++++
Date: Fri Oct 25 10:47:23 EDT 2013
User: price-jones
Dark Spectrum Present: No
Reference Spectrum Present: No
Number of Sampled Component Spectra: 1
Spectrometers: USB2+H05261
Integration Time (usec): 100000 (USB2+H05261)
Spectra Averaged: 1 (USB2+H05261)
Boxcar Smoothing: 0 (USB2+H05261)
Correct for Electrical Dark: No (USB2+H05261)
Strobe/Lamp Enabled: No (USB2+H05261)
Correct for Detector Non-linearity: No (USB2+H05261)
Correct for Stray Light: No (USB2+H05261)
Number of Pixels in Processed Spectrum: 2048
>>>>>Begin Processed Spectral Data<<<<<
365.73	138.09
365.92	138.09
366.12	138.09
366.32	60.85
366.52	128.73
366.72	39.79
366.91	42.13
367.11	0.00
367.31	44.47
367.51	72.56
367.70	72.56
367.90	65.54
368.10	21.06
368.30	46.81
368.49	14.04
368.69	16.38
368.89	30.43
369.09	88.94
369.28	35.11
369.48	77.24
369.68	95.96
369.87	119.37
370.07	128.73
370.27	138.09
370.47	194.26
370.66	374.49
370.86	402.57
371.06	369.80
371.25	491.51
371.45	451.72
371.65	400.23
371.84	411.93
372.04	360.44
372.24	440.02
372.44	491.51
372.63	416.62
372.83	535.98
373.03	540.66
373.22	514.92
373.42	454.06
373.62	582.79
373.81	543.00
374.01	528.96
374.21	564.07
374.40	575.77
374.60	599.18
374.79	510.24
374.99	575.77
375.19	519.60
375.38	599.18
375.58	599.18
375.78	496.19
375.97	582.79
376.17	631.94
376.37	566.41
376.56	557.05
376.76	557.05
376.95	571.09
377.15	613.22
377.35	559.39
377.54	587.47
377.74	552.37
377.93	559.39
378.13	620.24
378.33	599.18
378.52	674.07
378.72	676.41
378.91	662.37
379.11	622.58
379.31	613.22
379.50	596.84
379.70	620.24
379.89	629.60
380.09	641.31
380.28	624.92
380.48	674.07
380.68	730.25
380.87	655.35
381.07	631.94
381.26	697.48
381.46	608.54
381.65	650.67
381.85	732.59
382.04	681.10
382.24	704.50
382.43	676.41
382.63	767.70
382.83	699.82
383.02	732.59
383.22	732.59
383.41	662.37
383.61	744.29
383.80	720.88
384.00	734.93
384.19	725.57
384.39	795.78
384.58	664.71
384.78	660.03
384.97	784.08
385.17	662.37
385.36	816.85
385.56	732.59
385.75	706.84
385.95	711.52
386.14	805.14
386.34	763.01
386.53	802.80
386.72	793.44
386.92	809.83
387.11	781.74
387.31	786.42
387.50	821.53
387.70	861.32
387.89	858.98
388.09	837.91
388.28	840.25
388.48	875.36
388.67	854.30
388.86	767.70
389.06	931.53
389.25	915.15
389.45	875.36
389.64	924.51
389.84	905.79
390.03	901.11
390.22	896.43
390.42	858.98
390.61	882.38
390.81	915.15
391.00	978.34
391.19	980.68
391.39	1027.50
391.58	945.58
391.78	1025.15
391.97	968.98
392.16	950.26
392.36	1046.22
392.55	1029.84
392.75	1029.84
392.94	950.26
393.13	1081.33
393.33	997.07
393.52	950.26
393.71	1004.09
393.91	1062.60
394.10	1053.24
394.29	1011.11
394.49	1100.05
394.68	1109.41
394.88	1107.07
395.07	1102.39
395.26	1100.05
395.46	1104.73
395.65	1125.80
395.84	1160.91
396.04	1181.97
396.23	1123.46
396.42	1163.25
396.62	1088.35
396.81	1151.54
397.00	1130.48
397.19	1123.46
397.39	1203.04
397.58	1153.88
397.77	1224.10
397.97	1231.12
398.16	1313.04
398.35	1301.34
398.55	1343.47
398.74	1275.59
398.93	1240.48
399.12	1329.42
399.32	1380.92
399.51	1289.64
399.70	1352.83
399.90	1355.17
400.09	1352.83
400.28	1418.36
400.47	1469.86
400.67	1420.71
400.86	1460.49
401.05	1495.60
401.24	1516.67
401.44	1453.47
401.63	1568.16
401.82	1479.22
402.01	1507.30
402.21	1523.69
402.40	1577.52
402.59	1528.37
402.78	1511.99
402.97	1619.65
403.17	1504.96
403.36	1586.88
403.55	1682.85
403.74	1570.50
403.93	1685.19
404.13	1732.00
404.32	1680.50
404.51	1682.85
404.70	1708.59
404.89	1701.57
405.09	1647.74
405.28	1699.23
405.47	1732.00
405.66	1734.34
405.85	1792.85
406.05	1870.09
406.24	1858.39
406.43	1757.74
406.62	1832.64
406.81	1881.79
407.00	1837.32
407.20	1881.79
407.39	1849.02
407.58	1842.00
407.77	1940.30
407.96	2005.84
408.15	2087.76
408.34	2005.84
408.54	1975.41
408.73	1966.05
408.92	1968.39
409.11	2132.23
409.30	2087.76
409.49	1994.14
409.68	2015.20
409.87	2127.55
410.07	2167.34
410.26	2179.04
410.45	2127.55
410.64	2136.91
410.83	2113.50
411.02	2216.49
411.21	2195.42
411.40	2324.15
411.59	2415.43
411.78	2256.28
411.98	2239.89
412.17	2478.63
412.36	2382.67
412.55	2434.16
412.74	2436.50
412.93	2445.86
413.12	2450.54
413.31	2523.10
413.50	2520.76
413.69	2438.84
413.88	2588.63
414.07	2635.44
414.26	2654.17
414.45	2607.36
414.64	2719.70
414.83	2696.30
415.02	2700.98
415.22	2722.04
415.41	2799.28
415.60	2696.30
415.79	2740.77
415.98	2871.84
416.17	2857.79
416.36	2881.20
416.55	3000.57
416.74	2935.03
416.93	2920.99
417.12	2881.20
417.31	2920.99
417.50	2998.23
417.69	3098.87
417.88	3068.44
418.07	3143.34
418.26	3082.49
418.45	3087.17
418.64	3258.03
418.83	3187.81
419.02	3129.30
419.21	3141.00
419.39	3236.96
419.58	3183.13
419.77	3246.32
419.96	3145.68
420.15	3384.41
420.34	3272.07
420.53	3358.67
420.72	3323.56
420.91	3480.38
421.10	3358.67
421.29	3398.46
421.48	3449.95
421.67	3494.42
421.86	3335.26
422.05	3403.14
422.24	3463.99
422.43	3515.48
422.61	3510.80
422.80	3578.68
422.99	3562.30
423.18	3555.27
423.37	3611.45
423.56	3686.34
423.75	3604.42
423.94	3576.34
424.13	3288.45
424.32	3372.71
424.50	3557.61
424.69	3583.36
424.88	3630.17
425.07	3552.93
425.26	3487.40
425.45	3676.98
425.64	3583.36
425.83	3641.87
426.01	3700.39
426.20	3574.00
426.39	3623.15
426.58	3639.53
426.77	3618.47
426.96	3648.90
427.15	3637.19
427.33	3735.50
427.52	3660.60
427.71	3688.68
427.90	3749.54
428.09	3688.68
428.28	3740.18
428.46	3819.75
428.65	3887.63
428.84	3887.63
429.03	3875.93
429.22	3833.80
429.40	3925.08
429.59	3782.31
429.78	3782.31
429.97	3789.33
430.16	3880.61
430.34	3843.16
430.53	3981.25
430.72	3880.61
430.91	3782.31
431.10	3803.37
431.28	4051.47
431.47	4264.46
431.66	4245.73
431.85	4093.60
432.03	4198.92
432.22	4196.58
432.41	4128.70
432.60	4234.03
432.79	4173.18
432.97	4292.54
433.16	4402.55
433.35	4299.56
433.54	4346.37
433.72	4252.75
433.91	4311.27
434.10	4362.76
434.28	4386.16
434.47	4432.97
434.66	4376.80
434.85	4447.02
435.03	4613.20
435.22	4341.69
435.41	4524.26
435.59	4482.13
435.78	4505.53
435.97	4601.49
436.16	4627.24
436.34	4587.45
436.53	4641.28
436.72	4664.69
436.90	4561.70
437.09	4627.24
437.28	4486.81
437.46	4702.14
437.65	4812.14
437.84	4781.71
438.02	4681.07
438.21	4765.33
438.40	4723.20
438.58	4889.38
438.77	4990.02
438.96	4835.55
439.14	4908.10
439.33	5013.43
439.52	5116.41
439.70	5036.83
439.89	5137.48
440.08	5207.69
440.26	5146.84
440.45	5111.73
440.63	5308.34
440.82	5460.47
441.01	5371.53
441.19	5486.22
441.38	5460.47
441.57	5675.80
441.75	5558.77
441.94	5497.92
442.12	5664.10
442.31	5526.00
442.50	5675.80
442.68	5605.58
442.87	5556.43
443.05	5811.55
443.24	5809.21
443.43	5760.06
443.61	5809.21
443.80	6120.50
443.98	5877.09
444.17	5533.03
444.35	5877.09
444.54	5874.74
444.73	5839.64
444.91	5778.78
445.10	6047.94
445.28	5748.36
445.47	5687.50
445.65	5816.23
445.84	6054.97
446.02	6052.63
446.21	5949.64
446.39	5921.56
446.58	6148.59
446.77	6115.82
446.95	5961.34
447.14	5916.87
447.32	6026.88
447.51	6071.35
447.69	6104.12
447.88	6012.84
448.06	6050.28
448.25	5949.64
448.43	6132.20
448.62	6012.84
448.80	6061.99
448.99	6038.58
449.17	6043.26
449.36	6193.06
449.54	6122.84
449.73	6361.58
449.91	6310.08
450.10	6293.70
450.28	6633.08
450.46	6384.98
450.65	6352.21
450.83	6516.05
451.02	6389.66
451.20	6532.44
451.39	6452.86
451.57	6572.22
451.76	6471.58
451.94	6396.68
452.13	6698.61
452.31	6670.53
452.49	6473.92
452.68	6633.08
452.86	6647.12
453.05	6754.79
453.23	6576.91
453.42	6619.04
453.60	6633.08
453.78	6806.28
453.97	6616.69
454.15	6675.21
454.34	6682.23
454.52	6710.32
454.70	7026.29
454.89	7042.67
455.07	6892.88
455.26	6895.22
455.44	7012.24
455.62	6836.70
455.81	6911.60
455.99	7164.38
456.17	6953.73
456.36	7176.08
456.54	7129.27
456.73	7255.66
456.91	7534.18
457.09	7316.51
457.28	7510.78
457.46	7150.34
457.64	7311.83
457.83	7482.69
458.01	7300.13
458.19	7393.75
458.38	7314.17
458.56	7623.12
458.74	7449.93
458.93	7613.76
459.11	7660.57
459.29	7482.69
459.48	7543.55
459.66	7426.52
459.84	7578.65
460.03	7901.65
460.21	7644.19
460.39	7810.37
460.57	7737.81
460.76	7810.37
460.94	7896.97
461.12	7815.05
461.31	7847.82
461.49	8016.33
461.67	7822.07
461.85	7995.27
462.04	8004.63
462.22	8456.36
462.40	8116.98
462.59	8196.56
462.77	8051.44
462.95	8231.66
463.13	8004.63
463.32	8273.79
463.50	8166.13
463.68	8109.96
463.86	8241.03
464.05	8173.15
464.23	8236.35
464.41	8222.30
464.59	8163.79
464.78	8400.18
464.96	8301.88
465.14	8173.15
465.32	8449.33
465.50	8573.38
465.69	8493.80
465.87	8437.63
466.05	8503.17
466.23	8470.40
466.41	8400.18
466.60	8823.82
466.78	8205.92
466.96	8348.69
467.14	8585.08
467.32	8664.66
467.51	8578.06
467.69	8362.73
467.87	8451.67
468.05	8844.88
468.23	8610.83
468.41	8676.37
468.60	8578.06
468.78	8823.82
468.96	8957.23
469.14	8659.98
469.32	8938.51
469.50	8795.73
469.69	9022.77
469.87	8990.00
470.05	8791.05
470.23	9067.24
470.41	8961.91
470.59	9062.55
470.77	9226.39
470.95	9104.68
471.14	9085.96
471.32	8926.80
471.50	9378.53
471.68	9467.47
471.86	9458.10
472.04	9413.63
472.22	9657.05
472.40	9310.65
472.58	9525.98
472.77	9589.17
472.95	9685.14
473.13	10015.15
473.31	9673.43
473.49	9638.33
473.67	9802.16
473.85	9982.38
474.03	10153.24
474.21	9961.32
474.39	9996.43
474.57	10097.07
474.75	10197.71
474.93	10485.60
475.12	10092.39
475.30	10235.16
475.48	10305.38
475.66	10312.40
475.84	10129.84
476.02	10424.75
476.20	10492.62
476.38	10675.18
476.56	10904.56
476.74	10719.65
476.92	10820.30
477.10	10759.44
477.28	11023.92
477.46	10860.09
477.64	11253.30
477.82	11267.34
478.00	11538.84
478.18	11639.48
478.36	11648.85
478.54	11648.85
478.72	11782.26
478.90	11822.05
479.08	11985.88
479.26	11903.96
479.44	11983.54
479.62	12004.61
479.80	12180.15
479.98	12236.32
480.16	12365.05
480.34	12301.86
480.52	12552.29
480.70	12688.04
480.88	12346.33
481.06	12585.06
481.24	13020.40
481.41	12819.11
481.59	13123.38
481.77	13057.85
481.95	13282.54
482.13	13497.87
482.31	13472.12
482.49	13851.29
482.67	13727.24
482.85	13680.43
483.03	13923.85
483.21	13935.55
483.39	14115.77
483.57	14237.48
483.74	14185.99
483.92	14553.45
484.10	14115.77
484.28	13994.06
484.46	14841.34
484.64	15108.16
484.82	14754.74
485.00	14899.85
485.18	15267.31
485.35	15410.09
485.53	15075.39
485.71	15096.46
485.89	15442.85
486.07	15391.36
486.25	15756.49
486.43	15791.59
486.61	15917.98
486.78	16081.82
486.96	16039.69
487.14	16255.02
487.32	16301.83
487.50	16322.90
487.68	16425.88
487.85	16945.48
488.03	17001.65
488.21	16980.59
488.39	17427.63
488.57	17418.27
488.75	17404.22
488.92	17558.70
489.10	18136.81
489.28	17654.66
489.46	18209.37
489.64	17884.03
489.81	18352.14
489.99	18548.75
490.17	18752.37
490.35	18899.83
490.53	18864.72
490.70	18747.69
490.88	18815.57
491.06	19000.47
491.24	19220.48
491.41	19084.73
491.59	19323.46
491.77	19234.52
491.95	19754.12
492.13	19763.48
492.30	19899.23
492.48	20039.67
492.66	20133.29
492.84	20121.59
493.01	20460.96
493.19	20365.00
493.37	20372.02
493.54	20655.23
493.72	20964.18
493.90	20938.43
494.08	21153.76
494.25	21142.06
494.43	21703.79
494.61	21572.72
494.79	21537.61
494.96	21514.20
495.14	21802.09
495.32	21799.75
495.49	21907.41
495.67	22104.02
495.85	22300.62
496.02	22192.96
496.20	22401.27
496.38	22616.60
496.55	22757.03
496.73	23030.87
496.91	22764.05
497.09	23028.53
497.26	22876.40
497.44	23257.90
497.62	23302.37
497.79	23655.79
497.97	23552.81
498.14	23653.45
498.32	24002.19
498.50	24163.69
498.67	23754.10
498.85	24079.43
499.03	24718.40
499.20	24512.43
499.38	24662.22
499.56	24725.42
499.73	24463.28
499.91	24624.78
500.08	24987.56
500.26	24364.98
500.44	24917.34
500.61	24891.60
500.79	25067.14
500.97	25102.25
501.14	25528.22
501.32	25245.02
501.49	25301.19
501.67	25202.89
501.84	25458.01
502.02	25954.20
502.20	25738.87
502.37	26029.10
502.55	25628.87
502.72	25989.31
502.90	26181.23
503.07	25942.50
503.25	26298.26
503.43	26059.52
503.60	26059.52
503.78	26892.76
503.95	26256.13
504.13	26651.68
504.30	26972.33
504.48	26309.96
504.65	27012.12
504.83	27190.00
505.01	27023.83
505.18	27110.43
505.36	27424.06
505.53	27061.27
505.71	27262.56
505.88	27843.01
506.06	27510.66
506.23	27679.18
506.41	27634.71
506.58	27667.47
506.76	27931.95
506.93	28180.05
507.11	27791.52
507.28	28182.39
507.46	27957.70
507.63	27775.14
507.81	28339.21
507.98	28229.20
508.16	28435.17
508.33	28510.07
508.50	28599.01
508.68	28481.98
508.85	28931.36
509.03	28540.49
509.20	29081.16
509.38	29560.97
509.55	29539.90
509.73	29310.53
509.90	29818.42
510.08	29003.92
510.25	29371.38
510.42	29270.74
510.60	29509.47
510.77	29666.29
510.95	29465.00
511.12	29919.07
511.30	29804.38
511.47	29912.05
511.64	29949.50
511.82	30546.33
511.99	30274.83
512.17	30527.61
512.34	30267.81
512.51	30515.90
512.69	30541.65
512.86	30646.97
513.04	30756.98
513.21	30609.53
513.38	30368.45
513.56	31072.95
513.73	30656.34
513.90	31068.27
514.08	30859.96
514.25	31089.34
514.43	31314.03
514.60	31154.87
514.77	31295.30
514.95	31531.70
515.12	31538.72
515.29	31601.91
515.47	31470.84
515.64	32353.23
515.81	31948.31
515.99	31735.32
516.16	31587.87
516.33	31805.54
516.51	31831.29
516.68	31711.92
516.85	31765.75
517.03	32070.02
517.20	32079.38
517.37	32203.43
517.54	32257.26
517.72	32133.21
517.89	32353.23
518.06	32268.97
518.24	32519.40
518.41	32208.11
518.58	32847.08
518.75	32591.96
518.93	33160.71
519.10	32954.74
519.27	33212.20
519.45	32994.53
519.62	33404.13
519.79	33453.28
519.96	33553.92
520.14	33413.49
520.31	33333.91
520.48	33500.09
520.65	33401.79
520.83	34169.48
521.00	33773.93
521.17	33780.95
521.34	33818.40
521.52	33841.81
521.69	33947.13
521.86	34438.64
522.03	34181.18
522.20	34342.68
522.38	34738.23
522.55	34672.70
522.72	34230.33
522.89	34462.05
523.07	34595.46
523.24	34501.84
523.41	34518.22
523.58	34653.97
523.75	34703.12
523.92	34855.26
524.10	35206.34
524.27	34724.19
524.44	35171.23
524.61	35115.06
524.78	35068.25
524.96	35508.27
525.13	35278.89
525.30	35651.04
525.47	35796.15
525.64	35412.31
525.81	35491.88
525.98	35849.99
526.16	35204.00
526.33	35482.52
526.50	35924.88
526.67	35709.55
526.84	35758.70
527.01	34976.97
527.18	35587.85
527.36	36011.48
527.53	36156.60
527.70	36425.76
527.87	36346.18
528.04	36348.52
528.21	36552.15
528.38	36121.49
528.55	36889.18
528.72	37029.62
528.89	36783.86
529.07	36694.92
529.24	36734.71
529.41	37118.56
529.58	36484.27
529.75	36816.63
529.92	36926.63
530.09	36943.02
530.26	37020.25
530.43	36975.78
530.60	36769.82
530.77	36999.19
530.94	37319.84
531.11	36786.20
531.28	37244.94
531.46	37429.85
531.63	37546.87
531.80	37546.87
531.97	37373.67
532.14	37436.87
532.31	37034.30
532.48	37214.52
532.65	37771.57
532.82	37748.16
532.99	37916.68
533.16	37638.15
533.33	37764.54
533.50	38293.50
533.67	38003.28
533.84	37841.78
534.01	38206.90
534.18	38038.39
534.35	38209.25
534.52	38850.55
534.69	37844.12
534.86	38183.50
535.03	38174.14
535.20	38691.40
535.37	38731.18
535.54	38366.06
535.71	38885.66
535.88	39009.71
536.05	38937.15
536.22	38916.09
536.38	38876.30
536.55	39058.86
536.72	38770.97
536.89	38590.75
537.06	38728.84
537.23	38660.97
537.40	38637.56
537.57	39075.24
537.74	39452.07
537.91	39428.66
538.08	39306.96
538.25	39012.05
538.42	38902.04
538.59	39491.86
538.75	39026.09
538.92	39627.61
539.09	39775.06
539.26	39112.69
539.43	39328.02
539.60	39744.64
539.77	39302.28
539.94	40144.87
540.11	39119.71
540.28	39880.39
540.44	39580.80
540.61	40105.08
540.78	39302.28
540.95	40123.80
541.12	39742.30
541.29	39480.16
541.46	40126.14
541.62	39639.31
541.79	40467.86
541.96	39681.44
542.13	39885.07
542.30	39927.20
542.47	40306.37
542.63	39849.96
542.80	40144.87
542.97	40964.06
543.14	40514.67
543.31	40535.74
543.48	40612.98
543.64	41509.40
543.81	41141.94
543.98	40926.61
544.15	40865.75
544.32	41095.13
544.48	41090.44
544.65	40772.13
544.82	40905.54
544.99	41139.60
545.16	40786.18
545.32	40886.82
545.49	41331.52
545.66	41024.91
545.83	41282.37
546.00	41303.43
546.16	41027.25
546.33	41296.41
546.50	40652.76
546.67	41518.76
546.83	40910.22
547.00	41249.60
547.17	41029.59
547.34	41415.78
547.50	41860.48
547.67	41497.70
547.84	41516.42
548.00	41450.89
548.17	41635.79
548.34	41518.76
548.51	42017.30
548.67	41806.65
548.84	42021.98
549.01	41951.76
549.18	41418.12
549.34	42146.03
549.51	41808.99
549.68	42110.92
549.84	42143.69
550.01	42066.45
550.18	42206.88
550.34	41801.97
550.51	41766.86
550.68	41996.23
550.84	41638.13
551.01	41837.08
551.18	42319.23
551.34	41921.34
551.51	42307.52
551.68	42740.52
551.84	42232.63
552.01	42232.63
552.18	42464.34
552.34	41895.59
552.51	42857.55
552.68	42862.23
552.84	42370.72
553.01	43454.39
553.18	42220.92
553.34	42394.12
553.51	42293.48
553.67	42541.58
553.84	42927.77
554.01	42920.74
554.17	42953.51
554.34	43384.17
554.51	42995.64
554.67	43019.05
554.84	42827.12
555.00	42869.25
555.17	42768.61
555.33	43278.85
555.50	42738.18
555.67	43182.88
555.83	43061.18
556.00	42878.61
556.16	43311.61
556.33	43475.45
556.50	43164.16
556.66	43161.82
556.83	43557.37
556.99	43246.08
557.16	43236.72
557.32	43164.16
557.49	43192.25
557.65	42564.98
557.82	43540.99
557.98	43442.68
558.15	43278.85
558.32	43407.58
558.48	43299.91
558.65	43880.36
558.81	43529.28
558.98	43161.82
559.14	43290.55
559.31	43372.47
559.47	43695.46
559.64	43784.40
559.80	43601.84
559.97	43725.89
560.13	43966.96
560.30	43882.70
560.46	43627.59
560.63	43571.41
560.79	43690.78
560.96	43856.96
561.12	44275.91
561.29	43899.09
561.45	43377.15
561.61	44058.24
561.78	43842.92
561.94	43367.79
562.11	43648.65
562.27	43372.47
562.44	43903.77
562.60	44151.87
562.77	44194.00
562.93	43885.04
563.10	43971.64
563.26	43421.62
563.42	44025.48
563.59	43929.51
563.75	43711.84
563.92	44374.22
564.08	44011.43
564.24	44334.43
564.41	44105.06
564.57	44285.28
564.74	43962.28
564.90	44203.36
565.07	43887.39
565.23	44004.41
565.39	43957.60
565.56	44191.65
565.72	44023.14
565.88	43917.81
566.05	43920.15
566.21	43899.09
566.38	43981.01
566.54	44196.34
566.70	44140.16
566.87	44755.72
567.03	44093.35
567.19	44528.69
567.36	44376.56
567.52	44287.62
567.68	44479.54
567.85	44030.16
568.01	44252.51
568.17	43920.15
568.34	44961.69
568.50	44308.68
568.66	44203.36
568.83	44418.69
568.99	44285.28
569.15	44605.93
569.32	44327.41
569.48	44186.97
569.64	44423.37
569.81	44657.42
569.97	44449.11
570.13	44289.96
570.30	43938.88
570.46	43772.70
570.62	44346.13
570.78	44142.50
570.95	44336.77
571.11	44645.72
571.27	44421.03
571.43	44219.74
571.60	44055.90
571.76	44418.69
571.92	44619.97
572.09	44381.24
572.25	44254.85
572.41	44612.95
572.57	44774.45
572.74	44966.37
572.90	44631.68
573.06	44266.55
573.22	44369.54
573.38	44348.47
573.55	44634.02
573.71	44577.84
573.87	44348.47
574.03	44425.71
574.20	44683.17
574.36	44168.25
574.52	45151.27
574.68	44622.31
574.84	44289.96
575.01	44254.85
575.17	44994.46
575.33	44538.05
575.49	44514.65
575.65	44758.06
575.82	44657.42
575.98	44940.63
576.14	44933.60
576.30	44512.31
576.46	44554.44
576.62	44636.36
576.79	44912.54
576.95	44184.63
577.11	44315.70
577.27	45104.46
577.43	44877.43
577.59	44509.97
577.75	44570.82
577.92	44261.87
578.08	44458.48
578.24	44706.57
578.40	44729.98
578.56	44507.63
578.72	44472.52
578.88	45172.34
579.04	44339.11
579.21	44313.36
579.37	44463.16
579.53	44481.88
579.69	44741.68
579.85	44954.67
580.01	44680.83
580.17	44947.65
580.33	44830.62
580.49	45174.68
580.65	44823.60
580.82	45036.59
580.98	44865.73
581.14	44339.11
581.30	45036.59
581.46	44559.12
581.62	44631.68
581.78	44964.03
581.94	45200.43
582.10	44987.44
582.26	45050.63
582.42	44928.92
582.58	44772.11
582.74	44346.13
582.90	45249.58
583.06	44790.83
583.22	44931.26
583.38	45457.88
583.54	44704.23
583.70	44870.41
583.86	44680.83
584.02	44383.58
584.18	45277.66
584.34	44421.03
584.50	44704.23
584.66	44959.35
584.82	44486.56
584.98	45312.77
585.14	44547.42
585.30	44744.02
585.46	45076.38
585.62	44318.04
585.78	44870.41
585.94	44402.30
586.10	44737.00
586.26	44626.99
586.42	44996.80
586.58	44774.45
586.74	44814.24
586.90	44858.71
587.06	45137.23
587.22	45031.91
587.38	44818.92
587.54	45265.96
587.70	45097.44
587.86	45261.28
588.02	45034.25
588.18	45242.56
588.34	45041.27
588.49	44816.58
588.65	44556.78
588.81	44751.04
588.97	44626.99
589.13	44601.25
589.29	45020.20
589.45	45038.93
589.61	45006.16
589.77	45455.54
589.93	45130.21
590.08	45041.27
590.24	45155.96
