SpectraSuite Data File
++++++++++++++++++++++++++++++++++++
Date: Fri Oct 25 11:33:41 EDT 2013
User: price-jones
Dark Spectrum Present: No
Reference Spectrum Present: No
Number of Sampled Component Spectra: 1
Spectrometers: USB2+H05261
Integration Time (usec): 100000 (USB2+H05261)
Spectra Averaged: 1 (USB2+H05261)
Boxcar Smoothing: 0 (USB2+H05261)
Correct for Electrical Dark: No (USB2+H05261)
Strobe/Lamp Enabled: No (USB2+H05261)
Correct for Detector Non-linearity: No (USB2+H05261)
Correct for Stray Light: No (USB2+H05261)
Number of Pixels in Processed Spectrum: 2048
>>>>>Begin Processed Spectral Data<<<<<
365.73	271.50
365.92	271.50
366.12	271.50
366.32	217.67
366.52	250.44
366.72	210.65
366.91	187.24
367.11	220.01
367.31	238.73
367.51	210.65
367.70	187.24
367.90	205.97
368.10	133.41
368.30	163.84
368.49	173.20
368.69	194.26
368.89	234.05
369.09	177.88
369.28	175.54
369.48	212.99
369.68	215.33
369.87	245.76
370.07	205.97
370.27	325.33
370.47	262.14
370.66	484.49
370.86	451.72
371.06	484.49
371.25	606.20
371.45	510.24
371.65	564.07
371.84	564.07
372.04	550.03
372.24	568.75
372.44	620.24
372.63	617.90
372.83	578.11
373.03	475.13
373.22	653.01
373.42	608.54
373.62	592.16
373.81	566.41
374.01	599.18
374.21	610.88
374.40	617.90
374.60	713.86
374.79	657.69
374.99	720.88
375.19	620.24
375.38	653.01
375.58	634.29
375.78	660.03
375.97	650.67
376.17	702.16
376.37	711.52
376.56	671.73
376.76	713.86
376.95	629.60
377.15	688.12
377.35	660.03
377.54	709.18
377.74	716.20
377.93	711.52
378.13	636.63
378.33	737.27
378.52	685.78
378.72	727.91
378.91	753.65
379.11	683.44
379.31	669.39
379.50	671.73
379.70	746.63
379.89	765.36
380.09	683.44
380.28	704.50
380.48	725.57
380.68	718.54
380.87	730.25
381.07	777.06
381.26	760.67
381.46	828.55
381.65	816.85
381.85	748.97
382.04	816.85
382.24	753.65
382.43	746.63
382.63	821.53
382.83	800.46
383.02	791.10
383.22	814.51
383.41	854.30
383.61	791.10
383.80	777.06
384.00	837.91
384.19	727.91
384.39	821.53
384.58	798.12
384.78	894.08
384.97	917.49
385.17	863.66
385.36	880.04
385.56	894.08
385.75	840.25
385.95	837.91
386.14	912.81
386.34	861.32
386.53	861.32
386.72	882.38
386.92	964.30
387.11	891.74
387.31	901.11
387.50	938.55
387.70	807.48
387.89	929.19
388.09	959.62
388.28	901.11
388.48	898.77
388.67	919.83
388.86	945.58
389.06	1001.75
389.25	1018.13
389.45	929.19
389.64	901.11
389.84	961.96
390.03	945.58
390.22	997.07
390.42	945.58
390.61	950.26
390.81	940.90
391.00	1011.11
391.19	994.73
391.39	994.73
391.58	1043.88
391.78	1006.43
391.97	1062.60
392.16	1011.11
392.36	1057.92
392.55	1029.84
392.75	1067.28
392.94	1067.28
393.13	1041.54
393.33	1041.54
393.52	1116.44
393.71	1214.74
393.91	1165.59
394.10	1086.01
394.29	1067.28
394.49	1074.31
394.68	1132.82
394.88	1107.07
395.07	1172.61
395.26	1153.88
395.46	1069.62
395.65	1170.27
395.84	1130.48
396.04	1221.76
396.23	1160.91
396.42	1212.40
396.62	1247.51
396.81	1242.82
397.00	1214.74
397.19	1172.61
397.39	1207.72
397.58	1231.12
397.77	1203.04
397.97	1247.51
398.16	1296.66
398.35	1371.55
398.55	1228.78
398.74	1289.64
398.93	1263.89
399.12	1320.06
399.32	1317.72
399.51	1362.19
399.70	1343.47
399.90	1362.19
400.09	1430.07
400.28	1401.98
400.47	1392.62
400.67	1420.71
400.86	1420.71
401.05	1467.52
401.24	1397.30
401.44	1579.86
401.63	1434.75
401.82	1376.24
402.01	1455.81
402.21	1488.58
402.40	1446.45
402.59	1460.49
402.78	1504.96
402.97	1497.94
403.17	1514.33
403.36	1617.31
403.55	1605.61
403.74	1607.95
403.93	1551.78
404.13	1551.78
404.32	1603.27
404.51	1511.99
404.70	1764.76
404.89	1605.61
405.09	1617.31
405.28	1647.74
405.47	1668.80
405.66	1701.57
405.85	1689.87
406.05	1708.59
406.24	1685.19
406.43	1844.34
406.62	1727.32
406.81	1811.57
407.00	1774.13
407.20	1834.98
407.39	1853.70
407.58	1837.32
407.77	1914.56
407.96	1921.58
408.15	1996.48
408.34	1842.00
408.54	1802.21
408.73	1851.36
408.92	1900.52
409.11	1994.14
409.30	1963.71
409.49	1942.64
409.68	1933.28
409.87	2092.44
410.07	2099.46
410.26	2057.33
410.45	1961.37
410.64	2040.95
410.83	2008.18
411.02	2251.60
411.21	2097.12
411.40	2085.42
411.59	2246.91
411.78	2244.57
411.98	2186.06
412.17	2298.41
412.36	2298.41
412.55	2298.41
412.74	2333.51
412.93	2368.62
413.12	2305.43
413.31	2328.83
413.50	2431.82
413.69	2406.07
413.88	2485.65
414.07	2427.14
414.26	2544.16
414.45	2539.48
414.64	2633.10
414.83	2588.63
415.02	2677.57
415.22	2633.10
415.41	2679.91
415.60	2691.62
415.79	2679.91
415.98	2647.15
416.17	2719.70
416.36	2663.53
416.55	2708.00
416.74	2771.19
416.93	2787.58
417.12	2832.05
417.31	2977.16
417.50	2935.03
417.69	3059.08
417.88	2846.09
418.07	2890.56
418.26	3026.31
418.45	2843.75
418.64	3150.36
418.83	2995.89
419.02	2944.39
419.21	3155.04
419.39	3119.93
419.58	3080.14
419.77	3061.42
419.96	3103.55
420.15	3225.26
420.34	3157.38
420.53	3162.06
420.72	3393.78
420.91	3361.01
421.10	3300.16
421.29	3187.81
421.48	3286.11
421.67	3353.99
421.86	3222.92
422.05	3330.58
422.24	3286.11
422.43	3386.76
422.61	3377.39
422.80	3426.54
422.99	3316.54
423.18	3232.28
423.37	3482.72
423.56	3552.93
423.75	3262.71
423.94	3375.05
424.13	3204.19
424.32	3346.97
424.50	3541.23
424.69	3473.36
424.88	3489.74
425.07	3424.20
425.26	3346.97
425.45	3419.52
425.64	3447.61
425.83	3456.97
426.01	3534.21
426.20	3543.57
426.39	3431.23
426.58	3463.99
426.77	3461.65
426.96	3487.40
427.15	3527.19
427.33	3597.40
427.52	3590.38
427.71	3524.85
427.90	3454.63
428.09	3693.37
428.28	3609.11
428.46	3712.09
428.65	3695.71
428.84	3794.01
429.03	3768.26
429.22	3768.26
429.40	3681.66
429.59	3674.64
429.78	3679.32
429.97	3646.55
430.16	3803.37
430.34	3758.90
430.53	3922.74
430.72	3997.64
430.91	3815.07
431.10	3810.39
431.28	3974.23
431.47	4070.19
431.66	3971.89
431.85	3878.27
432.03	4007.00
432.22	4093.60
432.41	4105.30
432.60	4175.52
432.79	4044.45
432.97	4102.96
433.16	4180.20
433.35	4105.30
433.54	4135.73
433.72	4210.62
433.91	4280.84
434.10	4056.15
434.28	4259.78
434.47	4252.75
434.66	4344.03
434.85	4294.88
435.03	4184.88
435.22	4248.07
435.41	4374.46
435.59	4360.42
435.78	4374.46
435.97	4505.53
436.16	4369.78
436.34	4402.55
436.53	4461.06
436.72	4585.11
436.90	4468.08
437.09	4442.34
437.28	4477.44
437.46	4571.07
437.65	4545.32
437.84	4716.18
438.02	4692.77
438.21	4568.73
438.40	4599.15
438.58	4924.49
438.77	4858.95
438.96	4875.34
439.14	4770.01
439.33	4821.50
439.52	4880.02
439.70	4957.25
439.89	5109.39
440.08	4971.30
440.26	4978.32
440.45	5036.83
440.63	5043.85
440.82	5287.27
441.01	5048.54
441.19	5067.26
441.38	5210.03
441.57	5249.82
441.75	5305.99
441.94	5434.72
442.12	5446.43
442.31	5469.83
442.50	5476.85
442.68	5287.27
442.87	5474.51
443.05	5474.51
443.24	5575.16
443.43	5507.28
443.61	5568.13
443.80	5804.53
443.98	5614.95
444.17	5394.93
444.35	5556.43
444.54	5626.65
444.73	5654.73
444.91	5776.44
445.10	5823.25
445.28	5738.99
445.47	5589.20
445.65	5568.13
445.84	5565.79
446.02	5673.46
446.21	5696.86
446.39	5820.91
446.58	5853.68
446.77	5710.91
446.95	5645.37
447.14	5781.12
447.32	5746.02
447.51	5818.57
447.69	5682.82
447.88	5776.44
448.06	5671.12
448.25	5846.66
448.43	5860.70
448.62	5628.99
448.80	5816.23
448.99	5975.39
449.17	5788.14
449.36	5975.39
449.54	5937.94
449.73	5987.09
449.91	6022.20
450.10	5942.62
450.28	6064.33
450.46	6076.03
450.65	6136.88
450.83	6148.59
451.02	6162.63
451.20	6197.74
451.39	6291.36
451.57	6204.76
451.76	6094.76
451.94	6270.30
452.13	6511.37
452.31	6270.30
452.49	6237.53
452.68	6370.94
452.86	6389.66
453.05	6396.68
453.23	6537.12
453.42	6408.39
453.60	6462.22
453.78	6382.64
453.97	6382.64
454.15	6375.62
454.34	6242.21
454.52	6483.28
454.70	6651.80
454.89	6586.27
455.07	6654.14
455.26	6457.54
455.44	6750.10
455.62	6717.34
455.81	6752.45
455.99	6801.60
456.17	6817.98
456.36	6630.74
456.54	6951.39
456.73	6808.62
456.91	6981.82
457.09	7016.93
457.28	7140.97
457.46	6796.92
457.64	7173.74
457.83	6998.20
458.01	7026.29
458.19	7283.75
458.38	7084.80
458.56	7302.47
458.74	7370.35
458.93	7281.41
459.11	7204.17
459.29	7236.94
459.48	7246.30
459.66	7290.77
459.84	7445.24
460.03	7447.58
460.21	7473.33
460.39	7515.46
460.57	7445.24
460.76	7557.59
460.94	7555.25
461.12	7632.49
461.31	7449.93
461.49	7272.04
461.67	7538.87
461.85	7730.79
462.04	7470.99
462.22	8124.00
462.40	7815.05
462.59	7691.00
462.77	7882.92
462.95	7772.92
463.13	7698.02
463.32	7786.96
463.50	8166.13
463.68	7939.10
463.86	8119.32
464.05	7941.44
464.23	7857.18
464.41	8032.72
464.59	7810.37
464.78	8219.96
464.96	7976.55
465.14	7878.24
465.32	7899.31
465.50	8196.56
465.69	8236.35
465.87	8325.29
466.05	8280.82
466.23	8102.93
466.41	8072.51
466.60	8365.07
466.78	8070.17
466.96	8257.41
467.14	8236.35
467.32	8414.23
467.51	8503.17
467.69	8124.00
467.87	8578.06
468.05	8601.47
468.23	8601.47
468.41	8208.26
468.60	8386.14
468.78	8547.64
468.96	8456.36
469.14	8519.55
469.32	8538.27
469.50	8589.77
469.69	8943.19
469.87	8727.86
470.05	8601.47
470.23	8912.76
470.41	8725.52
470.59	8856.59
470.77	8889.35
470.95	8947.87
471.14	9071.92
471.32	8940.85
471.50	8968.93
471.68	9153.84
471.86	9284.91
472.04	9048.51
472.22	9495.55
472.40	9039.15
472.58	9235.75
472.77	9228.73
472.95	9413.63
473.13	9907.49
473.31	9221.71
473.49	9483.85
473.67	9238.09
473.85	9493.21
474.03	9682.80
474.21	9692.16
474.39	9741.31
474.57	9685.14
474.75	9884.08
474.93	10270.27
475.12	9980.04
475.30	10003.45
475.48	9963.66
475.66	10017.49
475.84	10031.54
476.02	10249.21
476.20	10111.11
476.38	10464.54
476.56	10509.01
476.74	10846.04
476.92	10806.25
477.10	10438.79
477.28	10544.11
477.46	10963.07
477.64	10832.00
477.82	10899.87
478.00	11386.71
478.18	10836.68
478.36	11405.43
478.54	11229.89
478.72	11304.79
478.90	11623.10
479.08	11597.35
479.26	11690.98
479.44	11690.98
479.62	11707.36
479.80	11978.86
479.98	12046.74
480.16	12449.31
480.34	12065.46
480.52	12233.98
480.70	12397.82
480.88	12147.38
481.06	12379.09
481.24	12442.29
481.41	12631.87
481.59	12725.49
481.77	12664.64
481.95	12849.54
482.13	13097.64
482.31	12767.62
482.49	13446.38
482.67	13394.89
482.85	13731.92
483.03	13764.69
483.21	13919.17
483.39	13916.83
483.57	13855.97
483.74	13830.23
483.92	14164.92
484.10	14047.90
484.28	14242.16
484.46	14597.92
484.64	14459.83
484.82	14518.34
485.00	14728.99
485.18	14906.87
485.35	15096.46
485.53	15122.20
485.71	15138.58
485.89	15248.59
486.07	15145.61
486.25	15597.33
486.43	15667.55
486.61	15878.19
486.78	15789.25
486.96	15971.82
487.14	16086.50
487.32	16402.47
487.50	16372.05
487.68	16233.96
487.85	16844.84
488.03	16798.02
488.21	17151.45
488.39	17078.89
488.57	17132.72
488.75	17191.23
488.92	17303.58
489.10	17776.37
489.28	17535.29
489.46	17818.50
489.64	17701.47
489.81	17926.16
489.99	18312.35
490.17	18368.52
490.35	18649.39
490.53	18562.79
490.70	18558.11
490.88	18810.89
491.06	18988.77
491.24	18757.05
491.41	18920.89
491.59	19295.38
491.77	19154.94
491.95	19278.99
492.13	19683.91
492.30	19880.51
492.48	20037.33
492.66	20088.82
492.84	19838.38
493.01	20231.59
493.19	20566.29
493.37	20388.41
493.54	20304.15
493.72	20898.64
493.90	20737.15
494.08	20919.71
494.25	20933.75
494.43	21170.15
494.61	21474.42
494.79	21413.56
494.96	21621.87
495.14	21584.42
495.32	21844.22
495.49	22047.85
495.67	21748.26
495.85	21546.97
496.02	22707.88
496.20	22609.58
496.38	22380.20
496.55	22565.10
496.73	23087.04
496.91	22647.02
497.09	22888.10
497.26	22995.76
497.44	22768.73
497.62	22986.40
497.79	23440.47
497.97	23285.99
498.14	23714.31
498.32	23672.18
498.50	23903.89
498.67	23999.85
498.85	23931.98
499.03	23672.18
499.20	23931.98
499.38	24259.65
499.56	24458.60
499.73	24432.85
499.91	24498.39
500.08	24790.95
500.26	24460.94
500.44	24739.46
500.61	25235.66
500.79	24854.15
500.97	25270.76
501.14	25462.69
501.32	25467.37
501.49	25380.77
501.67	25479.07
501.84	25788.02
502.02	25511.84
502.20	25783.34
502.37	25923.77
502.55	25912.07
502.72	26099.31
502.90	26029.10
503.07	26136.76
503.25	26150.81
503.43	26338.05
503.60	26370.82
503.78	26511.25
503.95	26773.39
504.13	26766.37
504.30	26714.87
504.48	26539.33
504.65	27084.68
504.83	26946.59
505.01	27342.14
505.18	27260.22
505.36	27323.41
505.53	27129.15
505.71	27260.22
505.88	27349.16
506.06	27271.92
506.23	27541.08
506.41	27555.13
506.58	27894.50
506.76	27777.48
506.93	28346.23
507.11	27768.12
507.28	28325.16
507.46	28297.08
507.63	28140.26
507.81	28620.07
507.98	28306.44
508.16	28580.28
508.33	28868.17
508.50	28442.19
508.68	28833.06
508.85	29172.44
509.03	28741.78
509.20	29254.36
509.38	29504.79
509.55	29600.76
509.73	29729.48
509.90	29329.25
510.08	29582.03
510.25	29415.85
510.42	29820.77
510.60	30150.78
510.77	30029.07
510.95	30082.91
511.12	30136.74
511.30	30122.69
511.47	30419.94
511.64	30000.99
511.82	30012.69
511.99	30387.18
512.17	30864.64
512.34	30604.84
512.51	30815.49
512.69	31143.17
512.86	31199.34
513.04	30991.03
513.21	31094.02
513.38	31232.11
513.56	31199.34
513.73	31040.18
513.90	31182.96
514.08	31555.10
514.25	31391.26
514.43	31634.68
514.60	31929.59
514.77	31859.37
514.95	32037.25
515.12	31910.86
515.29	31524.68
515.47	32245.56
515.64	32123.85
515.81	32163.64
515.99	32641.11
516.16	32606.00
516.33	32187.05
516.51	32591.96
516.68	32547.49
516.85	32783.88
517.03	32818.99
517.20	32830.69
517.37	33134.96
517.54	32903.25
517.72	32821.33
517.89	32711.33
518.06	33546.90
518.24	33371.36
518.41	33240.29
518.58	33509.45
518.75	32973.47
518.93	33720.10
519.10	33551.58
519.27	33347.95
519.45	33493.07
519.62	33523.49
519.79	34061.82
519.96	33610.09
520.14	33907.34
520.31	33937.77
520.48	34195.23
520.65	34192.89
520.83	34525.24
521.00	34267.78
521.17	34483.11
521.34	34330.98
521.52	34543.97
521.69	34375.45
521.86	35108.04
522.03	34925.47
522.20	35065.91
522.38	35271.87
522.55	35026.12
522.72	35154.85
522.89	34852.92
523.07	35084.63
523.24	35105.70
523.41	34967.60
523.58	35145.48
523.75	35604.23
523.92	35555.08
524.10	35758.70
524.27	35651.04
524.44	35779.77
524.61	36044.25
524.78	36039.57
524.96	36428.10
525.13	36006.80
525.30	36268.94
525.47	36357.88
525.64	36416.40
525.81	36374.27
525.98	36542.78
526.16	36486.61
526.33	36891.52
526.50	36547.47
526.67	36165.96
526.84	36643.43
527.01	36397.67
527.18	36830.67
527.36	37029.62
527.53	36697.26
527.70	37371.33
527.87	37364.31
528.04	36868.12
528.21	36900.89
528.38	37244.94
528.55	37160.69
528.72	36980.46
528.89	37354.95
529.07	37467.30
529.24	37483.68
529.41	37680.28
529.58	37249.63
529.75	37741.14
529.92	37904.98
530.09	37640.50
530.26	37638.15
530.43	37652.20
530.60	37956.47
530.77	37757.52
530.94	37783.27
531.11	37572.62
531.28	37949.45
531.46	38014.98
531.63	38218.61
531.80	38059.45
531.97	38405.85
532.14	38511.17
532.31	38632.88
532.48	38939.49
532.65	39136.10
532.82	38567.35
532.99	38995.67
533.16	38838.85
533.33	38663.31
533.50	38946.51
533.67	39105.67
533.84	38733.53
534.01	38944.17
534.18	39157.16
534.35	39449.73
534.52	39550.37
534.69	39587.82
534.86	39667.40
535.03	39611.23
535.20	39271.85
535.37	38747.57
535.54	39704.85
535.71	39260.15
535.88	39592.50
536.05	39688.46
536.22	40154.23
536.38	39775.06
536.55	39388.88
536.72	39856.98
536.89	39498.88
537.06	39997.41
537.23	40343.81
537.40	39868.69
537.57	39835.92
537.74	39746.98
537.91	40126.14
538.08	39999.76
538.25	39854.64
538.42	40397.65
538.59	40573.19
538.75	40282.96
538.92	40634.04
539.09	40947.67
539.26	40348.50
539.43	40517.01
539.60	40641.06
539.77	40278.28
539.94	40931.29
540.11	40369.56
540.28	40816.60
540.44	40533.40
540.61	40879.80
540.78	40854.05
540.95	41090.44
541.12	40816.60
541.29	40957.03
541.46	41083.42
541.62	41155.98
541.79	41315.14
541.96	40825.96
542.13	41303.43
542.30	41130.23
542.47	41301.09
542.63	41855.80
542.80	42108.58
542.97	42052.41
543.14	41977.51
543.31	41752.82
543.48	41923.68
543.64	42422.21
543.81	42148.37
543.98	42429.23
544.15	42176.45
544.32	42209.22
544.48	42405.83
544.65	42230.29
544.82	42272.42
544.99	42223.26
545.16	42768.61
545.32	42415.19
545.49	43103.31
545.66	43140.75
545.83	42848.19
546.00	42852.87
546.16	42792.01
546.33	42642.22
546.50	42302.84
546.67	42850.53
546.83	42394.12
547.00	42831.80
547.17	42696.05
547.34	42876.27
547.50	43044.79
547.67	43421.62
547.84	42775.63
548.00	42932.45
548.17	43679.08
548.34	43475.45
548.51	43646.31
548.67	43325.66
548.84	43548.01
549.01	43821.85
549.18	43079.90
549.34	43643.97
549.51	43461.41
549.68	43482.47
549.84	43725.89
550.01	43831.21
550.18	43435.66
550.34	43306.93
550.51	43508.22
550.68	43739.93
550.84	43367.79
551.01	43697.80
551.18	43597.16
551.34	43615.88
551.51	44020.80
551.68	43901.43
551.84	43964.62
552.01	44320.38
552.18	44168.25
552.34	44083.99
552.51	44294.64
552.68	43934.20
552.84	43985.69
553.01	44561.46
553.18	44357.83
553.34	44406.98
553.51	44582.52
553.67	44673.81
553.84	44753.38
554.01	44334.43
554.17	44704.23
554.34	44921.90
554.51	44397.62
554.67	45045.95
554.84	44428.05
555.00	44832.96
555.17	44540.39
555.33	45043.61
555.50	44589.55
555.67	44870.41
555.83	44587.21
556.00	44865.73
556.16	45549.17
556.33	45120.85
556.50	45221.49
556.66	44830.62
556.83	44765.09
556.99	45455.54
557.16	45422.78
557.32	45387.67
557.49	45434.48
557.65	44814.24
557.82	45198.09
557.98	45006.16
558.15	45340.86
558.32	45251.92
558.48	45357.24
558.65	45071.70
558.81	45539.80
558.98	45294.05
559.14	45153.62
559.31	45329.16
559.47	44825.94
559.64	45258.94
559.80	45277.66
559.97	45612.36
560.13	45390.01
560.30	45439.16
560.46	45897.91
560.63	45794.92
560.79	45794.92
560.96	46167.07
561.12	46146.00
561.29	45890.88
561.45	45867.48
561.61	45415.76
561.78	45570.23
561.94	45876.84
562.11	45890.88
562.27	45691.94
562.44	46026.63
562.60	45881.52
562.77	45600.66
562.93	45818.33
563.10	45925.99
563.26	45713.00
563.42	46101.53
563.59	45722.37
563.75	45970.46
563.92	45832.37
564.08	45954.08
564.24	46560.28
564.41	45680.24
564.57	46230.26
564.74	46387.08
564.90	46358.99
565.07	46136.64
565.23	46286.43
565.39	46272.39
565.56	46459.63
565.72	45853.44
565.88	45925.99
566.05	46241.96
566.21	46419.84
566.38	46036.00
566.54	45970.46
566.70	46476.02
566.87	46389.42
567.03	46204.52
567.19	46522.83
567.36	46344.95
567.52	46696.03
567.68	46913.70
567.85	46681.98
568.01	46934.76
568.17	46382.40
568.34	46532.19
568.50	46962.85
568.66	46464.32
568.83	46714.75
568.99	46735.82
569.15	46731.14
569.32	46700.71
569.48	46670.28
569.64	46733.48
569.81	46831.78
569.97	46981.57
570.13	46960.51
570.30	46550.91
570.46	46777.95
570.62	47079.88
570.78	47072.85
570.95	46293.46
571.11	46852.84
571.27	46548.57
571.43	46246.65
571.60	46728.80
571.76	46321.54
571.92	46916.04
572.09	46836.46
572.25	46815.40
572.41	46639.86
572.57	46752.20
572.74	47068.17
572.90	47016.68
573.06	47196.90
573.22	46953.49
573.38	47304.57
573.55	47236.69
573.71	47110.30
573.87	47304.57
574.03	47274.14
574.20	47433.30
574.36	46988.60
574.52	47091.58
574.68	47082.22
574.84	47103.28
575.01	47461.38
575.17	47175.84
575.33	46595.38
575.49	46745.18
575.65	47246.05
575.82	46902.00
575.98	46770.93
576.14	47351.38
576.30	47592.45
576.46	47292.86
576.62	47189.88
576.79	47157.11
576.95	47122.01
577.11	46897.31
577.27	47377.12
577.43	47002.64
577.59	47136.05
577.75	47138.39
577.92	46824.76
578.08	47133.71
578.24	47290.52
578.40	47353.72
578.56	47484.79
578.72	47089.24
578.88	47578.41
579.04	47129.03
579.21	47281.16
579.37	47370.10
579.53	47330.31
579.69	47356.06
579.85	47091.58
580.01	46986.25
580.17	46740.50
580.33	47175.84
580.49	47093.92
580.65	47515.22
580.82	47452.02
580.98	47040.09
581.14	46927.74
581.30	47262.44
581.46	47091.58
581.62	46972.21
581.78	47107.96
581.94	47428.62
582.10	47267.12
582.26	47278.82
582.42	47629.90
582.58	47370.10
582.74	47227.33
582.90	47019.02
583.06	47220.31
583.22	47248.39
583.38	47269.46
583.54	47351.38
583.70	47323.29
583.86	47632.24
584.02	47543.30
584.18	47915.45
584.34	47824.17
584.50	47782.04
584.66	47826.51
584.82	47360.74
584.98	47889.70
585.14	47597.13
585.30	47023.70
585.46	47131.37
585.62	47519.90
585.78	47365.42
585.94	47131.37
586.10	47072.85
586.26	47391.17
586.42	47414.57
586.58	47686.07
586.74	47522.24
586.90	47501.17
587.06	47512.88
587.22	47992.68
587.38	47468.40
587.54	47674.37
587.70	47840.55
587.86	47538.62
588.02	47412.23
588.18	47824.17
588.34	47657.99
588.49	47578.41
588.65	47430.96
588.81	47566.71
588.97	47805.44
589.13	47908.43
589.29	47660.33
589.45	48013.75
589.61	47526.92
589.77	48032.47
589.93	47655.65
