SpectraSuite Data File
++++++++++++++++++++++++++++++++++++
Date: Fri Oct 25 10:44:15 EDT 2013
User: price-jones
Dark Spectrum Present: No
Reference Spectrum Present: No
Number of Sampled Component Spectra: 1
Spectrometers: USB2+H05261
Integration Time (usec): 100000 (USB2+H05261)
Spectra Averaged: 1 (USB2+H05261)
Boxcar Smoothing: 0 (USB2+H05261)
Correct for Electrical Dark: No (USB2+H05261)
Strobe/Lamp Enabled: No (USB2+H05261)
Correct for Detector Non-linearity: No (USB2+H05261)
Correct for Stray Light: No (USB2+H05261)
Number of Pixels in Processed Spectrum: 2048
>>>>>Begin Processed Spectral Data<<<<<
365.73	161.50
365.92	161.50
366.12	161.50
366.32	32.77
366.52	7.02
366.72	4.68
366.91	2.34
367.11	9.36
367.31	0.00
367.51	28.09
367.70	11.70
367.90	53.83
368.10	9.36
368.30	2.34
368.49	0.00
368.69	88.94
368.89	65.54
369.09	14.04
369.28	98.30
369.48	39.79
369.68	37.45
369.87	119.37
370.07	32.77
370.27	65.54
370.47	210.65
370.66	425.98
370.86	402.57
371.06	463.43
371.25	456.40
371.45	397.89
371.65	402.57
371.84	479.81
372.04	374.49
372.24	461.09
372.44	470.45
372.63	557.05
372.83	545.34
373.03	524.28
373.22	493.85
373.42	482.15
373.62	510.24
373.81	543.00
374.01	589.82
374.21	594.50
374.40	594.50
374.60	524.28
374.79	550.03
374.99	521.94
375.19	620.24
375.38	566.41
375.58	524.28
375.78	540.66
375.97	629.60
376.17	653.01
376.37	676.41
376.56	650.67
376.76	573.43
376.95	535.98
377.15	660.03
377.35	629.60
377.54	737.27
377.74	622.58
377.93	564.07
378.13	702.16
378.33	667.05
378.52	681.10
378.72	641.31
378.91	641.31
379.11	678.76
379.31	662.37
379.50	716.20
379.70	777.06
379.89	660.03
380.09	709.18
380.28	699.82
380.48	599.18
380.68	638.97
380.87	685.78
381.07	690.46
381.26	816.85
381.46	748.97
381.65	716.20
381.85	695.14
382.04	660.03
382.24	737.27
382.43	723.23
382.63	713.86
382.83	746.63
383.02	758.33
383.22	800.46
383.41	793.44
383.61	770.04
383.80	741.95
384.00	793.44
384.19	734.93
384.39	805.14
384.58	788.76
384.78	821.53
384.97	755.99
385.17	770.04
385.36	748.97
385.56	823.87
385.75	767.70
385.95	821.53
386.14	821.53
386.34	858.98
386.53	887.06
386.72	844.93
386.92	870.68
387.11	837.91
387.31	816.85
387.50	863.66
387.70	917.49
387.89	807.48
388.09	863.66
388.28	971.32
388.48	980.68
388.67	931.53
388.86	898.77
389.06	884.72
389.25	917.49
389.45	926.85
389.64	947.92
389.84	999.41
390.03	990.05
390.22	1034.52
390.42	985.37
390.61	1046.22
390.81	1064.94
391.00	1076.65
391.19	997.07
391.39	950.26
391.58	1043.88
391.78	1071.97
391.97	1027.50
392.16	1029.84
392.36	1158.57
392.55	994.73
392.75	980.68
392.94	966.64
393.13	976.00
393.33	1076.65
393.52	1067.28
393.71	1123.46
393.91	1015.79
394.10	1001.75
394.29	1081.33
394.49	1160.91
394.68	1196.01
394.88	1149.20
395.07	1226.44
395.26	1203.04
395.46	1284.95
395.65	1238.14
395.84	1268.57
396.04	1259.21
396.23	1137.50
396.42	1029.84
396.62	1256.87
396.81	1188.99
397.00	1160.91
397.19	1315.38
397.39	1362.19
397.58	1432.41
397.77	1270.91
397.97	1362.19
398.16	1451.13
398.35	1441.77
398.55	1488.58
398.74	1462.83
398.93	1523.69
399.12	1514.33
399.32	1533.05
399.51	1474.54
399.70	1561.14
399.90	1526.03
400.09	1558.80
400.28	1605.61
400.47	1528.37
400.67	1727.32
400.86	1537.73
401.05	1598.59
401.24	1650.08
401.44	1680.50
401.63	1708.59
401.82	1750.72
402.01	1804.55
402.21	1678.16
402.40	1673.48
402.59	1720.29
402.78	1809.23
402.97	1760.08
403.17	1739.02
403.36	1790.51
403.55	1762.42
403.74	1905.20
403.93	1994.14
404.13	1823.28
404.32	1867.75
404.51	1865.41
404.70	1966.05
404.89	1909.88
405.09	1959.03
405.28	2026.90
405.47	1935.62
405.66	1996.48
405.85	1977.75
406.05	1952.01
406.24	2026.90
406.43	1919.24
406.62	1991.80
406.81	2101.80
407.00	2134.57
407.20	1973.07
407.39	2064.35
407.58	2085.42
407.77	2106.48
407.96	2251.60
408.15	2207.13
408.34	2289.04
408.54	2359.26
408.73	2237.55
408.92	2275.00
409.11	2307.77
409.30	2256.28
409.49	2242.23
409.68	2286.70
409.87	2223.51
410.07	2321.81
410.26	2347.56
410.45	2382.67
410.64	2363.94
410.83	2443.52
411.02	2509.05
411.21	2569.91
411.40	2651.83
411.59	2516.08
411.78	2719.70
411.98	2649.49
412.17	2740.77
412.36	2668.21
412.55	2555.86
412.74	2829.71
412.93	2719.70
413.12	2658.85
413.31	2867.16
413.50	2736.09
413.69	2792.26
413.88	2925.67
414.07	2878.86
414.26	2895.24
414.45	2972.48
414.64	2981.84
414.83	2890.56
415.02	3066.10
415.22	3059.08
415.41	3040.36
415.60	2977.16
415.79	3185.47
415.98	3290.79
416.17	3267.39
416.36	3243.98
416.55	3243.98
416.74	3393.78
416.93	3293.13
417.12	3225.26
417.31	3300.16
417.50	3255.69
417.69	3461.65
417.88	3468.67
418.07	3234.62
418.26	3550.59
418.45	3510.80
418.64	3606.77
418.83	3468.67
419.02	3548.25
419.21	3651.24
419.39	3564.64
419.58	3527.19
419.77	3597.40
419.96	3529.53
420.15	3655.92
420.34	3812.73
420.53	3810.39
420.72	3840.82
420.91	3850.18
421.10	3747.20
421.29	3857.20
421.48	3740.18
421.67	3798.69
421.86	3866.56
422.05	3812.73
422.24	3728.47
422.43	3889.97
422.61	3854.86
422.80	3871.25
422.99	3889.97
423.18	4032.74
423.37	3974.23
423.56	4079.55
423.75	3868.91
423.94	3768.26
424.13	3543.57
424.32	3838.48
424.50	4030.40
424.69	4079.55
424.88	4035.08
425.07	3943.80
425.26	4014.02
425.45	3812.73
425.64	3786.99
425.83	3880.61
426.01	3882.95
426.20	3960.19
426.39	4032.74
426.58	3978.91
426.77	3971.89
426.96	4028.06
427.15	4021.04
427.33	3992.95
427.52	4135.73
427.71	4175.52
427.90	4201.26
428.09	4217.65
428.28	4114.66
428.46	4231.69
428.65	4320.63
428.84	4264.46
429.03	4325.31
429.22	4259.78
429.40	4189.56
429.59	4046.79
429.78	4030.40
429.97	3882.95
430.16	4021.04
430.34	4175.52
430.53	4301.90
430.72	4189.56
430.91	4208.28
431.10	4376.80
431.28	4500.85
431.47	4566.39
431.66	4835.55
431.85	4484.47
432.03	4643.62
432.22	4578.09
432.41	4599.15
432.60	4669.37
432.79	4760.65
432.97	4809.80
433.16	4734.90
433.35	4678.73
433.54	4683.41
433.72	4702.14
433.91	4634.26
434.10	4746.61
434.28	4821.50
434.47	4751.29
434.66	4999.38
434.85	4840.23
435.03	4863.63
435.22	4940.87
435.41	5029.81
435.59	4987.68
435.78	5046.20
435.97	5158.54
436.16	5081.30
436.34	5153.86
436.53	5107.05
436.72	5263.86
436.90	5111.73
437.09	5177.26
437.28	5163.22
437.46	5146.84
437.65	5191.31
437.84	5174.92
438.02	5116.41
438.21	5160.88
438.40	5116.41
438.58	5462.81
438.77	5390.25
438.96	5362.17
439.14	5572.82
439.33	5556.43
439.52	5636.01
439.70	5598.56
439.89	5628.99
440.08	5657.07
440.26	5706.23
440.45	5748.36
440.63	5914.53
440.82	6064.33
441.01	6076.03
441.19	5884.11
441.38	6061.99
441.57	6153.27
441.75	6090.07
441.94	6242.21
442.12	6160.29
442.31	6356.90
442.50	6326.47
442.68	6284.34
442.87	6377.96
443.05	6331.15
443.24	6473.92
443.43	6382.64
443.61	6635.42
443.80	6511.37
443.98	6420.09
444.17	6270.30
444.35	6466.90
444.54	6635.42
444.73	6380.30
444.91	6483.28
445.10	6396.68
445.28	6576.91
445.47	6408.39
445.65	6363.92
445.84	6417.75
446.02	6509.03
446.21	6471.58
446.39	6502.01
446.58	6682.23
446.77	6715.00
446.95	6544.14
447.14	6588.61
447.32	6672.87
447.51	6628.40
447.69	6539.46
447.88	6895.22
448.06	6502.01
448.25	6675.21
448.43	6630.74
448.62	6717.34
448.80	6717.34
448.99	6691.59
449.17	6803.94
449.36	6782.87
449.54	6993.52
449.73	7171.40
449.91	7056.72
450.10	7061.40
450.28	7487.37
450.46	7070.76
450.65	7180.76
450.83	7295.45
451.02	7206.51
451.20	7372.69
451.39	7255.66
451.57	7262.68
451.76	7159.70
451.94	7190.13
452.13	7290.77
452.31	7211.19
452.49	7108.21
452.68	7360.98
452.86	7042.67
453.05	7344.60
453.23	7286.09
453.42	7274.38
453.60	7288.43
453.78	7499.08
453.97	7314.17
454.15	7480.35
454.34	7229.91
454.52	7712.07
454.70	7653.55
454.89	7515.46
455.07	7634.83
455.26	7665.25
455.44	7847.82
455.62	7768.24
455.81	7831.43
455.99	7878.24
456.17	7871.22
456.36	7747.17
456.54	8021.02
456.73	8093.57
456.91	8072.51
457.09	8107.62
457.28	8297.20
457.46	7852.50
457.64	8105.28
457.83	8013.99
458.01	7943.78
458.19	8133.36
458.38	8168.47
458.56	8322.94
458.74	8388.48
458.93	8163.79
459.11	8147.40
459.29	8180.17
459.48	8470.40
459.66	8271.45
459.84	8535.93
460.03	8454.02
460.21	8514.87
460.39	8510.19
460.57	8430.61
460.76	8318.26
460.94	8634.24
461.12	8798.07
461.31	8655.30
461.49	8659.98
461.67	8484.44
461.85	8755.94
462.04	8739.56
462.22	9125.75
462.40	8973.61
462.59	9083.62
462.77	8982.98
462.95	8943.19
463.13	8973.61
463.32	8971.27
463.50	8933.82
463.68	8966.59
463.86	8954.89
464.05	8980.64
464.23	8889.35
464.41	9043.83
464.59	8769.99
464.78	9144.47
464.96	9078.94
465.14	9039.15
465.32	9048.51
465.50	9341.08
465.69	9329.38
465.87	9151.49
466.05	9123.41
466.23	9268.52
466.41	9170.22
466.60	9511.94
466.78	9193.62
466.96	9238.09
467.14	9509.60
467.32	9547.05
467.51	9430.02
467.69	9076.60
467.87	9462.79
468.05	9476.83
468.23	9453.42
468.41	9474.49
468.60	9472.15
468.78	9584.49
468.96	9439.38
469.14	9556.41
469.32	9937.91
469.50	9579.81
469.69	9870.04
469.87	9820.89
470.05	9668.75
470.23	9795.14
470.41	9806.84
470.59	10157.92
470.77	9797.48
470.95	9961.32
471.14	10286.65
471.32	10083.03
471.50	10410.70
471.68	10340.49
471.86	10377.94
472.04	10403.68
472.22	10682.20
472.40	10167.29
472.58	10338.15
472.77	10537.09
472.95	10668.16
473.13	10925.62
473.31	10609.65
473.49	10588.58
473.67	10698.59
473.85	10597.95
474.03	10934.98
474.21	11061.37
474.39	11164.36
474.57	11019.24
474.75	11164.36
474.93	11274.36
475.12	11204.14
475.30	11262.66
475.48	11147.97
475.66	11227.55
475.84	11162.01
476.02	11524.80
476.20	11096.48
476.38	11669.91
476.56	11606.72
476.74	11693.32
476.92	11932.05
477.10	11798.64
477.28	12105.25
477.46	11992.90
477.64	12245.68
477.82	12582.72
478.00	12283.13
478.18	12566.34
478.36	12599.10
478.54	12734.85
478.72	12755.92
478.90	12814.43
479.08	13067.21
479.26	12952.52
479.44	13111.68
479.62	13242.75
479.80	13472.12
479.98	13385.52
480.16	13680.43
480.34	13708.52
480.52	13755.33
480.70	13696.82
480.88	13654.69
481.06	14033.85
481.24	14160.24
481.41	14366.21
481.59	14530.05
481.77	14415.36
481.95	14377.91
482.13	14635.37
482.31	14553.45
482.49	14881.13
482.67	14925.60
482.85	14878.79
483.03	15286.04
483.21	15124.54
483.39	15250.93
483.57	15133.90
483.74	15686.27
483.92	15613.71
484.10	15538.82
484.28	15868.83
484.46	16035.01
484.64	16091.18
484.82	16013.95
485.00	16121.61
485.18	16531.20
485.35	16439.92
485.53	15992.88
485.71	16203.53
485.89	16322.90
486.07	16238.64
486.25	16542.91
486.43	16957.18
486.61	16938.46
486.78	17214.64
486.96	17074.21
487.14	17958.93
487.32	17729.56
487.50	17975.31
487.68	18125.11
487.85	18356.82
488.03	18492.57
488.21	18714.92
488.39	18443.42
488.57	18417.68
488.75	18757.05
488.92	19185.37
489.10	19611.35
489.28	19562.20
489.46	19693.27
489.64	19618.37
489.81	20456.28
489.99	20161.37
490.17	20205.84
490.35	20704.38
490.53	20451.60
490.70	20587.35
490.88	20510.11
491.06	20790.98
491.24	20912.69
491.41	20774.60
491.59	21060.14
491.77	20634.16
491.95	20992.26
492.13	21521.23
492.30	21619.53
492.48	21710.81
492.66	22197.64
492.84	21666.34
493.01	21984.65
493.19	21722.51
493.37	22207.00
493.54	22349.78
493.72	22623.62
493.90	22291.26
494.08	23073.00
494.25	23271.95
494.43	23197.05
494.61	23452.17
494.79	23236.84
494.96	23573.88
495.14	23529.41
495.32	23779.84
495.49	23590.26
495.67	23810.27
495.85	24140.29
496.02	24332.21
496.20	24680.95
496.38	24411.79
496.55	24826.06
496.73	25137.35
496.91	25057.78
497.09	25106.93
497.26	25673.34
497.44	24938.41
497.62	25102.25
497.79	25525.88
497.97	25289.49
498.14	25263.74
498.32	25542.27
498.50	25401.83
498.67	26024.42
498.85	26256.13
499.03	26040.80
499.20	26513.59
499.38	26398.90
499.56	26562.74
499.73	26426.99
499.91	26590.83
500.08	26485.50
500.26	26431.67
500.44	26834.24
500.61	26759.34
500.79	26656.36
500.97	26677.43
501.14	27103.40
501.32	26979.36
501.49	26892.76
501.67	27267.24
501.84	27290.65
502.02	27412.35
502.20	27620.66
502.37	27756.41
502.55	27852.38
502.72	27906.21
502.90	28158.99
503.07	27859.40
503.25	28121.54
503.43	27819.61
503.60	28226.86
503.78	28355.59
503.95	27936.63
504.13	28528.79
504.30	28428.15
504.48	28610.71
504.65	28819.02
504.83	29017.96
505.01	29448.62
505.18	29055.41
505.36	29567.99
505.53	29329.25
505.71	29347.98
505.88	29898.00
506.06	28952.43
506.23	30176.53
506.41	29600.76
506.58	29837.15
506.76	30174.19
506.93	30043.12
507.11	29839.49
507.28	30143.76
507.46	30106.31
507.63	30270.15
507.81	30436.33
507.98	29795.02
508.16	30384.83
508.33	30703.15
508.50	30738.26
508.68	30906.77
508.85	31201.68
509.03	31175.94
509.20	30817.83
509.38	31208.70
509.55	31449.78
509.73	31360.84
509.90	31566.81
510.08	31318.71
510.25	31700.22
510.42	31543.40
510.60	31798.52
510.77	31868.73
510.95	32109.81
511.12	32119.17
511.30	31948.31
511.47	32287.69
511.64	32123.85
511.82	32577.92
511.99	32353.23
512.17	32299.39
512.34	32231.52
512.51	32687.92
512.69	32772.18
512.86	32786.22
513.04	33043.68
513.21	33228.59
513.38	32870.48
513.56	32624.73
513.73	33113.90
513.90	33340.93
514.08	32868.14
514.25	33076.45
514.43	33158.37
514.60	33560.94
514.77	33156.03
514.95	33689.67
515.12	33481.36
515.29	33610.09
515.47	34188.21
515.64	33902.66
515.81	33902.66
515.99	33879.25
516.16	33654.56
516.33	33659.24
516.51	33876.91
516.68	33331.57
516.85	33256.67
517.03	33883.94
517.20	34155.44
517.37	34230.33
517.54	34543.97
517.72	34321.62
517.89	34190.55
518.06	34125.01
518.24	34298.21
518.41	34529.92
518.58	34181.18
518.75	34707.80
518.93	34923.13
519.10	34869.30
519.27	35122.08
519.45	35201.66
519.62	35468.48
519.79	35426.35
519.96	35377.20
520.14	35725.94
520.31	35398.26
520.48	35967.01
520.65	35896.80
520.83	35793.81
521.00	35967.01
521.17	36191.70
521.34	36327.45
521.52	36020.84
521.69	36009.14
521.86	36245.54
522.03	36596.62
522.20	36238.51
522.38	36278.30
522.55	36402.35
522.72	36542.78
522.89	36605.98
523.07	36858.76
523.24	36339.16
523.41	36535.76
523.58	36727.69
523.75	37181.75
523.92	37343.25
524.10	37474.32
524.27	37647.52
524.44	37085.79
524.61	37301.12
524.78	37766.88
524.96	38003.28
525.13	37790.29
525.30	37818.38
525.47	37888.59
525.64	37666.24
525.81	37457.93
525.98	37565.60
526.16	37516.45
526.33	37146.64
526.50	37390.06
526.67	37621.77
526.84	37408.78
527.01	37230.90
527.18	38150.73
527.36	38398.83
527.53	38328.61
527.70	38438.62
527.87	38232.65
528.04	38632.88
528.21	38593.09
528.38	38902.04
528.55	38656.29
528.72	38597.77
528.89	38733.53
529.07	38941.83
529.24	38106.26
529.41	38792.04
529.58	38810.76
529.75	38719.48
529.92	39115.03
530.09	39454.41
530.26	39332.70
530.43	39189.93
530.60	39218.02
530.77	38864.60
530.94	39297.59
531.11	39601.86
531.28	39332.70
531.46	39777.40
531.63	39732.93
531.80	39248.44
531.97	39229.72
532.14	39880.39
532.31	39313.98
532.48	39746.98
532.65	39360.79
532.82	39878.05
532.99	39889.75
533.16	40187.00
533.33	40418.71
533.50	40299.34
533.67	39952.94
533.84	40053.59
534.01	39966.99
534.18	40196.36
534.35	40879.80
534.52	40545.10
534.69	40481.91
534.86	40474.88
535.03	40203.38
535.20	40952.35
535.37	40884.48
535.54	41024.91
535.71	40580.21
535.88	40608.29
536.05	40978.10
536.22	40528.72
536.38	40573.19
536.55	40828.30
536.72	41064.70
536.89	40411.69
537.06	40957.03
537.23	41265.99
537.40	41013.21
537.57	40971.08
537.74	41230.88
537.91	41167.68
538.08	40971.08
538.25	40968.74
538.42	41280.03
538.59	41635.79
538.75	41034.27
538.92	41507.06
539.09	41666.22
539.26	41228.54
539.43	41619.41
539.60	41603.02
539.77	41291.73
539.94	41413.44
540.11	41507.06
540.28	41464.93
540.44	41317.48
540.61	41418.12
540.78	41453.23
540.95	41549.19
541.12	41406.42
541.29	41820.69
541.46	41860.48
541.62	42036.02
541.79	42253.69
541.96	41879.21
542.13	42389.44
542.30	42075.81
542.47	42216.24
542.63	41993.89
542.80	42220.92
542.97	42663.28
543.14	42476.04
543.31	42710.10
543.48	42450.30
543.64	43175.86
543.81	42630.52
543.98	43002.66
544.15	42719.46
544.32	43180.54
544.48	43498.86
544.65	43297.57
544.82	43283.53
544.99	42850.53
545.16	43318.64
545.32	43012.02
545.49	43653.33
545.66	43548.01
545.83	43459.07
546.00	43346.72
546.16	43416.94
546.33	43199.27
546.50	42939.47
546.67	43370.13
546.83	42883.30
547.00	43213.31
547.17	43332.68
547.34	43395.87
547.50	43459.07
547.67	43669.72
547.84	43620.56
548.00	43562.05
548.17	43924.83
548.34	43957.60
548.51	44418.69
548.67	44041.86
548.84	43913.13
549.01	44006.75
549.18	43662.69
549.34	44004.41
549.51	43899.09
549.68	43686.10
549.84	44046.54
550.01	44083.99
550.18	43936.54
550.34	44369.54
550.51	44294.64
550.68	44060.58
550.84	43629.93
551.01	44612.95
551.18	44137.82
551.34	44079.31
551.51	44488.90
551.68	44102.71
551.84	44549.76
552.01	44512.31
552.18	44594.23
552.34	44332.09
552.51	44442.09
552.68	44385.92
552.84	44662.10
553.01	44762.75
553.18	44105.06
553.34	44495.92
553.51	44285.28
553.67	44584.86
553.84	44942.97
554.01	44652.74
554.17	44732.32
554.34	45048.29
554.51	44898.50
554.67	44898.50
554.84	45420.44
555.00	44772.11
555.17	44776.79
555.33	44996.80
555.50	44509.97
555.67	44818.92
555.83	44839.98
556.00	44528.69
556.16	44924.24
556.33	44959.35
556.50	44952.33
556.66	45008.50
556.83	44966.37
556.99	45151.27
557.16	45558.53
557.32	45532.78
557.49	45617.04
557.65	44891.48
557.82	45172.34
557.98	45261.28
558.15	45116.17
558.32	45233.19
558.48	45081.06
558.65	45106.80
558.81	45076.38
558.98	45188.72
559.14	45223.83
559.31	45303.41
559.47	45574.91
559.64	46050.04
559.80	45476.61
559.97	45326.81
560.13	45223.83
560.30	45109.14
560.46	45642.79
560.63	45340.86
560.79	45715.34
560.96	45872.16
561.12	45333.84
561.29	45244.90
561.45	45378.31
561.61	45872.16
561.78	45731.73
561.94	45324.47
562.11	45619.38
562.27	45272.98
562.44	45478.95
562.60	45918.97
562.77	45780.88
562.93	45855.78
563.10	45715.34
563.26	45029.57
563.42	45886.20
563.59	45427.46
563.75	45720.02
563.92	45897.91
564.08	45689.60
564.24	46017.27
564.41	45621.72
564.57	45722.37
564.74	45516.40
564.90	45497.67
565.07	45684.92
565.23	45801.94
565.39	45820.67
565.56	46059.40
565.72	45581.93
565.88	45790.24
566.05	46019.61
566.21	45656.83
566.38	45750.45
566.54	46043.02
566.70	46209.20
566.87	46309.84
567.03	46103.87
567.19	46244.30
567.36	46000.89
567.52	45764.49
567.68	46415.16
567.85	45668.53
568.01	46043.02
568.17	45827.69
568.34	46258.35
568.50	45691.94
568.66	45715.34
568.83	46007.91
568.99	45914.29
569.15	45944.72
569.32	45787.90
569.48	45621.72
569.64	46178.77
569.81	46356.65
569.97	46103.87
570.13	46064.08
570.30	45621.72
570.46	45663.85
570.62	46157.70
570.78	45668.53
570.95	45977.48
571.11	46225.58
571.27	45879.18
571.43	45759.81
571.60	45572.57
571.76	46288.77
571.92	46148.34
572.09	46014.93
572.25	45937.69
572.41	45904.93
572.57	46248.99
572.74	46548.57
572.90	45876.84
573.06	46148.34
573.22	46267.71
573.38	46033.66
573.55	46241.96
573.71	46312.18
573.87	46445.59
574.03	46415.16
574.20	45998.55
574.36	46195.15
574.52	45998.55
574.68	45865.14
574.84	46176.43
575.01	46122.60
575.17	46232.60
575.33	46167.07
575.49	45565.55
575.65	45991.53
575.82	46195.15
575.98	45986.85
576.14	46005.57
576.30	46476.02
576.46	46160.05
576.62	46026.63
576.79	46410.48
576.95	45769.18
577.11	46141.32
577.27	46167.07
577.43	46342.61
577.59	45996.21
577.75	46422.19
577.92	45670.87
578.08	45888.54
578.24	45787.90
578.40	45771.52
578.56	46047.70
578.72	46005.57
578.88	46143.66
579.04	46157.70
579.21	45968.12
579.37	46251.33
579.53	46216.22
579.69	46202.18
579.85	46232.60
580.01	46478.36
580.17	46134.30
580.33	46494.74
580.49	46021.95
580.65	46490.06
580.82	46251.33
580.98	45832.37
581.14	46099.19
581.30	46712.41
581.46	46686.67
581.62	46389.42
581.78	46590.70
581.94	46653.90
582.10	46239.62
582.26	46539.21
582.42	46272.39
582.58	46431.55
582.74	46291.12
582.90	46667.94
583.06	46150.68
583.22	46958.17
583.38	46607.09
583.54	46536.87
583.70	46403.46
583.86	46246.65
584.02	46071.10
584.18	46368.35
584.34	46571.98
584.50	46520.49
584.66	46223.24
584.82	46057.06
584.98	46665.60
585.14	46871.57
585.30	45909.61
585.46	46274.73
585.62	46014.93
585.78	46251.33
585.94	45975.14
586.10	46422.19
586.26	46288.77
586.42	46696.03
586.58	46810.71
586.74	46651.56
586.90	45916.63
587.06	46312.18
587.22	46349.63
587.38	46176.43
587.54	46209.20
587.70	46483.04
587.86	46340.27
588.02	46131.96
588.18	46373.03
588.34	46068.76
588.49	45937.69
588.65	45799.60
588.81	45794.92
588.97	45986.85
589.13	45682.58
589.29	45937.69
589.45	46190.47
589.61	46274.73
589.77	46621.13
589.93	46316.86
590.08	46288.77
