SpectraSuite Data File
++++++++++++++++++++++++++++++++++++
Date: Fri Oct 25 11:33:42 EDT 2013
User: price-jones
Dark Spectrum Present: No
Reference Spectrum Present: No
Number of Sampled Component Spectra: 1
Spectrometers: USB2+H05261
Integration Time (usec): 100000 (USB2+H05261)
Spectra Averaged: 1 (USB2+H05261)
Boxcar Smoothing: 0 (USB2+H05261)
Correct for Electrical Dark: No (USB2+H05261)
Strobe/Lamp Enabled: No (USB2+H05261)
Correct for Detector Non-linearity: No (USB2+H05261)
Correct for Stray Light: No (USB2+H05261)
Number of Pixels in Processed Spectrum: 2048
>>>>>Begin Processed Spectral Data<<<<<
365.73	285.55
365.92	285.55
366.12	285.55
366.32	208.31
366.52	236.39
366.72	271.50
366.91	152.13
367.11	142.77
367.31	149.79
367.51	201.29
367.70	198.95
367.90	170.86
368.10	194.26
368.30	229.37
368.49	201.29
368.69	166.18
368.89	184.90
369.09	175.54
369.28	196.60
369.48	297.25
369.68	276.18
369.87	217.67
370.07	243.42
370.27	264.48
370.47	292.57
370.66	538.32
370.86	491.51
371.06	545.34
371.25	545.34
371.45	505.56
371.65	514.92
371.84	486.83
372.04	540.66
372.24	601.52
372.44	608.54
372.63	603.86
372.83	559.39
373.03	608.54
373.22	589.82
373.42	615.56
373.62	622.58
373.81	690.46
374.01	655.35
374.21	723.23
374.40	613.22
374.60	695.14
374.79	664.71
374.99	650.67
375.19	664.71
375.38	699.82
375.58	678.76
375.78	732.59
375.97	660.03
376.17	739.61
376.37	713.86
376.56	711.52
376.76	669.39
376.95	645.99
377.15	641.31
377.35	713.86
377.54	732.59
377.74	594.50
377.93	627.26
378.13	683.44
378.33	685.78
378.52	840.25
378.72	631.94
378.91	688.12
379.11	814.51
379.31	760.67
379.50	690.46
379.70	791.10
379.89	849.61
380.09	763.01
380.28	695.14
380.48	697.48
380.68	709.18
380.87	699.82
381.07	727.91
381.26	758.33
381.46	772.38
381.65	723.23
381.85	751.31
382.04	788.76
382.24	748.97
382.43	713.86
382.63	767.70
382.83	770.04
383.02	873.02
383.22	802.80
383.41	805.14
383.61	870.68
383.80	823.87
384.00	713.86
384.19	751.31
384.39	765.36
384.58	753.65
384.78	847.27
384.97	880.04
385.17	884.72
385.36	835.57
385.56	826.21
385.75	816.85
385.95	784.08
386.14	877.70
386.34	898.77
386.53	770.04
386.72	814.51
386.92	908.13
387.11	917.49
387.31	887.06
387.50	957.28
387.70	877.70
387.89	978.34
388.09	889.40
388.28	894.08
388.48	802.80
388.67	917.49
388.86	875.36
389.06	954.94
389.25	922.17
389.45	973.66
389.64	994.73
389.84	1018.13
390.03	952.60
390.22	961.96
390.42	950.26
390.61	1001.75
390.81	943.24
391.00	1006.43
391.19	1074.31
391.39	999.41
391.58	999.41
391.78	936.21
391.97	990.05
392.16	940.90
392.36	1083.67
392.55	1018.13
392.75	1032.18
392.94	1172.61
393.13	1046.22
393.33	1078.99
393.52	957.28
393.71	1137.50
393.91	1111.75
394.10	1179.63
394.29	1149.20
394.49	1128.14
394.68	1027.50
394.88	1083.67
395.07	1083.67
395.26	1196.01
395.46	1116.44
395.65	1149.20
395.84	1308.36
396.04	1151.54
396.23	1121.12
396.42	1200.69
396.62	1226.44
396.81	1249.85
397.00	1219.42
397.19	1160.91
397.39	1238.14
397.58	1247.51
397.77	1174.95
397.97	1224.10
398.16	1280.27
398.35	1284.95
398.55	1310.70
398.74	1277.93
398.93	1343.47
399.12	1280.27
399.32	1322.40
399.51	1338.79
399.70	1385.60
399.90	1282.61
400.09	1427.73
400.28	1387.94
400.47	1401.98
400.67	1455.81
400.86	1425.39
401.05	1401.98
401.24	1439.43
401.44	1474.54
401.63	1338.79
401.82	1439.43
402.01	1425.39
402.21	1500.28
402.40	1432.41
402.59	1495.60
402.78	1486.24
402.97	1521.35
403.17	1451.13
403.36	1568.16
403.55	1514.33
403.74	1671.14
403.93	1619.65
404.13	1703.91
404.32	1647.74
404.51	1675.82
404.70	1619.65
404.89	1598.59
405.09	1724.97
405.28	1732.00
405.47	1689.87
405.66	1797.53
405.85	1664.12
406.05	1708.59
406.24	1699.23
406.43	1764.76
406.62	1863.07
406.81	1870.09
407.00	1802.21
407.20	1703.91
407.39	1788.17
407.58	1827.96
407.77	1881.79
407.96	1952.01
408.15	1853.70
408.34	1811.57
408.54	1891.15
408.73	1900.52
408.92	1930.94
409.11	1977.75
409.30	1966.05
409.49	1956.69
409.68	1994.14
409.87	1898.17
410.07	2012.86
410.26	2005.84
410.45	2064.35
410.64	2038.61
410.83	2174.36
411.02	2125.21
411.21	2244.57
411.40	2118.18
411.59	2214.15
411.78	2143.93
411.98	2249.25
412.17	2267.98
412.36	2172.02
412.55	2267.98
412.74	2363.94
412.93	2361.60
413.12	2335.85
413.31	2396.71
413.50	2424.80
413.69	2380.32
413.88	2534.80
414.07	2443.52
414.26	2544.16
414.45	2560.55
414.64	2438.84
414.83	2593.31
415.02	2555.86
415.22	2642.46
415.41	2670.55
415.60	2686.94
415.79	2612.04
415.98	2705.66
416.17	2759.49
416.36	2775.88
416.55	2733.75
416.74	2745.45
416.93	2883.54
417.12	2911.63
417.31	2860.13
417.50	2885.88
417.69	2883.54
417.88	2899.92
418.07	2981.84
418.26	3033.33
418.45	2935.03
418.64	3077.80
418.83	3122.27
419.02	3082.49
419.21	3178.45
419.39	3166.74
419.58	3148.02
419.77	3105.89
419.96	3070.78
420.15	3180.79
420.34	3122.27
420.53	3222.92
420.72	3208.87
420.91	3267.39
421.10	3295.47
421.29	3276.75
421.48	3286.11
421.67	3267.39
421.86	3300.16
422.05	3286.11
422.24	3243.98
422.43	3398.46
422.61	3414.84
422.80	3398.46
422.99	3379.73
423.18	3384.41
423.37	3417.18
423.56	3405.48
423.75	3393.78
423.94	3311.86
424.13	3108.23
424.32	3234.62
424.50	3424.20
424.69	3361.01
424.88	3501.44
425.07	3258.03
425.26	3372.71
425.45	3468.67
425.64	3475.70
425.83	3405.48
426.01	3574.00
426.20	3452.29
426.39	3382.07
426.58	3407.82
426.77	3449.95
426.96	3456.97
427.15	3618.47
427.33	3548.25
427.52	3522.51
427.71	3552.93
427.90	3613.79
428.09	3737.84
428.28	3723.79
428.46	3721.45
428.65	3655.92
428.84	3716.77
429.03	3803.37
429.22	3688.68
429.40	3737.84
429.59	3784.65
429.78	3660.60
429.97	3749.54
430.16	3791.67
430.34	3705.07
430.53	3936.78
430.72	3936.78
430.91	3798.69
431.10	3936.78
431.28	3969.55
431.47	3911.04
431.66	3981.25
431.85	3985.93
432.03	4161.47
432.22	4149.77
432.41	4124.02
432.60	4086.58
432.79	4035.08
432.97	4304.25
433.16	4145.09
433.35	4070.19
433.54	4187.22
433.72	4255.09
433.91	4107.64
434.10	4234.03
434.28	4285.52
434.47	4234.03
434.66	4329.99
434.85	4287.86
435.03	4437.66
435.22	4299.56
435.41	4386.16
435.59	4369.78
435.78	4435.32
435.97	4524.26
436.16	4290.20
436.34	4482.13
436.53	4325.31
436.72	4463.40
436.90	4320.63
437.09	4461.06
437.28	4428.29
437.46	4547.66
437.65	4667.03
437.84	4631.92
438.02	4711.50
438.21	4844.91
438.40	4538.30
438.58	4755.97
438.77	4833.21
438.96	4795.76
439.14	4706.82
439.33	4978.32
439.52	4905.76
439.70	5022.79
439.89	4994.70
440.08	5001.72
440.26	5043.85
440.45	5078.96
440.63	4919.81
440.82	5203.01
441.01	5158.54
441.19	5217.05
441.38	5275.57
441.57	5217.05
441.75	5228.76
441.94	5172.58
442.12	5357.49
442.31	5378.55
442.50	5369.19
442.68	5430.04
442.87	5408.98
443.05	5448.77
443.24	5458.13
443.43	5411.32
443.61	5612.60
443.80	5645.37
443.98	5343.44
444.17	5270.89
444.35	5584.52
444.54	5727.29
444.73	5713.25
444.91	5661.76
445.10	5781.12
445.28	5544.73
445.47	5661.76
445.65	5654.73
445.84	5582.18
446.02	5795.17
446.21	5636.01
446.39	5753.04
446.58	5809.21
446.77	5813.89
446.95	5638.35
447.14	5706.23
447.32	5900.49
447.51	5827.93
447.69	5687.50
447.88	5778.78
448.06	5830.27
448.25	5863.04
448.43	5809.21
448.62	5944.96
448.80	5937.94
448.99	5947.30
449.17	6003.47
449.36	5898.15
449.54	5837.30
449.73	5947.30
449.91	6141.57
450.10	6235.19
450.28	6291.36
450.46	6083.05
450.65	6150.93
450.83	6080.71
451.02	6256.25
451.20	6033.90
451.39	6190.72
451.57	6420.09
451.76	6090.07
451.94	6267.95
452.13	6356.90
452.31	6415.41
452.49	6272.64
452.68	6403.71
452.86	6361.58
453.05	6457.54
453.23	6546.48
453.42	6228.17
453.60	6279.66
453.78	6464.56
453.97	6466.90
454.15	6406.05
454.34	6455.20
454.52	6595.63
454.70	6558.18
454.89	6726.70
455.07	6616.69
455.26	6698.61
455.44	6771.17
455.62	6899.90
455.81	6642.44
455.99	6693.93
456.17	6609.67
456.36	6612.01
456.54	6848.41
456.73	6757.13
456.91	7007.56
457.09	7035.65
457.28	7148.00
457.46	6773.51
457.64	7262.68
457.83	7087.14
458.01	7073.10
458.19	7260.34
458.38	7105.87
458.56	7255.66
458.74	7241.62
458.93	7019.27
459.11	7265.02
459.29	7089.48
459.48	7192.47
459.66	7197.15
459.84	7576.31
460.03	7440.56
460.21	7522.48
460.39	7482.69
460.57	7494.40
460.76	7623.12
460.94	7541.21
461.12	7515.46
461.31	7473.33
461.49	7447.58
461.67	7496.74
461.85	7688.66
462.04	7723.77
462.22	8067.83
462.40	7810.37
462.59	7824.41
462.77	7829.09
462.95	7686.32
463.13	7831.43
463.32	7981.23
463.50	7768.24
463.68	7866.54
463.86	8018.68
464.05	7941.44
464.23	7875.90
464.41	8063.15
464.59	7875.90
464.78	8374.44
464.96	8109.96
465.14	7950.80
465.32	8161.45
465.50	8126.34
465.69	8205.92
465.87	8217.62
466.05	8290.18
466.23	8138.04
466.41	8222.30
466.60	8503.17
466.78	8229.32
466.96	8241.03
467.14	8177.83
467.32	8360.39
467.51	8269.11
467.69	8189.53
467.87	8344.01
468.05	8353.37
468.23	8446.99
468.41	8416.57
468.60	8423.59
468.78	8482.10
468.96	8528.91
469.14	8479.76
469.32	8659.98
469.50	8292.52
469.69	8709.13
469.87	8842.54
470.05	8676.37
470.23	8739.56
470.41	8688.07
470.59	8870.63
470.77	8538.27
470.95	8898.72
471.14	8830.84
471.32	8877.65
471.50	9048.51
471.68	8959.57
471.86	9039.15
472.04	9102.34
472.22	9399.59
472.40	9160.86
472.58	9303.63
472.77	9397.25
472.95	9682.80
473.13	9643.01
473.31	9174.90
473.49	9439.38
473.67	9406.61
473.85	9771.74
474.03	9769.40
474.21	9888.76
474.39	9743.65
474.57	9851.31
474.75	9804.50
474.93	10043.24
475.12	9928.55
475.30	9947.28
475.48	9994.09
475.66	10125.16
475.84	9996.43
476.02	10087.71
476.20	10169.63
476.38	10471.56
476.56	10665.82
476.74	10642.42
476.92	10396.66
477.10	10576.88
477.28	10731.36
477.46	10916.26
477.64	10724.33
477.82	10855.40
478.00	11070.73
478.18	11176.06
478.36	11358.62
478.54	11349.26
478.72	11260.32
478.90	11550.54
479.08	11653.53
479.26	11686.29
479.44	11705.02
479.62	11817.36
479.80	11901.62
479.98	11983.54
480.16	12437.61
480.34	12229.30
480.52	12238.66
480.70	12222.28
480.88	12128.66
481.06	12114.61
481.24	12568.68
481.41	12624.85
481.59	12830.82
481.77	12858.90
481.95	12901.03
482.13	13123.38
482.31	12748.90
482.49	13301.26
482.67	13228.71
482.85	13579.79
483.03	13790.44
483.21	13696.82
483.39	13809.16
483.57	13841.93
483.74	14256.20
483.92	14190.67
484.10	13879.38
484.28	14590.90
484.46	14504.30
484.64	14546.43
484.82	14354.51
485.00	14644.73
485.18	14960.70
485.35	15080.07
485.53	14920.92
485.71	15255.61
485.89	15421.79
486.07	15452.22
486.25	15712.02
486.43	15793.94
486.61	15719.04
486.78	16046.71
486.96	16126.29
487.14	16196.51
487.32	16137.99
487.50	16444.60
487.68	16304.17
487.85	16706.74
488.03	16692.70
488.21	16992.29
488.39	17181.87
488.57	17163.15
488.75	16985.27
488.92	17479.12
489.10	17865.31
489.28	17657.00
489.46	17987.02
489.64	17762.33
489.81	18300.65
489.99	18167.24
490.17	18239.79
490.35	18590.88
490.53	18567.47
490.70	18719.60
490.88	18611.94
491.06	18972.38
491.24	18775.78
491.41	19070.68
491.59	18984.09
491.77	19426.45
491.95	19510.71
492.13	19800.93
492.30	19786.89
492.48	19578.58
492.66	19838.38
492.84	19899.23
493.01	19910.94
493.19	20247.97
493.37	20554.58
493.54	20489.05
493.72	20449.26
493.90	20720.76
494.08	20629.48
494.25	21163.12
494.43	21261.43
494.61	21195.89
494.79	20996.95
494.96	21207.59
495.14	21577.40
495.32	21926.14
495.49	21820.81
495.67	21982.31
495.85	22080.61
496.02	22169.55
496.20	22628.30
496.38	22656.39
496.55	22579.15
496.73	22874.06
496.91	22731.28
497.09	22920.87
497.26	23157.26
497.44	22733.62
497.62	23168.96
497.79	23527.06
497.97	23271.95
498.14	23690.90
498.32	23946.02
498.50	23473.23
498.67	23847.72
498.85	23964.75
499.03	24276.04
499.20	24453.92
499.38	24056.03
499.56	24362.64
499.73	24437.53
499.91	24655.20
500.08	25078.84
500.26	24610.73
500.44	24940.75
500.61	24793.29
500.79	24964.15
500.97	25200.55
501.14	25617.16
501.32	25605.46
501.49	25118.63
501.67	25383.11
501.84	25598.44
502.02	25553.97
502.20	25596.10
502.37	25909.73
502.55	26073.57
502.72	26171.87
502.90	25928.45
503.07	26026.76
503.25	26223.36
503.43	26127.40
503.60	26754.66
503.78	26551.04
503.95	26239.75
504.13	26593.17
504.30	27117.45
504.48	26881.05
504.65	26838.92
504.83	26820.20
505.01	27040.21
505.18	26834.24
505.36	27576.19
505.53	27227.45
505.71	27686.20
505.88	27328.10
506.06	27658.11
506.23	27711.94
506.41	27531.72
506.58	27985.79
506.76	27733.01
506.93	28063.02
507.11	28271.33
507.28	28350.91
507.46	28350.91
507.63	28484.32
507.81	28737.10
507.98	28217.50
508.16	28662.20
508.33	29043.71
508.50	28589.64
508.68	28606.03
508.85	28893.91
509.03	28929.02
509.20	29130.31
509.38	29420.53
509.55	29394.79
509.73	29163.08
509.90	29317.55
510.08	29404.15
510.25	29713.10
510.42	29802.04
510.60	30059.50
510.77	29612.46
510.95	30244.40
511.12	30057.16
511.30	29965.88
511.47	30246.74
511.64	30485.48
511.82	30522.93
511.99	30141.42
512.17	30293.55
512.34	30625.91
512.51	30579.10
512.69	31154.87
512.86	31089.34
513.04	30876.35
513.21	30925.50
513.38	31147.85
513.56	31491.91
513.73	31325.73
513.90	31019.12
514.08	31470.84
514.25	31672.13
514.43	31693.19
514.60	31583.19
514.77	31468.50
514.95	31779.79
515.12	31447.44
515.29	32013.85
515.47	32322.80
515.64	32481.95
515.81	31683.83
515.99	32629.41
516.16	32252.58
516.33	32613.02
516.51	32430.46
516.68	32446.85
516.85	32346.20
517.03	32627.07
517.20	32720.69
517.37	32767.50
517.54	33015.60
517.72	32865.80
517.89	32734.73
518.06	33322.21
518.24	32898.57
518.41	32947.72
518.58	33022.62
518.75	32863.46
518.93	33582.01
519.10	33490.73
519.27	33383.06
519.45	33762.23
519.62	33371.36
519.79	33736.48
519.96	34052.45
520.14	33982.24
520.31	33755.21
520.48	34167.14
520.65	33989.26
520.83	34611.84
521.00	34274.80
521.17	33865.21
521.34	34398.85
521.52	34995.69
521.69	34438.64
521.86	34883.34
522.03	34808.45
522.20	35332.73
522.38	35068.25
522.55	35180.59
522.72	35161.87
522.89	34876.32
523.07	35838.28
523.24	35168.89
523.41	35573.80
523.58	35374.86
523.75	35721.26
523.92	35058.88
524.10	35538.69
524.27	35552.74
524.44	35737.64
524.61	35852.33
524.78	35648.70
524.96	35835.94
525.13	36266.60
525.30	35906.16
525.47	36334.48
525.64	36680.88
525.81	36563.85
525.98	36465.55
526.16	36257.24
526.33	36407.03
526.50	36776.84
526.67	36229.15
526.84	36559.17
527.01	36645.77
527.18	36407.03
527.36	37221.54
527.53	36840.03
527.70	37125.58
527.87	37460.27
528.04	37024.93
528.21	36980.46
528.38	37324.52
528.55	37844.12
528.72	37237.92
528.89	37205.16
529.07	37289.42
529.24	37006.21
529.41	37464.96
529.58	37420.48
529.75	37469.64
529.92	37879.23
530.09	37542.19
530.26	37912.00
530.43	37762.20
530.60	37677.94
530.77	37331.54
530.94	37935.40
531.11	38225.63
531.28	38256.06
531.46	38127.33
531.63	37975.19
531.80	38176.48
531.97	38438.62
532.14	38745.23
532.31	38342.66
532.48	38546.28
532.65	38675.01
532.82	38539.26
532.99	38513.52
533.16	38429.26
533.33	38880.98
533.50	38920.77
533.67	39098.65
533.84	38471.39
534.01	38944.17
534.18	38766.29
534.35	39236.74
534.52	39213.34
534.69	39047.16
534.86	39253.12
535.03	39407.60
535.20	39248.44
535.37	39842.94
535.54	39622.93
535.71	39461.43
535.88	39971.67
536.05	39480.16
536.22	39885.07
536.38	39533.99
536.55	39873.37
536.72	39660.38
536.89	39260.15
537.06	39508.24
537.23	40079.33
537.40	39927.20
537.57	39524.63
537.74	40414.03
537.91	40245.51
538.08	40486.59
538.25	39903.79
538.42	40388.28
538.59	40350.84
538.75	40238.49
538.92	40641.06
539.09	40673.83
539.26	40519.35
539.43	40465.52
539.60	40964.06
539.77	40355.52
539.94	41113.85
540.11	40856.39
540.28	41006.19
540.44	41230.88
540.61	40891.50
540.78	40680.85
540.95	40858.73
541.12	40891.50
541.29	40704.26
541.46	41305.77
541.62	40872.78
541.79	41350.24
541.96	40842.35
542.13	41125.55
542.30	41336.20
542.47	41298.75
542.63	41083.42
542.80	41265.99
542.97	41890.91
543.14	42272.42
543.31	41867.50
543.48	42078.15
543.64	42241.99
543.81	42078.15
543.98	42054.75
544.15	42426.89
544.32	42543.92
544.48	42499.45
544.65	42508.81
544.82	41996.23
544.99	42155.39
545.16	42113.26
545.32	42206.88
545.49	42597.75
545.66	42740.52
545.83	42777.97
546.00	42920.74
546.16	42361.36
546.33	42539.24
546.50	42766.27
546.67	43016.71
546.83	42316.89
547.00	42759.25
547.17	42635.20
547.34	42932.45
547.50	43269.48
547.67	43241.40
547.84	43089.26
548.00	42937.13
548.17	43545.67
548.34	43124.37
548.51	43122.03
548.67	43168.84
548.84	43161.82
549.01	43545.67
549.18	43054.15
549.34	43636.95
549.51	43407.58
549.68	43981.01
549.84	43206.29
550.01	43758.66
550.18	43503.54
550.34	43611.20
550.51	43913.13
550.68	44009.09
550.84	43487.15
551.01	43896.75
551.18	43608.86
551.34	43639.29
551.51	43866.32
551.68	43777.38
551.84	44189.31
552.01	43929.51
552.18	43852.28
552.34	44016.11
552.51	44161.23
552.68	43779.72
552.84	43920.15
553.01	44177.61
553.18	44098.03
553.34	44271.23
553.51	44617.63
553.67	44622.31
553.84	44287.62
554.01	44493.58
554.17	43941.22
554.34	44669.12
554.51	44121.44
554.67	45258.94
554.84	44514.65
555.00	44680.83
555.17	44549.76
555.33	44879.77
555.50	45062.33
555.67	44760.40
555.83	44573.16
556.00	44994.46
556.16	45265.96
556.33	45144.25
556.50	45116.17
556.66	44692.53
556.83	44432.73
556.99	44999.14
557.16	44804.88
557.32	45581.93
557.49	45347.88
557.65	44933.60
557.82	45179.36
557.98	45172.34
558.15	44949.99
558.32	45301.07
558.48	45099.78
558.65	45055.31
558.81	45399.37
558.98	45050.63
559.14	45132.55
559.31	45212.13
559.47	45766.84
559.64	45717.68
559.80	45247.24
559.97	45684.92
560.13	44975.73
560.30	45603.00
560.46	45862.80
560.63	45808.96
560.79	45830.03
560.96	46202.18
561.12	45687.26
561.29	45619.38
561.45	45631.08
561.61	45907.27
561.78	45591.30
561.94	45799.60
562.11	45635.77
562.27	45923.65
562.44	45610.02
562.60	45949.40
562.77	45769.18
562.93	45717.68
563.10	46302.82
563.26	45914.29
563.42	46323.88
563.59	46052.38
563.75	46043.02
563.92	45890.88
564.08	46096.85
564.24	46181.11
564.41	46148.34
564.57	45944.72
564.74	46330.90
564.90	45713.00
565.07	46124.94
565.23	45902.59
565.39	46176.43
565.56	46506.44
565.72	46089.83
565.88	46183.45
566.05	45970.46
566.21	46216.22
566.38	46080.47
566.54	46754.54
566.70	46497.08
566.87	46218.56
567.03	46153.02
567.19	46506.44
567.36	46160.05
567.52	46588.36
567.68	46487.72
567.85	46656.24
568.01	46426.87
568.17	46401.12
568.34	46445.59
568.50	46422.19
568.66	46340.27
568.83	46571.98
568.99	46113.23
569.15	46660.92
569.32	46469.00
569.48	46263.03
569.64	46813.05
569.81	46567.30
569.97	46649.22
570.13	46513.47
570.30	46693.69
570.46	46658.58
570.62	46887.95
570.78	46511.13
570.95	46653.90
571.11	46738.16
571.27	46618.79
571.43	46370.69
571.60	46672.62
571.76	46469.00
571.92	46373.03
572.09	46525.17
572.25	46857.52
572.41	46639.86
572.57	46997.96
572.74	47337.33
572.90	47075.19
573.06	46848.16
573.22	46993.28
573.38	46822.42
573.55	46923.06
573.71	47213.29
573.87	46979.23
574.03	46862.21
574.20	47178.18
574.36	47262.44
574.52	46857.52
574.68	47171.16
574.84	47061.15
575.01	47409.89
575.17	47023.70
575.33	47042.43
575.49	47133.71
575.65	47065.83
575.82	47194.56
575.98	47058.81
576.14	47103.28
576.30	47222.65
576.46	47318.61
576.62	47014.34
576.79	47239.03
576.95	46618.79
577.11	47122.01
577.27	46857.52
577.43	47161.79
577.59	47388.83
577.75	46806.03
577.92	47004.98
578.08	47079.88
578.24	46824.76
578.40	47171.16
578.56	47524.58
578.72	47131.37
578.88	47164.14
579.04	47154.77
579.21	47061.15
579.37	47306.91
579.53	47199.24
579.69	47150.09
579.85	47234.35
580.01	47295.21
580.17	47159.45
580.33	47114.98
580.49	47545.64
580.65	47143.07
580.82	46993.28
580.98	46906.68
581.14	46834.12
581.30	47100.94
581.46	47346.70
581.62	46894.97
581.78	47063.49
581.94	47234.35
582.10	47351.38
582.26	47353.72
582.42	47260.10
582.58	47358.40
582.74	47636.92
582.90	47419.25
583.06	47388.83
583.22	47192.22
583.38	47196.90
583.54	47742.25
583.70	47290.52
583.86	47681.39
584.02	46972.21
584.18	47557.35
584.34	47753.95
584.50	47648.63
584.66	47594.79
584.82	47395.85
584.98	47625.22
585.14	47540.96
585.30	47529.26
585.46	47728.20
585.62	47210.95
585.78	47529.26
585.94	46717.09
586.10	47419.25
586.26	47255.42
586.42	47407.55
586.58	47501.17
586.74	47192.22
586.90	47477.77
587.06	47030.72
587.22	47482.45
587.38	47477.77
587.54	47901.40
587.70	47428.62
587.86	47459.04
588.02	47334.99
588.18	47161.79
588.34	47201.58
588.49	47393.51
588.65	47665.01
588.81	47608.84
588.97	48158.86
589.13	47555.00
589.29	47503.51
589.45	48093.33
589.61	47786.72
589.77	47938.85
589.93	47540.96
590.08	47969.28
