SpectraSuite Data File
++++++++++++++++++++++++++++++++++++
Date: Fri Oct 25 10:46:56 EDT 2013
User: price-jones
Dark Spectrum Present: No
Reference Spectrum Present: No
Number of Sampled Component Spectra: 1
Spectrometers: USB2+H05261
Integration Time (usec): 100000 (USB2+H05261)
Spectra Averaged: 1 (USB2+H05261)
Boxcar Smoothing: 0 (USB2+H05261)
Correct for Electrical Dark: No (USB2+H05261)
Strobe/Lamp Enabled: No (USB2+H05261)
Correct for Detector Non-linearity: No (USB2+H05261)
Correct for Stray Light: No (USB2+H05261)
Number of Pixels in Processed Spectrum: 2048
>>>>>Begin Processed Spectral Data<<<<<
365.73	119.37
365.92	119.37
366.12	119.37
366.32	58.51
366.52	35.11
366.72	53.83
366.91	44.47
367.11	107.66
367.31	60.85
367.51	86.60
367.70	2.34
367.90	119.37
368.10	49.15
368.30	56.17
368.49	21.06
368.69	100.64
368.89	74.90
369.09	100.64
369.28	70.22
369.48	79.58
369.68	77.24
369.87	23.41
370.07	86.60
370.27	180.22
370.47	229.37
370.66	313.63
370.86	465.77
371.06	461.09
371.25	484.49
371.45	365.12
371.65	435.34
371.84	486.83
372.04	472.79
372.24	528.96
372.44	564.07
372.63	550.03
372.83	521.94
373.03	507.90
373.22	589.82
373.42	587.47
373.62	559.39
373.81	566.41
374.01	643.65
374.21	573.43
374.40	566.41
374.60	557.05
374.79	545.34
374.99	545.34
375.19	573.43
375.38	603.86
375.58	603.86
375.78	610.88
375.97	629.60
376.17	594.50
376.37	599.18
376.56	566.41
376.76	678.76
376.95	634.29
377.15	711.52
377.35	655.35
377.54	674.07
377.74	603.86
377.93	660.03
378.13	718.54
378.33	645.99
378.52	678.76
378.72	674.07
378.91	627.26
379.11	720.88
379.31	599.18
379.50	671.73
379.70	676.41
379.89	791.10
380.09	741.95
380.28	695.14
380.48	730.25
380.68	702.16
380.87	730.25
381.07	702.16
381.26	739.61
381.46	629.60
381.65	727.91
381.85	765.36
382.04	711.52
382.24	730.25
382.43	657.69
382.63	755.99
382.83	809.83
383.02	784.08
383.22	716.20
383.41	702.16
383.61	732.59
383.80	828.55
384.00	837.91
384.19	861.32
384.39	772.38
384.58	814.51
384.78	786.42
384.97	821.53
385.17	912.81
385.36	828.55
385.56	777.06
385.75	802.80
385.95	786.42
386.14	800.46
386.34	896.43
386.53	917.49
386.72	844.93
386.92	954.94
387.11	823.87
387.31	835.57
387.50	968.98
387.70	917.49
387.89	910.47
388.09	931.53
388.28	882.38
388.48	912.81
388.67	978.34
388.86	933.87
389.06	976.00
389.25	954.94
389.45	943.24
389.64	980.68
389.84	1008.77
390.03	1011.11
390.22	973.66
390.42	987.71
390.61	1011.11
390.81	1032.18
391.00	1116.44
391.19	1104.73
391.39	1027.50
391.58	1022.81
391.78	1069.62
391.97	1046.22
392.16	1053.24
392.36	1036.86
392.55	1076.65
392.75	1025.15
392.94	1076.65
393.13	1060.26
393.33	1050.90
393.52	1111.75
393.71	1151.54
393.91	1114.10
394.10	1135.16
394.29	1207.72
394.49	1090.69
394.68	1277.93
394.88	1186.65
395.07	1287.29
395.26	1207.72
395.46	1240.48
395.65	1263.89
395.84	1299.00
396.04	1240.48
396.23	1245.16
396.42	1128.14
396.62	1228.78
396.81	1156.22
397.00	1198.35
397.19	1409.00
397.39	1310.70
397.58	1352.83
397.77	1341.13
397.97	1401.98
398.16	1331.76
398.35	1425.39
398.55	1385.60
398.74	1441.77
398.93	1458.15
399.12	1497.94
399.32	1558.80
399.51	1430.07
399.70	1554.12
399.90	1462.83
400.09	1605.61
400.28	1579.86
400.47	1577.52
400.67	1582.20
400.86	1605.61
401.05	1638.38
401.24	1682.85
401.44	1645.40
401.63	1685.19
401.82	1727.32
402.01	1687.53
402.21	1820.94
402.40	1741.36
402.59	1753.06
402.78	1722.63
402.97	1799.87
403.17	1680.50
403.36	1762.42
403.55	1884.13
403.74	1930.94
403.93	1827.96
404.13	1886.47
404.32	1893.49
404.51	1844.34
404.70	1867.75
404.89	1820.94
405.09	1921.58
405.28	1851.36
405.47	1928.60
405.66	1926.26
405.85	1987.11
406.05	1970.73
406.24	1923.92
406.43	2005.84
406.62	2106.48
406.81	2176.70
407.00	1984.77
407.20	1994.14
407.39	2015.20
407.58	2127.55
407.77	2200.10
407.96	2195.42
408.15	2239.89
408.34	2118.18
408.54	2143.93
408.73	2211.81
408.92	2183.72
409.11	2282.02
409.30	2223.51
409.49	2303.09
409.68	2312.45
409.87	2218.83
410.07	2289.04
410.26	2279.68
410.45	2277.34
410.64	2441.18
410.83	2457.56
411.02	2459.90
411.21	2546.50
411.40	2651.83
411.59	2576.93
411.78	2597.99
411.98	2635.44
412.17	2614.38
412.36	2576.93
412.55	2785.24
412.74	2663.53
412.93	2670.55
413.12	2778.22
413.31	2752.47
413.50	2782.90
413.69	2754.81
413.88	2813.32
414.07	2878.86
414.26	2827.37
414.45	2881.20
414.64	2944.39
414.83	2930.35
415.02	2960.78
415.22	3000.57
415.41	3084.83
415.60	3136.32
415.79	3000.57
415.98	3218.24
416.17	3225.26
416.36	3162.06
416.55	3169.09
416.74	3346.97
416.93	3281.43
417.12	3311.86
417.31	3295.47
417.50	3314.20
417.69	3342.28
417.88	3328.24
418.07	3468.67
418.26	3368.03
418.45	3473.36
418.64	3358.67
418.83	3501.44
419.02	3613.79
419.21	3508.46
419.39	3588.04
419.58	3463.99
419.77	3468.67
419.96	3660.60
420.15	3648.90
420.34	3431.23
420.53	3763.58
420.72	3651.24
420.91	3688.68
421.10	3789.33
421.29	3733.15
421.48	3733.15
421.67	3794.01
421.86	3695.71
422.05	3824.44
422.24	3658.26
422.43	3681.66
422.61	3894.65
422.80	3763.58
422.99	3815.07
423.18	3913.38
423.37	3948.48
423.56	3868.91
423.75	3861.88
423.94	3899.33
424.13	3761.24
424.32	3789.33
424.50	4037.42
424.69	3962.53
424.88	3920.40
425.07	3913.38
425.26	3920.40
425.45	3817.41
425.64	3826.78
425.83	3960.19
426.01	3946.14
426.20	3901.67
426.39	3833.80
426.58	3791.67
426.77	3901.67
426.96	3772.94
427.15	4021.04
427.33	4002.32
427.52	3936.78
427.71	4154.45
427.90	4107.64
428.09	4156.79
428.28	4007.00
428.46	4147.43
428.65	4037.42
428.84	4351.06
429.03	4278.50
429.22	4070.19
429.40	4149.77
429.59	4159.13
429.78	3948.48
429.97	3815.07
430.16	4025.72
430.34	4084.23
430.53	4212.96
430.72	4358.08
430.91	4166.15
431.10	4367.44
431.28	4395.53
431.47	4519.57
431.66	4582.77
431.85	4421.27
432.03	4617.88
432.22	4702.14
432.41	4561.70
432.60	4709.16
432.79	4617.88
432.97	4688.09
433.16	4777.03
433.35	4617.88
433.54	4681.07
433.72	4660.01
433.91	4711.50
434.10	4765.33
434.28	4720.86
434.47	4870.65
434.66	4784.06
434.85	4755.97
435.03	4901.08
435.22	4957.25
435.41	4917.47
435.59	5001.72
435.78	5083.64
435.97	5191.31
436.16	5163.22
436.34	4966.62
436.53	5114.07
436.72	5198.33
436.90	5085.98
437.09	5078.96
437.28	5022.79
437.46	5156.20
437.65	5273.23
437.84	5142.16
438.02	5020.45
438.21	5303.65
438.40	5100.03
438.58	5191.31
438.77	5366.85
438.96	5399.62
439.14	5523.66
439.33	5565.79
439.52	5757.72
439.70	5420.68
439.89	5537.71
440.08	5664.10
440.26	5692.18
440.45	5638.35
440.63	5753.04
440.82	5940.28
441.01	5909.85
441.19	5781.12
441.38	6193.06
441.57	5942.62
441.75	6015.18
441.94	6092.41
442.12	6099.44
442.31	6120.50
442.50	6349.87
442.68	6267.95
442.87	6246.89
443.05	6246.89
443.24	6389.66
443.43	6415.41
443.61	6441.15
443.80	6485.62
443.98	6162.63
444.17	6033.90
444.35	6251.57
444.54	6604.99
444.73	6464.56
444.91	6232.85
445.10	6246.89
445.28	6471.58
445.47	6223.48
445.65	6370.94
445.84	6476.26
446.02	6527.75
446.21	6431.79
446.39	6382.64
446.58	6579.25
446.77	6537.12
446.95	6492.65
447.14	6572.22
447.32	6602.65
447.51	6516.05
447.69	6750.10
447.88	6642.44
448.06	6785.21
448.25	6670.53
448.43	6724.36
448.62	6698.61
448.80	6520.73
448.99	6719.68
449.17	6895.22
449.36	6719.68
449.54	6806.28
449.73	6892.88
449.91	7045.01
450.10	6984.16
450.28	7045.01
450.46	7087.14
450.65	7030.97
450.83	7117.57
451.02	6991.18
451.20	7250.98
451.39	7122.25
451.57	7197.15
451.76	7112.89
451.94	7068.42
452.13	7236.94
452.31	7133.95
452.49	6988.84
452.68	7068.42
452.86	7094.16
453.05	7225.23
453.23	7311.83
453.42	7215.87
453.60	7316.51
453.78	7293.11
453.97	7232.26
454.15	7332.90
454.34	7358.64
454.52	7363.33
454.70	7534.18
454.89	7478.01
455.07	7236.94
455.26	7644.19
455.44	7660.57
455.62	7545.89
455.81	7674.62
455.99	7831.43
456.17	7936.76
456.36	7885.26
456.54	7936.76
456.73	7943.78
456.91	7903.99
457.09	7976.55
457.28	8011.65
457.46	7943.78
457.64	8011.65
457.83	8035.06
458.01	7765.90
458.19	8077.19
458.38	7822.07
458.56	8074.85
458.74	8147.40
458.93	8042.08
459.11	8264.43
459.29	8264.43
459.48	7936.76
459.66	8044.42
459.84	8367.42
460.03	8210.60
460.21	8444.65
460.39	8425.93
460.57	8355.71
460.76	8528.91
460.94	8397.84
461.12	8498.49
461.31	8493.80
461.49	8774.67
461.67	8594.45
461.85	8711.47
462.04	8482.10
462.22	9202.99
462.40	8741.90
462.59	8669.34
462.77	8748.92
462.95	8856.59
463.13	8690.41
463.32	8814.46
463.50	8830.84
463.68	8835.52
463.86	8863.61
464.05	8683.39
464.23	8954.89
464.41	8947.87
464.59	8865.95
464.78	9142.13
464.96	8957.23
465.14	8912.76
465.32	9013.40
465.50	9221.71
465.69	9373.85
465.87	9167.88
466.05	9179.58
466.23	9200.65
466.41	9212.35
466.60	9366.82
466.78	9001.70
466.96	8929.14
467.14	9252.14
467.32	9305.97
467.51	9277.88
467.69	9055.53
467.87	9263.84
468.05	9502.58
468.23	9439.38
468.41	9352.78
468.60	9357.46
468.78	9504.92
468.96	9687.48
469.14	9525.98
469.32	9579.81
469.50	9455.76
469.69	9624.28
469.87	9738.97
470.05	9699.18
470.23	9877.06
470.41	9856.00
470.59	9874.72
470.77	9760.03
470.95	9958.98
471.14	10010.47
471.32	9736.63
471.50	10312.40
471.68	10221.12
471.86	10263.25
472.04	10249.21
472.22	10368.57
472.40	10136.86
472.58	10333.47
472.77	10228.14
472.95	10478.58
473.13	10693.91
473.31	10485.60
473.49	10406.02
473.67	10480.92
473.85	10803.91
474.03	10782.85
474.21	10988.82
474.39	11014.56
474.57	10855.40
474.75	11215.85
474.93	10925.62
475.12	11094.14
475.30	11129.25
475.48	11115.20
475.66	11215.85
475.84	11190.10
476.02	11295.43
476.20	11384.37
476.38	11419.47
476.56	11531.82
476.74	11510.75
476.92	11655.87
477.10	11707.36
477.28	11964.82
477.46	12051.42
477.64	12156.74
477.82	12355.69
478.00	12463.35
478.18	12222.28
478.36	12505.48
478.54	12613.15
478.72	12578.04
478.90	12987.63
479.08	13015.72
479.26	13198.28
479.44	13057.85
479.62	13034.44
479.80	13135.09
479.98	13371.48
480.16	13642.98
480.34	13270.84
480.52	13781.07
480.70	13682.77
480.88	13446.38
481.06	13734.26
481.24	13851.29
481.41	13839.59
481.59	14389.61
481.77	14324.08
481.95	14277.27
482.13	14314.72
482.31	14576.86
482.49	14721.97
482.67	14698.56
482.85	14759.42
483.03	14888.15
483.21	15147.95
483.39	15328.17
483.57	15328.17
483.74	15365.62
483.92	15466.26
484.10	15524.77
484.28	15742.44
484.46	15896.92
484.64	16081.82
484.82	15915.64
485.00	16285.45
485.18	16133.31
485.35	16477.37
485.53	16311.19
485.71	16240.98
485.89	16285.45
486.07	16395.45
486.25	16578.01
486.43	16737.17
486.61	17104.64
486.78	17254.43
486.96	17397.20
487.14	17738.92
487.32	17476.78
487.50	17762.33
487.68	18082.98
487.85	18171.92
488.03	18600.24
488.21	18616.62
488.39	18246.82
488.57	18558.11
488.75	18443.42
488.92	18853.02
489.10	19510.71
489.28	19234.52
489.46	19248.57
489.64	19793.91
489.81	19908.60
489.99	19768.16
490.17	20032.65
490.35	20154.35
490.53	20294.79
490.70	20112.22
490.88	20226.91
491.06	20585.01
491.24	20477.35
491.41	20549.90
491.59	20669.27
491.77	20500.75
491.95	20830.77
492.13	21200.57
492.30	21294.19
492.48	21385.47
492.66	21743.58
492.84	21652.30
493.01	21926.14
493.19	21626.55
493.37	22223.39
493.54	21968.27
493.72	22427.01
493.90	22228.07
494.08	22785.12
494.25	22876.40
494.43	23552.81
494.61	23398.34
494.79	23145.56
494.96	23241.52
495.14	23339.82
495.32	23419.40
495.49	23714.31
495.67	23637.07
495.85	24004.53
496.02	24315.83
496.20	24065.39
496.38	24386.04
496.55	24325.19
496.73	24814.36
496.91	24655.20
497.09	24889.26
497.26	24989.90
497.44	24929.05
497.62	24596.69
497.79	25315.23
497.97	25249.70
498.14	25055.43
498.32	25453.33
498.50	25139.69
498.67	26120.38
498.85	25537.59
499.03	26167.19
499.20	25844.20
499.38	25579.71
499.56	26228.04
499.73	26345.07
499.91	26223.36
500.08	26312.30
500.26	26497.20
500.44	26965.31
500.61	26778.07
500.79	26464.44
500.97	26661.04
501.14	27035.53
501.32	27080.00
501.49	27012.12
501.67	26932.54
501.84	27204.05
502.02	27445.12
502.20	27545.76
502.37	27789.18
502.55	27344.48
502.72	27992.81
502.90	27737.69
503.07	27845.35
503.25	27805.56
503.43	28034.94
503.60	28018.55
503.78	27962.38
503.95	28144.94
504.13	28371.97
504.30	28828.38
504.48	28460.91
504.65	28624.75
504.83	28725.39
505.01	28952.43
505.18	28999.24
505.36	29001.58
505.53	28905.62
505.71	29406.49
505.88	29720.12
506.06	29621.82
506.23	29294.14
506.41	29083.50
506.58	29743.53
506.76	29879.28
506.93	29813.74
507.11	29628.84
507.28	29813.74
507.46	30012.69
507.63	29722.46
507.81	30480.80
507.98	29865.24
508.16	30141.42
508.33	30024.39
508.50	30848.26
508.68	30682.08
508.85	30773.36
509.03	30759.32
509.20	31466.16
509.38	30874.01
509.55	31562.12
509.73	31161.89
509.90	31353.82
510.08	31136.15
510.25	30911.46
510.42	31690.85
510.60	31431.05
510.77	31508.29
510.95	32032.57
511.12	31777.45
511.30	32119.17
511.47	31803.20
511.64	32034.91
511.82	31960.02
511.99	31800.86
512.17	32175.34
512.34	32364.93
512.51	32828.35
512.69	32559.19
512.86	32496.00
513.04	32893.89
513.21	32863.46
513.38	32397.70
513.56	32900.91
513.73	32425.78
513.90	33191.14
514.08	32821.33
514.25	32727.71
514.43	33235.61
514.60	33120.92
514.77	33567.96
514.95	33457.96
515.12	33544.56
515.29	33509.45
515.47	33799.68
515.64	33617.11
515.81	33565.62
515.99	33729.46
516.16	33919.04
516.33	33490.73
516.51	33434.55
516.68	33280.08
516.85	33165.39
517.03	33542.22
517.20	33909.68
517.37	33907.34
517.54	34059.48
517.72	34185.86
517.89	34436.30
518.06	34038.41
518.24	33659.24
518.41	34242.04
518.58	34408.22
518.75	34398.85
518.93	34801.43
519.10	34651.63
519.27	34773.34
519.45	35311.66
519.62	35166.55
519.79	35463.80
519.96	35431.03
520.14	35129.10
520.31	35182.93
520.48	35070.59
520.65	35056.54
520.83	36102.76
521.00	35943.61
521.17	35910.84
521.34	35800.83
521.52	36093.40
521.69	35873.39
521.86	36582.57
522.03	36084.04
522.20	36477.25
522.38	36285.33
522.55	36275.96
522.72	36102.76
522.89	36692.58
523.07	36715.98
523.24	36053.61
523.41	36706.62
523.58	36769.82
523.75	37034.30
523.92	37090.47
524.10	37340.91
524.27	37368.99
524.44	37436.87
524.61	37366.65
524.78	37474.32
524.96	37455.59
525.13	37574.96
525.30	37502.40
525.47	38005.62
525.64	37558.58
525.81	37961.15
525.98	37312.82
526.16	37584.32
526.33	36968.76
526.50	37699.01
526.67	37099.83
526.84	37624.11
527.01	37352.61
527.18	37511.77
527.36	37514.11
527.53	38174.14
527.70	38658.63
527.87	38862.26
528.04	38265.42
528.21	38340.32
528.38	38148.39
528.55	38522.88
528.72	38941.83
528.89	38726.50
529.07	39044.82
529.24	38583.73
529.41	38939.49
529.58	38951.20
529.75	38480.75
529.92	39323.34
530.09	39009.71
530.26	38953.54
530.43	39196.95
530.60	39047.16
530.77	38803.74
530.94	39391.22
531.11	38960.56
531.28	39222.70
531.46	39065.88
531.63	39887.41
531.80	38976.94
531.97	39084.61
532.14	39438.03
532.31	38981.62
532.48	39868.69
532.65	39494.20
532.82	39529.31
532.99	39817.19
533.16	39426.32
533.33	39768.04
533.50	39674.42
533.67	40100.40
533.84	39814.85
534.01	39943.58
534.18	39793.79
534.35	40460.84
534.52	40332.11
534.69	40343.81
534.86	40222.11
535.03	40142.53
535.20	40900.86
535.37	40535.74
535.54	40947.67
535.71	40329.77
535.88	40694.89
536.05	40509.99
536.22	40720.64
536.38	40931.29
536.55	40657.45
536.72	40765.11
536.89	40582.55
537.06	40959.38
537.23	41078.74
537.40	40718.30
537.57	41184.07
537.74	41326.84
537.91	41263.64
538.08	41544.51
538.25	40994.48
538.42	41214.49
538.59	41385.35
538.75	41076.40
538.92	41390.03
539.09	41280.03
539.26	41408.76
539.43	41280.03
539.60	41282.37
539.77	41436.84
539.94	41544.51
540.11	41486.00
540.28	41385.35
540.44	41219.17
540.61	41312.80
540.78	41322.16
540.95	41804.31
541.12	41226.20
541.29	41734.09
541.46	41780.90
541.62	42068.79
541.79	42068.79
541.96	41610.04
542.13	41860.48
542.30	42141.35
542.47	42155.39
542.63	42344.97
542.80	42340.29
542.97	42880.95
543.14	42576.69
543.31	42871.59
543.48	42579.03
543.64	43339.70
543.81	42476.04
543.98	42862.23
544.15	42724.14
544.32	42869.25
544.48	43199.27
544.65	43023.73
544.82	43227.35
544.99	42639.88
545.16	43082.24
545.32	42548.60
545.49	43051.81
545.66	43522.26
545.83	43524.60
546.00	43526.94
546.16	43529.28
546.33	43012.02
546.50	42995.64
546.67	43316.29
546.83	42993.30
547.00	43208.63
547.17	43269.48
547.34	43430.98
547.50	43564.39
547.67	43744.61
547.84	43744.61
548.00	43634.61
548.17	43868.66
548.34	43543.33
548.51	44130.80
548.67	43831.21
548.84	43653.33
549.01	43489.49
549.18	43634.61
549.34	43709.50
549.51	44238.47
549.68	43590.14
549.84	44250.17
550.01	44353.15
550.18	44095.69
550.34	44505.29
550.51	43995.05
550.68	44046.54
550.84	43655.67
551.01	44231.44
551.18	44264.21
551.34	43749.29
551.51	44531.03
551.68	44477.20
551.84	44505.29
552.01	43938.88
552.18	44622.31
552.34	43915.47
552.51	44779.13
552.68	44411.67
552.84	44315.70
553.01	44664.44
553.18	44474.86
553.34	44264.21
553.51	44694.87
553.67	44645.72
553.84	44865.73
554.01	44528.69
554.17	44818.92
554.34	45020.20
554.51	44975.73
554.67	45123.19
554.84	44931.26
555.00	44369.54
555.17	44856.37
555.33	44697.21
555.50	44856.37
555.67	44725.30
555.83	45085.74
556.00	44996.80
556.16	45315.11
556.33	45069.36
556.50	45170.00
556.66	45308.09
556.83	44619.97
556.99	44940.63
557.16	45350.22
557.32	44898.50
557.49	45134.89
557.65	45062.33
557.82	44626.99
557.98	45127.87
558.15	45261.28
558.32	45572.57
558.48	44748.70
558.65	45214.47
558.81	44999.14
558.98	45177.02
559.14	45287.03
559.31	45450.86
559.47	45020.20
559.64	45265.96
559.80	45195.74
559.97	45287.03
560.13	45233.19
560.30	45207.45
560.46	45598.32
560.63	45614.70
560.79	45752.79
560.96	46061.74
561.12	45401.71
561.29	45757.47
561.45	45399.37
561.61	46103.87
561.78	46019.61
561.94	45392.35
562.11	45427.46
562.27	45521.08
562.44	45474.27
562.60	45876.84
562.77	45846.41
562.93	45645.13
563.10	45670.87
563.26	45546.82
563.42	45663.85
563.59	45392.35
563.75	45490.65
563.92	45745.77
564.08	45476.61
564.24	45610.02
564.41	45879.18
564.57	45329.16
564.74	45769.18
564.90	45647.47
565.07	46354.31
565.23	45628.74
565.39	45586.61
565.56	45736.41
565.72	45521.08
565.88	45397.03
566.05	46059.40
566.21	46068.76
566.38	45839.39
566.54	45661.51
566.70	45996.21
566.87	46429.21
567.03	45933.01
567.19	46258.35
567.36	46162.39
567.52	46045.36
567.68	46354.31
567.85	45837.05
568.01	46333.24
568.17	46239.62
568.34	45914.29
568.50	45879.18
568.66	46457.29
568.83	45890.88
568.99	46021.95
569.15	45787.90
569.32	46010.25
569.48	45806.62
569.64	46358.99
569.81	46134.30
569.97	46164.73
570.13	46316.86
570.30	45689.60
570.46	46026.63
570.62	46096.85
570.78	45963.44
570.95	46064.08
571.11	45921.31
571.27	45755.13
571.43	46171.75
571.60	45916.63
571.76	46602.41
571.92	45691.94
572.09	46251.33
572.25	46185.79
572.41	45968.12
572.57	46389.42
572.74	46780.29
572.90	46171.75
573.06	46256.01
573.22	46052.38
573.38	46188.13
573.55	45965.78
573.71	46623.47
573.87	46188.13
574.03	46248.99
574.20	46103.87
574.36	46333.24
574.52	46426.87
574.68	45993.87
574.84	46122.60
575.01	45890.88
575.17	46342.61
575.33	45993.87
575.49	46412.82
575.65	46476.02
575.82	46398.78
575.98	46185.79
576.14	45958.76
576.30	46696.03
576.46	46230.26
576.62	46337.93
576.79	46256.01
576.95	46045.36
577.11	46569.64
577.27	46234.94
577.43	46288.77
577.59	46106.21
577.75	45968.12
577.92	46117.92
578.08	45841.73
578.24	46082.81
578.40	46356.65
578.56	46248.99
578.72	45900.25
578.88	46829.44
579.04	46188.13
579.21	46375.37
579.37	45947.06
579.53	46183.45
579.69	46326.22
579.85	46138.98
580.01	46380.06
580.17	46351.97
580.33	46541.55
580.49	46302.82
580.65	46466.66
580.82	46307.50
580.98	46143.66
581.14	45965.78
581.30	46225.58
581.46	46230.26
581.62	46564.96
581.78	46754.54
581.94	46642.20
582.10	46433.89
582.26	46323.88
582.42	46574.32
582.58	46478.36
582.74	46026.63
582.90	46567.30
583.06	46681.98
583.22	46761.56
583.38	46756.88
583.54	46485.38
583.70	46464.32
583.86	46174.09
584.02	46183.45
584.18	46405.80
584.34	46972.21
584.50	46272.39
584.66	46319.20
584.82	46085.15
584.98	46586.02
585.14	46784.97
585.30	46298.14
585.46	46405.80
585.62	46344.95
585.78	46401.12
585.94	46211.54
586.10	46099.19
586.26	46588.36
586.42	46689.01
586.58	46412.82
586.74	46366.01
586.90	46164.73
587.06	46157.70
587.22	46347.29
587.38	46698.37
587.54	46679.64
587.70	46883.27
587.86	46279.41
588.02	46586.02
588.18	46436.23
588.34	46555.60
588.49	46349.63
588.65	45895.56
588.81	46234.94
588.97	46054.72
589.13	45776.20
589.29	45975.14
589.45	46576.66
589.61	46609.43
589.77	46415.16
589.93	46506.44
