SpectraSuite Data File
++++++++++++++++++++++++++++++++++++
Date: Fri Oct 25 10:47:37 EDT 2013
User: price-jones
Dark Spectrum Present: No
Reference Spectrum Present: No
Number of Sampled Component Spectra: 1
Spectrometers: USB2+H05261
Integration Time (usec): 100000 (USB2+H05261)
Spectra Averaged: 1 (USB2+H05261)
Boxcar Smoothing: 0 (USB2+H05261)
Correct for Electrical Dark: No (USB2+H05261)
Strobe/Lamp Enabled: No (USB2+H05261)
Correct for Detector Non-linearity: No (USB2+H05261)
Correct for Stray Light: No (USB2+H05261)
Number of Pixels in Processed Spectrum: 2048
>>>>>Begin Processed Spectral Data<<<<<
365.73	131.07
365.92	131.07
366.12	131.07
366.32	112.35
366.52	4.68
366.72	93.62
366.91	81.92
367.11	46.81
367.31	53.83
367.51	74.90
367.70	102.98
367.90	91.28
368.10	35.11
368.30	53.83
368.49	79.58
368.69	93.62
368.89	11.70
369.09	23.41
369.28	32.77
369.48	114.69
369.68	124.05
369.87	163.84
370.07	39.79
370.27	51.49
370.47	215.33
370.66	425.98
370.86	470.45
371.06	491.51
371.25	470.45
371.45	414.27
371.65	493.85
371.84	409.59
372.04	454.06
372.24	463.43
372.44	461.09
372.63	447.04
372.83	461.09
373.03	557.05
373.22	510.24
373.42	550.03
373.62	561.73
373.81	465.77
374.01	505.56
374.21	526.62
374.40	482.15
374.60	585.13
374.79	535.98
374.99	524.28
375.19	547.69
375.38	538.32
375.58	552.37
375.78	582.79
375.97	690.46
376.17	641.31
376.37	561.73
376.56	613.22
376.76	578.11
376.95	603.86
377.15	545.34
377.35	634.29
377.54	596.84
377.74	631.94
377.93	610.88
378.13	653.01
378.33	552.37
378.52	631.94
378.72	594.50
378.91	638.97
379.11	739.61
379.31	631.94
379.50	636.63
379.70	657.69
379.89	671.73
380.09	655.35
380.28	695.14
380.48	655.35
380.68	627.26
380.87	620.24
381.07	667.05
381.26	713.86
381.46	629.60
381.65	692.80
381.85	685.78
382.04	744.29
382.24	699.82
382.43	667.05
382.63	688.12
382.83	734.93
383.02	641.31
383.22	758.33
383.41	690.46
383.61	755.99
383.80	723.23
384.00	713.86
384.19	671.73
384.39	798.12
384.58	795.78
384.78	706.84
384.97	793.44
385.17	767.70
385.36	805.14
385.56	779.40
385.75	812.17
385.95	793.44
386.14	805.14
386.34	816.85
386.53	821.53
386.72	807.48
386.92	854.30
387.11	837.91
387.31	821.53
387.50	809.83
387.70	823.87
387.89	823.87
388.09	800.46
388.28	870.68
388.48	734.93
388.67	924.51
388.86	894.08
389.06	819.19
389.25	833.23
389.45	971.32
389.64	983.02
389.84	877.70
390.03	936.21
390.22	1043.88
390.42	849.61
390.61	842.59
390.81	999.41
391.00	926.85
391.19	917.49
391.39	924.51
391.58	961.96
391.78	1032.18
391.97	1064.94
392.16	1025.15
392.36	994.73
392.55	976.00
392.75	997.07
392.94	1029.84
393.13	1083.67
393.33	910.47
393.52	968.98
393.71	1060.26
393.91	1048.56
394.10	1118.78
394.29	1048.56
394.49	1095.37
394.68	1114.10
394.88	1149.20
395.07	1146.86
395.26	1132.82
395.46	1146.86
395.65	1121.12
395.84	1130.48
396.04	1261.55
396.23	1149.20
396.42	1102.39
396.62	1142.18
396.81	1149.20
397.00	1188.99
397.19	1263.89
397.39	1233.46
397.58	1282.61
397.77	1263.89
397.97	1284.95
398.16	1235.80
398.35	1299.00
398.55	1247.51
398.74	1359.85
398.93	1359.85
399.12	1369.21
399.32	1329.42
399.51	1394.96
399.70	1406.66
399.90	1329.42
400.09	1483.90
400.28	1397.30
400.47	1387.94
400.67	1490.92
400.86	1425.39
401.05	1521.35
401.24	1493.26
401.44	1467.52
401.63	1563.48
401.82	1563.48
402.01	1348.15
402.21	1661.78
402.40	1579.86
402.59	1495.60
402.78	1643.06
402.97	1507.30
403.17	1617.31
403.36	1570.50
403.55	1591.56
403.74	1689.87
403.93	1603.27
404.13	1584.54
404.32	1717.95
404.51	1743.70
404.70	1839.66
404.89	1652.42
405.09	1781.15
405.28	1769.44
405.47	1806.89
405.66	1837.32
405.85	1795.19
406.05	1774.13
406.24	1820.94
406.43	1944.99
406.62	1851.36
406.81	2026.90
407.00	1863.07
407.20	1863.07
407.39	1881.79
407.58	1984.77
407.77	1905.20
407.96	1966.05
408.15	2094.78
408.34	2052.65
408.54	1987.11
408.73	2059.67
408.92	2054.99
409.11	2073.71
409.30	2078.40
409.49	2148.61
409.68	2085.42
409.87	2155.63
410.07	2181.38
410.26	2139.25
410.45	2160.31
410.64	2118.18
410.83	2221.17
411.02	2188.40
411.21	2293.72
411.40	2363.94
411.59	2324.15
411.78	2305.43
411.98	2279.68
412.17	2370.96
412.36	2480.97
412.55	2469.27
412.74	2485.65
412.93	2452.88
413.12	2471.61
413.31	2586.29
413.50	2605.02
413.69	2504.37
413.88	2689.28
414.07	2647.15
414.26	2572.25
414.45	2649.49
414.64	2700.98
414.83	2607.36
415.02	2897.58
415.22	2818.00
415.41	2729.06
415.60	2810.98
415.79	2904.60
415.98	2909.29
416.17	2965.46
416.36	2857.79
416.55	2892.90
416.74	2935.03
416.93	3110.57
417.12	2979.50
417.31	2911.63
417.50	3021.63
417.69	3138.66
417.88	3108.23
418.07	3159.72
418.26	3232.28
418.45	3227.60
418.64	3269.73
418.83	3157.38
419.02	3148.02
419.21	3260.37
419.39	3375.05
419.58	3332.92
419.77	3082.49
419.96	3361.01
420.15	3349.31
420.34	3433.57
420.53	3255.69
420.72	3562.30
420.91	3417.18
421.10	3426.54
421.29	3428.88
421.48	3445.27
421.67	3581.02
421.86	3463.99
422.05	3281.43
422.24	3435.91
422.43	3468.67
422.61	3417.18
422.80	3510.80
422.99	3461.65
423.18	3606.77
423.37	3524.85
423.56	3452.29
423.75	3485.06
423.94	3468.67
424.13	3370.37
424.32	3433.57
424.50	3522.51
424.69	3691.02
424.88	3693.37
425.07	3588.04
425.26	3576.34
425.45	3562.30
425.64	3637.19
425.83	3419.52
426.01	3679.32
426.20	3705.07
426.39	3679.32
426.58	3700.39
426.77	3578.68
426.96	3737.84
427.15	3632.51
427.33	3754.22
427.52	3646.55
427.71	3913.38
427.90	3758.90
428.09	3866.56
428.28	3716.77
428.46	3859.54
428.65	3712.09
428.84	3875.93
429.03	3918.06
429.22	3684.00
429.40	3885.29
429.59	3857.20
429.78	3730.81
429.97	3714.43
430.16	3779.97
430.34	3922.74
430.53	3826.78
430.72	3939.12
430.91	3925.08
431.10	4086.58
431.28	4198.92
431.47	4170.83
431.66	4273.82
431.85	4145.09
432.03	4250.41
432.22	4381.48
432.41	4395.53
432.60	4355.74
432.79	4229.35
432.97	4367.44
433.16	4425.95
433.35	4198.92
433.54	4393.19
433.72	4337.01
433.91	4337.01
434.10	4393.19
434.28	4374.46
434.47	4369.78
434.66	4512.55
434.85	4765.33
435.03	4477.44
435.22	4524.26
435.41	4807.46
435.59	4641.28
435.78	4622.56
435.97	4706.82
436.16	4489.15
436.34	4550.00
436.53	4786.40
436.72	4753.63
436.90	4528.94
437.09	4765.33
437.28	4692.77
437.46	4723.20
437.65	4685.75
437.84	4980.66
438.02	4674.05
438.21	4901.08
438.40	4753.63
438.58	4917.47
438.77	4868.31
438.96	4915.12
439.14	5064.92
439.33	5078.96
439.52	5238.12
439.70	5217.05
439.89	5291.95
440.08	5280.25
440.26	5296.63
440.45	5224.08
440.63	5273.23
440.82	5345.78
441.01	5324.72
441.19	5551.75
441.38	5530.69
441.57	5687.50
441.75	5640.69
441.94	5579.84
442.12	5673.46
442.31	5673.46
442.50	5703.89
442.68	5650.05
442.87	5727.29
443.05	5816.23
443.24	5717.93
443.43	5818.57
443.61	5851.34
443.80	5961.34
443.98	5827.93
444.17	5654.73
444.35	5837.30
444.54	6106.46
444.73	6003.47
444.91	6047.94
445.10	5858.36
445.28	5870.06
445.47	5984.75
445.65	6022.20
445.84	5940.28
446.02	5956.66
446.21	6094.76
446.39	5909.85
446.58	6001.13
446.77	6015.18
446.95	5944.96
447.14	6129.86
447.32	6167.31
447.51	6047.94
447.69	6087.73
447.88	6141.57
448.06	6274.98
448.25	6108.80
448.43	6300.72
448.62	6328.81
448.80	6010.50
448.99	6101.78
449.17	6258.59
449.36	6092.41
449.54	6462.22
449.73	6551.16
449.91	6511.37
450.10	6282.00
450.28	6539.46
450.46	6403.71
450.65	6567.54
450.83	6424.77
451.02	6506.69
451.20	6525.41
451.39	6516.05
451.57	6546.48
451.76	6387.32
451.94	6593.29
452.13	6502.01
452.31	6590.95
452.49	6504.35
452.68	6635.42
452.86	6560.52
453.05	6684.57
453.23	6766.49
453.42	6586.27
453.60	6525.41
453.78	6806.28
453.97	6590.95
454.15	6679.89
454.34	6738.40
454.52	6927.99
454.70	6703.29
454.89	6827.34
455.07	6703.29
455.26	6932.67
455.44	7173.74
455.62	7007.56
455.81	6874.15
455.99	7045.01
456.17	7131.61
456.36	7136.29
456.54	7030.97
456.73	7279.07
456.91	7433.54
457.09	7283.75
457.28	7461.63
457.46	7456.95
457.64	7513.12
457.83	7452.27
458.01	7190.13
458.19	7578.65
458.38	7375.03
458.56	7616.10
458.74	7756.54
458.93	7431.20
459.11	7541.21
459.29	7632.49
459.48	7662.91
459.66	7496.74
459.84	7707.38
460.03	7875.90
460.21	7805.69
460.39	7906.33
460.57	7698.02
460.76	7665.25
460.94	7868.88
461.12	7892.29
461.31	7985.91
461.49	8002.29
461.67	7850.16
461.85	8093.57
462.04	7901.65
462.22	8521.89
462.40	7927.39
462.59	7941.44
462.77	7903.99
462.95	7939.10
463.13	8177.83
463.32	8285.50
463.50	8140.38
463.68	8299.54
463.86	8175.49
464.05	8060.80
464.23	8170.81
464.41	8423.59
464.59	8168.47
464.78	8360.39
464.96	8379.12
465.14	8311.24
465.32	8341.67
465.50	8292.52
465.69	8657.64
465.87	8383.80
466.05	8535.93
466.23	8564.02
466.41	8498.49
466.60	8676.37
466.78	8414.23
466.96	8718.50
467.14	8638.92
467.32	8470.40
467.51	8706.79
467.69	8566.36
467.87	8690.41
468.05	8631.90
468.23	8648.28
468.41	8641.26
468.60	8695.09
468.78	8947.87
468.96	8676.37
469.14	8931.48
469.32	8997.02
469.50	9029.79
469.69	8919.78
469.87	9116.39
470.05	9036.81
470.23	9046.17
470.41	9083.62
470.59	9116.39
470.77	9114.05
470.95	9212.35
471.14	9235.75
471.32	9118.73
471.50	9305.97
471.68	9423.00
471.86	9528.32
472.04	9589.17
472.22	9720.24
472.40	9502.58
472.58	9378.53
472.77	9465.13
472.95	9771.74
473.13	10057.28
473.31	9825.57
473.49	9654.71
473.67	9682.80
473.85	9841.95
474.03	10099.41
474.21	9905.15
474.39	9975.36
474.57	10310.06
474.75	10076.01
474.93	10162.61
475.12	10225.80
475.30	10319.42
475.48	10160.27
475.66	10303.04
475.84	10499.64
476.02	10520.71
476.20	10429.43
476.38	10611.99
476.56	10965.41
476.74	10668.16
476.92	10871.79
477.10	11075.42
477.28	11091.80
477.46	10958.39
477.64	11204.14
477.82	11316.49
478.00	11683.95
478.18	11501.39
478.36	11377.34
478.54	12063.12
478.72	11595.01
478.90	11770.55
479.08	12016.31
479.26	11974.18
479.44	12189.51
479.62	11988.22
479.80	12191.85
479.98	12547.61
480.16	12521.87
480.34	12531.23
480.52	12753.58
480.70	12737.20
480.88	12226.96
481.06	12760.60
481.24	12933.80
481.41	13013.38
481.59	13172.54
481.77	13537.66
481.95	13392.55
482.13	13429.99
482.31	13488.51
482.49	13479.15
482.67	13661.71
482.85	13521.27
483.03	13858.31
483.21	14122.79
483.39	14118.11
483.57	14258.54
483.74	14150.88
483.92	14422.38
484.10	14455.15
484.28	14644.73
484.46	14761.76
484.64	15110.50
484.82	14778.14
485.00	15007.52
485.18	14923.26
485.35	15253.27
485.53	15323.49
485.71	14897.51
485.89	15590.31
486.07	15220.50
486.25	15279.02
486.43	15599.67
486.61	15829.04
486.78	16262.04
486.96	16081.82
487.14	16315.87
487.32	16496.10
487.50	16819.09
487.68	16877.60
487.85	17048.46
488.03	16973.56
488.21	17336.35
488.39	17355.07
488.57	17296.56
488.75	17675.73
488.92	17635.94
489.10	17832.54
489.28	17905.10
489.46	18253.84
489.64	18167.24
489.81	18637.69
489.99	18487.89
490.17	18684.50
490.35	18939.62
490.53	18789.82
490.70	18960.68
490.88	18764.07
491.06	19171.33
491.24	19171.33
491.41	19185.37
491.59	19389.00
491.77	19484.96
491.95	19681.56
492.13	19992.86
492.30	20182.44
492.48	19983.49
492.66	20304.15
492.84	19974.13
493.01	20348.62
493.19	20615.44
493.37	20971.20
493.54	20821.41
493.72	20917.37
493.90	21053.12
494.08	21348.03
494.25	21226.32
494.43	21355.05
494.61	21764.64
494.79	21614.85
494.96	21439.31
495.14	21600.80
495.32	22162.53
495.49	22228.07
495.67	22242.11
495.85	22675.11
496.02	22190.62
496.20	22824.90
496.38	22838.95
496.55	22771.07
496.73	23297.69
496.91	23021.51
497.09	23248.54
497.26	23435.78
497.44	23559.83
497.62	23487.28
497.79	23599.62
497.97	23805.59
498.14	23946.02
498.32	23754.10
498.50	23885.17
498.67	24130.92
498.85	23936.66
499.03	24308.80
499.20	24208.16
499.38	24355.61
499.56	24797.98
499.73	24727.76
499.91	24608.39
500.08	24744.14
500.26	24744.14
500.44	24950.11
500.61	25104.59
500.79	25111.61
500.97	24872.87
501.14	25343.32
501.32	25827.81
501.49	25523.54
501.67	25614.82
501.84	25825.47
502.02	25818.45
502.20	25912.07
502.37	26146.12
502.55	26190.59
502.72	25970.58
502.90	25872.28
503.07	25804.41
503.25	26380.18
503.43	26218.68
503.60	26422.31
503.78	26441.03
503.95	26586.15
504.13	26796.79
504.30	26628.27
504.48	26555.72
504.65	27145.53
504.83	27475.55
505.01	27211.07
505.18	26991.06
505.36	27728.33
505.53	27410.01
505.71	27438.10
505.88	27618.32
506.06	27737.69
506.23	27510.66
506.41	27936.63
506.58	27845.35
506.76	28065.36
506.93	27922.59
507.11	27999.83
507.28	28542.83
507.46	28018.55
507.63	28156.64
507.81	28161.33
507.98	28077.07
508.16	28573.26
508.33	28591.98
508.50	28540.49
508.68	28573.26
508.85	29013.28
509.03	28835.40
509.20	29191.16
509.38	29373.72
509.55	29380.74
509.73	29605.44
509.90	29743.53
510.08	29186.48
510.25	29462.66
510.42	29872.26
510.60	29876.94
510.77	30127.38
510.95	30295.89
511.12	29813.74
511.30	30033.75
511.47	30314.62
511.64	30043.12
511.82	30607.19
511.99	30169.51
512.17	30094.61
512.34	30361.43
512.51	30831.88
512.69	30586.12
512.86	31103.38
513.04	30691.44
513.21	30644.63
513.38	30464.41
513.56	30972.31
513.73	30944.22
513.90	31442.76
514.08	31292.96
514.25	31356.16
514.43	31374.88
514.60	31587.87
514.77	31372.54
514.95	31814.90
515.12	31445.10
515.29	31611.28
515.47	31922.57
515.64	32187.05
515.81	31962.36
515.99	32039.59
516.16	32055.98
516.33	31828.95
516.51	32091.09
516.68	31592.55
516.85	31578.51
517.03	31749.37
517.20	32257.26
517.37	32264.28
517.54	32650.47
517.72	32496.00
517.89	32271.31
518.06	32388.33
518.24	32353.23
518.41	32395.35
518.58	32863.46
518.75	32552.17
518.93	33062.41
519.10	32954.74
519.27	33223.90
519.45	33603.07
519.62	33102.20
519.79	33603.07
519.96	33207.52
520.14	33731.80
520.31	33392.42
520.48	33469.66
520.65	34012.66
520.83	33902.66
521.00	34174.16
521.17	33860.53
521.34	33993.94
521.52	34209.27
521.69	34668.02
521.86	34213.95
522.03	34354.38
522.20	34712.49
522.38	34806.11
522.55	34450.35
522.72	35082.29
522.89	34312.25
523.07	34541.63
523.24	34558.01
523.41	35098.67
523.58	34864.62
523.75	35023.78
523.92	35093.99
524.10	35400.60
524.27	35236.77
524.44	35641.68
524.61	35206.34
524.78	35590.19
524.96	35629.98
525.13	35367.84
525.30	35674.45
525.47	35978.72
525.64	35585.50
525.81	35896.80
525.98	35302.30
526.16	35683.81
526.33	35718.92
526.50	35782.11
526.67	35653.38
526.84	35747.00
527.01	35538.69
527.18	35573.80
527.36	36170.64
527.53	36163.62
527.70	36641.09
527.87	36481.93
528.04	36444.48
528.21	36421.08
528.38	36357.88
528.55	36495.97
528.72	36849.39
528.89	36727.69
529.07	36882.16
529.24	36758.11
529.41	36584.91
529.58	36638.75
529.75	36870.46
529.92	36861.10
530.09	36840.03
530.26	37563.26
530.43	37240.26
530.60	36629.38
530.77	36634.06
530.94	37691.99
531.11	37359.63
531.28	37471.98
531.46	37469.64
531.63	37776.25
531.80	37352.61
531.97	37832.42
532.14	37490.70
532.31	37422.83
532.48	37876.89
532.65	37865.19
532.82	37947.11
532.99	38022.00
533.16	37717.73
533.33	37919.02
533.50	38422.23
533.67	38092.22
533.84	38155.41
534.01	38242.01
534.18	38225.63
534.35	38452.66
534.52	38368.40
534.69	38550.96
534.86	38623.52
535.03	38373.08
535.20	38408.19
535.37	38866.94
535.54	38639.90
535.71	38370.74
535.88	38665.65
536.05	38782.68
536.22	38918.43
536.38	38944.17
536.55	38876.30
536.72	38857.57
536.89	38801.40
537.06	38976.94
537.23	39000.35
537.40	38684.37
537.57	39161.84
537.74	39356.11
537.91	39648.68
538.08	38972.26
538.25	39208.65
538.42	39243.76
538.59	39421.64
538.75	39267.17
538.92	39423.98
539.09	39728.25
539.26	39721.23
539.43	39426.32
539.60	39880.39
539.77	39330.36
539.94	39566.76
540.11	39398.24
540.28	39325.68
540.44	39391.22
540.61	39892.09
540.78	39370.15
540.95	39786.77
541.12	39838.26
541.29	40093.38
541.46	39915.50
541.62	39709.53
541.79	40449.14
541.96	39786.77
542.13	40287.64
542.30	40669.15
542.47	40416.37
542.63	40130.83
542.80	40509.99
542.97	40973.42
543.14	40912.56
543.31	40957.03
543.48	40905.54
543.64	41406.42
543.81	41027.25
543.98	40905.54
544.15	40800.22
544.32	40774.47
544.48	41120.87
544.65	41127.89
544.82	41223.86
544.99	41249.60
545.16	41001.50
545.32	40942.99
545.49	41359.61
545.66	41308.11
545.83	41352.58
546.00	41415.78
546.16	42078.15
546.33	41123.21
546.50	40828.30
546.67	41422.80
546.83	41092.79
547.00	41907.29
547.17	41483.66
547.34	41464.93
547.50	41846.44
547.67	41549.19
547.84	41600.68
548.00	41968.15
548.17	42050.06
548.34	41783.24
548.51	41916.65
548.67	42337.95
548.84	42017.30
549.01	41958.78
549.18	41776.22
549.34	41834.74
549.51	42202.20
549.68	42307.52
549.84	41998.57
550.01	42143.69
550.18	42256.03
550.34	42171.77
550.51	42319.23
550.68	42124.96
550.84	41806.65
551.01	42656.26
551.18	42370.72
551.34	42227.95
551.51	42375.40
551.68	42326.25
551.84	43173.52
552.01	42539.24
552.18	42436.25
552.34	42134.32
552.51	42370.72
552.68	42820.10
552.84	42726.48
553.01	43082.24
553.18	42906.70
553.34	42576.69
553.51	42710.10
553.67	42817.76
553.84	42953.51
554.01	43133.73
554.17	43175.86
554.34	43061.18
554.51	42995.64
554.67	42890.32
554.84	42796.70
555.00	43068.20
555.17	43084.58
555.33	43332.68
555.50	43187.56
555.67	43161.82
555.83	43440.34
556.00	43351.40
556.16	43697.80
556.33	43854.62
556.50	43107.99
556.66	43082.24
556.83	43122.03
556.99	43531.62
557.16	43213.31
557.32	43578.43
557.49	43388.85
557.65	43248.42
557.82	43505.88
557.98	43299.91
558.15	43189.91
558.32	43550.35
558.48	43636.95
558.65	43517.58
558.81	43473.11
558.98	43400.55
559.14	43665.03
559.31	43304.59
559.47	43395.87
559.64	43964.62
559.80	44224.42
559.97	43854.62
560.13	43629.93
560.30	43749.29
560.46	44039.52
560.63	43732.91
560.79	43761.00
560.96	43784.40
561.12	44105.06
561.29	44196.34
561.45	43746.95
561.61	43768.02
561.78	44151.87
561.94	43648.65
562.11	43461.41
562.27	43770.36
562.44	43952.92
562.60	44336.77
562.77	44086.33
562.93	44208.04
563.10	44034.84
563.26	43487.15
563.42	44140.16
563.59	43978.67
563.75	44074.63
563.92	44201.02
564.08	44442.09
564.24	44626.99
564.41	44439.75
564.57	43805.47
564.74	44350.81
564.90	44168.25
565.07	43964.62
565.23	43899.09
565.39	44116.76
565.56	44638.70
565.72	43739.93
565.88	43852.28
566.05	43875.68
566.21	44278.25
566.38	44009.09
566.54	44477.20
566.70	44268.89
566.87	44652.74
567.03	44205.70
567.19	44762.75
567.36	44479.54
567.52	44381.24
567.68	44493.58
567.85	44135.48
568.01	44758.06
568.17	44205.70
568.34	44498.26
568.50	44690.19
568.66	43917.81
568.83	44617.63
568.99	44575.50
569.15	44184.63
569.32	44252.51
569.48	44362.51
569.64	44254.85
569.81	44669.12
569.97	44760.40
570.13	44273.57
570.30	44655.08
570.46	43805.47
570.62	43810.15
570.78	44004.41
570.95	44423.37
571.11	44687.85
571.27	44072.29
571.43	44383.58
571.60	44591.89
571.76	44622.31
571.92	44463.16
572.09	44350.81
572.25	44414.01
572.41	44161.23
572.57	44879.77
572.74	45579.59
572.90	44580.18
573.06	44266.55
573.22	44795.51
573.38	44811.90
573.55	44196.34
573.71	44844.66
573.87	44479.54
574.03	44233.78
574.20	44746.36
574.36	44631.68
574.52	44849.35
574.68	44634.02
574.84	44737.00
575.01	44940.63
575.17	44800.19
575.33	44886.79
575.49	44971.05
575.65	44748.70
575.82	44940.63
575.98	44718.28
576.14	44882.11
576.30	45071.70
576.46	45078.72
576.62	44622.31
576.79	44467.84
576.95	44034.84
577.11	44825.94
577.27	44954.67
577.43	44404.64
577.59	44933.60
577.75	44327.41
577.92	44652.74
578.08	44554.44
578.24	44488.90
578.40	44713.59
578.56	44514.65
578.72	44814.24
578.88	44477.20
579.04	45052.97
579.21	44725.30
579.37	44643.38
579.53	44898.50
579.69	44477.20
579.85	44797.85
580.01	44652.74
580.17	44610.61
580.33	44697.21
580.49	45022.54
580.65	45017.86
580.82	45013.18
580.98	44886.79
581.14	44414.01
581.30	44898.50
581.46	44516.99
581.62	45001.48
581.78	45247.24
581.94	45375.97
582.10	44938.29
582.26	44825.94
582.42	44739.34
582.58	44687.85
582.74	44477.20
582.90	45003.82
583.06	44807.22
583.22	44795.51
583.38	45057.65
583.54	45010.84
583.70	44502.95
583.86	44954.67
584.02	44884.45
584.18	44847.00
584.34	45013.18
584.50	44814.24
584.66	45031.91
584.82	44645.72
584.98	45085.74
585.14	44907.86
585.30	45097.44
585.46	44851.69
585.62	45006.16
585.78	44722.96
585.94	44540.39
586.10	44975.73
586.26	45256.60
586.42	44774.45
586.58	45567.89
586.74	44821.26
586.90	44905.52
587.06	45074.04
587.22	45099.78
587.38	44680.83
587.54	45151.27
587.70	45326.81
587.86	45443.84
588.02	44893.82
588.18	45116.17
588.34	45055.31
588.49	44669.12
588.65	44568.48
588.81	45015.52
588.97	45022.54
589.13	44601.25
589.29	44940.63
589.45	45116.17
589.61	44786.15
589.77	44797.85
589.93	45095.10
590.08	44879.77
590.24	45179.36
