SpectraSuite Data File
++++++++++++++++++++++++++++++++++++
Date: Fri Oct 25 11:26:19 EDT 2013
User: price-jones
Dark Spectrum Present: No
Reference Spectrum Present: No
Number of Sampled Component Spectra: 1
Spectrometers: USB2+H05261
Integration Time (usec): 100000 (USB2+H05261)
Spectra Averaged: 1 (USB2+H05261)
Boxcar Smoothing: 0 (USB2+H05261)
Correct for Electrical Dark: No (USB2+H05261)
Strobe/Lamp Enabled: No (USB2+H05261)
Correct for Detector Non-linearity: No (USB2+H05261)
Correct for Stray Light: No (USB2+H05261)
Number of Pixels in Processed Spectrum: 2048
>>>>>Begin Processed Spectral Data<<<<<
365.73	182.56
365.92	182.56
366.12	182.56
366.32	238.73
366.52	124.05
366.72	145.11
366.91	100.64
367.11	238.73
367.31	126.39
367.51	142.77
367.70	79.58
367.90	128.73
368.10	138.09
368.30	210.65
368.49	154.48
368.69	208.31
368.89	131.07
369.09	112.35
369.28	156.82
369.48	161.50
369.68	98.30
369.87	208.31
370.07	163.84
370.27	252.78
370.47	337.04
370.66	554.71
370.86	585.13
371.06	653.01
371.25	690.46
371.45	737.27
371.65	753.65
371.84	697.48
372.04	669.39
372.24	755.99
372.44	671.73
372.63	763.01
372.83	753.65
373.03	758.33
373.22	650.67
373.42	767.70
373.62	840.25
373.81	758.33
374.01	798.12
374.21	908.13
374.40	793.44
374.60	866.00
374.79	840.25
374.99	866.00
375.19	875.36
375.38	926.85
375.58	779.40
375.78	898.77
375.97	788.76
376.17	1001.75
376.37	936.21
376.56	847.27
376.76	880.04
376.95	812.17
377.15	940.90
377.35	842.59
377.54	880.04
377.74	840.25
377.93	889.40
378.13	922.17
378.33	929.19
378.52	933.87
378.72	1018.13
378.91	971.32
379.11	851.96
379.31	952.60
379.50	971.32
379.70	978.34
379.89	1055.58
380.09	882.38
380.28	973.66
380.48	966.64
380.68	954.94
380.87	1018.13
381.07	992.39
381.26	1020.47
381.46	954.94
381.65	1008.77
381.85	985.37
382.04	1001.75
382.24	1102.39
382.43	1039.20
382.63	1046.22
382.83	1069.62
383.02	1163.25
383.22	1121.12
383.41	1046.22
383.61	1170.27
383.80	1048.56
384.00	1156.22
384.19	1142.18
384.39	1081.33
384.58	1196.01
384.78	1146.86
384.97	1137.50
385.17	1088.35
385.36	1137.50
385.56	1149.20
385.75	1207.72
385.95	1188.99
386.14	1247.51
386.34	1158.57
386.53	1210.06
386.72	1193.67
386.92	1109.41
387.11	1217.08
387.31	1224.10
387.50	1235.80
387.70	1118.78
387.89	1315.38
388.09	1207.72
388.28	1308.36
388.48	1282.61
388.67	1380.92
388.86	1275.59
389.06	1280.27
389.25	1371.55
389.45	1294.32
389.64	1362.19
389.84	1355.17
390.03	1284.95
390.22	1350.49
390.42	1357.51
390.61	1371.55
390.81	1390.28
391.00	1291.98
391.19	1364.53
391.39	1369.21
391.58	1467.52
391.78	1390.28
391.97	1437.09
392.16	1486.24
392.36	1451.13
392.55	1549.43
392.75	1465.18
392.94	1411.34
393.13	1579.86
393.33	1493.26
393.52	1523.69
393.71	1617.31
393.91	1565.82
394.10	1497.94
394.29	1549.43
394.49	1607.95
394.68	1685.19
394.88	1554.12
395.07	1558.80
395.26	1743.70
395.46	1624.33
395.65	1748.38
395.84	1708.59
396.04	1839.66
396.23	1720.29
396.42	1753.06
396.62	1799.87
396.81	1739.02
397.00	1849.02
397.19	1753.06
397.39	1762.42
397.58	1856.04
397.77	1746.04
397.97	1933.28
398.16	1863.07
398.35	1935.62
398.55	1902.86
398.74	1921.58
398.93	1963.71
399.12	1893.49
399.32	1926.26
399.51	1942.64
399.70	2071.37
399.90	2010.52
400.09	1919.24
400.28	2066.69
400.47	2071.37
400.67	1987.11
400.86	1977.75
401.05	2148.61
401.24	2165.00
401.44	2047.97
401.63	2127.55
401.82	2122.87
402.01	2195.42
402.21	2155.63
402.40	2129.89
402.59	2237.55
402.78	2155.63
402.97	2209.47
403.17	2263.30
403.36	2155.63
403.55	2307.77
403.74	2415.43
403.93	2436.50
404.13	2415.43
404.32	2319.47
404.51	2289.04
404.70	2382.67
404.89	2324.15
405.09	2476.29
405.28	2403.73
405.47	2450.54
405.66	2499.69
405.85	2558.21
406.05	2492.67
406.24	2572.25
406.43	2590.97
406.62	2663.53
406.81	2686.94
407.00	2658.85
407.20	2569.91
407.39	2644.81
407.58	2715.02
407.77	2708.00
407.96	2745.45
408.15	2752.47
408.34	2684.59
408.54	2846.09
408.73	2911.63
408.92	2829.71
409.11	2897.58
409.30	2956.10
409.49	2780.56
409.68	2864.82
409.87	2949.08
410.07	3040.36
410.26	3028.65
410.45	3052.06
410.64	3028.65
410.83	3070.78
411.02	3056.74
411.21	3159.72
411.40	3091.85
411.59	3176.11
411.78	3122.27
411.98	3119.93
412.17	3082.49
412.36	3204.19
412.55	3290.79
412.74	3499.10
412.93	3449.95
413.12	3363.35
413.31	3485.06
413.50	3478.04
413.69	3503.78
413.88	3613.79
414.07	3651.24
414.26	3435.91
414.45	3576.34
414.64	3686.34
414.83	3758.90
415.02	3751.88
415.22	3719.11
415.41	3850.18
415.60	3815.07
415.79	3878.27
415.98	3859.54
416.17	3978.91
416.36	3946.14
416.55	4002.32
416.74	4102.96
416.93	4095.94
417.12	4173.18
417.31	4154.45
417.50	4243.39
417.69	4421.27
417.88	4344.03
418.07	4248.07
418.26	4351.06
418.45	4278.50
418.64	4425.95
418.83	4327.65
419.02	4393.19
419.21	4435.32
419.39	4381.48
419.58	4557.02
419.77	4484.47
419.96	4449.36
420.15	4613.20
420.34	4540.64
420.53	4559.36
420.72	4702.14
420.91	4662.35
421.10	4683.41
421.29	4823.84
421.48	4795.76
421.67	4725.54
421.86	4678.73
422.05	4957.25
422.24	4828.53
422.43	4830.87
422.61	4849.59
422.80	5046.20
422.99	4877.68
423.18	4788.74
423.37	4919.81
423.56	4727.88
423.75	4929.17
423.94	4746.61
424.13	4580.43
424.32	4610.86
424.50	4709.16
424.69	5184.29
424.88	4978.32
425.07	4971.30
425.26	4933.85
425.45	4887.04
425.64	4887.04
425.83	4903.42
426.01	5057.90
426.20	4978.32
426.39	5095.35
426.58	5008.75
426.77	5062.58
426.96	5043.85
427.15	5048.54
427.33	5055.56
427.52	5184.29
427.71	5203.01
427.90	5238.12
428.09	5280.25
428.28	5254.50
428.46	5252.16
428.65	5284.93
428.84	5301.31
429.03	5584.52
429.22	5259.18
429.40	5303.65
429.59	5488.56
429.78	5345.78
429.97	5261.52
430.16	5518.98
430.34	5619.63
430.53	5626.65
430.72	5558.77
430.91	5643.03
431.10	5722.61
431.28	5776.44
431.47	5781.12
431.66	5722.61
431.85	5877.09
432.03	5928.58
432.22	5832.62
432.41	5944.96
432.60	5916.87
432.79	5954.32
432.97	6104.12
433.16	6010.50
433.35	6111.14
433.54	6108.80
433.72	5954.32
433.91	6195.40
434.10	6230.51
434.28	6139.23
434.47	6176.67
434.66	6239.87
434.85	6291.36
435.03	6267.95
435.22	6214.12
435.41	6459.88
435.59	6387.32
435.78	6532.44
435.97	6464.56
436.16	6586.27
436.34	6380.30
436.53	6476.26
436.72	6651.80
436.90	6314.77
437.09	6640.10
437.28	6523.07
437.46	6656.48
437.65	6546.48
437.84	6679.89
438.02	6668.19
438.21	6665.85
438.40	6712.66
438.58	6878.83
438.77	7087.14
438.96	6944.37
439.14	6949.05
439.33	7082.46
439.52	7185.44
439.70	7176.08
439.89	7330.56
440.08	7302.47
440.26	7424.18
440.45	7384.39
440.63	7473.33
440.82	7606.74
441.01	7576.31
441.19	7672.28
441.38	7569.29
441.57	7791.64
441.75	7836.11
441.94	7896.97
442.12	7889.95
442.31	8140.38
442.50	8112.30
442.68	7967.18
442.87	7939.10
443.05	7988.25
443.24	8063.15
443.43	8203.58
443.61	8081.87
443.80	8346.35
443.98	8280.82
444.17	7854.84
444.35	8252.73
444.54	8552.32
444.73	8355.71
444.91	8269.11
445.10	8344.01
445.28	8299.54
445.47	8395.50
445.65	8533.59
445.84	8379.12
446.02	8318.26
446.21	8276.13
446.39	8383.80
446.58	8362.73
446.77	8542.96
446.95	8245.71
447.14	8355.71
447.32	8671.68
447.51	8493.80
447.69	8425.93
447.88	8521.89
448.06	8498.49
448.25	8479.76
448.43	8437.63
448.62	8641.26
448.80	8549.98
448.99	8496.14
449.17	8774.67
449.36	8418.91
449.54	8947.87
449.73	8978.30
449.91	8987.66
450.10	9097.66
450.28	9095.32
450.46	8987.66
450.65	8926.80
450.83	8931.48
451.02	9022.77
451.20	8933.82
451.39	9200.65
451.57	9146.81
451.76	9090.64
451.94	9092.98
452.13	9298.95
452.31	9472.15
452.49	9198.31
452.68	9280.22
452.86	9322.35
453.05	9547.05
453.23	9565.77
453.42	9364.48
453.60	9184.26
453.78	9591.52
453.97	9238.09
454.15	9535.34
454.34	9437.04
454.52	9757.69
454.70	9619.60
454.89	9804.50
455.07	9727.27
455.26	9923.87
455.44	9912.17
455.62	9895.78
455.81	10005.79
455.99	9827.91
456.17	9982.38
456.36	10040.90
456.54	10099.41
456.73	10321.76
456.91	10413.04
457.09	10399.00
457.28	10611.99
457.46	10324.10
457.64	10391.98
457.83	10420.06
458.01	10382.62
458.19	10527.73
458.38	10581.56
458.56	10506.66
458.74	10874.13
458.93	10675.18
459.11	10729.02
459.29	10729.02
459.48	10824.98
459.66	10696.25
459.84	10897.53
460.03	11044.99
460.21	10810.93
460.39	10883.49
460.57	11063.71
460.76	11147.97
460.94	11159.67
461.12	10967.75
461.31	11183.08
461.49	11178.40
461.67	11154.99
461.85	11424.15
462.04	11281.38
462.22	11641.82
462.40	11487.35
462.59	11372.66
462.77	11412.45
462.95	11527.14
463.13	11545.86
463.32	11667.57
463.50	11623.10
463.68	11672.25
463.86	11683.95
464.05	11740.13
464.23	11712.04
464.41	11843.11
464.59	11618.42
464.78	12135.68
464.96	11999.93
465.14	11573.95
465.32	12074.82
465.50	12088.87
465.69	12196.53
465.87	12212.92
466.05	12184.83
466.23	12023.33
466.41	12231.64
466.60	12477.40
466.78	12180.15
466.96	12102.91
467.14	12269.09
467.32	12196.53
467.51	12578.04
467.69	12147.38
467.87	12465.69
468.05	12585.06
468.23	12489.10
468.41	12449.31
468.60	12531.23
468.78	12716.13
468.96	12531.23
469.14	12760.60
469.32	12901.03
469.50	12374.41
469.69	12786.35
469.87	12929.12
470.05	12884.65
470.23	13181.90
470.41	12882.31
470.59	13348.08
470.77	12833.16
470.95	13116.36
471.14	13523.62
471.32	13104.66
471.50	13635.96
471.68	13781.07
471.86	13497.87
472.04	13472.12
472.22	13937.89
472.40	13792.78
472.58	13640.64
472.77	13851.29
472.95	14005.77
473.13	14544.09
473.31	14139.18
473.49	14038.53
473.67	14087.68
473.85	13991.72
474.03	14513.66
474.21	14541.75
474.39	14728.99
474.57	14401.32
474.75	15002.83
474.93	15019.22
475.12	14738.35
475.30	15044.96
475.48	15274.34
475.66	14691.54
475.84	15318.81
476.02	15208.80
476.20	15279.02
476.38	15737.76
476.56	16250.34
476.74	15889.90
476.92	15616.05
477.10	15545.84
477.28	16196.51
477.46	16308.85
477.64	16098.20
477.82	16486.73
478.00	16891.65
478.18	16648.23
478.36	16884.62
478.54	16959.52
478.72	17460.40
478.90	17345.71
479.08	17481.46
479.26	17504.87
479.44	17568.06
479.62	18073.62
479.80	17813.82
479.98	18008.08
480.16	18340.44
480.34	18185.96
480.52	18473.85
480.70	18412.99
480.88	18518.32
481.06	18796.84
481.24	18623.64
481.41	18916.21
481.59	19176.01
481.77	19119.84
481.95	19255.59
482.13	19632.41
482.31	19604.33
482.49	20357.98
482.67	19885.19
482.85	20278.40
483.03	20559.27
483.21	20929.07
483.39	21221.64
483.57	20695.02
483.74	20908.01
483.92	21415.90
484.10	20898.64
484.28	21607.83
484.46	21891.03
484.64	22422.33
484.82	22068.91
485.00	22132.11
485.18	22696.17
485.35	22654.05
485.53	22916.19
485.71	22885.76
485.89	23257.90
486.07	22827.24
486.25	23349.18
486.43	23470.89
486.61	23763.46
486.78	23859.42
486.96	24084.11
487.14	23999.85
487.32	24428.17
487.50	24669.25
487.68	24816.70
487.85	25315.23
488.03	25340.98
488.21	25989.31
488.39	25937.82
488.57	25909.73
488.75	26015.05
488.92	26728.92
489.10	26799.13
489.28	26632.96
489.46	26632.96
489.64	27084.68
489.81	27278.94
489.99	27328.10
490.17	28053.66
490.35	27946.00
490.53	27852.38
490.70	28297.08
490.88	28287.71
491.06	28664.54
491.24	28580.28
491.41	28739.44
491.59	29282.44
491.77	29237.97
491.95	29792.68
492.13	29876.94
492.30	29802.04
492.48	29919.07
492.66	30080.56
492.84	30033.75
493.01	30436.33
493.19	30267.81
493.37	30850.60
493.54	30948.90
493.72	31063.59
493.90	31527.02
494.08	31314.03
494.25	31899.16
494.43	31775.11
494.61	31789.16
494.79	31747.03
494.96	32439.82
495.14	32477.27
495.32	32629.41
495.49	33130.28
495.67	33036.66
495.85	33326.89
496.02	33642.86
496.20	34220.97
496.38	34040.75
496.55	33897.98
496.73	34670.36
496.91	34183.52
497.09	34415.24
497.26	34850.58
497.44	34602.48
497.62	35047.18
497.79	35653.38
497.97	35138.46
498.14	35859.35
498.32	35880.41
498.50	35833.60
498.67	36559.17
498.85	36325.11
499.03	36250.22
499.20	36381.29
499.38	36882.16
499.56	36549.81
499.73	37010.89
499.91	37212.18
500.08	37455.59
500.26	37294.10
500.44	37888.59
500.61	38045.41
500.79	37853.48
500.97	38679.69
501.14	38153.07
501.32	38139.03
501.49	38445.64
501.67	38134.35
501.84	39007.37
502.02	38543.94
502.20	38749.91
502.37	38939.49
502.55	38733.53
502.72	39143.12
502.90	39346.75
503.07	39304.62
503.25	39704.85
503.43	39246.10
503.60	40119.12
503.78	40339.13
503.95	39920.18
504.13	40175.30
504.30	40765.11
504.48	40034.86
504.65	40786.18
504.83	40634.04
505.01	41256.62
505.18	41406.42
505.36	41282.37
505.53	41289.39
505.71	41755.16
505.88	41493.02
506.06	41317.48
506.23	41893.25
506.41	41481.31
506.58	41923.68
506.76	42057.09
506.93	42249.01
507.11	42089.85
507.28	42302.84
507.46	42405.83
507.63	42696.05
507.81	42628.18
507.98	42859.89
508.16	42939.47
508.33	43690.78
508.50	43217.99
508.68	43330.34
508.85	43634.61
509.03	43505.88
509.20	43695.46
509.38	44509.97
509.55	44030.16
509.73	44456.14
509.90	44385.92
510.08	44182.29
510.25	44411.67
510.42	44528.69
510.60	45265.96
510.77	45198.09
510.95	45333.84
511.12	44669.12
511.30	44968.71
511.47	44982.76
511.64	45230.85
511.82	45450.86
511.99	45268.30
512.17	45432.14
512.34	45776.20
512.51	46071.10
512.69	46539.21
512.86	45956.42
513.04	46382.40
513.21	46082.81
513.38	46312.18
513.56	46733.48
513.73	46401.12
513.90	47082.22
514.08	46787.31
514.25	46827.10
514.43	46997.96
514.60	47407.55
514.77	47178.18
514.95	47686.07
515.12	47622.88
515.29	47519.90
515.47	47711.82
515.64	47908.43
515.81	47674.37
515.99	48090.99
516.16	48294.61
516.33	48095.67
516.51	48573.14
516.68	48222.06
516.85	48191.63
517.03	48512.28
517.20	48697.19
517.37	48156.52
517.54	48566.12
517.72	48804.85
517.89	48715.91
518.06	49001.46
518.24	48966.35
518.41	49469.56
518.58	49233.17
518.75	49113.80
518.93	49279.98
519.10	49329.13
519.27	49317.43
519.45	49804.26
519.62	49720.00
519.79	49762.13
519.96	49825.32
520.14	50347.26
520.31	49918.95
520.48	50244.28
520.65	50033.63
520.83	50431.52
521.00	50335.56
521.17	50150.66
521.34	50740.47
521.52	50382.37
521.69	50632.81
521.86	50377.69
522.03	50864.52
522.20	51000.27
522.38	51213.26
522.55	51208.58
522.72	50913.67
522.89	50983.89
523.07	51585.41
523.24	51222.62
523.41	51550.30
523.58	51145.39
523.75	51664.99
523.92	51629.88
524.10	51793.71
524.27	52074.58
524.44	51917.76
524.61	51856.91
524.78	51978.62
524.96	52048.83
525.13	52385.87
525.30	52212.67
525.47	52264.16
525.64	52336.72
525.81	52357.78
525.98	52615.24
526.16	52486.51
526.33	52594.18
526.50	52928.87
526.67	52552.05
526.84	52760.36
527.01	52526.30
527.18	52502.90
527.36	52907.81
527.53	52898.45
527.70	53284.64
527.87	53123.14
528.04	52879.72
528.21	53399.32
528.38	53148.88
528.55	53682.53
528.72	53263.57
528.89	53256.55
529.07	53097.39
529.24	53167.61
529.41	53626.35
529.58	53558.48
529.75	53633.38
529.92	53647.42
530.09	53921.26
530.26	53769.13
530.43	53780.83
530.60	53710.61
530.77	53656.78
530.94	54349.58
531.11	53811.26
531.28	54061.69
531.46	54291.07
531.63	54422.14
531.80	54323.83
531.97	54298.09
532.14	54241.92
532.31	54356.60
532.48	54101.48
532.65	54621.08
532.82	54227.87
532.99	54665.55
533.16	54415.11
533.33	54649.17
533.50	54911.31
533.67	54756.83
533.84	54447.88
534.01	54878.54
534.18	54831.73
534.35	55178.13
534.52	54691.30
534.69	54979.18
534.86	54803.64
535.03	54864.50
535.20	55084.51
535.37	55306.86
535.54	55175.79
535.71	55297.50
535.88	55393.46
536.05	55297.50
536.22	55585.38
536.38	55690.71
536.55	55482.40
536.72	55320.90
536.89	55360.69
537.06	55470.70
537.23	55569.00
537.40	55402.82
537.57	55339.63
537.74	55657.94
537.91	55690.71
538.08	55662.62
538.25	55360.69
538.42	55763.26
538.59	56156.47
538.75	55868.59
538.92	55899.01
539.09	55983.27
539.26	56002.00
539.43	55952.85
539.60	56226.69
539.77	55842.84
539.94	56278.18
540.11	56271.16
540.28	56231.37
540.44	56126.05
540.61	56322.65
540.78	56399.89
540.95	56062.85
541.12	56266.48
541.29	56210.31
541.46	56292.22
541.62	56474.79
541.79	56563.73
541.96	56317.97
542.13	56671.39
542.30	56516.92
542.47	56647.99
542.63	56685.43
542.80	56757.99
542.97	56973.32
543.14	57116.09
543.31	57123.11
543.48	56945.23
543.64	57265.89
543.81	57261.21
543.98	57392.28
544.15	57228.44
544.32	57310.36
544.48	57317.38
544.65	57249.50
544.82	57195.67
544.99	57158.22
545.16	57382.91
545.32	57408.66
545.49	57647.39
545.66	57602.92
545.83	57595.90
546.00	57666.12
546.16	57528.03
546.33	57361.85
546.50	57427.38
546.67	57586.54
546.83	57312.70
547.00	57411.00
547.17	57434.41
547.34	58012.52
547.50	57773.78
547.67	58024.22
547.84	57946.98
548.00	58024.22
548.17	58054.65
548.34	57935.28
548.51	57984.43
548.67	58162.31
548.84	58089.76
549.01	57801.87
549.18	58014.86
549.34	58110.82
549.51	58150.61
549.68	58279.34
549.84	58218.49
550.01	58314.45
550.18	58157.63
550.34	58487.65
550.51	58260.62
550.68	58150.61
550.84	58089.76
551.01	58398.71
551.18	58518.07
551.34	58258.27
551.51	58471.26
551.68	58632.76
551.84	58508.71
552.01	58595.31
552.18	58527.44
552.34	58356.58
552.51	58424.45
552.68	58408.07
552.84	58398.71
553.01	58890.22
553.18	58864.47
553.34	58791.92
553.51	58557.86
553.67	58752.13
553.84	58960.44
554.01	58801.28
554.17	58742.77
554.34	58951.07
554.51	58780.21
554.67	58887.88
554.84	58944.05
555.00	59004.91
555.17	58820.00
555.33	58927.67
555.50	58691.27
555.67	58864.47
555.83	58951.07
556.00	59145.34
556.16	59128.95
556.33	59049.38
556.50	59082.14
556.66	59337.26
556.83	58927.67
556.99	59435.56
557.16	59510.46
557.32	59248.32
557.49	59339.60
557.65	59105.55
557.82	59435.56
557.98	59168.74
558.15	59210.87
558.32	59391.09
558.48	59372.37
558.65	59412.16
558.81	59442.59
558.98	59292.79
559.14	59433.22
559.31	59540.89
559.47	59571.32
559.64	59573.66
559.80	59503.44
559.97	59702.38
560.13	59512.80
560.30	59625.15
560.46	59604.08
560.63	59730.47
560.79	59686.00
560.96	59543.23
561.12	59859.20
561.29	59674.30
561.45	59597.06
561.61	59779.62
561.78	59791.33
561.94	59690.68
562.11	59655.57
562.27	59945.80
562.44	59777.28
562.60	59929.42
562.77	59861.54
562.93	59774.94
563.10	60086.23
563.26	59927.08
563.42	59875.58
563.59	60018.36
563.75	59807.71
563.92	59835.80
564.08	59725.79
564.24	59891.97
564.41	59999.63
564.57	59929.42
564.74	59987.93
564.90	60032.40
565.07	59971.55
565.23	59964.52
565.39	60060.49
565.56	60257.09
565.72	60104.96
565.88	60030.06
566.05	60032.40
566.21	60051.12
566.38	60011.34
566.54	60257.09
566.70	60292.20
566.87	60324.97
567.03	60072.19
567.19	60133.04
567.36	60097.94
567.52	60252.41
567.68	60425.61
567.85	60250.07
568.01	60406.89
568.17	60044.10
568.34	60481.78
568.50	60317.95
568.66	60175.17
568.83	60460.72
568.99	60140.07
569.15	60477.10
569.32	60413.91
569.48	60224.32
569.64	60423.27
569.81	60268.79
569.97	60205.60
570.13	60364.76
570.30	60341.35
570.46	60446.68
570.62	60418.59
570.78	60392.84
570.95	60327.31
571.11	60343.69
571.27	60346.03
571.43	60296.88
571.60	60369.44
571.76	60360.08
571.92	60575.40
572.09	60357.74
572.25	60523.91
572.41	60317.95
572.57	60451.36
572.74	60900.74
572.90	60470.08
573.06	60460.72
573.22	60369.44
573.38	60498.17
573.55	60404.55
573.71	60624.56
573.87	60652.64
574.03	60376.46
574.20	60519.23
574.36	60722.86
574.52	60753.29
574.68	60685.41
574.84	60947.55
575.01	60439.65
575.17	60647.96
575.33	60591.79
575.49	60413.91
575.65	60432.63
575.82	60762.65
575.98	60769.67
576.14	60629.24
576.30	60697.11
576.46	60472.42
576.62	60544.98
576.79	60519.23
576.95	60521.57
577.11	60673.71
577.27	60776.69
577.43	60692.43
577.59	60540.30
577.75	60495.83
577.92	60608.17
578.08	60643.28
578.24	60706.47
578.40	60940.53
578.56	60938.19
578.72	60638.60
578.88	61036.49
579.04	61057.56
579.21	60968.61
579.37	60949.89
579.53	60968.61
579.69	60432.63
579.85	60779.03
580.01	60711.16
580.17	60512.21
580.33	60587.11
580.49	60835.20
580.65	60828.18
580.82	60926.49
580.98	60708.82
581.14	60549.66
581.30	60825.84
581.46	60694.77
581.62	60772.01
581.78	60816.48
581.94	60954.57
582.10	60779.03
582.26	60757.97
582.42	60811.80
582.58	60612.85
582.74	60830.52
582.90	60741.58
583.06	60800.10
583.22	60640.94
583.38	60638.60
583.54	60692.43
583.70	61050.53
583.86	60884.36
584.02	60804.78
584.18	61010.74
584.34	60914.78
584.50	61071.60
584.66	60800.10
584.82	60622.22
584.98	61008.40
585.14	61202.67
585.30	60683.07
585.46	60947.55
585.62	61024.79
585.78	60807.12
585.94	60687.75
586.10	60949.89
586.26	60711.16
586.42	60774.35
586.58	61020.11
586.74	60917.12
586.90	60877.33
587.06	60835.20
587.22	61097.34
587.38	60994.36
587.54	61050.53
587.70	61268.20
587.86	60933.51
588.02	60938.19
588.18	60999.04
588.34	60992.02
588.49	61186.28
