SpectraSuite Data File
++++++++++++++++++++++++++++++++++++
Date: Fri Oct 25 11:25:32 EDT 2013
User: price-jones
Dark Spectrum Present: No
Reference Spectrum Present: No
Number of Sampled Component Spectra: 1
Spectrometers: USB2+H05261
Integration Time (usec): 100000 (USB2+H05261)
Spectra Averaged: 1 (USB2+H05261)
Boxcar Smoothing: 0 (USB2+H05261)
Correct for Electrical Dark: No (USB2+H05261)
Strobe/Lamp Enabled: No (USB2+H05261)
Correct for Detector Non-linearity: No (USB2+H05261)
Correct for Stray Light: No (USB2+H05261)
Number of Pixels in Processed Spectrum: 2048
>>>>>Begin Processed Spectral Data<<<<<
365.73	238.73
365.92	238.73
366.12	238.73
366.32	173.20
366.52	138.09
366.72	166.18
366.91	49.15
367.11	107.66
367.31	152.13
367.51	147.45
367.70	60.85
367.90	154.48
368.10	163.84
368.30	191.92
368.49	177.88
368.69	147.45
368.89	196.60
369.09	208.31
369.28	236.39
369.48	140.43
369.68	189.58
369.87	170.86
370.07	252.78
370.27	245.76
370.47	414.27
370.66	629.60
370.86	657.69
371.06	627.26
371.25	739.61
371.45	664.71
371.65	676.41
371.84	770.04
372.04	732.59
372.24	709.18
372.44	669.39
372.63	779.40
372.83	751.31
373.03	741.95
373.22	805.14
373.42	720.88
373.62	812.17
373.81	847.27
374.01	821.53
374.21	875.36
374.40	877.70
374.60	814.51
374.79	823.87
374.99	828.55
375.19	863.66
375.38	870.68
375.58	931.53
375.78	847.27
375.97	830.89
376.17	929.19
376.37	936.21
376.56	943.24
376.76	826.21
376.95	889.40
377.15	912.81
377.35	826.21
377.54	901.11
377.74	884.72
377.93	945.58
378.13	856.64
378.33	940.90
378.52	891.74
378.72	849.61
378.91	858.98
379.11	926.85
379.31	849.61
379.50	976.00
379.70	961.96
379.89	976.00
380.09	898.77
380.28	950.26
380.48	966.64
380.68	1050.90
380.87	1008.77
381.07	1039.20
381.26	1109.41
381.46	950.26
381.65	1069.62
381.85	1114.10
382.04	959.62
382.24	1093.03
382.43	954.94
382.63	1029.84
382.83	1062.60
383.02	1107.07
383.22	1001.75
383.41	1146.86
383.61	1121.12
383.80	1109.41
384.00	1160.91
384.19	1179.63
384.39	1076.65
384.58	1128.14
384.78	1132.82
384.97	1165.59
385.17	1074.31
385.36	1111.75
385.56	1095.37
385.75	1228.78
385.95	1170.27
386.14	1240.48
386.34	1224.10
386.53	1324.74
386.72	1149.20
386.92	1282.61
387.11	1249.85
387.31	1245.16
387.50	1174.95
387.70	1249.85
387.89	1277.93
388.09	1343.47
388.28	1289.64
388.48	1226.44
388.67	1306.02
388.86	1399.64
389.06	1296.66
389.25	1327.08
389.45	1343.47
389.64	1338.79
389.84	1348.15
390.03	1345.81
390.22	1397.30
390.42	1416.02
390.61	1322.40
390.81	1362.19
391.00	1376.24
391.19	1451.13
391.39	1331.76
391.58	1418.36
391.78	1490.92
391.97	1502.62
392.16	1465.18
392.36	1465.18
392.55	1465.18
392.75	1565.82
392.94	1544.75
393.13	1572.84
393.33	1558.80
393.52	1605.61
393.71	1654.76
393.91	1593.90
394.10	1533.05
394.29	1652.42
394.49	1624.33
394.68	1650.08
394.88	1675.82
395.07	1668.80
395.26	1666.46
395.46	1659.44
395.65	1720.29
395.84	1734.34
396.04	1930.94
396.23	1774.13
396.42	1685.19
396.62	1851.36
396.81	1799.87
397.00	1715.61
397.19	1827.96
397.39	1792.85
397.58	1788.17
397.77	1851.36
397.97	1813.92
398.16	1856.04
398.35	1926.26
398.55	1844.34
398.74	1942.64
398.93	1902.86
399.12	1921.58
399.32	1860.73
399.51	1900.52
399.70	2024.56
399.90	1991.80
400.09	2085.42
400.28	1994.14
400.47	2054.99
400.67	2094.78
400.86	2057.33
401.05	2017.54
401.24	2136.91
401.44	2132.23
401.63	2134.57
401.82	2073.71
402.01	2099.46
402.21	2101.80
402.40	2300.75
402.59	2258.62
402.78	2275.00
402.97	2218.83
403.17	2307.77
403.36	2328.83
403.55	2429.48
403.74	2286.70
403.93	2289.04
404.13	2394.37
404.32	2319.47
404.51	2312.45
404.70	2417.77
404.89	2284.36
405.09	2492.67
405.28	2471.61
405.47	2518.42
405.66	2523.10
405.85	2394.37
406.05	2471.61
406.24	2541.82
406.43	2644.81
406.62	2586.29
406.81	2736.09
407.00	2630.76
407.20	2532.46
407.39	2605.02
407.58	2593.31
407.77	2698.64
407.96	2747.79
408.15	2693.96
408.34	2726.72
408.54	2731.41
408.73	2782.90
408.92	2871.84
409.11	2796.94
409.30	2789.92
409.49	2946.73
409.68	2876.52
409.87	2939.71
410.07	2939.71
410.26	2897.58
410.45	2984.18
410.64	3045.04
410.83	3030.99
411.02	3157.38
411.21	3117.59
411.40	3145.68
411.59	3272.07
411.78	3143.34
411.98	3136.32
412.17	3260.37
412.36	3248.66
412.55	3279.09
412.74	3412.50
412.93	3574.00
413.12	3309.52
413.31	3482.72
413.50	3433.57
413.69	3400.80
413.88	3463.99
414.07	3445.27
414.26	3726.13
414.45	3698.05
414.64	3604.42
414.83	3730.81
415.02	3627.83
415.22	3882.95
415.41	3974.23
415.60	3901.67
415.79	3932.10
415.98	3971.89
416.17	3882.95
416.36	3915.72
416.55	4021.04
416.74	4016.36
416.93	3999.98
417.12	4037.42
417.31	4255.09
417.50	4035.08
417.69	4313.61
417.88	4262.12
418.07	4135.73
418.26	4332.33
418.45	4355.74
418.64	4486.81
418.83	4304.25
419.02	4407.23
419.21	4514.89
419.39	4528.94
419.58	4454.04
419.77	4390.84
419.96	4542.98
420.15	4610.86
420.34	4676.39
420.53	4559.36
420.72	4596.81
420.91	4753.63
421.10	4798.10
421.29	4732.56
421.48	4744.27
421.67	4662.35
421.86	4755.97
422.05	4711.50
422.24	4671.71
422.43	5013.43
422.61	4861.29
422.80	4985.34
422.99	4875.34
423.18	4910.44
423.37	4994.70
423.56	4924.49
423.75	4779.37
423.94	4823.84
424.13	4533.62
424.32	4652.98
424.50	4950.23
424.69	4954.91
424.88	5015.77
425.07	4961.94
425.26	4805.12
425.45	5048.54
425.64	4807.46
425.83	5078.96
426.01	5128.11
426.20	5121.09
426.39	5013.43
426.58	5046.20
426.77	5043.85
426.96	5179.61
427.15	4987.68
427.33	5121.09
427.52	5191.31
427.71	4990.02
427.90	5144.50
428.09	5268.55
428.28	5231.10
428.46	5313.02
428.65	5416.00
428.84	5490.90
429.03	5490.90
429.22	5252.16
429.40	5547.07
429.59	5472.17
429.78	5233.44
429.97	5287.27
430.16	5343.44
430.34	5584.52
430.53	5554.09
430.72	5640.69
430.91	5493.24
431.10	5579.84
431.28	5586.86
431.47	5664.10
431.66	5830.27
431.85	5689.84
432.03	5823.25
432.22	5921.56
432.41	5678.14
432.60	5879.43
432.79	5942.62
432.97	5771.76
433.16	5949.64
433.35	5881.77
433.54	6155.61
433.72	5961.34
433.91	6050.28
434.10	6235.19
434.28	5834.96
434.47	6083.05
434.66	6230.51
434.85	6277.32
435.03	6249.23
435.22	6253.91
435.41	6427.11
435.59	6333.49
435.78	6150.93
435.97	6448.18
436.16	6466.90
436.34	6342.85
436.53	6345.19
436.72	6623.72
436.90	6466.90
437.09	6609.67
437.28	6352.21
437.46	6438.81
437.65	6604.99
437.84	6766.49
438.02	6846.07
438.21	6647.12
438.40	6722.02
438.58	6937.35
438.77	7152.68
438.96	6832.02
439.14	7255.66
439.33	7133.95
439.52	7178.42
439.70	7222.89
439.89	7215.87
440.08	7288.43
440.26	7372.69
440.45	7384.39
440.63	7288.43
440.82	7538.87
441.01	7522.48
441.19	7606.74
441.38	7616.10
441.57	7726.11
441.75	7751.85
441.94	7751.85
442.12	7913.35
442.31	7995.27
442.50	7885.26
442.68	7941.44
442.87	7918.03
443.05	8065.49
443.24	8051.44
443.43	8205.92
443.61	8173.15
443.80	8360.39
443.98	8060.80
444.17	7831.43
444.35	8116.98
444.54	8215.28
444.73	8095.91
444.91	8243.37
445.10	8241.03
445.28	8344.01
445.47	8269.11
445.65	8252.73
445.84	8435.29
446.02	8362.73
446.21	8407.20
446.39	8327.63
446.58	8496.14
446.77	8454.02
446.95	8238.69
447.14	8444.65
447.32	8491.46
447.51	8418.91
447.69	8524.23
447.88	8416.57
448.06	8594.45
448.25	8430.61
448.43	8774.67
448.62	8769.99
448.80	8683.39
448.99	8549.98
449.17	8746.58
449.36	8624.87
449.54	8861.27
449.73	8947.87
449.91	8968.93
450.10	9076.60
450.28	9158.52
450.46	9153.84
450.65	8889.35
450.83	8898.72
451.02	8917.44
451.20	9160.86
451.39	9139.79
451.57	9142.13
451.76	8917.44
451.94	9144.47
452.13	9245.12
452.31	9284.91
452.49	9118.73
452.68	9376.19
452.86	9284.91
453.05	9479.17
453.23	9392.57
453.42	9270.86
453.60	9132.77
453.78	9462.79
453.97	9408.95
454.15	9385.55
454.34	9408.95
454.52	9750.67
454.70	9745.99
454.89	9895.78
455.07	9722.59
455.26	9792.80
455.44	9760.03
455.62	9947.28
455.81	9834.93
455.99	9956.64
456.17	10003.45
456.36	9973.02
456.54	9956.64
456.73	10197.71
456.91	10181.33
457.09	10328.78
457.28	10717.31
457.46	10242.18
457.64	10504.32
457.83	10284.31
458.01	10204.74
458.19	10677.52
458.38	10239.84
458.56	10534.75
458.74	10455.17
458.93	10717.31
459.11	10839.02
459.29	10677.52
459.48	10937.32
459.66	10923.28
459.84	10820.30
460.03	10951.37
460.21	10773.49
460.39	10984.13
460.57	10911.58
460.76	11115.20
460.94	11147.97
461.12	10918.60
461.31	11049.67
461.49	11005.20
461.67	11199.46
461.85	11419.47
462.04	11255.64
462.22	11824.39
462.40	11339.90
462.59	11459.26
462.77	11499.05
462.95	11545.86
463.13	11562.25
463.32	11590.33
463.50	11747.15
463.68	11789.28
463.86	11758.85
464.05	11609.06
464.23	11676.93
464.41	11840.77
464.59	11384.37
464.78	11967.16
464.96	11922.69
465.14	11744.81
465.32	11974.18
465.50	11990.56
465.69	12149.72
465.87	12154.40
466.05	11941.41
466.23	12135.68
466.41	12383.77
466.60	12521.87
466.78	12156.74
466.96	11992.90
467.14	12393.14
467.32	12351.01
467.51	12446.97
467.69	12088.87
467.87	12432.93
468.05	12655.28
468.23	12250.36
468.41	12297.17
468.60	12891.67
468.78	12732.51
468.96	12458.67
469.14	12973.59
469.32	12793.37
469.50	12374.41
469.69	12987.63
469.87	13015.72
470.05	13146.79
470.23	13036.78
470.41	13191.26
470.59	13238.07
470.77	12985.29
470.95	13013.38
471.14	13757.67
471.32	12929.12
471.50	13537.66
471.68	13621.92
471.86	13476.80
472.04	13710.86
472.22	14118.11
472.40	13832.57
472.58	13830.23
472.77	13652.34
472.95	14122.79
473.13	14438.76
473.31	13844.27
473.49	14050.24
473.67	14211.73
473.85	14246.84
474.03	14523.02
474.21	14555.79
474.39	14569.83
474.57	14651.75
474.75	14752.40
474.93	15009.86
475.12	15066.03
475.30	15117.52
475.48	14878.79
475.66	15124.54
475.84	15166.67
476.02	15220.50
476.20	15379.66
476.38	15786.91
476.56	15719.04
476.74	15829.04
476.92	15660.52
477.10	15934.37
477.28	16278.43
477.46	16102.89
477.64	15955.43
477.82	16388.43
478.00	16578.01
478.18	16781.64
478.36	16835.47
478.54	16762.92
478.72	17184.21
478.90	17235.70
479.08	17589.13
479.26	17813.82
479.44	17542.32
479.62	17736.58
479.80	17958.93
479.98	17923.82
480.16	18588.53
480.34	18139.15
480.52	18686.84
480.70	18424.70
480.88	18551.09
481.06	18775.78
481.24	18867.06
481.41	19229.84
481.59	19281.33
481.77	19527.09
481.95	19601.99
482.13	19889.87
482.31	19665.18
482.49	20264.36
482.67	20074.77
482.85	19981.15
483.03	20486.71
483.21	20580.33
483.39	20964.18
483.57	20688.00
483.74	21050.78
483.92	21172.49
484.10	21137.38
484.28	21448.67
484.46	21586.76
484.64	22242.11
484.82	21809.11
485.00	22171.89
485.18	22588.51
485.35	22469.14
485.53	22506.59
485.71	22637.66
485.89	23222.80
486.07	23372.59
486.25	23103.43
486.43	23484.94
486.61	23777.50
486.78	23929.64
486.96	23943.68
487.14	24334.55
487.32	24458.60
487.50	24872.87
487.68	25025.01
487.85	25127.99
488.03	25188.85
488.21	25832.49
488.39	25462.69
488.57	25989.31
488.75	26195.28
488.92	26162.51
489.10	26377.84
489.28	26817.86
489.46	27133.83
489.64	27215.75
489.81	27445.12
489.99	27761.09
490.17	27681.52
490.35	28074.73
490.53	28114.52
490.70	27974.08
490.88	28147.28
491.06	28781.57
491.24	28458.57
491.41	28854.12
491.59	29624.16
491.77	29249.67
491.95	29282.44
492.13	29647.57
492.30	30010.35
492.48	29682.67
492.66	30103.97
492.84	30143.76
493.01	30616.55
493.19	30244.40
493.37	30838.90
493.54	31281.26
493.72	31131.47
493.90	31199.34
494.08	31637.02
494.25	31740.00
494.43	32154.28
494.61	32229.18
494.79	32060.66
494.96	32039.59
495.14	32772.18
495.32	32882.19
495.49	33081.13
495.67	33067.09
495.85	33305.82
496.02	33708.40
496.20	33589.03
496.38	33134.96
496.55	33663.93
496.73	34904.41
496.91	34623.54
497.09	34850.58
497.26	34478.43
497.44	35061.22
497.62	35278.89
497.79	35227.40
497.97	34998.03
498.14	35433.37
498.32	35821.90
498.50	35718.92
498.67	36210.43
498.85	36512.36
499.03	36336.82
499.20	36215.11
499.38	36797.90
499.56	37090.47
499.73	36959.40
499.91	37104.51
500.08	37352.61
500.26	37371.33
500.44	37076.43
500.61	37619.43
500.79	38010.30
500.97	37888.59
501.14	38323.93
501.32	38436.28
501.49	38188.18
501.67	38424.57
501.84	38834.17
502.02	38220.95
502.20	39168.87
502.37	38866.94
502.55	38644.59
502.72	38899.70
502.90	39393.56
503.07	39154.82
503.25	39782.09
503.43	39075.24
503.60	39604.20
503.78	39599.52
503.95	40102.74
504.13	40086.36
504.30	40458.50
504.48	40304.02
504.65	40861.07
504.83	40933.63
505.01	40861.07
505.18	41062.36
505.36	41219.17
505.53	41244.92
505.71	41516.42
505.88	41596.00
506.06	41549.19
506.23	41572.60
506.41	41556.21
506.58	41881.55
506.76	42260.71
506.93	42244.33
507.11	41928.36
507.28	42349.65
507.46	42258.37
507.63	42197.52
507.81	43122.03
507.98	42433.91
508.16	43328.00
508.33	42911.38
508.50	43267.14
508.68	43358.42
508.85	43697.80
509.03	43519.92
509.20	43688.44
509.38	44240.81
509.55	44226.76
509.73	44336.77
509.90	44271.23
510.08	44320.38
510.25	44217.40
510.42	44196.34
510.60	44753.38
510.77	44858.71
510.95	45078.72
511.12	45024.89
511.30	45097.44
511.47	45153.62
511.64	45368.94
511.82	45762.15
511.99	45649.81
512.17	45619.38
512.34	45090.42
512.51	45783.22
512.69	46232.60
512.86	46153.02
513.04	46396.44
513.21	46546.23
513.38	46616.45
513.56	46618.79
513.73	46452.61
513.90	46703.05
514.08	46148.34
514.25	46829.44
514.43	47187.54
514.60	47009.66
514.77	47344.36
514.95	47559.69
515.12	47241.37
515.29	47590.11
515.47	47866.30
515.64	47854.59
515.81	47655.65
515.99	48278.23
516.16	48215.04
516.33	48079.28
516.51	48821.23
516.68	48163.54
516.85	48231.42
517.03	48774.42
517.20	48858.68
517.37	48552.07
517.54	48889.11
517.72	48666.76
517.89	48542.71
518.06	48945.28
518.24	48846.98
518.41	48884.43
518.58	49301.04
518.75	49151.25
518.93	49373.60
519.10	48987.41
519.27	49574.89
519.45	49399.35
519.62	49591.27
519.79	49982.14
519.96	49450.84
520.14	50211.51
520.31	49855.75
520.48	50068.74
520.65	50052.36
520.83	50504.08
521.00	50520.46
521.17	50176.40
521.34	50560.25
521.52	50527.48
521.69	50588.34
521.86	50843.46
522.03	50976.87
522.20	50754.52
522.38	51168.79
522.55	51210.92
522.72	51157.09
522.89	51103.26
523.07	51629.88
523.24	51126.66
523.41	51365.40
523.58	50810.69
523.75	51580.73
523.92	51779.67
524.10	51587.75
524.27	51803.08
524.44	51927.13
524.61	51894.36
524.78	51934.15
524.96	51814.78
525.13	52137.77
525.30	52215.01
525.47	52374.17
525.64	52219.69
525.81	52596.52
525.98	52402.25
526.16	52451.41
526.33	52390.55
526.50	52900.79
526.67	52481.83
526.84	52842.27
527.01	52690.14
527.18	52676.10
527.36	53017.82
527.53	52926.53
527.70	52868.02
527.87	53294.00
528.04	53078.67
528.21	53373.58
528.38	53139.52
528.55	53626.35
528.72	53336.13
528.89	53331.45
529.07	53141.86
529.24	53289.32
529.41	53198.04
529.58	53359.53
529.75	53492.94
529.92	53485.92
530.09	53748.06
530.26	53928.28
530.43	53860.41
530.60	53556.14
530.77	53972.75
530.94	53939.99
531.11	53860.41
531.28	53916.58
531.46	54059.35
531.63	54225.53
531.80	54152.97
531.97	54255.96
532.14	54387.03
532.31	54202.13
532.48	54307.45
532.65	54389.37
532.82	54487.67
532.99	54377.67
533.16	53972.75
533.33	54585.97
533.50	54775.56
533.67	54520.44
533.84	54471.29
534.01	54550.87
534.18	54600.02
534.35	55072.81
534.52	54864.50
534.69	55173.45
534.86	55318.56
535.03	54937.05
535.20	55192.17
535.37	55091.53
535.54	55260.05
535.71	55079.83
535.88	55250.69
536.05	55224.94
536.22	55339.63
536.38	55505.80
536.55	55313.88
536.72	55398.14
536.89	55318.56
537.06	55435.59
537.23	55737.52
537.40	55400.48
537.57	55522.19
537.74	55487.08
537.91	55676.66
538.08	55601.77
538.25	55632.19
538.42	55744.54
538.59	55917.74
538.75	55899.01
538.92	55922.42
539.09	56161.15
539.26	55880.29
539.43	56011.36
539.60	56250.09
539.77	56018.38
539.94	56336.69
540.11	56184.56
540.28	56268.82
540.44	56229.03
540.61	56296.91
540.78	56261.80
540.95	56210.31
541.12	56336.69
541.29	56177.54
541.46	56350.74
541.62	56477.13
541.79	56624.58
541.96	56142.43
542.13	56528.62
542.30	56502.87
542.47	56397.55
542.63	56701.82
542.80	56566.07
542.97	57289.29
543.14	57006.09
543.31	57160.56
543.48	57338.44
543.64	57354.83
543.81	57492.92
543.98	57097.37
544.15	57174.61
544.32	57258.87
544.48	57401.64
544.65	57303.34
544.82	57359.51
544.99	56996.73
545.16	57305.68
545.32	57406.32
545.49	57506.96
545.66	57382.91
545.83	57565.48
546.00	57633.35
546.16	57418.02
546.33	57401.64
546.50	57319.72
546.67	57394.62
546.83	57293.97
547.00	57609.95
547.17	57645.05
547.34	57563.14
547.50	57839.32
547.67	57829.96
547.84	57869.75
548.00	58054.65
548.17	58157.63
548.34	57902.51
548.51	57949.32
548.67	58220.83
548.84	58010.18
549.01	57776.12
549.18	58178.70
549.34	58171.67
549.51	58305.09
549.68	58361.26
549.84	58178.70
550.01	58328.49
550.18	58141.25
550.34	58267.64
550.51	58405.73
550.68	58405.73
550.84	57984.43
551.01	58480.63
551.18	58330.83
551.34	58347.21
551.51	58497.01
551.68	58588.29
551.84	58314.45
552.01	58396.37
552.18	58539.14
552.34	58351.90
552.51	58616.38
552.68	58480.63
552.84	58609.35
553.01	58787.24
553.18	58688.93
553.34	58740.42
553.51	58532.12
553.67	58733.40
553.84	58843.41
554.01	58621.06
554.17	58894.90
554.34	58843.41
554.51	58939.37
554.67	58951.07
554.84	58918.31
555.00	58838.73
555.17	58941.71
555.33	58894.90
555.50	58824.68
555.67	58756.81
555.83	59014.27
556.00	58986.18
556.16	59274.07
556.33	59196.83
556.50	59077.46
556.66	59316.20
556.83	59044.69
556.99	59054.06
557.16	59194.49
557.32	59454.29
557.49	59393.43
557.65	59185.13
557.82	59409.82
557.98	59461.31
558.15	59110.23
558.32	59363.01
558.48	59213.21
558.65	59379.39
558.81	59379.39
558.98	59454.29
559.14	59627.49
559.31	59447.27
559.47	59533.87
559.64	59578.34
559.80	59606.42
559.97	59646.21
560.13	59543.23
560.30	59671.96
560.46	59732.81
560.63	59629.83
560.79	59683.66
560.96	59880.27
561.12	59636.85
561.29	59566.63
561.45	59744.51
561.61	59744.51
561.78	59756.22
561.94	59578.34
562.11	59756.22
562.27	59777.28
562.44	59866.22
562.60	59978.57
562.77	59948.14
562.93	59707.07
563.10	59983.25
563.26	59824.09
563.42	59950.48
563.59	59889.63
563.75	59805.37
563.92	59838.14
564.08	59903.67
564.24	59943.46
564.41	60107.30
564.57	59945.80
564.74	60128.36
564.90	59929.42
565.07	60009.00
565.23	59955.16
565.39	59943.46
565.56	60142.41
565.72	59994.95
565.88	59990.27
566.05	59929.42
566.21	59959.84
566.38	60097.94
566.54	60093.25
566.70	60170.49
566.87	60327.31
567.03	60051.12
567.19	60310.92
567.36	60406.89
567.52	60207.94
567.68	60278.16
567.85	60266.45
568.01	60336.67
568.17	60175.17
568.34	60168.15
568.50	60193.90
568.66	60331.99
568.83	60303.90
568.99	60390.50
569.15	60346.03
569.32	60179.85
569.48	60179.85
569.64	60301.56
569.81	60336.67
569.97	60336.67
570.13	60259.43
570.30	60210.28
570.46	60357.74
570.62	60425.61
570.78	60353.05
570.95	60449.02
571.11	60467.74
571.27	60397.52
571.43	60437.31
571.60	60371.78
571.76	60474.76
571.92	60516.89
572.09	60355.39
572.25	60507.53
572.41	60650.30
572.57	60516.89
572.74	60687.75
572.90	60493.49
573.06	60650.30
573.22	60540.30
573.38	60477.10
573.55	60383.48
573.71	60610.51
573.87	60292.20
574.03	60369.44
574.20	60589.45
574.36	60481.78
574.52	60669.03
574.68	60481.78
574.84	60678.39
575.01	60643.28
575.17	60423.27
575.33	60491.15
575.49	60554.34
575.65	60612.85
575.82	60767.33
575.98	60570.72
576.14	60860.95
576.30	60753.29
576.46	60725.20
576.62	60807.12
576.79	60734.56
576.95	60594.13
577.11	60640.94
577.27	60608.17
577.43	60692.43
577.59	60512.21
577.75	60741.58
577.92	60552.00
578.08	60795.42
578.24	60853.93
578.40	60671.37
578.56	60772.01
578.72	60619.88
578.88	60846.91
579.04	60870.31
579.21	60505.19
579.37	60776.69
579.53	60795.42
579.69	60537.96
579.85	60741.58
580.01	60458.38
580.17	60594.13
580.33	60853.93
580.49	60846.91
580.65	60835.20
580.82	60825.84
580.98	60598.81
581.14	60645.62
581.30	60935.85
581.46	60879.67
581.62	60921.80
581.78	60654.98
581.94	60839.89
582.10	60921.80
582.26	60889.04
582.42	60851.59
582.58	60748.60
582.74	60891.38
582.90	60982.66
583.06	60928.83
583.22	60537.96
583.38	60795.42
583.54	60835.20
583.70	60919.46
583.86	60926.49
584.02	60842.23
584.18	61031.81
584.34	60940.53
584.50	60811.80
584.66	60774.35
584.82	60603.49
584.98	60917.12
585.14	60928.83
585.30	60910.10
585.46	61048.19
585.62	60816.48
585.78	61003.72
585.94	60746.26
586.10	60753.29
586.26	60996.70
586.42	60989.68
586.58	60945.21
586.74	60926.49
586.90	60874.99
587.06	60842.23
587.22	60963.93
587.38	60755.63
587.54	61064.58
587.70	61090.32
587.86	60982.66
588.02	60947.55
588.18	60985.00
588.34	60940.53
588.49	60917.12
