SpectraSuite Data File
++++++++++++++++++++++++++++++++++++
Date: Fri Oct 25 10:43:15 EDT 2013
User: price-jones
Dark Spectrum Present: No
Reference Spectrum Present: No
Number of Sampled Component Spectra: 1
Spectrometers: USB2+H05261
Integration Time (usec): 100000 (USB2+H05261)
Spectra Averaged: 1 (USB2+H05261)
Boxcar Smoothing: 0 (USB2+H05261)
Correct for Electrical Dark: No (USB2+H05261)
Strobe/Lamp Enabled: No (USB2+H05261)
Correct for Detector Non-linearity: No (USB2+H05261)
Correct for Stray Light: No (USB2+H05261)
Number of Pixels in Processed Spectrum: 2048
>>>>>Begin Processed Spectral Data<<<<<
365.73	152.13
365.92	152.13
366.12	152.13
366.32	0.00
366.52	37.45
366.72	72.56
366.91	0.00
367.11	18.72
367.31	0.00
367.51	37.45
367.70	0.00
367.90	119.37
368.10	21.06
368.30	0.00
368.49	37.45
368.69	56.17
368.89	56.17
369.09	4.68
369.28	9.36
369.48	58.51
369.68	84.26
369.87	107.66
370.07	110.01
370.27	145.11
370.47	196.60
370.66	372.15
370.86	416.62
371.06	461.09
371.25	503.22
371.45	524.28
371.65	423.64
371.84	404.91
372.04	421.30
372.24	430.66
372.44	486.83
372.63	500.87
372.83	500.87
373.03	566.41
373.22	470.45
373.42	528.96
373.62	468.11
373.81	594.50
374.01	667.05
374.21	559.39
374.40	561.73
374.60	606.20
374.79	573.43
374.99	580.45
375.19	660.03
375.38	561.73
375.58	573.43
375.78	622.58
375.97	645.99
376.17	627.26
376.37	552.37
376.56	641.31
376.76	550.03
376.95	592.16
377.15	706.84
377.35	650.67
377.54	645.99
377.74	613.22
377.93	676.41
378.13	685.78
378.33	636.63
378.52	566.41
378.72	631.94
378.91	578.11
379.11	601.52
379.31	671.73
379.50	657.69
379.70	723.23
379.89	638.97
380.09	676.41
380.28	627.26
380.48	709.18
380.68	685.78
380.87	638.97
381.07	706.84
381.26	718.54
381.46	699.82
381.65	727.91
381.85	706.84
382.04	730.25
382.24	718.54
382.43	741.95
382.63	674.07
382.83	734.93
383.02	730.25
383.22	746.63
383.41	669.39
383.61	734.93
383.80	725.57
384.00	873.02
384.19	748.97
384.39	744.29
384.58	805.14
384.78	814.51
384.97	791.10
385.17	746.63
385.36	823.87
385.56	751.31
385.75	786.42
385.95	753.65
386.14	767.70
386.34	809.83
386.53	889.40
386.72	887.06
386.92	833.23
387.11	854.30
387.31	896.43
387.50	877.70
387.70	786.42
387.89	828.55
388.09	807.48
388.28	884.72
388.48	880.04
388.67	924.51
388.86	936.21
389.06	1032.18
389.25	1029.84
389.45	1006.43
389.64	957.28
389.84	1029.84
390.03	1022.81
390.22	1048.56
390.42	952.60
390.61	1029.84
390.81	1027.50
391.00	1032.18
391.19	1048.56
391.39	1071.97
391.58	1062.60
391.78	1057.92
391.97	1158.57
392.16	964.30
392.36	997.07
392.55	1027.50
392.75	980.68
392.94	1006.43
393.13	1076.65
393.33	1001.75
393.52	997.07
393.71	1074.31
393.91	1074.31
394.10	1081.33
394.29	1109.41
394.49	1111.75
394.68	1217.08
394.88	1191.33
395.07	1282.61
395.26	1242.82
395.46	1196.01
395.65	1193.67
395.84	1324.74
396.04	1280.27
396.23	1207.72
396.42	1174.95
396.62	1158.57
396.81	1188.99
397.00	1137.50
397.19	1224.10
397.39	1336.45
397.58	1413.68
397.77	1310.70
397.97	1390.28
398.16	1404.32
398.35	1476.88
398.55	1507.30
398.74	1425.39
398.93	1558.80
399.12	1556.46
399.32	1472.20
399.51	1521.35
399.70	1561.14
399.90	1547.09
400.09	1565.82
400.28	1631.35
400.47	1610.29
400.67	1584.54
400.86	1673.48
401.05	1666.46
401.24	1629.01
401.44	1624.33
401.63	1729.66
401.82	1699.23
402.01	1722.63
402.21	1736.68
402.40	1743.70
402.59	1750.72
402.78	1842.00
402.97	1755.40
403.17	1727.32
403.36	1657.10
403.55	1806.89
403.74	1884.13
403.93	1926.26
404.13	1881.79
404.32	1781.15
404.51	1874.77
404.70	1952.01
404.89	1968.39
405.09	1858.39
405.28	1930.94
405.47	1949.67
405.66	1980.09
405.85	2036.27
406.05	1893.49
406.24	1994.14
406.43	2073.71
406.62	2069.03
406.81	2162.66
407.00	2022.22
407.20	2054.99
407.39	2045.63
407.58	2127.55
407.77	2200.10
407.96	2282.02
408.15	2202.44
408.34	2237.55
408.54	2221.17
408.73	2211.81
408.92	2359.26
409.11	2260.96
409.30	2282.02
409.49	2296.07
409.68	2202.44
409.87	2209.47
410.07	2263.30
410.26	2392.03
410.45	2363.94
410.64	2511.39
410.83	2420.11
411.02	2560.55
411.21	2586.29
411.40	2541.82
411.59	2567.57
411.78	2530.12
411.98	2677.57
412.17	2715.02
412.36	2684.59
412.55	2846.09
412.74	2726.72
412.93	2689.28
413.12	2700.98
413.31	2904.60
413.50	2757.15
413.69	2850.77
413.88	3021.63
414.07	2789.92
414.26	2925.67
414.45	2946.73
414.64	2944.39
414.83	2998.23
415.02	3028.65
415.22	3141.00
415.41	2960.78
415.60	3124.62
415.79	3297.81
415.98	3318.88
416.17	3267.39
416.36	3199.51
416.55	3215.90
416.74	3328.24
416.93	3201.85
417.12	3314.20
417.31	3353.99
417.50	3260.37
417.69	3400.80
417.88	3365.69
418.07	3400.80
418.26	3456.97
418.45	3508.46
418.64	3595.06
418.83	3686.34
419.02	3529.53
419.21	3644.21
419.39	3674.64
419.58	3566.98
419.77	3517.83
419.96	3618.47
420.15	3751.88
420.34	3721.45
420.53	3700.39
420.72	3744.86
420.91	3812.73
421.10	3817.41
421.29	3889.97
421.48	3880.61
421.67	3913.38
421.86	3810.39
422.05	3758.90
422.24	3733.15
422.43	3859.54
422.61	3775.28
422.80	3906.35
422.99	4053.81
423.18	3747.20
423.37	3969.55
423.56	3878.27
423.75	3981.25
423.94	3880.61
424.13	3632.51
424.32	3691.02
424.50	3815.07
424.69	3934.44
424.88	3990.61
425.07	3929.76
425.26	3913.38
425.45	3939.12
425.64	3967.21
425.83	3894.65
426.01	4145.09
426.20	3953.16
426.39	3974.23
426.58	3927.42
426.77	3964.87
426.96	3964.87
427.15	3899.33
427.33	4119.34
427.52	4084.23
427.71	4084.23
427.90	4166.15
428.09	4063.17
428.28	4224.67
428.46	4194.24
428.65	4067.85
428.84	4308.93
429.03	4276.16
429.22	4081.89
429.40	4138.07
429.59	4021.04
429.78	3899.33
429.97	3901.67
430.16	4093.60
430.34	4187.22
430.53	4105.30
430.72	4070.19
430.91	4273.82
431.10	4353.40
431.28	4456.38
431.47	4650.64
431.66	4500.85
431.85	4641.28
432.03	4641.28
432.22	4608.51
432.41	4617.88
432.60	4957.25
432.79	4587.45
432.97	4662.35
433.16	4610.86
433.35	4582.77
433.54	4538.30
433.72	4559.36
433.91	4660.01
434.10	4706.82
434.28	4758.31
434.47	4858.95
434.66	4973.64
434.85	4870.65
435.03	4952.57
435.22	5034.49
435.41	5111.73
435.59	5116.41
435.78	5132.79
435.97	5062.58
436.16	5261.52
436.34	5177.26
436.53	5013.43
436.72	5184.29
436.90	4966.62
437.09	5081.30
437.28	5130.45
437.46	5214.71
437.65	5165.56
437.84	5296.63
438.02	5125.77
438.21	5268.55
438.40	5355.15
438.58	5282.59
438.77	5305.99
438.96	5462.81
439.14	5621.97
439.33	5486.22
439.52	5717.93
439.70	5668.78
439.89	5713.25
440.08	5638.35
440.26	5806.87
440.45	5797.51
440.63	5863.04
440.82	6146.25
441.01	6040.92
441.19	5865.38
441.38	5998.79
441.57	5975.39
441.75	6314.77
441.94	6310.08
442.12	6396.68
442.31	6394.34
442.50	6310.08
442.68	6256.25
442.87	6228.17
443.05	6497.33
443.24	6431.79
443.43	6450.52
443.61	6399.02
443.80	6691.59
443.98	6270.30
444.17	6228.17
444.35	6448.18
444.54	6743.08
444.73	6466.90
444.91	6548.82
445.10	6373.28
445.28	6445.84
445.47	6401.37
445.65	6429.45
445.84	6485.62
446.02	6780.53
446.21	6668.19
446.39	6551.16
446.58	6684.57
446.77	6761.81
446.95	6562.86
447.14	6764.15
447.32	6853.09
447.51	6707.98
447.69	6775.85
447.88	6595.63
448.06	6707.98
448.25	6539.46
448.43	6836.70
448.62	6803.94
448.80	6712.66
448.99	6731.38
449.17	6773.51
449.36	6717.34
449.54	6888.20
449.73	7155.02
449.91	6839.05
450.10	7052.03
450.28	7368.01
450.46	7370.35
450.65	7246.30
450.83	7197.15
451.02	7047.35
451.20	7159.70
451.39	7391.41
451.57	7328.22
451.76	7239.28
451.94	7279.07
452.13	7318.86
452.31	7339.92
452.49	7028.63
452.68	7339.92
452.86	7117.57
453.05	7363.33
453.23	7325.88
453.42	7073.10
453.60	7290.77
453.78	7494.40
453.97	7363.33
454.15	7398.43
454.34	7258.00
454.52	7742.49
454.70	7515.46
454.89	7515.46
455.07	7676.96
455.26	7667.60
455.44	7913.35
455.62	7707.38
455.81	7772.92
455.99	7735.47
456.17	7920.37
456.36	7798.66
456.54	7829.09
456.73	7913.35
456.91	8159.11
457.09	8217.62
457.28	8175.49
457.46	8079.53
457.64	8032.72
457.83	7953.14
458.01	7946.12
458.19	8112.30
458.38	8170.81
458.56	8428.27
458.74	8088.89
458.93	8182.51
459.11	8439.97
459.29	8271.45
459.48	8173.15
459.66	8327.63
459.84	8276.13
460.03	8671.68
460.21	8507.85
460.39	8636.58
460.57	8547.64
460.76	8594.45
460.94	8901.06
461.12	8519.55
461.31	8585.08
461.49	8688.07
461.67	8571.04
461.85	8938.51
462.04	8594.45
462.22	9444.06
462.40	8919.78
462.59	8812.12
462.77	8835.52
462.95	9036.81
463.13	8936.17
463.32	8894.04
463.50	8971.27
463.68	8870.63
463.86	8826.16
464.05	8753.60
464.23	9055.53
464.41	9001.70
464.59	8924.46
464.78	9069.58
464.96	9057.87
465.14	8896.38
465.32	9256.82
465.50	9341.08
465.69	9399.59
465.87	9418.32
466.05	9226.39
466.23	9036.81
466.41	8980.64
466.60	9439.38
466.78	9217.03
466.96	9191.28
467.14	9231.07
467.32	9275.54
467.51	9551.73
467.69	9034.47
467.87	9497.89
468.05	9467.47
468.23	9439.38
468.41	9451.08
468.60	9385.55
468.78	9757.69
468.96	9500.23
469.14	9645.35
469.32	9804.50
469.50	9451.08
469.69	9748.33
469.87	9811.53
470.05	9708.54
470.23	9715.56
470.41	9720.24
470.59	9788.12
470.77	9799.82
470.95	10071.33
471.14	10106.43
471.32	9933.23
471.50	10244.52
471.68	10197.71
471.86	10431.77
472.04	10143.88
472.22	10614.33
472.40	10169.63
472.58	10431.77
472.77	10604.97
472.95	10616.67
473.13	10970.09
473.31	10593.26
473.49	10504.32
473.67	10696.25
473.85	10633.05
474.03	10815.62
474.21	10977.11
474.39	11094.14
474.57	11201.80
474.75	11082.44
474.93	11234.57
475.12	11019.24
475.30	11375.00
475.48	11077.76
475.66	11110.52
475.84	11367.98
476.02	11424.15
476.20	11454.58
476.38	11618.42
476.56	11859.49
476.74	11639.48
476.92	11992.90
477.10	11988.22
477.28	12159.08
477.46	12123.98
477.64	12149.72
477.82	12226.96
478.00	12465.69
478.18	12451.65
478.36	12645.91
478.54	12781.67
478.72	12566.34
478.90	13029.76
479.08	13060.19
479.26	13174.88
479.44	13207.64
479.62	13200.62
479.80	13418.29
479.98	13334.03
480.16	13572.77
480.34	13371.48
480.52	13757.67
480.70	13666.39
480.88	13467.44
481.06	13973.00
481.24	13884.06
481.41	14073.64
481.59	14295.99
481.77	14438.76
481.95	14408.34
482.13	14618.99
482.31	14445.79
482.49	14848.36
482.67	15059.01
482.85	15051.99
483.03	15082.41
483.21	15330.51
483.39	15463.92
483.57	15136.24
483.74	15520.09
483.92	15487.32
484.10	15599.67
484.28	15754.15
484.46	15920.32
484.64	16250.34
484.82	16205.87
485.00	16037.35
485.18	16437.58
485.35	16379.07
485.53	16098.20
485.71	16088.84
485.89	16545.25
486.07	16184.80
486.25	16568.65
486.43	16727.81
486.61	17043.78
486.78	17441.67
486.96	17429.97
487.14	17778.71
487.32	17867.65
487.50	17795.09
487.68	17949.57
487.85	18291.29
488.03	18515.98
488.21	18497.25
488.39	18431.72
488.57	18640.03
488.75	18918.55
488.92	19103.45
489.10	19335.17
489.28	19384.32
489.46	19702.63
489.64	19620.71
489.81	20156.69
489.99	20100.52
490.17	20320.53
490.35	20362.66
490.53	20287.76
490.70	20163.72
490.88	20332.23
491.06	20783.96
491.24	20737.15
491.41	20390.75
491.59	20812.04
491.77	20936.09
491.95	21034.39
492.13	21453.35
492.30	21289.51
492.48	21745.92
492.66	21799.75
492.84	21869.97
493.01	22160.19
493.19	21841.88
493.37	22464.46
493.54	22218.71
493.72	22277.22
493.90	22277.22
494.08	22885.76
494.25	23461.53
494.43	23360.89
494.61	23206.41
494.79	23332.80
494.96	23608.98
495.14	23396.00
495.32	23742.39
495.49	23435.78
495.67	23917.93
495.85	23789.20
496.02	24283.06
496.20	24151.99
496.38	24437.53
496.55	24999.26
496.73	24912.66
496.91	24568.60
497.09	25085.86
497.26	24959.47
497.44	25137.35
497.62	25408.86
497.79	25338.64
497.97	24919.68
498.14	25626.53
498.32	25493.12
498.50	25710.78
498.67	25771.64
498.85	26071.23
499.03	26256.13
499.20	26122.72
499.38	26429.33
499.56	26256.13
499.73	26202.30
499.91	26469.12
500.08	26398.90
500.26	26583.80
500.44	26335.71
500.61	26583.80
500.79	26749.98
500.97	26834.24
501.14	26998.08
501.32	26759.34
501.49	27243.84
501.67	27225.11
501.84	27337.46
502.02	27089.36
502.20	27445.12
502.37	27990.47
502.55	27740.03
502.72	27962.38
502.90	27955.36
503.07	27889.82
503.25	28112.17
503.43	28119.20
503.60	28212.82
503.78	28374.31
503.95	28119.20
504.13	28283.03
504.30	28755.82
504.48	28664.54
504.65	28788.59
504.83	29158.39
505.01	29237.97
505.18	28584.96
505.36	29474.37
505.53	29376.06
505.71	29504.79
505.88	29944.81
506.06	29385.43
506.23	29474.37
506.41	29640.54
506.58	29710.76
506.76	29954.18
506.93	29783.32
507.11	29441.60
507.28	29717.78
507.46	29790.34
507.63	29956.52
507.81	30237.38
507.98	29621.82
508.16	30291.21
508.33	30593.14
508.50	30621.23
508.68	30916.14
508.85	30946.56
509.03	30869.33
509.20	30897.41
509.38	31372.54
509.55	31351.48
509.73	31297.64
509.90	31283.60
510.08	31854.69
510.25	31328.07
510.42	31267.22
510.60	31421.69
510.77	31967.04
510.95	31906.18
511.12	32137.90
511.30	32055.98
511.47	32456.21
511.64	32444.51
511.82	32449.19
511.99	32219.81
512.17	32072.36
512.34	32070.02
512.51	32362.59
512.69	32662.18
512.86	32638.77
513.04	32936.02
513.21	32486.64
513.38	32828.35
513.56	32837.72
513.73	32966.45
513.90	32699.62
514.08	32528.77
514.25	32912.61
514.43	33141.99
514.60	33041.34
514.77	33165.39
514.95	33673.29
515.12	33624.14
515.29	33448.60
515.47	34003.30
515.64	33909.68
515.81	33521.15
515.99	33984.58
516.16	33401.79
516.33	33350.29
516.51	33638.18
516.68	33130.28
516.85	33502.43
517.03	33778.61
517.20	34141.39
517.37	34202.25
517.54	33989.26
517.72	34038.41
517.89	34059.48
518.06	33867.55
518.24	34167.14
518.41	33940.11
518.58	34298.21
518.75	34375.45
518.93	34785.04
519.10	34499.50
519.27	35211.02
519.45	34822.49
519.62	34916.11
519.79	35295.28
519.96	35693.17
520.14	35409.96
520.31	35133.78
520.48	35295.28
520.65	35517.63
520.83	35173.57
521.00	36077.02
521.17	36144.89
521.34	36105.10
521.52	35744.66
521.69	36212.77
521.86	35981.06
522.03	36067.66
522.20	36231.49
522.38	36201.07
522.55	36252.56
522.72	36467.89
522.89	36196.38
523.07	36982.80
523.24	36589.59
523.41	36973.44
523.58	36919.61
523.75	37282.39
523.92	36760.45
524.10	36858.76
524.27	37273.03
524.44	37031.96
524.61	37457.93
524.78	37310.48
524.96	37422.83
525.13	37530.49
525.30	37729.44
525.47	38106.26
525.64	37581.98
525.81	37617.09
525.98	37394.74
526.16	37013.23
526.33	37029.62
526.50	37200.47
526.67	37439.21
526.84	37387.72
527.01	37504.74
527.18	37801.99
527.36	38059.45
527.53	38328.61
527.70	38127.33
527.87	38354.36
528.04	38291.16
528.21	38321.59
528.38	38632.88
528.55	39100.99
528.72	38693.74
528.89	38756.93
529.07	39054.18
529.24	38665.65
529.41	38485.43
529.58	38855.23
529.75	38792.04
529.92	39100.99
530.09	38801.40
530.26	38948.85
530.43	39093.97
530.60	38698.42
530.77	38946.51
530.94	39386.54
531.11	39332.70
531.28	39480.16
531.46	39370.15
531.63	39250.78
531.80	39283.55
531.97	39058.86
532.14	38735.87
532.31	39374.83
532.48	39068.22
532.65	39814.85
532.82	39215.68
532.99	39714.21
533.16	39564.42
533.33	39805.49
533.50	39585.48
533.67	39929.54
533.84	39978.69
534.01	39768.04
534.18	39730.59
534.35	40198.70
534.52	40041.88
534.69	40395.31
534.86	40622.34
535.03	40287.64
535.20	40704.26
535.37	40893.84
535.54	40751.07
535.71	40519.35
535.88	40486.59
536.05	40746.39
536.22	40926.61
536.38	40797.88
536.55	40788.52
536.72	40854.05
536.89	40325.09
537.06	40687.87
537.23	41085.76
537.40	40973.42
537.57	41273.01
537.74	40989.80
537.91	41432.16
538.08	41104.49
538.25	40903.20
538.42	40718.30
538.59	41614.72
538.75	41027.25
538.92	40924.27
539.09	41160.66
539.26	41542.17
539.43	41436.84
539.60	41343.22
539.77	41284.71
539.94	41404.08
540.11	41289.39
540.28	41258.96
540.44	41736.43
540.61	41593.66
540.78	41460.25
540.95	41312.80
541.12	41464.93
541.29	41804.31
541.46	41603.02
541.62	41897.93
541.79	42054.75
541.96	41177.04
542.13	41750.48
542.30	42110.92
542.47	42141.35
542.63	42012.62
542.80	42342.63
542.97	42464.34
543.14	42335.61
543.31	42564.98
543.48	42525.19
543.64	42689.03
543.81	42529.87
543.98	42658.60
544.15	42351.99
544.32	42965.21
544.48	43192.25
544.65	42918.40
544.82	42902.02
544.99	42443.27
545.16	42731.16
545.32	42485.40
545.49	43292.89
545.66	43210.97
545.83	42780.31
546.00	43079.90
546.16	43075.22
546.33	43012.02
546.50	42454.98
546.67	43042.45
546.83	42752.23
547.00	43023.73
547.17	43171.18
547.34	42857.55
547.50	43166.50
547.67	43613.54
547.84	43714.19
548.00	43475.45
548.17	43901.43
548.34	43358.42
548.51	44076.97
548.67	44210.38
548.84	43487.15
549.01	43540.99
549.18	43545.67
549.34	43725.89
549.51	43840.57
549.68	43606.52
549.84	43473.11
550.01	44154.21
550.18	43517.58
550.34	44165.91
550.51	43976.33
550.68	44156.55
550.84	43590.14
551.01	43957.60
551.18	43908.45
551.34	43922.49
551.51	43997.39
551.68	43803.13
551.84	44051.22
552.01	44051.22
552.18	44144.84
552.34	43676.74
552.51	44130.80
552.68	44170.59
552.84	44240.81
553.01	44196.34
553.18	44229.10
553.34	44032.50
553.51	44074.63
553.67	44634.02
553.84	44603.59
554.01	44531.03
554.17	44570.82
554.34	44914.88
554.51	44802.53
554.67	44669.12
554.84	44800.19
555.00	44179.95
555.17	44666.78
555.33	44704.23
555.50	44524.01
555.67	44542.74
555.83	44472.52
556.00	44706.57
556.16	45160.64
556.33	44746.36
556.50	44968.71
556.66	44697.21
556.83	44514.65
556.99	45406.39
557.16	44376.56
557.32	44837.64
557.49	44940.63
557.65	44715.93
557.82	44830.62
557.98	45219.15
558.15	44701.89
558.32	45003.82
558.48	44720.62
558.65	45141.91
558.81	44694.87
558.98	44851.69
559.14	45226.17
559.31	45038.93
559.47	44905.52
559.64	44978.07
559.80	45104.46
559.97	44938.29
560.13	44722.96
560.30	45265.96
560.46	44879.77
560.63	45221.49
560.79	45626.40
560.96	45656.83
561.12	45345.54
561.29	45165.32
561.45	45034.25
561.61	45574.91
561.78	45076.38
561.94	45085.74
562.11	45071.70
562.27	45207.45
562.44	45387.67
562.60	45523.42
562.77	45249.58
562.93	45488.31
563.10	45610.02
563.26	45223.83
563.42	45167.66
563.59	44985.10
563.75	45076.38
563.92	45645.13
564.08	45925.99
564.24	45457.88
564.41	45523.42
564.57	45179.36
564.74	45310.43
564.90	45347.88
565.07	45287.03
565.23	45621.72
565.39	45549.17
565.56	45537.46
565.72	45500.01
565.88	45392.35
566.05	45577.25
566.21	45125.53
566.38	45766.84
566.54	45530.44
566.70	46218.56
566.87	45603.00
567.03	45748.11
567.19	45942.38
567.36	45909.61
567.52	45705.98
567.68	45511.72
567.85	45359.58
568.01	45745.77
568.17	45750.45
568.34	45720.02
568.50	45635.77
568.66	45392.35
568.83	45677.90
568.99	45382.99
569.15	45638.11
569.32	45647.47
569.48	45677.90
569.64	46131.96
569.81	46136.64
569.97	46099.19
570.13	45525.76
570.30	45427.46
570.46	45242.56
570.62	45542.14
570.78	45027.23
570.95	45549.17
571.11	45764.49
571.27	45600.66
571.43	45621.72
571.60	45455.54
571.76	45668.53
571.92	45794.92
572.09	46047.70
572.25	45724.71
572.41	46344.95
572.57	45979.82
572.74	46014.93
572.90	45968.12
573.06	46019.61
573.22	45780.88
573.38	45963.44
573.55	45553.85
573.71	45811.31
573.87	45656.83
574.03	46382.40
574.20	45598.32
574.36	45741.09
574.52	45720.02
574.68	45708.32
574.84	45972.80
575.01	45698.96
575.17	45933.01
575.33	45595.98
575.49	45518.74
575.65	45556.19
575.82	46003.23
575.98	45965.78
576.14	46342.61
576.30	46213.88
576.46	45769.18
576.62	45549.17
576.79	45645.13
576.95	45401.71
577.11	45991.53
577.27	46047.70
577.43	45963.44
577.59	45394.69
577.75	45975.14
577.92	45439.16
578.08	45537.46
578.24	45202.77
578.40	45682.58
578.56	45900.25
578.72	45951.74
578.88	45977.48
579.04	45991.53
579.21	46085.15
579.37	45429.80
579.53	45467.25
579.69	45511.72
579.85	45865.14
580.01	45977.48
580.17	45949.40
580.33	46043.02
580.49	45916.63
580.65	45921.31
580.82	45928.33
580.98	45865.14
581.14	45223.83
581.30	46270.05
581.46	46213.88
581.62	46295.80
581.78	45729.39
581.94	46415.16
582.10	46089.83
582.26	45762.15
582.42	46036.00
582.58	45846.41
582.74	45773.86
582.90	46066.42
583.06	46181.11
583.22	45956.42
583.38	46417.50
583.54	46293.46
583.70	46169.41
583.86	45855.78
584.02	45947.06
584.18	46394.10
584.34	46223.24
584.50	46251.33
584.66	46188.13
584.82	45972.80
584.98	46129.62
585.14	46033.66
585.30	45757.47
585.46	46003.23
585.62	45851.09
585.78	45841.73
585.94	45778.54
586.10	45352.56
586.26	45727.05
586.42	45989.19
586.58	46237.28
586.74	45986.85
586.90	45841.73
587.06	45963.44
587.22	46431.55
587.38	45860.46
587.54	45895.56
587.70	45900.25
587.86	45949.40
588.02	45801.94
588.18	45834.71
588.34	45961.10
588.49	45684.92
588.65	45265.96
588.81	45961.10
588.97	46089.83
589.13	45352.56
589.29	45778.54
589.45	45446.18
589.61	45869.82
589.77	46209.20
589.93	46138.98
