SpectraSuite Data File
++++++++++++++++++++++++++++++++++++
Date: Fri Oct 25 10:44:40 EDT 2013
User: price-jones
Dark Spectrum Present: No
Reference Spectrum Present: No
Number of Sampled Component Spectra: 1
Spectrometers: USB2+H05261
Integration Time (usec): 100000 (USB2+H05261)
Spectra Averaged: 1 (USB2+H05261)
Boxcar Smoothing: 0 (USB2+H05261)
Correct for Electrical Dark: No (USB2+H05261)
Strobe/Lamp Enabled: No (USB2+H05261)
Correct for Detector Non-linearity: No (USB2+H05261)
Correct for Stray Light: No (USB2+H05261)
Number of Pixels in Processed Spectrum: 2048
>>>>>Begin Processed Spectral Data<<<<<
365.73	222.35
365.92	222.35
366.12	222.35
366.32	4.68
366.52	74.90
366.72	46.81
366.91	11.70
367.11	0.00
367.31	37.45
367.51	84.26
367.70	4.68
367.90	39.79
368.10	32.77
368.30	28.09
368.49	25.75
368.69	65.54
368.89	49.15
369.09	72.56
369.28	58.51
369.48	2.34
369.68	140.43
369.87	86.60
370.07	74.90
370.27	124.05
370.47	227.03
370.66	294.91
370.86	402.57
371.06	461.09
371.25	500.87
371.45	425.98
371.65	477.47
371.84	388.53
372.04	458.74
372.24	456.40
372.44	465.77
372.63	503.22
372.83	482.15
373.03	479.81
373.22	484.49
373.42	526.62
373.62	500.87
373.81	512.58
374.01	493.85
374.21	500.87
374.40	500.87
374.60	538.32
374.79	587.47
374.99	606.20
375.19	554.71
375.38	543.00
375.58	498.53
375.78	524.28
375.97	599.18
376.17	568.75
376.37	538.32
376.56	540.66
376.76	540.66
376.95	578.11
377.15	624.92
377.35	517.26
377.54	631.94
377.74	587.47
377.93	540.66
378.13	622.58
378.33	622.58
378.52	552.37
378.72	624.92
378.91	617.90
379.11	596.84
379.31	571.09
379.50	573.43
379.70	662.37
379.89	685.78
380.09	664.71
380.28	580.45
380.48	620.24
380.68	674.07
380.87	660.03
381.07	582.79
381.26	667.05
381.46	650.67
381.65	723.23
381.85	638.97
382.04	655.35
382.24	713.86
382.43	599.18
382.63	624.92
382.83	741.95
383.02	725.57
383.22	669.39
383.41	727.91
383.61	744.29
383.80	716.20
384.00	662.37
384.19	690.46
384.39	706.84
384.58	779.40
384.78	774.72
384.97	727.91
385.17	620.24
385.36	791.10
385.56	718.54
385.75	706.84
385.95	784.08
386.14	737.27
386.34	788.76
386.53	760.67
386.72	711.52
386.92	816.85
387.11	821.53
387.31	798.12
387.50	711.52
387.70	779.40
387.89	730.25
388.09	753.65
388.28	828.55
388.48	882.38
388.67	884.72
388.86	844.93
389.06	793.44
389.25	905.79
389.45	877.70
389.64	938.55
389.84	1001.75
390.03	901.11
390.22	943.24
390.42	940.90
390.61	931.53
390.81	973.66
391.00	877.70
391.19	929.19
391.39	936.21
391.58	1022.81
391.78	987.71
391.97	926.85
392.16	917.49
392.36	990.05
392.55	992.39
392.75	968.98
392.94	950.26
393.13	917.49
393.33	868.34
393.52	978.34
393.71	957.28
393.91	1027.50
394.10	966.64
394.29	1004.09
394.49	999.41
394.68	1109.41
394.88	1149.20
395.07	1156.22
395.26	1151.54
395.46	1102.39
395.65	1142.18
395.84	1123.46
396.04	1128.14
396.23	997.07
396.42	1034.52
396.62	1027.50
396.81	1165.59
397.00	1097.71
397.19	1205.38
397.39	1174.95
397.58	1149.20
397.77	1196.01
397.97	1247.51
398.16	1214.74
398.35	1329.42
398.55	1228.78
398.74	1196.01
398.93	1387.94
399.12	1296.66
399.32	1261.55
399.51	1310.70
399.70	1416.02
399.90	1397.30
400.09	1313.04
400.28	1441.77
400.47	1490.92
400.67	1401.98
400.86	1479.22
401.05	1437.09
401.24	1455.81
401.44	1465.18
401.63	1483.90
401.82	1570.50
402.01	1434.75
402.21	1430.07
402.40	1542.41
402.59	1488.58
402.78	1432.41
402.97	1519.01
403.17	1575.18
403.36	1607.95
403.55	1617.31
403.74	1600.93
403.93	1563.48
404.13	1694.55
404.32	1579.86
404.51	1675.82
404.70	1678.16
404.89	1732.00
405.09	1666.46
405.28	1687.53
405.47	1671.14
405.66	1713.27
405.85	1657.10
406.05	1774.13
406.24	1788.17
406.43	1769.44
406.62	1783.49
406.81	1846.68
407.00	1827.96
407.20	1802.21
407.39	1809.23
407.58	1830.30
407.77	1942.64
407.96	1874.77
408.15	2054.99
408.34	2003.50
408.54	2038.61
408.73	1930.94
408.92	1928.60
409.11	1998.82
409.30	2050.31
409.49	1937.96
409.68	2071.37
409.87	2022.22
410.07	2143.93
410.26	2157.97
410.45	2087.76
410.64	2263.30
410.83	2249.25
411.02	2136.91
411.21	2251.60
411.40	2221.17
411.59	2188.40
411.78	2282.02
411.98	2382.67
412.17	2312.45
412.36	2312.45
412.55	2466.92
412.74	2466.92
412.93	2476.29
413.12	2303.09
413.31	2534.80
413.50	2478.63
413.69	2452.88
413.88	2600.34
414.07	2539.48
414.26	2555.86
414.45	2558.21
414.64	2546.50
414.83	2640.12
415.02	2815.66
415.22	2686.94
415.41	2759.49
415.60	2726.72
415.79	2867.16
415.98	2836.73
416.17	2759.49
416.36	2787.58
416.55	2920.99
416.74	2951.42
416.93	2930.35
417.12	2932.69
417.31	2867.16
417.50	2867.16
417.69	3148.02
417.88	3052.06
418.07	3054.40
418.26	3045.04
418.45	3042.70
418.64	3286.11
418.83	3082.49
419.02	3227.60
419.21	3112.91
419.39	3269.73
419.58	3108.23
419.77	3225.26
419.96	3218.24
420.15	3368.03
420.34	3253.34
420.53	3302.50
420.72	3365.69
420.91	3417.18
421.10	3391.44
421.29	3396.12
421.48	3398.46
421.67	3414.84
421.86	3201.85
422.05	3447.61
422.24	3421.86
422.43	3412.50
422.61	3536.55
422.80	3506.12
422.99	3318.88
423.18	3529.53
423.37	3581.02
423.56	3398.46
423.75	3566.98
423.94	3503.78
424.13	3435.91
424.32	3335.26
424.50	3660.60
424.69	3548.25
424.88	3693.37
425.07	3548.25
425.26	3492.08
425.45	3494.42
425.64	3482.72
425.83	3541.23
426.01	3651.24
426.20	3513.14
426.39	3620.81
426.58	3510.80
426.77	3686.34
426.96	3562.30
427.15	3522.51
427.33	3740.18
427.52	3520.17
427.71	3721.45
427.90	3625.49
428.09	3742.52
428.28	3686.34
428.46	3779.97
428.65	3702.73
428.84	3941.46
429.03	3641.87
429.22	3744.86
429.40	3765.92
429.59	3845.50
429.78	3634.85
429.97	3658.26
430.16	3653.58
430.34	3829.12
430.53	3808.05
430.72	3648.90
430.91	3847.84
431.10	3913.38
431.28	3946.14
431.47	4051.47
431.66	4119.34
431.85	3934.44
432.03	4264.46
432.22	4163.81
432.41	4201.26
432.60	4271.48
432.79	4081.89
432.97	4236.37
433.16	4161.47
433.35	3929.76
433.54	4173.18
433.72	4145.09
433.91	4175.52
434.10	4327.65
434.28	4264.46
434.47	4437.66
434.66	4287.86
434.85	4468.08
435.03	4521.92
435.22	4477.44
435.41	4629.58
435.59	4440.00
435.78	4622.56
435.97	4531.28
436.16	4706.82
436.34	4606.17
436.53	4587.45
436.72	4629.58
436.90	4582.77
437.09	4669.37
437.28	4418.93
437.46	4699.80
437.65	4664.69
437.84	4683.41
438.02	4751.29
438.21	4753.63
438.40	4664.69
438.58	4741.93
438.77	4767.67
438.96	4821.50
439.14	5018.11
439.33	5074.28
439.52	5156.20
439.70	4990.02
439.89	5142.16
440.08	5167.90
440.26	5013.43
440.45	5069.60
440.63	5210.03
440.82	5359.83
441.01	5207.69
441.19	5399.62
441.38	5495.58
441.57	5462.81
441.75	5535.37
441.94	5671.12
442.12	5547.07
442.31	5643.03
442.50	5591.54
442.68	5481.53
442.87	5692.18
443.05	5542.39
443.24	5809.21
443.43	5774.10
443.61	5645.37
443.80	5863.04
443.98	5736.65
444.17	5511.96
444.35	5809.21
444.54	6012.84
444.73	5844.32
444.91	5682.82
445.10	5940.28
445.28	5673.46
445.47	5579.84
445.65	5757.72
445.84	5966.03
446.02	5750.70
446.21	5785.80
446.39	5640.69
446.58	5893.47
446.77	5912.19
446.95	5827.93
447.14	5912.19
447.32	6094.76
447.51	5916.87
447.69	5790.49
447.88	5919.21
448.06	5909.85
448.25	5813.89
448.43	6066.67
448.62	5959.00
448.80	5792.83
448.99	5998.79
449.17	6101.78
449.36	6005.81
449.54	6328.81
449.73	6188.38
449.91	6305.40
450.10	6331.15
450.28	6267.95
450.46	6392.00
450.65	6441.15
450.83	6314.77
451.02	6366.26
451.20	6356.90
451.39	6502.01
451.57	6272.64
451.76	6326.47
451.94	6319.45
452.13	6523.07
452.31	6420.09
452.49	6333.49
452.68	6527.75
452.86	6544.14
453.05	6410.73
453.23	6560.52
453.42	6368.60
453.60	6331.15
453.78	6700.95
453.97	6534.78
454.15	6485.62
454.34	6590.95
454.52	6593.29
454.70	6686.91
454.89	6796.92
455.07	6649.46
455.26	6834.36
455.44	6944.37
455.62	6817.98
455.81	6663.51
455.99	7007.56
456.17	7063.74
456.36	6867.13
456.54	7035.65
456.73	7143.32
456.91	7372.69
457.09	7176.08
457.28	7503.76
457.46	7197.15
457.64	7187.79
457.83	7342.26
458.01	7122.25
458.19	7229.91
458.38	7169.06
458.56	7410.14
458.74	7534.18
458.93	7456.95
459.11	7335.24
459.29	7583.34
459.48	7368.01
459.66	7644.19
459.84	7515.46
460.03	7564.61
460.21	7566.95
460.39	7644.19
460.57	7566.95
460.76	7709.72
460.94	7733.13
461.12	7754.19
461.31	7683.98
461.49	7705.04
461.67	7735.47
461.85	7803.35
462.04	7791.64
462.22	7915.69
462.40	7857.18
462.59	7990.59
462.77	7875.90
462.95	7868.88
463.13	7999.95
463.32	7948.46
463.50	7995.27
463.68	8009.31
463.86	8156.77
464.05	7913.35
464.23	8086.55
464.41	8257.41
464.59	8215.28
464.78	8430.61
464.96	8170.81
465.14	8248.05
465.32	8234.00
465.50	8334.65
465.69	8245.71
465.87	8142.72
466.05	8301.88
466.23	8252.73
466.41	8367.42
466.60	8383.80
466.78	8212.94
466.96	8266.77
467.14	8393.16
467.32	8423.59
467.51	8325.29
467.69	8334.65
467.87	8627.21
468.05	8521.89
468.23	8491.46
468.41	8379.12
468.60	8615.51
468.78	8566.36
468.96	8505.51
469.14	8641.26
469.32	8894.04
469.50	8704.45
469.69	8781.69
469.87	8952.55
470.05	8678.71
470.23	8777.01
470.41	9041.49
470.59	9137.45
470.77	8805.10
470.95	8915.10
471.14	9165.54
471.32	8929.14
471.50	9214.69
471.68	9188.94
471.86	9371.50
472.04	9193.62
472.22	9310.65
472.40	9320.01
472.58	9109.36
472.77	9680.46
472.95	9650.03
473.13	9860.68
473.31	9720.24
473.49	9497.89
473.67	9544.70
473.85	9713.22
474.03	9966.00
474.21	10019.83
474.39	9811.53
474.57	9851.31
474.75	10157.92
474.93	9980.04
475.12	9762.37
475.30	10176.65
475.48	10129.84
475.66	10321.76
475.84	10143.88
476.02	10228.14
476.20	10424.75
476.38	10576.88
476.56	10658.80
476.74	10890.51
476.92	10703.27
477.10	10832.00
477.28	10853.06
477.46	10843.70
477.64	11105.84
477.82	11108.18
478.00	11232.23
478.18	11012.22
478.36	11410.11
478.54	11531.82
478.72	11527.14
478.90	11492.03
479.08	11782.26
479.26	11662.89
479.44	11868.86
479.62	11889.92
479.80	11918.01
479.98	11868.86
480.16	12358.03
480.34	12250.36
480.52	12463.35
480.70	12367.39
480.88	12156.74
481.06	12571.02
481.24	12358.03
481.41	12992.31
481.59	13055.51
481.77	12758.26
481.95	12779.32
482.13	13329.35
482.31	13200.62
482.49	13221.69
482.67	13385.52
482.85	13668.73
483.03	13734.26
483.21	13914.48
483.39	13781.07
483.57	13734.26
483.74	13816.18
483.92	14223.44
484.10	14171.94
484.28	14415.36
484.46	14452.81
484.64	14834.32
484.82	14569.83
485.00	14628.35
485.18	15059.01
485.35	14803.89
485.53	14553.45
485.71	14817.93
485.89	15377.32
486.07	15215.82
486.25	15424.13
486.43	15248.59
486.61	15426.47
486.78	15695.63
486.96	15611.37
487.14	16168.42
487.32	16215.23
487.50	16091.18
487.68	16404.81
487.85	16624.83
488.03	17006.33
488.21	17020.38
488.39	16861.22
488.57	17172.51
488.75	17128.04
488.92	17598.49
489.10	17530.61
489.28	17673.39
489.46	17778.71
489.64	17902.76
489.81	18174.26
489.99	18237.45
490.17	18146.17
490.35	18436.40
490.53	18373.21
490.70	18555.77
490.88	18611.94
491.06	19126.86
491.24	18864.72
491.41	18745.35
491.59	18853.02
491.77	19075.37
491.95	19269.63
492.13	19398.36
492.30	19555.18
492.48	19946.05
492.66	19871.15
492.84	19742.42
493.01	20210.53
493.19	19875.83
493.37	20255.00
493.54	20699.70
493.72	20800.34
493.90	20552.24
494.08	21123.33
494.25	21001.63
494.43	21092.91
494.61	21198.23
494.79	21238.02
494.96	21057.80
495.14	21439.31
495.32	21453.35
495.49	21905.07
495.67	21589.10
495.85	21701.45
496.02	22387.22
496.20	22054.87
496.38	22312.33
496.55	22127.42
496.73	22644.68
496.91	22560.42
497.09	22923.21
497.26	23110.45
497.44	22696.17
497.62	22864.69
497.79	23323.44
497.97	22719.58
498.14	23122.15
498.32	23393.65
498.50	23381.95
498.67	23821.97
498.85	23704.95
499.03	23716.65
499.20	23873.46
499.38	24044.32
499.56	24166.03
499.73	24493.71
499.91	24393.06
500.08	24130.92
500.26	24240.93
500.44	24526.47
500.61	24465.62
500.79	24425.83
500.97	24694.99
501.14	25212.25
501.32	25209.91
501.49	25268.42
501.67	24849.47
501.84	25247.36
502.02	25230.98
502.20	25675.68
502.37	25434.60
502.55	25628.87
502.72	25546.95
502.90	25668.66
503.07	25619.50
503.25	26246.77
503.43	25577.37
503.60	25830.15
503.78	25766.96
503.95	26078.25
504.13	26260.81
504.30	26335.71
504.48	26111.02
504.65	26483.16
504.83	26347.41
505.01	26806.16
505.18	26714.87
505.36	27159.58
505.53	26574.44
505.71	27019.14
505.88	26993.40
506.06	27187.66
506.23	27482.57
506.41	27278.94
506.58	27435.76
506.76	27566.83
506.93	27431.08
507.11	27529.38
507.28	27400.65
507.46	27646.41
507.63	27714.28
507.81	28126.22
507.98	27868.76
508.16	28144.94
508.33	28168.35
508.50	28072.39
508.68	28383.68
508.85	28479.64
509.03	28709.01
509.20	28701.99
509.38	28929.02
509.55	28556.88
509.73	28570.92
509.90	29130.31
510.08	28968.81
510.25	29006.26
510.42	29390.11
510.60	29338.62
510.77	29305.85
510.95	29310.53
511.12	29408.83
511.30	29792.68
511.47	30080.56
511.64	29944.81
511.82	29879.28
511.99	29677.99
512.17	29626.50
512.34	29991.62
512.51	30164.82
512.69	30249.08
512.86	30181.21
513.04	30522.93
513.21	29944.81
513.38	30284.19
513.56	30649.32
513.73	30221.00
513.90	30646.97
514.08	30586.12
514.25	31101.04
514.43	30569.74
514.60	30565.06
514.77	30920.82
514.95	31466.16
515.12	31314.03
515.29	31335.09
515.47	31166.57
515.64	30913.80
515.81	31269.56
515.99	31372.54
516.16	31096.36
516.33	31512.97
516.51	31449.78
516.68	31246.15
516.85	31475.52
517.03	31328.07
517.20	31653.40
517.37	31887.46
517.54	31896.82
517.72	31447.44
517.89	31985.76
518.06	31718.94
518.24	31868.73
518.41	32004.49
518.58	32081.72
518.75	32554.51
518.93	32165.98
519.10	32615.37
519.27	32617.71
519.45	32273.65
519.62	32301.73
519.79	32610.68
519.96	32856.44
520.14	33331.57
520.31	32921.98
520.48	33008.58
520.65	32727.71
520.83	33603.07
521.00	33230.93
521.17	33315.19
521.34	33574.98
521.52	33474.34
521.69	33488.38
521.86	33832.44
522.03	33900.32
522.20	33837.12
522.38	33979.90
522.55	33982.24
522.72	33851.17
522.89	33949.47
523.07	33961.17
523.24	34125.01
523.41	34218.63
523.58	34022.03
523.75	34878.66
523.92	34614.18
524.10	34705.46
524.27	34621.20
524.44	34766.32
524.61	35098.67
524.78	34831.85
524.96	34815.47
525.13	35199.32
525.30	35204.00
525.47	35112.72
525.64	34967.60
525.81	35021.44
525.98	34925.47
526.16	35058.88
526.33	35173.57
526.50	35445.07
526.67	34515.88
526.84	35288.26
527.01	35508.27
527.18	35262.51
527.36	35639.34
527.53	35555.08
527.70	35971.69
527.87	35917.86
528.04	35908.50
528.21	35906.16
528.38	35922.54
528.55	36072.34
528.72	36046.59
528.89	36442.14
529.07	36140.21
529.24	36306.39
529.41	36519.38
529.58	36018.50
529.75	36121.49
529.92	36254.90
530.09	36432.78
530.26	36346.18
530.43	36617.68
530.60	36666.83
530.77	36348.52
530.94	36772.16
531.11	36767.48
531.28	37160.69
531.46	37097.49
531.63	37017.91
531.80	36713.64
531.97	36788.54
532.14	37106.85
532.31	36858.76
532.48	36542.78
532.65	37366.65
532.82	37170.05
532.99	37556.24
533.16	36818.97
533.33	37394.74
533.50	37652.20
533.67	37589.00
533.84	37247.29
534.01	37738.80
534.18	37170.05
534.35	38281.80
534.52	37750.50
534.69	37617.09
534.86	37670.92
535.03	37874.55
535.20	38398.83
535.37	38487.77
535.54	38478.41
535.71	37874.55
535.88	38110.94
536.05	38068.81
536.22	38312.23
536.38	38513.52
536.55	38485.43
536.72	38209.25
536.89	38188.18
537.06	38506.49
537.23	38522.88
537.40	38129.67
537.57	38614.16
537.74	38251.38
537.91	38714.80
538.08	38752.25
538.25	38506.49
538.42	38447.98
538.59	39196.95
538.75	38499.47
538.92	39040.14
539.09	38649.27
539.26	38960.56
539.43	38988.64
539.60	39313.98
539.77	38483.09
539.94	39026.09
540.11	38953.54
540.28	39246.10
540.44	39215.68
540.61	38799.06
540.78	38817.78
540.95	39201.63
541.12	39147.80
541.29	38836.51
541.46	39353.77
541.62	39431.01
541.79	39634.63
541.96	39311.64
542.13	39391.22
542.30	39611.23
542.47	39388.88
542.63	40119.12
542.80	39971.67
542.97	40215.08
543.14	39934.22
543.31	40105.08
543.48	39859.32
543.64	40570.85
543.81	40065.29
543.98	39971.67
544.15	40105.08
544.32	40086.36
544.48	40554.46
544.65	40589.57
544.82	40542.76
544.99	40170.61
545.16	40201.04
545.32	39901.45
545.49	40575.53
545.66	40746.39
545.83	40966.40
546.00	40722.98
546.16	40435.10
546.33	40762.77
546.50	40491.27
546.67	41074.06
546.83	40474.88
547.00	40814.26
547.17	40884.48
547.34	40563.82
547.50	41020.23
547.67	40978.10
547.84	41081.08
548.00	41240.24
548.17	41792.61
548.34	40975.76
548.51	41158.32
548.67	41151.30
548.84	41193.43
549.01	41469.61
549.18	41207.47
549.34	41303.43
549.51	41453.23
549.68	41460.25
549.84	41656.85
550.01	41422.80
550.18	41588.98
550.34	41310.46
550.51	41820.69
550.68	41450.89
550.84	41544.51
551.01	41972.83
551.18	41729.41
551.34	41890.91
551.51	41921.34
551.68	41778.56
551.84	41652.17
552.01	41935.38
552.18	42178.79
552.34	41469.61
552.51	42068.79
552.68	42064.11
552.84	42801.38
553.01	42038.36
553.18	41806.65
553.34	42209.22
553.51	41876.86
553.67	41937.72
553.84	42799.04
554.01	43009.68
554.17	42316.89
554.34	42567.32
554.51	42113.26
554.67	42639.88
554.84	42497.11
555.00	42621.16
555.17	42532.22
555.33	42433.91
555.50	42366.04
555.67	42377.74
555.83	42469.02
556.00	42597.75
556.16	42824.78
556.33	42604.77
556.50	42834.14
556.66	42478.38
556.83	42604.77
556.99	42808.40
557.16	42766.27
557.32	42880.95
557.49	43054.15
557.65	42897.34
557.82	42820.10
557.98	42962.87
558.15	42672.65
558.32	42913.72
558.48	42850.53
558.65	42780.31
558.81	42913.72
558.98	42965.21
559.14	43400.55
559.31	42859.89
559.47	43023.73
559.64	43304.59
559.80	43194.59
559.97	42976.92
560.13	42932.45
560.30	43107.99
560.46	42887.98
560.63	43157.14
560.79	43232.04
560.96	43213.31
561.12	43033.09
561.29	43274.16
561.45	43285.87
561.61	43159.48
561.78	43423.96
561.94	42513.49
562.11	43477.79
562.27	43559.71
562.44	43676.74
562.60	43580.78
562.77	43239.06
562.93	43388.85
563.10	43608.86
563.26	43164.16
563.42	43459.07
563.59	43337.36
563.75	43510.56
563.92	43442.68
564.08	43533.96
564.24	43789.08
564.41	43236.72
564.57	43232.04
564.74	43363.11
564.90	43559.71
565.07	43388.85
565.23	43262.46
565.39	43709.50
565.56	43892.07
565.72	43388.85
565.88	43145.44
566.05	43480.13
566.21	43430.98
566.38	43798.44
566.54	43765.68
566.70	43793.76
566.87	44215.06
567.03	43746.95
567.19	44154.21
567.36	43627.59
567.52	43100.97
567.68	44126.12
567.85	43667.37
568.01	43604.18
568.17	43775.04
568.34	43908.45
568.50	44069.95
568.66	43491.83
568.83	43400.55
568.99	43707.16
569.15	43531.62
569.32	43793.76
569.48	43580.78
569.64	44130.80
569.81	43945.90
569.97	43772.70
570.13	43896.75
570.30	43512.90
570.46	43342.04
570.62	43578.43
570.78	43737.59
570.95	43852.28
571.11	44186.97
571.27	43835.89
571.43	43945.90
571.60	43665.03
571.76	43817.17
571.92	43828.87
572.09	43768.02
572.25	43576.09
572.41	43805.47
572.57	43807.81
572.74	44201.02
572.90	43583.12
573.06	44177.61
573.22	43735.25
573.38	43826.53
573.55	44294.64
573.71	43955.26
573.87	43807.81
574.03	43915.47
574.20	43938.88
574.36	44137.82
574.52	44318.04
574.68	44177.61
574.84	43636.95
575.01	44163.57
575.17	44076.97
575.33	43709.50
575.49	44004.41
575.65	44175.27
575.82	44292.30
575.98	44072.29
576.14	44034.84
576.30	43964.62
576.46	43978.67
576.62	44037.18
576.79	44201.02
576.95	43615.88
577.11	44107.40
577.27	43842.92
577.43	44304.00
577.59	44320.38
577.75	44018.46
577.92	43571.41
578.08	43732.91
578.24	44231.44
578.40	44046.54
578.56	43941.22
578.72	44121.44
578.88	44734.66
579.04	44161.23
579.21	43889.73
579.37	44060.58
579.53	44231.44
579.69	43959.94
579.85	43697.80
580.01	44020.80
580.17	43910.79
580.33	44133.14
580.49	44556.78
580.65	44425.71
580.82	44116.76
580.98	43999.73
581.14	44140.16
581.30	44067.61
581.46	44421.03
581.62	44577.84
581.78	44332.09
581.94	44287.62
582.10	44257.19
582.26	44575.50
582.42	44109.74
582.58	44238.47
582.74	44329.75
582.90	44306.34
583.06	44360.17
583.22	44556.78
583.38	44512.31
583.54	44720.62
583.70	44308.68
583.86	44102.71
584.02	44025.48
584.18	44023.14
584.34	44177.61
584.50	44306.34
584.66	43959.94
584.82	44023.14
584.98	44872.75
585.14	44432.73
585.30	44163.57
585.46	43938.88
585.62	44299.32
585.78	44547.42
585.94	44495.92
586.10	44170.59
586.26	44746.36
586.42	44128.46
586.58	44252.51
586.74	44168.25
586.90	44243.15
587.06	43840.57
587.22	44109.74
587.38	44219.74
587.54	44397.62
587.70	44147.18
587.86	44694.87
588.02	44591.89
588.18	44638.70
588.34	44119.10
588.49	44224.42
588.65	43620.56
588.81	44154.21
588.97	44278.25
589.13	44285.28
589.29	44390.60
589.45	44367.20
589.61	44231.44
589.77	44299.32
589.93	44414.01
590.08	44683.17
590.24	44678.49
590.40	44584.86
