SpectraSuite Data File
++++++++++++++++++++++++++++++++++++
Date: Fri Oct 25 11:33:30 EDT 2013
User: price-jones
Dark Spectrum Present: No
Reference Spectrum Present: No
Number of Sampled Component Spectra: 1
Spectrometers: USB2+H05261
Integration Time (usec): 100000 (USB2+H05261)
Spectra Averaged: 1 (USB2+H05261)
Boxcar Smoothing: 0 (USB2+H05261)
Correct for Electrical Dark: No (USB2+H05261)
Strobe/Lamp Enabled: No (USB2+H05261)
Correct for Detector Non-linearity: No (USB2+H05261)
Correct for Stray Light: No (USB2+H05261)
Number of Pixels in Processed Spectrum: 2048
>>>>>Begin Processed Spectral Data<<<<<
365.73	299.59
365.92	299.59
366.12	299.59
366.32	205.97
366.52	177.88
366.72	191.92
366.91	177.88
367.11	126.39
367.31	168.52
367.51	191.92
367.70	128.73
367.90	241.08
368.10	203.63
368.30	189.58
368.49	135.75
368.69	208.31
368.89	208.31
369.09	126.39
369.28	208.31
369.48	243.42
369.68	252.78
369.87	304.27
370.07	147.45
370.27	257.46
370.47	334.70
370.66	449.38
370.86	545.34
371.06	472.79
371.25	571.09
371.45	557.05
371.65	594.50
371.84	561.73
372.04	519.60
372.24	564.07
372.44	599.18
372.63	535.98
372.83	543.00
373.03	568.75
373.22	596.84
373.42	641.31
373.62	589.82
373.81	617.90
374.01	702.16
374.21	545.34
374.40	653.01
374.60	631.94
374.79	723.23
374.99	627.26
375.19	620.24
375.38	657.69
375.58	655.35
375.78	671.73
375.97	660.03
376.17	657.69
376.37	690.46
376.56	699.82
376.76	650.67
376.95	697.48
377.15	739.61
377.35	690.46
377.54	643.65
377.74	695.14
377.93	622.58
378.13	751.31
378.33	690.46
378.52	706.84
378.72	739.61
378.91	727.91
379.11	765.36
379.31	674.07
379.50	702.16
379.70	660.03
379.89	720.88
380.09	638.97
380.28	723.23
380.48	739.61
380.68	730.25
380.87	734.93
381.07	741.95
381.26	737.27
381.46	858.98
381.65	716.20
381.85	758.33
382.04	723.23
382.24	830.89
382.43	835.57
382.63	784.08
382.83	786.42
383.02	748.97
383.22	849.61
383.41	786.42
383.61	760.67
383.80	821.53
384.00	840.25
384.19	763.01
384.39	880.04
384.58	685.78
384.78	798.12
384.97	802.80
385.17	781.74
385.36	849.61
385.56	784.08
385.75	830.89
385.95	847.27
386.14	844.93
386.34	753.65
386.53	929.19
386.72	861.32
386.92	861.32
387.11	849.61
387.31	926.85
387.50	891.74
387.70	847.27
387.89	882.38
388.09	924.51
388.28	992.39
388.48	858.98
388.67	884.72
388.86	964.30
389.06	929.19
389.25	917.49
389.45	1025.15
389.64	912.81
389.84	1050.90
390.03	1004.09
390.22	912.81
390.42	1039.20
390.61	959.62
390.81	943.24
391.00	1015.79
391.19	1071.97
391.39	889.40
391.58	1011.11
391.78	985.37
391.97	987.71
392.16	1043.88
392.36	1081.33
392.55	1071.97
392.75	1029.84
392.94	1013.45
393.13	1083.67
393.33	1018.13
393.52	978.34
393.71	1116.44
393.91	1156.22
394.10	1090.69
394.29	1062.60
394.49	1097.71
394.68	1156.22
394.88	1163.25
395.07	1153.88
395.26	1167.93
395.46	1083.67
395.65	1165.59
395.84	1186.65
396.04	1177.29
396.23	1221.76
396.42	1247.51
396.62	1233.46
396.81	1221.76
397.00	1245.16
397.19	1282.61
397.39	1235.80
397.58	1254.53
397.77	1203.04
397.97	1294.32
398.16	1324.74
398.35	1252.19
398.55	1284.95
398.74	1284.95
398.93	1362.19
399.12	1291.98
399.32	1231.12
399.51	1291.98
399.70	1301.34
399.90	1303.68
400.09	1317.72
400.28	1385.60
400.47	1376.24
400.67	1380.92
400.86	1418.36
401.05	1376.24
401.24	1453.47
401.44	1418.36
401.63	1544.75
401.82	1448.79
402.01	1469.86
402.21	1483.90
402.40	1472.20
402.59	1418.36
402.78	1430.07
402.97	1507.30
403.17	1589.22
403.36	1439.43
403.55	1467.52
403.74	1673.48
403.93	1563.48
404.13	1519.01
404.32	1603.27
404.51	1593.90
404.70	1640.72
404.89	1617.31
405.09	1710.93
405.28	1792.85
405.47	1701.57
405.66	1633.69
405.85	1771.79
406.05	1767.10
406.24	1701.57
406.43	1764.76
406.62	1776.47
406.81	1867.75
407.00	1699.23
407.20	1687.53
407.39	1867.75
407.58	1879.45
407.77	1785.83
407.96	1881.79
408.15	1746.04
408.34	1940.30
408.54	1940.30
408.73	1966.05
408.92	2057.33
409.11	1844.34
409.30	2078.40
409.49	2099.46
409.68	1895.83
409.87	2054.99
410.07	2101.80
410.26	2026.90
410.45	2097.12
410.64	2120.53
410.83	2090.10
411.02	2036.27
411.21	2204.78
411.40	2122.87
411.59	2186.06
411.78	2256.28
411.98	2127.55
412.17	2204.78
412.36	2326.49
412.55	2202.44
412.74	2366.28
412.93	2392.03
413.12	2186.06
413.31	2441.18
413.50	2401.39
413.69	2363.94
413.88	2429.48
414.07	2530.12
414.26	2415.43
414.45	2518.42
414.64	2605.02
414.83	2649.49
415.02	2623.74
415.22	2693.96
415.41	2691.62
415.60	2644.81
415.79	2661.19
415.98	2712.68
416.17	2778.22
416.36	2679.91
416.55	2696.30
416.74	2848.43
416.93	2850.77
417.12	2796.94
417.31	2752.47
417.50	2867.16
417.69	3021.63
417.88	3077.80
418.07	2904.60
418.26	2963.12
418.45	2986.52
418.64	3030.99
418.83	3033.33
419.02	3033.33
419.21	3152.70
419.39	3157.38
419.58	3012.27
419.77	3019.29
419.96	3206.53
420.15	3187.81
420.34	3124.62
420.53	3192.49
420.72	3197.17
420.91	3197.17
421.10	3274.41
421.29	3227.60
421.48	3272.07
421.67	3356.33
421.86	3274.41
422.05	3293.13
422.24	3215.90
422.43	3290.79
422.61	3363.35
422.80	3506.12
422.99	3260.37
423.18	3361.01
423.37	3286.11
423.56	3253.34
423.75	3384.41
423.94	3318.88
424.13	3215.90
424.32	3267.39
424.50	3414.84
424.69	3602.08
424.88	3522.51
425.07	3405.48
425.26	3241.64
425.45	3421.86
425.64	3361.01
425.83	3405.48
426.01	3550.59
426.20	3583.36
426.39	3557.61
426.58	3358.67
426.77	3480.38
426.96	3557.61
427.15	3353.99
427.33	3571.66
427.52	3651.24
427.71	3569.32
427.90	3513.14
428.09	3578.68
428.28	3503.78
428.46	3728.47
428.65	3669.96
428.84	3777.62
429.03	3728.47
429.22	3749.54
429.40	3728.47
429.59	3782.31
429.78	3515.48
429.97	3634.85
430.16	3896.99
430.34	3770.60
430.53	3772.94
430.72	3906.35
430.91	3838.48
431.10	3885.29
431.28	3836.14
431.47	4037.42
431.66	3964.87
431.85	3847.84
432.03	3995.29
432.22	4070.19
432.41	3995.29
432.60	4142.75
432.79	4007.00
432.97	4105.30
433.16	4109.98
433.35	4163.81
433.54	4053.81
433.72	4255.09
433.91	4287.86
434.10	4138.07
434.28	4219.99
434.47	4285.52
434.66	4390.84
434.85	4535.96
435.03	4304.25
435.22	4278.50
435.41	4447.02
435.59	4484.47
435.78	4269.14
435.97	4449.36
436.16	4402.55
436.34	4390.84
436.53	4442.34
436.72	4617.88
436.90	4369.78
437.09	4517.23
437.28	4313.61
437.46	4538.30
437.65	4538.30
437.84	4568.73
438.02	4610.86
438.21	4709.16
438.40	4582.77
438.58	4739.58
438.77	4746.61
438.96	4751.29
439.14	4793.42
439.33	4884.70
439.52	5100.03
439.70	4854.27
439.89	4961.94
440.08	5055.56
440.26	5048.54
440.45	5006.41
440.63	5008.75
440.82	5160.88
441.01	5123.43
441.19	5121.09
441.38	5174.92
441.57	5235.78
441.75	5331.74
441.94	5336.42
442.12	5289.61
442.31	5352.81
442.50	5341.10
442.68	5394.93
442.87	5476.85
443.05	5528.35
443.24	5659.42
443.43	5617.29
443.61	5603.24
443.80	5703.89
443.98	5235.78
444.17	5341.10
444.35	5558.77
444.54	5713.25
444.73	5771.76
444.91	5631.33
445.10	5643.03
445.28	5680.48
445.47	5586.86
445.65	5722.61
445.84	5860.70
446.02	5689.84
446.21	5696.86
446.39	5680.48
446.58	5757.72
446.77	5802.19
446.95	5607.92
447.14	5736.65
447.32	5731.97
447.51	5832.62
447.69	5736.65
447.88	5680.48
448.06	5912.19
448.25	5820.91
448.43	5825.59
448.62	5631.33
448.80	5813.89
448.99	5710.91
449.17	5891.13
449.36	5961.34
449.54	5940.28
449.73	6169.65
449.91	6197.74
450.10	6134.54
450.28	6108.80
450.46	6022.20
450.65	6054.97
450.83	6003.47
451.02	6019.86
451.20	6202.42
451.39	6197.74
451.57	6279.66
451.76	6218.80
451.94	6118.16
452.13	6354.55
452.31	6242.21
452.49	6186.04
452.68	6216.46
452.86	6279.66
453.05	6354.55
453.23	6375.62
453.42	6377.96
453.60	6342.85
453.78	6289.02
453.97	6251.57
454.15	6448.18
454.34	6403.71
454.52	6459.88
454.70	6368.60
454.89	6696.27
455.07	6499.67
455.26	6527.75
455.44	6626.06
455.62	6764.15
455.81	6567.54
455.99	6857.77
456.17	6682.23
456.36	6825.00
456.54	6972.46
456.73	6916.28
456.91	7056.72
457.09	7037.99
457.28	7023.95
457.46	6960.75
457.64	6906.92
457.83	7014.59
458.01	6995.86
458.19	7236.94
458.38	7227.57
458.56	7208.85
458.74	7129.27
458.93	7164.38
459.11	7110.55
459.29	7258.00
459.48	7199.49
459.66	7351.62
459.84	7206.51
460.03	7510.78
460.21	7431.20
460.39	7513.12
460.57	7719.09
460.76	7353.96
460.94	7492.05
461.12	7503.76
461.31	7473.33
461.49	7604.40
461.67	7534.18
461.85	7749.51
462.04	7716.75
462.22	7976.55
462.40	7669.94
462.59	7758.88
462.77	7662.91
462.95	7763.56
463.13	7686.32
463.32	7840.79
463.50	7770.58
463.68	7866.54
463.86	8051.44
464.05	7714.41
464.23	7854.84
464.41	7946.12
464.59	7906.33
464.78	8236.35
464.96	8142.72
465.14	7911.01
465.32	8023.36
465.50	8138.04
465.69	8016.33
465.87	8072.51
466.05	8025.70
466.23	8182.51
466.41	8126.34
466.60	8299.54
466.78	8116.98
466.96	8271.45
467.14	8208.26
467.32	8395.50
467.51	8510.19
467.69	8238.69
467.87	8402.52
468.05	8353.37
468.23	8423.59
468.41	8332.31
468.60	8381.46
468.78	8423.59
468.96	8348.69
469.14	8372.10
469.32	8709.13
469.50	8629.56
469.69	8753.60
469.87	8938.51
470.05	8486.78
470.23	8678.71
470.41	8975.95
470.59	8842.54
470.77	8758.28
470.95	8879.99
471.14	8898.72
471.32	8739.56
471.50	8922.12
471.68	9053.19
471.86	9004.04
472.04	9160.86
472.22	9303.63
472.40	9151.49
472.58	9245.12
472.77	9238.09
472.95	9448.74
473.13	9757.69
473.31	9476.83
473.49	9387.89
473.67	9542.36
473.85	9598.54
474.03	9799.82
474.21	9750.67
474.39	9827.91
474.57	9867.70
474.75	9895.78
474.93	9811.53
475.12	9980.04
475.30	10120.48
475.48	9844.29
475.66	10022.17
475.84	10078.35
476.02	10054.94
476.20	10265.59
476.38	10317.08
476.56	10668.16
476.74	10633.05
476.92	10469.22
477.10	10682.20
477.28	10548.79
477.46	10487.94
477.64	10738.38
477.82	11063.71
478.00	11225.21
478.18	11037.97
478.36	11281.38
478.54	11559.91
478.72	11288.40
478.90	11459.26
479.08	11587.99
479.26	11695.66
479.44	11805.66
479.62	11700.34
479.80	11784.60
479.98	11873.54
480.16	12329.94
480.34	12035.03
480.52	12290.15
480.70	12353.35
480.88	12241.00
481.06	12369.73
481.24	12549.95
481.41	12678.68
481.59	12772.30
481.77	12727.83
481.95	12994.65
482.13	12936.14
482.31	12826.14
482.49	13383.18
482.67	13408.93
482.85	13415.95
483.03	13607.87
483.21	13870.01
483.39	13923.85
483.57	13717.88
483.74	13830.23
483.92	14164.92
484.10	13795.12
484.28	14057.26
484.46	14370.89
484.64	14787.50
484.82	14356.85
485.00	14579.20
485.18	15042.62
485.35	15054.33
485.53	15124.54
485.71	15136.24
485.89	15445.20
486.07	15171.35
486.25	15442.85
486.43	15590.31
486.61	15829.04
486.78	15782.23
486.96	15854.79
487.14	16100.55
487.32	16025.65
487.50	16320.56
487.68	16343.96
487.85	16624.83
488.03	16858.88
488.21	16940.80
488.39	16711.42
488.57	17205.28
488.75	17256.77
488.92	17542.32
489.10	17465.08
489.28	17467.42
489.46	17788.07
489.64	17900.42
489.81	18310.01
489.99	18040.85
490.17	18143.83
490.35	18628.32
490.53	18623.64
490.70	18696.20
490.88	18455.12
491.06	18918.55
491.24	18953.66
491.41	19164.31
491.59	19091.75
491.77	19250.91
491.95	19414.74
492.13	19674.54
492.30	19487.30
492.48	19688.59
492.66	19536.45
492.84	19957.75
493.01	19990.52
493.19	20123.93
493.37	20301.81
493.54	20446.92
493.72	20470.33
493.90	20610.76
494.08	20669.27
494.25	21055.46
494.43	21191.21
494.61	21102.27
494.79	21645.27
494.96	21586.76
495.14	21589.10
495.32	21558.67
495.49	21820.81
495.67	21832.52
495.85	22059.55
496.02	22230.41
496.20	22391.91
496.38	22197.64
496.55	22029.12
496.73	22977.04
496.91	22464.46
497.09	22537.02
497.26	22927.89
497.44	22864.69
497.62	23194.71
497.79	23494.30
497.97	23154.92
498.14	23559.83
498.32	23606.64
498.50	23239.18
498.67	23676.86
498.85	23955.38
499.03	24077.09
499.20	23878.15
499.38	24161.35
499.56	24683.29
499.73	24786.27
499.91	24393.06
500.08	24659.88
500.26	24547.54
500.44	24479.66
500.61	25151.40
500.79	24819.04
500.97	24978.20
501.14	25177.14
501.32	25413.54
501.49	25317.57
501.67	25404.17
501.84	25666.31
502.02	25823.13
502.20	25617.16
502.37	25558.65
502.55	25638.23
502.72	25989.31
502.90	26094.63
503.07	26214.00
503.25	25862.92
503.43	26380.18
503.60	26464.44
503.78	26759.34
503.95	26321.66
504.13	26438.69
504.30	26958.29
504.48	26913.82
504.65	26714.87
504.83	26834.24
505.01	26962.97
505.18	27260.22
505.36	27288.31
505.53	27290.65
505.71	27623.00
505.88	27435.76
506.06	27339.80
506.23	27534.06
506.41	27576.19
506.58	28020.89
506.76	27763.43
506.93	28051.32
507.11	27894.50
507.28	28463.25
507.46	28336.87
507.63	28379.00
507.81	28797.95
507.98	28364.95
508.16	28631.77
508.33	28407.08
508.50	28938.38
508.68	28943.06
508.85	28961.79
509.03	28776.89
509.20	29259.04
509.38	29244.99
509.55	29256.70
509.73	29237.97
509.90	29275.42
510.08	29380.74
510.25	29530.54
510.42	29591.39
510.60	29591.39
510.77	29631.18
510.95	30223.34
511.12	29694.38
511.30	29839.49
511.47	29851.19
511.64	29788.00
511.82	30270.15
511.99	30277.17
512.17	30459.73
512.34	30520.59
512.51	31271.90
512.69	30724.21
512.86	30808.47
513.04	31117.42
513.21	30696.13
513.38	31304.67
513.56	31112.74
513.73	30764.00
513.90	31365.52
514.08	30974.65
514.25	31400.63
514.43	31440.42
514.60	31826.60
514.77	31608.93
514.95	32140.24
515.12	31728.30
515.29	31480.21
515.47	32119.17
515.64	32168.32
515.81	31821.92
515.99	32222.16
516.16	32205.77
516.33	32339.18
516.51	32844.74
516.68	32428.12
516.85	32617.71
517.03	32851.76
517.20	32929.00
517.37	33036.66
517.54	32486.64
517.72	33074.11
517.89	33022.62
518.06	32945.38
518.24	33020.28
518.41	32570.90
518.58	33048.36
518.75	33022.62
518.93	33287.10
519.10	33223.90
519.27	33303.48
519.45	33301.14
519.62	33563.28
519.79	33647.54
519.96	33722.44
520.14	34036.07
520.31	33874.57
520.48	33893.30
520.65	34110.97
520.83	34504.18
521.00	34380.13
521.17	34579.07
521.34	34553.33
521.52	34452.69
521.69	34698.44
521.86	34579.07
522.03	34272.46
522.20	35192.30
522.38	35058.88
522.55	34981.65
522.72	35456.78
522.89	35042.50
523.07	35154.85
523.24	35241.45
523.41	35812.54
523.58	34899.73
523.75	35637.00
523.92	35569.12
524.10	35407.62
524.27	35459.12
524.44	35496.56
524.61	36100.42
524.78	36093.40
524.96	36009.14
525.13	36084.04
525.30	36266.60
525.47	36086.38
525.64	36353.20
525.81	36521.72
525.98	36463.21
526.16	36034.89
526.33	36168.30
526.50	36638.75
526.67	35962.33
526.84	36514.70
527.01	36481.93
527.18	36711.30
527.36	36692.58
527.53	36966.42
527.70	37397.08
527.87	37312.82
528.04	37113.87
528.21	37125.58
528.38	36840.03
528.55	36971.10
528.72	37172.39
528.89	37474.32
529.07	37088.13
529.24	37085.79
529.41	37593.68
529.58	37631.13
529.75	37680.28
529.92	37340.91
530.09	38000.94
530.26	37703.69
530.43	37790.29
530.60	37521.13
530.77	37785.61
530.94	37551.56
531.11	38082.86
531.28	38265.42
531.46	38417.55
531.63	38553.30
531.80	38007.96
531.97	38534.58
532.14	38300.53
532.31	38103.92
532.48	38340.32
532.65	38637.56
532.82	38731.18
532.99	38810.76
533.16	38714.80
533.33	38902.04
533.50	38845.87
533.67	38679.69
533.84	38724.16
534.01	39005.03
534.18	38679.69
534.35	39026.09
534.52	39007.37
534.69	39491.86
534.86	39391.22
535.03	39112.69
535.20	39519.95
535.37	39625.27
535.54	39304.62
535.71	39388.88
535.88	39744.64
536.05	39473.13
536.22	39629.95
536.38	39672.08
536.55	39856.98
536.72	39915.50
536.89	40004.44
537.06	39665.06
537.23	40116.78
537.40	39924.86
537.57	39732.93
537.74	39505.90
537.91	40175.30
538.08	39999.76
538.25	39929.54
538.42	40470.20
538.59	40418.71
538.75	40151.89
538.92	40226.79
539.09	40905.54
539.26	40357.86
539.43	40430.41
539.60	40554.46
539.77	40699.58
539.94	40905.54
540.11	40730.00
540.28	40821.28
540.44	40715.96
540.61	40781.49
540.78	40488.93
540.95	41057.68
541.12	40928.95
541.29	40809.58
541.46	41277.69
541.62	41656.85
541.79	41642.81
541.96	40886.82
542.13	40964.06
542.30	41450.89
542.47	41544.51
542.63	41305.77
542.80	41528.13
542.97	41654.51
543.14	42141.35
543.31	41638.13
543.48	41680.26
543.64	42487.74
543.81	42359.02
543.98	41998.57
544.15	41979.85
544.32	42501.79
544.48	42197.52
544.65	41904.95
544.82	42220.92
544.99	42270.08
545.16	42590.73
545.32	42169.43
545.49	42827.12
545.66	42696.05
545.83	42660.94
546.00	42277.10
546.16	42731.16
546.33	42564.98
546.50	42462.00
546.67	42670.31
546.83	42522.85
547.00	42286.46
547.17	42808.40
547.34	42623.50
547.50	43129.05
547.67	43122.03
547.84	43012.02
548.00	43473.11
548.17	43388.85
548.34	43138.41
548.51	43564.39
548.67	43379.49
548.84	43414.60
549.01	43325.66
549.18	43351.40
549.34	43409.92
549.51	43217.99
549.68	43742.27
549.84	43452.05
550.01	43756.32
550.18	43592.48
550.34	43739.93
550.51	43393.53
550.68	43388.85
550.84	43400.55
551.01	43791.42
551.18	43210.97
551.34	43524.60
551.51	44191.65
551.68	43634.61
551.84	43915.47
552.01	43894.41
552.18	43931.86
552.34	43585.46
552.51	44079.31
552.68	43840.57
552.84	43847.60
553.01	44217.40
553.18	44308.68
553.34	44304.00
553.51	44144.84
553.67	44432.73
553.84	44334.43
554.01	44371.88
554.17	44652.74
554.34	44545.08
554.51	44975.73
554.67	44790.83
554.84	44568.48
555.00	44306.34
555.17	44229.10
555.33	44828.28
555.50	44624.65
555.67	44737.00
555.83	45219.15
556.00	44952.33
556.16	45071.70
556.33	44751.04
556.50	45041.27
556.66	44900.84
556.83	45034.25
556.99	44877.43
557.16	45226.17
557.32	45511.72
557.49	45544.48
557.65	44830.62
557.82	44828.28
557.98	44917.22
558.15	45001.48
558.32	45474.27
558.48	45310.43
558.65	45240.21
558.81	45343.20
558.98	45532.78
559.14	45439.16
559.31	45413.41
559.47	44999.14
559.64	45347.88
559.80	45553.85
559.97	45752.79
560.13	45406.39
560.30	45394.69
560.46	45930.67
560.63	45612.36
560.79	45436.82
560.96	45846.41
561.12	45588.95
561.29	46052.38
561.45	45624.06
561.61	45322.13
561.78	45556.19
561.94	45647.47
562.11	45436.82
562.27	45804.28
562.44	45495.33
562.60	46026.63
562.77	45832.37
562.93	45511.72
563.10	45830.03
563.26	45549.17
563.42	46230.26
563.59	45886.20
563.75	46064.08
563.92	46209.20
564.08	46094.51
564.24	46157.70
564.41	46314.52
564.57	46155.36
564.74	45998.55
564.90	45734.07
565.07	45986.85
565.23	46508.79
565.39	46064.08
565.56	46220.90
565.72	46581.34
565.88	46272.39
566.05	46012.59
566.21	46134.30
566.38	46232.60
566.54	46485.38
566.70	46375.37
566.87	46183.45
567.03	46546.23
567.19	46520.49
567.36	46433.89
567.52	46295.80
567.68	46513.47
567.85	46656.24
568.01	46389.42
568.17	46436.23
568.34	46859.87
568.50	46717.09
568.66	45991.53
568.83	46597.73
568.99	46571.98
569.15	47000.30
569.32	46167.07
569.48	46583.68
569.64	46876.25
569.81	46513.47
569.97	46670.28
570.13	46745.18
570.30	46403.46
570.46	46894.97
570.62	46808.37
570.78	46550.91
570.95	46506.44
571.11	46752.20
571.27	46511.13
571.43	46967.53
571.60	46403.46
571.76	46424.53
571.92	46452.61
572.09	47093.92
572.25	46174.09
572.41	46651.56
572.57	46822.42
572.74	47402.87
572.90	46808.37
573.06	46749.86
573.22	46852.84
573.38	47435.64
573.55	47365.42
573.71	46784.97
573.87	47501.17
574.03	46986.25
574.20	47510.53
574.36	47288.18
574.52	46712.41
574.68	46679.64
574.84	47138.39
575.01	47044.77
575.17	47012.00
575.33	47026.04
575.49	46628.15
575.65	47206.26
575.82	47290.52
575.98	47203.92
576.14	47316.27
576.30	47168.82
576.46	46969.87
576.62	47227.33
576.79	47122.01
576.95	46930.08
577.11	46820.08
577.27	47136.05
577.43	47463.72
577.59	46806.03
577.75	47035.41
577.92	46525.17
578.08	46817.74
578.24	46705.39
578.40	47363.08
578.56	47058.81
578.72	47166.48
578.88	47178.18
579.04	46953.49
579.21	47248.39
579.37	47030.72
579.53	47217.97
579.69	47143.07
579.85	47147.75
580.01	47035.41
580.17	47210.95
580.33	47414.57
580.49	47222.65
580.65	47398.19
580.82	46976.89
580.98	46799.01
581.14	46995.62
581.30	47283.50
581.46	46892.63
581.62	47290.52
581.78	47339.68
581.94	47512.88
582.10	47316.27
582.26	47466.06
582.42	47454.36
582.58	47426.28
582.74	47501.17
582.90	47351.38
583.06	47643.94
583.22	46958.17
583.38	47388.83
583.54	47166.48
583.70	47224.99
583.86	47033.07
584.02	47257.76
584.18	47627.56
584.34	47257.76
584.50	47590.11
584.66	47353.72
584.82	47274.14
584.98	47573.73
585.14	47370.10
585.30	47070.51
585.46	47217.97
585.62	47260.10
585.78	47384.15
585.94	47269.46
586.10	47445.00
586.26	47482.45
586.42	47136.05
586.58	47618.20
586.74	47587.77
586.90	47072.85
587.06	47257.76
587.22	47306.91
587.38	47349.04
587.54	47938.85
587.70	47676.71
587.86	47173.50
588.02	47313.93
588.18	47697.78
588.34	47583.09
588.49	47646.29
588.65	47618.20
588.81	47334.99
588.97	47608.84
589.13	47395.85
589.29	47636.92
589.45	47845.23
589.61	47704.80
589.77	47716.50
589.93	47870.98
