SpectraSuite Data File
++++++++++++++++++++++++++++++++++++
Date: Fri Oct 25 11:33:24 EDT 2013
User: price-jones
Dark Spectrum Present: No
Reference Spectrum Present: No
Number of Sampled Component Spectra: 1
Spectrometers: USB2+H05261
Integration Time (usec): 100000 (USB2+H05261)
Spectra Averaged: 1 (USB2+H05261)
Boxcar Smoothing: 0 (USB2+H05261)
Correct for Electrical Dark: No (USB2+H05261)
Strobe/Lamp Enabled: No (USB2+H05261)
Correct for Detector Non-linearity: No (USB2+H05261)
Correct for Stray Light: No (USB2+H05261)
Number of Pixels in Processed Spectrum: 2048
>>>>>Begin Processed Spectral Data<<<<<
365.73	325.33
365.92	325.33
366.12	325.33
366.32	154.48
366.52	114.69
366.72	154.48
366.91	180.22
367.11	175.54
367.31	173.20
367.51	180.22
367.70	173.20
367.90	198.95
368.10	140.43
368.30	182.56
368.49	147.45
368.69	241.08
368.89	196.60
369.09	264.48
369.28	210.65
369.48	257.46
369.68	201.29
369.87	231.71
370.07	273.84
370.27	278.52
370.47	341.72
370.66	454.06
370.86	514.92
371.06	547.69
371.25	540.66
371.45	531.30
371.65	498.53
371.84	585.13
372.04	582.79
372.24	592.16
372.44	606.20
372.63	550.03
372.83	589.82
373.03	585.13
373.22	608.54
373.42	613.22
373.62	594.50
373.81	648.33
374.01	713.86
374.21	603.86
374.40	641.31
374.60	662.37
374.79	660.03
374.99	610.88
375.19	578.11
375.38	681.10
375.58	660.03
375.78	716.20
375.97	683.44
376.17	699.82
376.37	685.78
376.56	671.73
376.76	683.44
376.95	617.90
377.15	681.10
377.35	622.58
377.54	716.20
377.74	678.76
377.93	702.16
378.13	732.59
378.33	695.14
378.52	741.95
378.72	739.61
378.91	748.97
379.11	704.50
379.31	699.82
379.50	685.78
379.70	748.97
379.89	734.93
380.09	695.14
380.28	620.24
380.48	786.42
380.68	720.88
380.87	765.36
381.07	737.27
381.26	805.14
381.46	809.83
381.65	774.72
381.85	814.51
382.04	744.29
382.24	741.95
382.43	777.06
382.63	741.95
382.83	751.31
383.02	866.00
383.22	807.48
383.41	800.46
383.61	856.64
383.80	784.08
384.00	847.27
384.19	844.93
384.39	826.21
384.58	847.27
384.78	858.98
384.97	807.48
385.17	823.87
385.36	805.14
385.56	847.27
385.75	847.27
385.95	905.79
386.14	842.59
386.34	922.17
386.53	847.27
386.72	915.15
386.92	926.85
387.11	950.26
387.31	821.53
387.50	882.38
387.70	933.87
387.89	842.59
388.09	915.15
388.28	950.26
388.48	894.08
388.67	945.58
388.86	990.05
389.06	959.62
389.25	917.49
389.45	966.64
389.64	987.71
389.84	957.28
390.03	947.92
390.22	950.26
390.42	973.66
390.61	910.47
390.81	976.00
391.00	973.66
391.19	990.05
391.39	912.81
391.58	966.64
391.78	1015.79
391.97	976.00
392.16	1006.43
392.36	1123.46
392.55	1064.94
392.75	1053.24
392.94	1102.39
393.13	1135.16
393.33	1053.24
393.52	1008.77
393.71	1032.18
393.91	1104.73
394.10	1144.52
394.29	1062.60
394.49	1107.07
394.68	1179.63
394.88	1144.52
395.07	1203.04
395.26	1053.24
395.46	1086.01
395.65	1142.18
395.84	1212.40
396.04	1179.63
396.23	1132.82
396.42	1191.33
396.62	1165.59
396.81	1282.61
397.00	1226.44
397.19	1320.06
397.39	1207.72
397.58	1364.53
397.77	1322.40
397.97	1242.82
398.16	1256.87
398.35	1287.29
398.55	1287.29
398.74	1238.14
398.93	1310.70
399.12	1275.59
399.32	1296.66
399.51	1345.81
399.70	1441.77
399.90	1306.02
400.09	1362.19
400.28	1434.75
400.47	1397.30
400.67	1427.73
400.86	1371.55
401.05	1420.71
401.24	1411.34
401.44	1455.81
401.63	1504.96
401.82	1467.52
402.01	1469.86
402.21	1554.12
402.40	1563.48
402.59	1495.60
402.78	1516.67
402.97	1638.38
403.17	1579.86
403.36	1593.90
403.55	1490.92
403.74	1629.01
403.93	1614.97
404.13	1650.08
404.32	1617.31
404.51	1554.12
404.70	1645.40
404.89	1673.48
405.09	1739.02
405.28	1645.40
405.47	1689.87
405.66	1741.36
405.85	1713.27
406.05	1678.16
406.24	1720.29
406.43	1746.04
406.62	1760.08
406.81	1900.52
407.00	1755.40
407.20	1724.97
407.39	1755.40
407.58	1914.56
407.77	1834.98
407.96	1952.01
408.15	2005.84
408.34	1802.21
408.54	1907.54
408.73	1989.46
408.92	1837.32
409.11	1937.96
409.30	1923.92
409.49	1935.62
409.68	1930.94
409.87	2104.14
410.07	2129.89
410.26	2104.14
410.45	2040.95
410.64	2139.25
410.83	2134.57
411.02	2111.16
411.21	2120.53
411.40	2172.02
411.59	2108.82
411.78	2120.53
411.98	2211.81
412.17	2267.98
412.36	2207.13
412.55	2459.90
412.74	2319.47
412.93	2354.58
413.12	2293.72
413.31	2490.33
413.50	2349.90
413.69	2492.67
413.88	2443.52
414.07	2581.61
414.26	2420.11
414.45	2483.31
414.64	2590.97
414.83	2656.51
415.02	2630.76
415.22	2759.49
415.41	2722.04
415.60	2644.81
415.79	2670.55
415.98	2780.56
416.17	2675.23
416.36	2736.09
416.55	2719.70
416.74	2794.60
416.93	2722.04
417.12	2820.35
417.31	2871.84
417.50	2890.56
417.69	2942.05
417.88	2960.78
418.07	2974.82
418.26	2876.52
418.45	3030.99
418.64	3105.89
418.83	3138.66
419.02	3009.93
419.21	3030.99
419.39	3178.45
419.58	3061.42
419.77	3206.53
419.96	3173.77
420.15	3155.04
420.34	3131.64
420.53	3157.38
420.72	3211.22
420.91	3332.92
421.10	3365.69
421.29	3337.60
421.48	3368.03
421.67	3318.88
421.86	3208.87
422.05	3246.32
422.24	3379.73
422.43	3295.47
422.61	3386.76
422.80	3393.78
422.99	3531.87
423.18	3391.44
423.37	3538.89
423.56	3332.92
423.75	3400.80
423.94	3433.57
424.13	3110.57
424.32	3272.07
424.50	3478.04
424.69	3503.78
424.88	3531.87
425.07	3501.44
425.26	3375.05
425.45	3435.91
425.64	3384.41
425.83	3513.14
426.01	3492.08
426.20	3396.12
426.39	3489.74
426.58	3522.51
426.77	3480.38
426.96	3501.44
427.15	3581.02
427.33	3536.55
427.52	3583.36
427.71	3674.64
427.90	3510.80
428.09	3695.71
428.28	3578.68
428.46	3637.19
428.65	3707.41
428.84	3705.07
429.03	3808.05
429.22	3609.11
429.40	3672.30
429.59	3749.54
429.78	3492.08
429.97	3676.98
430.16	3932.10
430.34	3850.18
430.53	3925.08
430.72	3964.87
430.91	3920.40
431.10	3744.86
431.28	3932.10
431.47	3868.91
431.66	4044.45
431.85	4042.11
432.03	4018.70
432.22	4196.58
432.41	4051.47
432.60	4191.90
432.79	4156.79
432.97	4145.09
433.16	4156.79
433.35	4189.56
433.54	4112.32
433.72	4287.86
433.91	4276.16
434.10	4325.31
434.28	4215.30
434.47	4159.13
434.66	4189.56
434.85	4133.39
435.03	4447.02
435.22	4208.28
435.41	4423.61
435.59	4461.06
435.78	4425.95
435.97	4367.44
436.16	4465.74
436.34	4475.10
436.53	4390.84
436.72	4519.57
436.90	4447.02
437.09	4547.66
437.28	4372.12
437.46	4531.28
437.65	4657.67
437.84	4627.24
438.02	4592.13
438.21	4767.67
438.40	4587.45
438.58	4784.06
438.77	4737.24
438.96	4688.09
439.14	4809.80
439.33	4858.95
439.52	5039.17
439.70	5013.43
439.89	4975.98
440.08	5146.84
440.26	5100.03
440.45	5121.09
440.63	5078.96
440.82	5210.03
441.01	5137.48
441.19	5076.62
441.38	5343.44
441.57	5305.99
441.75	5320.04
441.94	5518.98
442.12	5535.37
442.31	5427.70
442.50	5523.66
442.68	5427.70
442.87	5500.26
443.05	5600.90
443.24	5521.32
443.43	5533.03
443.61	5572.82
443.80	5591.54
443.98	5451.11
444.17	5483.88
444.35	5540.05
444.54	5706.23
444.73	5640.69
444.91	5605.58
445.10	5706.23
445.28	5631.33
445.47	5659.42
445.65	5652.39
445.84	5722.61
446.02	5851.34
446.21	5680.48
446.39	5741.33
446.58	5804.53
446.77	5895.81
446.95	5504.94
447.14	5743.67
447.32	5940.28
447.51	5692.18
447.69	5860.70
447.88	5870.06
448.06	5975.39
448.25	5750.70
448.43	5921.56
448.62	5715.59
448.80	5823.25
448.99	5956.66
449.17	5914.53
449.36	5909.85
449.54	6005.81
449.73	5966.03
449.91	6024.54
450.10	6047.94
450.28	6176.67
450.46	6155.61
450.65	6057.31
450.83	6195.40
451.02	6129.86
451.20	6274.98
451.39	6057.31
451.57	6195.40
451.76	6237.53
451.94	6242.21
452.13	6296.04
452.31	6298.38
452.49	6200.08
452.68	6272.64
452.86	6298.38
453.05	6310.08
453.23	6377.96
453.42	6396.68
453.60	6382.64
453.78	6478.60
453.97	6466.90
454.15	6363.92
454.34	6279.66
454.52	6499.67
454.70	6663.51
454.89	6511.37
455.07	6621.38
455.26	6684.57
455.44	6799.26
455.62	6740.74
455.81	6757.13
455.99	6691.59
456.17	6668.19
456.36	6874.15
456.54	7066.08
456.73	6726.70
456.91	7014.59
457.09	7045.01
457.28	7054.37
457.46	7080.12
457.64	7136.29
457.83	7028.63
458.01	7227.57
458.19	7346.94
458.38	7199.49
458.56	7293.11
458.74	7164.38
458.93	7169.06
459.11	7129.27
459.29	7363.33
459.48	7433.54
459.66	7314.17
459.84	7487.37
460.03	7412.48
460.21	7536.52
460.39	7342.26
460.57	7557.59
460.76	7421.84
460.94	7478.01
461.12	7583.34
461.31	7545.89
461.49	7583.34
461.67	7414.82
461.85	7756.54
462.04	7501.42
462.22	8107.62
462.40	7866.54
462.59	7796.32
462.77	7859.52
462.95	7819.73
463.13	7852.50
463.32	7868.88
463.50	8056.12
463.68	7918.03
463.86	8032.72
464.05	7831.43
464.23	7702.70
464.41	7845.48
464.59	7770.58
464.78	8159.11
464.96	8175.49
465.14	8018.68
465.32	8002.29
465.50	8128.68
465.69	8271.45
465.87	8126.34
466.05	8184.85
466.23	8180.17
466.41	8294.86
466.60	8376.78
466.78	8133.36
466.96	8201.24
467.14	8243.37
467.32	8503.17
467.51	8306.56
467.69	8234.00
467.87	8442.31
468.05	8465.72
468.23	8353.37
468.41	8266.77
468.60	8472.74
468.78	8432.95
468.96	8194.22
469.14	8493.80
469.32	8788.71
469.50	8451.67
469.69	8681.05
469.87	8718.50
470.05	8924.46
470.23	8779.35
470.41	8936.17
470.59	8936.17
470.77	8767.65
470.95	9006.38
471.14	9085.96
471.32	9011.06
471.50	8912.76
471.68	9158.52
471.86	9050.85
472.04	9074.26
472.22	9228.73
472.40	9107.02
472.58	9263.84
472.77	9252.14
472.95	9247.46
473.13	9617.26
473.31	9198.31
473.49	9551.73
473.67	9668.75
473.85	9635.99
474.03	9633.64
474.21	9748.33
474.39	9764.72
474.57	9837.27
474.75	10054.94
474.93	9933.23
475.12	9933.23
475.30	10216.44
475.48	10167.29
475.66	10195.37
475.84	10066.64
476.02	10193.03
476.20	10221.12
476.38	10410.70
476.56	10841.36
476.74	10937.32
476.92	10637.73
477.10	10455.17
477.28	10871.79
477.46	10565.18
477.64	11061.37
477.82	10993.50
478.00	11295.43
478.18	11073.07
478.36	11059.03
478.54	11358.62
478.72	11346.92
478.90	11405.43
479.08	11599.70
479.26	11655.87
479.44	11665.23
479.62	11808.00
479.80	11974.18
479.98	11929.71
480.16	12116.95
480.34	12077.16
480.52	12140.36
480.70	12161.42
480.88	12170.79
481.06	12269.09
481.24	12395.48
481.41	12662.30
481.59	12716.13
481.77	12894.01
481.95	12980.61
482.13	12912.74
482.31	12978.27
482.49	13317.65
482.67	13315.31
482.85	13280.20
483.03	13495.53
483.21	13607.87
483.39	13771.71
483.57	13818.52
483.74	13951.93
483.92	14108.75
484.10	13947.25
484.28	14370.89
484.46	14670.48
484.64	14623.67
484.82	14640.05
485.00	14647.07
485.18	15014.54
485.35	15309.44
485.53	15007.52
485.71	15133.90
485.89	15484.98
486.07	15410.09
486.25	15459.24
486.43	15400.72
486.61	15744.78
486.78	15992.88
486.96	15857.13
487.14	16063.10
487.32	16362.69
487.50	16145.02
487.68	16308.85
487.85	16472.69
488.03	16643.55
488.21	17020.38
488.39	17060.16
488.57	17233.36
488.75	17348.05
488.92	17495.50
489.10	17715.51
489.28	17570.40
489.46	18270.22
489.64	17642.96
489.81	18202.35
489.99	18288.95
490.17	18235.11
490.35	18644.71
490.53	18647.05
490.70	18890.46
490.88	18845.99
491.06	19112.81
491.24	18726.63
491.41	19077.71
491.59	19178.35
491.77	19531.77
491.95	19314.10
492.13	19868.81
492.30	19754.12
492.48	19814.98
492.66	19857.10
492.84	19810.29
493.01	20166.06
493.19	20201.16
493.37	20467.98
493.54	20453.94
493.72	20910.35
493.90	20554.58
494.08	20896.30
494.25	20947.79
494.43	21195.89
494.61	21329.30
494.79	21256.75
494.96	21261.43
495.14	21399.52
495.32	21722.51
495.49	21668.68
495.67	21596.12
495.85	22024.44
496.02	22150.83
496.20	22459.78
496.38	22363.82
496.55	22548.72
496.73	23073.00
496.91	22965.34
497.09	22909.16
497.26	22874.06
497.44	22953.63
497.62	23204.07
497.79	23248.54
497.97	23358.55
498.14	23632.39
498.32	23913.25
498.50	23597.28
498.67	23929.64
498.85	23749.42
499.03	24205.82
499.20	23957.72
499.38	24428.17
499.56	24460.94
499.73	24493.71
499.91	24975.86
500.08	24875.21
500.26	24837.76
500.44	24905.64
500.61	24854.15
500.79	25127.99
500.97	25390.13
501.14	25312.89
501.32	25256.72
501.49	25572.69
501.67	25741.21
501.84	25771.64
502.02	25582.06
502.20	25727.17
502.37	26183.57
502.55	25378.43
502.72	26174.21
502.90	25788.02
503.07	25935.48
503.25	26202.30
503.43	26101.65
503.60	26394.22
503.78	26426.99
503.95	26579.12
504.13	26682.11
504.30	26965.31
504.48	26867.01
504.65	26867.01
504.83	27117.45
505.01	27103.40
505.18	27108.08
505.36	27393.63
505.53	27007.44
505.71	27264.90
505.88	27653.43
506.06	27353.84
506.23	28018.55
506.41	27489.59
506.58	27735.35
506.76	27828.97
506.93	27920.25
507.11	28180.05
507.28	28278.35
507.46	28247.93
507.63	28521.77
507.81	28774.55
507.98	28407.08
508.16	28510.07
508.33	28741.78
508.50	28758.16
508.68	28830.72
508.85	29170.10
509.03	28863.49
509.20	29322.23
509.38	29507.13
509.55	29240.31
509.73	29572.67
509.90	29172.44
510.08	29886.30
510.25	29914.39
510.42	29776.30
510.60	29827.79
510.77	30146.10
510.95	30192.91
511.12	29893.32
511.30	29743.53
511.47	30045.46
511.64	30223.34
511.82	30632.93
511.99	30696.13
512.17	30745.28
512.34	30375.47
512.51	30771.02
512.69	31314.03
512.86	30740.60
513.04	31269.56
513.21	31192.32
513.38	31215.72
513.56	30888.05
513.73	30969.97
513.90	31662.77
514.08	30976.99
514.25	31510.63
514.43	31662.77
514.60	31842.99
514.77	31737.66
514.95	32105.13
515.12	31772.77
515.29	31732.98
515.47	31833.63
515.64	32149.60
515.81	31728.30
515.99	32095.77
516.16	32898.57
516.33	32496.00
516.51	32779.20
516.68	32671.54
516.85	32701.96
517.03	32657.49
517.20	32772.18
517.37	33041.34
517.54	33064.75
517.72	32952.40
517.89	33497.75
518.06	33347.95
518.24	33268.37
518.41	33282.42
518.58	33446.26
518.75	33027.30
518.93	33764.57
519.10	33298.80
519.27	33703.71
519.45	34092.24
519.62	33628.82
519.79	33776.27
519.96	33802.02
520.14	34005.64
520.31	34190.55
520.48	34298.21
520.65	34132.03
520.83	34773.34
521.00	34726.53
521.17	34724.19
521.34	34361.40
521.52	34920.79
521.69	34600.14
521.86	35014.41
522.03	35150.17
522.20	35241.45
522.38	35211.02
522.55	35201.66
522.72	34890.37
522.89	35292.94
523.07	35814.88
523.24	35339.75
523.41	35152.51
523.58	35498.91
523.75	35849.99
523.92	35508.27
524.10	35482.52
524.27	35321.02
524.44	35821.90
524.61	35758.70
524.78	35641.68
524.96	35955.31
525.13	36088.72
525.30	36357.88
525.47	36217.45
525.64	36046.59
525.81	36507.68
525.98	36493.63
526.16	36233.83
526.33	36175.32
526.50	36858.76
526.67	36781.52
526.84	36776.84
527.01	37064.72
527.18	36725.35
527.36	37125.58
527.53	37387.72
527.70	37596.03
527.87	37366.65
528.04	37024.93
528.21	37209.84
528.38	37188.77
528.55	36994.51
528.72	37429.85
528.89	37462.61
529.07	37312.82
529.24	37156.00
529.41	38003.28
529.58	37591.34
529.75	37841.78
529.92	38059.45
530.09	37787.95
530.26	38012.64
530.43	38036.05
530.60	37759.86
530.77	37851.14
530.94	37937.74
531.11	38012.64
531.28	38164.78
531.46	37937.74
531.63	38553.30
531.80	37977.53
531.97	38705.44
532.14	38335.63
532.31	38359.04
532.48	38527.56
532.65	38607.14
532.82	38611.82
532.99	38857.57
533.16	38665.65
533.33	38635.22
533.50	38780.34
533.67	38710.12
533.84	38738.21
534.01	39028.43
534.18	38923.11
534.35	39583.14
534.52	39133.76
534.69	39716.55
534.86	39655.70
535.03	39180.57
535.20	39611.23
535.37	39566.76
535.54	39889.75
535.71	39901.45
535.88	39676.76
536.05	39786.77
536.22	39999.76
536.38	39658.04
536.55	39931.88
536.72	39995.07
536.89	39901.45
537.06	39913.16
537.23	39929.54
537.40	39845.28
537.57	39887.41
537.74	40086.36
537.91	40533.40
538.08	40765.11
538.25	40369.56
538.42	40289.98
538.59	40568.51
538.75	40245.51
538.92	41207.47
539.09	40584.89
539.26	40327.43
539.43	40921.93
539.60	40832.99
539.77	40999.16
539.94	40945.33
540.11	41022.57
540.28	41155.98
540.44	41301.09
540.61	40659.79
540.78	40861.07
540.95	41074.06
541.12	41031.93
541.29	40781.49
541.46	40758.09
541.62	41134.92
541.79	41436.84
541.96	41170.02
542.13	41441.53
542.30	41427.48
542.47	41673.24
542.63	41464.93
542.80	41696.64
542.97	41790.27
543.14	41977.51
543.31	41778.56
543.48	41958.78
543.64	42719.46
543.81	42129.64
543.98	42368.38
544.15	42199.86
544.32	42398.80
544.48	42656.26
544.65	42609.45
544.82	42499.45
544.99	42319.23
545.16	42391.78
545.32	42733.50
545.49	42529.87
545.66	42333.27
545.83	42656.26
546.00	42438.59
546.16	42735.84
546.33	42433.91
546.50	42504.13
546.67	43023.73
546.83	42183.48
547.00	42848.19
547.17	42635.20
547.34	42988.62
547.50	43107.99
547.67	43461.41
547.84	42902.02
548.00	43295.23
548.17	43643.97
548.34	43281.19
548.51	43625.25
548.67	43065.86
548.84	43129.05
549.01	43407.58
549.18	43501.20
549.34	43306.93
549.51	43882.70
549.68	43908.45
549.84	43725.89
550.01	43711.84
550.18	43798.44
550.34	43622.90
550.51	43672.06
550.68	43899.09
550.84	43573.75
551.01	44023.14
551.18	43803.13
551.34	43866.32
551.51	44212.72
551.68	43945.90
551.84	43819.51
552.01	43672.06
552.18	43882.70
552.34	43938.88
552.51	43948.24
552.68	44229.10
552.84	44376.56
553.01	44395.28
553.18	44364.85
553.34	44502.95
553.51	44402.30
553.67	44451.45
553.84	44622.31
554.01	44416.35
554.17	44332.09
554.34	44367.20
554.51	44456.14
554.67	44671.46
554.84	44959.35
555.00	44655.08
555.17	44575.50
555.33	44722.96
555.50	45029.57
555.67	44935.95
555.83	44685.51
556.00	44741.68
556.16	45408.73
556.33	44825.94
556.50	45443.84
556.66	44996.80
556.83	44957.01
556.99	45408.73
557.16	45488.31
557.32	45680.24
557.49	45567.89
557.65	45078.72
557.82	45181.70
557.98	45102.12
558.15	45289.37
558.32	45331.50
558.48	45261.28
558.65	45249.58
558.81	45420.44
558.98	45282.34
559.14	45230.85
559.31	45425.12
559.47	45553.85
559.64	45460.23
559.80	45640.45
559.97	45815.99
560.13	45507.04
560.30	45607.68
560.46	45916.63
560.63	45607.68
560.79	45818.33
560.96	46244.30
561.12	45668.53
561.29	45759.81
561.45	45925.99
561.61	45776.20
561.78	45481.29
561.94	45825.35
562.11	45722.37
562.27	46110.89
562.44	45804.28
562.60	46251.33
562.77	45918.97
562.93	45694.28
563.10	46103.87
563.26	46279.41
563.42	46480.70
563.59	46094.51
563.75	46014.93
563.92	46136.64
564.08	45925.99
564.24	45930.67
564.41	46085.15
564.57	45869.82
564.74	46653.90
564.90	46265.37
565.07	46356.65
565.23	45727.05
565.39	46195.15
565.56	46408.14
565.72	46305.16
565.88	46424.53
566.05	46295.80
566.21	46256.01
566.38	46239.62
566.54	46335.59
566.70	46681.98
566.87	46485.38
567.03	46277.07
567.19	46429.21
567.36	46426.87
567.52	46248.99
567.68	46803.69
567.85	46560.28
568.01	46799.01
568.17	46567.30
568.34	46848.16
568.50	46602.41
568.66	46595.38
568.83	46571.98
568.99	46162.39
569.15	46740.50
569.32	46681.98
569.48	46979.23
569.64	47068.17
569.81	47075.19
569.97	46679.64
570.13	47089.24
570.30	46777.95
570.46	46923.06
570.62	46946.47
570.78	46752.20
570.95	46630.49
571.11	46740.50
571.27	46630.49
571.43	46967.53
571.60	46925.40
571.76	46677.30
571.92	46871.57
572.09	46473.68
572.25	46799.01
572.41	46525.17
572.57	47070.51
572.74	47503.51
572.90	47283.50
573.06	46955.83
573.22	47597.13
573.38	47412.23
573.55	46791.99
573.71	46906.68
573.87	47332.65
574.03	47033.07
574.20	47437.98
574.36	47131.37
574.52	47086.90
574.68	47065.83
574.84	47519.90
575.01	47063.49
575.17	47304.57
575.33	47351.38
575.49	47400.53
575.65	47260.10
575.82	46974.55
575.98	46745.18
576.14	47503.51
576.30	47227.33
576.46	46897.31
576.62	46995.62
576.79	46777.95
576.95	46803.69
577.11	47061.15
577.27	47164.14
577.43	47318.61
577.59	47611.18
577.75	46810.71
577.92	46754.54
578.08	47122.01
578.24	47138.39
578.40	47536.28
578.56	47512.88
578.72	47601.82
578.88	47208.61
579.04	47517.56
579.21	47363.08
579.37	47351.38
579.53	47189.88
579.69	47175.84
579.85	47253.08
580.01	47075.19
580.17	47320.95
580.33	47608.84
580.49	47433.30
580.65	47374.78
580.82	47533.94
580.98	47255.42
581.14	47262.44
581.30	47461.38
581.46	47199.24
581.62	47271.80
581.78	47075.19
581.94	47426.28
582.10	47763.31
582.26	47629.90
582.42	47449.68
582.58	47217.97
582.74	47419.25
582.90	47550.32
583.06	47480.11
583.22	47674.37
583.38	47641.60
583.54	47831.19
583.70	47599.47
583.86	47428.62
584.02	47154.77
584.18	47704.80
584.34	47826.51
584.50	47686.07
584.66	47807.78
584.82	47416.91
584.98	48034.81
585.14	47807.78
585.30	47217.97
585.46	47547.98
585.62	47636.92
585.78	47601.82
585.94	47201.58
586.10	47578.41
586.26	47753.95
586.42	47653.31
586.58	47901.40
586.74	47590.11
586.90	47215.63
587.06	47576.07
587.22	47533.94
587.38	47229.67
587.54	48074.60
587.70	47896.72
587.86	47475.43
588.02	47566.71
588.18	47594.79
588.34	47662.67
588.49	47730.54
588.65	47716.50
588.81	47489.47
588.97	47920.13
589.13	47494.15
589.29	47913.11
589.45	47955.24
589.61	48252.48
589.77	48041.84
589.93	47931.83
590.08	48009.07
