SpectraSuite Data File
++++++++++++++++++++++++++++++++++++
Date: Fri Oct 25 10:48:05 EDT 2013
User: price-jones
Dark Spectrum Present: No
Reference Spectrum Present: No
Number of Sampled Component Spectra: 1
Spectrometers: USB2+H05261
Integration Time (usec): 100000 (USB2+H05261)
Spectra Averaged: 1 (USB2+H05261)
Boxcar Smoothing: 0 (USB2+H05261)
Correct for Electrical Dark: No (USB2+H05261)
Strobe/Lamp Enabled: No (USB2+H05261)
Correct for Detector Non-linearity: No (USB2+H05261)
Correct for Stray Light: No (USB2+H05261)
Number of Pixels in Processed Spectrum: 2048
>>>>>Begin Processed Spectral Data<<<<<
365.73	175.54
365.92	175.54
366.12	175.54
366.32	88.94
366.52	35.11
366.72	63.19
366.91	93.62
367.11	60.85
367.31	67.88
367.51	18.72
367.70	14.04
367.90	98.30
368.10	58.51
368.30	91.28
368.49	42.13
368.69	0.00
368.89	25.75
369.09	37.45
369.28	53.83
369.48	44.47
369.68	70.22
369.87	128.73
370.07	79.58
370.27	112.35
370.47	238.73
370.66	337.04
370.86	489.17
371.06	468.11
371.25	524.28
371.45	393.21
371.65	430.66
371.84	386.19
372.04	470.45
372.24	465.77
372.44	507.90
372.63	491.51
372.83	451.72
373.03	470.45
373.22	496.19
373.42	528.96
373.62	503.22
373.81	568.75
374.01	540.66
374.21	561.73
374.40	500.87
374.60	535.98
374.79	533.64
374.99	564.07
375.19	517.26
375.38	566.41
375.58	599.18
375.78	578.11
375.97	533.64
376.17	653.01
376.37	552.37
376.56	557.05
376.76	594.50
376.95	580.45
377.15	582.79
377.35	585.13
377.54	540.66
377.74	582.79
377.93	627.26
378.13	685.78
378.33	678.76
378.52	587.47
378.72	671.73
378.91	596.84
379.11	528.96
379.31	615.56
379.50	566.41
379.70	695.14
379.89	643.65
380.09	678.76
380.28	620.24
380.48	669.39
380.68	690.46
380.87	653.01
381.07	702.16
381.26	732.59
381.46	645.99
381.65	727.91
381.85	624.92
382.04	624.92
382.24	638.97
382.43	744.29
382.63	657.69
382.83	690.46
383.02	821.53
383.22	807.48
383.41	690.46
383.61	711.52
383.80	753.65
384.00	653.01
384.19	753.65
384.39	741.95
384.58	791.10
384.78	781.74
384.97	760.67
385.17	791.10
385.36	788.76
385.56	795.78
385.75	716.20
385.95	723.23
386.14	777.06
386.34	713.86
386.53	718.54
386.72	737.27
386.92	826.21
387.11	716.20
387.31	772.38
387.50	777.06
387.70	788.76
387.89	952.60
388.09	807.48
388.28	812.17
388.48	793.44
388.67	903.45
388.86	828.55
389.06	812.17
389.25	912.81
389.45	910.47
389.64	873.02
389.84	912.81
390.03	837.91
390.22	952.60
390.42	870.68
390.61	968.98
390.81	819.19
391.00	917.49
391.19	952.60
391.39	940.90
391.58	884.72
391.78	968.98
391.97	1032.18
392.16	938.55
392.36	1034.52
392.55	957.28
392.75	954.94
392.94	926.85
393.13	971.32
393.33	873.02
393.52	976.00
393.71	1032.18
393.91	976.00
394.10	1055.58
394.29	1006.43
394.49	992.39
394.68	1116.44
394.88	1074.31
395.07	1076.65
395.26	1057.92
395.46	1055.58
395.65	1170.27
395.84	1039.20
396.04	1139.84
396.23	1102.39
396.42	1015.79
396.62	1109.41
396.81	1123.46
397.00	1191.33
397.19	1074.31
397.39	1137.50
397.58	1149.20
397.77	1156.22
397.97	1228.78
398.16	1245.16
398.35	1329.42
398.55	1280.27
398.74	1313.04
398.93	1322.40
399.12	1270.91
399.32	1266.23
399.51	1207.72
399.70	1287.29
399.90	1341.13
400.09	1350.49
400.28	1383.26
400.47	1385.60
400.67	1387.94
400.86	1329.42
401.05	1320.06
401.24	1469.86
401.44	1320.06
401.63	1327.08
401.82	1392.62
402.01	1394.96
402.21	1521.35
402.40	1432.41
402.59	1448.79
402.78	1469.86
402.97	1565.82
403.17	1535.39
403.36	1537.73
403.55	1493.26
403.74	1633.69
403.93	1542.41
404.13	1668.80
404.32	1621.99
404.51	1593.90
404.70	1706.25
404.89	1558.80
405.09	1685.19
405.28	1621.99
405.47	1694.55
405.66	1671.14
405.85	1720.29
406.05	1722.63
406.24	1706.25
406.43	1767.10
406.62	1820.94
406.81	1816.26
407.00	1762.42
407.20	1858.39
407.39	1715.61
407.58	1863.07
407.77	1928.60
407.96	1905.20
408.15	1949.67
408.34	1930.94
408.54	1860.73
408.73	1849.02
408.92	2001.16
409.11	2040.95
409.30	2038.61
409.49	1959.03
409.68	1944.99
409.87	1935.62
410.07	2069.03
410.26	2085.42
410.45	1996.48
410.64	2083.08
410.83	2176.70
411.02	2139.25
411.21	2218.83
411.40	2150.95
411.59	2242.23
411.78	2289.04
411.98	2235.21
412.17	2286.70
412.36	2347.56
412.55	2275.00
412.74	2448.20
412.93	2464.58
413.12	2359.26
413.31	2401.39
413.50	2392.03
413.69	2466.92
413.88	2473.95
414.07	2480.97
414.26	2539.48
414.45	2626.08
414.64	2593.31
414.83	2555.86
415.02	2796.94
415.22	2647.15
415.41	2733.75
415.60	2656.51
415.79	2684.59
415.98	2722.04
416.17	2794.60
416.36	2810.98
416.55	2827.37
416.74	2902.26
416.93	2750.13
417.12	2787.58
417.31	2923.33
417.50	3016.95
417.69	3063.76
417.88	3035.67
418.07	2892.90
418.26	2986.52
418.45	2932.69
418.64	3005.25
418.83	3115.25
419.02	3110.57
419.21	3141.00
419.39	3101.21
419.58	3201.85
419.77	3087.17
419.96	3311.86
420.15	3199.51
420.34	3213.56
420.53	3248.66
420.72	3213.56
420.91	3190.15
421.10	3272.07
421.29	3339.94
421.48	3304.84
421.67	3386.76
421.86	3325.90
422.05	3342.28
422.24	3241.64
422.43	3290.79
422.61	3454.63
422.80	3520.17
422.99	3393.78
423.18	3513.14
423.37	3492.08
423.56	3421.86
423.75	3410.16
423.94	3417.18
424.13	3335.26
424.32	3316.54
424.50	3471.01
424.69	3487.40
424.88	3559.95
425.07	3438.25
425.26	3375.05
425.45	3445.27
425.64	3398.46
425.83	3410.16
426.01	3555.27
426.20	3508.46
426.39	3639.53
426.58	3487.40
426.77	3463.99
426.96	3557.61
427.15	3595.06
427.33	3641.87
427.52	3669.96
427.71	3599.74
427.90	3634.85
428.09	3630.17
428.28	3618.47
428.46	3684.00
428.65	3768.26
428.84	3747.20
429.03	3688.68
429.22	3686.34
429.40	3695.71
429.59	3782.31
429.78	3459.31
429.97	3723.79
430.16	3660.60
430.34	3779.97
430.53	3936.78
430.72	3801.03
430.91	3805.71
431.10	3852.52
431.28	4084.23
431.47	4112.32
431.66	4100.62
431.85	3913.38
432.03	3964.87
432.22	4208.28
432.41	4109.98
432.60	3971.89
432.79	4025.72
432.97	4088.92
433.16	4222.33
433.35	4091.26
433.54	4131.05
433.72	4255.09
433.91	4194.24
434.10	4212.96
434.28	4107.64
434.47	4280.84
434.66	4447.02
434.85	4390.84
435.03	4519.57
435.22	4294.88
435.41	4571.07
435.59	4484.47
435.78	4542.98
435.97	4507.87
436.16	4468.08
436.34	4498.51
436.53	4400.21
436.72	4477.44
436.90	4615.54
437.09	4484.47
437.28	4470.42
437.46	4397.87
437.65	4645.96
437.84	4535.96
438.02	4634.26
438.21	4669.37
438.40	4650.64
438.58	4774.69
438.77	4765.33
438.96	4753.63
439.14	4800.44
439.33	4870.65
439.52	4863.63
439.70	5029.81
439.89	4975.98
440.08	5130.45
440.26	4943.21
440.45	5118.75
440.63	5195.99
440.82	5165.56
441.01	5277.91
441.19	5249.82
441.38	5184.29
441.57	5327.06
441.75	5383.23
441.94	5544.73
442.12	5430.04
442.31	5619.63
442.50	5497.92
442.68	5528.35
442.87	5579.84
443.05	5617.29
443.24	5689.84
443.43	5643.03
443.61	5575.16
443.80	5804.53
443.98	5481.53
444.17	5636.01
444.35	5703.89
444.54	5760.06
444.73	5619.63
444.91	5792.83
445.10	5650.05
445.28	5799.85
445.47	5572.82
445.65	5554.09
445.84	5823.25
446.02	5813.89
446.21	5593.88
446.39	5678.14
446.58	5612.60
446.77	5769.42
446.95	5696.86
447.14	5753.04
447.32	5909.85
447.51	5858.36
447.69	5832.62
447.88	6012.84
448.06	5863.04
448.25	5839.64
448.43	5921.56
448.62	5970.71
448.80	5888.79
448.99	6022.20
449.17	6087.73
449.36	6132.20
449.54	6115.82
449.73	6167.31
449.91	6340.51
450.10	6094.76
450.28	6256.25
450.46	6338.17
450.65	6176.67
450.83	6190.72
451.02	6347.53
451.20	6279.66
451.39	6293.70
451.57	6246.89
451.76	6298.38
451.94	6310.08
452.13	6394.34
452.31	6389.66
452.49	6244.55
452.68	6384.98
452.86	6464.56
453.05	6427.11
453.23	6579.25
453.42	6333.49
453.60	6487.96
453.78	6553.50
453.97	6466.90
454.15	6452.86
454.34	6462.22
454.52	6483.28
454.70	6733.72
454.89	6696.27
455.07	6490.31
455.26	6719.68
455.44	6785.21
455.62	6752.45
455.81	6834.36
455.99	6747.76
456.17	6700.95
456.36	6841.39
456.54	7012.24
456.73	6890.54
456.91	7070.76
457.09	7073.10
457.28	7218.21
457.46	6956.07
457.64	7166.72
457.83	7098.84
458.01	6956.07
458.19	7349.28
458.38	7112.89
458.56	7211.19
458.74	7117.57
458.93	7250.98
459.11	7288.43
459.29	7433.54
459.48	7442.90
459.66	7267.36
459.84	7295.45
460.03	7599.72
460.21	7564.61
460.39	7520.14
460.57	7304.81
460.76	7557.59
460.94	7496.74
461.12	7482.69
461.31	7674.62
461.49	7620.78
461.67	7599.72
461.85	7775.26
462.04	7552.91
462.22	7978.89
462.40	7845.48
462.59	7850.16
462.77	8093.57
462.95	7962.50
463.13	7873.56
463.32	7911.01
463.50	7721.43
463.68	8018.68
463.86	7922.71
464.05	7871.22
464.23	7915.69
464.41	7988.25
464.59	7854.84
464.78	8060.80
464.96	7955.48
465.14	7843.14
465.32	8135.70
465.50	8142.72
465.69	8154.43
465.87	8159.11
466.05	8105.28
466.23	8081.87
466.41	8173.15
466.60	8344.01
466.78	7976.55
466.96	8276.13
467.14	8304.22
467.32	8285.50
467.51	8416.57
467.69	8224.64
467.87	8210.60
468.05	8409.54
468.23	8243.37
468.41	8376.78
468.60	8446.99
468.78	8718.50
468.96	8606.15
469.14	8655.30
469.32	8425.93
469.50	8484.44
469.69	8683.39
469.87	8615.51
470.05	8718.50
470.23	8784.03
470.41	8713.81
470.59	8777.01
470.77	8940.85
470.95	8842.54
471.14	9027.45
471.32	8812.12
471.50	8938.51
471.68	8971.27
471.86	8915.10
472.04	9224.05
472.22	9383.21
472.40	9226.39
472.58	9291.93
472.77	9261.50
472.95	9179.58
473.13	9774.08
473.31	9301.29
473.49	9132.77
473.67	9317.67
473.85	9448.74
474.03	9650.03
474.21	9781.10
474.39	9729.61
474.57	9654.71
474.75	9755.35
474.93	10022.17
475.12	9928.55
475.30	10225.80
475.48	9909.83
475.66	10108.77
475.84	10008.13
476.02	10085.37
476.20	10012.81
476.38	10410.70
476.56	10490.28
476.74	10677.52
476.92	10427.09
477.10	10293.68
477.28	10389.64
477.46	10600.29
477.64	10857.75
477.82	11234.57
478.00	11152.65
478.18	11159.67
478.36	11351.60
478.54	11236.91
478.72	11477.99
478.90	11382.03
479.08	11590.33
479.26	11487.35
479.44	11782.26
479.62	11864.18
479.80	11850.13
479.98	12035.03
480.16	12280.79
480.34	12067.80
480.52	12280.79
480.70	12170.79
480.88	12009.29
481.06	12233.98
481.24	12489.10
481.41	12343.99
481.59	12826.14
481.77	12664.64
481.95	12641.23
482.13	12898.69
482.31	13446.38
482.49	13125.72
482.67	13224.03
482.85	13188.92
483.03	13509.57
483.21	13767.03
483.39	13764.69
483.57	13373.82
483.74	13844.27
483.92	14047.90
484.10	13902.78
484.28	14181.31
484.46	14115.77
484.64	14368.55
484.82	14340.46
485.00	14728.99
485.18	14714.95
485.35	14789.85
485.53	14560.47
485.71	14698.56
485.89	15307.10
486.07	15222.84
486.25	14998.15
486.43	15236.89
486.61	15522.43
486.78	15674.57
486.96	16100.55
487.14	16137.99
487.32	16177.78
487.50	15948.41
487.68	16411.84
487.85	16397.79
488.03	16699.72
488.21	16814.41
488.39	16732.49
488.57	16664.61
488.75	16889.31
488.92	17284.86
489.10	17008.67
489.28	17453.37
489.46	17523.59
489.64	17575.08
489.81	18106.38
489.99	18361.50
490.17	18185.96
490.35	18553.43
490.53	18115.75
490.70	18134.47
490.88	18377.89
491.06	18754.71
491.24	18562.79
491.41	18595.56
491.59	18803.86
491.77	19023.87
491.95	19150.26
492.13	19033.24
492.30	19541.13
492.48	19372.61
492.66	19723.69
492.84	19826.68
493.01	19644.12
493.19	19634.75
493.37	19875.83
493.54	20063.07
493.72	20308.83
493.90	20224.57
494.08	20463.30
494.25	20755.87
494.43	21116.31
494.61	21064.82
494.79	21153.76
494.96	20842.47
495.14	21015.67
495.32	21355.05
495.49	21486.12
495.67	21441.65
495.85	21638.25
496.02	21965.93
496.20	21916.78
496.38	22199.98
496.55	21989.33
496.73	23133.86
496.91	22221.05
497.09	22553.40
497.26	22504.25
497.44	22541.70
497.62	22742.99
497.79	23243.86
497.97	22820.22
498.14	23094.07
498.32	23234.50
498.50	23089.38
498.67	23566.85
498.85	23353.87
499.03	23627.71
499.20	23590.26
499.38	23807.93
499.56	24161.35
499.73	24063.05
499.91	24418.81
500.08	24723.08
500.26	24027.94
500.44	24498.39
500.61	24276.04
500.79	24348.59
500.97	24484.34
501.14	24896.28
501.32	25027.35
501.49	25116.29
501.67	24996.92
501.84	24900.96
502.02	25062.46
502.20	25186.50
502.37	25177.14
502.55	25345.66
502.72	25322.26
502.90	25216.93
503.07	25633.55
503.25	25429.92
503.43	25811.43
503.60	26129.74
503.78	25673.34
503.95	25792.70
504.13	26089.95
504.30	26120.38
504.48	26008.03
504.65	26527.63
504.83	26621.25
505.01	26419.97
505.18	26485.50
505.36	26862.33
505.53	26738.28
505.71	27058.93
505.88	27028.51
506.06	26801.47
506.23	27482.57
506.41	27264.90
506.58	27040.21
506.76	27435.76
506.93	27679.18
507.11	27215.75
507.28	27384.27
507.46	27461.51
507.63	27548.11
507.81	27538.74
507.98	27723.65
508.16	28102.81
508.33	27896.85
508.50	28205.80
508.68	28063.02
508.85	28388.36
509.03	28308.78
509.20	28259.63
509.38	28816.68
509.55	28388.36
509.73	28463.25
509.90	28746.46
510.08	28444.53
510.25	28694.97
510.42	29191.16
510.60	28882.21
510.77	28819.02
510.95	28830.72
511.12	29041.37
511.30	29366.70
511.47	29692.04
511.64	29291.80
511.82	29806.72
511.99	29336.27
512.17	29727.14
512.34	29694.38
512.51	30174.19
512.69	30314.62
512.86	30188.23
513.04	30504.20
513.21	30396.54
513.38	30237.38
513.56	30073.54
513.73	30221.00
513.90	30792.09
514.08	30213.98
514.25	30986.35
514.43	30710.17
514.60	30485.48
514.77	30721.87
514.95	30735.92
515.12	30946.56
515.29	30946.56
515.47	31044.87
515.64	31454.46
515.81	31225.09
515.99	31189.98
516.16	31779.79
516.33	30944.22
516.51	31079.97
516.68	31070.61
516.85	31101.04
517.03	31358.50
517.20	31686.17
517.37	31503.61
517.54	32112.15
517.72	32177.68
517.89	31950.65
518.06	31693.19
518.24	31908.52
518.41	32053.64
518.58	32072.36
518.75	32198.75
518.93	32697.28
519.10	32170.66
519.27	32503.02
519.45	32425.78
519.62	32840.06
519.79	32692.60
519.96	32755.80
520.14	32886.87
520.31	32818.99
520.48	33120.92
520.65	32488.98
520.83	33069.43
521.00	32999.21
521.17	32863.46
521.34	33560.94
521.52	33003.89
521.69	33483.70
521.86	33230.93
522.03	33909.68
522.20	33612.43
522.38	33717.76
522.55	34476.09
522.72	33790.31
522.89	33724.78
523.07	34106.29
523.24	33977.56
523.41	34443.32
523.58	34054.79
523.75	34637.59
523.92	34326.30
524.10	34265.44
524.27	34436.30
524.44	34462.05
524.61	34630.57
524.78	35082.29
524.96	34873.98
525.13	34888.03
525.30	34855.26
525.47	35250.81
525.64	35150.17
525.81	35115.06
525.98	35082.29
526.16	35199.32
526.33	34913.77
526.50	35253.15
526.67	34892.71
526.84	34609.50
527.01	34969.94
527.18	35239.11
527.36	35386.56
527.53	35370.18
527.70	35819.56
527.87	35716.58
528.04	35526.99
528.21	36002.12
528.38	35519.97
528.55	35943.61
528.72	35845.30
528.89	35693.17
529.07	35758.70
529.24	35943.61
529.41	36217.45
529.58	36282.98
529.75	35747.00
529.92	36297.03
530.09	36275.96
530.26	36521.72
530.43	36133.19
530.60	36205.75
530.77	36020.84
530.94	36559.17
531.11	36741.73
531.28	36636.41
531.46	36439.80
531.63	36575.55
531.80	36416.40
531.97	37455.59
532.14	36762.79
532.31	36739.39
532.48	36879.82
532.65	37109.19
532.82	37013.23
532.99	37699.01
533.16	37303.46
533.33	37067.06
533.50	37368.99
533.67	37076.43
533.84	37184.09
534.01	37383.04
534.18	37191.11
534.35	37469.64
534.52	37160.69
534.69	37787.95
534.86	37813.70
535.03	38270.10
535.20	37886.25
535.37	38195.20
535.54	38548.62
535.71	37736.46
535.88	37764.54
536.05	38010.30
536.22	38256.06
536.38	38330.95
536.55	38103.92
536.72	38017.32
536.89	37766.88
537.06	38312.23
537.23	38497.13
537.40	38162.43
537.57	38071.15
537.74	38218.61
537.91	38476.07
538.08	38328.61
538.25	38157.75
538.42	38759.27
538.59	39171.21
538.75	38352.02
538.92	38569.69
539.09	38820.13
539.26	38862.26
539.43	38986.30
539.60	38693.74
539.77	38707.78
539.94	39187.59
540.11	38864.60
540.28	38548.62
540.44	39332.70
540.61	39253.12
540.78	38693.74
540.95	39026.09
541.12	38714.80
541.29	39276.53
541.46	39122.05
541.62	39431.01
541.79	39206.31
541.96	39051.84
542.13	39501.22
542.30	39484.84
542.47	39805.49
542.63	39438.03
542.80	39721.23
542.97	39744.64
543.14	40172.96
543.31	39969.33
543.48	40074.65
543.64	40659.79
543.81	40509.99
543.98	40212.74
544.15	40350.84
544.32	40004.44
544.48	40472.54
544.65	40479.57
544.82	40313.39
544.99	40383.60
545.16	40320.41
545.32	40325.09
545.49	40996.82
545.66	40758.09
545.83	40304.02
546.00	40779.15
546.16	40678.51
546.33	40481.91
546.50	40243.17
546.67	41083.42
546.83	40407.01
547.00	40453.82
547.17	40638.72
547.34	40502.97
547.50	40790.86
547.67	41045.97
547.84	41085.76
548.00	41621.75
548.17	41329.18
548.34	40708.94
548.51	41141.94
548.67	41390.03
548.84	41064.70
549.01	41207.47
549.18	41331.52
549.34	41172.36
549.51	41682.60
549.68	41055.34
549.84	41474.29
550.01	42103.90
550.18	41474.29
550.34	41415.78
550.51	41331.52
550.68	41427.48
550.84	41591.32
551.01	41516.42
551.18	41785.58
551.34	41535.15
551.51	41483.66
551.68	41972.83
551.84	41811.33
552.01	41696.64
552.18	41628.77
552.34	41401.74
552.51	42167.09
552.68	41799.63
552.84	42466.68
553.01	42913.72
553.18	41862.82
553.34	42295.82
553.51	41588.98
553.67	42188.16
553.84	42745.20
554.01	42204.54
554.17	42408.17
554.34	42192.84
554.51	42000.91
554.67	42731.16
554.84	42513.49
555.00	42054.75
555.17	42529.87
555.33	41979.85
555.50	42129.64
555.67	42693.71
555.83	42677.33
556.00	42335.61
556.16	42916.06
556.33	42625.84
556.50	42454.98
556.66	42761.59
556.83	42852.87
556.99	42773.29
557.16	42581.37
557.32	42632.86
557.49	42852.87
557.65	42220.92
557.82	42674.99
557.98	42794.36
558.15	43253.10
558.32	42459.66
558.48	42969.90
558.65	42909.04
558.81	42691.37
558.98	42719.46
559.14	42665.63
559.31	42892.66
559.47	42808.40
559.64	43147.78
559.80	43445.02
559.97	43089.26
560.13	42878.61
560.30	43119.69
560.46	43246.08
560.63	42997.98
560.79	43381.83
560.96	43398.21
561.12	43320.98
561.29	43313.95
561.45	43372.47
561.61	43271.82
561.78	43459.07
561.94	43164.16
562.11	42937.13
562.27	42979.26
562.44	43466.09
562.60	43742.27
562.77	43587.80
562.93	43299.91
563.10	43627.59
563.26	43484.81
563.42	43344.38
563.59	43391.19
563.75	43812.49
563.92	43529.28
564.08	43192.25
564.24	44037.18
564.41	43643.97
564.57	43597.16
564.74	43463.75
564.90	43840.57
565.07	43606.52
565.23	43360.76
565.39	43100.97
565.56	43667.37
565.72	43440.34
565.88	43885.04
566.05	43119.69
566.21	44128.46
566.38	43622.90
566.54	43393.53
566.70	44011.43
566.87	44280.60
567.03	43826.53
567.19	44215.06
567.36	43667.37
567.52	43669.72
567.68	43749.29
567.85	43573.75
568.01	43749.29
568.17	43672.06
568.34	43744.61
568.50	43763.34
568.66	43863.98
568.83	43784.40
568.99	44184.63
569.15	43763.34
569.32	43838.23
569.48	43519.92
569.64	43658.01
569.81	43934.20
569.97	43922.49
570.13	43782.06
570.30	43728.23
570.46	43517.58
570.62	44093.35
570.78	43611.20
570.95	43852.28
571.11	44285.28
571.27	43906.11
571.43	44088.67
571.60	44264.21
571.76	44151.87
571.92	44158.89
572.09	43901.43
572.25	43824.19
572.41	44051.22
572.57	44247.83
572.74	44191.65
572.90	43887.39
573.06	43938.88
573.22	44334.43
573.38	44055.90
573.55	43718.87
573.71	44065.27
573.87	43997.39
574.03	43849.94
574.20	43854.62
574.36	43943.56
574.52	44149.53
574.68	44364.85
574.84	44301.66
575.01	43826.53
575.17	44322.72
575.33	43903.77
575.49	44093.35
575.65	44304.00
575.82	44273.57
575.98	44498.26
576.14	44158.89
576.30	44385.92
576.46	43924.83
576.62	43880.36
576.79	44430.39
576.95	43693.12
577.11	44491.24
577.27	43826.53
577.43	44594.23
577.59	44107.40
577.75	43845.26
577.92	43669.72
578.08	43686.10
578.24	43594.82
578.40	44086.33
578.56	44130.80
578.72	44062.93
578.88	44313.36
579.04	43988.03
579.21	44329.75
579.37	44055.90
579.53	44292.30
579.69	43966.96
579.85	44453.79
580.01	44825.94
580.17	44425.71
580.33	44552.10
580.49	44212.72
580.65	44292.30
580.82	44542.74
580.98	44313.36
581.14	43952.92
581.30	44418.69
581.46	44257.19
581.62	44289.96
581.78	44226.76
581.94	44648.06
582.10	43945.90
582.26	44519.33
582.42	44657.42
582.58	44605.93
582.74	44226.76
582.90	44364.85
583.06	44439.75
583.22	44395.28
583.38	44666.78
583.54	44645.72
583.70	44062.93
583.86	44406.98
584.02	43983.35
584.18	44706.57
584.34	44439.75
584.50	44465.50
584.66	44315.70
584.82	44472.52
584.98	44465.50
585.14	44449.11
585.30	43936.54
585.46	44446.77
585.62	44083.99
585.78	44641.04
585.94	44318.04
586.10	44311.02
586.26	44100.37
586.42	44430.39
586.58	44322.72
586.74	44706.57
586.90	43976.33
587.06	44399.96
587.22	44830.62
587.38	44657.42
587.54	44615.29
587.70	44573.16
587.86	44472.52
588.02	44556.78
588.18	44591.89
588.34	44650.40
588.49	44500.61
588.65	43849.94
588.81	44566.14
588.97	44301.66
589.13	44327.41
589.29	44467.84
589.45	44392.94
589.61	44638.70
589.77	44414.01
589.93	44706.57
590.08	44521.67
590.24	44811.90
590.40	44481.88
