SpectraSuite Data File
++++++++++++++++++++++++++++++++++++
Date: Fri Oct 25 11:25:24 EDT 2013
User: price-jones
Dark Spectrum Present: No
Reference Spectrum Present: No
Number of Sampled Component Spectra: 1
Spectrometers: USB2+H05261
Integration Time (usec): 100000 (USB2+H05261)
Spectra Averaged: 1 (USB2+H05261)
Boxcar Smoothing: 0 (USB2+H05261)
Correct for Electrical Dark: No (USB2+H05261)
Strobe/Lamp Enabled: No (USB2+H05261)
Correct for Detector Non-linearity: No (USB2+H05261)
Correct for Stray Light: No (USB2+H05261)
Number of Pixels in Processed Spectrum: 2048
>>>>>Begin Processed Spectral Data<<<<<
365.73	220.01
365.92	220.01
366.12	220.01
366.32	198.95
366.52	91.28
366.72	180.22
366.91	135.75
367.11	86.60
367.31	88.94
367.51	91.28
367.70	187.24
367.90	196.60
368.10	119.37
368.30	156.82
368.49	105.32
368.69	159.16
368.89	203.63
369.09	194.26
369.28	163.84
369.48	170.86
369.68	222.35
369.87	283.20
370.07	222.35
370.27	203.63
370.47	313.63
370.66	650.67
370.86	622.58
371.06	634.29
371.25	564.07
371.45	650.67
371.65	669.39
371.84	692.80
372.04	746.63
372.24	732.59
372.44	727.91
372.63	674.07
372.83	763.01
373.03	746.63
373.22	744.29
373.42	758.33
373.62	809.83
373.81	741.95
374.01	823.87
374.21	781.74
374.40	840.25
374.60	823.87
374.79	755.99
374.99	800.46
375.19	774.72
375.38	884.72
375.58	830.89
375.78	875.36
375.97	807.48
376.17	856.64
376.37	835.57
376.56	858.98
376.76	828.55
376.95	898.77
377.15	875.36
377.35	926.85
377.54	936.21
377.74	910.47
377.93	894.08
378.13	966.64
378.33	866.00
378.52	968.98
378.72	961.96
378.91	816.85
379.11	1013.45
379.31	894.08
379.50	952.60
379.70	973.66
379.89	1029.84
380.09	961.96
380.28	999.41
380.48	971.32
380.68	983.02
380.87	985.37
381.07	1022.81
381.26	1078.99
381.46	1036.86
381.65	1029.84
381.85	1043.88
382.04	1055.58
382.24	1011.11
382.43	1043.88
382.63	1097.71
382.83	1020.47
383.02	1055.58
383.22	1048.56
383.41	1123.46
383.61	1076.65
383.80	1179.63
384.00	1144.52
384.19	1142.18
384.39	1104.73
384.58	1212.40
384.78	1135.16
384.97	1102.39
385.17	1100.05
385.36	1198.35
385.56	1165.59
385.75	1153.88
385.95	1139.84
386.14	1123.46
386.34	1102.39
386.53	1179.63
386.72	1137.50
386.92	1167.93
387.11	1224.10
387.31	1214.74
387.50	1315.38
387.70	1254.53
387.89	1224.10
388.09	1306.02
388.28	1280.27
388.48	1324.74
388.67	1289.64
388.86	1317.72
389.06	1299.00
389.25	1291.98
389.45	1306.02
389.64	1247.51
389.84	1331.76
390.03	1343.47
390.22	1383.26
390.42	1287.29
390.61	1364.53
390.81	1313.04
391.00	1528.37
391.19	1481.56
391.39	1416.02
391.58	1416.02
391.78	1469.86
391.97	1423.05
392.16	1488.58
392.36	1568.16
392.55	1500.28
392.75	1483.90
392.94	1483.90
393.13	1425.39
393.33	1537.73
393.52	1577.52
393.71	1558.80
393.91	1596.25
394.10	1561.14
394.29	1563.48
394.49	1614.97
394.68	1671.14
394.88	1659.44
395.07	1668.80
395.26	1755.40
395.46	1650.08
395.65	1675.82
395.84	1732.00
396.04	1734.34
396.23	1713.27
396.42	1788.17
396.62	1849.02
396.81	1785.83
397.00	1806.89
397.19	1753.06
397.39	1762.42
397.58	1825.62
397.77	1818.60
397.97	1823.28
398.16	1867.75
398.35	1928.60
398.55	1870.09
398.74	1935.62
398.93	1952.01
399.12	1877.11
399.32	1879.45
399.51	1952.01
399.70	2073.71
399.90	1900.52
400.09	2022.22
400.28	2012.86
400.47	1991.80
400.67	2087.76
400.86	2005.84
401.05	2026.90
401.24	2026.90
401.44	2186.06
401.63	2108.82
401.82	2143.93
402.01	2099.46
402.21	2188.40
402.40	2148.61
402.59	2202.44
402.78	2139.25
402.97	2282.02
403.17	2242.23
403.36	2298.41
403.55	2305.43
403.74	2275.00
403.93	2345.22
404.13	2370.96
404.32	2331.17
404.51	2359.26
404.70	2342.88
404.89	2340.54
405.09	2377.98
405.28	2406.07
405.47	2464.58
405.66	2473.95
405.85	2553.52
406.05	2499.69
406.24	2590.97
406.43	2593.31
406.62	2663.53
406.81	2569.91
407.00	2595.65
407.20	2532.46
407.39	2733.75
407.58	2663.53
407.77	2759.49
407.96	2747.79
408.15	2717.36
408.34	2705.66
408.54	2841.41
408.73	2719.70
408.92	2712.68
409.11	2949.08
409.30	2822.69
409.49	2827.37
409.68	2899.92
409.87	2822.69
410.07	2988.86
410.26	2981.84
410.45	2977.16
410.64	2925.67
410.83	3096.53
411.02	3117.59
411.21	3115.25
411.40	3094.19
411.59	3225.26
411.78	3199.51
411.98	3136.32
412.17	3218.24
412.36	3403.14
412.55	3400.80
412.74	3293.13
412.93	3372.71
413.12	3325.90
413.31	3463.99
413.50	3473.36
413.69	3297.81
413.88	3740.18
414.07	3623.15
414.26	3548.25
414.45	3681.66
414.64	3562.30
414.83	3712.09
415.02	3749.54
415.22	3761.24
415.41	3742.52
415.60	3822.09
415.79	3929.76
415.98	4018.70
416.17	3948.48
416.36	3775.28
416.55	3932.10
416.74	4042.11
416.93	3934.44
417.12	3873.59
417.31	4119.34
417.50	4210.62
417.69	4264.46
417.88	4243.39
418.07	4168.49
418.26	4250.41
418.45	4327.65
418.64	4486.81
418.83	4393.19
419.02	4416.59
419.21	4440.00
419.39	4400.21
419.58	4484.47
419.77	4374.46
419.96	4545.32
420.15	4650.64
420.34	4491.49
420.53	4615.54
420.72	4720.86
420.91	4587.45
421.10	4744.27
421.29	4840.23
421.48	4585.11
421.67	4793.42
421.86	4660.01
422.05	4816.82
422.24	4732.56
422.43	4765.33
422.61	4849.59
422.80	5018.11
422.99	4716.18
423.18	5118.75
423.37	5123.43
423.56	4959.60
423.75	4858.95
423.94	4793.42
424.13	4688.09
424.32	4732.56
424.50	4971.30
424.69	5043.85
424.88	4966.62
425.07	4926.83
425.26	4898.74
425.45	4994.70
425.64	4861.29
425.83	5018.11
426.01	4957.25
426.20	5011.09
426.39	5107.05
426.58	4936.19
426.77	5067.26
426.96	5137.48
427.15	5184.29
427.33	4964.28
427.52	5160.88
427.71	5430.04
427.90	5320.04
428.09	5334.08
428.28	5263.86
428.46	5378.55
428.65	5432.38
428.84	5366.85
429.03	5371.53
429.22	5315.36
429.40	5392.59
429.59	5521.32
429.78	5205.35
429.97	5181.95
430.16	5378.55
430.34	5476.85
430.53	5682.82
430.72	5511.96
430.91	5572.82
431.10	5783.46
431.28	5736.65
431.47	5671.12
431.66	5678.14
431.85	5736.65
432.03	5863.04
432.22	5818.57
432.41	5888.79
432.60	5832.62
432.79	5916.87
432.97	5991.77
433.16	5996.45
433.35	5951.98
433.54	5944.96
433.72	6057.31
433.91	6111.14
434.10	6061.99
434.28	5940.28
434.47	6274.98
434.66	6296.04
434.85	6253.91
435.03	6225.82
435.22	6279.66
435.41	6312.42
435.59	6340.51
435.78	6272.64
435.97	6462.22
436.16	6422.43
436.34	6356.90
436.53	6567.54
436.72	6668.19
436.90	6399.02
437.09	6630.74
437.28	6441.15
437.46	6518.39
437.65	6602.65
437.84	6635.42
438.02	6651.80
438.21	7019.27
438.40	6815.64
438.58	6867.13
438.77	6899.90
438.96	6825.00
439.14	6998.20
439.33	7148.00
439.52	7096.50
439.70	7096.50
439.89	7243.96
440.08	7379.71
440.26	7272.04
440.45	7456.95
440.63	7618.44
440.82	7672.28
441.01	7410.14
441.19	7403.11
441.38	7691.00
441.57	7735.47
441.75	7763.56
441.94	7815.05
442.12	8049.10
442.31	8070.17
442.50	7988.25
442.68	7840.79
442.87	7962.50
443.05	7948.46
443.24	8177.83
443.43	8205.92
443.61	8119.32
443.80	8140.38
443.98	7997.61
444.17	7906.33
444.35	8189.53
444.54	8301.88
444.73	8306.56
444.91	8142.72
445.10	8290.18
445.28	8180.17
445.47	8037.40
445.65	8098.25
445.84	8482.10
446.02	8271.45
446.21	8198.90
446.39	8351.03
446.58	8493.80
446.77	8386.14
446.95	8180.17
447.14	8521.89
447.32	8650.62
447.51	8238.69
447.69	8390.82
447.88	8409.54
448.06	8592.11
448.25	8571.04
448.43	8517.21
448.62	8346.35
448.80	8613.17
448.99	8458.70
449.17	8557.00
449.36	8657.64
449.54	8865.95
449.73	8779.35
449.91	8959.57
450.10	8872.97
450.28	8889.35
450.46	8821.48
450.65	8807.44
450.83	9013.40
451.02	8863.61
451.20	9202.99
451.39	8901.06
451.57	8919.78
451.76	8982.98
451.94	9219.37
452.13	9329.38
452.31	9231.07
452.49	9109.36
452.68	9231.07
452.86	9256.82
453.05	9458.10
453.23	9502.58
453.42	9268.52
453.60	9270.86
453.78	9561.09
453.97	9308.31
454.15	9312.99
454.34	9434.70
454.52	9537.68
454.70	9778.76
454.89	9724.93
455.07	9643.01
455.26	9804.50
455.44	9900.47
455.62	9685.14
455.81	9912.17
455.99	9884.08
456.17	10019.83
456.36	9851.31
456.54	10083.03
456.73	10225.80
456.91	10408.36
457.09	10469.22
457.28	10614.33
457.46	10125.16
457.64	10483.26
457.83	10249.21
458.01	10174.31
458.19	10614.33
458.38	10509.01
458.56	10558.16
458.74	10509.01
458.93	10586.24
459.11	10480.92
459.29	10607.31
459.48	10640.08
459.66	10773.49
459.84	10892.85
460.03	10981.79
460.21	11019.24
460.39	10808.59
460.57	10745.40
460.76	11096.48
460.94	11073.07
461.12	11047.33
461.31	10930.30
461.49	11096.48
461.67	10878.81
461.85	11562.25
462.04	11180.74
462.22	11777.58
462.40	11466.28
462.59	11475.65
462.77	11363.30
462.95	11466.28
463.13	11330.53
463.32	11456.92
463.50	11550.54
463.68	11901.62
463.86	11836.09
464.05	11580.97
464.23	11765.87
464.41	11686.29
464.59	11566.93
464.78	12156.74
464.96	11597.35
465.14	11609.06
465.32	12088.87
465.50	12210.57
465.69	11995.25
465.87	12163.76
466.05	12079.50
466.23	12102.91
466.41	12243.34
466.60	12573.36
466.78	12114.61
466.96	11817.36
467.14	12327.60
467.32	11988.22
467.51	12351.01
467.69	12198.87
467.87	12262.07
468.05	12622.51
468.23	12573.36
468.41	12409.52
468.60	12601.44
468.78	12737.20
468.96	12343.99
469.14	12549.95
469.32	12603.78
469.50	12442.29
469.69	12945.50
469.87	13167.85
470.05	13074.23
470.23	13205.30
470.41	12933.80
470.59	13069.55
470.77	13050.83
470.95	13123.38
471.14	13631.28
471.32	12996.99
471.50	13369.14
471.68	13392.55
471.86	13500.21
472.04	13399.57
472.22	13799.80
472.40	13685.11
472.58	13642.98
472.77	13921.51
472.95	14132.15
473.13	14363.87
473.31	13912.14
473.49	13879.38
473.67	14052.58
473.85	14305.35
474.03	14626.01
474.21	14354.51
474.39	14396.64
474.57	14546.43
474.75	14654.09
474.93	15154.97
475.12	14841.34
475.30	14949.00
475.48	15016.88
475.66	15143.27
475.84	15075.39
476.02	15248.59
476.20	15220.50
476.38	15726.06
476.56	15679.25
476.74	15910.96
476.92	15950.75
477.10	15517.75
477.28	15910.96
477.46	16231.62
477.64	16355.66
477.82	16453.97
478.00	16807.39
478.18	16397.79
478.36	16823.77
478.54	16842.50
478.72	17003.99
478.90	16943.14
479.08	17352.73
479.26	17715.51
479.44	17549.34
479.62	17425.29
479.80	18082.98
479.98	17972.97
480.16	18555.77
480.34	18331.08
480.52	18735.99
480.70	18403.63
480.88	18295.97
481.06	18579.17
481.24	18616.62
481.41	18995.79
481.59	19239.20
481.77	19616.03
481.95	19367.93
482.13	19283.67
482.31	19714.33
482.49	19917.96
482.67	20194.14
482.85	20269.04
483.03	20381.38
483.21	20830.77
483.39	20657.57
483.57	20477.35
483.74	21095.25
483.92	21097.59
484.10	20985.24
484.28	21385.47
484.46	21715.49
484.64	22153.17
484.82	21802.09
485.00	22356.80
485.18	22356.80
485.35	22630.64
485.53	22789.80
485.71	22864.69
485.89	22984.06
486.07	22876.40
486.25	23089.38
486.43	23372.59
486.61	23431.10
486.78	23833.68
486.96	24259.65
487.14	24215.18
487.32	24451.58
487.50	24734.78
487.68	24783.93
487.85	25275.45
488.03	25055.43
488.21	25766.96
488.39	25701.42
488.57	25565.67
488.75	26103.99
488.92	26190.59
489.10	26747.64
489.28	26836.58
489.46	27000.42
489.64	26593.17
489.81	27271.92
489.99	27377.25
490.17	27278.94
490.35	27639.39
490.53	28081.75
490.70	27927.27
490.88	27866.42
491.06	28804.97
491.24	28540.49
491.41	28664.54
491.59	29050.73
491.77	28809.65
491.95	29385.43
492.13	29862.90
492.30	29209.89
492.48	29476.71
492.66	29937.79
492.84	30176.53
493.01	30059.50
493.19	30256.11
493.37	30843.58
493.54	30771.02
493.72	31646.38
493.90	31056.57
494.08	31524.68
494.25	31880.44
494.43	31992.78
494.61	31828.95
494.79	32442.17
494.96	32383.65
495.14	32716.01
495.32	33560.94
495.49	32938.36
495.67	32945.38
495.85	33158.37
496.02	33392.42
496.20	33535.20
496.38	34017.35
496.55	33923.72
496.73	34522.90
496.91	34639.93
497.09	34235.02
497.26	34448.00
497.44	34408.22
497.62	34607.16
497.79	35384.22
497.97	35302.30
498.14	35171.23
498.32	35964.67
498.50	36259.58
498.67	36402.35
498.85	36093.40
499.03	36514.70
499.20	36325.11
499.38	36404.69
499.56	36481.93
499.73	36884.50
499.91	36533.42
500.08	37195.79
500.26	36779.18
500.44	37284.73
500.61	37766.88
500.79	37528.15
500.97	37872.21
501.14	38040.73
501.32	38281.80
501.49	38232.65
501.67	38721.82
501.84	38728.84
502.02	38576.71
502.20	38742.89
502.37	39051.84
502.55	38983.96
502.72	38806.08
502.90	39391.22
503.07	39379.51
503.25	39311.64
503.43	39571.44
503.60	39665.06
503.78	40388.28
503.95	39915.50
504.13	40348.50
504.30	40142.53
504.48	40140.19
504.65	40685.53
504.83	40722.98
505.01	40978.10
505.18	40921.93
505.36	41429.82
505.53	41181.73
505.71	41368.97
505.88	41450.89
506.06	41090.44
506.23	41642.81
506.41	41703.67
506.58	41961.12
506.76	41584.30
506.93	42572.00
507.11	41984.53
507.28	42162.41
507.46	42122.62
507.63	42710.10
507.81	43257.78
507.98	42983.94
508.16	43026.07
508.33	43210.97
508.50	43426.30
508.68	42946.49
508.85	43658.01
509.03	43548.01
509.20	43793.76
509.38	44095.69
509.55	43646.31
509.73	44411.67
509.90	44346.13
510.08	43910.79
510.25	44470.18
510.42	44268.89
510.60	44987.44
510.77	44900.84
510.95	45165.32
511.12	44793.17
511.30	45116.17
511.47	45399.37
511.64	45132.55
511.82	45797.26
511.99	45184.04
512.17	45666.19
512.34	45839.39
512.51	46232.60
512.69	45968.12
512.86	45703.64
513.04	46157.70
513.21	46279.41
513.38	46354.31
513.56	46848.16
513.73	46342.61
513.90	46754.54
514.08	46307.50
514.25	46932.42
514.43	47058.81
514.60	47229.67
514.77	47161.79
514.95	47318.61
515.12	47377.12
515.29	47358.40
515.47	47601.82
515.64	47693.10
515.81	47491.81
515.99	47676.71
516.16	48112.05
516.33	47847.57
516.51	48055.88
516.68	48439.73
516.85	47934.17
517.03	48446.75
517.20	48538.03
517.37	48409.30
517.54	48690.16
517.72	48374.19
517.89	48823.58
518.06	48753.36
518.24	48858.68
518.41	49031.88
518.58	49380.62
518.75	49130.19
518.93	49092.74
519.10	48884.43
519.27	49483.61
519.45	49198.06
519.62	49895.54
519.79	49909.58
519.96	49607.65
520.14	50064.06
520.31	49659.15
520.48	50351.94
520.65	50014.91
520.83	50473.65
521.00	50185.77
521.17	50564.93
521.34	50541.53
521.52	50625.79
521.69	50609.40
521.86	50738.13
522.03	50459.61
522.20	51063.47
522.38	51054.11
522.55	50995.59
522.72	51260.07
522.89	51124.32
523.07	51316.25
523.24	51136.02
523.41	51157.09
523.58	50981.55
523.75	51517.53
523.92	51550.30
524.10	51629.88
524.27	51716.48
524.44	52114.37
524.61	51980.96
524.78	52247.78
524.96	51957.55
525.13	51962.23
525.30	52013.73
525.47	52367.15
525.64	52566.09
525.81	52369.49
525.98	52315.65
526.16	52247.78
526.33	52210.33
526.50	52566.09
526.67	52523.96
526.84	52671.42
527.01	52336.72
527.18	52807.17
527.36	52774.40
527.53	53050.58
527.70	53254.21
527.87	53230.80
528.04	52851.64
528.21	53268.25
528.38	53207.40
528.55	52947.60
528.72	53226.12
528.89	53057.60
529.07	53247.19
529.24	53202.72
529.41	53375.92
529.58	53485.92
529.75	53443.79
529.92	53591.25
530.09	53502.31
530.26	53698.91
530.43	53619.33
530.60	53530.39
530.77	53542.10
530.94	53750.40
531.11	53888.49
531.28	54120.21
531.46	54157.66
531.63	54326.17
531.80	54003.18
531.97	54197.44
532.14	54042.97
532.31	54115.53
532.48	54206.81
532.65	54216.17
532.82	54396.39
532.99	54312.13
533.16	54284.04
533.33	54525.12
533.50	54801.30
533.67	54576.61
533.84	54480.65
534.01	54513.42
534.18	54417.46
534.35	55381.76
534.52	54939.39
534.69	54864.50
534.86	55033.02
535.03	54735.77
535.20	54866.84
535.37	55157.06
535.54	55238.98
535.71	55051.74
535.88	55398.14
536.05	55243.66
536.22	55241.32
536.38	55330.26
536.55	55653.26
536.72	55599.43
536.89	55215.58
537.06	55512.83
537.23	55702.41
537.40	55306.86
537.57	55538.57
537.74	55515.17
537.91	55676.66
538.08	55629.85
538.25	55615.81
538.42	55847.52
538.59	56184.56
538.75	55522.19
538.92	55826.46
539.09	56112.00
539.26	55817.10
539.43	55852.20
539.60	56002.00
539.77	55931.78
539.94	56287.54
540.11	56250.09
540.28	56163.50
540.44	56257.12
540.61	56458.40
540.78	56107.32
540.95	56406.91
541.12	56147.11
541.29	56278.18
541.46	56542.66
541.62	56399.89
541.79	56364.78
541.96	56135.41
542.13	56444.36
542.30	56652.67
542.47	56566.07
542.63	56481.81
542.80	56547.34
542.97	56790.76
543.14	57137.16
543.31	57041.20
543.48	57078.64
543.64	57392.28
543.81	57123.11
543.98	57118.43
544.15	57396.96
544.32	57172.27
544.48	57324.40
544.65	57209.71
544.82	57389.94
544.99	57160.56
545.16	57237.80
545.32	57361.85
545.49	57420.36
545.66	57574.84
545.83	57450.79
546.00	57504.62
546.16	57237.80
546.33	57422.70
546.50	57064.60
546.67	57528.03
546.83	57352.49
547.00	57291.63
547.17	57565.48
547.34	57537.39
547.50	57764.42
547.67	57897.83
547.84	57876.77
548.00	57799.53
548.17	57977.41
548.34	57853.36
548.51	58052.31
548.67	58129.54
548.84	57914.22
549.01	57834.64
549.18	57923.58
549.34	57825.28
549.51	58176.36
549.68	58166.99
549.84	58115.50
550.01	58326.15
550.18	58000.82
550.34	58370.62
550.51	58365.94
550.68	58227.85
550.84	58014.86
551.01	58616.38
551.18	58295.72
551.34	58150.61
551.51	58475.94
551.68	58269.98
551.84	58529.78
552.01	58323.81
552.18	58536.80
552.34	58248.91
552.51	58534.46
552.68	58176.36
552.84	58475.94
553.01	58546.16
553.18	58515.73
553.34	58611.70
553.51	58497.01
553.67	58754.47
553.84	58798.94
554.01	58904.26
554.17	58951.07
554.34	58965.12
554.51	58721.70
554.67	58850.43
554.84	58873.84
555.00	58695.95
555.17	58630.42
555.33	58742.77
555.50	58780.21
555.67	58721.70
555.83	58717.02
556.00	58815.32
556.16	59185.13
556.33	59075.12
556.50	59178.10
556.66	59157.04
556.83	58939.37
556.99	59089.16
557.16	59489.40
557.32	59281.09
557.49	59564.29
557.65	59131.29
557.82	59213.21
557.98	59079.80
558.15	59206.19
558.32	59299.81
558.48	59281.09
558.65	59487.06
558.81	59285.77
558.98	59409.82
559.14	59215.55
559.31	59433.22
559.47	59274.07
559.64	59559.61
559.80	59529.19
559.97	59559.61
560.13	59655.57
560.30	59604.08
560.46	59753.88
560.63	59512.80
560.79	59676.64
560.96	59957.50
561.12	59526.84
561.29	59723.45
561.45	59686.00
561.61	59622.81
561.78	59660.26
561.94	59547.91
562.11	59622.81
562.27	59557.27
562.44	59709.41
562.60	59845.16
562.77	59730.47
562.93	59576.00
563.10	59849.84
563.26	59779.62
563.42	60048.78
563.59	59849.84
563.75	59990.27
563.92	59924.74
564.08	59849.84
564.24	59807.71
564.41	59866.22
564.57	59992.61
564.74	59866.22
564.90	59938.78
565.07	60081.55
565.23	60013.68
565.39	59922.40
565.56	60200.92
565.72	60025.38
565.88	59934.10
566.05	59971.55
566.21	59891.97
566.38	59891.97
566.54	60023.04
566.70	60079.21
566.87	59941.12
567.03	59906.01
567.19	60308.58
567.36	60205.60
567.52	60126.02
567.68	60528.59
567.85	60217.30
568.01	60336.67
568.17	60179.85
568.34	60149.43
568.50	60154.11
568.66	60191.56
568.83	60177.51
568.99	60280.50
569.15	60418.59
569.32	60299.22
569.48	59999.63
569.64	60205.60
569.81	60397.52
569.97	60034.74
570.13	60107.30
570.30	60135.38
570.46	60367.10
570.62	60250.07
570.78	60334.33
570.95	60451.36
571.11	60170.49
571.27	60273.48
571.43	60191.56
571.60	60416.25
571.76	60397.52
571.92	60362.42
572.09	60378.80
572.25	60458.38
572.41	60491.15
572.57	60224.32
572.74	60589.45
572.90	60353.05
573.06	60516.89
573.22	60451.36
573.38	60507.53
573.55	60467.74
573.71	60685.41
573.87	60587.11
574.03	60266.45
574.20	60552.00
574.36	60334.33
574.52	60594.13
574.68	60561.36
574.84	60584.77
575.01	60608.17
575.17	60477.10
575.33	60427.95
575.49	60523.91
575.65	60697.11
575.82	60659.66
575.98	60603.49
576.14	60582.43
576.30	60577.75
576.46	60568.38
576.62	60495.83
576.79	60596.47
576.95	60453.70
577.11	60669.03
577.27	60786.05
577.43	60659.66
577.59	60612.85
577.75	60425.61
577.92	60512.21
578.08	60676.05
578.24	60706.47
578.40	60767.33
578.56	60722.86
578.72	60659.66
578.88	60821.16
579.04	60874.99
579.21	60690.09
579.37	60797.76
579.53	60671.37
579.69	60519.23
579.85	60516.89
580.01	60863.29
580.17	60596.47
580.33	60619.88
580.49	60673.71
580.65	60790.73
580.82	60624.56
580.98	60530.93
581.14	60652.64
581.30	60907.76
581.46	60767.33
581.62	60818.82
581.78	60727.54
581.94	60842.23
582.10	60715.84
582.26	60711.16
582.42	60781.37
582.58	60743.92
582.74	60467.74
582.90	60718.18
583.06	60996.70
583.22	60547.32
583.38	60776.69
583.54	60818.82
583.70	60685.41
583.86	60917.12
584.02	60739.24
584.18	60807.12
584.34	60849.25
584.50	60818.82
584.66	60788.39
584.82	60573.06
584.98	61090.32
585.14	60959.25
585.30	60867.97
585.46	60842.23
585.62	60933.51
585.78	60994.36
585.94	60687.75
586.10	60860.95
586.26	60942.87
586.42	60760.31
586.58	60896.06
586.74	60835.20
586.90	60996.70
587.06	61024.79
587.22	61043.51
587.38	60886.70
587.54	60921.80
587.70	60802.44
587.86	61017.77
588.02	60788.39
588.18	61087.98
588.34	60825.84
588.49	61153.52
