SpectraSuite Data File
++++++++++++++++++++++++++++++++++++
Date: Fri Oct 25 11:22:38 EDT 2013
User: price-jones
Dark Spectrum Present: No
Reference Spectrum Present: No
Number of Sampled Component Spectra: 1
Spectrometers: USB2+H05261
Integration Time (usec): 100000 (USB2+H05261)
Spectra Averaged: 1 (USB2+H05261)
Boxcar Smoothing: 0 (USB2+H05261)
Correct for Electrical Dark: No (USB2+H05261)
Strobe/Lamp Enabled: No (USB2+H05261)
Correct for Detector Non-linearity: No (USB2+H05261)
Correct for Stray Light: No (USB2+H05261)
Number of Pixels in Processed Spectrum: 2048
>>>>>Begin Processed Spectral Data<<<<<
365.73	220.01
365.92	220.01
366.12	220.01
366.32	102.98
366.52	107.66
366.72	105.32
366.91	112.35
367.11	124.05
367.31	86.60
367.51	126.39
367.70	161.50
367.90	112.35
368.10	51.49
368.30	121.71
368.49	145.11
368.69	156.82
368.89	117.03
369.09	138.09
369.28	98.30
369.48	72.56
369.68	194.26
369.87	145.11
370.07	168.52
370.27	215.33
370.47	337.04
370.66	622.58
370.86	638.97
371.06	636.63
371.25	667.05
371.45	697.48
371.65	678.76
371.84	641.31
372.04	676.41
372.24	681.10
372.44	704.50
372.63	730.25
372.83	709.18
373.03	678.76
373.22	755.99
373.42	809.83
373.62	730.25
373.81	844.93
374.01	837.91
374.21	882.38
374.40	802.80
374.60	856.64
374.79	781.74
374.99	854.30
375.19	795.78
375.38	784.08
375.58	851.96
375.78	842.59
375.97	898.77
376.17	854.30
376.37	833.23
376.56	816.85
376.76	779.40
376.95	781.74
377.15	978.34
377.35	814.51
377.54	933.87
377.74	945.58
377.93	837.91
378.13	917.49
378.33	894.08
378.52	940.90
378.72	1015.79
378.91	1025.15
379.11	943.24
379.31	898.77
379.50	875.36
379.70	1043.88
379.89	992.39
380.09	1008.77
380.28	933.87
380.48	905.79
380.68	1067.28
380.87	866.00
381.07	896.43
381.26	1011.11
381.46	950.26
381.65	1029.84
381.85	1027.50
382.04	1032.18
382.24	1008.77
382.43	1006.43
382.63	1071.97
382.83	1086.01
383.02	1123.46
383.22	1018.13
383.41	1067.28
383.61	1055.58
383.80	1160.91
384.00	1090.69
384.19	1142.18
384.39	1128.14
384.58	1146.86
384.78	1086.01
384.97	1158.57
385.17	1179.63
385.36	1163.25
385.56	1256.87
385.75	1095.37
385.95	1200.69
386.14	1165.59
386.34	1184.31
386.53	1233.46
386.72	1163.25
386.92	1226.44
387.11	1268.57
387.31	1247.51
387.50	1226.44
387.70	1245.16
387.89	1336.45
388.09	1270.91
388.28	1310.70
388.48	1179.63
388.67	1245.16
388.86	1378.58
389.06	1299.00
389.25	1364.53
389.45	1355.17
389.64	1355.17
389.84	1369.21
390.03	1369.21
390.22	1315.38
390.42	1345.81
390.61	1306.02
390.81	1404.32
391.00	1420.71
391.19	1439.43
391.39	1500.28
391.58	1334.11
391.78	1383.26
391.97	1465.18
392.16	1336.45
392.36	1516.67
392.55	1451.13
392.75	1474.54
392.94	1540.07
393.13	1554.12
393.33	1551.78
393.52	1533.05
393.71	1607.95
393.91	1645.40
394.10	1528.37
394.29	1584.54
394.49	1643.06
394.68	1710.93
394.88	1671.14
395.07	1675.82
395.26	1624.33
395.46	1612.63
395.65	1661.78
395.84	1741.36
396.04	1792.85
396.23	1715.61
396.42	1703.91
396.62	1760.08
396.81	1816.26
397.00	1764.76
397.19	1823.28
397.39	1774.13
397.58	1750.72
397.77	1792.85
397.97	1893.49
398.16	1968.39
398.35	1776.47
398.55	1839.66
398.74	1886.47
398.93	1863.07
399.12	1933.28
399.32	2008.18
399.51	1923.92
399.70	1994.14
399.90	1984.77
400.09	2052.65
400.28	1996.48
400.47	2019.88
400.67	2078.40
400.86	2040.95
401.05	2132.23
401.24	2104.14
401.44	2050.31
401.63	2228.19
401.82	2125.21
402.01	2092.44
402.21	2211.81
402.40	2183.72
402.59	2279.68
402.78	2209.47
402.97	2242.23
403.17	2157.97
403.36	2300.75
403.55	2258.62
403.74	2270.32
403.93	2289.04
404.13	2392.03
404.32	2424.80
404.51	2424.80
404.70	2387.35
404.89	2394.37
405.09	2464.58
405.28	2537.14
405.47	2452.88
405.66	2478.63
405.85	2396.71
406.05	2569.91
406.24	2626.08
406.43	2590.97
406.62	2708.00
406.81	2693.96
407.00	2600.34
407.20	2675.23
407.39	2612.04
407.58	2698.64
407.77	2722.04
407.96	2754.81
408.15	2825.03
408.34	2834.39
408.54	2942.05
408.73	2951.42
408.92	2801.62
409.11	2883.54
409.30	2892.90
409.49	3021.63
409.68	2925.67
409.87	2869.50
410.07	3009.93
410.26	3054.40
410.45	3136.32
410.64	2916.31
410.83	2991.20
411.02	3119.93
411.21	3098.87
411.40	3232.28
411.59	3267.39
411.78	3248.66
411.98	3243.98
412.17	3187.81
412.36	3253.34
412.55	3428.88
412.74	3456.97
412.93	3309.52
413.12	3417.18
413.31	3585.70
413.50	3478.04
413.69	3403.14
413.88	3730.81
414.07	3651.24
414.26	3581.02
414.45	3658.26
414.64	3700.39
414.83	3714.43
415.02	3772.94
415.22	3859.54
415.41	3761.24
415.60	3815.07
415.79	4081.89
415.98	4018.70
416.17	3864.22
416.36	4077.21
416.55	3946.14
416.74	4081.89
416.93	4025.72
417.12	4100.62
417.31	4091.26
417.50	4369.78
417.69	4339.35
417.88	4301.90
418.07	4327.65
418.26	4355.74
418.45	4365.10
418.64	4486.81
418.83	4454.04
419.02	4332.33
419.21	4594.47
419.39	4561.70
419.58	4512.55
419.77	4435.32
419.96	4582.77
420.15	4692.77
420.34	4571.07
420.53	4622.56
420.72	4727.88
420.91	4741.93
421.10	4720.86
421.29	4671.71
421.48	4753.63
421.67	4732.56
421.86	4648.30
422.05	4854.27
422.24	4762.99
422.43	4814.48
422.61	4910.44
422.80	4882.36
422.99	4973.64
423.18	4894.06
423.37	5144.50
423.56	4936.19
423.75	5121.09
423.94	4940.87
424.13	4655.33
424.32	4814.48
424.50	4950.23
424.69	5100.03
424.88	5053.22
425.07	5020.45
425.26	4931.51
425.45	4821.50
425.64	4910.44
425.83	4931.51
426.01	5022.79
426.20	5144.50
426.39	4983.00
426.58	4940.87
426.77	5116.41
426.96	5252.16
427.15	5132.79
427.33	5507.28
427.52	5207.69
427.71	5446.43
427.90	5282.59
428.09	5317.70
428.28	5305.99
428.46	5352.81
428.65	5324.72
428.84	5537.71
429.03	5626.65
429.22	5247.48
429.40	5469.83
429.59	5554.09
429.78	5348.12
429.97	5254.50
430.16	5542.39
430.34	5570.48
430.53	5778.78
430.72	5533.03
430.91	5755.38
431.10	5600.90
431.28	5652.39
431.47	5865.38
431.66	5956.66
431.85	5778.78
432.03	5802.19
432.22	5954.32
432.41	5841.98
432.60	5933.26
432.79	5870.06
432.97	6188.38
433.16	6085.39
433.35	6153.27
433.54	6155.61
433.72	6052.63
433.91	6090.07
434.10	6164.97
434.28	6141.57
434.47	6193.06
434.66	6359.24
434.85	6291.36
435.03	6399.02
435.22	6274.98
435.41	6333.49
435.59	6429.45
435.78	6434.13
435.97	6462.22
436.16	6649.46
436.34	6380.30
436.53	6509.03
436.72	6513.71
436.90	6527.75
437.09	6612.01
437.28	6422.43
437.46	6792.23
437.65	6649.46
437.84	6839.05
438.02	6586.27
438.21	6836.70
438.40	6935.01
438.58	6979.48
438.77	6974.80
438.96	6878.83
439.14	7302.47
439.33	7260.34
439.52	7232.26
439.70	7375.03
439.89	7400.77
440.08	7449.93
440.26	7447.58
440.45	7456.95
440.63	7431.20
440.82	7606.74
441.01	7541.21
441.19	7749.51
441.38	7744.83
441.57	7716.75
441.75	7754.19
441.94	8051.44
442.12	7992.93
442.31	7953.14
442.50	8154.43
442.68	8013.99
442.87	8058.46
443.05	8173.15
443.24	8238.69
443.43	8339.33
443.61	8091.23
443.80	8472.74
443.98	8135.70
444.17	7969.52
444.35	8250.39
444.54	8238.69
444.73	8479.76
444.91	8484.44
445.10	8344.01
445.28	8498.49
445.47	8463.38
445.65	8486.78
445.84	8444.65
446.02	8517.21
446.21	8535.93
446.39	8449.33
446.58	8709.13
446.77	8613.17
446.95	8187.19
447.14	8578.06
447.32	8716.16
447.51	8571.04
447.69	8444.65
447.88	8585.08
448.06	8641.26
448.25	8575.72
448.43	8566.36
448.62	8517.21
448.80	8678.71
448.99	8877.65
449.17	8760.63
449.36	8716.16
449.54	8648.28
449.73	9036.81
449.91	9254.48
450.10	9125.75
450.28	9153.84
450.46	9095.32
450.65	8971.27
450.83	9247.46
451.02	9149.15
451.20	9383.21
451.39	9191.28
451.57	9074.26
451.76	9034.47
451.94	9118.73
452.13	9483.85
452.31	9364.48
452.49	9149.15
452.68	9570.45
452.86	9336.40
453.05	9603.22
453.23	9640.67
453.42	9486.19
453.60	9694.50
453.78	9624.28
453.97	9392.57
454.15	9633.64
454.34	9635.99
454.52	9806.84
454.70	9703.86
454.89	9771.74
455.07	9951.96
455.26	9865.36
455.44	10043.24
455.62	10038.56
455.81	9926.21
455.99	10186.01
456.17	10195.37
456.36	10221.12
456.54	10359.21
456.73	10387.30
456.91	10480.92
457.09	10530.07
457.28	10686.89
457.46	10188.35
457.64	10731.36
457.83	10541.77
458.01	10427.09
458.19	10661.14
458.38	10611.99
458.56	10824.98
458.74	10743.06
458.93	10827.32
459.11	11061.37
459.29	10644.76
459.48	10902.22
459.66	10958.39
459.84	10832.00
460.03	11145.63
460.21	10923.28
460.39	11176.06
460.57	10902.22
460.76	11094.14
460.94	11201.80
461.12	11314.15
461.31	11297.77
461.49	11328.19
461.67	10977.11
461.85	11482.67
462.04	11351.60
462.22	11735.45
462.40	11515.44
462.59	11609.06
462.77	11578.63
462.95	11857.15
463.13	11522.46
463.32	11627.78
463.50	11955.46
463.68	11805.66
463.86	11854.81
464.05	11616.08
464.23	11896.94
464.41	11758.85
464.59	11665.23
464.78	12477.40
464.96	12049.08
465.14	11735.45
465.32	12173.13
465.50	12299.52
465.69	12329.94
465.87	12173.13
466.05	12437.61
466.23	12231.64
466.41	12297.17
466.60	12404.84
466.78	12351.01
466.96	12154.40
467.14	12222.28
467.32	12493.78
467.51	12697.41
467.69	12327.60
467.87	12739.54
468.05	12318.24
468.23	12702.09
468.41	12826.14
468.60	12526.55
468.78	12915.08
468.96	12554.63
469.14	12734.85
469.32	13078.91
469.50	12575.70
469.69	13107.00
469.87	13231.05
470.05	13158.49
470.23	13139.77
470.41	13221.69
470.59	13336.37
470.77	13231.05
470.95	13287.22
471.14	13668.73
471.32	13357.44
471.50	13806.82
471.68	13593.83
471.86	13790.44
472.04	13757.67
472.22	14171.94
472.40	13752.99
472.58	14111.09
472.77	14099.39
472.95	14162.58
473.13	14806.23
473.31	14167.26
473.49	14235.14
473.67	14307.69
473.85	14558.13
474.03	14864.74
474.21	14544.09
474.39	14782.82
474.57	14860.06
474.75	15133.90
474.93	14930.28
475.12	15094.11
475.30	15115.18
475.48	15316.47
475.66	15227.53
475.84	15176.03
476.02	15508.39
476.20	15442.85
476.38	15880.53
476.56	16311.19
476.74	16240.98
476.92	16240.98
477.10	15915.64
477.28	16248.00
477.46	16226.93
477.64	16568.65
477.82	17050.80
478.00	17151.45
478.18	16702.06
478.36	17118.68
478.54	17298.90
478.72	16901.01
478.90	17500.19
479.08	17767.01
479.26	17582.10
479.44	17701.47
479.62	17996.38
479.80	18185.96
479.98	18129.79
480.16	18771.10
480.34	18450.44
480.52	18810.89
480.70	19112.81
480.88	18609.60
481.06	18860.04
481.24	18768.76
481.41	19063.66
481.59	19445.17
481.77	19623.05
481.95	19592.62
482.13	19702.63
482.31	20107.54
482.49	20446.92
482.67	20116.90
482.85	20524.16
483.03	20854.17
483.21	20968.86
483.39	21259.09
483.57	20999.29
483.74	21046.10
483.92	21645.27
484.10	21551.65
484.28	21652.30
484.46	22108.70
484.64	22197.64
484.82	22066.57
485.00	22298.28
485.18	23089.38
485.35	23208.75
485.53	23061.30
485.71	23489.62
485.89	23438.12
486.07	23583.24
486.25	23798.57
486.43	23737.71
486.61	24587.33
486.78	24219.86
486.96	24482.00
487.14	24486.68
487.32	25127.99
487.50	25132.67
487.68	25111.61
487.85	25418.22
488.03	25579.71
488.21	26033.78
488.39	26003.35
488.57	26211.66
488.75	26457.42
488.92	26366.13
489.10	26721.90
489.28	26787.43
489.46	27218.09
489.64	27199.37
489.81	27768.12
489.99	27917.91
490.17	28032.60
490.35	28458.57
490.53	28437.51
490.70	28807.31
490.88	28774.55
491.06	28989.88
491.24	29202.86
491.41	29586.71
491.59	29579.69
491.77	29682.67
491.95	29680.33
492.13	30061.84
492.30	30405.90
492.48	29912.05
492.66	30459.73
492.84	30567.40
493.01	31140.83
493.19	31063.59
493.37	31360.84
493.54	31311.69
493.72	31538.72
493.90	31702.56
494.08	31740.00
494.25	31957.67
494.43	32383.65
494.61	32381.31
494.79	32503.02
494.96	32596.64
495.14	32919.63
495.32	33031.98
495.49	33322.21
495.67	33682.65
495.85	33736.48
496.02	33968.19
496.20	34366.09
496.38	34293.53
496.55	34440.98
496.73	34986.33
496.91	35044.84
497.09	35063.57
497.26	35323.36
497.44	35072.93
497.62	35688.49
497.79	36184.68
497.97	35807.86
498.14	36137.87
498.32	36346.18
498.50	36697.26
498.67	36531.08
498.85	36994.51
499.03	37038.98
499.20	37118.56
499.38	37116.22
499.56	37132.60
499.73	37471.98
499.91	37572.62
500.08	38117.96
500.26	37776.25
500.44	38085.20
500.61	37935.40
500.79	38061.79
500.97	38501.81
501.14	39005.03
501.32	38983.96
501.49	38962.90
501.67	38885.66
501.84	39454.41
502.02	39171.21
502.20	39454.41
502.37	39328.02
502.55	39704.85
502.72	39461.43
502.90	40325.09
503.07	39562.08
503.25	40009.12
503.43	39959.97
503.60	40638.72
503.78	40596.59
503.95	40573.19
504.13	40774.47
504.30	40959.38
504.48	40884.48
504.65	40994.48
504.83	41432.16
505.01	41691.96
505.18	41537.49
505.36	42501.79
505.53	41422.80
505.71	42124.96
505.88	42253.69
506.06	41642.81
506.23	42377.74
506.41	42295.82
506.58	42412.85
506.76	42756.91
506.93	42904.36
507.11	42644.56
507.28	42611.79
507.46	43222.67
507.63	42829.46
507.81	43426.30
507.98	43269.48
508.16	43522.26
508.33	43674.40
508.50	43655.67
508.68	43515.24
508.85	44013.77
509.03	44013.77
509.20	44289.96
509.38	44711.25
509.55	44641.04
509.73	44790.83
509.90	44788.49
510.08	45048.29
510.25	44835.30
510.42	45420.44
510.60	45345.54
510.77	45469.59
510.95	45907.27
511.12	45467.25
511.30	45563.21
511.47	45502.35
511.64	45748.11
511.82	46373.03
511.99	46108.55
512.17	46536.87
512.34	46284.09
512.51	46609.43
512.69	46794.33
512.86	46550.91
513.04	46794.33
513.21	47159.45
513.38	47515.22
513.56	47086.90
513.73	46923.06
513.90	47232.01
514.08	46770.93
514.25	47533.94
514.43	47377.12
514.60	47592.45
514.77	47737.57
514.95	47992.68
515.12	47753.95
515.29	47948.21
515.47	48123.75
515.64	48779.10
515.81	48409.30
515.99	48467.81
516.16	48851.66
516.33	48882.09
516.51	48741.66
516.68	48587.18
516.85	48786.13
517.03	49373.60
517.20	49172.31
517.37	49076.35
517.54	48978.05
517.72	49237.85
517.89	49397.01
518.06	49497.65
518.24	49471.90
518.41	49574.89
518.58	49661.49
518.75	49888.52
518.93	50092.15
519.10	49776.17
519.27	49830.01
519.45	50092.15
519.62	50270.03
519.79	49869.79
519.96	50293.43
520.14	50674.94
520.31	50365.99
520.48	50684.30
520.65	50347.26
520.83	50623.45
521.00	51114.96
521.17	50930.06
521.34	51119.64
521.52	51255.39
521.69	51246.03
521.86	51730.52
522.03	51540.94
522.20	51370.08
522.38	51634.56
522.55	51583.07
522.72	51660.30
522.89	51672.01
523.07	52114.37
523.24	51756.27
523.41	51985.64
523.58	51992.66
523.75	52332.04
523.92	52107.35
524.10	51896.70
524.27	52245.44
524.44	52416.30
524.61	52224.37
524.78	52212.67
524.96	52367.15
525.13	52701.84
525.30	52713.55
525.47	52704.18
525.64	52523.96
525.81	52811.85
525.98	52811.85
526.16	52935.90
526.33	52643.33
526.50	53188.67
526.67	53378.26
526.84	53284.64
527.01	53368.90
527.18	53139.52
527.36	53167.61
527.53	53085.69
527.70	53595.93
527.87	53703.59
528.04	53303.36
528.21	53544.44
528.38	53418.05
528.55	53996.16
528.72	53375.92
528.89	53626.35
529.07	53708.27
529.24	53553.80
529.41	53970.41
529.58	54295.75
529.75	53860.41
529.92	54068.72
530.09	54155.32
530.26	54035.95
530.43	54190.42
530.60	54148.29
530.77	54155.32
530.94	54368.30
531.11	54237.23
531.28	54438.52
531.46	54801.30
531.63	54485.33
531.80	54567.25
531.97	54747.47
532.14	54955.78
532.31	54756.83
532.48	54923.01
532.65	54555.55
532.82	54705.34
532.99	54794.28
533.16	54843.43
533.33	54948.76
533.50	55309.20
533.67	54892.58
533.84	54721.72
534.01	55107.91
534.18	55487.08
534.35	55498.78
534.52	55065.78
534.69	55533.89
534.86	55529.21
535.03	55161.75
535.20	55344.31
535.37	55526.87
535.54	55517.51
535.71	55461.33
535.88	55765.60
536.05	55580.70
536.22	55845.18
536.38	55501.12
536.55	55660.28
536.72	55707.09
536.89	56016.04
537.06	55681.34
537.23	56013.70
537.40	55777.31
537.57	56013.70
537.74	55999.66
537.91	56364.78
538.08	56177.54
538.25	55910.72
538.42	56212.65
538.59	56222.01
538.75	56425.64
538.92	56090.94
539.09	56353.08
539.26	56095.62
539.43	56449.04
539.60	56629.26
539.77	56418.61
539.94	56647.99
540.11	56458.40
540.28	56573.09
540.44	56561.39
540.61	56643.30
540.78	56404.57
540.95	56472.45
541.12	56797.78
541.29	56753.31
541.46	56790.76
541.62	56919.49
541.79	56797.78
541.96	56669.05
542.13	56743.95
542.30	56860.97
542.47	57120.77
542.63	57216.74
542.80	57111.41
542.97	57340.78
543.14	57485.90
543.31	57293.97
543.48	57403.98
543.64	57443.77
543.81	57490.58
543.98	57563.14
544.15	57401.64
544.32	57469.51
544.48	57818.25
544.65	57616.97
544.82	57591.22
544.99	57305.68
545.16	57790.17
545.32	57708.25
545.49	57696.55
545.66	57806.55
545.83	57876.77
546.00	57883.79
546.16	57748.04
546.33	57645.05
546.50	57719.95
546.67	57958.69
546.83	57764.42
547.00	58085.07
547.17	57977.41
547.34	57954.00
547.50	58164.65
547.67	58176.36
547.84	58141.25
548.00	58466.58
548.17	58454.88
548.34	58129.54
548.51	58246.57
548.67	58305.09
548.84	58213.80
549.01	58237.21
549.18	58328.49
549.34	58511.05
549.51	58607.01
549.68	58281.68
549.84	58478.28
550.01	58553.18
550.18	58599.99
550.34	58775.53
550.51	58735.74
550.68	58815.32
550.84	58480.63
551.01	58667.87
551.18	58672.55
551.34	58894.90
551.51	58721.70
551.68	58817.66
551.84	58618.72
552.01	58784.90
552.18	58925.33
552.34	58791.92
552.51	58810.64
552.68	58726.38
552.84	58808.30
553.01	59119.59
553.18	59035.33
553.34	59201.51
553.51	58988.52
553.67	59025.97
553.84	59182.79
554.01	59114.91
554.17	59192.15
554.34	59079.80
554.51	59133.63
554.67	59150.02
554.84	59199.17
555.00	59121.93
555.17	59164.06
555.33	59327.90
555.50	59201.51
555.67	59344.28
555.83	59178.10
556.00	59393.43
556.16	59508.12
556.33	59281.09
556.50	59363.01
556.66	59463.65
556.83	59463.65
556.99	59695.36
557.16	59702.38
557.32	59655.57
557.49	59971.55
557.65	59524.50
557.82	59597.06
557.98	59625.15
558.15	59526.84
558.32	59592.38
558.48	59561.95
558.65	59496.42
558.81	59772.60
558.98	59709.41
559.14	59662.60
559.31	59863.88
559.47	59997.29
559.64	60044.10
559.80	59920.05
559.97	60081.55
560.13	59784.30
560.30	59859.20
560.46	59817.07
560.63	59910.69
560.79	60041.76
560.96	59945.80
561.12	60334.33
561.29	59985.59
561.45	60095.60
561.61	59913.03
561.78	59969.21
561.94	59955.16
562.11	59966.87
562.27	60102.62
562.44	60095.60
562.60	60280.50
562.77	60268.79
562.93	60147.09
563.10	60236.03
563.26	60076.87
563.42	60404.55
563.59	60186.88
563.75	60243.05
563.92	60229.01
564.08	60147.09
564.24	60289.86
564.41	60339.01
564.57	60280.50
564.74	60434.97
564.90	60264.11
565.07	60336.67
565.23	60273.48
565.39	60334.33
565.56	60168.15
565.72	60348.37
565.88	60306.24
566.05	60399.86
566.21	60434.97
566.38	60491.15
566.54	60596.47
566.70	60444.33
566.87	60708.82
567.03	60416.25
567.19	60542.64
567.36	60594.13
567.52	60554.34
567.68	60584.77
567.85	60512.21
568.01	60687.75
568.17	60715.84
568.34	60739.24
568.50	60484.12
568.66	60477.10
568.83	60577.75
568.99	60458.38
569.15	60465.40
569.32	60615.19
569.48	60561.36
569.64	60786.05
569.81	60706.47
569.97	60481.78
570.13	60676.05
570.30	60519.23
570.46	60441.99
570.62	60786.05
570.78	60631.58
570.95	60764.99
571.11	60769.67
571.27	60704.13
571.43	60793.07
571.60	60903.08
571.76	60879.67
571.92	60722.86
572.09	60725.20
572.25	60708.82
572.41	60615.19
572.57	60921.80
572.74	60870.31
572.90	60577.75
573.06	60877.33
573.22	60680.73
573.38	60678.39
573.55	60657.32
573.71	61008.40
573.87	60898.40
574.03	60676.05
574.20	61001.38
574.36	61013.08
574.52	60992.02
574.68	60846.91
574.84	60987.34
575.01	61066.92
575.17	60914.78
575.33	60718.18
575.49	60767.33
575.65	61099.68
575.82	60928.83
575.98	61008.40
576.14	61183.94
576.30	61366.51
576.46	60889.04
576.62	61010.74
576.79	60973.30
576.95	60736.90
577.11	61062.24
577.27	60945.21
577.43	60966.27
577.59	60931.17
577.75	60821.16
577.92	60828.18
578.08	60874.99
578.24	61176.92
578.40	61041.17
578.56	61087.98
578.72	61048.19
578.88	61172.24
579.04	61097.34
579.21	61076.28
579.37	60968.61
579.53	61261.18
579.69	60963.93
579.85	60898.40
580.01	61228.41
580.17	61048.19
580.33	60999.04
580.49	61148.84
580.65	61165.22
580.82	60928.83
580.98	61193.31
581.14	60947.55
581.30	61324.38
581.46	61186.28
581.62	61031.81
581.78	60973.30
581.94	60961.59
582.10	61153.52
582.26	61071.60
582.42	60898.40
582.58	61137.13
582.74	61155.86
582.90	60963.93
583.06	61057.56
583.22	61006.06
583.38	60933.51
583.54	61249.48
583.70	61268.20
583.86	61305.65
584.02	61034.15
584.18	61293.95
584.34	61130.11
584.50	61144.16
584.66	60893.72
584.82	60912.44
584.98	61263.52
585.14	61127.77
585.30	61038.83
585.46	61209.69
585.62	61254.16
585.78	61230.75
585.94	61080.96
586.10	61125.43
586.26	61216.71
586.42	61205.01
586.58	61146.50
586.74	61312.67
586.90	61197.99
587.06	61085.64
587.22	61324.38
587.38	61389.91
587.54	61406.30
587.70	61396.93
587.86	61289.27
588.02	61207.35
588.18	61584.18
588.34	61420.34
588.49	61214.37
