SpectraSuite Data File
++++++++++++++++++++++++++++++++++++
Date: Fri Oct 25 11:34:49 EDT 2013
User: price-jones
Dark Spectrum Present: No
Reference Spectrum Present: No
Number of Sampled Component Spectra: 1
Spectrometers: USB2+H05261
Integration Time (usec): 100000 (USB2+H05261)
Spectra Averaged: 1 (USB2+H05261)
Boxcar Smoothing: 0 (USB2+H05261)
Correct for Electrical Dark: No (USB2+H05261)
Strobe/Lamp Enabled: No (USB2+H05261)
Correct for Detector Non-linearity: No (USB2+H05261)
Correct for Stray Light: No (USB2+H05261)
Number of Pixels in Processed Spectrum: 2048
>>>>>Begin Processed Spectral Data<<<<<
365.73	355.76
365.92	355.76
366.12	355.76
366.32	154.48
366.52	208.31
366.72	238.73
366.91	248.10
367.11	212.99
367.31	126.39
367.51	238.73
367.70	189.58
367.90	217.67
368.10	191.92
368.30	177.88
368.49	184.90
368.69	278.52
368.89	245.76
369.09	173.20
369.28	224.69
369.48	191.92
369.68	187.24
369.87	231.71
370.07	241.08
370.27	255.12
370.47	365.12
370.66	500.87
370.86	484.49
371.06	514.92
371.25	613.22
371.45	449.38
371.65	545.34
371.84	587.47
372.04	566.41
372.24	507.90
372.44	573.43
372.63	624.92
372.83	648.33
373.03	648.33
373.22	585.13
373.42	636.63
373.62	617.90
373.81	528.96
374.01	601.52
374.21	653.01
374.40	648.33
374.60	683.44
374.79	547.69
374.99	596.84
375.19	631.94
375.38	617.90
375.58	650.67
375.78	730.25
375.97	657.69
376.17	697.48
376.37	540.66
376.56	617.90
376.76	678.76
376.95	641.31
377.15	629.60
377.35	678.76
377.54	734.93
377.74	645.99
377.93	720.88
378.13	667.05
378.33	688.12
378.52	727.91
378.72	767.70
378.91	674.07
379.11	718.54
379.31	664.71
379.50	674.07
379.70	622.58
379.89	760.67
380.09	723.23
380.28	690.46
380.48	678.76
380.68	702.16
380.87	758.33
381.07	793.44
381.26	748.97
381.46	734.93
381.65	711.52
381.85	751.31
382.04	718.54
382.24	723.23
382.43	770.04
382.63	786.42
382.83	842.59
383.02	779.40
383.22	800.46
383.41	805.14
383.61	748.97
383.80	770.04
384.00	847.27
384.19	798.12
384.39	858.98
384.58	807.48
384.78	866.00
384.97	791.10
385.17	741.95
385.36	737.27
385.56	819.19
385.75	861.32
385.95	809.83
386.14	866.00
386.34	866.00
386.53	851.96
386.72	823.87
386.92	861.32
387.11	880.04
387.31	877.70
387.50	880.04
387.70	767.70
387.89	823.87
388.09	819.19
388.28	856.64
388.48	917.49
388.67	896.43
388.86	868.34
389.06	875.36
389.25	901.11
389.45	898.77
389.64	966.64
389.84	952.60
390.03	968.98
390.22	987.71
390.42	910.47
390.61	945.58
390.81	896.43
391.00	952.60
391.19	954.94
391.39	985.37
391.58	912.81
391.78	950.26
391.97	1004.09
392.16	936.21
392.36	1086.01
392.55	957.28
392.75	968.98
392.94	994.73
393.13	966.64
393.33	973.66
393.52	1008.77
393.71	978.34
393.91	1149.20
394.10	1057.92
394.29	1114.10
394.49	1050.90
394.68	1039.20
394.88	1034.52
395.07	1121.12
395.26	1057.92
395.46	1109.41
395.65	1139.84
395.84	1093.03
396.04	1088.35
396.23	1139.84
396.42	1097.71
396.62	1181.97
396.81	1137.50
397.00	1153.88
397.19	1132.82
397.39	1224.10
397.58	1282.61
397.77	1203.04
397.97	1231.12
398.16	1205.38
398.35	1249.85
398.55	1198.35
398.74	1315.38
398.93	1303.68
399.12	1193.67
399.32	1280.27
399.51	1320.06
399.70	1289.64
399.90	1188.99
400.09	1277.93
400.28	1336.45
400.47	1268.57
400.67	1327.08
400.86	1291.98
401.05	1451.13
401.24	1331.76
401.44	1385.60
401.63	1448.79
401.82	1331.76
402.01	1376.24
402.21	1357.51
402.40	1486.24
402.59	1418.36
402.78	1427.73
402.97	1437.09
403.17	1441.77
403.36	1441.77
403.55	1455.81
403.74	1577.52
403.93	1570.50
404.13	1476.88
404.32	1591.56
404.51	1519.01
404.70	1607.95
404.89	1629.01
405.09	1673.48
405.28	1621.99
405.47	1596.25
405.66	1706.25
405.85	1661.78
406.05	1643.06
406.24	1596.25
406.43	1682.85
406.62	1661.78
406.81	1769.44
407.00	1643.06
407.20	1708.59
407.39	1666.46
407.58	1701.57
407.77	1823.28
407.96	1788.17
408.15	1877.11
408.34	1769.44
408.54	1795.19
408.73	1806.89
408.92	1797.53
409.11	1825.62
409.30	1816.26
409.49	1865.41
409.68	1914.56
409.87	1893.49
410.07	2005.84
410.26	1872.43
410.45	1987.11
410.64	2045.63
410.83	1947.33
411.02	1973.07
411.21	2022.22
411.40	2059.67
411.59	2045.63
411.78	2008.18
411.98	2101.80
412.17	2216.49
412.36	2080.74
412.55	2113.50
412.74	2181.38
412.93	2202.44
413.12	2230.53
413.31	2221.17
413.50	2321.81
413.69	2284.36
413.88	2279.68
414.07	2387.35
414.26	2427.14
414.45	2347.56
414.64	2392.03
414.83	2445.86
415.02	2480.97
415.22	2579.27
415.41	2630.76
415.60	2464.58
415.79	2499.69
415.98	2677.57
416.17	2537.14
416.36	2511.39
416.55	2665.87
416.74	2757.15
416.93	2651.83
417.12	2771.19
417.31	2700.98
417.50	2693.96
417.69	2862.48
417.88	2885.88
418.07	2766.51
418.26	2782.90
418.45	2829.71
418.64	2902.26
418.83	2843.75
419.02	2820.35
419.21	2993.55
419.39	2909.29
419.58	2883.54
419.77	2932.69
419.96	3047.38
420.15	2935.03
420.34	2984.18
420.53	3070.78
420.72	3124.62
420.91	2970.14
421.10	2991.20
421.29	3136.32
421.48	3103.55
421.67	3047.38
421.86	3084.83
422.05	3169.09
422.24	3096.53
422.43	3070.78
422.61	3133.98
422.80	3220.58
422.99	3295.47
423.18	3187.81
423.37	3204.19
423.56	3192.49
423.75	3229.94
423.94	3187.81
424.13	3070.78
424.32	3084.83
424.50	3311.86
424.69	3517.83
424.88	3328.24
425.07	3213.56
425.26	3248.66
425.45	3239.30
425.64	3272.07
425.83	3239.30
426.01	3232.28
426.20	3351.65
426.39	3372.71
426.58	3304.84
426.77	3272.07
426.96	3393.78
427.15	3426.54
427.33	3272.07
427.52	3323.56
427.71	3412.50
427.90	3274.41
428.09	3405.48
428.28	3353.99
428.46	3426.54
428.65	3569.32
428.84	3644.21
429.03	3648.90
429.22	3557.61
429.40	3609.11
429.59	3496.76
429.78	3548.25
429.97	3562.30
430.16	3543.57
430.34	3712.09
430.53	3637.19
430.72	3819.75
430.91	3833.80
431.10	3597.40
431.28	3517.83
431.47	3843.16
431.66	3758.90
431.85	3772.94
432.03	3840.82
432.22	3967.21
432.41	3777.62
432.60	3857.20
432.79	3756.56
432.97	3873.59
433.16	3948.48
433.35	3889.97
433.54	3985.93
433.72	4091.26
433.91	4037.42
434.10	4021.04
434.28	3838.48
434.47	4049.13
434.66	4072.53
434.85	4095.94
435.03	4140.41
435.22	4081.89
435.41	4163.81
435.59	4063.17
435.78	4290.20
435.97	4210.62
436.16	4124.02
436.34	4187.22
436.53	4241.05
436.72	4353.40
436.90	4124.02
437.09	4184.88
437.28	4187.22
437.46	4355.74
437.65	4306.59
437.84	4493.83
438.02	4294.88
438.21	4397.87
438.40	4287.86
438.58	4442.34
438.77	4662.35
438.96	4486.81
439.14	4681.07
439.33	4624.90
439.52	4692.77
439.70	4634.26
439.89	4833.21
440.08	4887.04
440.26	4667.03
440.45	4770.01
440.63	4851.93
440.82	5029.81
441.01	4826.18
441.19	4823.84
441.38	4912.78
441.57	5013.43
441.75	5006.41
441.94	5006.41
442.12	5071.94
442.31	5041.51
442.50	5158.54
442.68	5177.26
442.87	5102.37
443.05	5093.01
443.24	5341.10
443.43	5125.77
443.61	5095.35
443.80	5291.95
443.98	5048.54
444.17	5020.45
444.35	5334.08
444.54	5376.21
444.73	5446.43
444.91	5261.52
445.10	5568.13
445.28	5437.06
445.47	5369.19
445.65	5416.00
445.84	5310.68
446.02	5392.59
446.21	5357.49
446.39	5373.87
446.58	5420.68
446.77	5565.79
446.95	5291.95
447.14	5371.53
447.32	5544.73
447.51	5406.64
447.69	5490.90
447.88	5453.45
448.06	5430.04
448.25	5392.59
448.43	5427.70
448.62	5453.45
448.80	5469.83
448.99	5549.41
449.17	5579.84
449.36	5626.65
449.54	5561.11
449.73	5685.16
449.91	5746.02
450.10	5818.57
450.28	5781.12
450.46	5975.39
450.65	5738.99
450.83	5860.70
451.02	5776.44
451.20	5832.62
451.39	5746.02
451.57	5944.96
451.76	5734.31
451.94	5870.06
452.13	5846.66
452.31	5951.98
452.49	5834.96
452.68	5902.83
452.86	5940.28
453.05	5975.39
453.23	5954.32
453.42	6008.16
453.60	5888.79
453.78	6097.10
453.97	5816.23
454.15	5968.37
454.34	6101.78
454.52	6279.66
454.70	6134.54
454.89	6307.74
455.07	6080.71
455.26	6129.86
455.44	6403.71
455.62	6256.25
455.81	6232.85
455.99	6370.94
456.17	6263.27
456.36	6417.75
456.54	6333.49
456.73	6523.07
456.91	6595.63
457.09	6700.95
457.28	6684.57
457.46	6579.25
457.64	6768.83
457.83	6637.76
458.01	6649.46
458.19	6750.10
458.38	6658.82
458.56	6799.26
458.74	6565.20
458.93	6731.38
459.11	6817.98
459.29	6803.94
459.48	6733.72
459.66	6696.27
459.84	7171.40
460.03	7023.95
460.21	6768.83
460.39	6909.26
460.57	6942.03
460.76	7019.27
460.94	7119.91
461.12	6923.30
461.31	7030.97
461.49	7037.99
461.67	7077.78
461.85	7077.78
462.04	7187.79
462.22	7290.77
462.40	7255.66
462.59	7225.23
462.77	7218.21
462.95	7454.61
463.13	7393.75
463.32	7192.47
463.50	7372.69
463.68	7389.07
463.86	7360.98
464.05	7424.18
464.23	7258.00
464.41	7449.93
464.59	7468.65
464.78	7583.34
464.96	7478.01
465.14	7618.44
465.32	7559.93
465.50	7613.76
465.69	7672.28
465.87	7791.64
466.05	7611.42
466.23	7826.75
466.41	7665.25
466.60	7903.99
466.78	7466.31
466.96	7796.32
467.14	7805.69
467.32	7882.92
467.51	7932.08
467.69	7709.72
467.87	7915.69
468.05	7920.37
468.23	7826.75
468.41	7765.90
468.60	7829.09
468.78	7927.39
468.96	7985.91
469.14	8166.13
469.32	8152.09
469.50	7978.89
469.69	8051.44
469.87	8140.38
470.05	8116.98
470.23	8339.33
470.41	8149.75
470.59	8383.80
470.77	8294.86
470.95	8367.42
471.14	8713.81
471.32	8435.29
471.50	8580.40
471.68	8547.64
471.86	8592.11
472.04	8702.11
472.22	8702.11
472.40	8596.79
472.58	8622.53
472.77	8840.20
472.95	8879.99
473.13	9118.73
473.31	8734.88
473.49	8746.58
473.67	8828.50
473.85	8980.64
474.03	9397.25
474.21	9303.63
474.39	9149.15
474.57	9121.07
474.75	9565.77
474.93	9369.16
475.12	9394.91
475.30	9530.66
475.48	9231.07
475.66	9659.39
475.84	9303.63
476.02	9696.84
476.20	9652.37
476.38	9593.86
476.56	10001.11
476.74	9912.17
476.92	9982.38
477.10	9848.97
477.28	9961.32
477.46	9989.41
477.64	9996.43
477.82	10228.14
478.00	10677.52
478.18	10658.80
478.36	10490.28
478.54	10668.16
478.72	10567.52
478.90	10740.72
479.08	10892.85
479.26	10862.43
479.44	11061.37
479.62	11007.54
479.80	11220.53
479.98	11178.40
480.16	11342.24
480.34	11405.43
480.52	11637.14
480.70	11370.32
480.88	11515.44
481.06	11683.95
481.24	11714.38
481.41	11707.36
481.59	11925.03
481.77	11997.59
481.95	11896.94
482.13	12311.22
482.31	12140.36
482.49	12341.64
482.67	12248.02
482.85	12706.77
483.03	12688.04
483.21	12760.60
483.39	13013.38
483.57	13146.79
483.74	13118.70
483.92	12943.16
484.10	13191.26
484.28	13483.83
484.46	13633.62
484.64	13612.56
484.82	13769.37
485.00	13830.23
485.18	14001.08
485.35	14171.94
485.53	13902.78
485.71	14005.77
485.89	14525.36
486.07	14267.91
486.25	14548.77
486.43	14450.47
486.61	14693.88
486.78	15005.17
486.96	14754.74
487.14	15194.76
487.32	15161.99
487.50	15438.17
487.68	15524.77
487.85	15508.39
488.03	15857.13
488.21	16016.29
488.39	15896.92
488.57	16049.05
488.75	15859.47
488.92	16505.46
489.10	16648.23
489.28	16540.57
489.46	16271.40
489.64	16842.50
489.81	17291.88
489.99	16795.68
490.17	17179.53
490.35	17139.74
490.53	17504.87
490.70	17434.65
490.88	17202.94
491.06	17844.24
491.24	17579.76
491.41	17949.57
491.59	18200.01
491.77	18052.55
491.95	17888.71
492.13	18520.66
492.30	18291.29
492.48	18436.40
492.66	18515.98
492.84	18820.25
493.01	19297.72
493.19	18988.77
493.37	19049.62
493.54	19124.52
493.72	19630.07
493.90	19707.31
494.08	19405.38
494.25	19838.38
494.43	19644.12
494.61	19641.78
494.79	20013.92
494.96	19857.10
495.14	20084.14
495.32	20273.72
495.49	20320.53
495.67	20465.64
495.85	20568.63
496.02	20718.42
496.20	20973.54
496.38	20952.48
496.55	20877.58
496.73	21596.12
496.91	21291.85
497.09	21315.26
497.26	21429.94
497.44	21617.19
497.62	21790.39
497.79	22040.82
497.97	21916.78
498.14	22047.85
498.32	22403.61
498.50	22059.55
498.67	22518.29
498.85	22527.66
499.03	22794.48
499.20	22712.56
499.38	22979.38
499.56	22728.94
499.73	22841.29
499.91	22934.91
500.08	23147.90
500.26	23080.02
500.44	23257.90
500.61	23243.86
500.79	23405.36
500.97	23704.95
501.14	23908.57
501.32	23681.54
501.49	23695.58
501.67	23775.16
501.84	23714.31
502.02	24119.22
502.20	24044.32
502.37	24247.95
502.55	24217.52
502.72	24151.99
502.90	24315.83
503.07	24339.23
503.25	24709.04
503.43	24315.83
503.60	24353.27
503.78	25001.60
503.95	25017.99
504.13	25020.33
504.30	24964.15
504.48	25006.28
504.65	24882.24
504.83	25247.36
505.01	25336.30
505.18	25781.00
505.36	25542.27
505.53	25441.62
505.71	25961.22
505.88	26054.84
506.06	25624.18
506.23	26176.55
506.41	25853.56
506.58	26136.76
506.76	26293.58
506.93	26134.42
507.11	26668.06
507.28	26324.01
507.46	26197.62
507.63	26668.06
507.81	26602.53
507.98	26614.23
508.16	26387.20
508.33	26878.71
508.50	26766.37
508.68	27110.43
508.85	27473.21
509.03	27480.23
509.20	27232.13
509.38	27323.41
509.55	27686.20
509.73	27597.26
509.90	27513.00
510.08	27840.67
510.25	27824.29
510.42	27878.12
510.60	28039.62
510.77	28205.80
510.95	28318.14
511.12	27814.93
511.30	27955.36
511.47	28348.57
511.64	27697.90
511.82	28430.49
511.99	28137.92
512.17	28402.40
512.34	28704.33
512.51	28716.03
512.69	29001.58
512.86	28655.18
513.04	29116.26
513.21	29174.78
513.38	29308.19
513.56	29095.20
513.73	29010.94
513.90	29378.40
514.08	29418.19
514.25	29357.34
514.43	29975.24
514.60	29816.08
514.77	29553.94
514.95	29755.23
515.12	29577.35
515.29	29970.56
515.47	30295.89
515.64	30235.04
515.81	30015.03
515.99	30110.99
516.16	30618.89
516.33	30160.14
516.51	30595.48
516.68	30199.93
516.85	30567.40
517.03	30625.91
517.20	31012.10
517.37	30604.84
517.54	31012.10
517.72	30991.03
517.89	30972.31
518.06	30948.90
518.24	31267.22
518.41	30888.05
518.58	31192.32
518.75	31173.60
518.93	31402.97
519.10	31456.80
519.27	31246.15
519.45	31447.44
519.62	31400.63
519.79	31599.57
519.96	31377.22
520.14	31604.25
520.31	31850.01
520.48	32079.38
520.65	32088.74
520.83	32055.98
521.00	32411.74
521.17	32203.43
521.34	31910.86
521.52	32503.02
521.69	32259.60
521.86	32514.72
522.03	32723.03
522.20	32659.84
522.38	33125.60
522.55	33006.23
522.72	32730.05
522.89	33053.05
523.07	33240.29
523.24	32957.08
523.41	33357.32
523.58	32783.88
523.75	33600.73
523.92	33158.37
524.10	33399.44
524.27	33425.19
524.44	33699.03
524.61	33874.57
524.78	33996.28
524.96	33647.54
525.13	33944.79
525.30	33958.83
525.47	33841.81
525.64	34199.91
525.81	34078.20
525.98	33940.11
526.16	34078.20
526.33	34115.65
526.50	34089.90
526.67	34000.96
526.84	34469.07
527.01	34558.01
527.18	34265.44
527.36	34993.35
527.53	34920.79
527.70	34719.51
527.87	34906.75
528.04	34642.27
528.21	34782.70
528.38	35335.07
528.55	35323.36
528.72	34663.33
528.89	35360.81
529.07	34873.98
529.24	35164.21
529.41	35442.73
529.58	35344.43
529.75	35342.09
529.92	35482.52
530.09	35442.73
530.26	35269.53
530.43	35531.67
530.60	34890.37
530.77	35173.57
530.94	35613.59
531.11	35470.82
531.28	35447.41
531.46	35627.63
531.63	35545.72
531.80	35824.24
531.97	35950.63
532.14	36060.63
532.31	35597.21
532.48	36018.50
532.65	36229.15
532.82	36409.37
532.99	36212.77
533.16	35983.40
533.33	36388.31
533.50	36137.87
533.67	36479.59
533.84	36290.01
534.01	36535.76
534.18	36044.25
534.35	37251.97
534.52	36954.72
534.69	37057.70
534.86	36863.44
535.03	36711.30
535.20	37067.06
535.37	37443.89
535.54	37507.08
535.71	37165.37
535.88	37394.74
536.05	37490.70
536.22	37841.78
536.38	36905.57
536.55	37270.69
536.72	37291.76
536.89	37266.01
537.06	37310.48
537.23	37645.18
537.40	37443.89
537.57	37221.54
537.74	37329.20
537.91	37446.23
538.08	37972.85
538.25	37364.31
538.42	37949.45
538.59	37963.49
538.75	37691.99
538.92	38375.42
539.09	37926.04
539.26	37881.57
539.43	37841.78
539.60	38499.47
539.77	37972.85
539.94	38483.09
540.11	38375.42
540.28	38122.65
540.44	38316.91
540.61	38485.43
540.78	38237.33
540.95	38841.19
541.12	38501.81
541.29	38607.14
541.46	38462.02
541.62	38466.70
541.79	38667.99
541.96	38714.80
542.13	38405.85
542.30	38391.81
542.47	38675.01
542.63	39030.77
542.80	39110.35
542.97	39110.35
543.14	39388.88
543.31	39049.50
543.48	39475.48
543.64	39447.39
543.81	39950.60
543.98	39667.40
544.15	39295.25
544.32	39723.57
544.48	40156.57
544.65	39934.22
544.82	39880.39
544.99	39505.90
545.16	39391.22
545.32	39772.72
545.49	40048.91
545.66	40561.48
545.83	39541.01
546.00	40133.17
546.16	39948.26
546.33	39639.31
546.50	39896.77
546.67	40680.85
546.83	39782.09
547.00	40212.74
547.17	39969.33
547.34	40076.99
547.50	40268.92
547.67	40456.16
547.84	40395.31
548.00	40765.11
548.17	40540.42
548.34	40809.58
548.51	40591.91
548.67	40575.53
548.84	41067.04
549.01	40505.31
549.18	40545.10
549.34	40919.59
549.51	40919.59
549.68	40886.82
549.84	40879.80
550.01	40760.43
550.18	40650.42
550.34	40917.25
550.51	40982.78
550.68	41324.50
550.84	40849.37
551.01	41228.54
551.18	41263.64
551.34	41268.33
551.51	41214.49
551.68	41092.79
551.84	41237.90
552.01	41053.00
552.18	41336.20
552.34	41125.55
552.51	41392.37
552.68	41326.84
552.84	41586.64
553.01	41553.87
553.18	41404.08
553.34	41680.26
553.51	40994.48
553.67	41799.63
553.84	42066.45
554.01	41694.30
554.17	41731.75
554.34	42373.06
554.51	41823.03
554.67	41975.17
554.84	42033.68
555.00	42026.66
555.17	41713.03
555.33	42223.26
555.50	42398.80
555.67	41949.42
555.83	42047.72
556.00	42452.64
556.16	42649.24
556.33	42408.17
556.50	42476.04
556.66	42220.92
556.83	41724.73
556.99	42663.28
557.16	42693.71
557.32	42766.27
557.49	42323.91
557.65	42075.81
557.82	42298.16
557.98	42454.98
558.15	42359.02
558.32	42429.23
558.48	42309.86
558.65	42792.01
558.81	42466.68
558.98	42534.56
559.14	42543.92
559.31	42487.74
559.47	42607.11
559.64	42595.41
559.80	42878.61
559.97	42925.42
560.13	42436.25
560.30	42801.38
560.46	43105.65
560.63	43225.01
560.79	43054.15
560.96	43112.67
561.12	42887.98
561.29	42621.16
561.45	43264.80
561.61	43126.71
561.78	42483.06
561.94	43255.44
562.11	42995.64
562.27	43337.36
562.44	43419.28
562.60	43325.66
562.77	43480.13
562.93	43105.65
563.10	43192.25
563.26	43143.09
563.42	43402.89
563.59	43077.56
563.75	43599.50
563.92	43459.07
564.08	43323.32
564.24	43447.36
564.41	43124.37
564.57	43578.43
564.74	43732.91
564.90	43803.13
565.07	43220.33
565.23	43257.78
565.39	43878.02
565.56	43220.33
565.72	43721.21
565.88	43264.80
566.05	43510.56
566.21	43402.89
566.38	43468.43
566.54	43517.58
566.70	43735.25
566.87	43943.56
567.03	43320.98
567.19	43779.72
567.36	43655.67
567.52	43765.68
567.68	43971.64
567.85	43723.55
568.01	43739.93
568.17	43882.70
568.34	43943.56
568.50	44069.95
568.66	43861.64
568.83	44016.11
568.99	43449.70
569.15	43592.48
569.32	43782.06
569.48	43349.06
569.64	44041.86
569.81	44128.46
569.97	44091.01
570.13	44100.37
570.30	43571.41
570.46	43892.07
570.62	44137.82
570.78	43845.26
570.95	43590.14
571.11	44388.26
571.27	43938.88
571.43	43871.00
571.60	43924.83
571.76	43817.17
571.92	44418.69
572.09	43924.83
572.25	44093.35
572.41	43819.51
572.57	43863.98
572.74	44493.58
572.90	44289.96
573.06	44112.08
573.22	44170.59
573.38	43978.67
573.55	43770.36
573.71	44392.94
573.87	44453.79
574.03	44034.84
574.20	44151.87
574.36	44273.57
574.52	44156.55
574.68	44474.86
574.84	44170.59
575.01	44582.52
575.17	44477.20
575.33	44563.80
575.49	44109.74
575.65	44238.47
575.82	44531.03
575.98	44119.10
576.14	44327.41
576.30	44676.15
576.46	44261.87
576.62	44062.93
576.79	44460.82
576.95	44203.36
577.11	44268.89
577.27	44786.15
577.43	44137.82
577.59	44584.86
577.75	44226.76
577.92	43812.49
578.08	44294.64
578.24	44505.29
578.40	44832.96
578.56	44388.26
578.72	44692.53
578.88	44823.60
579.04	44573.16
579.21	44348.47
579.37	44650.40
579.53	44533.37
579.69	44470.18
579.85	44067.61
580.01	44236.12
580.17	44378.90
580.33	44720.62
580.49	44568.48
580.65	44753.38
580.82	44467.84
580.98	44252.51
581.14	44182.29
581.30	44655.08
581.46	44083.99
581.62	44423.37
581.78	44294.64
581.94	44514.65
582.10	44978.07
582.26	44102.71
582.42	44823.60
582.58	44453.79
582.74	44512.31
582.90	44835.30
583.06	44847.00
583.22	44573.16
583.38	45160.64
583.54	44535.71
583.70	44540.39
583.86	44521.67
584.02	44795.51
584.18	45347.88
584.34	44746.36
584.50	44811.90
584.66	44755.72
584.82	44582.52
584.98	44706.57
585.14	44769.77
585.30	44446.77
585.46	44636.36
585.62	44245.49
585.78	44734.66
585.94	44619.97
586.10	44519.33
586.26	44397.62
586.42	44575.50
586.58	45132.55
586.74	44767.43
586.90	44509.97
587.06	44676.15
587.22	44978.07
587.38	44687.85
587.54	44809.56
587.70	45088.08
587.86	45191.06
588.02	44437.41
588.18	44397.62
588.34	45083.40
588.49	44837.64
588.65	44851.69
588.81	44404.64
588.97	44919.56
589.13	44687.85
589.29	44669.12
589.45	44835.30
589.61	45153.62
589.77	45024.89
589.93	44641.04
590.08	45179.36
590.24	45462.57
