SpectraSuite Data File
++++++++++++++++++++++++++++++++++++
Date: Fri Oct 25 11:22:52 EDT 2013
User: price-jones
Dark Spectrum Present: No
Reference Spectrum Present: No
Number of Sampled Component Spectra: 1
Spectrometers: USB2+H05261
Integration Time (usec): 100000 (USB2+H05261)
Spectra Averaged: 1 (USB2+H05261)
Boxcar Smoothing: 0 (USB2+H05261)
Correct for Electrical Dark: No (USB2+H05261)
Strobe/Lamp Enabled: No (USB2+H05261)
Correct for Detector Non-linearity: No (USB2+H05261)
Correct for Stray Light: No (USB2+H05261)
Number of Pixels in Processed Spectrum: 2048
>>>>>Begin Processed Spectral Data<<<<<
365.73	205.97
365.92	205.97
366.12	205.97
366.32	189.58
366.52	133.41
366.72	72.56
366.91	110.01
367.11	128.73
367.31	112.35
367.51	98.30
367.70	149.79
367.90	86.60
368.10	114.69
368.30	112.35
368.49	117.03
368.69	149.79
368.89	138.09
369.09	177.88
369.28	138.09
369.48	156.82
369.68	238.73
369.87	145.11
370.07	198.95
370.27	173.20
370.47	322.99
370.66	552.37
370.86	603.86
371.06	629.60
371.25	667.05
371.45	653.01
371.65	636.63
371.84	669.39
372.04	683.44
372.24	596.84
372.44	631.94
372.63	788.76
372.83	772.38
373.03	718.54
373.22	734.93
373.42	823.87
373.62	713.86
373.81	805.14
374.01	828.55
374.21	793.44
374.40	823.87
374.60	826.21
374.79	901.11
374.99	791.10
375.19	800.46
375.38	844.93
375.58	877.70
375.78	866.00
375.97	851.96
376.17	987.71
376.37	875.36
376.56	830.89
376.76	847.27
376.95	774.72
377.15	805.14
377.35	929.19
377.54	880.04
377.74	875.36
377.93	870.68
378.13	936.21
378.33	861.32
378.52	973.66
378.72	954.94
378.91	938.55
379.11	947.92
379.31	912.81
379.50	954.94
379.70	971.32
379.89	992.39
380.09	919.83
380.28	973.66
380.48	1109.41
380.68	940.90
380.87	954.94
381.07	1043.88
381.26	1001.75
381.46	1015.79
381.65	964.30
381.85	983.02
382.04	1057.92
382.24	1135.16
382.43	1088.35
382.63	1004.09
382.83	1088.35
383.02	1074.31
383.22	1093.03
383.41	938.55
383.61	1144.52
383.80	1163.25
384.00	1125.80
384.19	1022.81
384.39	1144.52
384.58	1139.84
384.78	1151.54
384.97	1128.14
385.17	1163.25
385.36	1228.78
385.56	1111.75
385.75	1179.63
385.95	1233.46
386.14	1179.63
386.34	1231.12
386.53	1240.48
386.72	1214.74
386.92	1308.36
387.11	1214.74
387.31	1226.44
387.50	1224.10
387.70	1280.27
387.89	1334.11
388.09	1313.04
388.28	1329.42
388.48	1320.06
388.67	1296.66
388.86	1327.08
389.06	1315.38
389.25	1453.47
389.45	1336.45
389.64	1308.36
389.84	1394.96
390.03	1411.34
390.22	1425.39
390.42	1397.30
390.61	1348.15
390.81	1378.58
391.00	1394.96
391.19	1423.05
391.39	1483.90
391.58	1432.41
391.78	1446.45
391.97	1432.41
392.16	1455.81
392.36	1465.18
392.55	1610.29
392.75	1537.73
392.94	1509.65
393.13	1507.30
393.33	1486.24
393.52	1680.50
393.71	1589.22
393.91	1446.45
394.10	1504.96
394.29	1603.27
394.49	1643.06
394.68	1671.14
394.88	1643.06
395.07	1671.14
395.26	1757.74
395.46	1687.53
395.65	1668.80
395.84	1713.27
396.04	1811.57
396.23	1753.06
396.42	1774.13
396.62	1764.76
396.81	1837.32
397.00	1757.74
397.19	1746.04
397.39	1834.98
397.58	1774.13
397.77	1827.96
397.97	1797.53
398.16	1881.79
398.35	1881.79
398.55	1891.15
398.74	1900.52
398.93	1923.92
399.12	1830.30
399.32	1891.15
399.51	1898.17
399.70	2019.88
399.90	1898.17
400.09	1984.77
400.28	1902.86
400.47	1982.43
400.67	2150.95
400.86	2125.21
401.05	2113.50
401.24	2083.08
401.44	2118.18
401.63	2148.61
401.82	2165.00
402.01	2143.93
402.21	2076.06
402.40	2263.30
402.59	2232.87
402.78	2209.47
402.97	2221.17
403.17	2394.37
403.36	2345.22
403.55	2289.04
403.74	2282.02
403.93	2361.60
404.13	2366.28
404.32	2338.20
404.51	2385.01
404.70	2471.61
404.89	2443.52
405.09	2455.22
405.28	2490.33
405.47	2569.91
405.66	2513.74
405.85	2539.48
406.05	2499.69
406.24	2502.03
406.43	2572.25
406.62	2668.21
406.81	2785.24
407.00	2686.94
407.20	2630.76
407.39	2719.70
407.58	2745.45
407.77	2670.55
407.96	2782.90
408.15	2726.72
408.34	2703.32
408.54	2775.88
408.73	2913.97
408.92	2778.22
409.11	2836.73
409.30	2909.29
409.49	2888.22
409.68	3030.99
409.87	2818.00
410.07	2986.52
410.26	3026.31
410.45	2986.52
410.64	3049.72
410.83	3087.17
411.02	3094.19
411.21	3194.83
411.40	3094.19
411.59	3164.40
411.78	3080.14
411.98	3243.98
412.17	3288.45
412.36	3253.34
412.55	3445.27
412.74	3438.25
412.93	3424.20
413.12	3440.59
413.31	3585.70
413.50	3361.01
413.69	3557.61
413.88	3489.74
414.07	3604.42
414.26	3655.92
414.45	3637.19
414.64	3775.28
414.83	3845.50
415.02	3782.31
415.22	3770.60
415.41	3955.51
415.60	3936.78
415.79	4002.32
415.98	3866.56
416.17	3939.12
416.36	3838.48
416.55	4124.02
416.74	4030.40
416.93	4105.30
417.12	4229.35
417.31	4217.65
417.50	4184.88
417.69	4437.66
417.88	4276.16
418.07	4365.10
418.26	4264.46
418.45	4332.33
418.64	4582.77
418.83	4444.68
419.02	4381.48
419.21	4528.94
419.39	4510.21
419.58	4482.13
419.77	4381.48
419.96	4477.44
420.15	4657.67
420.34	4538.30
420.53	4744.27
420.72	4812.14
420.91	4713.84
421.10	4683.41
421.29	4762.99
421.48	4760.65
421.67	4908.10
421.86	4816.82
422.05	4908.10
422.24	4863.63
422.43	4917.47
422.61	4821.50
422.80	5015.77
422.99	4875.34
423.18	4922.15
423.37	5008.75
423.56	4926.83
423.75	4905.76
423.94	4917.47
424.13	4615.54
424.32	4891.72
424.50	5210.03
424.69	5233.44
424.88	5114.07
425.07	4795.76
425.26	5088.32
425.45	4999.38
425.64	4873.00
425.83	4971.30
426.01	5076.62
426.20	5081.30
426.39	5067.26
426.58	5193.65
426.77	5060.24
426.96	5163.22
427.15	5123.43
427.33	5245.14
427.52	5224.08
427.71	5210.03
427.90	5277.91
428.09	5310.68
428.28	5451.11
428.46	5441.75
428.65	5392.59
428.84	5678.14
429.03	5549.41
429.22	5511.96
429.40	5406.64
429.59	5441.75
429.78	5289.61
429.97	5231.10
430.16	5338.76
430.34	5537.71
430.53	5614.95
430.72	5659.42
430.91	5533.03
431.10	5586.86
431.28	5650.05
431.47	5834.96
431.66	6080.71
431.85	5865.38
432.03	5905.17
432.22	6134.54
432.41	6108.80
432.60	5893.47
432.79	5923.90
432.97	5956.66
433.16	5888.79
433.35	6001.13
433.54	6094.76
433.72	6141.57
433.91	6136.88
434.10	6083.05
434.28	6087.73
434.47	6373.28
434.66	6284.34
434.85	6279.66
435.03	6340.51
435.22	6176.67
435.41	6567.54
435.59	6401.37
435.78	6576.91
435.97	6487.96
436.16	6520.73
436.34	6476.26
436.53	6642.44
436.72	6717.34
436.90	6455.20
437.09	6654.14
437.28	6516.05
437.46	6684.57
437.65	6808.62
437.84	6794.58
438.02	6932.67
438.21	6843.73
438.40	6602.65
438.58	6991.18
438.77	7091.82
438.96	7110.55
439.14	7183.10
439.33	7068.42
439.52	7281.41
439.70	7082.46
439.89	7332.90
440.08	7494.40
440.26	7241.62
440.45	7379.71
440.63	7356.30
440.82	7541.21
441.01	7552.91
441.19	7585.68
441.38	7719.09
441.57	7772.92
441.75	7737.81
441.94	8112.30
442.12	8063.15
442.31	8053.78
442.50	8112.30
442.68	7978.89
442.87	8175.49
443.05	8152.09
443.24	8472.74
443.43	8222.30
443.61	8344.01
443.80	8390.82
443.98	8093.57
444.17	7901.65
444.35	8168.47
444.54	8414.23
444.73	8191.88
444.91	8299.54
445.10	8505.51
445.28	8390.82
445.47	8442.31
445.65	8484.44
445.84	8507.85
446.02	8510.19
446.21	8648.28
446.39	8400.18
446.58	8601.47
446.77	8505.51
446.95	8273.79
447.14	8503.17
447.32	8573.38
447.51	8652.96
447.69	8592.11
447.88	8542.96
448.06	8622.53
448.25	8587.43
448.43	8627.21
448.62	8683.39
448.80	8538.27
448.99	8774.67
449.17	8840.20
449.36	8559.34
449.54	8863.61
449.73	9057.87
449.91	9078.94
450.10	9160.86
450.28	8957.23
450.46	8924.46
450.65	9060.21
450.83	8943.19
451.02	9015.74
451.20	9205.33
451.39	9137.45
451.57	9198.31
451.76	9107.02
451.94	9282.56
452.13	9411.29
452.31	9387.89
452.49	9242.78
452.68	9518.96
452.86	9282.56
453.05	9430.02
453.23	9635.99
453.42	9497.89
453.60	9320.01
453.78	9586.83
453.97	9647.69
454.15	9474.49
454.34	9614.92
454.52	9928.55
454.70	9668.75
454.89	9832.59
455.07	9848.97
455.26	9830.25
455.44	10071.33
455.62	9982.38
455.81	10003.45
455.99	9991.75
456.17	10382.62
456.36	9954.30
456.54	10228.14
456.73	10230.48
456.91	10427.09
457.09	10497.30
457.28	10586.24
457.46	10466.88
457.64	10516.03
457.83	10562.84
458.01	10272.61
458.19	10888.17
458.38	10581.56
458.56	10853.06
458.74	10822.64
458.93	10712.63
459.11	10960.73
459.29	10630.71
459.48	10839.02
459.66	11028.60
459.84	11035.63
460.03	11145.63
460.21	11185.42
460.39	11026.26
460.57	11117.54
460.76	11211.17
460.94	11316.49
461.12	11337.56
461.31	11424.15
461.49	11215.85
461.67	11044.99
461.85	11424.15
462.04	11274.36
462.22	12063.12
462.40	11545.86
462.59	11627.78
462.77	11375.00
462.95	11775.24
463.13	11789.28
463.32	11857.15
463.50	11840.77
463.68	11922.69
463.86	12030.35
464.05	11777.58
464.23	11700.34
464.41	11903.96
464.59	11754.17
464.78	12231.64
464.96	12215.26
465.14	11896.94
465.32	12042.06
465.50	12210.57
465.69	12194.19
465.87	12018.65
466.05	12343.99
466.23	12233.98
466.41	12163.76
466.60	12540.59
466.78	12535.91
466.96	12248.02
467.14	12388.46
467.32	12669.32
467.51	12430.59
467.69	12336.96
467.87	12482.08
468.05	12872.95
468.23	12273.77
468.41	12732.51
468.60	12793.37
468.78	12802.73
468.96	12819.11
469.14	12957.21
469.32	13338.71
469.50	12662.30
469.69	13195.94
469.87	13158.49
470.05	12954.87
470.23	13413.61
470.41	13500.21
470.59	13387.86
470.77	13355.10
470.95	13596.17
471.14	13558.72
471.32	13125.72
471.50	13610.22
471.68	13701.50
471.86	13678.09
472.04	14008.11
472.22	14155.56
472.40	13722.56
472.58	14115.77
472.77	13841.93
472.95	14333.44
473.13	14897.51
473.31	14438.76
473.49	14644.73
473.67	14260.88
473.85	14525.36
474.03	14822.61
474.21	14684.52
474.39	15098.80
474.57	15002.83
474.75	15208.80
474.93	14878.79
475.12	14974.75
475.30	15075.39
475.48	15124.54
475.66	15304.76
475.84	15028.58
476.02	15494.35
476.20	15508.39
476.38	15662.86
476.56	15939.05
476.74	16393.11
476.92	16053.73
477.10	15992.88
477.28	16320.56
477.46	16322.90
477.64	16524.18
477.82	16432.90
478.00	17186.55
478.18	16919.73
478.36	16910.37
478.54	17514.23
478.72	17554.02
478.90	17603.17
479.08	17603.17
479.26	17862.97
479.44	17776.37
479.62	17984.68
479.80	18120.43
479.98	18333.42
480.16	18782.80
480.34	18445.76
480.52	18768.76
480.70	18829.61
480.88	18349.80
481.06	18743.01
481.24	18796.84
481.41	19145.58
481.59	19447.51
481.77	19517.73
481.95	19658.16
482.13	19667.52
482.31	20095.84
482.49	20285.42
482.67	20475.01
482.85	20688.00
483.03	20908.01
483.21	21015.67
483.39	21123.33
483.57	21270.79
483.74	21177.17
483.92	21432.29
484.10	21488.46
484.28	22190.62
484.46	22127.42
484.64	22335.73
484.82	22104.02
485.00	22375.52
485.18	22977.04
485.35	23281.31
485.53	22981.72
485.71	22986.40
485.89	23534.09
486.07	23611.32
486.25	23400.68
486.43	23836.02
486.61	23999.85
486.78	24180.07
486.96	24460.94
487.14	25039.05
487.32	25039.05
487.50	24751.17
487.68	25179.48
487.85	25575.03
488.03	25876.96
488.21	26333.37
488.39	25977.61
488.57	26373.16
488.75	26204.64
488.92	26969.99
489.10	27112.77
489.28	26962.97
489.46	27435.76
489.64	27597.26
489.81	27903.87
489.99	27421.72
490.17	28002.17
490.35	28231.54
490.53	28652.84
490.70	28776.89
490.88	28519.43
491.06	28882.21
491.24	28999.24
491.41	29125.63
491.59	29408.83
491.77	29539.90
491.95	29488.41
492.13	30244.40
492.30	30778.04
492.48	30284.19
492.66	30387.18
492.84	30328.66
493.01	30897.41
493.19	30838.90
493.37	31105.72
493.54	31431.05
493.72	31679.15
493.90	31990.44
494.08	32086.40
494.25	32156.62
494.43	32645.79
494.61	32297.05
494.79	33144.33
494.96	32393.01
495.14	32879.85
495.32	32896.23
495.49	33385.40
495.67	33888.62
495.85	33359.66
496.02	34143.74
496.20	33942.45
496.38	34157.78
496.55	34387.15
496.73	35185.27
496.91	34728.87
497.09	35072.93
497.26	35168.89
497.44	35054.20
497.62	35531.67
497.79	36126.17
497.97	35716.58
498.14	36257.24
498.32	36397.67
498.50	36503.00
498.67	36734.71
498.85	36732.37
499.03	36992.17
499.20	37132.60
499.38	37495.38
499.56	37392.40
499.73	37462.61
499.91	37813.70
500.08	37947.11
500.26	37979.87
500.44	37521.13
500.61	37998.60
500.79	37909.66
500.97	38593.09
501.14	39302.28
501.32	38918.43
501.49	38796.72
501.67	39269.51
501.84	39419.30
502.02	39236.74
502.20	39290.57
502.37	39690.80
502.55	39178.23
502.72	39604.20
502.90	39903.79
503.07	39744.64
503.25	40535.74
503.43	40231.47
503.60	40371.90
503.78	40224.45
503.95	40542.76
504.13	41027.25
504.30	40893.84
504.48	41036.61
504.65	41212.15
504.83	41333.86
505.01	41771.54
505.18	41338.54
505.36	41514.08
505.53	41542.17
505.71	42181.13
505.88	42300.50
506.06	41745.80
506.23	42808.40
506.41	42256.03
506.58	42487.74
506.76	42380.08
506.93	42782.65
507.11	42944.15
507.28	42581.37
507.46	42850.53
507.63	43494.18
507.81	43269.48
507.98	43264.80
508.16	43302.25
508.33	43700.14
508.50	44074.63
508.68	43880.36
508.85	44215.06
509.03	44245.49
509.20	44088.67
509.38	44444.43
509.55	44556.78
509.73	44769.77
509.90	45347.88
510.08	44980.42
510.25	44795.51
510.42	44884.45
510.60	45137.23
510.77	45694.28
510.95	45860.46
511.12	45382.99
511.30	45287.03
511.47	46178.77
511.64	45813.65
511.82	46007.91
511.99	46003.23
512.17	46300.48
512.34	46050.04
512.51	46553.26
512.69	46569.64
512.86	46728.80
513.04	46892.63
513.21	47189.88
513.38	47070.51
513.56	47784.38
513.73	47136.05
513.90	47318.61
514.08	47339.68
514.25	47618.20
514.43	47564.37
514.60	47889.70
514.77	47929.49
514.95	48163.54
515.12	47449.68
515.29	47870.98
515.47	48137.80
515.64	48315.68
515.81	48296.95
515.99	48313.34
516.16	48664.42
516.33	48638.67
516.51	48774.42
516.68	48818.89
516.85	48849.32
517.03	48921.88
517.20	49181.68
517.37	49193.38
517.54	49031.88
517.72	48978.05
517.89	49322.11
518.06	49427.43
518.24	49764.47
518.41	49329.13
518.58	49284.66
518.75	49624.04
518.93	50124.91
519.10	49614.68
519.27	50412.80
519.45	49794.90
519.62	50192.79
519.79	50141.30
519.96	50199.81
520.14	50225.56
520.31	50255.98
520.48	50759.20
520.65	50726.43
520.83	50934.74
521.00	50976.87
521.17	51150.07
521.34	50871.54
521.52	50901.97
521.69	51112.62
521.86	51185.18
522.03	51044.74
522.20	51587.75
522.38	51863.93
522.55	51374.76
522.72	51578.39
522.89	51648.60
523.07	51903.72
523.24	51810.10
523.41	51901.38
523.58	51709.46
523.75	52203.31
523.92	52039.47
524.10	52542.69
524.27	52151.82
524.44	52154.16
524.61	52655.03
524.78	52198.63
524.96	52156.50
525.13	52743.97
525.30	52825.89
525.47	52678.44
525.64	52598.86
525.81	52802.49
525.98	53052.92
526.16	52884.40
526.33	53013.13
526.50	53312.72
526.67	52851.64
526.84	53254.21
527.01	52905.47
527.18	53013.13
527.36	53315.06
527.53	53289.32
527.70	53474.22
527.87	53511.67
528.04	53207.40
528.21	53462.52
528.38	53647.42
528.55	53874.45
528.72	53521.03
528.89	53631.04
529.07	54017.22
529.24	53860.41
529.41	53792.53
529.58	54028.93
529.75	53900.20
529.92	54033.61
530.09	54103.82
530.26	54174.04
530.43	54291.07
530.60	54038.29
530.77	53930.62
530.94	54260.64
531.11	54272.34
531.28	54492.35
531.46	54223.19
531.63	54618.74
531.80	54604.70
531.97	54747.47
532.14	54571.93
532.31	54522.78
532.48	54684.28
532.65	54904.29
532.82	54562.57
532.99	54920.67
533.16	54731.09
533.33	55049.40
533.50	55140.68
533.67	55203.88
533.84	54887.90
534.01	55332.60
534.18	55091.53
534.35	55566.66
534.52	55283.45
534.69	55538.57
534.86	55449.63
535.03	55215.58
535.20	55508.14
535.37	55435.59
535.54	55550.27
535.71	55533.89
535.88	55559.64
536.05	55573.68
536.22	55969.23
536.38	55997.32
536.55	55760.92
536.72	55969.23
536.89	55547.93
537.06	55608.79
537.23	56154.13
537.40	55718.79
537.57	55859.23
537.74	56207.97
537.91	56254.78
538.08	55845.18
538.25	55882.63
538.42	56207.97
538.59	56301.59
538.75	56079.24
538.92	56058.17
539.09	56353.08
539.26	56456.06
539.43	56339.04
539.60	56435.00
539.77	56418.61
539.94	56521.60
540.11	56456.06
540.28	56685.43
540.44	56460.74
540.61	56619.90
540.78	56690.12
540.95	56491.17
541.12	56601.18
541.29	56577.77
541.46	56746.29
541.62	57022.47
541.79	56769.69
541.96	56610.54
542.13	56935.87
542.30	56921.83
542.47	57080.98
542.63	57167.58
542.80	57008.43
542.97	57127.80
543.14	57387.60
543.31	57338.44
543.48	57595.90
543.64	57743.36
543.81	57399.30
543.98	57572.50
544.15	57628.67
544.32	57745.70
544.48	57855.70
544.65	57654.42
544.82	57368.87
544.99	57525.69
545.16	57588.88
545.32	57741.02
545.49	57867.40
545.66	57799.53
545.83	57895.49
546.00	57862.72
546.16	57879.11
546.33	57745.70
546.50	57640.37
546.67	57886.13
546.83	57790.17
547.00	57780.81
547.17	57832.30
547.34	57862.72
547.50	58333.17
547.67	58054.65
547.84	58159.97
548.00	58450.20
548.17	58546.16
548.34	58351.90
548.51	58424.45
548.67	58443.18
548.84	58468.92
549.01	58295.72
549.18	58302.74
549.34	58370.62
549.51	58424.45
549.68	58817.66
549.84	58571.91
550.01	58560.20
550.18	58272.32
550.34	58698.30
550.51	58801.28
550.68	58660.85
550.84	58433.81
551.01	58766.17
551.18	58717.02
551.34	58773.19
551.51	58876.18
551.68	58822.34
551.84	58930.01
552.01	58808.30
552.18	58897.24
552.34	58805.96
552.51	58798.94
552.68	58941.71
552.84	59044.69
553.01	59082.14
553.18	59215.55
553.34	59075.12
553.51	59018.95
553.67	59091.51
553.84	59199.17
554.01	59032.99
554.17	59061.08
554.34	59037.67
554.51	59199.17
554.67	59337.26
554.84	59098.53
555.00	59093.85
555.17	59180.45
555.33	59150.02
555.50	59021.29
555.67	59049.38
555.83	59391.09
556.00	59227.26
556.16	59571.32
556.33	59484.72
556.50	59393.43
556.66	59749.20
556.83	59267.05
556.99	59550.25
557.16	59601.74
557.32	59618.13
557.49	59737.49
557.65	59463.65
557.82	59686.00
557.98	59641.53
558.15	59690.68
558.32	59608.76
558.48	59517.48
558.65	59594.72
558.81	59604.08
558.98	59732.81
559.14	59725.79
559.31	59791.33
559.47	59936.44
559.64	59929.42
559.80	59866.22
559.97	60095.60
560.13	59845.16
560.30	59964.52
560.46	59913.03
560.63	60069.85
560.79	59966.87
560.96	60135.38
561.12	60020.70
561.29	60025.38
561.45	59983.25
561.61	60182.19
561.78	60086.23
561.94	59803.03
562.11	60207.94
562.27	60093.25
562.44	60039.42
562.60	60275.82
562.77	60226.66
562.93	59840.48
563.10	60114.32
563.26	60051.12
563.42	60364.76
563.59	60179.85
563.75	60149.43
563.92	60214.96
564.08	60165.81
564.24	60430.29
564.41	60395.18
564.57	60416.25
564.74	60346.03
564.90	60221.98
565.07	60196.24
565.23	60170.49
565.39	60285.18
565.56	60439.65
565.72	60334.33
565.88	60383.48
566.05	60369.44
566.21	60355.39
566.38	60474.76
566.54	60460.72
566.70	60526.25
566.87	60580.09
567.03	60287.52
567.19	60643.28
567.36	60418.59
567.52	60205.60
567.68	60757.97
567.85	60664.35
568.01	60720.52
568.17	60453.70
568.34	60720.52
568.50	60470.08
568.66	60631.58
568.83	60523.91
568.99	60631.58
569.15	60795.42
569.32	60505.19
569.48	60444.33
569.64	60924.14
569.81	60673.71
569.97	60544.98
570.13	60589.45
570.30	60526.25
570.46	60821.16
570.62	60694.77
570.78	60666.69
570.95	60830.52
571.11	60910.10
571.27	60835.20
571.43	60762.65
571.60	60977.98
571.76	60732.22
571.92	60762.65
572.09	60739.24
572.25	60884.36
572.41	60949.89
572.57	60800.10
572.74	61095.00
572.90	60818.82
573.06	60790.73
573.22	60711.16
573.38	61001.38
573.55	60704.13
573.71	60940.53
573.87	60720.52
574.03	60718.18
574.20	60671.37
574.36	60720.52
574.52	60952.23
574.68	60959.25
574.84	60865.63
575.01	61176.92
575.17	60877.33
575.33	60863.29
575.49	60910.10
575.65	60872.65
575.82	61034.15
575.98	61125.43
576.14	61289.27
576.30	61031.81
576.46	60706.47
576.62	60823.50
576.79	60807.12
576.95	60832.86
577.11	61048.19
577.27	61076.28
577.43	61017.77
577.59	60832.86
577.75	60844.57
577.92	60839.89
578.08	61008.40
578.24	60882.02
578.40	61286.93
578.56	61155.86
578.72	60996.70
578.88	61200.33
579.04	61251.82
579.21	61139.47
579.37	61298.63
579.53	61106.71
579.69	61116.07
579.85	60996.70
580.01	61083.30
580.17	60940.53
580.33	60999.04
580.49	60877.33
580.65	61153.52
580.82	60961.59
580.98	61008.40
581.14	60874.99
581.30	61284.59
581.46	60919.46
581.62	60966.27
581.78	61137.13
581.94	61125.43
582.10	61029.47
582.26	61209.69
582.42	61162.88
582.58	61043.51
582.74	61071.60
582.90	61113.73
583.06	60952.23
583.22	61144.16
583.38	61048.19
583.54	61013.08
583.70	60994.36
583.86	61307.99
584.02	61172.24
584.18	61240.12
584.34	61186.28
584.50	61034.15
584.66	61027.13
584.82	60736.90
584.98	61343.10
585.14	61371.19
585.30	61139.47
585.46	61139.47
585.62	61024.79
585.78	61181.60
585.94	61001.38
586.10	61160.54
586.26	61359.48
586.42	61474.17
586.58	61326.72
586.74	61258.84
586.90	61080.96
587.06	61258.84
587.22	61181.60
587.38	61158.20
587.54	61371.19
587.70	61432.04
587.86	61539.71
588.02	61307.99
588.18	61333.74
588.34	61151.18
588.49	61298.63
