SpectraSuite Data File
++++++++++++++++++++++++++++++++++++
Date: Fri Oct 25 11:23:47 EDT 2013
User: price-jones
Dark Spectrum Present: No
Reference Spectrum Present: No
Number of Sampled Component Spectra: 1
Spectrometers: USB2+H05261
Integration Time (usec): 100000 (USB2+H05261)
Spectra Averaged: 1 (USB2+H05261)
Boxcar Smoothing: 0 (USB2+H05261)
Correct for Electrical Dark: No (USB2+H05261)
Strobe/Lamp Enabled: No (USB2+H05261)
Correct for Detector Non-linearity: No (USB2+H05261)
Correct for Stray Light: No (USB2+H05261)
Number of Pixels in Processed Spectrum: 2048
>>>>>Begin Processed Spectral Data<<<<<
365.73	231.71
365.92	231.71
366.12	231.71
366.32	168.52
366.52	145.11
366.72	173.20
366.91	91.28
367.11	147.45
367.31	140.43
367.51	117.03
367.70	156.82
367.90	159.16
368.10	201.29
368.30	119.37
368.49	70.22
368.69	201.29
368.89	131.07
369.09	149.79
369.28	187.24
369.48	98.30
369.68	149.79
369.87	149.79
370.07	182.56
370.27	224.69
370.47	301.93
370.66	571.09
370.86	636.63
371.06	683.44
371.25	664.71
371.45	678.76
371.65	669.39
371.84	660.03
372.04	688.12
372.24	692.80
372.44	737.27
372.63	786.42
372.83	767.70
373.03	784.08
373.22	725.57
373.42	748.97
373.62	809.83
373.81	861.32
374.01	807.48
374.21	786.42
374.40	791.10
374.60	851.96
374.79	758.33
374.99	791.10
375.19	765.36
375.38	870.68
375.58	779.40
375.78	868.34
375.97	854.30
376.17	875.36
376.37	851.96
376.56	884.72
376.76	851.96
376.95	915.15
377.15	880.04
377.35	849.61
377.54	844.93
377.74	908.13
377.93	912.81
378.13	973.66
378.33	976.00
378.52	856.64
378.72	985.37
378.91	961.96
379.11	922.17
379.31	870.68
379.50	957.28
379.70	1032.18
379.89	990.05
380.09	990.05
380.28	919.83
380.48	999.41
380.68	1048.56
380.87	976.00
381.07	994.73
381.26	1114.10
381.46	999.41
381.65	1062.60
381.85	1006.43
382.04	1015.79
382.24	1013.45
382.43	1076.65
382.63	1069.62
382.83	1062.60
383.02	1055.58
383.22	1107.07
383.41	1055.58
383.61	1060.26
383.80	1158.57
384.00	1107.07
384.19	1207.72
384.39	1170.27
384.58	1170.27
384.78	1207.72
384.97	1165.59
385.17	1020.47
385.36	1158.57
385.56	1135.16
385.75	1123.46
385.95	1188.99
386.14	1214.74
386.34	1252.19
386.53	1273.25
386.72	1224.10
386.92	1172.61
387.11	1191.33
387.31	1296.66
387.50	1287.29
387.70	1301.34
387.89	1261.55
388.09	1144.52
388.28	1212.40
388.48	1373.89
388.67	1289.64
388.86	1364.53
389.06	1306.02
389.25	1453.47
389.45	1350.49
389.64	1306.02
389.84	1455.81
390.03	1378.58
390.22	1472.20
390.42	1397.30
390.61	1469.86
390.81	1324.74
391.00	1497.94
391.19	1404.32
391.39	1497.94
391.58	1474.54
391.78	1448.79
391.97	1467.52
392.16	1444.11
392.36	1497.94
392.55	1521.35
392.75	1530.71
392.94	1603.27
393.13	1629.01
393.33	1511.99
393.52	1666.46
393.71	1605.61
393.91	1607.95
394.10	1614.97
394.29	1582.20
394.49	1577.52
394.68	1647.74
394.88	1586.88
395.07	1666.46
395.26	1710.93
395.46	1671.14
395.65	1638.38
395.84	1732.00
396.04	1722.63
396.23	1713.27
396.42	1844.34
396.62	1837.32
396.81	1881.79
397.00	1741.36
397.19	1846.68
397.39	1820.94
397.58	1813.92
397.77	1856.04
397.97	1832.64
398.16	1849.02
398.35	1963.71
398.55	1802.21
398.74	1884.13
398.93	1921.58
399.12	1937.96
399.32	1827.96
399.51	1907.54
399.70	2005.84
399.90	1923.92
400.09	1987.11
400.28	2036.27
400.47	2022.22
400.67	2043.29
400.86	2080.74
401.05	2141.59
401.24	2078.40
401.44	2242.23
401.63	2207.13
401.82	2256.28
402.01	2134.57
402.21	2122.87
402.40	2267.98
402.59	2267.98
402.78	2160.31
402.97	2272.66
403.17	2284.36
403.36	2253.94
403.55	2361.60
403.74	2354.58
403.93	2380.32
404.13	2401.39
404.32	2382.67
404.51	2342.88
404.70	2429.48
404.89	2532.46
405.09	2466.92
405.28	2457.56
405.47	2417.77
405.66	2422.45
405.85	2590.97
406.05	2628.42
406.24	2654.17
406.43	2616.72
406.62	2696.30
406.81	2672.89
407.00	2703.32
407.20	2595.65
407.39	2619.06
407.58	2839.07
407.77	2792.26
407.96	2843.75
408.15	2813.32
408.34	2654.17
408.54	2834.39
408.73	2860.13
408.92	2759.49
409.11	2822.69
409.30	2930.35
409.49	2885.88
409.68	2935.03
409.87	2834.39
410.07	2977.16
410.26	3016.95
410.45	3042.70
410.64	3005.25
410.83	3124.62
411.02	3094.19
411.21	3215.90
411.40	3138.66
411.59	3253.34
411.78	3211.22
411.98	3279.09
412.17	3208.87
412.36	3309.52
412.55	3274.41
412.74	3433.57
412.93	3361.01
413.12	3454.63
413.31	3669.96
413.50	3545.91
413.69	3438.25
413.88	3604.42
414.07	3513.14
414.26	3749.54
414.45	3658.26
414.64	3716.77
414.83	3709.75
415.02	3817.41
415.22	3871.25
415.41	3969.55
415.60	3920.40
415.79	3950.82
415.98	3953.16
416.17	4138.07
416.36	4065.51
416.55	4131.05
416.74	4100.62
416.93	4114.66
417.12	4156.79
417.31	4194.24
417.50	4238.71
417.69	4112.32
417.88	4304.25
418.07	4259.78
418.26	4322.97
418.45	4376.80
418.64	4500.85
418.83	4414.25
419.02	4521.92
419.21	4486.81
419.39	4603.83
419.58	4500.85
419.77	4486.81
419.96	4603.83
420.15	4655.33
420.34	4716.18
420.53	4571.07
420.72	4748.95
420.91	4821.50
421.10	4720.86
421.29	4702.14
421.48	4629.58
421.67	4662.35
421.86	4889.38
422.05	4877.68
422.24	4812.14
422.43	4865.97
422.61	4917.47
422.80	4961.94
422.99	5018.11
423.18	5057.90
423.37	5153.86
423.56	4905.76
423.75	5027.47
423.94	4868.31
424.13	4704.48
424.32	4772.35
424.50	5085.98
424.69	4978.32
424.88	5085.98
425.07	5015.77
425.26	4891.72
425.45	4770.01
425.64	5132.79
425.83	5006.41
426.01	5004.07
426.20	5107.05
426.39	5139.82
426.58	5015.77
426.77	5104.71
426.96	5107.05
427.15	5116.41
427.33	5205.35
427.52	5226.42
427.71	5427.70
427.90	5327.06
428.09	5348.12
428.28	5390.25
428.46	5518.98
428.65	5238.12
428.84	5514.30
429.03	5558.77
429.22	5465.15
429.40	5359.83
429.59	5483.88
429.78	5378.55
429.97	5366.85
430.16	5483.88
430.34	5781.12
430.53	5774.10
430.72	5781.12
430.91	5598.56
431.10	5643.03
431.28	5858.36
431.47	5788.14
431.66	5954.32
431.85	5797.51
432.03	6029.22
432.22	5949.64
432.41	5970.71
432.60	5966.03
432.79	6090.07
432.97	6085.39
433.16	6026.88
433.35	5933.26
433.54	6094.76
433.72	6221.14
433.91	6223.48
434.10	6401.37
434.28	6132.20
434.47	6038.58
434.66	6408.39
434.85	6289.02
435.03	6270.30
435.22	6279.66
435.41	6499.67
435.59	6572.22
435.78	6518.39
435.97	6560.52
436.16	6499.67
436.34	6403.71
436.53	6373.28
436.72	6604.99
436.90	6516.05
437.09	6675.21
437.28	6553.50
437.46	6658.82
437.65	6768.83
437.84	6841.39
438.02	6740.74
438.21	6857.77
438.40	6757.13
438.58	7002.88
438.77	7145.66
438.96	6991.18
439.14	7075.44
439.33	7253.32
439.52	7260.34
439.70	7190.13
439.89	7372.69
440.08	7307.15
440.26	7353.96
440.45	7379.71
440.63	7499.08
440.82	7515.46
441.01	7578.65
441.19	7646.53
441.38	7798.66
441.57	7833.77
441.75	7665.25
441.94	8011.65
442.12	8013.99
442.31	8046.76
442.50	7852.50
442.68	7878.24
442.87	8114.64
443.05	8028.04
443.24	8210.60
443.43	8205.92
443.61	8315.92
443.80	8486.78
443.98	8140.38
444.17	8035.06
444.35	8271.45
444.54	8439.97
444.73	8266.77
444.91	8276.13
445.10	8493.80
445.28	8435.29
445.47	8386.14
445.65	8416.57
445.84	8432.95
446.02	8491.46
446.21	8564.02
446.39	8435.29
446.58	8592.11
446.77	8697.43
446.95	8311.24
447.14	8521.89
447.32	8603.81
447.51	8716.16
447.69	8517.21
447.88	8606.15
448.06	8414.23
448.25	8461.04
448.43	8557.00
448.62	8671.68
448.80	8676.37
448.99	8720.84
449.17	8872.97
449.36	8737.22
449.54	8933.82
449.73	9074.26
449.91	9071.92
450.10	8772.33
450.28	9090.64
450.46	9069.58
450.65	9193.62
450.83	9118.73
451.02	9004.04
451.20	9338.74
451.39	9303.63
451.57	9341.08
451.76	9029.79
451.94	9242.78
452.13	9341.08
452.31	9465.13
452.49	9357.46
452.68	9404.27
452.86	9462.79
453.05	9547.05
453.23	9481.51
453.42	9378.53
453.60	9327.03
453.78	9586.83
453.97	9514.28
454.15	9834.93
454.34	9518.96
454.52	9804.50
454.70	9511.94
454.89	9631.30
455.07	9757.69
455.26	9715.56
455.44	9914.51
455.62	10235.16
455.81	9914.51
455.99	10207.08
456.17	10293.68
456.36	10200.05
456.54	10401.34
456.73	10150.90
456.91	10401.34
457.09	10415.38
457.28	10569.86
457.46	10359.21
457.64	10700.93
457.83	10637.73
458.01	10654.12
458.19	10771.15
458.38	10490.28
458.56	10813.28
458.74	10731.36
458.93	10576.88
459.11	10729.02
459.29	10733.70
459.48	10906.90
459.66	10806.25
459.84	11096.48
460.03	11234.57
460.21	11180.74
460.39	11124.57
460.57	11075.42
460.76	11178.40
460.94	11309.47
461.12	11384.37
461.31	11370.32
461.49	11300.11
461.67	11346.92
461.85	11360.96
462.04	11384.37
462.22	11756.51
462.40	11700.34
462.59	11805.66
462.77	11545.86
462.95	11658.21
463.13	11695.66
463.32	11981.20
463.50	11772.89
463.68	11655.87
463.86	12100.57
464.05	11800.98
464.23	11733.11
464.41	12084.19
464.59	11786.94
464.78	12114.61
464.96	12262.07
465.14	12013.97
465.32	12100.57
465.50	12166.10
465.69	12493.78
465.87	12168.45
466.05	12161.42
466.23	12262.07
466.41	12058.44
466.60	12685.70
466.78	12498.46
466.96	12320.58
467.14	12222.28
467.32	12533.57
467.51	12559.31
467.69	12259.73
467.87	12636.55
468.05	12849.54
468.23	12638.89
468.41	12568.68
468.60	12781.67
468.78	13123.38
468.96	12615.49
469.14	12950.18
469.32	12971.25
469.50	12718.47
469.69	13303.60
469.87	12999.34
470.05	13034.44
470.23	13277.86
470.41	13151.47
470.59	13242.75
470.77	13673.41
470.95	13296.58
471.14	13614.90
471.32	13263.82
471.50	13748.31
471.68	13556.38
471.86	13635.96
472.04	13968.32
472.22	13965.98
472.40	13752.99
472.58	14193.01
472.77	14274.93
472.95	14015.13
473.13	14375.57
473.31	14136.84
473.49	14164.92
473.67	14052.58
473.85	14448.13
474.03	14668.14
474.21	14705.59
474.39	14771.12
474.57	14782.82
474.75	15094.11
474.93	15138.58
475.12	15091.77
475.30	15049.64
475.48	15379.66
475.66	15309.44
475.84	15297.74
476.02	15463.92
476.20	15405.41
476.38	15562.22
476.56	15922.66
476.74	16086.50
476.92	15843.09
477.10	16063.10
477.28	16418.86
477.46	16372.05
477.64	16421.20
477.82	16702.06
478.00	16959.52
478.18	17050.80
478.36	17179.53
478.54	17128.04
478.72	17254.43
478.90	17408.90
479.08	17696.79
479.26	17621.89
479.44	18090.00
479.62	18036.17
479.80	18361.50
479.98	18459.81
480.16	18504.28
480.34	18038.51
480.52	18602.58
480.70	18815.57
480.88	18637.69
481.06	18661.09
481.24	19061.32
481.41	19325.80
481.59	19208.78
481.77	19688.59
481.95	19719.01
482.13	20116.90
482.31	19917.96
482.49	20505.43
482.67	20500.75
482.85	20669.27
483.03	20889.28
483.21	20692.68
483.39	21076.52
483.57	21055.46
483.74	21362.07
483.92	21699.11
484.10	21266.11
484.28	21802.09
484.46	21935.50
484.64	22314.67
484.82	22150.83
485.00	22347.44
485.18	22850.65
485.35	23227.48
485.53	23108.11
485.71	23129.17
485.89	23721.33
486.07	23094.07
486.25	23433.44
486.43	23875.80
486.61	23960.06
486.78	24566.26
486.96	24404.77
487.14	24912.66
487.32	24582.65
487.50	25015.65
487.68	25294.17
487.85	25656.95
488.03	25656.95
488.21	26047.82
488.39	26141.44
488.57	25989.31
488.75	26469.12
488.92	26661.04
489.10	26623.59
489.28	26848.29
489.46	27014.46
489.64	27072.98
489.81	27564.49
489.99	27714.28
490.17	27852.38
490.35	28219.84
490.53	28435.17
490.70	28505.38
490.88	28416.44
491.06	28971.15
491.24	29347.98
491.41	29071.79
491.59	29284.78
491.77	29413.51
491.95	30469.09
492.13	29750.55
492.30	30501.86
492.48	29958.86
492.66	30930.18
492.84	30352.07
493.01	30888.05
493.19	30981.67
493.37	30923.16
493.54	31421.69
493.72	31512.97
493.90	31866.39
494.08	31941.29
494.25	31758.73
494.43	31889.80
494.61	32341.52
494.79	32470.25
494.96	32863.46
495.14	33242.63
495.32	33160.71
495.49	33284.76
495.67	33673.29
495.85	33986.92
496.02	33820.74
496.20	33909.68
496.38	34665.67
496.55	34167.14
496.73	35180.59
496.91	34532.26
497.09	34801.43
497.26	34967.60
497.44	35409.96
497.62	35571.46
497.79	36334.48
497.97	35571.46
498.14	36144.89
498.32	36371.92
498.50	36451.50
498.67	37148.98
498.85	36669.17
499.03	37008.55
499.20	36814.29
499.38	37319.84
499.56	37322.18
499.73	37628.79
499.91	37591.34
500.08	38206.90
500.26	37731.78
500.44	37930.72
500.61	37858.17
500.79	38321.59
500.97	38443.30
501.14	38611.82
501.32	38698.42
501.49	38944.17
501.67	39332.70
501.84	39082.27
502.02	38822.47
502.20	39711.87
502.37	39260.15
502.55	39711.87
502.72	39533.99
502.90	40076.99
503.07	39742.30
503.25	40032.52
503.43	40657.45
503.60	40540.42
503.78	40624.68
503.95	40158.91
504.13	40727.66
504.30	40694.89
504.48	40685.53
504.65	40942.99
504.83	41563.23
505.01	41427.48
505.18	41088.10
505.36	42286.46
505.53	41380.67
505.71	41897.93
505.88	41888.57
506.06	41991.55
506.23	42017.30
506.41	41900.27
506.58	42391.78
506.76	42206.88
506.93	42997.98
507.11	42803.72
507.28	43185.22
507.46	42794.36
507.63	42784.99
507.81	43430.98
507.98	43260.12
508.16	43445.02
508.33	43332.68
508.50	43810.15
508.68	43959.94
508.85	44062.93
509.03	44130.80
509.20	44306.34
509.38	44446.77
509.55	44603.59
509.73	44762.75
509.90	44964.03
510.08	44931.26
510.25	44987.44
510.42	45134.89
510.60	45020.20
510.77	45530.44
510.95	45787.90
511.12	45429.80
511.30	45682.58
511.47	45771.52
511.64	45579.59
511.82	45998.55
511.99	46061.74
512.17	46536.87
512.34	46096.85
512.51	46337.93
512.69	46492.40
512.86	46454.95
513.04	46930.08
513.21	46951.15
513.38	47051.79
513.56	47297.55
513.73	47210.95
513.90	47189.88
514.08	47290.52
514.25	47880.34
514.43	47885.02
514.60	47875.66
514.77	48128.44
514.95	47969.28
515.12	47767.99
515.29	47955.24
515.47	48325.04
515.64	48278.23
515.81	47959.92
515.99	48238.44
516.16	48694.85
516.33	48219.72
516.51	48924.22
516.68	48832.94
516.85	49287.00
517.03	49162.95
517.20	49230.83
517.37	49092.74
517.54	49095.08
517.72	49195.72
517.89	49282.32
518.06	49436.80
518.24	49364.24
518.41	49565.52
518.58	49602.97
518.75	49638.08
518.93	49734.04
519.10	50167.04
519.27	49785.54
519.45	50075.76
519.62	50206.83
519.79	50190.45
519.96	50274.71
520.14	50752.18
520.31	50281.73
520.48	50646.85
520.65	50401.10
520.83	50586.00
521.00	51091.55
521.17	50988.57
521.34	51011.98
521.52	51231.99
521.69	51110.28
521.86	51236.67
522.03	51498.81
522.20	51838.18
522.38	51477.74
522.55	51760.95
522.72	51398.16
522.89	51463.70
523.07	51786.69
523.24	51627.54
523.41	52044.15
523.58	51697.75
523.75	52406.94
523.92	52116.71
524.10	52149.48
524.27	52463.11
524.44	52144.80
524.61	52107.35
524.78	52545.03
524.96	52498.22
525.13	52659.71
525.30	52671.42
525.47	52739.29
525.64	52549.71
525.81	52870.36
525.98	53029.52
526.16	52924.19
526.33	52769.72
526.50	53167.61
526.67	52877.38
526.84	53132.50
527.01	53141.86
527.18	53312.72
527.36	52985.05
527.53	53188.67
527.70	53474.22
527.87	53687.21
528.04	53326.77
528.21	53593.59
528.38	53577.20
528.55	53734.02
528.72	53361.87
528.89	53490.60
529.07	53773.81
529.24	53684.87
529.41	53825.30
529.58	53808.92
529.75	53794.87
529.92	53727.00
530.09	54218.51
530.26	53839.34
530.43	54293.41
530.60	54141.27
530.77	53935.30
530.94	54122.55
531.11	54272.34
531.28	54274.68
531.46	54504.06
531.63	54595.34
531.80	54593.00
531.97	54501.71
532.14	54548.53
532.31	54628.10
532.48	54700.66
532.65	54878.54
532.82	54794.28
532.99	54997.91
533.16	54770.88
533.33	55021.31
533.50	55056.42
533.67	55187.49
533.84	55173.45
534.01	55147.70
534.18	55002.59
534.35	55405.16
534.52	55206.22
534.69	55377.08
534.86	55405.16
535.03	55400.48
535.20	55487.08
535.37	55547.93
535.54	55786.67
535.71	55281.11
535.88	55683.69
536.05	55632.19
536.22	55962.21
536.38	55817.10
536.55	55959.87
536.72	55952.85
536.89	55585.38
537.06	56048.81
537.23	55786.67
537.40	55737.52
537.57	56016.04
537.74	55655.60
537.91	56193.92
538.08	56114.34
538.25	55969.23
538.42	56205.62
538.59	56245.41
538.75	55950.51
538.92	56390.53
539.09	56502.87
539.26	56259.46
539.43	56168.18
539.60	56502.87
539.77	56519.26
539.94	56727.56
540.11	56563.73
540.28	56699.48
540.44	56509.89
540.61	56526.28
540.78	56554.36
540.95	56360.10
541.12	56596.49
541.29	56554.36
541.46	56521.60
541.62	56547.34
541.79	56963.96
541.96	56395.21
542.13	56779.06
542.30	56783.74
542.47	56942.89
542.63	57013.11
542.80	57050.56
542.97	57308.02
543.14	57378.23
543.31	57317.38
543.48	57450.79
543.64	57490.58
543.81	57645.05
543.98	57485.90
544.15	57528.03
544.32	57710.59
544.48	57806.55
544.65	57523.35
544.82	57780.81
544.99	57640.37
545.16	57677.82
545.32	57563.14
545.49	57855.70
545.66	57993.79
545.83	57588.88
546.00	57757.40
546.16	57956.35
546.33	57790.17
546.50	57677.82
546.67	57726.97
546.83	57504.62
547.00	57879.11
547.17	57846.34
547.34	57836.98
547.50	58209.12
547.67	58101.46
547.84	58244.23
548.00	58213.80
548.17	58499.35
548.34	58286.36
548.51	58415.09
548.67	58192.74
548.84	58272.32
549.01	58344.87
549.18	58277.00
549.34	58489.99
549.51	58436.16
549.68	58719.36
549.84	58497.01
550.01	58614.04
550.18	58387.00
550.34	58576.59
550.51	58557.86
550.68	58684.25
550.84	58408.07
551.01	59007.25
551.18	58539.14
551.34	58489.99
551.51	58726.38
551.68	58789.58
551.84	58871.49
552.01	58611.70
552.18	58773.19
552.34	58731.06
552.51	58827.02
552.68	58763.83
552.84	58850.43
553.01	59224.92
553.18	58958.09
553.34	59332.58
553.51	58780.21
553.67	58993.20
553.84	59065.76
554.01	58941.71
554.17	59224.92
554.34	59391.09
554.51	59276.41
554.67	59416.84
554.84	59126.61
555.00	58995.54
555.17	59086.82
555.33	59377.05
555.50	59220.23
555.67	59143.00
555.83	59201.51
556.00	59470.67
556.16	59777.28
556.33	59550.25
556.50	59299.81
556.66	59611.10
556.83	59220.23
556.99	59498.76
557.16	59671.96
557.32	59587.70
557.49	59639.19
557.65	59636.85
557.82	59508.12
557.98	59423.86
558.15	59583.02
558.32	59763.24
558.48	59540.89
558.65	59662.60
558.81	59847.50
558.98	59676.64
559.14	59891.97
559.31	59966.87
559.47	59793.67
559.64	59927.08
559.80	59943.46
559.97	59819.41
560.13	59568.97
560.30	59856.86
560.46	59903.67
560.63	59903.67
560.79	60037.08
560.96	60009.00
561.12	60037.08
561.29	60172.83
561.45	60074.53
561.61	59868.56
561.78	60081.55
561.94	59812.39
562.11	59681.32
562.27	60126.02
562.44	60161.13
562.60	60292.20
562.77	60133.04
562.93	60037.08
563.10	60196.24
563.26	59824.09
563.42	60219.64
563.59	60250.07
563.75	60292.20
563.92	60177.51
564.08	60210.28
564.24	60343.69
564.41	60315.61
564.57	60444.33
564.74	60254.75
564.90	60458.38
565.07	60320.29
565.23	60119.00
565.39	60186.88
565.56	60341.35
565.72	60329.65
565.88	60463.06
566.05	60198.58
566.21	60470.08
566.38	60484.12
566.54	60374.12
566.70	60638.60
566.87	60626.90
567.03	60170.49
567.19	60521.57
567.36	60549.66
567.52	60535.62
567.68	60514.55
567.85	60463.06
568.01	60526.25
568.17	60404.55
568.34	60584.77
568.50	60465.40
568.66	60495.83
568.83	60479.44
568.99	60561.36
569.15	60566.04
569.32	60739.24
569.48	60554.34
569.64	60669.03
569.81	60413.91
569.97	60533.28
570.13	60725.20
570.30	60643.28
570.46	60547.32
570.62	60671.37
570.78	60739.24
570.95	60591.79
571.11	60619.88
571.27	60654.98
571.43	60762.65
571.60	61052.87
571.76	60748.60
571.92	60807.12
572.09	60835.20
572.25	60654.98
572.41	60664.35
572.57	60755.63
572.74	60886.70
572.90	60750.94
573.06	60781.37
573.22	60898.40
573.38	60928.83
573.55	60886.70
573.71	61024.79
573.87	60898.40
574.03	60809.46
574.20	60891.38
574.36	60720.52
574.52	60874.99
574.68	60842.23
574.84	61038.83
575.01	60949.89
575.17	61003.72
575.33	60797.76
575.49	60900.74
575.65	60940.53
575.82	61020.11
575.98	60968.61
576.14	61212.03
576.30	61024.79
576.46	60786.05
576.62	60849.25
576.79	61059.90
576.95	60896.06
577.11	61071.60
577.27	60980.32
577.43	61041.17
577.59	61062.24
577.75	61003.72
577.92	61041.17
578.08	60884.36
578.24	61134.79
578.40	61139.47
578.56	61071.60
578.72	61141.81
578.88	60935.85
579.04	61127.77
579.21	60963.93
579.37	61052.87
579.53	61249.48
579.69	60940.53
579.85	60966.27
580.01	61001.38
580.17	60999.04
580.33	61104.37
580.49	61027.13
580.65	60870.31
580.82	60853.93
580.98	60907.76
581.14	61020.11
581.30	61052.87
581.46	61027.13
581.62	61235.44
581.78	61120.75
581.94	61127.77
582.10	61013.08
582.26	61073.94
582.42	61261.18
582.58	61085.64
582.74	61017.77
582.90	60963.93
583.06	61221.39
583.22	60680.73
583.38	61123.09
583.54	60933.51
583.70	61174.58
583.86	61066.92
584.02	61050.53
584.18	61389.91
584.34	61221.39
584.50	61249.48
584.66	61029.47
584.82	61078.62
584.98	61188.63
585.14	61242.46
585.30	60940.53
585.46	61106.71
585.62	61179.26
585.78	61329.06
585.94	61092.66
586.10	61080.96
586.26	61003.72
586.42	61357.14
586.58	61277.57
586.74	61254.16
586.90	61144.16
587.06	61146.50
587.22	61329.06
587.38	61235.44
587.54	61249.48
587.70	61347.78
587.86	61209.69
588.02	61268.20
588.18	61387.57
588.34	61176.92
588.49	61095.00
