SpectraSuite Data File
++++++++++++++++++++++++++++++++++++
Date: Fri Oct 25 11:22:40 EDT 2013
User: price-jones
Dark Spectrum Present: No
Reference Spectrum Present: No
Number of Sampled Component Spectra: 1
Spectrometers: USB2+H05261
Integration Time (usec): 100000 (USB2+H05261)
Spectra Averaged: 1 (USB2+H05261)
Boxcar Smoothing: 0 (USB2+H05261)
Correct for Electrical Dark: No (USB2+H05261)
Strobe/Lamp Enabled: No (USB2+H05261)
Correct for Detector Non-linearity: No (USB2+H05261)
Correct for Stray Light: No (USB2+H05261)
Number of Pixels in Processed Spectrum: 2048
>>>>>Begin Processed Spectral Data<<<<<
365.73	203.63
365.92	203.63
366.12	203.63
366.32	156.82
366.52	117.03
366.72	49.15
366.91	156.82
367.11	107.66
367.31	77.24
367.51	93.62
367.70	112.35
367.90	126.39
368.10	159.16
368.30	114.69
368.49	168.52
368.69	201.29
368.89	114.69
369.09	189.58
369.28	175.54
369.48	175.54
369.68	105.32
369.87	180.22
370.07	205.97
370.27	266.82
370.47	362.78
370.66	580.45
370.86	615.56
371.06	711.52
371.25	723.23
371.45	709.18
371.65	655.35
371.84	557.05
372.04	706.84
372.24	627.26
372.44	718.54
372.63	779.40
372.83	727.91
373.03	774.72
373.22	840.25
373.42	795.78
373.62	751.31
373.81	821.53
374.01	770.04
374.21	781.74
374.40	884.72
374.60	774.72
374.79	758.33
374.99	788.76
375.19	833.23
375.38	800.46
375.58	854.30
375.78	819.19
375.97	837.91
376.17	866.00
376.37	866.00
376.56	851.96
376.76	849.61
376.95	903.45
377.15	884.72
377.35	835.57
377.54	868.34
377.74	861.32
377.93	915.15
378.13	924.51
378.33	863.66
378.52	926.85
378.72	950.26
378.91	985.37
379.11	933.87
379.31	863.66
379.50	919.83
379.70	929.19
379.89	933.87
380.09	1004.09
380.28	917.49
380.48	940.90
380.68	992.39
380.87	983.02
381.07	980.68
381.26	1053.24
381.46	1029.84
381.65	983.02
381.85	1006.43
382.04	1025.15
382.24	1071.97
382.43	1050.90
382.63	1034.52
382.83	1088.35
383.02	1118.78
383.22	1088.35
383.41	1071.97
383.61	1048.56
383.80	1200.69
384.00	1146.86
384.19	1116.44
384.39	1121.12
384.58	1210.06
384.78	1149.20
384.97	1020.47
385.17	1104.73
385.36	1144.52
385.56	1188.99
385.75	1123.46
385.95	1184.31
386.14	1196.01
386.34	1193.67
386.53	1207.72
386.72	1179.63
386.92	1270.91
387.11	1261.55
387.31	1273.25
387.50	1315.38
387.70	1280.27
387.89	1280.27
388.09	1188.99
388.28	1280.27
388.48	1235.80
388.67	1268.57
388.86	1252.19
389.06	1331.76
389.25	1394.96
389.45	1280.27
389.64	1401.98
389.84	1376.24
390.03	1366.87
390.22	1380.92
390.42	1394.96
390.61	1380.92
390.81	1359.85
391.00	1448.79
391.19	1437.09
391.39	1497.94
391.58	1465.18
391.78	1420.71
391.97	1392.62
392.16	1465.18
392.36	1647.74
392.55	1453.47
392.75	1591.56
392.94	1526.03
393.13	1540.07
393.33	1500.28
393.52	1586.88
393.71	1703.91
393.91	1519.01
394.10	1554.12
394.29	1631.35
394.49	1703.91
394.68	1661.78
394.88	1710.93
395.07	1589.22
395.26	1612.63
395.46	1661.78
395.65	1678.16
395.84	1607.95
396.04	1804.55
396.23	1802.21
396.42	1680.50
396.62	1788.17
396.81	1760.08
397.00	1806.89
397.19	1844.34
397.39	1842.00
397.58	1827.96
397.77	1923.92
397.97	1818.60
398.16	1802.21
398.35	1830.30
398.55	1942.64
398.74	1891.15
398.93	1954.35
399.12	1968.39
399.32	1846.68
399.51	2031.58
399.70	2085.42
399.90	2010.52
400.09	1977.75
400.28	2092.44
400.47	2097.12
400.67	2106.48
400.86	2057.33
401.05	2076.06
401.24	2129.89
401.44	2153.29
401.63	2195.42
401.82	2183.72
402.01	2216.49
402.21	2237.55
402.40	2153.29
402.59	2225.85
402.78	2230.53
402.97	2195.42
403.17	2202.44
403.36	2181.38
403.55	2321.81
403.74	2366.28
403.93	2338.20
404.13	2413.09
404.32	2300.75
404.51	2338.20
404.70	2490.33
404.89	2317.13
405.09	2452.88
405.28	2473.95
405.47	2532.46
405.66	2569.91
405.85	2576.93
406.05	2628.42
406.24	2551.18
406.43	2502.03
406.62	2637.78
406.81	2668.21
407.00	2609.70
407.20	2609.70
407.39	2630.76
407.58	2722.04
407.77	2761.83
407.96	2780.56
408.15	2773.53
408.34	2860.13
408.54	2827.37
408.73	2717.36
408.92	2853.11
409.11	2977.16
409.30	2972.48
409.49	2890.56
409.68	2979.50
409.87	3005.25
410.07	3056.74
410.26	3021.63
410.45	2974.82
410.64	3117.59
410.83	3094.19
411.02	3084.83
411.21	3159.72
411.40	3251.00
411.59	3173.77
411.78	3220.58
411.98	3239.30
412.17	3318.88
412.36	3346.97
412.55	3370.37
412.74	3426.54
412.93	3431.23
413.12	3332.92
413.31	3625.49
413.50	3478.04
413.69	3508.46
413.88	3658.26
414.07	3599.74
414.26	3665.28
414.45	3627.83
414.64	3705.07
414.83	3824.44
415.02	3925.08
415.22	3857.20
415.41	3899.33
415.60	3887.63
415.79	3943.80
415.98	4152.11
416.17	3978.91
416.36	4098.28
416.55	3990.61
416.74	4065.51
416.93	4060.83
417.12	4056.15
417.31	4070.19
417.50	4205.94
417.69	4486.81
417.88	4318.29
418.07	4243.39
418.26	4245.73
418.45	4449.36
418.64	4519.57
418.83	4451.70
419.02	4400.21
419.21	4594.47
419.39	4533.62
419.58	4423.61
419.77	4423.61
419.96	4568.73
420.15	4643.62
420.34	4641.28
420.53	4568.73
420.72	4933.85
420.91	4816.82
421.10	4753.63
421.29	4898.74
421.48	4744.27
421.67	4753.63
421.86	4751.29
422.05	4891.72
422.24	4720.86
422.43	4978.32
422.61	5048.54
422.80	5104.71
422.99	5034.49
423.18	5008.75
423.37	5095.35
423.56	4919.81
423.75	4943.21
423.94	4947.89
424.13	4660.01
424.32	4753.63
424.50	5025.13
424.69	5027.47
424.88	5097.69
425.07	5123.43
425.26	4917.47
425.45	5011.09
425.64	5078.96
425.83	5015.77
426.01	5107.05
426.20	5104.71
426.39	4978.32
426.58	5057.90
426.77	5097.69
426.96	5085.98
427.15	5226.42
427.33	5240.46
427.52	5057.90
427.71	5310.68
427.90	5203.01
428.09	5313.02
428.28	5355.15
428.46	5390.25
428.65	5231.10
428.84	5497.92
429.03	5486.22
429.22	5369.19
429.40	5610.26
429.59	5645.37
429.78	5437.06
429.97	5303.65
430.16	5628.99
430.34	5738.99
430.53	5624.31
430.72	5729.63
430.91	5671.12
431.10	5612.60
431.28	5795.17
431.47	5914.53
431.66	5916.87
431.85	5687.50
432.03	5949.64
432.22	5846.66
432.41	5963.68
432.60	5947.30
432.79	5961.34
432.97	6132.20
433.16	6026.88
433.35	6033.90
433.54	6197.74
433.72	6167.31
433.91	5980.07
434.10	6249.23
434.28	6104.12
434.47	6239.87
434.66	6197.74
434.85	6403.71
435.03	6471.58
435.22	6282.00
435.41	6604.99
435.59	6581.59
435.78	6581.59
435.97	6382.64
436.16	6410.73
436.34	6593.29
436.53	6502.01
436.72	6740.74
436.90	6520.73
437.09	6705.63
437.28	6546.48
437.46	6675.21
437.65	6619.04
437.84	6822.66
438.02	6764.15
438.21	6827.34
438.40	6719.68
438.58	7045.01
438.77	7009.90
438.96	7103.53
439.14	7250.98
439.33	7187.79
439.52	7229.91
439.70	7368.01
439.89	7330.56
440.08	7431.20
440.26	7363.33
440.45	7377.37
440.63	7548.23
440.82	7592.70
441.01	7489.71
441.19	7641.85
441.38	7719.09
441.57	7590.36
441.75	7838.45
441.94	8184.85
442.12	8002.29
442.31	8198.90
442.50	8044.42
442.68	7974.21
442.87	7981.23
443.05	8212.94
443.24	8397.84
443.43	8112.30
443.61	8271.45
443.80	8629.56
443.98	8035.06
444.17	7894.63
444.35	8238.69
444.54	8442.31
444.73	8344.01
444.91	8365.07
445.10	8257.41
445.28	8348.69
445.47	8327.63
445.65	8374.44
445.84	8477.42
446.02	8671.68
446.21	8468.06
446.39	8561.68
446.58	8379.12
446.77	8393.16
446.95	8306.56
447.14	8493.80
447.32	8603.81
447.51	8367.42
447.69	8510.19
447.88	8603.81
448.06	8596.79
448.25	8634.24
448.43	8615.51
448.62	8648.28
448.80	8664.66
448.99	8624.87
449.17	9092.98
449.36	8917.44
449.54	8795.73
449.73	8919.78
449.91	8966.59
450.10	9137.45
450.28	9210.01
450.46	9114.05
450.65	9132.77
450.83	9195.96
451.02	9186.60
451.20	9399.59
451.39	9100.00
451.57	9156.18
451.76	9181.92
451.94	9233.41
452.13	9460.45
452.31	9280.22
452.49	9462.79
452.68	9397.25
452.86	9441.72
453.05	9631.30
453.23	9596.20
453.42	9507.26
453.60	9432.36
453.78	9675.77
453.97	9614.92
454.15	9596.20
454.34	9774.08
454.52	9736.63
454.70	9757.69
454.89	9736.63
455.07	10129.84
455.26	9916.85
455.44	10036.22
455.62	9977.70
455.81	9966.00
455.99	10239.84
456.17	10193.03
456.36	10097.07
456.54	10167.29
456.73	10246.87
456.91	10581.56
457.09	10740.72
457.28	10813.28
457.46	10415.38
457.64	10684.55
457.83	10614.33
458.01	10452.83
458.19	10494.96
458.38	10614.33
458.56	10733.70
458.74	10988.82
458.93	10654.12
459.11	10920.94
459.29	10867.11
459.48	10616.67
459.66	10693.91
459.84	11023.92
460.03	11265.00
460.21	10965.41
460.39	11075.42
460.57	11152.65
460.76	11042.65
460.94	11185.42
461.12	11309.47
461.31	11173.72
461.49	11274.36
461.67	11272.02
461.85	11562.25
462.04	11169.04
462.22	11707.36
462.40	11749.49
462.59	11452.24
462.77	11712.04
462.95	11798.64
463.13	11580.97
463.32	11925.03
463.50	11878.22
463.68	11864.18
463.86	11967.16
464.05	11733.11
464.23	11793.96
464.41	12105.25
464.59	11824.39
464.78	12257.39
464.96	12119.29
465.14	12135.68
465.32	12138.02
465.50	12196.53
465.69	12276.11
465.87	12301.86
466.05	12311.22
466.23	12229.30
466.41	12238.66
466.60	12606.13
466.78	12348.67
466.96	12355.69
467.14	12503.14
467.32	12512.50
467.51	12575.70
467.69	12409.52
467.87	12545.27
468.05	12725.49
468.23	12503.14
468.41	12489.10
468.60	12655.28
468.78	12954.87
468.96	12758.26
469.14	12800.39
469.32	13163.17
469.50	12688.04
469.69	13123.38
469.87	13418.29
470.05	13181.90
470.23	13142.11
470.41	13224.03
470.59	13378.50
470.77	13406.59
470.95	13532.98
471.14	13467.44
471.32	13069.55
471.50	13654.69
471.68	13823.20
471.86	13799.80
472.04	13823.20
472.22	14118.11
472.40	13841.93
472.58	13837.25
472.77	14050.24
472.95	14230.46
473.13	14820.27
473.31	14097.05
473.49	14115.77
473.67	14258.54
473.85	14368.55
474.03	14939.64
474.21	15037.94
474.39	14930.28
474.57	14728.99
474.75	14841.34
474.93	15201.78
475.12	14911.55
475.30	15360.94
475.48	14906.87
475.66	15276.68
475.84	15407.75
476.02	15590.31
476.20	15590.31
476.38	15850.11
476.56	16149.70
476.74	16198.85
476.92	15793.94
477.10	16020.97
477.28	16367.37
477.46	16137.99
477.64	16486.73
477.82	16718.45
478.00	17104.64
478.18	16954.84
478.36	16772.28
478.54	17104.64
478.72	17315.28
478.90	17570.40
479.08	17638.28
479.26	17977.65
479.44	17591.47
479.62	18097.02
479.80	18228.09
479.98	18300.65
480.16	18455.12
480.34	18420.02
480.52	18757.05
480.70	18864.72
480.88	18618.96
481.06	18902.17
481.24	18881.10
481.41	19194.73
481.59	19590.28
481.77	19660.50
481.95	19630.07
482.13	19871.15
482.31	19679.22
482.49	20365.00
482.67	20334.57
482.85	20561.61
483.03	20526.50
483.21	20938.43
483.39	21132.70
483.57	20929.07
483.74	21350.37
483.92	21591.44
484.10	21575.06
484.28	22094.66
484.46	22111.04
484.64	22525.32
484.82	22211.68
485.00	22450.42
485.18	23236.84
485.35	23243.86
485.53	23021.51
485.71	23763.46
485.89	23896.87
486.07	23740.05
486.25	23810.27
486.43	24128.58
486.61	24013.90
486.78	24343.91
486.96	24271.36
487.14	24917.34
487.32	24840.11
487.50	25317.57
487.68	25188.85
487.85	25717.81
488.03	25617.16
488.21	26321.66
488.39	25893.35
488.57	26146.12
488.75	26799.13
488.92	27047.23
489.10	27168.94
489.28	27115.11
489.46	27440.44
489.64	27417.04
489.81	27960.04
489.99	28011.53
490.17	27618.32
490.35	28395.38
490.53	28196.43
490.70	28364.95
490.88	28620.07
491.06	29064.77
491.24	29137.33
491.41	28989.88
491.59	29582.03
491.77	29462.66
491.95	29961.20
492.13	29792.68
492.30	30213.98
492.48	30773.36
492.66	30323.98
492.84	30717.19
493.01	31194.66
493.19	30859.96
493.37	31267.22
493.54	31115.08
493.72	31683.83
493.90	31456.80
494.08	32109.81
494.25	32173.00
494.43	32030.23
494.61	32261.94
494.79	33134.96
494.96	33237.95
495.14	33057.73
495.32	33233.27
495.49	33617.11
495.67	33596.05
495.85	33411.15
496.02	34068.84
496.20	34583.76
496.38	34478.43
496.55	34682.06
496.73	35374.86
496.91	34897.39
497.09	35292.94
497.26	35152.51
497.44	35222.72
497.62	35274.21
497.79	36037.23
497.97	35826.58
498.14	36325.11
498.32	36437.46
498.50	36491.29
498.67	37240.26
498.85	36657.47
499.03	36634.06
499.20	37343.25
499.38	37539.85
499.56	37406.44
499.73	37537.51
499.91	37699.01
500.08	38017.32
500.26	37654.54
500.44	38120.31
500.61	38705.44
500.79	38309.89
500.97	38721.82
501.14	38597.77
501.32	38632.88
501.49	38880.98
501.67	39112.69
501.84	39164.18
502.02	39274.19
502.20	39590.16
502.37	39566.76
502.55	39604.20
502.72	39779.74
502.90	40168.27
503.07	39971.67
503.25	40493.61
503.43	40079.33
503.60	40561.48
503.78	40959.38
503.95	40879.80
504.13	41287.05
504.30	41106.83
504.48	40884.48
504.65	40886.82
504.83	41972.83
505.01	41926.02
505.18	41588.98
505.36	41567.91
505.53	41780.90
505.71	41968.15
505.88	42239.65
506.06	41722.39
506.23	42146.03
506.41	41886.23
506.58	42557.96
506.76	42515.83
506.93	42944.15
507.11	42457.32
507.28	42609.45
507.46	43019.05
507.63	43475.45
507.81	43583.12
507.98	43131.39
508.16	43725.89
508.33	43555.03
508.50	43985.69
508.68	43948.24
508.85	44030.16
509.03	43924.83
509.20	44488.90
509.38	44708.91
509.55	45188.72
509.73	44968.71
509.90	44985.10
510.08	44603.59
510.25	45104.46
510.42	45291.71
510.60	45186.38
510.77	45392.35
510.95	45694.28
511.12	45516.40
511.30	45464.91
511.47	45951.74
511.64	45738.75
511.82	46506.44
511.99	46082.81
512.17	46330.90
512.34	46021.95
512.51	46686.67
512.69	46745.18
512.86	46569.64
513.04	47391.17
513.21	47421.59
513.38	47241.37
513.56	47320.95
513.73	47229.67
513.90	47562.03
514.08	47515.22
514.25	47557.35
514.43	47143.07
514.60	47962.26
514.77	47494.15
514.95	48315.68
515.12	47793.74
515.29	47997.37
515.47	48126.10
515.64	48360.15
515.81	48102.69
515.99	48619.95
516.16	48891.45
516.33	48821.23
516.51	49010.82
516.68	48589.52
516.85	48619.95
517.03	49258.91
517.20	49734.04
517.37	49287.00
517.54	49029.54
517.72	49219.13
517.89	49244.87
518.06	49759.79
518.24	49462.54
518.41	49890.86
518.58	49818.30
518.75	49680.21
518.93	49778.51
519.10	49542.12
519.27	50035.97
519.45	49900.22
519.62	50312.16
519.79	50181.09
519.96	50047.68
520.14	50363.65
520.31	50520.46
520.48	50607.06
520.65	50717.07
520.83	50916.01
521.00	51140.71
521.17	50932.40
521.34	50951.12
521.52	51026.02
521.69	51042.40
521.86	51278.80
522.03	51407.53
522.20	51695.41
522.38	51615.83
522.55	51866.27
522.72	51690.73
522.89	51877.97
523.07	52051.17
523.24	51875.63
523.41	52069.90
523.58	52044.15
523.75	52135.43
523.92	52051.17
524.10	52011.38
524.27	52521.62
524.44	52491.19
524.61	52697.16
524.78	52287.57
524.96	52769.72
525.13	52807.17
525.30	52931.22
525.47	52872.70
525.64	52947.60
525.81	52956.96
525.98	52786.10
526.16	52910.15
526.33	52814.19
526.50	53120.80
526.67	52877.38
526.84	53251.87
527.01	52842.27
527.18	53244.85
527.36	53413.37
527.53	53212.08
527.70	53797.21
527.87	53560.82
528.04	53506.99
528.21	53301.02
528.38	53553.80
528.55	53928.28
528.72	53656.78
528.89	53668.48
529.07	53607.63
529.24	53748.06
529.41	54225.53
529.58	54045.31
529.75	54169.36
529.92	53743.38
530.09	54073.40
530.26	54270.00
530.43	54305.11
530.60	54042.97
530.77	53958.71
530.94	54330.86
531.11	54305.11
531.28	54316.81
531.46	54401.07
531.63	54424.48
531.80	54770.88
531.97	54855.14
532.14	54817.69
532.31	54714.70
532.48	54775.56
532.65	54918.33
532.82	54679.60
532.99	54834.07
533.16	54775.56
533.33	54967.48
533.50	55084.51
533.67	55016.63
533.84	54752.15
534.01	55161.75
534.18	55316.22
534.35	55536.23
534.52	55360.69
534.69	55236.64
534.86	55538.57
535.03	55276.43
535.20	55458.99
535.37	55592.40
535.54	55693.05
535.71	55597.09
535.88	55707.09
536.05	55779.65
536.22	55784.33
536.38	55835.82
536.55	55739.86
536.72	55917.74
536.89	55552.62
537.06	55894.33
537.23	55945.83
537.40	55952.85
537.57	56179.88
537.74	56112.00
537.91	56278.18
538.08	56212.65
538.25	56002.00
538.42	56165.84
538.59	56285.20
538.75	56301.59
538.92	56020.72
539.09	56442.02
539.26	56315.63
539.43	56191.58
539.60	56451.38
539.77	56390.53
539.94	56753.31
540.11	56601.18
540.28	56727.56
540.44	56559.05
540.61	56587.13
540.78	56669.05
540.95	56760.33
541.12	56835.23
541.29	56589.47
541.46	56877.36
541.62	56889.06
541.79	56879.70
541.96	56488.83
542.13	56776.72
542.30	56877.36
542.47	56966.30
542.63	56870.34
542.80	56872.68
542.97	57272.91
543.14	57441.43
543.31	57361.85
543.48	57436.75
543.64	57776.12
543.81	57457.81
543.98	57261.21
544.15	57595.90
544.32	57743.36
544.48	57794.85
544.65	57591.22
544.82	57654.42
544.99	57394.62
545.16	57893.15
545.32	57450.79
545.49	58085.07
545.66	57904.85
545.83	57963.37
546.00	57977.41
546.16	57984.43
546.33	57958.69
546.50	57682.50
546.67	58028.90
546.83	57623.99
547.00	58171.67
547.17	58033.58
547.34	58124.86
547.50	58115.50
547.67	58223.17
547.84	58234.87
548.00	58267.64
548.17	58326.15
548.34	58473.60
548.51	58527.44
548.67	58410.41
548.84	58550.84
549.01	58244.23
549.18	58499.35
549.34	58340.19
549.51	58422.11
549.68	58382.32
549.84	58599.99
550.01	58721.70
550.18	58426.79
550.34	58791.92
550.51	58525.10
550.68	58618.72
550.84	58529.78
551.01	58684.25
551.18	58777.87
551.34	58850.43
551.51	58789.58
551.68	58885.54
551.84	58777.87
552.01	58651.48
552.18	59061.08
552.34	58674.89
552.51	58993.20
552.68	58876.18
552.84	59030.65
553.01	59309.18
553.18	58955.75
553.34	59236.62
553.51	58843.41
553.67	58944.05
553.84	59274.07
554.01	59271.73
554.17	59154.70
554.34	59072.78
554.51	59030.65
554.67	59290.45
554.84	59367.69
555.00	59325.56
555.17	58944.05
555.33	59145.34
555.50	59100.87
555.67	59365.35
555.83	59318.54
556.00	59430.88
556.16	59697.70
556.33	59531.53
556.50	59353.65
556.66	59693.02
556.83	59414.50
556.99	59756.22
557.16	59826.43
557.32	59718.77
557.49	59870.90
557.65	59557.27
557.82	59597.06
557.98	59655.57
558.15	59746.86
558.32	59622.81
558.48	59587.70
558.65	59856.86
558.81	59554.93
558.98	59854.52
559.14	59994.95
559.31	59847.50
559.47	59826.43
559.64	59849.84
559.80	60060.49
559.97	60116.66
560.13	59728.13
560.30	59856.86
560.46	59924.74
560.63	59973.89
560.79	60198.58
560.96	60243.05
561.12	60243.05
561.29	60165.81
561.45	60067.51
561.61	60018.36
561.78	60130.70
561.94	60001.97
562.11	60048.78
562.27	59990.27
562.44	60413.91
562.60	60339.01
562.77	60212.62
562.93	60023.04
563.10	60200.92
563.26	60116.66
563.42	60388.16
563.59	60149.43
563.75	60147.09
563.92	60266.45
564.08	60388.16
564.24	60554.34
564.41	60360.08
564.57	60198.58
564.74	60217.30
564.90	60563.70
565.07	60200.92
565.23	60175.17
565.39	60336.67
565.56	60544.98
565.72	60294.54
565.88	60411.57
566.05	60402.21
566.21	60467.74
566.38	60355.39
566.54	60528.59
566.70	60570.72
566.87	60559.02
567.03	60299.22
567.19	60622.22
567.36	60446.68
567.52	60584.77
567.68	60711.16
567.85	60566.04
568.01	60683.07
568.17	60556.68
568.34	60713.50
568.50	60533.28
568.66	60500.51
568.83	60547.32
568.99	60523.91
569.15	60701.79
569.32	60554.34
569.48	60718.18
569.64	60807.12
569.81	60650.30
569.97	60425.61
570.13	60566.04
570.30	60645.62
570.46	60788.39
570.62	60753.29
570.78	60743.92
570.95	60605.83
571.11	60872.65
571.27	60722.86
571.43	60874.99
571.60	60905.42
571.76	60748.60
571.92	60725.20
572.09	60867.97
572.25	60858.61
572.41	60818.82
572.57	60914.78
572.74	61038.83
572.90	60879.67
573.06	61069.26
573.22	60662.00
573.38	60905.42
573.55	60800.10
573.71	60987.34
573.87	60708.82
574.03	60814.14
574.20	60694.77
574.36	60945.21
574.52	61111.39
574.68	60884.36
574.84	60992.02
575.01	61076.28
575.17	60977.98
575.33	61022.45
575.49	60832.86
575.65	61073.94
575.82	61092.66
575.98	60959.25
576.14	61169.90
576.30	60912.44
576.46	61059.90
576.62	60853.93
576.79	60928.83
576.95	61010.74
577.11	60977.98
577.27	61130.11
577.43	61200.33
577.59	60907.76
577.75	60860.95
577.92	60647.96
578.08	60956.91
578.24	61048.19
578.40	61270.54
578.56	61092.66
578.72	61008.40
578.88	61226.07
579.04	61172.24
579.21	60856.27
579.37	61127.77
579.53	61291.61
579.69	60882.02
579.85	60992.02
580.01	61148.84
580.17	60804.78
580.33	61165.22
580.49	61200.33
580.65	61155.86
580.82	60999.04
580.98	60879.67
581.14	61003.72
581.30	61183.94
581.46	61043.51
581.62	61116.07
581.78	61197.99
581.94	61111.39
582.10	61183.94
582.26	61155.86
582.42	61123.09
582.58	60835.20
582.74	60849.25
582.90	61160.54
583.06	61272.88
583.22	60963.93
583.38	60994.36
583.54	61207.35
583.70	61200.33
583.86	61270.54
584.02	61001.38
584.18	61092.66
584.34	61265.86
584.50	61197.99
584.66	61223.73
584.82	61041.17
584.98	61195.65
585.14	61315.01
585.30	60985.00
585.46	61212.03
585.62	61300.97
585.78	61359.48
585.94	61092.66
586.10	61310.33
586.26	61137.13
586.42	61193.31
586.58	61240.12
586.74	61146.50
586.90	61235.44
587.06	61265.86
587.22	61516.30
587.38	61439.06
587.54	61378.21
587.70	61352.46
587.86	61312.67
588.02	61235.44
588.18	61457.79
588.34	61132.45
588.49	61357.14
