SpectraSuite Data File
++++++++++++++++++++++++++++++++++++
Date: Fri Oct 25 11:33:35 EDT 2013
User: price-jones
Dark Spectrum Present: No
Reference Spectrum Present: No
Number of Sampled Component Spectra: 1
Spectrometers: USB2+H05261
Integration Time (usec): 100000 (USB2+H05261)
Spectra Averaged: 1 (USB2+H05261)
Boxcar Smoothing: 0 (USB2+H05261)
Correct for Electrical Dark: No (USB2+H05261)
Strobe/Lamp Enabled: No (USB2+H05261)
Correct for Detector Non-linearity: No (USB2+H05261)
Correct for Stray Light: No (USB2+H05261)
Number of Pixels in Processed Spectrum: 2048
>>>>>Begin Processed Spectral Data<<<<<
365.73	308.95
365.92	308.95
366.12	308.95
366.32	203.63
366.52	241.08
366.72	252.78
366.91	191.92
367.11	182.56
367.31	126.39
367.51	173.20
367.70	145.11
367.90	177.88
368.10	138.09
368.30	138.09
368.49	191.92
368.69	177.88
368.89	212.99
369.09	238.73
369.28	184.90
369.48	227.03
369.68	306.61
369.87	208.31
370.07	259.80
370.27	283.20
370.47	311.29
370.66	526.62
370.86	507.90
371.06	498.53
371.25	599.18
371.45	538.32
371.65	554.71
371.84	526.62
372.04	606.20
372.24	596.84
372.44	622.58
372.63	610.88
372.83	645.99
373.03	587.47
373.22	589.82
373.42	545.34
373.62	587.47
373.81	589.82
374.01	585.13
374.21	617.90
374.40	638.97
374.60	732.59
374.79	660.03
374.99	631.94
375.19	653.01
375.38	702.16
375.58	613.22
375.78	685.78
375.97	650.67
376.17	767.70
376.37	697.48
376.56	676.41
376.76	657.69
376.95	671.73
377.15	631.94
377.35	699.82
377.54	690.46
377.74	629.60
377.93	664.71
378.13	681.10
378.33	718.54
378.52	645.99
378.72	739.61
378.91	753.65
379.11	716.20
379.31	732.59
379.50	720.88
379.70	709.18
379.89	765.36
380.09	802.80
380.28	674.07
380.48	716.20
380.68	727.91
380.87	716.20
381.07	791.10
381.26	774.72
381.46	763.01
381.65	732.59
381.85	777.06
382.04	842.59
382.24	779.40
382.43	706.84
382.63	767.70
382.83	828.55
383.02	812.17
383.22	840.25
383.41	755.99
383.61	767.70
383.80	837.91
384.00	894.08
384.19	828.55
384.39	866.00
384.58	835.57
384.78	882.38
384.97	772.38
385.17	739.61
385.36	800.46
385.56	877.70
385.75	786.42
385.95	793.44
386.14	877.70
386.34	905.79
386.53	910.47
386.72	889.40
386.92	903.45
387.11	868.34
387.31	847.27
387.50	828.55
387.70	847.27
387.89	910.47
388.09	849.61
388.28	896.43
388.48	983.02
388.67	961.96
388.86	964.30
389.06	919.83
389.25	950.26
389.45	966.64
389.64	1027.50
389.84	978.34
390.03	957.28
390.22	968.98
390.42	912.81
390.61	976.00
390.81	1039.20
391.00	945.58
391.19	1036.86
391.39	1008.77
391.58	1027.50
391.78	1053.24
391.97	1123.46
392.16	1015.79
392.36	959.62
392.55	1060.26
392.75	983.02
392.94	1060.26
393.13	938.55
393.33	1041.54
393.52	1032.18
393.71	1032.18
393.91	1050.90
394.10	1104.73
394.29	1128.14
394.49	1067.28
394.68	1100.05
394.88	1132.82
395.07	1165.59
395.26	1081.33
395.46	1188.99
395.65	1160.91
395.84	1167.93
396.04	1254.53
396.23	1198.35
396.42	1179.63
396.62	1214.74
396.81	1284.95
397.00	1196.01
397.19	1254.53
397.39	1179.63
397.58	1270.91
397.77	1240.48
397.97	1245.16
398.16	1324.74
398.35	1238.14
398.55	1242.82
398.74	1301.34
398.93	1310.70
399.12	1322.40
399.32	1322.40
399.51	1362.19
399.70	1296.66
399.90	1394.96
400.09	1324.74
400.28	1350.49
400.47	1371.55
400.67	1322.40
400.86	1392.62
401.05	1511.99
401.24	1420.71
401.44	1495.60
401.63	1413.68
401.82	1418.36
402.01	1418.36
402.21	1479.22
402.40	1430.07
402.59	1455.81
402.78	1479.22
402.97	1589.22
403.17	1502.62
403.36	1500.28
403.55	1629.01
403.74	1633.69
403.93	1577.52
404.13	1617.31
404.32	1621.99
404.51	1586.88
404.70	1654.76
404.89	1645.40
405.09	1687.53
405.28	1767.10
405.47	1685.19
405.66	1610.29
405.85	1750.72
406.05	1788.17
406.24	1675.82
406.43	1760.08
406.62	1734.34
406.81	1853.70
407.00	1792.85
407.20	1692.21
407.39	1823.28
407.58	1785.83
407.77	1760.08
407.96	1926.26
408.15	1921.58
408.34	1930.94
408.54	1937.96
408.73	1902.86
408.92	1975.41
409.11	1839.66
409.30	2059.67
409.49	1966.05
409.68	2069.03
409.87	2033.93
410.07	2008.18
410.26	2099.46
410.45	2043.29
410.64	2033.93
410.83	2059.67
411.02	2099.46
411.21	2097.12
411.40	2052.65
411.59	2183.72
411.78	2237.55
411.98	2162.66
412.17	2312.45
412.36	2260.96
412.55	2270.32
412.74	2244.57
412.93	2200.10
413.12	2326.49
413.31	2420.11
413.50	2429.48
413.69	2366.28
413.88	2480.97
414.07	2487.99
414.26	2408.41
414.45	2539.48
414.64	2572.25
414.83	2541.82
415.02	2581.61
415.22	2665.87
415.41	2628.42
415.60	2661.19
415.79	2719.70
415.98	2626.08
416.17	2698.64
416.36	2696.30
416.55	2780.56
416.74	2789.92
416.93	2750.13
417.12	2808.64
417.31	2801.62
417.50	2808.64
417.69	3007.59
417.88	2878.86
418.07	2869.50
418.26	2904.60
418.45	2963.12
418.64	3035.67
418.83	2956.10
419.02	2928.01
419.21	2988.86
419.39	3045.04
419.58	3068.44
419.77	3052.06
419.96	3038.02
420.15	3122.27
420.34	3016.95
420.53	3129.30
420.72	3302.50
420.91	3241.64
421.10	3150.36
421.29	3253.34
421.48	3204.19
421.67	3166.74
421.86	3363.35
422.05	3290.79
422.24	3260.37
422.43	3456.97
422.61	3337.60
422.80	3307.18
422.99	3405.48
423.18	3414.84
423.37	3412.50
423.56	3440.59
423.75	3363.35
423.94	3365.69
424.13	3150.36
424.32	3222.92
424.50	3438.25
424.69	3623.15
424.88	3489.74
425.07	3368.03
425.26	3424.20
425.45	3459.31
425.64	3337.60
425.83	3243.98
426.01	3468.67
426.20	3508.46
426.39	3513.14
426.58	3421.86
426.77	3564.64
426.96	3552.93
427.15	3557.61
427.33	3541.23
427.52	3700.39
427.71	3679.32
427.90	3606.77
428.09	3639.53
428.28	3728.47
428.46	3719.11
428.65	3637.19
428.84	3700.39
429.03	3847.84
429.22	3758.90
429.40	3700.39
429.59	3817.41
429.78	3691.02
429.97	3653.58
430.16	3758.90
430.34	3918.06
430.53	3836.14
430.72	3808.05
430.91	3922.74
431.10	3786.99
431.28	3784.65
431.47	4007.00
431.66	3946.14
431.85	4053.81
432.03	4016.36
432.22	4114.66
432.41	4117.00
432.60	4058.49
432.79	4173.18
432.97	4231.69
433.16	4081.89
433.35	4077.21
433.54	4147.43
433.72	4252.75
433.91	4145.09
434.10	4210.62
434.28	4250.41
434.47	4210.62
434.66	4227.01
434.85	4327.65
435.03	4299.56
435.22	4341.69
435.41	4411.91
435.59	4458.72
435.78	4430.63
435.97	4479.79
436.16	4362.76
436.34	4341.69
436.53	4313.61
436.72	4545.32
436.90	4372.12
437.09	4606.17
437.28	4557.02
437.46	4578.09
437.65	4491.49
437.84	4622.56
438.02	4669.37
438.21	4601.49
438.40	4561.70
438.58	4868.31
438.77	4709.16
438.96	4699.80
439.14	4809.80
439.33	5020.45
439.52	4870.65
439.70	4865.97
439.89	5057.90
440.08	5053.22
440.26	5027.47
440.45	5053.22
440.63	5123.43
440.82	5069.60
441.01	5125.77
441.19	5128.11
441.38	5191.31
441.57	5188.97
441.75	5343.44
441.94	5364.51
442.12	5446.43
442.31	5380.89
442.50	5350.46
442.68	5490.90
442.87	5313.02
443.05	5416.00
443.24	5481.53
443.43	5476.85
443.61	5514.30
443.80	5633.67
443.98	5500.26
444.17	5423.02
444.35	5554.09
444.54	5692.18
444.73	5577.50
444.91	5453.45
445.10	5537.71
445.28	5540.05
445.47	5547.07
445.65	5682.82
445.84	5870.06
446.02	5811.55
446.21	5753.04
446.39	5645.37
446.58	5706.23
446.77	5561.11
446.95	5537.71
447.14	5671.12
447.32	5671.12
447.51	5570.48
447.69	5771.76
447.88	5731.97
448.06	5823.25
448.25	5781.12
448.43	5970.71
448.62	5696.86
448.80	5893.47
448.99	5788.14
449.17	6029.22
449.36	5905.17
449.54	6076.03
449.73	5966.03
449.91	6150.93
450.10	5977.73
450.28	5921.56
450.46	6143.91
450.65	6190.72
450.83	6078.37
451.02	6073.69
451.20	6230.51
451.39	6092.41
451.57	6024.54
451.76	6066.67
451.94	6368.60
452.13	6342.85
452.31	6242.21
452.49	6267.95
452.68	6356.90
452.86	6326.47
453.05	6499.67
453.23	6373.28
453.42	6305.40
453.60	6242.21
453.78	6326.47
453.97	6431.79
454.15	6410.73
454.34	6349.87
454.52	6567.54
454.70	6513.71
454.89	6553.50
455.07	6569.88
455.26	6513.71
455.44	6637.76
455.62	6590.95
455.81	6668.19
455.99	6754.79
456.17	6761.81
456.36	6707.98
456.54	6829.68
456.73	7007.56
456.91	6848.41
457.09	7019.27
457.28	7105.87
457.46	6979.48
457.64	7208.85
457.83	7033.31
458.01	7094.16
458.19	7192.47
458.38	7047.35
458.56	7318.86
458.74	7332.90
458.93	7143.32
459.11	7229.91
459.29	7140.97
459.48	7126.93
459.66	7316.51
459.84	7229.91
460.03	7407.80
460.21	7290.77
460.39	7386.73
460.57	7442.90
460.76	7487.37
460.94	7468.65
461.12	7559.93
461.31	7541.21
461.49	7393.75
461.67	7641.85
461.85	7688.66
462.04	7555.25
462.22	8095.91
462.40	7850.16
462.59	7803.35
462.77	7735.47
462.95	7819.73
463.13	7691.00
463.32	7669.94
463.50	7843.14
463.68	7896.97
463.86	7875.90
464.05	7896.97
464.23	7978.89
464.41	7875.90
464.59	7761.22
464.78	8168.47
464.96	7892.29
465.14	7873.56
465.32	8065.49
465.50	8168.47
465.69	8154.43
465.87	8201.24
466.05	8264.43
466.23	8109.96
466.41	8098.25
466.60	8418.91
466.78	8222.30
466.96	8107.62
467.14	8367.42
467.32	8372.10
467.51	8259.75
467.69	8238.69
467.87	8283.16
468.05	8428.27
468.23	8313.58
468.41	8358.05
468.60	8500.83
468.78	8430.61
468.96	8582.74
469.14	8648.28
469.32	8692.75
469.50	8355.71
469.69	8528.91
469.87	8788.71
470.05	8734.88
470.23	8739.56
470.41	8629.56
470.59	8966.59
470.77	8840.20
470.95	8805.10
471.14	9036.81
471.32	8788.71
471.50	9177.24
471.68	8992.34
471.86	9020.42
472.04	9167.88
472.22	9432.36
472.40	9137.45
472.58	9081.28
472.77	9261.50
472.95	9437.04
473.13	9692.16
473.31	9439.38
473.49	9345.76
473.67	9481.51
473.85	9600.88
474.03	9675.77
474.21	9668.75
474.39	9806.84
474.57	9675.77
474.75	9970.68
474.93	9884.08
475.12	9989.41
475.30	10134.52
475.48	9975.36
475.66	10015.15
475.84	10122.82
476.02	10211.76
476.20	10178.99
476.38	10478.58
476.56	10729.02
476.74	10729.02
476.92	10530.07
477.10	10434.11
477.28	10565.18
477.46	10717.31
477.64	10630.71
477.82	10691.57
478.00	11311.81
478.18	10881.15
478.36	11047.33
478.54	11318.83
478.72	11609.06
478.90	11253.30
479.08	11325.85
479.26	11906.31
479.44	11705.02
479.62	11857.15
479.80	11789.28
479.98	12028.01
480.16	12184.83
480.34	12091.21
480.52	12245.68
480.70	12276.11
480.88	12002.27
481.06	12086.53
481.24	12444.63
481.41	12512.50
481.59	12786.35
481.77	12798.05
481.95	13111.68
482.13	13083.59
482.31	12837.84
482.49	13373.82
482.67	13308.29
482.85	13324.67
483.03	13748.31
483.21	13731.92
483.39	13731.92
483.57	13631.28
483.74	13834.91
483.92	14188.33
484.10	13696.82
484.28	14363.87
484.46	14555.79
484.64	14759.42
484.82	14492.60
485.00	14806.23
485.18	15007.52
485.35	15274.34
485.53	15136.24
485.71	15101.14
485.89	15396.04
486.07	15302.42
486.25	15140.93
486.43	15536.48
486.61	15824.36
486.78	15805.64
486.96	15892.24
487.14	15920.32
487.32	16037.35
487.50	16297.15
487.68	16444.60
487.85	16573.33
488.03	16697.38
488.21	16816.75
488.39	16769.94
488.57	17146.76
488.75	17228.68
488.92	17109.32
489.10	17474.44
489.28	17458.06
489.46	17820.84
489.64	17556.36
489.81	18181.28
489.99	18108.72
490.17	18001.06
490.35	18434.06
490.53	18525.34
490.70	18843.65
490.88	18782.80
491.06	19129.20
491.24	18831.95
491.41	19271.97
491.59	19190.05
491.77	18967.70
491.95	19637.09
492.13	19482.62
492.30	19730.72
492.48	19796.25
492.66	19889.87
492.84	20123.93
493.01	20095.84
493.19	20240.95
493.37	20421.17
493.54	20334.57
493.72	20393.09
493.90	20685.65
494.08	20917.37
494.25	20608.42
494.43	21074.18
494.61	20985.24
494.79	20924.39
494.96	21151.42
495.14	21582.08
495.32	21598.46
495.49	21694.43
495.67	21759.96
495.85	21774.00
496.02	21935.50
496.20	22197.64
496.38	22438.72
496.55	22141.47
496.73	23087.04
496.91	22625.96
497.09	22934.91
497.26	22881.08
497.44	22970.02
497.62	23136.20
497.79	23271.95
497.97	23070.66
498.14	23669.84
498.32	23552.81
498.50	23424.08
498.67	23985.81
498.85	23765.80
499.03	24364.98
499.20	24084.11
499.38	24322.85
499.56	24283.06
499.73	24512.43
499.91	24411.79
500.08	24528.81
500.26	24498.39
500.44	25067.14
500.61	24690.31
500.79	24678.61
500.97	25120.97
501.14	25174.80
501.32	25493.12
501.49	24980.54
501.67	25518.86
501.84	25633.55
502.02	25446.30
502.20	25743.55
502.37	25879.30
502.55	25675.68
502.72	26064.21
502.90	25851.22
503.07	26253.79
503.25	25954.20
503.43	26141.44
503.60	26335.71
503.78	26412.95
503.95	26314.64
504.13	26600.19
504.30	26749.98
504.48	26733.60
504.65	27047.23
504.83	26888.07
505.01	27002.76
505.18	27227.45
505.36	27201.71
505.53	27098.72
505.71	27318.73
505.88	27510.66
506.06	27295.33
506.23	27646.41
506.41	27576.19
506.58	27964.72
506.76	27946.00
506.93	28072.39
507.11	27747.05
507.28	28383.68
507.46	27943.66
507.63	28231.54
507.81	28360.27
507.98	28177.71
508.16	28276.01
508.33	28517.09
508.50	28814.34
508.68	28786.25
508.85	28898.59
509.03	28877.53
509.20	28748.80
509.38	29532.88
509.55	28886.89
509.73	29207.55
509.90	29429.90
510.08	29432.24
510.25	29909.71
510.42	29413.51
510.60	29624.16
510.77	29942.47
510.95	30136.74
511.12	29935.45
511.30	30256.11
511.47	30333.34
511.64	30087.59
511.82	30855.28
511.99	30054.82
512.17	30616.55
512.34	30448.03
512.51	30494.84
512.69	30764.00
512.86	30885.71
513.04	30742.94
513.21	31147.85
513.38	31154.87
513.56	31372.54
513.73	30902.09
513.90	31140.83
514.08	31330.41
514.25	31531.70
514.43	31349.14
514.60	31541.06
514.77	32011.51
514.95	31690.85
515.12	31557.44
515.29	31864.05
515.47	32055.98
515.64	31971.72
515.81	31622.98
515.99	32388.33
516.16	32414.08
516.33	32313.44
516.51	32573.24
516.68	32133.21
516.85	32418.76
517.03	32444.51
517.20	32816.65
517.37	32594.30
517.54	32676.22
517.72	32601.32
517.89	33069.43
518.06	32650.47
518.24	33022.62
518.41	33130.28
518.58	33165.39
518.75	33165.39
518.93	33331.57
519.10	33216.88
519.27	33207.52
519.45	33809.04
519.62	33837.12
519.79	33820.74
519.96	33633.50
520.14	33956.49
520.31	33558.60
520.48	33717.76
520.65	34251.40
520.83	34286.51
521.00	34377.79
521.17	34115.65
521.34	34618.86
521.52	34740.57
521.69	34593.12
521.86	34553.33
522.03	34761.64
522.20	35002.71
522.38	34871.64
522.55	34637.59
522.72	34988.67
522.89	35112.72
523.07	35470.82
523.24	35452.09
523.41	35606.57
523.58	35054.20
523.75	35271.87
523.92	35393.58
524.10	35241.45
524.27	35299.96
524.44	35910.84
524.61	36034.89
524.78	35484.86
524.96	36170.64
525.13	35992.76
525.30	36430.44
525.47	36318.09
525.64	36023.19
525.81	36257.24
525.98	36559.17
526.16	36287.67
526.33	36395.33
526.50	36505.34
526.67	36102.76
526.84	36531.08
527.01	36416.40
527.18	36840.03
527.36	36613.00
527.53	36994.51
527.70	36662.15
527.87	37179.41
528.04	36657.47
528.21	37017.91
528.38	37347.93
528.55	37221.54
528.72	37104.51
528.89	37368.99
529.07	37275.37
529.24	37174.73
529.41	37376.01
529.58	37586.66
529.75	37720.07
529.92	37532.83
530.09	37523.47
530.26	37628.79
530.43	38033.71
530.60	37659.22
530.77	37254.31
530.94	37794.97
531.11	37806.67
531.28	38057.11
531.46	37656.88
531.63	38471.39
531.80	38003.28
531.97	38401.17
532.14	38340.32
532.31	38314.57
532.48	38169.46
532.65	38452.66
532.82	38321.59
532.99	38792.04
533.16	38576.71
533.33	38712.46
533.50	38586.07
533.67	38518.20
533.84	38787.36
534.01	38581.39
534.18	38660.97
534.35	39590.16
534.52	38885.66
534.69	39117.37
534.86	39381.85
535.03	39070.56
535.20	39803.15
535.37	39086.95
535.54	39615.91
535.71	39232.06
535.88	39700.17
536.05	39409.94
536.22	39599.52
536.38	39732.93
536.55	39318.66
536.72	39428.66
536.89	39580.80
537.06	39974.01
537.23	40512.33
537.40	39564.42
537.57	39697.83
537.74	40016.14
537.91	40254.87
538.08	40177.64
538.25	39697.83
538.42	40383.60
538.59	40488.93
538.75	40201.04
538.92	40767.45
539.09	40472.54
539.26	40407.01
539.43	40325.09
539.60	40854.05
539.77	40556.80
539.94	40502.97
540.11	41109.17
540.28	40914.90
540.44	41015.55
540.61	40982.78
540.78	40156.57
540.95	40823.62
541.12	40526.38
541.29	40727.66
541.46	40952.35
541.62	41265.99
541.79	40982.78
541.96	40847.03
542.13	40942.99
542.30	40678.51
542.47	40992.14
542.63	41282.37
542.80	41603.02
542.97	41972.83
543.14	41963.46
543.31	41603.02
543.48	41488.34
543.64	42270.08
543.81	42300.50
543.98	41918.99
544.15	42021.98
544.32	41797.29
544.48	42759.25
544.65	42518.17
544.82	42342.63
544.99	42169.43
545.16	42012.62
545.32	42323.91
545.49	42384.76
545.66	42740.52
545.83	42806.06
546.00	42513.49
546.16	42478.38
546.33	42686.69
546.50	42543.92
546.67	42810.74
546.83	42050.06
547.00	42438.59
547.17	42494.77
547.34	42241.99
547.50	42773.29
547.67	42817.76
547.84	42642.22
548.00	43166.50
548.17	43604.18
548.34	43346.72
548.51	43236.72
548.67	43445.02
548.84	43405.23
549.01	43335.02
549.18	43384.17
549.34	43641.63
549.51	43704.82
549.68	43257.78
549.84	43199.27
550.01	43665.03
550.18	43566.73
550.34	43526.94
550.51	43817.17
550.68	43079.90
550.84	43173.52
551.01	43779.72
551.18	43468.43
551.34	43732.91
551.51	44257.19
551.68	43828.87
551.84	43653.33
552.01	43742.27
552.18	43945.90
552.34	43470.77
552.51	43580.78
552.68	43901.43
552.84	44275.91
553.01	44285.28
553.18	44289.96
553.34	44381.24
553.51	44224.42
553.67	44502.95
553.84	44055.90
554.01	44156.55
554.17	43849.94
554.34	44662.10
554.51	44229.10
554.67	44568.48
554.84	44526.35
555.00	44137.82
555.17	44144.84
555.33	44222.08
555.50	44481.88
555.67	44666.78
555.83	44708.91
556.00	45001.48
556.16	45507.04
556.33	44774.45
556.50	44975.73
556.66	44861.05
556.83	44261.87
556.99	45132.55
557.16	44961.69
557.32	45015.52
557.49	45497.67
557.65	44711.25
557.82	45261.28
557.98	45069.36
558.15	45137.23
558.32	45216.81
558.48	44982.76
558.65	44994.46
558.81	45200.43
558.98	45174.68
559.14	45003.82
559.31	45394.69
559.47	45404.05
559.64	45677.90
559.80	45574.91
559.97	45717.68
560.13	45120.85
560.30	45331.50
560.46	45801.94
560.63	45408.73
560.79	45193.40
560.96	45574.91
561.12	45839.39
561.29	45408.73
561.45	45794.92
561.61	45764.49
561.78	45790.24
561.94	45722.37
562.11	45673.21
562.27	45464.91
562.44	45958.76
562.60	45385.33
562.77	45942.38
562.93	45696.62
563.10	46146.00
563.26	46181.11
563.42	45790.24
563.59	45441.50
563.75	46202.18
563.92	46078.13
564.08	46040.68
564.24	46160.05
564.41	45965.78
564.57	45785.56
564.74	46171.75
564.90	45989.19
565.07	45961.10
565.23	46146.00
565.39	46150.68
565.56	46314.52
565.72	46014.93
565.88	46131.96
566.05	46246.65
566.21	46127.28
566.38	46209.20
566.54	46401.12
566.70	46639.86
566.87	46380.06
567.03	46045.36
567.19	46349.63
567.36	46169.41
567.52	46363.67
567.68	46799.01
567.85	46368.35
568.01	46504.10
568.17	46836.46
568.34	46511.13
568.50	46501.76
568.66	46190.47
568.83	46497.08
568.99	46457.29
569.15	46684.33
569.32	45984.51
569.48	46281.75
569.64	46845.82
569.81	46752.20
569.97	46492.40
570.13	46644.54
570.30	46071.10
570.46	46761.56
570.62	46906.68
570.78	46806.03
570.95	46712.41
571.11	47072.85
571.27	46525.17
571.43	46363.67
571.60	46614.11
571.76	46361.33
571.92	46728.80
572.09	46628.15
572.25	46712.41
572.41	46712.41
572.57	47185.20
572.74	46967.53
572.90	46906.68
573.06	47257.76
573.22	47196.90
573.38	46735.82
573.55	46820.08
573.71	47068.17
573.87	46997.96
574.03	46623.47
574.20	46642.20
574.36	47000.30
574.52	46995.62
574.68	46951.15
574.84	46909.02
575.01	47068.17
575.17	46511.13
575.33	46892.63
575.49	46962.85
575.65	46770.93
575.82	47012.00
575.98	47086.90
576.14	47356.06
576.30	47393.51
576.46	46911.36
576.62	46993.28
576.79	47065.83
576.95	46923.06
577.11	46822.42
577.27	46595.38
577.43	47180.52
577.59	46815.40
577.75	47086.90
577.92	46859.87
578.08	46965.19
578.24	46857.52
578.40	47042.43
578.56	47147.75
578.72	47482.45
578.88	47316.27
579.04	47026.04
579.21	46714.75
579.37	46738.16
579.53	47459.04
579.69	46803.69
579.85	47405.21
580.01	47236.69
580.17	47295.21
580.33	47452.02
580.49	47185.20
580.65	46656.24
580.82	47091.58
580.98	46988.60
581.14	47325.63
581.30	46953.49
581.46	47215.63
581.62	47393.51
581.78	46806.03
581.94	47414.57
582.10	47196.90
582.26	47241.37
582.42	47498.83
582.58	47309.25
582.74	47285.84
582.90	47147.75
583.06	47508.19
583.22	47131.37
583.38	47349.04
583.54	47641.60
583.70	47030.72
583.86	47374.78
584.02	47114.98
584.18	47910.77
584.34	47569.05
584.50	47751.61
584.66	47339.68
584.82	47744.59
584.98	47412.23
585.14	47878.00
585.30	47306.91
585.46	47274.14
585.62	47494.15
585.78	47416.91
585.94	47004.98
586.10	47192.22
586.26	47430.96
586.42	47344.36
586.58	47772.67
586.74	47316.27
586.90	47269.46
587.06	47096.26
587.22	47653.31
587.38	47210.95
587.54	47470.75
587.70	47412.23
587.86	47501.17
588.02	47468.40
588.18	47180.52
588.34	47409.89
588.49	47260.10
588.65	47356.06
588.81	47157.11
588.97	47475.43
589.13	47908.43
589.29	47615.86
589.45	47555.00
589.61	47784.38
589.77	47962.26
589.93	47693.10
590.08	47910.77
