SpectraSuite Data File
++++++++++++++++++++++++++++++++++++
Date: Fri Oct 25 11:33:41 EDT 2013
User: price-jones
Dark Spectrum Present: No
Reference Spectrum Present: No
Number of Sampled Component Spectra: 1
Spectrometers: USB2+H05261
Integration Time (usec): 100000 (USB2+H05261)
Spectra Averaged: 1 (USB2+H05261)
Boxcar Smoothing: 0 (USB2+H05261)
Correct for Electrical Dark: No (USB2+H05261)
Strobe/Lamp Enabled: No (USB2+H05261)
Correct for Detector Non-linearity: No (USB2+H05261)
Correct for Stray Light: No (USB2+H05261)
Number of Pixels in Processed Spectrum: 2048
>>>>>Begin Processed Spectral Data<<<<<
365.73	313.63
365.92	313.63
366.12	313.63
366.32	177.88
366.52	187.24
366.72	168.52
366.91	194.26
367.11	107.66
367.31	149.79
367.51	161.50
367.70	205.97
367.90	194.26
368.10	175.54
368.30	168.52
368.49	180.22
368.69	161.50
368.89	170.86
369.09	161.50
369.28	180.22
369.48	243.42
369.68	182.56
369.87	252.78
370.07	217.67
370.27	294.91
370.47	341.72
370.66	430.66
370.86	496.19
371.06	505.56
371.25	568.75
371.45	510.24
371.65	606.20
371.84	561.73
372.04	540.66
372.24	580.45
372.44	538.32
372.63	582.79
372.83	543.00
373.03	566.41
373.22	564.07
373.42	568.75
373.62	528.96
373.81	615.56
374.01	592.16
374.21	559.39
374.40	653.01
374.60	713.86
374.79	599.18
374.99	674.07
375.19	603.86
375.38	671.73
375.58	702.16
375.78	730.25
375.97	627.26
376.17	709.18
376.37	664.71
376.56	676.41
376.76	748.97
376.95	627.26
377.15	653.01
377.35	699.82
377.54	622.58
377.74	669.39
377.93	615.56
378.13	650.67
378.33	734.93
378.52	711.52
378.72	784.08
378.91	688.12
379.11	732.59
379.31	730.25
379.50	716.20
379.70	725.57
379.89	748.97
380.09	758.33
380.28	739.61
380.48	704.50
380.68	755.99
380.87	734.93
381.07	699.82
381.26	702.16
381.46	725.57
381.65	779.40
381.85	830.89
382.04	786.42
382.24	786.42
382.43	823.87
382.63	858.98
382.83	835.57
383.02	903.45
383.22	840.25
383.41	870.68
383.61	873.02
383.80	840.25
384.00	746.63
384.19	753.65
384.39	866.00
384.58	896.43
384.78	894.08
384.97	908.13
385.17	830.89
385.36	807.48
385.56	795.78
385.75	798.12
385.95	823.87
386.14	800.46
386.34	833.23
386.53	835.57
386.72	828.55
386.92	929.19
387.11	856.64
387.31	873.02
387.50	954.94
387.70	901.11
387.89	898.77
388.09	894.08
388.28	873.02
388.48	980.68
388.67	954.94
388.86	905.79
389.06	924.51
389.25	940.90
389.45	966.64
389.64	976.00
389.84	983.02
390.03	992.39
390.22	919.83
390.42	1022.81
390.61	959.62
390.81	992.39
391.00	971.32
391.19	1018.13
391.39	978.34
391.58	1069.62
391.78	983.02
391.97	1006.43
392.16	1027.50
392.36	1048.56
392.55	987.71
392.75	1069.62
392.94	1055.58
393.13	1029.84
393.33	1083.67
393.52	1109.41
393.71	1093.03
393.91	1104.73
394.10	1116.44
394.29	1107.07
394.49	1093.03
394.68	1139.84
394.88	1186.65
395.07	1181.97
395.26	1170.27
395.46	1193.67
395.65	1146.86
395.84	1233.46
396.04	1289.64
396.23	1203.04
396.42	1205.38
396.62	1296.66
396.81	1214.74
397.00	1181.97
397.19	1217.08
397.39	1231.12
397.58	1249.85
397.77	1179.63
397.97	1275.59
398.16	1252.19
398.35	1240.48
398.55	1207.72
398.74	1226.44
398.93	1235.80
399.12	1359.85
399.32	1275.59
399.51	1245.16
399.70	1329.42
399.90	1409.00
400.09	1416.02
400.28	1413.68
400.47	1376.24
400.67	1392.62
400.86	1380.92
401.05	1495.60
401.24	1336.45
401.44	1406.66
401.63	1509.65
401.82	1526.03
402.01	1451.13
402.21	1561.14
402.40	1528.37
402.59	1486.24
402.78	1448.79
402.97	1493.26
403.17	1460.49
403.36	1589.22
403.55	1516.67
403.74	1542.41
403.93	1652.42
404.13	1591.56
404.32	1591.56
404.51	1547.09
404.70	1666.46
404.89	1610.29
405.09	1621.99
405.28	1643.06
405.47	1689.87
405.66	1645.40
405.85	1678.16
406.05	1710.93
406.24	1732.00
406.43	1802.21
406.62	1727.32
406.81	1818.60
407.00	1811.57
407.20	1788.17
407.39	1834.98
407.58	1764.76
407.77	1856.04
407.96	1860.73
408.15	1907.54
408.34	1884.13
408.54	1975.41
408.73	1968.39
408.92	1940.30
409.11	1959.03
409.30	2052.65
409.49	1977.75
409.68	2003.50
409.87	1942.64
410.07	2057.33
410.26	2029.24
410.45	2127.55
410.64	2125.21
410.83	2066.69
411.02	2033.93
411.21	2179.04
411.40	2169.68
411.59	2221.17
411.78	2139.25
411.98	2249.25
412.17	2230.53
412.36	2237.55
412.55	2286.70
412.74	2326.49
412.93	2406.07
413.12	2286.70
413.31	2385.01
413.50	2352.24
413.69	2366.28
413.88	2476.29
414.07	2499.69
414.26	2588.63
414.45	2532.46
414.64	2495.01
414.83	2562.89
415.02	2600.34
415.22	2647.15
415.41	2665.87
415.60	2689.28
415.79	2689.28
415.98	2651.83
416.17	2733.75
416.36	2787.58
416.55	2785.24
416.74	2766.51
416.93	2839.07
417.12	2787.58
417.31	2813.32
417.50	2977.16
417.69	2918.65
417.88	2956.10
418.07	2944.39
418.26	2930.35
418.45	3047.38
418.64	3061.42
418.83	3103.55
419.02	3012.27
419.21	3119.93
419.39	3080.14
419.58	3009.93
419.77	3119.93
419.96	3208.87
420.15	3229.94
420.34	3206.53
420.53	3201.85
420.72	3229.94
420.91	3265.05
421.10	3211.22
421.29	3265.05
421.48	3220.58
421.67	3255.69
421.86	3246.32
422.05	3239.30
422.24	3283.77
422.43	3279.09
422.61	3442.93
422.80	3384.41
422.99	3485.06
423.18	3452.29
423.37	3538.89
423.56	3337.60
423.75	3314.20
423.94	3300.16
424.13	3150.36
424.32	3307.18
424.50	3405.48
424.69	3438.25
424.88	3461.65
425.07	3370.37
425.26	3368.03
425.45	3442.93
425.64	3353.99
425.83	3550.59
426.01	3588.04
426.20	3459.31
426.39	3407.82
426.58	3459.31
426.77	3508.46
426.96	3609.11
427.15	3515.48
427.33	3503.78
427.52	3534.21
427.71	3559.95
427.90	3651.24
428.09	3700.39
428.28	3637.19
428.46	3616.13
428.65	3691.02
428.84	3641.87
429.03	3754.22
429.22	3543.57
429.40	3730.81
429.59	3833.80
429.78	3691.02
429.97	3616.13
430.16	3719.11
430.34	3927.42
430.53	3899.33
430.72	3969.55
430.91	3866.56
431.10	3779.97
431.28	3887.63
431.47	3894.65
431.66	3995.29
431.85	3985.93
432.03	3964.87
432.22	4091.26
432.41	4011.68
432.60	3899.33
432.79	4156.79
432.97	4021.04
433.16	4067.85
433.35	4142.75
433.54	4180.20
433.72	4222.33
433.91	4149.77
434.10	4145.09
434.28	4170.83
434.47	4196.58
434.66	4238.71
434.85	4367.44
435.03	4257.43
435.22	4379.14
435.41	4362.76
435.59	4318.29
435.78	4271.48
435.97	4493.83
436.16	4465.74
436.34	4304.25
436.53	4311.27
436.72	4470.42
436.90	4498.51
437.09	4582.77
437.28	4477.44
437.46	4428.29
437.65	4636.60
437.84	4554.68
438.02	4676.39
438.21	4739.58
438.40	4589.79
438.58	4753.63
438.77	4795.76
438.96	4748.95
439.14	4720.86
439.33	4805.12
439.52	4997.04
439.70	5078.96
439.89	4987.68
440.08	4964.28
440.26	5015.77
440.45	4933.85
440.63	5137.48
440.82	5153.86
441.01	4978.32
441.19	5266.21
441.38	5142.16
441.57	5369.19
441.75	5287.27
441.94	5465.15
442.12	5355.15
442.31	5518.98
442.50	5387.91
442.68	5511.96
442.87	5476.85
443.05	5511.96
443.24	5549.41
443.43	5579.84
443.61	5607.92
443.80	5696.86
443.98	5516.64
444.17	5362.17
444.35	5631.33
444.54	5792.83
444.73	5636.01
444.91	5584.52
445.10	5795.17
445.28	5650.05
445.47	5612.60
445.65	5832.62
445.84	5806.87
446.02	5694.52
446.21	5678.14
446.39	5706.23
446.58	5795.17
446.77	5556.43
446.95	5668.78
447.14	5610.26
447.32	5886.45
447.51	5886.45
447.69	5593.88
447.88	5853.68
448.06	5767.08
448.25	5727.29
448.43	5823.25
448.62	5900.49
448.80	5944.96
448.99	5912.19
449.17	5949.64
449.36	5785.80
449.54	5994.11
449.73	5905.17
449.91	5930.92
450.10	6176.67
450.28	6108.80
450.46	6057.31
450.65	6242.21
450.83	6073.69
451.02	6071.35
451.20	6370.94
451.39	6141.57
451.57	6221.14
451.76	6085.39
451.94	6211.78
452.13	6242.21
452.31	6209.44
452.49	6260.93
452.68	6349.87
452.86	6345.19
453.05	6370.94
453.23	6396.68
453.42	6370.94
453.60	6434.13
453.78	6312.42
453.97	6164.97
454.15	6595.63
454.34	6263.27
454.52	6534.78
454.70	6642.44
454.89	6502.01
455.07	6616.69
455.26	6696.27
455.44	6860.11
455.62	6693.93
455.81	6619.04
455.99	6862.45
456.17	6832.02
456.36	6768.83
456.54	6834.36
456.73	6827.34
456.91	7042.67
457.09	6930.33
457.28	6949.05
457.46	6885.86
457.64	7054.37
457.83	7002.88
458.01	6949.05
458.19	6986.50
458.38	7211.19
458.56	7105.87
458.74	7248.64
458.93	7197.15
459.11	7260.34
459.29	7236.94
459.48	7382.05
459.66	7302.47
459.84	7332.90
460.03	7691.00
460.21	7377.37
460.39	7463.97
460.57	7351.62
460.76	7538.87
460.94	7602.06
461.12	7524.82
461.31	7578.65
461.49	7515.46
461.67	7428.86
461.85	7691.00
462.04	7630.15
462.22	8203.58
462.40	7683.98
462.59	7618.44
462.77	7742.49
462.95	7733.13
463.13	7803.35
463.32	7878.24
463.50	7875.90
463.68	7901.65
463.86	8042.08
464.05	7721.43
464.23	7899.31
464.41	7988.25
464.59	7786.96
464.78	8194.22
464.96	8058.46
465.14	8245.71
465.32	8021.02
465.50	8084.21
465.69	8201.24
465.87	8109.96
466.05	8353.37
466.23	8191.88
466.41	8187.19
466.60	8355.71
466.78	8102.93
466.96	8243.37
467.14	7990.59
467.32	8229.32
467.51	8250.39
467.69	8346.35
467.87	8236.35
468.05	8505.51
468.23	8315.92
468.41	8248.05
468.60	8503.17
468.78	8622.53
468.96	8327.63
469.14	8615.51
469.32	8631.90
469.50	8613.17
469.69	8730.20
469.87	8704.45
470.05	8667.00
470.23	8791.05
470.41	8877.65
470.59	9130.43
470.77	8760.63
470.95	8819.14
471.14	9001.70
471.32	8779.35
471.50	9048.51
471.68	9055.53
471.86	9301.29
472.04	9191.28
472.22	9266.18
472.40	9167.88
472.58	9296.61
472.77	9427.68
472.95	9439.38
473.13	9713.22
473.31	9202.99
473.49	9453.42
473.67	9411.29
473.85	9474.49
474.03	9612.58
474.21	9729.61
474.39	9804.50
474.57	9734.29
474.75	9944.94
474.93	9799.82
475.12	9848.97
475.30	10190.69
475.48	9799.82
475.66	10017.49
475.84	10183.67
476.02	10277.29
476.20	10258.57
476.38	10396.66
476.56	10675.18
476.74	10511.35
476.92	10429.43
477.10	10399.00
477.28	10703.27
477.46	10834.34
477.64	10647.10
477.82	11052.01
478.00	11180.74
478.18	11162.01
478.36	11222.87
478.54	11037.97
478.72	11272.02
478.90	11585.65
479.08	11548.20
479.26	11531.82
479.44	11850.13
479.62	11861.84
479.80	11822.05
479.98	11918.01
480.16	12238.66
480.34	12037.38
480.52	12477.40
480.70	12301.86
480.88	12278.45
481.06	12362.71
481.24	12493.78
481.41	12737.20
481.59	12978.27
481.77	12987.63
481.95	12816.77
482.13	13193.60
482.31	13004.02
482.49	13231.05
482.67	13156.15
482.85	13551.70
483.03	13727.24
483.21	13738.94
483.39	13874.70
483.57	13949.59
483.74	13980.02
483.92	14005.77
484.10	14104.07
484.28	14108.75
484.46	14459.83
484.64	14991.13
484.82	14326.42
485.00	14565.15
485.18	15016.88
485.35	15131.56
485.53	14686.86
485.71	15012.20
485.89	15587.97
486.07	15255.61
486.25	15712.02
486.43	15536.48
486.61	15634.78
486.78	15807.98
486.96	16271.40
487.14	16058.42
487.32	16350.98
487.50	16587.38
487.68	16350.98
487.85	16397.79
488.03	16699.72
488.21	16854.20
488.39	17057.82
488.57	17319.96
488.75	17202.94
488.92	17462.74
489.10	17951.91
489.28	17582.10
489.46	17902.76
489.64	17610.19
489.81	18132.13
489.99	18242.14
490.17	18178.94
490.35	18618.96
490.53	18518.32
490.70	18586.19
490.88	18658.75
491.06	18675.13
491.24	19056.64
491.41	19051.96
491.59	19218.14
491.77	19194.73
491.95	19082.39
492.13	19325.80
492.30	19744.76
492.48	19681.56
492.66	19733.06
492.84	20042.01
493.01	20051.37
493.19	20079.46
493.37	20233.93
493.54	20446.92
493.72	20627.14
493.90	20732.47
494.08	20893.96
494.25	20961.84
494.43	21069.50
494.61	21142.06
494.79	21198.23
494.96	21413.56
495.14	21500.16
495.32	22029.12
495.49	21928.48
495.67	21841.88
495.85	21975.29
496.02	21989.33
496.20	22412.97
496.38	22204.66
496.55	22359.14
496.73	22981.72
496.91	22616.60
497.09	22752.35
497.26	22920.87
497.44	22972.36
497.62	23199.39
497.79	23379.61
497.97	23431.10
498.14	23585.58
498.32	23646.43
498.50	23749.42
498.67	24063.05
498.85	23852.40
499.03	24219.86
499.20	24123.90
499.38	24123.90
499.56	24538.18
499.73	24355.61
499.91	24549.88
500.08	24828.40
500.26	24877.55
500.44	24816.70
500.61	24687.97
500.79	25102.25
500.97	25081.18
501.14	25434.60
501.32	25404.17
501.49	25450.99
501.67	25188.85
501.84	25600.78
502.02	25628.87
502.20	25572.69
502.37	25652.27
502.55	26043.14
502.72	25923.77
502.90	25944.84
503.07	25905.05
503.25	26132.08
503.43	26214.00
503.60	26515.93
503.78	26632.96
503.95	26890.41
504.13	26354.43
504.30	26771.05
504.48	26881.05
504.65	26740.62
504.83	27178.30
505.01	27080.00
505.18	27297.67
505.36	27342.14
505.53	27405.33
505.71	27213.41
505.88	27585.55
506.06	27407.67
506.23	27983.44
506.41	28168.35
506.58	27510.66
506.76	27866.42
506.93	28156.64
507.11	27924.93
507.28	28119.20
507.46	28236.22
507.63	28025.57
507.81	28196.43
507.98	28222.18
508.16	28301.76
508.33	28535.81
508.50	28879.87
508.68	28786.25
508.85	28868.17
509.03	29078.82
509.20	29062.43
509.38	29219.25
509.55	29013.28
509.73	29502.45
509.90	29315.21
510.08	29596.07
510.25	29497.77
510.42	29675.65
510.60	29495.43
510.77	30115.67
510.95	30333.34
511.12	29900.34
511.30	30010.35
511.47	29970.56
511.64	30054.82
511.82	30394.20
511.99	30143.76
512.17	30735.92
512.34	30565.06
512.51	31122.10
512.69	31035.50
512.86	30789.75
513.04	31094.02
513.21	31337.43
513.38	31278.92
513.56	31379.56
513.73	31194.66
513.90	31180.62
514.08	31192.32
514.25	31482.55
514.43	31630.00
514.60	31875.76
514.77	31594.89
514.95	31707.24
515.12	31798.52
515.29	31714.26
515.47	31962.36
515.64	31704.90
515.81	31672.13
515.99	32154.28
516.16	32376.63
516.33	32444.51
516.51	32500.68
516.68	32320.46
516.85	32947.72
517.03	32790.91
517.20	32975.81
517.37	33160.71
517.54	32811.97
517.72	32727.71
517.89	32505.36
518.06	33144.33
518.24	33134.96
518.41	32982.83
518.58	32926.66
518.75	32987.51
518.93	33619.46
519.10	33331.57
519.27	33390.08
519.45	33572.64
519.62	33469.66
519.79	33818.40
519.96	33942.45
520.14	34169.48
520.31	33862.87
520.48	34279.49
520.65	33986.92
520.83	34586.10
521.00	34789.72
521.17	34206.93
521.34	34623.54
521.52	34527.58
521.69	34305.23
521.86	34686.74
522.03	34911.43
522.20	35033.14
522.38	34803.77
522.55	34558.01
522.72	35002.71
522.89	34817.81
523.07	35625.29
523.24	35101.01
523.41	35494.22
523.58	34829.51
523.75	35821.90
523.92	35384.22
524.10	35522.31
524.27	35915.52
524.44	36027.87
524.61	35763.39
524.78	35770.41
524.96	35826.58
525.13	36158.94
525.30	36217.45
525.47	36053.61
525.64	35761.05
525.81	36355.54
525.98	36732.37
526.16	36030.21
526.33	36184.68
526.50	37043.66
526.67	36591.94
526.84	36741.73
527.01	36842.37
527.18	36556.83
527.36	36734.71
527.53	36786.20
527.70	37394.74
527.87	37053.02
528.04	37179.41
528.21	37251.97
528.38	37120.90
528.55	37694.33
528.72	37275.37
528.89	37493.04
529.07	36889.18
529.24	37092.81
529.41	37235.58
529.58	37659.22
529.75	37570.28
529.92	37787.95
530.09	37366.65
530.26	37872.21
530.43	37790.29
530.60	37383.04
530.77	37778.59
530.94	38258.40
531.11	37867.53
531.28	38169.46
531.46	38092.22
531.63	38370.74
531.80	38141.37
531.97	38300.53
532.14	38253.72
532.31	38408.19
532.48	38499.47
532.65	38494.79
532.82	38555.64
532.99	38876.30
533.16	38808.42
533.33	39288.23
533.50	38553.30
533.67	38766.29
533.84	38501.81
534.01	38850.55
534.18	39072.90
534.35	39063.54
534.52	38983.96
534.69	39730.59
534.86	39723.57
535.03	39292.91
535.20	39257.81
535.37	39969.33
535.54	39775.06
535.71	39077.58
535.88	39697.83
536.05	39187.59
536.22	39559.73
536.38	39639.31
536.55	39721.23
536.72	39875.71
536.89	39697.83
537.06	39594.84
537.23	40566.16
537.40	39555.05
537.57	40203.38
537.74	39704.85
537.91	40392.97
538.08	40381.26
538.25	40095.72
538.42	40128.48
538.59	40491.27
538.75	40219.77
538.92	40566.16
539.09	40584.89
539.26	40779.15
539.43	40816.60
539.60	40856.39
539.77	40987.46
539.94	40842.35
540.11	40830.65
540.28	40814.26
540.44	40722.98
540.61	40870.43
540.78	40652.76
540.95	40875.12
541.12	40811.92
541.29	41148.96
541.46	41024.91
541.62	41340.88
541.79	41265.99
541.96	40917.25
542.13	41116.19
542.30	41598.34
542.47	41167.68
542.63	41270.67
542.80	41596.00
542.97	41654.51
543.14	41729.41
543.31	41448.55
543.48	41837.08
543.64	42410.51
543.81	41930.70
543.98	41834.74
544.15	41799.63
544.32	42340.29
544.48	42171.77
544.65	41813.67
544.82	42459.66
544.99	42244.33
545.16	42667.97
545.32	42487.74
545.49	42679.67
545.66	42557.96
545.83	42384.76
546.00	42611.79
546.16	42553.28
546.33	42707.76
546.50	42665.63
546.67	43313.95
546.83	42349.65
547.00	42738.18
547.17	42490.09
547.34	42686.69
547.50	42869.25
547.67	43210.97
547.84	42981.60
548.00	43014.37
548.17	43358.42
548.34	43306.93
548.51	43363.11
548.67	43725.89
548.84	43292.89
549.01	43515.24
549.18	43398.21
549.34	43522.26
549.51	43210.97
549.68	43634.61
549.84	43674.40
550.01	43669.72
550.18	43489.49
550.34	43473.11
550.51	43627.59
550.68	43463.75
550.84	43463.75
551.01	44112.08
551.18	43608.86
551.34	43789.08
551.51	43571.41
551.68	43821.85
551.84	43681.42
552.01	44264.21
552.18	43920.15
552.34	43707.16
552.51	44158.89
552.68	43707.16
552.84	44194.00
553.01	44421.03
553.18	44025.48
553.34	44694.87
553.51	43936.54
553.67	44404.64
553.84	44463.16
554.01	44236.12
554.17	44694.87
554.34	44671.46
554.51	44612.95
554.67	45045.95
554.84	44851.69
555.00	44481.88
555.17	44556.78
555.33	44835.30
555.50	44664.44
555.67	44968.71
555.83	44498.26
556.00	45240.21
556.16	45439.16
556.33	45223.83
556.50	45237.87
556.66	45275.32
556.83	44968.71
556.99	45151.27
557.16	45228.51
557.32	45092.76
557.49	45387.67
557.65	44692.53
557.82	44994.46
557.98	44989.78
558.15	45263.62
558.32	45343.20
558.48	44856.37
558.65	45170.00
558.81	45099.78
558.98	45368.94
559.14	45507.04
559.31	45244.90
559.47	45268.30
559.64	45359.58
559.80	45338.52
559.97	45490.65
560.13	45120.85
560.30	45310.43
560.46	45940.04
560.63	45879.18
560.79	45766.84
560.96	45951.74
561.12	45820.67
561.29	46071.10
561.45	45792.58
561.61	45841.73
561.78	45830.03
561.94	45745.77
562.11	45551.51
562.27	46010.25
562.44	46005.57
562.60	45549.17
562.77	45820.67
562.93	45823.01
563.10	46050.04
563.26	45928.33
563.42	46628.15
563.59	45928.33
563.75	45766.84
563.92	45895.56
564.08	45851.09
564.24	46099.19
564.41	45879.18
564.57	46136.64
564.74	46057.06
564.90	46068.76
565.07	46162.39
565.23	46026.63
565.39	45855.78
565.56	46237.28
565.72	46216.22
565.88	46199.83
566.05	46431.55
566.21	46274.73
566.38	46122.60
566.54	46670.28
566.70	46342.61
566.87	46389.42
567.03	45940.04
567.19	45956.42
567.36	46513.47
567.52	46267.71
567.68	46328.56
567.85	46799.01
568.01	46749.86
568.17	46361.33
568.34	46590.70
568.50	46384.74
568.66	46092.17
568.83	46480.70
568.99	46593.04
569.15	46658.58
569.32	46347.29
569.48	46628.15
569.64	47049.45
569.81	46604.75
569.97	46899.65
570.13	46878.59
570.30	46410.48
570.46	46719.43
570.62	46703.05
570.78	46983.91
570.95	46869.23
571.11	46969.87
571.27	46902.00
571.43	46995.62
571.60	46960.51
571.76	46824.76
571.92	46700.71
572.09	46300.48
572.25	46686.67
572.41	46630.49
572.57	47004.98
572.74	47227.33
572.90	46527.51
573.06	47019.02
573.22	46789.65
573.38	46866.89
573.55	46946.47
573.71	47180.52
573.87	47299.89
574.03	47126.69
574.20	47133.71
574.36	47466.06
574.52	47026.04
574.68	47126.69
574.84	46824.76
575.01	47257.76
575.17	47517.56
575.33	47079.88
575.49	47096.26
575.65	47253.08
575.82	46993.28
575.98	46850.50
576.14	47353.72
576.30	47533.94
576.46	47166.48
576.62	47227.33
576.79	46588.36
576.95	46356.65
577.11	46918.38
577.27	47056.47
577.43	47065.83
577.59	47058.81
577.75	47086.90
577.92	46953.49
578.08	47084.56
578.24	47466.06
578.40	47346.70
578.56	47201.58
578.72	46845.82
578.88	47400.53
579.04	47255.42
579.21	47208.61
579.37	47388.83
579.53	47213.29
579.69	47236.69
579.85	46969.87
580.01	47260.10
580.17	46897.31
580.33	47405.21
580.49	47239.03
580.65	47166.48
580.82	46948.81
580.98	47124.35
581.14	47086.90
581.30	47622.88
581.46	47215.63
581.62	47316.27
581.78	46576.66
581.94	47447.34
582.10	47196.90
582.26	47653.31
582.42	47068.17
582.58	47143.07
582.74	47309.25
582.90	47159.45
583.06	47494.15
583.22	47217.97
583.38	47667.35
583.54	47517.56
583.70	47555.00
583.86	47480.11
584.02	47391.17
584.18	47959.92
584.34	47709.48
584.50	47695.44
584.66	47423.93
584.82	47721.18
584.98	48107.37
585.14	47938.85
585.30	47482.45
585.46	47414.57
585.62	47435.64
585.78	47435.64
585.94	47309.25
586.10	47082.22
586.26	47318.61
586.42	47367.76
586.58	47543.30
586.74	47377.12
586.90	47344.36
587.06	47320.95
587.22	47683.73
587.38	47131.37
587.54	47522.24
587.70	48182.27
587.86	47271.80
588.02	47370.10
588.18	47512.88
588.34	47395.85
588.49	47693.10
588.65	47379.46
588.81	47585.43
588.97	48095.67
589.13	47688.42
589.29	47735.23
589.45	47847.57
589.61	47604.16
589.77	48020.77
589.93	47751.61
590.08	47660.33
