SpectraSuite Data File
++++++++++++++++++++++++++++++++++++
Date: Fri Oct 25 10:47:55 EDT 2013
User: price-jones
Dark Spectrum Present: No
Reference Spectrum Present: No
Number of Sampled Component Spectra: 1
Spectrometers: USB2+H05261
Integration Time (usec): 100000 (USB2+H05261)
Spectra Averaged: 1 (USB2+H05261)
Boxcar Smoothing: 0 (USB2+H05261)
Correct for Electrical Dark: No (USB2+H05261)
Strobe/Lamp Enabled: No (USB2+H05261)
Correct for Detector Non-linearity: No (USB2+H05261)
Correct for Stray Light: No (USB2+H05261)
Number of Pixels in Processed Spectrum: 2048
>>>>>Begin Processed Spectral Data<<<<<
365.73	102.98
365.92	102.98
366.12	102.98
366.32	102.98
366.52	70.22
366.72	56.17
366.91	44.47
367.11	21.06
367.31	14.04
367.51	37.45
367.70	58.51
367.90	60.85
368.10	14.04
368.30	149.79
368.49	23.41
368.69	74.90
368.89	11.70
369.09	100.64
369.28	30.43
369.48	18.72
369.68	100.64
369.87	138.09
370.07	72.56
370.27	131.07
370.47	168.52
370.66	341.72
370.86	416.62
371.06	437.68
371.25	503.22
371.45	475.13
371.65	468.11
371.84	472.79
372.04	475.13
372.24	510.24
372.44	500.87
372.63	533.64
372.83	535.98
373.03	528.96
373.22	482.15
373.42	479.81
373.62	566.41
373.81	503.22
374.01	519.60
374.21	543.00
374.40	447.04
374.60	479.81
374.79	507.90
374.99	624.92
375.19	603.86
375.38	554.71
375.58	578.11
375.78	634.29
375.97	617.90
376.17	620.24
376.37	585.13
376.56	594.50
376.76	624.92
376.95	571.09
377.15	571.09
377.35	608.54
377.54	578.11
377.74	617.90
377.93	671.73
378.13	578.11
378.33	599.18
378.52	519.60
378.72	617.90
378.91	692.80
379.11	575.77
379.31	620.24
379.50	571.09
379.70	674.07
379.89	683.44
380.09	741.95
380.28	709.18
380.48	615.56
380.68	627.26
380.87	599.18
381.07	702.16
381.26	777.06
381.46	674.07
381.65	704.50
381.85	653.01
382.04	718.54
382.24	657.69
382.43	664.71
382.63	774.72
382.83	753.65
383.02	777.06
383.22	732.59
383.41	634.29
383.61	653.01
383.80	758.33
384.00	718.54
384.19	730.25
384.39	704.50
384.58	702.16
384.78	844.93
384.97	781.74
385.17	770.04
385.36	774.72
385.56	732.59
385.75	816.85
385.95	802.80
386.14	763.01
386.34	835.57
386.53	828.55
386.72	830.89
386.92	807.48
387.11	802.80
387.31	800.46
387.50	795.78
387.70	858.98
387.89	830.89
388.09	819.19
388.28	812.17
388.48	870.68
388.67	791.10
388.86	868.34
389.06	828.55
389.25	858.98
389.45	835.57
389.64	936.21
389.84	980.68
390.03	915.15
390.22	959.62
390.42	971.32
390.61	905.79
390.81	959.62
391.00	987.71
391.19	1050.90
391.39	994.73
391.58	1055.58
391.78	952.60
391.97	915.15
392.16	945.58
392.36	999.41
392.55	980.68
392.75	1006.43
392.94	959.62
393.13	1057.92
393.33	903.45
393.52	950.26
393.71	1048.56
393.91	1060.26
394.10	976.00
394.29	1053.24
394.49	1060.26
394.68	1086.01
394.88	1123.46
395.07	1142.18
395.26	1008.77
395.46	1153.88
395.65	1181.97
395.84	1135.16
396.04	1149.20
396.23	1123.46
396.42	1210.06
396.62	1207.72
396.81	1207.72
397.00	1132.82
397.19	1135.16
397.39	1228.78
397.58	1163.25
397.77	1275.59
397.97	1320.06
398.16	1348.15
398.35	1249.85
398.55	1299.00
398.74	1352.83
398.93	1394.96
399.12	1350.49
399.32	1343.47
399.51	1338.79
399.70	1411.34
399.90	1371.55
400.09	1437.09
400.28	1472.20
400.47	1334.11
400.67	1500.28
400.86	1441.77
401.05	1516.67
401.24	1460.49
401.44	1483.90
401.63	1511.99
401.82	1547.09
402.01	1423.05
402.21	1441.77
402.40	1488.58
402.59	1547.09
402.78	1547.09
402.97	1547.09
403.17	1607.95
403.36	1568.16
403.55	1563.48
403.74	1668.80
403.93	1631.35
404.13	1671.14
404.32	1643.06
404.51	1614.97
404.70	1699.23
404.89	1739.02
405.09	1722.63
405.28	1797.53
405.47	1813.92
405.66	1692.21
405.85	1839.66
406.05	1762.42
406.24	1832.64
406.43	1706.25
406.62	1863.07
406.81	1923.92
407.00	1743.70
407.20	1959.03
407.39	1827.96
407.58	1825.62
407.77	1844.34
407.96	2036.27
408.15	2022.22
408.34	1900.52
408.54	1942.64
408.73	1839.66
408.92	1975.41
409.11	2078.40
409.30	2017.54
409.49	2083.08
409.68	2157.97
409.87	2024.56
410.07	2076.06
410.26	2136.91
410.45	2113.50
410.64	2183.72
410.83	2132.23
411.02	2162.66
411.21	2225.85
411.40	2338.20
411.59	2258.62
411.78	2345.22
411.98	2317.13
412.17	2373.30
412.36	2480.97
412.55	2352.24
412.74	2436.50
412.93	2523.10
413.12	2431.82
413.31	2534.80
413.50	2527.78
413.69	2544.16
413.88	2616.72
414.07	2558.21
414.26	2487.99
414.45	2553.52
414.64	2616.72
414.83	2590.97
415.02	2698.64
415.22	2700.98
415.41	2796.94
415.60	2693.96
415.79	2913.97
415.98	2834.39
416.17	2930.35
416.36	2799.28
416.55	2991.20
416.74	2916.31
416.93	2953.76
417.12	2932.69
417.31	2951.42
417.50	3049.72
417.69	3105.89
417.88	3052.06
418.07	3096.53
418.26	2958.44
418.45	3115.25
418.64	3253.34
418.83	3213.56
419.02	3138.66
419.21	3194.83
419.39	3211.22
419.58	3157.38
419.77	3234.62
419.96	3274.41
420.15	3286.11
420.34	3318.88
420.53	3300.16
420.72	3417.18
420.91	3482.72
421.10	3485.06
421.29	3574.00
421.48	3466.33
421.67	3431.23
421.86	3412.50
422.05	3424.20
422.24	3363.35
422.43	3463.99
422.61	3513.14
422.80	3510.80
422.99	3552.93
423.18	3389.10
423.37	3592.72
423.56	3585.70
423.75	3524.85
423.94	3337.60
424.13	3281.43
424.32	3398.46
424.50	3543.57
424.69	3707.41
424.88	3581.02
425.07	3609.11
425.26	3524.85
425.45	3623.15
425.64	3592.72
425.83	3478.04
426.01	3639.53
426.20	3609.11
426.39	3644.21
426.58	3651.24
426.77	3517.83
426.96	3468.67
427.15	3735.50
427.33	3662.94
427.52	3665.28
427.71	3770.60
427.90	3728.47
428.09	3655.92
428.28	3735.50
428.46	3777.62
428.65	3929.76
428.84	3904.01
429.03	3887.63
429.22	3796.35
429.40	3831.46
429.59	3854.86
429.78	3740.18
429.97	3676.98
430.16	3805.71
430.34	3997.64
430.53	3857.20
430.72	3824.44
430.91	3936.78
431.10	3840.82
431.28	3988.27
431.47	4315.95
431.66	4227.01
431.85	4056.15
432.03	4133.39
432.22	4292.54
432.41	4248.07
432.60	4287.86
432.79	4163.81
432.97	4299.56
433.16	4117.00
433.35	4236.37
433.54	4292.54
433.72	4245.73
433.91	4243.39
434.10	4365.10
434.28	4386.16
434.47	4409.57
434.66	4421.27
434.85	4395.53
435.03	4566.39
435.22	4486.81
435.41	4531.28
435.59	4636.60
435.78	4540.64
435.97	4643.62
436.16	4592.13
436.34	4486.81
436.53	4589.79
436.72	4587.45
436.90	4517.23
437.09	4678.73
437.28	4538.30
437.46	4617.88
437.65	4739.58
437.84	4840.23
438.02	4793.42
438.21	4762.99
438.40	4547.66
438.58	4943.21
438.77	4957.25
438.96	4891.72
439.14	5048.54
439.33	5090.67
439.52	5083.64
439.70	4980.66
439.89	5123.43
440.08	5116.41
440.26	5198.33
440.45	5186.63
440.63	5256.84
440.82	5380.89
441.01	5387.91
441.19	5350.46
441.38	5476.85
441.57	5530.69
441.75	5481.53
441.94	5591.54
442.12	5607.92
442.31	5603.24
442.50	5710.91
442.68	5736.65
442.87	5462.81
443.05	5647.71
443.24	5692.18
443.43	5769.42
443.61	5753.04
443.80	5851.34
443.98	5570.48
444.17	5687.50
444.35	5902.83
444.54	5874.74
444.73	5769.42
444.91	5755.38
445.10	5809.21
445.28	5902.83
445.47	5661.76
445.65	5792.83
445.84	5937.94
446.02	5888.79
446.21	5865.38
446.39	5734.31
446.58	5867.72
446.77	5989.43
446.95	5804.53
447.14	6033.90
447.32	6040.92
447.51	5923.90
447.69	6085.39
447.88	5975.39
448.06	5954.32
448.25	6186.04
448.43	5994.11
448.62	5867.72
448.80	6059.65
448.99	6118.16
449.17	6092.41
449.36	6171.99
449.54	6113.48
449.73	6267.95
449.91	6403.71
450.10	6312.42
450.28	6473.92
450.46	6319.45
450.65	6284.34
450.83	6392.00
451.02	6284.34
451.20	6518.39
451.39	6471.58
451.57	6560.52
451.76	6303.06
451.94	6518.39
452.13	6417.75
452.31	6558.18
452.49	6392.00
452.68	6471.58
452.86	6492.65
453.05	6722.02
453.23	6586.27
453.42	6576.91
453.60	6562.86
453.78	6916.28
453.97	6544.14
454.15	6541.80
454.34	6478.60
454.52	6768.83
454.70	6796.92
454.89	6729.04
455.07	6654.14
455.26	6679.89
455.44	6803.94
455.62	7110.55
455.81	6981.82
455.99	6951.39
456.17	7030.97
456.36	6932.67
456.54	7215.87
456.73	7148.00
456.91	7382.05
457.09	7323.54
457.28	7545.89
457.46	7407.80
457.64	7272.04
457.83	7382.05
458.01	7215.87
458.19	7480.35
458.38	7283.75
458.56	7520.14
458.74	7538.87
458.93	7377.37
459.11	7370.35
459.29	7410.14
459.48	7597.38
459.66	7548.23
459.84	7559.93
460.03	7801.01
460.21	7466.31
460.39	7719.09
460.57	7599.72
460.76	7702.70
460.94	7925.05
461.12	7751.85
461.31	7637.17
461.49	7728.45
461.67	7705.04
461.85	7908.67
462.04	7789.30
462.22	8238.69
462.40	8229.32
462.59	7920.37
462.77	8032.72
462.95	8093.57
463.13	8042.08
463.32	8126.34
463.50	8098.25
463.68	8079.53
463.86	8093.57
464.05	8018.68
464.23	8140.38
464.41	8283.16
464.59	8212.94
464.78	8138.04
464.96	8313.58
465.14	8060.80
465.32	8318.26
465.50	8355.71
465.69	8400.18
465.87	8145.06
466.05	8425.93
466.23	8451.67
466.41	8503.17
466.60	8753.60
466.78	8128.68
466.96	8407.20
467.14	8526.57
467.32	8489.12
467.51	8627.21
467.69	8348.69
467.87	8493.80
468.05	8610.83
468.23	8643.60
468.41	8505.51
468.60	8514.87
468.78	8526.57
468.96	8552.32
469.14	8760.63
469.32	8828.50
469.50	8475.08
469.69	8720.84
469.87	8973.61
470.05	8898.72
470.23	8938.51
470.41	9165.54
470.59	9146.81
470.77	8959.57
470.95	8954.89
471.14	9259.16
471.32	8940.85
471.50	9329.38
471.68	9364.48
471.86	9399.59
472.04	9338.74
472.22	9678.12
472.40	9294.27
472.58	9451.08
472.77	9497.89
472.95	9533.00
473.13	9841.95
473.31	9715.56
473.49	9561.09
473.67	9851.31
473.85	9774.08
474.03	10008.13
474.21	9863.02
474.39	10178.99
474.57	10057.28
474.75	9940.26
474.93	9977.70
475.12	10178.99
475.30	10092.39
475.48	10146.22
475.66	10422.41
475.84	10258.57
476.02	10349.85
476.20	10399.00
476.38	10640.08
476.56	10820.30
476.74	10628.37
476.92	10635.39
477.10	10906.90
477.28	10874.13
477.46	10888.17
477.64	11192.44
477.82	11108.18
478.00	11403.09
478.18	11288.40
478.36	11250.96
478.54	11463.94
478.72	11552.88
478.90	11721.40
479.08	12002.27
479.26	11831.41
479.44	11943.75
479.62	11918.01
479.80	12044.40
479.98	12182.49
480.16	12517.18
480.34	12238.66
480.52	12559.31
480.70	12423.56
480.88	12484.42
481.06	12521.87
481.24	12786.35
481.41	12872.95
481.59	12971.25
481.77	12980.61
481.95	13074.23
482.13	13247.43
482.31	13310.63
482.49	13558.72
482.67	13549.36
482.85	13589.15
483.03	13832.57
483.21	13645.32
483.39	14230.46
483.57	14054.92
483.74	14127.47
483.92	14417.70
484.10	14366.21
484.28	14539.41
484.46	14899.85
484.64	14923.26
484.82	14904.53
485.00	14939.64
485.18	15082.41
485.35	14820.27
485.53	14986.45
485.71	14920.92
485.89	15557.54
486.07	15428.81
486.25	15307.10
486.43	15840.75
486.61	15529.45
486.78	16123.95
486.96	15903.94
487.14	16231.62
487.32	16308.85
487.50	16486.73
487.68	16585.04
487.85	16973.56
488.03	16989.95
488.21	16727.81
488.39	16936.12
488.57	17465.08
488.75	17083.57
488.92	17547.00
489.10	17467.42
489.28	17745.94
489.46	18134.47
489.64	17797.43
489.81	18422.36
489.99	18260.86
490.17	18644.71
490.35	18916.21
490.53	18625.98
490.70	18703.22
490.88	18745.35
491.06	19080.05
491.24	19044.94
491.41	19332.82
491.59	19056.64
491.77	19126.86
491.95	19428.79
492.13	19627.73
492.30	19782.21
492.48	19824.34
492.66	20255.00
492.84	20297.13
493.01	20159.03
493.19	20180.10
493.37	20390.75
493.54	20603.74
493.72	20727.78
493.90	20725.44
494.08	21022.69
494.25	21432.29
494.43	21413.56
494.61	21486.12
494.79	21502.50
494.96	21563.36
495.14	21352.71
495.32	21610.17
495.49	21893.37
495.67	21858.26
495.85	22064.23
496.02	21865.28
496.20	22567.45
496.38	22324.03
496.55	22436.38
496.73	22946.61
496.91	22911.50
497.09	22656.39
497.26	23302.37
497.44	23173.64
497.62	23274.29
497.79	23435.78
497.97	23201.73
498.14	23318.76
498.32	23756.44
498.50	23487.28
498.67	24156.67
498.85	24156.67
499.03	24020.92
499.20	24102.84
499.38	24512.43
499.56	24428.17
499.73	24297.10
499.91	24587.33
500.08	24592.01
500.26	24224.54
500.44	24629.46
500.61	24872.87
500.79	24594.35
500.97	25006.28
501.14	25263.74
501.32	25090.54
501.49	25153.74
501.67	25186.50
501.84	25673.34
502.02	25898.03
502.20	25773.98
502.37	26038.46
502.55	25895.69
502.72	26019.74
502.90	26019.74
503.07	25942.50
503.25	26150.81
503.43	26106.34
503.60	26487.84
503.78	26225.70
503.95	26197.62
504.13	26555.72
504.30	26499.55
504.48	26370.82
504.65	26948.93
504.83	26969.99
505.01	26995.74
505.18	27077.66
505.36	27145.53
505.53	27496.61
505.71	27566.83
505.88	27489.59
506.06	27166.60
506.23	27571.51
506.41	27367.88
506.58	27772.80
506.76	27882.80
506.93	27913.23
507.11	27744.71
507.28	27927.27
507.46	27903.87
507.63	28095.79
507.81	28016.21
507.98	27770.46
508.16	28051.32
508.33	28528.79
508.50	28556.88
508.68	28816.68
508.85	28863.49
509.03	28669.22
509.20	28507.72
509.38	28987.53
509.55	29027.32
509.73	29383.09
509.90	29350.32
510.08	29261.38
510.25	29488.41
510.42	29591.39
510.60	29497.77
510.77	29722.46
510.95	29549.26
511.12	29757.57
511.30	29930.77
511.47	29795.02
511.64	30022.05
511.82	30139.08
511.99	30071.20
512.17	30354.41
512.34	30047.80
512.51	30623.57
512.69	30848.26
512.86	30665.70
513.04	30785.07
513.21	30972.31
513.38	30567.40
513.56	30632.93
513.73	30684.42
513.90	31049.55
514.08	30764.00
514.25	31014.44
514.43	30986.35
514.60	30773.36
514.77	31150.19
514.95	31358.50
515.12	31559.78
515.29	31360.84
515.47	31730.64
515.64	31938.95
515.81	31445.10
515.99	31386.58
516.16	32210.45
516.33	31332.75
516.51	31817.24
516.68	31332.75
516.85	31349.14
517.03	32088.74
517.20	31489.57
517.37	31751.71
517.54	32088.74
517.72	32432.80
517.89	32046.62
518.06	32290.03
518.24	32130.87
518.41	32444.51
518.58	32453.87
518.75	32371.95
518.93	33247.31
519.10	32577.92
519.27	32718.35
519.45	32687.92
519.62	33109.22
519.79	33179.43
519.96	33364.34
520.14	33156.03
520.31	33125.60
520.48	33172.41
520.65	33298.80
520.83	33642.86
521.00	33729.46
521.17	33879.25
521.34	33680.31
521.52	33947.13
521.69	34139.05
521.86	34066.50
522.03	34066.50
522.20	34242.04
522.38	34604.82
522.55	34368.43
522.72	34281.83
522.89	34412.90
523.07	34602.48
523.24	34024.37
523.41	35145.48
523.58	34330.98
523.75	34923.13
523.92	34930.16
524.10	34979.31
524.27	35161.87
524.44	34782.70
524.61	34925.47
524.78	35264.85
524.96	34976.97
525.13	35030.80
525.30	35204.00
525.47	35274.21
525.64	35295.28
525.81	35314.00
525.98	35744.66
526.16	35379.54
526.33	35271.87
526.50	35842.96
526.67	35377.20
526.84	35601.89
527.01	35709.55
527.18	35690.83
527.36	35983.40
527.53	35964.67
527.70	36671.51
527.87	36503.00
528.04	36055.95
528.21	36189.36
528.38	36648.11
528.55	36168.30
528.72	36002.12
528.89	36793.22
529.07	36547.47
529.24	36685.56
529.41	36903.23
529.58	36432.78
529.75	36407.03
529.92	36664.49
530.09	36765.14
530.26	36952.38
530.43	36912.59
530.60	36744.07
530.77	37163.03
530.94	36943.02
531.11	37193.45
531.28	36847.05
531.46	37303.46
531.63	37574.96
531.80	36823.65
531.97	37511.77
532.14	37462.61
532.31	37397.08
532.48	37546.87
532.65	37593.68
532.82	37790.29
532.99	37509.43
533.16	37387.72
533.33	37614.75
533.50	37731.78
533.67	37752.84
533.84	37670.92
534.01	37926.04
534.18	37897.95
534.35	38337.98
534.52	37853.48
534.69	38124.99
534.86	38314.57
535.03	37989.24
535.20	38412.87
535.37	38602.46
535.54	38408.19
535.71	38087.54
535.88	38820.13
536.05	38433.94
536.22	38642.24
536.38	38553.30
536.55	38785.02
536.72	38682.03
536.89	38574.37
537.06	38981.62
537.23	38721.82
537.40	38649.27
537.57	39070.56
537.74	38918.43
537.91	39386.54
538.08	39136.10
538.25	38801.40
538.42	39007.37
538.59	39112.69
538.75	39007.37
538.92	39182.91
539.09	39189.93
539.26	39739.96
539.43	39321.00
539.60	39515.26
539.77	39124.40
539.94	39536.33
540.11	39524.63
540.28	39473.13
540.44	39618.25
540.61	39435.69
540.78	39679.10
540.95	39702.51
541.12	39379.51
541.29	39840.60
541.46	39620.59
541.62	39866.34
541.79	39629.95
541.96	39407.60
542.13	39707.19
542.30	39943.58
542.47	40046.57
542.63	40278.28
542.80	40315.73
542.97	40350.84
543.14	40931.29
543.31	40783.83
543.48	40608.29
543.64	40851.71
543.81	40760.43
543.98	40762.77
544.15	40715.96
544.32	40772.13
544.48	41434.50
544.65	41088.10
544.82	41214.49
544.99	40259.55
545.16	40708.94
545.32	40931.29
545.49	41258.96
545.66	41390.03
545.83	41015.55
546.00	41619.41
546.16	41258.96
546.33	40926.61
546.50	40392.97
546.67	41088.10
546.83	40900.86
547.00	41404.08
547.17	41284.71
547.34	41106.83
547.50	41523.44
547.67	41331.52
547.84	41361.95
548.00	41666.22
548.17	41654.51
548.34	41539.83
548.51	41617.07
548.67	41813.67
548.84	41682.60
549.01	41874.52
549.18	41710.69
549.34	41736.43
549.51	42019.64
549.68	41954.10
549.84	41701.32
550.01	42323.91
550.18	41401.74
550.34	42103.90
550.51	41893.25
550.68	42277.10
550.84	41640.47
551.01	42267.73
551.18	42007.94
551.34	42370.72
551.51	41794.95
551.68	42064.11
551.84	42183.48
552.01	42225.60
552.18	42333.27
552.34	42174.11
552.51	42609.45
552.68	42298.16
552.84	42583.71
553.01	42916.06
553.18	42658.60
553.34	42637.54
553.51	42178.79
553.67	42171.77
553.84	43119.69
554.01	42607.11
554.17	42965.21
554.34	42934.79
554.51	42960.53
554.67	43419.28
554.84	42642.22
555.00	42625.84
555.17	42698.39
555.33	43072.88
555.50	42939.47
555.67	42993.30
555.83	42906.70
556.00	42937.13
556.16	43543.33
556.33	43477.79
556.50	43047.13
556.66	43489.49
556.83	42827.12
556.99	43316.29
557.16	42864.57
557.32	43019.05
557.49	43058.84
557.65	43023.73
557.82	42794.36
557.98	43035.43
558.15	43192.25
558.32	43473.11
558.48	43438.00
558.65	43470.77
558.81	43398.21
558.98	43037.77
559.14	43239.06
559.31	43217.99
559.47	43323.32
559.64	44114.42
559.80	43700.14
559.97	43749.29
560.13	43672.06
560.30	43566.73
560.46	43601.84
560.63	43180.54
560.79	43901.43
560.96	43805.47
561.12	43325.66
561.29	43985.69
561.45	43482.47
561.61	43650.99
561.78	43711.84
561.94	43627.59
562.11	43700.14
562.27	43325.66
562.44	44032.50
562.60	43966.96
562.77	43751.63
562.93	43566.73
563.10	43852.28
563.26	43901.43
563.42	43786.74
563.59	43718.87
563.75	43709.50
563.92	44102.71
564.08	44194.00
564.24	44423.37
564.41	43807.81
564.57	43901.43
564.74	43690.78
564.90	44280.60
565.07	44163.57
565.23	43892.07
565.39	44177.61
565.56	44376.56
565.72	44123.78
565.88	44126.12
566.05	43938.88
566.21	44341.45
566.38	43828.87
566.54	43943.56
566.70	44830.62
566.87	44580.18
567.03	44610.61
567.19	44612.95
567.36	44013.77
567.52	44044.20
567.68	44683.17
567.85	44055.90
568.01	43887.39
568.17	43924.83
568.34	44069.95
568.50	44760.40
568.66	44170.59
568.83	44624.65
568.99	44137.82
569.15	44238.47
569.32	44135.48
569.48	44170.59
569.64	44456.14
569.81	44531.03
569.97	44280.60
570.13	44182.29
570.30	44053.56
570.46	43899.09
570.62	44404.64
570.78	44130.80
570.95	44266.55
571.11	44453.79
571.27	44226.76
571.43	44439.75
571.60	44442.09
571.76	44126.12
571.92	44442.09
572.09	44664.44
572.25	44526.35
572.41	44301.66
572.57	44566.14
572.74	44825.94
572.90	44861.05
573.06	44641.04
573.22	44830.62
573.38	44596.57
573.55	44311.02
573.71	45287.03
573.87	44783.81
574.03	44519.33
574.20	44374.22
574.36	44470.18
574.52	44788.49
574.68	44601.25
574.84	44355.49
575.01	44526.35
575.17	44273.57
575.33	43964.62
575.49	44355.49
575.65	45008.50
575.82	45034.25
575.98	44601.25
576.14	44563.80
576.30	44938.29
576.46	44430.39
576.62	44514.65
576.79	44378.90
576.95	43952.92
577.11	44636.36
577.27	45027.23
577.43	44751.04
577.59	44339.11
577.75	44460.82
577.92	44406.98
578.08	44388.26
578.24	44502.95
578.40	44465.50
578.56	44388.26
578.72	44605.93
578.88	44919.56
579.04	44566.14
579.21	44818.92
579.37	44076.97
579.53	44528.69
579.69	44411.67
579.85	44903.18
580.01	44877.43
580.17	44343.79
580.33	44926.58
580.49	44713.59
580.65	44999.14
580.82	44910.20
580.98	44088.67
581.14	44626.99
581.30	44975.73
581.46	44718.28
581.62	44851.69
581.78	44645.72
581.94	44928.92
582.10	44748.70
582.26	44917.22
582.42	44634.02
582.58	44903.18
582.74	44626.99
582.90	44519.33
583.06	44949.99
583.22	44994.46
583.38	45244.90
583.54	44928.92
583.70	45102.12
583.86	44882.11
584.02	44203.36
584.18	44947.65
584.34	44622.31
584.50	45043.61
584.66	44753.38
584.82	44463.16
584.98	44999.14
585.14	44636.36
585.30	44978.07
585.46	44701.89
585.62	44531.03
585.78	44744.02
585.94	44631.68
586.10	44610.61
586.26	44463.16
586.42	45062.33
586.58	44830.62
586.74	44601.25
586.90	44296.98
587.06	44612.95
587.22	44921.90
587.38	44495.92
587.54	45209.79
587.70	44949.99
587.86	44933.60
588.02	44870.41
588.18	44938.29
588.34	44626.99
588.49	44722.96
588.65	44194.00
588.81	44753.38
588.97	44594.23
589.13	44666.78
589.29	44577.84
589.45	44893.82
589.61	44793.17
589.77	44851.69
589.93	44582.52
590.08	44886.79
590.24	44645.72
