SpectraSuite Data File
++++++++++++++++++++++++++++++++++++
Date: Fri Oct 25 10:47:50 EDT 2013
User: price-jones
Dark Spectrum Present: No
Reference Spectrum Present: No
Number of Sampled Component Spectra: 1
Spectrometers: USB2+H05261
Integration Time (usec): 100000 (USB2+H05261)
Spectra Averaged: 1 (USB2+H05261)
Boxcar Smoothing: 0 (USB2+H05261)
Correct for Electrical Dark: No (USB2+H05261)
Strobe/Lamp Enabled: No (USB2+H05261)
Correct for Detector Non-linearity: No (USB2+H05261)
Correct for Stray Light: No (USB2+H05261)
Number of Pixels in Processed Spectrum: 2048
>>>>>Begin Processed Spectral Data<<<<<
365.73	140.43
365.92	140.43
366.12	140.43
366.32	42.13
366.52	51.49
366.72	0.00
366.91	72.56
367.11	7.02
367.31	58.51
367.51	32.77
367.70	16.38
367.90	84.26
368.10	46.81
368.30	44.47
368.49	58.51
368.69	102.98
368.89	74.90
369.09	35.11
369.28	25.75
369.48	58.51
369.68	168.52
369.87	133.41
370.07	135.75
370.27	145.11
370.47	133.41
370.66	355.76
370.86	390.87
371.06	461.09
371.25	463.43
371.45	484.49
371.65	463.43
371.84	458.74
372.04	376.83
372.24	421.30
372.44	395.55
372.63	472.79
372.83	512.58
373.03	503.22
373.22	566.41
373.42	524.28
373.62	521.94
373.81	566.41
374.01	482.15
374.21	526.62
374.40	524.28
374.60	615.56
374.79	564.07
374.99	528.96
375.19	559.39
375.38	582.79
375.58	622.58
375.78	578.11
375.97	519.60
376.17	627.26
376.37	566.41
376.56	629.60
376.76	592.16
376.95	674.07
377.15	608.54
377.35	629.60
377.54	629.60
377.74	622.58
377.93	566.41
378.13	610.88
378.33	683.44
378.52	653.01
378.72	683.44
378.91	648.33
379.11	615.56
379.31	578.11
379.50	573.43
379.70	650.67
379.89	692.80
380.09	697.48
380.28	645.99
380.48	596.84
380.68	596.84
380.87	643.65
381.07	655.35
381.26	767.70
381.46	653.01
381.65	613.22
381.85	657.69
382.04	730.25
382.24	692.80
382.43	711.52
382.63	606.20
382.83	746.63
383.02	755.99
383.22	655.35
383.41	758.33
383.61	681.10
383.80	711.52
384.00	807.48
384.19	748.97
384.39	711.52
384.58	730.25
384.78	842.59
384.97	795.78
385.17	748.97
385.36	798.12
385.56	709.18
385.75	809.83
385.95	830.89
386.14	758.33
386.34	716.20
386.53	863.66
386.72	746.63
386.92	786.42
387.11	812.17
387.31	837.91
387.50	788.76
387.70	828.55
387.89	828.55
388.09	809.83
388.28	814.51
388.48	786.42
388.67	875.36
388.86	903.45
389.06	875.36
389.25	990.05
389.45	905.79
389.64	910.47
389.84	936.21
390.03	980.68
390.22	945.58
390.42	882.38
390.61	968.98
390.81	961.96
391.00	999.41
391.19	1036.86
391.39	976.00
391.58	1006.43
391.78	889.40
391.97	976.00
392.16	1041.54
392.36	1015.79
392.55	945.58
392.75	994.73
392.94	919.83
393.13	968.98
393.33	933.87
393.52	1086.01
393.71	985.37
393.91	1018.13
394.10	1027.50
394.29	1067.28
394.49	1053.24
394.68	1196.01
394.88	1097.71
395.07	1041.54
395.26	1188.99
395.46	1109.41
395.65	1198.35
395.84	1193.67
396.04	1245.16
396.23	1078.99
396.42	1076.65
396.62	1067.28
396.81	1118.78
397.00	1083.67
397.19	1188.99
397.39	1193.67
397.58	1254.53
397.77	1156.22
397.97	1256.87
398.16	1336.45
398.35	1291.98
398.55	1296.66
398.74	1268.57
398.93	1313.04
399.12	1350.49
399.32	1345.81
399.51	1343.47
399.70	1434.75
399.90	1282.61
400.09	1432.41
400.28	1453.47
400.47	1483.90
400.67	1437.09
400.86	1432.41
401.05	1362.19
401.24	1434.75
401.44	1533.05
401.63	1535.39
401.82	1568.16
402.01	1500.28
402.21	1425.39
402.40	1486.24
402.59	1577.52
402.78	1523.69
402.97	1612.63
403.17	1626.67
403.36	1650.08
403.55	1643.06
403.74	1584.54
403.93	1614.97
404.13	1591.56
404.32	1603.27
404.51	1633.69
404.70	1666.46
404.89	1715.61
405.09	1802.21
405.28	1645.40
405.47	1689.87
405.66	1724.97
405.85	1741.36
406.05	1678.16
406.24	1743.70
406.43	1748.38
406.62	1741.36
406.81	1982.43
407.00	1795.19
407.20	1806.89
407.39	1863.07
407.58	1853.70
407.77	1956.69
407.96	1942.64
408.15	2012.86
408.34	1980.09
408.54	2066.69
408.73	1987.11
408.92	2029.24
409.11	2064.35
409.30	2136.91
409.49	1879.45
409.68	2078.40
409.87	2092.44
410.07	2050.31
410.26	2235.21
410.45	2085.42
410.64	2076.06
410.83	2230.53
411.02	2244.57
411.21	2305.43
411.40	2211.81
411.59	2356.92
411.78	2260.96
411.98	2387.35
412.17	2286.70
412.36	2410.75
412.55	2345.22
412.74	2459.90
412.93	2389.69
413.12	2511.39
413.31	2513.74
413.50	2499.69
413.69	2689.28
413.88	2616.72
414.07	2572.25
414.26	2553.52
414.45	2562.89
414.64	2708.00
414.83	2668.21
415.02	2642.46
415.22	2722.04
415.41	2726.72
415.60	2848.43
415.79	2834.39
415.98	2846.09
416.17	2813.32
416.36	2977.16
416.55	2897.58
416.74	2906.95
416.93	2949.08
417.12	2911.63
417.31	2956.10
417.50	3077.80
417.69	3105.89
417.88	3105.89
418.07	3075.46
418.26	3033.33
418.45	3119.93
418.64	3157.38
418.83	3220.58
419.02	3063.76
419.21	3087.17
419.39	3204.19
419.58	3180.79
419.77	3145.68
419.96	3281.43
420.15	3258.03
420.34	3302.50
420.53	3316.54
420.72	3384.41
420.91	3318.88
421.10	3459.31
421.29	3421.86
421.48	3405.48
421.67	3447.61
421.86	3346.97
422.05	3356.33
422.24	3424.20
422.43	3473.36
422.61	3442.93
422.80	3639.53
422.99	3487.40
423.18	3456.97
423.37	3590.38
423.56	3578.68
423.75	3651.24
423.94	3459.31
424.13	3328.24
424.32	3494.42
424.50	3667.62
424.69	3611.45
424.88	3548.25
425.07	3468.67
425.26	3410.16
425.45	3452.29
425.64	3606.77
425.83	3482.72
426.01	3609.11
426.20	3637.19
426.39	3611.45
426.58	3602.08
426.77	3527.19
426.96	3618.47
427.15	3641.87
427.33	3660.60
427.52	3641.87
427.71	3754.22
427.90	3742.52
428.09	3705.07
428.28	3761.24
428.46	3768.26
428.65	3702.73
428.84	3798.69
429.03	3953.16
429.22	3583.36
429.40	3843.16
429.59	3796.35
429.78	3658.26
429.97	3672.30
430.16	3714.43
430.34	3702.73
430.53	3901.67
430.72	3885.29
430.91	3939.12
431.10	3988.27
431.28	4067.85
431.47	4093.60
431.66	4177.86
431.85	4088.92
432.03	4102.96
432.22	4418.93
432.41	4177.86
432.60	4128.70
432.79	4229.35
432.97	4170.83
433.16	4065.51
433.35	4114.66
433.54	4215.30
433.72	4271.48
433.91	4175.52
434.10	4365.10
434.28	4280.84
434.47	4374.46
434.66	4355.74
434.85	4493.83
435.03	4503.19
435.22	4547.66
435.41	4620.22
435.59	4620.22
435.78	4573.41
435.97	4697.46
436.16	4671.71
436.34	4596.81
436.53	4669.37
436.72	4753.63
436.90	4601.49
437.09	4709.16
437.28	4496.17
437.46	4718.52
437.65	4652.98
437.84	4669.37
438.02	4641.28
438.21	4676.39
438.40	4723.20
438.58	4912.78
438.77	4971.30
438.96	4950.23
439.14	4898.74
439.33	4994.70
439.52	5118.75
439.70	5069.60
439.89	5004.07
440.08	5184.29
440.26	5064.92
440.45	5146.84
440.63	5376.21
440.82	5329.40
441.01	5249.82
441.19	5343.44
441.38	5322.38
441.57	5479.19
441.75	5533.03
441.94	5682.82
442.12	5650.05
442.31	5764.74
442.50	5701.54
442.68	5612.60
442.87	5708.57
443.05	5540.05
443.24	5713.25
443.43	5856.02
443.61	5792.83
443.80	6040.92
443.98	5905.17
444.17	5727.29
444.35	5799.85
444.54	5914.53
444.73	5874.74
444.91	5832.62
445.10	5678.14
445.28	5769.42
445.47	5738.99
445.65	5671.12
445.84	5888.79
446.02	5895.81
446.21	6022.20
446.39	5797.51
446.58	5891.13
446.77	5956.66
446.95	5792.83
447.14	6061.99
447.32	6132.20
447.51	6033.90
447.69	6012.84
447.88	5991.77
448.06	5973.05
448.25	6090.07
448.43	6087.73
448.62	5902.83
448.80	6059.65
448.99	6186.04
449.17	6029.22
449.36	6054.97
449.54	6237.53
449.73	6347.53
449.91	6427.11
450.10	6450.52
450.28	6534.78
450.46	6558.18
450.65	6553.50
450.83	6436.47
451.02	6408.39
451.20	6399.02
451.39	6317.11
451.57	6497.33
451.76	6443.49
451.94	6644.78
452.13	6558.18
452.31	6483.28
452.49	6408.39
452.68	6436.47
452.86	6406.05
453.05	6443.49
453.23	6579.25
453.42	6600.31
453.60	6502.01
453.78	6731.38
453.97	6679.89
454.15	6684.57
454.34	6588.61
454.52	6780.53
454.70	6738.40
454.89	6745.42
455.07	6876.49
455.26	6853.09
455.44	6860.11
455.62	6906.92
455.81	6995.86
455.99	6944.37
456.17	7070.76
456.36	7126.93
456.54	6925.65
456.73	6899.90
456.91	7297.79
457.09	7194.81
457.28	7480.35
457.46	7145.66
457.64	7225.23
457.83	7239.28
458.01	7194.81
458.19	7379.71
458.38	7279.07
458.56	7417.16
458.74	7506.10
458.93	7414.82
459.11	7386.73
459.29	7527.16
459.48	7641.85
459.66	7527.16
459.84	7463.97
460.03	7728.45
460.21	7730.79
460.39	7599.72
460.57	7522.48
460.76	7611.42
460.94	7838.45
461.12	7908.67
461.31	7756.54
461.49	7569.29
461.67	7700.36
461.85	8060.80
462.04	8009.31
462.22	8264.43
462.40	8238.69
462.59	7702.70
462.77	7936.76
462.95	7873.56
463.13	7868.88
463.32	7985.91
463.50	8112.30
463.68	8074.85
463.86	7976.55
464.05	7899.31
464.23	8184.85
464.41	8053.78
464.59	8079.53
464.78	8397.84
464.96	8215.28
465.14	7981.23
465.32	8404.86
465.50	8407.20
465.69	8400.18
465.87	8402.52
466.05	8344.01
466.23	8388.48
466.41	8477.42
466.60	8519.55
466.78	8327.63
466.96	8329.97
467.14	8423.59
467.32	8566.36
467.51	8587.43
467.69	8322.94
467.87	8617.85
468.05	8772.33
468.23	8645.94
468.41	8526.57
468.60	8571.04
468.78	8643.60
468.96	8610.83
469.14	8823.82
469.32	8868.29
469.50	8631.90
469.69	8758.28
469.87	8830.84
470.05	8922.12
470.23	8950.21
470.41	8940.85
470.59	9135.11
470.77	8894.04
470.95	9004.04
471.14	9226.39
471.32	9088.30
471.50	9362.14
471.68	9247.46
471.86	9245.12
472.04	9231.07
472.22	9371.50
472.40	9273.20
472.58	9439.38
472.77	9565.77
472.95	9575.13
473.13	9816.21
473.31	9612.58
473.49	9643.01
473.67	9621.94
473.85	9841.95
474.03	9975.36
474.21	9877.06
474.39	10157.92
474.57	9954.30
474.75	9949.62
474.93	10115.80
475.12	10242.18
475.30	10209.42
475.48	10127.50
475.66	10347.51
475.84	10289.00
476.02	10480.92
476.20	10183.67
476.38	10689.23
476.56	10789.87
476.74	10846.04
476.92	10649.44
477.10	10822.64
477.28	11169.04
477.46	11105.84
477.64	11070.73
477.82	11234.57
478.00	11316.49
478.18	11417.13
478.36	11440.54
478.54	11599.70
478.72	11644.17
478.90	11674.59
479.08	11878.22
479.26	11978.86
479.44	12105.25
479.62	12112.27
479.80	11955.46
479.98	12119.29
480.16	12439.95
480.34	12346.33
480.52	12535.91
480.70	12526.55
480.88	12140.36
481.06	12580.38
481.24	12510.16
481.41	12917.42
481.59	13039.12
481.77	13329.35
481.95	13090.62
482.13	13523.62
482.31	13277.86
482.49	13523.62
482.67	13668.73
482.85	13540.00
483.03	13729.58
483.21	14092.37
483.39	13937.89
483.57	13776.39
483.74	14061.94
483.92	14497.28
484.10	14064.28
484.28	14658.78
484.46	14743.03
484.64	14930.28
484.82	14698.56
485.00	14696.22
485.18	15187.74
485.35	15019.22
485.53	15129.22
485.71	15220.50
485.89	15243.91
486.07	15449.88
486.25	15152.63
486.43	15644.14
486.61	15620.74
486.78	15798.62
486.96	15807.98
487.14	16126.29
487.32	16290.13
487.50	16638.87
487.68	16912.71
487.85	16725.47
488.03	17022.72
488.21	17263.79
488.39	17200.60
488.57	17521.25
488.75	17476.78
488.92	17612.53
489.10	17671.04
489.28	17823.18
489.46	18143.83
489.64	17841.90
489.81	18242.14
489.99	18466.83
490.17	18457.46
490.35	18691.52
490.53	18473.85
490.70	18689.18
490.88	18618.96
491.06	19115.16
491.24	19019.19
491.41	18895.14
491.59	19122.18
491.77	18897.49
491.95	19131.54
492.13	19573.90
492.30	19962.43
492.48	20114.56
492.66	19999.88
492.84	20126.27
493.01	20353.30
493.19	20379.04
493.37	20397.77
493.54	20355.64
493.72	20723.10
493.90	20783.96
494.08	21022.69
494.25	21223.98
494.43	21123.33
494.61	21273.13
494.79	21446.33
494.96	21582.08
495.14	21425.26
495.32	21785.71
495.49	21598.46
495.67	22050.19
495.85	21741.24
496.02	22160.19
496.20	22356.80
496.38	22277.22
496.55	22501.91
496.73	23080.02
496.91	22796.82
497.09	23143.22
497.26	23332.80
497.44	22991.08
497.62	23250.88
497.79	23246.20
497.97	23484.94
498.14	23564.51
498.32	23473.23
498.50	23604.30
498.67	23768.14
498.85	24383.70
499.03	24051.34
499.20	24013.90
499.38	24383.70
499.56	24320.51
499.73	24510.09
499.91	24561.58
500.08	24783.93
500.26	24507.75
500.44	24444.56
500.61	24779.25
500.79	24486.68
500.97	25003.94
501.14	25142.03
501.32	25062.46
501.49	25158.42
501.67	25371.41
501.84	25273.10
502.02	25462.69
502.20	25771.64
502.37	25579.71
502.55	25893.35
502.72	26265.49
502.90	25947.18
503.07	25881.64
503.25	26136.76
503.43	25919.09
503.60	26309.96
503.78	26122.72
503.95	26302.94
504.13	26401.24
504.30	27042.55
504.48	26448.05
504.65	26635.30
504.83	27035.53
505.01	26955.95
505.18	26960.63
505.36	27281.28
505.53	27304.69
505.71	27463.85
505.88	27557.47
506.06	27051.91
506.23	27744.71
506.41	27234.47
506.58	27646.41
506.76	27683.86
506.93	27927.27
507.11	27520.02
507.28	27751.73
507.46	27887.48
507.63	28112.17
507.81	28325.16
507.98	28070.04
508.16	28364.95
508.33	28594.32
508.50	28423.47
508.68	28418.78
508.85	28788.59
509.03	28664.54
509.20	28950.09
509.38	29116.26
509.55	29275.42
509.73	28854.12
509.90	29261.38
510.08	29340.96
510.25	29179.46
510.42	29434.58
510.60	29703.74
510.77	29745.87
510.95	29539.90
511.12	29626.50
511.30	29420.53
511.47	30153.12
511.64	30192.91
511.82	30532.29
511.99	29752.89
512.17	29867.58
512.34	29811.40
512.51	30160.14
512.69	30684.42
512.86	30501.86
513.04	30525.27
513.21	30754.64
513.38	30314.62
513.56	30693.79
513.73	30693.79
513.90	31042.53
514.08	31002.74
514.25	30752.30
514.43	30937.20
514.60	30824.86
514.77	31239.13
514.95	31407.65
515.12	31126.78
515.29	31419.35
515.47	31590.21
515.64	31880.44
515.81	31889.80
515.99	31728.30
516.16	31800.86
516.33	31632.34
516.51	31681.49
516.68	31435.74
516.85	31402.97
517.03	31826.60
517.20	31775.11
517.37	31896.82
517.54	32479.61
517.72	32177.68
517.89	32451.53
518.06	32474.93
518.24	32147.26
518.41	32119.17
518.58	32325.14
518.75	32027.89
518.93	32907.93
519.10	32818.99
519.27	32947.72
519.45	32905.59
519.62	33139.65
519.79	33041.34
519.96	33090.49
520.14	33441.57
520.31	33263.69
520.48	33415.83
520.65	33827.76
520.83	34209.27
521.00	33771.59
521.17	33488.38
521.34	33551.58
521.52	33823.08
521.69	33979.90
521.86	34478.43
522.03	33956.49
522.20	33965.85
522.38	34071.18
522.55	34469.07
522.72	33998.62
522.89	34260.76
523.07	34417.58
523.24	34529.92
523.41	34443.32
523.58	34349.70
523.75	34527.58
523.92	34569.71
524.10	34848.24
524.27	35199.32
524.44	35047.18
524.61	34906.75
524.78	35117.40
524.96	35246.13
525.13	35365.49
525.30	35711.89
525.47	35470.82
525.64	35562.10
525.81	34836.53
525.98	35592.53
526.16	35154.85
526.33	35232.08
526.50	35700.19
526.67	35384.22
526.84	35421.67
527.01	35061.22
527.18	35723.60
527.36	35938.93
527.53	35819.56
527.70	36168.30
527.87	36032.55
528.04	36023.19
528.21	36498.31
528.38	36168.30
528.55	36346.18
528.72	36325.11
528.89	36608.32
529.07	36603.64
529.24	36458.52
529.41	36765.14
529.58	36830.67
529.75	36683.22
529.92	37106.85
530.09	37172.39
530.26	37270.69
530.43	37067.06
530.60	36648.11
530.77	37041.32
530.94	37368.99
531.11	37343.25
531.28	37476.66
531.46	37467.30
531.63	37324.52
531.80	37219.20
531.97	37244.94
532.14	37397.08
532.31	37347.93
532.48	37205.16
532.65	37989.24
532.82	37605.39
532.99	38026.68
533.16	37614.75
533.33	37724.75
533.50	38050.09
533.67	37574.96
533.84	37525.81
534.01	37846.46
534.18	37729.44
534.35	38253.72
534.52	38052.43
534.69	37848.80
534.86	38382.45
535.03	38017.32
535.20	38487.77
535.37	38951.20
535.54	38895.02
535.71	38504.15
535.88	38712.46
536.05	38197.54
536.22	38691.40
536.38	38504.15
536.55	38782.68
536.72	38679.69
536.89	38440.96
537.06	38778.00
537.23	38822.47
537.40	38794.38
537.57	38895.02
537.74	39164.18
537.91	39335.04
538.08	39225.04
538.25	38586.07
538.42	39515.26
538.59	39313.98
538.75	38951.20
538.92	38733.53
539.09	39269.51
539.26	39037.80
539.43	39421.64
539.60	39744.64
539.77	39100.99
539.94	39440.37
540.11	39735.27
540.28	39133.76
540.44	39206.31
540.61	39363.13
540.78	39323.34
540.95	39452.07
541.12	39337.38
541.29	39494.20
541.46	39536.33
541.62	39672.08
541.79	40135.51
541.96	39590.16
542.13	40109.76
542.30	40086.36
542.47	40282.96
542.63	40196.36
542.80	40498.29
542.97	40275.94
543.14	40699.58
543.31	40533.40
543.48	40741.71
543.64	40961.72
543.81	40500.63
543.98	40596.59
544.15	40488.93
544.32	41074.06
544.48	40961.72
544.65	40987.46
544.82	40399.99
544.99	40467.86
545.16	40905.54
545.32	40336.79
545.49	40954.69
545.66	41041.29
545.83	41284.71
546.00	41504.72
546.16	41212.15
546.33	41029.59
546.50	40615.32
546.67	41319.82
546.83	41099.81
547.00	40957.03
547.17	40919.59
547.34	41329.18
547.50	41373.65
547.67	41476.63
547.84	41610.04
548.00	41759.84
548.17	41544.51
548.34	41837.08
548.51	41689.62
548.67	41982.19
548.84	41766.86
549.01	41476.63
549.18	41453.23
549.34	41696.64
549.51	41890.91
549.68	42054.75
549.84	41874.52
550.01	42057.09
550.18	41748.14
550.34	41837.08
550.51	41841.76
550.68	41975.17
550.84	41364.29
551.01	42103.90
551.18	42019.64
551.34	42005.59
551.51	41970.49
551.68	42110.92
551.84	42192.84
552.01	41911.97
552.18	42272.42
552.34	41869.84
552.51	42714.78
552.68	42497.11
552.84	42742.86
553.01	42450.30
553.18	42630.52
553.34	42447.96
553.51	42286.46
553.67	42939.47
553.84	42871.59
554.01	42553.28
554.17	42873.93
554.34	42674.99
554.51	42590.73
554.67	43276.51
554.84	42534.56
555.00	42637.54
555.17	42513.49
555.33	42932.45
555.50	42841.17
555.67	43157.14
555.83	42625.84
556.00	43068.20
556.16	43662.69
556.33	43215.65
556.50	43049.47
556.66	43648.65
556.83	43026.07
556.99	43107.99
557.16	43318.64
557.32	43398.21
557.49	43409.92
557.65	42527.53
557.82	42983.94
557.98	42850.53
558.15	42897.34
558.32	43442.68
558.48	43206.29
558.65	43079.90
558.81	43524.60
558.98	43194.59
559.14	43440.34
559.31	43627.59
559.47	43756.32
559.64	43863.98
559.80	43597.16
559.97	43697.80
560.13	43316.29
560.30	43295.23
560.46	43716.53
560.63	43447.36
560.79	43648.65
560.96	43594.82
561.12	43566.73
561.29	43428.64
561.45	43971.64
561.61	43906.11
561.78	43676.74
561.94	43569.07
562.11	43693.12
562.27	43604.18
562.44	43845.26
562.60	43761.00
562.77	43985.69
562.93	43711.84
563.10	44325.07
563.26	43599.50
563.42	43847.60
563.59	43957.60
563.75	43981.01
563.92	44409.32
564.08	43927.17
564.24	44404.64
564.41	44130.80
564.57	44140.16
564.74	43950.58
564.90	44364.85
565.07	43988.03
565.23	43770.36
565.39	43559.71
565.56	44252.51
565.72	43997.39
565.88	44081.65
566.05	44179.95
566.21	44229.10
566.38	43693.12
566.54	44404.64
566.70	44055.90
566.87	44418.69
567.03	44268.89
567.19	44603.59
567.36	44289.96
567.52	44037.18
567.68	44416.35
567.85	43962.28
568.01	44676.15
568.17	44540.39
568.34	44156.55
568.50	43810.15
568.66	44325.07
568.83	44509.97
568.99	44062.93
569.15	44175.27
569.32	44259.53
569.48	44320.38
569.64	44580.18
569.81	44509.97
569.97	43859.30
570.13	44107.40
570.30	43814.83
570.46	44121.44
570.62	43988.03
570.78	44341.45
570.95	44561.46
571.11	44828.28
571.27	43917.81
571.43	44484.22
571.60	44397.62
571.76	44069.95
571.92	44121.44
572.09	44437.41
572.25	44238.47
572.41	44322.72
572.57	44243.15
572.74	44713.59
572.90	44711.25
573.06	44521.67
573.22	44289.96
573.38	44507.63
573.55	44282.94
573.71	44774.45
573.87	44418.69
574.03	44278.25
574.20	44626.99
574.36	44453.79
574.52	44711.25
574.68	44538.05
574.84	44137.82
575.01	44765.09
575.17	44451.45
575.33	44385.92
575.49	44313.36
575.65	44858.71
575.82	44645.72
575.98	44456.14
576.14	44942.97
576.30	44821.26
576.46	44357.83
576.62	44025.48
576.79	44390.60
576.95	44039.52
577.11	44346.13
577.27	44516.99
577.43	44715.93
577.59	45031.91
577.75	44552.10
577.92	44341.45
578.08	44259.53
578.24	44294.64
578.40	44402.30
578.56	44392.94
578.72	44493.58
578.88	44446.77
579.04	44456.14
579.21	44521.67
579.37	44287.62
579.53	44547.42
579.69	44580.18
579.85	44516.99
580.01	44360.17
580.17	44732.32
580.33	44924.24
580.49	44765.09
580.65	45102.12
580.82	44577.84
580.98	44479.54
581.14	44430.39
581.30	44893.82
581.46	44751.04
581.62	44779.13
581.78	44701.89
581.94	45010.84
582.10	44868.07
582.26	45020.20
582.42	44765.09
582.58	45001.48
582.74	44809.56
582.90	44568.48
583.06	45022.54
583.22	44603.59
583.38	44465.50
583.54	44451.45
583.70	44825.94
583.86	44540.39
584.02	44247.83
584.18	44818.92
584.34	44949.99
584.50	45043.61
584.66	44861.05
584.82	44746.36
584.98	45001.48
585.14	44818.92
585.30	44598.91
585.46	44486.56
585.62	44477.20
585.78	44378.90
585.94	44575.50
586.10	44369.54
586.26	44612.95
586.42	45109.14
586.58	45008.50
586.74	44896.16
586.90	44704.23
587.06	44275.91
587.22	44877.43
587.38	44708.91
587.54	44921.90
587.70	44783.81
587.86	44954.67
588.02	45242.56
588.18	44949.99
588.34	45057.65
588.49	44839.98
588.65	44538.05
588.81	44622.31
588.97	44694.87
589.13	44734.66
589.29	44900.84
589.45	44711.25
589.61	44711.25
589.77	45048.29
589.93	44758.06
590.08	44751.04
590.24	45258.94
