SpectraSuite Data File
++++++++++++++++++++++++++++++++++++
Date: Fri Oct 25 11:25:40 EDT 2013
User: price-jones
Dark Spectrum Present: No
Reference Spectrum Present: No
Number of Sampled Component Spectra: 1
Spectrometers: USB2+H05261
Integration Time (usec): 100000 (USB2+H05261)
Spectra Averaged: 1 (USB2+H05261)
Boxcar Smoothing: 0 (USB2+H05261)
Correct for Electrical Dark: No (USB2+H05261)
Strobe/Lamp Enabled: No (USB2+H05261)
Correct for Detector Non-linearity: No (USB2+H05261)
Correct for Stray Light: No (USB2+H05261)
Number of Pixels in Processed Spectrum: 2048
>>>>>Begin Processed Spectral Data<<<<<
365.73	222.35
365.92	222.35
366.12	222.35
366.32	114.69
366.52	170.86
366.72	138.09
366.91	173.20
367.11	156.82
367.31	102.98
367.51	131.07
367.70	170.86
367.90	133.41
368.10	74.90
368.30	191.92
368.49	91.28
368.69	184.90
368.89	173.20
369.09	191.92
369.28	205.97
369.48	145.11
369.68	184.90
369.87	236.39
370.07	131.07
370.27	212.99
370.47	365.12
370.66	550.03
370.86	667.05
371.06	671.73
371.25	690.46
371.45	683.44
371.65	760.67
371.84	711.52
372.04	727.91
372.24	704.50
372.44	732.59
372.63	788.76
372.83	772.38
373.03	791.10
373.22	653.01
373.42	765.36
373.62	828.55
373.81	755.99
374.01	765.36
374.21	802.80
374.40	828.55
374.60	854.30
374.79	863.66
374.99	725.57
375.19	844.93
375.38	840.25
375.58	863.66
375.78	858.98
375.97	915.15
376.17	877.70
376.37	842.59
376.56	908.13
376.76	891.74
376.95	863.66
377.15	854.30
377.35	891.74
377.54	933.87
377.74	863.66
377.93	943.24
378.13	957.28
378.33	1036.86
378.52	947.92
378.72	961.96
378.91	1062.60
379.11	875.36
379.31	985.37
379.50	961.96
379.70	1018.13
379.89	973.66
380.09	980.68
380.28	964.30
380.48	978.34
380.68	992.39
380.87	973.66
381.07	978.34
381.26	1025.15
381.46	997.07
381.65	1020.47
381.85	1001.75
382.04	1041.54
382.24	945.58
382.43	1046.22
382.63	1076.65
382.83	1020.47
383.02	1109.41
383.22	1217.08
383.41	1118.78
383.61	1036.86
383.80	1097.71
384.00	1139.84
384.19	1193.67
384.39	1186.65
384.58	1116.44
384.78	1104.73
384.97	1158.57
385.17	1228.78
385.36	1132.82
385.56	1181.97
385.75	1245.16
385.95	1128.14
386.14	1221.76
386.34	1205.38
386.53	1181.97
386.72	1217.08
386.92	1167.93
387.11	1210.06
387.31	1294.32
387.50	1198.35
387.70	1203.04
387.89	1294.32
388.09	1331.76
388.28	1228.78
388.48	1277.93
388.67	1303.68
388.86	1329.42
389.06	1266.23
389.25	1336.45
389.45	1277.93
389.64	1322.40
389.84	1299.00
390.03	1263.89
390.22	1334.11
390.42	1329.42
390.61	1348.15
390.81	1378.58
391.00	1291.98
391.19	1345.81
391.39	1366.87
391.58	1544.75
391.78	1549.43
391.97	1577.52
392.16	1523.69
392.36	1493.26
392.55	1437.09
392.75	1603.27
392.94	1486.24
393.13	1516.67
393.33	1521.35
393.52	1535.39
393.71	1547.09
393.91	1598.59
394.10	1549.43
394.29	1605.61
394.49	1598.59
394.68	1591.56
394.88	1582.20
395.07	1556.46
395.26	1776.47
395.46	1603.27
395.65	1741.36
395.84	1624.33
396.04	1748.38
396.23	1809.23
396.42	1778.81
396.62	1736.68
396.81	1825.62
397.00	1734.34
397.19	1783.49
397.39	1746.04
397.58	1834.98
397.77	1792.85
397.97	1748.38
398.16	1844.34
398.35	1853.70
398.55	1743.70
398.74	1914.56
398.93	1930.94
399.12	1863.07
399.32	1961.37
399.51	1935.62
399.70	1930.94
399.90	1874.77
400.09	1991.80
400.28	2062.01
400.47	2005.84
400.67	2062.01
400.86	2146.27
401.05	2073.71
401.24	2050.31
401.44	2071.37
401.63	2073.71
401.82	2127.55
402.01	2113.50
402.21	2087.76
402.40	2237.55
402.59	2179.04
402.78	2197.76
402.97	2197.76
403.17	2221.17
403.36	2300.75
403.55	2275.00
403.74	2312.45
403.93	2431.82
404.13	2345.22
404.32	2291.38
404.51	2251.60
404.70	2307.77
404.89	2349.90
405.09	2469.27
405.28	2387.35
405.47	2429.48
405.66	2520.76
405.85	2408.41
406.05	2441.18
406.24	2487.99
406.43	2600.34
406.62	2567.57
406.81	2619.06
407.00	2420.11
407.20	2537.14
407.39	2616.72
407.58	2633.10
407.77	2677.57
407.96	2754.81
408.15	2626.08
408.34	2722.04
408.54	2715.02
408.73	2670.55
408.92	2813.32
409.11	2808.64
409.30	2878.86
409.49	2923.33
409.68	2829.71
409.87	2925.67
410.07	2991.20
410.26	2956.10
410.45	2925.67
410.64	3136.32
410.83	3026.31
411.02	3030.99
411.21	3110.57
411.40	3005.25
411.59	3190.15
411.78	3124.62
411.98	3143.34
412.17	3410.16
412.36	3372.71
412.55	3265.05
412.74	3545.91
412.93	3309.52
413.12	3377.39
413.31	3485.06
413.50	3393.78
413.69	3527.19
413.88	3634.85
414.07	3625.49
414.26	3658.26
414.45	3590.38
414.64	3576.34
414.83	3665.28
415.02	3751.88
415.22	3847.84
415.41	3857.20
415.60	3829.12
415.79	3995.29
415.98	3999.98
416.17	3920.40
416.36	3878.27
416.55	3971.89
416.74	4142.75
416.93	4067.85
417.12	4046.79
417.31	4056.15
417.50	4025.72
417.69	4236.37
417.88	4086.58
418.07	4168.49
418.26	4278.50
418.45	4397.87
418.64	4308.93
418.83	4383.82
419.02	4437.66
419.21	4507.87
419.39	4458.72
419.58	4437.66
419.77	4386.16
419.96	4557.02
420.15	4447.02
420.34	4526.60
420.53	4475.10
420.72	4685.75
420.91	4533.62
421.10	4704.48
421.29	4730.22
421.48	4664.69
421.67	4734.90
421.86	4713.84
422.05	4690.43
422.24	4652.98
422.43	4746.61
422.61	4772.35
422.80	4985.34
422.99	4933.85
423.18	4915.12
423.37	5029.81
423.56	5050.88
423.75	4837.89
423.94	4826.18
424.13	4383.82
424.32	4622.56
424.50	4922.15
424.69	5067.26
424.88	5085.98
425.07	4933.85
425.26	4847.25
425.45	4994.70
425.64	4966.62
425.83	4887.04
426.01	5020.45
426.20	5001.72
426.39	5081.30
426.58	5057.90
426.77	5020.45
426.96	5144.50
427.15	5121.09
427.33	5069.60
427.52	5195.99
427.71	5107.05
427.90	5132.79
428.09	5249.82
428.28	5479.19
428.46	5376.21
428.65	5228.76
428.84	5551.75
429.03	5612.60
429.22	5324.72
429.40	5390.25
429.59	5469.83
429.78	5357.49
429.97	5219.39
430.16	5528.35
430.34	5509.62
430.53	5509.62
430.72	5507.28
430.91	5631.33
431.10	5633.67
431.28	5617.29
431.47	5701.54
431.66	5661.76
431.85	5757.72
432.03	5942.62
432.22	5905.17
432.41	5813.89
432.60	5870.06
432.79	5811.55
432.97	5799.85
433.16	5930.92
433.35	5832.62
433.54	6111.14
433.72	6073.69
433.91	5870.06
434.10	6005.81
434.28	6108.80
434.47	6125.18
434.66	6235.19
434.85	6235.19
435.03	6279.66
435.22	6324.13
435.41	6436.47
435.59	6459.88
435.78	6527.75
435.97	6401.37
436.16	6462.22
436.34	6354.55
436.53	6445.84
436.72	6544.14
436.90	6406.05
437.09	6705.63
437.28	6452.86
437.46	6558.18
437.65	6450.52
437.84	6780.53
438.02	6511.37
438.21	6696.27
438.40	6717.34
438.58	6729.04
438.77	7098.84
438.96	6874.15
439.14	6913.94
439.33	7250.98
439.52	7211.19
439.70	7171.40
439.89	7162.04
440.08	7309.49
440.26	7169.06
440.45	7318.86
440.63	7508.44
440.82	7609.08
441.01	7442.90
441.19	7375.03
441.38	7716.75
441.57	7803.35
441.75	7585.68
441.94	7908.67
442.12	7892.29
442.31	7777.60
442.50	7864.20
442.68	7838.45
442.87	7939.10
443.05	8187.19
443.24	8208.26
443.43	8021.02
443.61	8081.87
443.80	8421.25
443.98	8002.29
444.17	7887.61
444.35	8170.81
444.54	8292.52
444.73	8311.24
444.91	8416.57
445.10	8224.64
445.28	8299.54
445.47	8250.39
445.65	8177.83
445.84	8313.58
446.02	8486.78
446.21	8344.01
446.39	8482.10
446.58	8430.61
446.77	8273.79
446.95	8177.83
447.14	8360.39
447.32	8454.02
447.51	8526.57
447.69	8416.57
447.88	8627.21
448.06	8400.18
448.25	8470.40
448.43	8432.95
448.62	8587.43
448.80	8468.06
448.99	8697.43
449.17	8599.13
449.36	8461.04
449.54	8795.73
449.73	8807.44
449.91	9036.81
450.10	8978.30
450.28	9078.94
450.46	8997.02
450.65	8912.76
450.83	8889.35
451.02	8802.75
451.20	9394.91
451.39	9041.49
451.57	9022.77
451.76	9067.24
451.94	8954.89
452.13	9027.45
452.31	9287.25
452.49	9142.13
452.68	9179.58
452.86	9242.78
453.05	9254.48
453.23	9268.52
453.42	9280.22
453.60	9291.93
453.78	9247.46
453.97	9444.06
454.15	9481.51
454.34	9334.06
454.52	9687.48
454.70	9767.06
454.89	9554.07
455.07	9551.73
455.26	9628.96
455.44	9820.89
455.62	9926.21
455.81	9633.64
455.99	9954.30
456.17	9980.04
456.36	10015.15
456.54	10104.09
456.73	10410.70
456.91	10272.61
457.09	10270.27
457.28	10356.87
457.46	10108.77
457.64	10548.79
457.83	10193.03
458.01	10340.49
458.19	10651.78
458.38	10333.47
458.56	10501.98
458.74	10635.39
458.93	10525.39
459.11	10569.86
459.29	10661.14
459.48	10906.90
459.66	10740.72
459.84	10829.66
460.03	10874.13
460.21	10888.17
460.39	10803.91
460.57	10794.55
460.76	11108.18
460.94	11094.14
461.12	11098.82
461.31	11157.33
461.49	11110.52
461.67	10939.66
461.85	11407.77
462.04	11143.29
462.22	11587.99
462.40	11630.12
462.59	11592.67
462.77	11428.84
462.95	11796.30
463.13	11407.77
463.32	11477.99
463.50	11482.67
463.68	11700.34
463.86	11676.93
464.05	11733.11
464.23	11648.85
464.41	11878.22
464.59	11676.93
464.78	11779.92
464.96	11850.13
465.14	11646.51
465.32	11922.69
465.50	12037.38
465.69	12109.93
465.87	11964.82
466.05	11974.18
466.23	11978.86
466.41	11929.71
466.60	12236.32
466.78	11899.28
466.96	12112.27
467.14	12145.04
467.32	12126.32
467.51	12334.62
467.69	11976.52
467.87	12453.99
468.05	12664.64
468.23	12362.71
468.41	12332.28
468.60	12477.40
468.78	12608.47
468.96	12332.28
469.14	12786.35
469.32	13149.13
469.50	12393.14
469.69	12985.29
469.87	12828.48
470.05	13125.72
470.23	13053.17
470.41	13083.59
470.59	13219.35
470.77	13282.54
470.95	13144.45
471.14	13422.97
471.32	13090.62
471.50	13650.00
471.68	13362.12
471.86	13315.31
472.04	13373.82
472.22	13778.73
472.40	13687.45
472.58	13568.09
472.77	13877.04
472.95	14090.02
473.13	14717.29
473.31	14038.53
473.49	14094.71
473.67	13949.59
473.85	14012.79
474.03	14427.06
474.21	14635.37
474.39	14354.51
474.57	14490.26
474.75	14923.26
474.93	14839.00
475.12	14860.06
475.30	15161.99
475.48	15042.62
475.66	14803.89
475.84	14949.00
476.02	15562.22
476.20	15136.24
476.38	15630.10
476.56	16212.89
476.74	15901.60
476.92	15974.16
477.10	15681.59
477.28	16215.23
477.46	16100.55
477.64	16453.97
477.82	16493.76
478.00	16762.92
478.18	16816.75
478.36	16903.35
478.54	16931.44
478.72	17078.89
478.90	17095.27
479.08	17460.40
479.26	17518.91
479.44	17472.10
479.62	17439.33
479.80	17982.34
479.98	18071.28
480.16	18567.47
480.34	18326.39
480.52	18705.56
480.70	18710.24
480.88	18333.42
481.06	18689.18
481.24	18518.32
481.41	19082.39
481.59	19168.99
481.77	19419.42
481.95	19424.11
482.13	19576.24
482.31	19578.58
482.49	19791.57
482.67	20374.36
482.85	20430.54
483.03	20680.97
483.21	20723.10
483.39	20772.25
483.57	20617.78
483.74	20456.28
483.92	21516.54
484.10	21266.11
484.28	21635.91
484.46	21799.75
484.64	22199.98
484.82	22192.96
485.00	22115.72
485.18	22640.00
485.35	22710.22
485.53	22885.76
485.71	22937.25
485.89	23468.55
486.07	23023.85
486.25	23316.42
486.43	23735.37
486.61	23552.81
486.78	23955.38
486.96	23796.23
487.14	24350.93
487.32	24828.40
487.50	24636.48
487.68	24931.39
487.85	25366.73
488.03	25399.49
488.21	25668.66
488.39	25678.02
488.57	25827.81
488.75	25947.18
488.92	26263.15
489.10	26398.90
489.28	26700.83
489.46	27030.85
489.64	26761.69
489.81	27353.84
489.99	27424.06
490.17	27683.86
490.35	28011.53
490.53	28095.79
490.70	28201.11
490.88	28257.29
491.06	28460.91
491.24	28755.82
491.41	29015.62
491.59	28936.04
491.77	28709.01
491.95	29755.23
492.13	29525.86
492.30	29942.47
492.48	30045.46
492.66	29914.39
492.84	30452.71
493.01	30478.46
493.19	30249.08
493.37	30773.36
493.54	30817.83
493.72	31250.83
493.90	31264.88
494.08	31489.57
494.25	31718.94
494.43	31784.48
494.61	32002.14
494.79	32369.61
494.96	32072.36
495.14	32140.24
495.32	32818.99
495.49	32788.56
495.67	32929.00
495.85	33371.36
496.02	33703.71
496.20	34071.18
496.38	33577.33
496.55	34117.99
496.73	34586.10
496.91	34438.64
497.09	34345.02
497.26	34518.22
497.44	34635.25
497.62	35012.07
497.79	35688.49
497.97	35311.66
498.14	35686.15
498.32	35821.90
498.50	36060.63
498.67	36332.14
498.85	36320.43
499.03	36271.28
499.20	36217.45
499.38	36498.31
499.56	36500.65
499.73	36919.61
499.91	37125.58
500.08	37366.65
500.26	37319.84
500.44	37467.30
500.61	37366.65
500.79	37420.48
500.97	37837.10
501.14	38452.66
501.32	38040.73
501.49	38691.40
501.67	38122.65
501.84	38974.60
502.02	38478.41
502.20	38841.19
502.37	39182.91
502.55	38532.24
502.72	39063.54
502.90	39098.65
503.07	39096.31
503.25	39751.66
503.43	39255.46
503.60	39746.98
503.78	40027.84
503.95	39894.43
504.13	40407.01
504.30	40095.72
504.48	40032.52
504.65	40411.69
504.83	41294.07
505.01	41357.27
505.18	40814.26
505.36	41280.03
505.53	41179.39
505.71	40898.52
505.88	41230.88
506.06	41123.21
506.23	42117.94
506.41	41544.51
506.58	42286.46
506.76	41813.67
506.93	41991.55
507.11	42094.53
507.28	42323.91
507.46	42160.07
507.63	42838.83
507.81	42880.95
507.98	42623.50
508.16	43014.37
508.33	42902.02
508.50	43217.99
508.68	43086.92
508.85	43674.40
509.03	43463.75
509.20	43662.69
509.38	44210.38
509.55	44385.92
509.73	44318.04
509.90	44610.61
510.08	44357.83
510.25	44357.83
510.42	44512.31
510.60	44442.09
510.77	44802.53
510.95	44718.28
511.12	44842.32
511.30	44797.85
511.47	45439.16
511.64	45343.20
511.82	45244.90
511.99	45490.65
512.17	45415.76
512.34	45752.79
512.51	46375.37
512.69	45837.05
512.86	46230.26
513.04	46375.37
513.21	46485.38
513.38	46384.74
513.56	46799.01
513.73	46534.53
513.90	46740.50
514.08	46396.44
514.25	46946.47
514.43	46862.21
514.60	47271.80
514.77	47082.22
514.95	47412.23
515.12	47384.15
515.29	47140.73
515.47	47784.38
515.64	47646.29
515.81	47693.10
515.99	48020.77
516.16	48076.94
516.33	48004.39
516.51	48657.40
516.68	47922.47
516.85	48231.42
517.03	48797.83
517.20	48533.35
517.37	48736.98
517.54	48451.43
517.72	48755.70
517.89	49066.99
518.06	49102.10
518.24	49123.16
518.41	49059.97
518.58	49251.89
518.75	49069.33
518.93	49298.70
519.10	49113.80
519.27	49184.02
519.45	49661.49
519.62	49457.86
519.79	49413.39
519.96	49996.18
520.14	49846.39
520.31	49972.78
520.48	50068.74
520.65	50232.58
520.83	49895.54
521.00	50607.06
521.17	50183.43
521.34	50639.83
521.52	50705.37
521.69	50478.33
521.86	50983.89
522.03	50632.81
522.20	50995.59
522.38	51056.45
522.55	51098.58
522.72	51093.89
522.89	51337.31
523.07	51290.50
523.24	51185.18
523.41	51412.21
523.58	51250.71
523.75	51517.53
523.92	51412.21
524.10	51491.79
524.27	51627.54
524.44	51833.50
524.61	52259.48
524.78	51648.60
524.96	51983.30
525.13	51987.98
525.30	52287.57
525.47	52554.39
525.64	52060.54
525.81	52526.30
525.98	52615.24
526.16	52275.87
526.33	52673.76
526.50	52673.76
526.67	52495.88
526.84	52678.44
527.01	52516.94
527.18	52804.83
527.36	52673.76
527.53	52783.76
527.70	53162.93
527.87	53022.50
528.04	53043.56
528.21	53279.96
528.38	53158.25
528.55	53256.55
528.72	53076.33
528.89	53127.82
529.07	53352.51
529.24	53305.70
529.41	53432.09
529.58	53329.11
529.75	53556.14
529.92	53303.36
530.09	53701.25
530.26	53748.06
530.43	54057.01
530.60	53703.59
530.77	53645.08
530.94	54007.86
531.11	53848.71
531.28	54073.40
531.46	53822.96
531.63	54033.61
531.80	53879.13
531.97	54199.79
532.14	54274.68
532.31	54057.01
532.48	54192.76
532.65	54443.20
532.82	54284.04
532.99	54525.12
533.16	54457.24
533.33	54555.55
533.50	54808.32
533.67	54440.86
533.84	54424.48
534.01	54782.58
534.18	54906.63
534.35	54915.99
534.52	54862.16
534.69	54946.42
534.86	55131.32
535.03	54958.12
535.20	55093.87
535.37	55121.96
535.54	55145.36
535.71	55136.00
535.88	55199.19
536.05	55276.43
536.22	55395.80
536.38	55318.56
536.55	55320.90
536.72	55440.27
536.89	55246.00
537.06	55159.41
537.23	55503.46
537.40	55461.33
537.57	55662.62
537.74	55550.27
537.91	56046.47
538.08	55627.51
538.25	55554.96
538.42	55845.18
538.59	55877.95
538.75	55669.64
538.92	55866.25
539.09	56179.88
539.26	55831.14
539.43	55924.76
539.60	56353.08
539.77	56271.16
539.94	56378.82
540.11	56112.00
540.28	56278.18
540.44	56055.83
540.61	56378.82
540.78	56224.35
540.95	56240.73
541.12	56315.63
541.29	56285.20
541.46	56493.51
541.62	56528.62
541.79	56542.66
541.96	56355.42
542.13	56327.33
542.30	56493.51
542.47	56804.80
542.63	56589.47
542.80	56676.07
542.97	57123.11
543.14	57244.82
543.31	56900.76
543.48	56889.06
543.64	57310.36
543.81	57169.93
543.98	57158.22
544.15	57127.80
544.32	57298.65
544.48	57368.87
544.65	57265.89
544.82	57296.31
544.99	56963.96
545.16	57286.95
545.32	57301.00
545.49	57509.30
545.66	57516.32
545.83	57469.51
546.00	57525.69
546.16	57418.02
546.33	57137.16
546.50	57420.36
546.67	57733.99
546.83	57251.84
547.00	57593.56
547.17	57544.41
547.34	57771.44
547.50	57731.65
547.67	57893.15
547.84	57888.47
548.00	57764.42
548.17	58232.53
548.34	57972.73
548.51	58199.76
548.67	58056.99
548.84	57965.71
549.01	57902.51
549.18	57993.79
549.34	58024.22
549.51	57951.66
549.68	58174.02
549.84	58152.95
550.01	58291.04
550.18	58127.20
550.34	58197.42
550.51	58398.71
550.68	58337.85
550.84	58141.25
551.01	58225.51
551.18	58188.06
551.34	58499.35
551.51	58515.73
551.68	58478.28
551.84	58422.11
552.01	58363.60
552.18	58520.41
552.34	58379.98
552.51	58529.78
552.68	58424.45
552.84	58607.01
553.01	58752.13
553.18	58557.86
553.34	58887.88
553.51	58679.57
553.67	58719.36
553.84	58700.64
554.01	58834.05
554.17	58915.96
554.34	58922.99
554.51	58784.90
554.67	58838.73
554.84	58915.96
555.00	58890.22
555.17	58611.70
555.33	58908.94
555.50	58698.30
555.67	58885.54
555.83	58901.92
556.00	59056.40
556.16	59206.19
556.33	59196.83
556.50	58873.84
556.66	59271.73
556.83	58894.90
556.99	59215.55
557.16	59236.62
557.32	59501.10
557.49	59365.35
557.65	58918.31
557.82	59110.23
557.98	59260.02
558.15	59229.60
558.32	59262.36
558.48	59168.74
558.65	59372.37
558.81	59224.92
558.98	59426.20
559.14	59487.06
559.31	59583.02
559.47	59428.54
559.64	59461.31
559.80	59604.08
559.97	59510.46
560.13	59475.35
560.30	59622.81
560.46	59625.15
560.63	59739.83
560.79	59784.30
560.96	59676.64
561.12	59606.42
561.29	59688.34
561.45	59561.95
561.61	59718.77
561.78	59739.83
561.94	59615.79
562.11	59594.72
562.27	59688.34
562.44	59831.11
562.60	59936.44
562.77	59817.07
562.93	59798.35
563.10	59980.91
563.26	59742.17
563.42	59999.63
563.59	59831.11
563.75	59742.17
563.92	59641.53
564.08	59793.67
564.24	60037.08
564.41	59845.16
564.57	59866.22
564.74	60184.54
564.90	60060.49
565.07	59891.97
565.23	59723.45
565.39	59962.18
565.56	60170.49
565.72	59980.91
565.88	60193.90
566.05	59990.27
566.21	60065.17
566.38	60016.02
566.54	60172.83
566.70	60229.01
566.87	60308.58
567.03	60060.49
567.19	60210.28
567.36	60243.05
567.52	60207.94
567.68	60540.30
567.85	60163.47
568.01	60184.54
568.17	60144.75
568.34	60346.03
568.50	60207.94
568.66	60072.19
568.83	60250.07
568.99	60076.87
569.15	60320.29
569.32	60245.39
569.48	60317.95
569.64	60217.30
569.81	60203.26
569.97	60142.41
570.13	60280.50
570.30	60151.77
570.46	60144.75
570.62	60406.89
570.78	60245.39
570.95	60266.45
571.11	60502.85
571.27	60355.39
571.43	60463.06
571.60	60346.03
571.76	60282.84
571.92	60540.30
572.09	60491.15
572.25	60378.80
572.41	60301.56
572.57	60371.78
572.74	60793.07
572.90	60395.18
573.06	60353.05
573.22	60472.42
573.38	60397.52
573.55	60406.89
573.71	60605.83
573.87	60629.24
574.03	60474.76
574.20	60633.92
574.36	60479.44
574.52	60685.41
574.68	60685.41
574.84	60516.89
575.01	60493.49
575.17	60472.42
575.33	60505.19
575.49	60615.19
575.65	60472.42
575.82	60757.97
575.98	60713.50
576.14	60837.54
576.30	60764.99
576.46	60580.09
576.62	60727.54
576.79	60266.45
576.95	60631.58
577.11	60498.17
577.27	60835.20
577.43	60575.40
577.59	60596.47
577.75	60561.36
577.92	60456.04
578.08	60673.71
578.24	60561.36
578.40	60802.44
578.56	60640.94
578.72	60619.88
578.88	60961.59
579.04	60652.64
579.21	60673.71
579.37	60816.48
579.53	60907.76
579.69	60626.90
579.85	60629.24
580.01	60739.24
580.17	60767.33
580.33	60790.73
580.49	61076.28
580.65	60872.65
580.82	60802.44
580.98	60933.51
581.14	60828.18
581.30	60992.02
581.46	60638.60
581.62	60987.34
581.78	60814.14
581.94	60999.04
582.10	60673.71
582.26	60526.25
582.42	60573.06
582.58	60669.03
582.74	60713.50
582.90	60732.22
583.06	60767.33
583.22	60774.35
583.38	60837.54
583.54	60685.41
583.70	60711.16
583.86	60884.36
584.02	60828.18
584.18	60867.97
584.34	60727.54
584.50	61036.49
584.66	60640.94
584.82	60720.52
584.98	60952.23
585.14	60846.91
585.30	60547.32
585.46	60844.57
585.62	60762.65
585.78	60877.33
585.94	60757.97
586.10	60989.68
586.26	60863.29
586.42	61031.81
586.58	60912.44
586.74	61095.00
586.90	60793.07
587.06	60804.78
587.22	61001.38
587.38	60874.99
587.54	61069.26
587.70	60844.57
587.86	61003.72
588.02	60952.23
588.18	61169.90
588.34	60828.18
588.49	60879.67
