SpectraSuite Data File
++++++++++++++++++++++++++++++++++++
Date: Fri Oct 25 10:47:28 EDT 2013
User: price-jones
Dark Spectrum Present: No
Reference Spectrum Present: No
Number of Sampled Component Spectra: 1
Spectrometers: USB2+H05261
Integration Time (usec): 100000 (USB2+H05261)
Spectra Averaged: 1 (USB2+H05261)
Boxcar Smoothing: 0 (USB2+H05261)
Correct for Electrical Dark: No (USB2+H05261)
Strobe/Lamp Enabled: No (USB2+H05261)
Correct for Detector Non-linearity: No (USB2+H05261)
Correct for Stray Light: No (USB2+H05261)
Number of Pixels in Processed Spectrum: 2048
>>>>>Begin Processed Spectral Data<<<<<
365.73	95.96
365.92	95.96
366.12	95.96
366.32	77.24
366.52	4.68
366.72	0.00
366.91	0.00
367.11	21.06
367.31	70.22
367.51	0.00
367.70	67.88
367.90	0.00
368.10	53.83
368.30	49.15
368.49	98.30
368.69	112.35
368.89	42.13
369.09	126.39
369.28	124.05
369.48	100.64
369.68	119.37
369.87	212.99
370.07	46.81
370.27	156.82
370.47	215.33
370.66	393.21
370.86	365.12
371.06	416.62
371.25	477.47
371.45	428.32
371.65	470.45
371.84	440.02
372.04	468.11
372.24	468.11
372.44	430.66
372.63	479.81
372.83	442.36
373.03	388.53
373.22	505.56
373.42	510.24
373.62	540.66
373.81	557.05
374.01	505.56
374.21	528.96
374.40	491.51
374.60	599.18
374.79	552.37
374.99	559.39
375.19	592.16
375.38	620.24
375.58	545.34
375.78	512.58
375.97	503.22
376.17	531.30
376.37	552.37
376.56	543.00
376.76	582.79
376.95	566.41
377.15	643.65
377.35	641.31
377.54	627.26
377.74	578.11
377.93	599.18
378.13	627.26
378.33	589.82
378.52	545.34
378.72	650.67
378.91	606.20
379.11	603.86
379.31	615.56
379.50	620.24
379.70	594.50
379.89	620.24
380.09	615.56
380.28	678.76
380.48	648.33
380.68	610.88
380.87	561.73
381.07	587.47
381.26	667.05
381.46	599.18
381.65	613.22
381.85	697.48
382.04	638.97
382.24	589.82
382.43	676.41
382.63	629.60
382.83	683.44
383.02	650.67
383.22	777.06
383.41	674.07
383.61	653.01
383.80	706.84
384.00	676.41
384.19	746.63
384.39	716.20
384.58	702.16
384.78	711.52
384.97	739.61
385.17	744.29
385.36	765.36
385.56	737.27
385.75	737.27
385.95	678.76
386.14	734.93
386.34	699.82
386.53	786.42
386.72	800.46
386.92	793.44
387.11	800.46
387.31	760.67
387.50	753.65
387.70	755.99
387.89	851.96
388.09	840.25
388.28	805.14
388.48	964.30
388.67	875.36
388.86	863.66
389.06	938.55
389.25	880.04
389.45	912.81
389.64	875.36
389.84	924.51
390.03	877.70
390.22	910.47
390.42	814.51
390.61	809.83
390.81	873.02
391.00	903.45
391.19	997.07
391.39	971.32
391.58	950.26
391.78	987.71
391.97	870.68
392.16	987.71
392.36	1062.60
392.55	1039.20
392.75	992.39
392.94	959.62
393.13	917.49
393.33	917.49
393.52	1018.13
393.71	1151.54
393.91	1067.28
394.10	1034.52
394.29	999.41
394.49	1011.11
394.68	1102.39
394.88	1102.39
395.07	1156.22
395.26	1109.41
395.46	1125.80
395.65	1086.01
395.84	1111.75
396.04	1109.41
396.23	1158.57
396.42	1142.18
396.62	1086.01
396.81	1240.48
397.00	1114.10
397.19	1121.12
397.39	1181.97
397.58	1268.57
397.77	1224.10
397.97	1245.16
398.16	1263.89
398.35	1263.89
398.55	1289.64
398.74	1289.64
398.93	1245.16
399.12	1345.81
399.32	1254.53
399.51	1261.55
399.70	1380.92
399.90	1371.55
400.09	1355.17
400.28	1348.15
400.47	1411.34
400.67	1432.41
400.86	1341.13
401.05	1411.34
401.24	1399.64
401.44	1469.86
401.63	1439.43
401.82	1427.73
402.01	1465.18
402.21	1446.45
402.40	1472.20
402.59	1441.77
402.78	1612.63
402.97	1589.22
403.17	1467.52
403.36	1572.84
403.55	1465.18
403.74	1551.78
403.93	1593.90
404.13	1650.08
404.32	1537.73
404.51	1610.29
404.70	1640.72
404.89	1668.80
405.09	1661.78
405.28	1689.87
405.47	1685.19
405.66	1757.74
405.85	1788.17
406.05	1806.89
406.24	1673.48
406.43	1809.23
406.62	1797.53
406.81	1832.64
407.00	1823.28
407.20	1823.28
407.39	1834.98
407.58	1823.28
407.77	1886.47
407.96	1891.15
408.15	1952.01
408.34	1865.41
408.54	1881.79
408.73	1947.33
408.92	2033.93
409.11	2054.99
409.30	1952.01
409.49	1952.01
409.68	2001.16
409.87	1930.94
410.07	1909.88
410.26	2122.87
410.45	2024.56
410.64	1987.11
410.83	2029.24
411.02	2190.74
411.21	2265.64
411.40	2115.84
411.59	2207.13
411.78	2230.53
411.98	2127.55
412.17	2242.23
412.36	2321.81
412.55	2370.96
412.74	2289.04
412.93	2293.72
413.12	2300.75
413.31	2422.45
413.50	2506.71
413.69	2490.33
413.88	2586.29
414.07	2476.29
414.26	2478.63
414.45	2424.80
414.64	2530.12
414.83	2640.12
415.02	2593.31
415.22	2560.55
415.41	2717.36
415.60	2649.49
415.79	2658.85
415.98	2803.96
416.17	2843.75
416.36	2698.64
416.55	2836.73
416.74	2825.03
416.93	2691.62
417.12	2825.03
417.31	3028.65
417.50	3009.93
417.69	3000.57
417.88	2958.44
418.07	2836.73
418.26	3049.72
418.45	3173.77
418.64	3115.25
418.83	3019.29
419.02	3038.02
419.21	3222.92
419.39	3157.38
419.58	3138.66
419.77	3080.14
419.96	3084.83
420.15	3119.93
420.34	3171.43
420.53	3272.07
420.72	3361.01
420.91	3225.26
421.10	3304.84
421.29	3410.16
421.48	3190.15
421.67	3307.18
421.86	3407.82
422.05	3363.35
422.24	3304.84
422.43	3377.39
422.61	3307.18
422.80	3325.90
422.99	3332.92
423.18	3492.08
423.37	3524.85
423.56	3452.29
423.75	3318.88
423.94	3377.39
424.13	3293.13
424.32	3339.94
424.50	3438.25
424.69	3606.77
424.88	3552.93
425.07	3583.36
425.26	3489.74
425.45	3363.35
425.64	3555.27
425.83	3466.33
426.01	3552.93
426.20	3576.34
426.39	3574.00
426.58	3487.40
426.77	3384.41
426.96	3468.67
427.15	3468.67
427.33	3421.86
427.52	3634.85
427.71	3545.91
427.90	3576.34
428.09	3658.26
428.28	3679.32
428.46	3707.41
428.65	3655.92
428.84	3843.16
429.03	3791.67
429.22	3613.79
429.40	3669.96
429.59	3723.79
429.78	3590.38
429.97	3538.89
430.16	3651.24
430.34	3733.15
430.53	3735.50
430.72	3737.84
430.91	3871.25
431.10	3932.10
431.28	3971.89
431.47	4044.45
431.66	4028.06
431.85	4009.34
432.03	3969.55
432.22	4191.90
432.41	3901.67
432.60	4184.88
432.79	4210.62
432.97	4119.34
433.16	4030.40
433.35	4023.38
433.54	4100.62
433.72	4196.58
433.91	4234.03
434.10	4252.75
434.28	4154.45
434.47	4241.05
434.66	4236.37
434.85	4376.80
435.03	4547.66
435.22	4308.93
435.41	4418.93
435.59	4346.37
435.78	4599.15
435.97	4440.00
436.16	4383.82
436.34	4404.89
436.53	4482.13
436.72	4685.75
436.90	4367.44
437.09	4575.75
437.28	4645.96
437.46	4627.24
437.65	4550.00
437.84	4613.20
438.02	4601.49
438.21	4671.71
438.40	4540.64
438.58	4695.11
438.77	4760.65
438.96	4690.43
439.14	4936.19
439.33	4891.72
439.52	4877.68
439.70	4901.08
439.89	5029.81
440.08	4952.57
440.26	5296.63
440.45	5172.58
440.63	5179.61
440.82	5177.26
441.01	5149.18
441.19	5303.65
441.38	5338.76
441.57	5224.08
441.75	5310.68
441.94	5577.50
442.12	5455.79
442.31	5565.79
442.50	5481.53
442.68	5437.06
442.87	5446.43
443.05	5549.41
443.24	5818.57
443.43	5643.03
443.61	5636.01
443.80	5760.06
443.98	5467.49
444.17	5451.11
444.35	5666.44
444.54	5785.80
444.73	5788.14
444.91	5537.71
445.10	5710.91
445.28	5771.76
445.47	5603.24
445.65	5741.33
445.84	5720.27
446.02	5778.78
446.21	5713.25
446.39	5724.95
446.58	5764.74
446.77	5661.76
446.95	5905.17
447.14	5884.11
447.32	5816.23
447.51	5785.80
447.69	5937.94
447.88	5959.00
448.06	5771.76
448.25	5816.23
448.43	5951.98
448.62	5994.11
448.80	5753.04
448.99	5888.79
449.17	6071.35
449.36	5944.96
449.54	5980.07
449.73	6066.67
449.91	6387.32
450.10	5949.64
450.28	6324.13
450.46	6211.78
450.65	6321.79
450.83	6270.30
451.02	6249.23
451.20	6424.77
451.39	6326.47
451.57	6104.12
451.76	6249.23
451.94	6225.82
452.13	6291.36
452.31	6382.64
452.49	6300.72
452.68	6356.90
452.86	6384.98
453.05	6429.45
453.23	6455.20
453.42	6413.07
453.60	6289.02
453.78	6441.15
453.97	6377.96
454.15	6473.92
454.34	6424.77
454.52	6509.03
454.70	6466.90
454.89	6651.80
455.07	6768.83
455.26	6736.06
455.44	6836.70
455.62	6803.94
455.81	6761.81
455.99	6726.70
456.17	6977.14
456.36	6853.09
456.54	6876.49
456.73	7014.59
456.91	7157.36
457.09	6958.41
457.28	7164.38
457.46	7030.97
457.64	7080.12
457.83	7236.94
458.01	7112.89
458.19	7274.38
458.38	7201.83
458.56	7286.09
458.74	7220.55
458.93	7389.07
459.11	7199.49
459.29	7323.54
459.48	7403.11
459.66	7297.79
459.84	7389.07
460.03	7552.91
460.21	7389.07
460.39	7365.67
460.57	7253.32
460.76	7527.16
460.94	7510.78
461.12	7468.65
461.31	7639.51
461.49	7578.65
461.67	7531.84
461.85	7669.94
462.04	7632.49
462.22	8196.56
462.40	7754.19
462.59	7672.28
462.77	7859.52
462.95	7838.45
463.13	7829.09
463.32	7906.33
463.50	8086.55
463.68	8021.02
463.86	7981.23
464.05	7777.60
464.23	7695.68
464.41	8135.70
464.59	7889.95
464.78	8053.78
464.96	8023.36
465.14	8042.08
465.32	7901.65
465.50	8271.45
465.69	8046.76
465.87	8051.44
466.05	8170.81
466.23	8126.34
466.41	8161.45
466.60	8280.82
466.78	8152.09
466.96	8105.28
467.14	8046.76
467.32	8301.88
467.51	8512.53
467.69	8175.49
467.87	8215.28
468.05	8461.04
468.23	8524.23
468.41	8116.98
468.60	8435.29
468.78	8402.52
468.96	8322.94
469.14	8674.03
469.32	8706.79
469.50	8294.86
469.69	8713.81
469.87	8777.01
470.05	8868.29
470.23	8812.12
470.41	8826.16
470.59	8840.20
470.77	8917.44
470.95	8952.55
471.14	8938.51
471.32	8819.14
471.50	9294.27
471.68	9081.28
471.86	9146.81
472.04	9210.01
472.22	9163.20
472.40	8936.17
472.58	9343.42
472.77	9432.36
472.95	9322.35
473.13	9661.73
473.31	9254.48
473.49	9420.66
473.67	9380.87
473.85	9413.63
474.03	9722.59
474.21	9785.78
474.39	9900.47
474.57	9731.95
474.75	9776.42
474.93	9666.41
475.12	9940.26
475.30	9905.15
475.48	9916.85
475.66	10122.82
475.84	9980.04
476.02	10097.07
476.20	10120.48
476.38	10560.50
476.56	10518.37
476.74	10422.41
476.92	10370.91
477.10	10487.94
477.28	10761.78
477.46	10752.42
477.64	10733.70
477.82	10871.79
478.00	11112.86
478.18	10993.50
478.36	11335.21
478.54	11363.30
478.72	11421.81
478.90	11571.61
479.08	11580.97
479.26	11674.59
479.44	11723.74
479.62	11955.46
479.80	11901.62
479.98	12011.63
480.16	12245.68
480.34	12053.76
480.52	12212.92
480.70	12194.19
480.88	12243.34
481.06	12355.69
481.24	12468.03
481.41	12549.95
481.59	12933.80
481.77	12901.03
481.95	12931.46
482.13	12917.42
482.31	12875.29
482.49	13408.93
482.67	13252.11
482.85	13458.08
483.03	13752.99
483.21	13638.30
483.39	13640.64
483.57	13589.15
483.74	13970.66
483.92	14040.87
484.10	13886.40
484.28	14036.19
484.46	14230.46
484.64	14576.86
484.82	14445.79
485.00	14427.06
485.18	14782.82
485.35	14869.42
485.53	14956.02
485.71	14670.48
485.89	15190.08
486.07	14853.04
486.25	15028.58
486.43	15295.40
486.61	15562.22
486.78	15599.67
486.96	15967.13
487.14	15810.32
487.32	15857.13
487.50	16027.99
487.68	16095.86
487.85	16552.27
488.03	16570.99
488.21	16783.98
488.39	16814.41
488.57	16711.42
488.75	17088.25
488.92	17172.51
489.10	17359.75
489.28	17488.48
489.46	17509.55
489.64	17547.00
489.81	17958.93
489.99	18090.00
490.17	18356.82
490.35	17937.87
490.53	18127.45
490.70	18487.89
490.88	18537.04
491.06	18836.63
491.24	18855.36
491.41	18684.50
491.59	19007.49
491.77	18874.08
491.95	19178.35
492.13	19173.67
492.30	19744.76
492.48	19744.76
492.66	19714.33
492.84	19562.20
493.01	19969.45
493.19	19711.99
493.37	20002.22
493.54	19885.19
493.72	20475.01
493.90	20421.17
494.08	20994.61
494.25	20868.22
494.43	20994.61
494.61	20844.81
494.79	21099.93
494.96	21039.08
495.14	20716.08
495.32	21177.17
495.49	21523.57
495.67	21710.81
495.85	21570.38
496.02	22026.78
496.20	22050.19
496.38	21731.87
496.55	22459.78
496.73	22534.68
496.91	22576.81
497.09	22251.47
497.26	22705.54
497.44	22530.00
497.62	22698.52
497.79	22970.02
497.97	22740.64
498.14	23002.78
498.32	23215.77
498.50	23117.47
498.67	23573.88
498.85	23543.45
499.03	23704.95
499.20	23894.53
499.38	23625.37
499.56	24044.32
499.73	23531.75
499.91	24074.75
500.08	23873.46
500.26	23950.70
500.44	24081.77
500.61	24297.10
500.79	24224.54
500.97	24446.90
501.14	24814.36
501.32	24783.93
501.49	24592.01
501.67	24720.74
501.84	24851.81
502.02	25109.27
502.20	25163.10
502.37	25186.50
502.55	25376.09
502.72	25661.63
502.90	25509.50
503.07	25380.77
503.25	25755.26
503.43	25617.16
503.60	25869.94
503.78	25806.75
503.95	25757.60
504.13	26033.78
504.30	26555.72
504.48	26185.91
504.65	26101.65
504.83	26539.33
505.01	26546.36
505.18	26796.79
505.36	26719.56
505.53	26611.89
505.71	26824.88
505.88	26986.38
506.06	26754.66
506.23	27012.12
506.41	26913.82
506.58	26794.45
506.76	27225.11
506.93	27154.90
507.11	27269.58
507.28	27496.61
507.46	27807.90
507.63	27372.57
507.81	27669.81
507.98	27421.72
508.16	27887.48
508.33	28004.51
508.50	28182.39
508.68	28217.50
508.85	28638.80
509.03	28058.34
509.20	28009.19
509.38	28496.02
509.55	28730.08
509.73	28868.17
509.90	28348.57
510.08	28844.76
510.25	28938.38
510.42	28989.88
510.60	29109.24
510.77	28886.89
510.95	29237.97
511.12	29280.10
511.30	29254.36
511.47	29722.46
511.64	29457.98
511.82	29773.95
511.99	29528.20
512.17	29474.37
512.34	29916.73
512.51	29792.68
512.69	29867.58
512.86	30333.34
513.04	30010.35
513.21	30115.67
513.38	29951.84
513.56	30038.44
513.73	29986.94
513.90	30302.92
514.08	30373.13
514.25	30574.42
514.43	30206.95
514.60	30506.54
514.77	30595.48
514.95	30635.27
515.12	30864.64
515.29	31182.96
515.47	31040.18
515.64	31033.16
515.81	31021.46
515.99	30960.61
516.16	31627.66
516.33	30916.14
516.51	31660.43
516.68	31292.96
516.85	31157.21
517.03	31475.52
517.20	31398.29
517.37	31548.08
517.54	31889.80
517.72	31606.59
517.89	31639.36
518.06	31873.42
518.24	31962.36
518.41	31725.96
518.58	32320.46
518.75	31594.89
518.93	32325.14
519.10	32514.72
519.27	32451.53
519.45	32491.32
519.62	32896.23
519.79	32535.79
519.96	32645.79
520.14	33259.01
520.31	32781.54
520.48	33123.26
520.65	32966.45
520.83	33420.51
521.00	33230.93
521.17	32971.13
521.34	33373.70
521.52	33315.19
521.69	33640.52
521.86	33422.85
522.03	33104.54
522.20	33687.33
522.38	33926.07
522.55	33930.75
522.72	33809.04
522.89	34057.14
523.07	33841.81
523.24	33771.59
523.41	33982.24
523.58	33905.00
523.75	34192.89
523.92	34689.08
524.10	34476.09
524.27	34593.12
524.44	34541.63
524.61	34550.99
524.78	34822.49
524.96	34747.59
525.13	35227.40
525.30	34920.79
525.47	35246.13
525.64	35440.39
525.81	35016.75
525.98	35016.75
526.16	34796.74
526.33	35386.56
526.50	35421.67
526.67	34958.24
526.84	34972.28
527.01	35206.34
527.18	35005.05
527.36	35758.70
527.53	35536.35
527.70	36182.34
527.87	35711.89
528.04	35845.30
528.21	35695.51
528.38	35718.92
528.55	36098.08
528.72	35988.08
528.89	36348.52
529.07	36163.62
529.24	35669.76
529.41	36044.25
529.58	36006.80
529.75	36182.34
529.92	36168.30
530.09	36074.68
530.26	36477.25
530.43	36215.11
530.60	36046.59
530.77	36374.27
530.94	36556.83
531.11	36596.62
531.28	36329.80
531.46	36886.84
531.63	37055.36
531.80	36992.17
531.97	37167.71
532.14	36793.22
532.31	36545.12
532.48	37244.94
532.65	37118.56
532.82	37188.77
532.99	37640.50
533.16	37163.03
533.33	36697.26
533.50	37642.84
533.67	36844.71
533.84	37603.05
534.01	37818.38
534.18	37146.64
534.35	37776.25
534.52	37317.50
534.69	37645.18
534.86	37886.25
535.03	37123.24
535.20	38108.60
535.37	38560.33
535.54	37816.04
535.71	37865.19
535.88	37731.78
536.05	37780.93
536.22	38239.67
536.38	38195.20
536.55	37984.55
536.72	38064.13
536.89	37495.38
537.06	38089.88
537.23	38508.83
537.40	38110.94
537.57	37977.53
537.74	38291.16
537.91	38541.60
538.08	38410.53
538.25	38155.41
538.42	38586.07
538.59	39112.69
538.75	38873.96
538.92	38724.16
539.09	39147.80
539.26	38433.94
539.43	38792.04
539.60	39086.95
539.77	38911.41
539.94	38995.67
540.11	38866.94
540.28	38789.70
540.44	38934.81
540.61	39035.45
540.78	39035.45
540.95	38761.61
541.12	39005.03
541.29	39140.78
541.46	38899.70
541.62	39435.69
541.79	39669.74
541.96	38895.02
542.13	39517.60
542.30	39384.19
542.47	39426.32
542.63	39681.44
542.80	39349.09
542.97	39833.58
543.14	39955.29
543.31	40055.93
543.48	40285.30
543.64	40727.66
543.81	40069.97
543.98	39887.41
544.15	39864.00
544.32	40495.95
544.48	40931.29
544.65	40315.73
544.82	40179.98
544.99	39941.24
545.16	40507.65
545.32	39938.90
545.49	41116.19
545.66	40730.00
545.83	40498.29
546.00	40825.96
546.16	40554.46
546.33	40385.94
546.50	40353.18
546.67	40821.28
546.83	40580.21
547.00	40865.75
547.17	40636.38
547.34	40790.86
547.50	41127.89
547.67	40985.12
547.84	40935.97
548.00	41301.09
548.17	41626.43
548.34	41008.53
548.51	41347.90
548.67	41771.54
548.84	41525.78
549.01	41308.11
549.18	40968.74
549.34	41361.95
549.51	41228.54
549.68	41645.15
549.84	41539.83
550.01	41698.98
550.18	41521.10
550.34	41366.63
550.51	41792.61
550.68	41088.10
550.84	41165.34
551.01	41691.96
551.18	41944.74
551.34	41656.85
551.51	41427.48
551.68	41883.89
551.84	41823.03
552.01	41874.52
552.18	42031.34
552.34	41656.85
552.51	42124.96
552.68	41729.41
552.84	42122.62
553.01	42204.54
553.18	41626.43
553.34	41897.93
553.51	42146.03
553.67	42078.15
553.84	42766.27
554.01	42295.82
554.17	42293.48
554.34	42019.64
554.51	42499.45
554.67	42401.14
554.84	42054.75
555.00	42330.93
555.17	42167.09
555.33	42323.91
555.50	42363.70
555.67	42464.34
555.83	42068.79
556.00	42366.04
556.16	42916.06
556.33	42876.27
556.50	42682.01
556.66	42756.91
556.83	42672.65
556.99	42410.51
557.16	43150.12
557.32	43194.59
557.49	42658.60
557.65	42693.71
557.82	42646.90
557.98	42902.02
558.15	42960.53
558.32	43056.50
558.48	42871.59
558.65	42581.37
558.81	42909.04
558.98	43002.66
559.14	42719.46
559.31	42677.33
559.47	42780.31
559.64	43210.97
559.80	42927.77
559.97	43171.18
560.13	43292.89
560.30	43103.31
560.46	43143.09
560.63	43304.59
560.79	43133.73
560.96	43243.74
561.12	43370.13
561.29	43234.38
561.45	43194.59
561.61	43145.44
561.78	42855.21
561.94	42932.45
562.11	43278.85
562.27	42728.82
562.44	43421.62
562.60	43185.22
562.77	43718.87
562.93	43538.65
563.10	43365.45
563.26	43051.81
563.42	43468.43
563.59	43318.64
563.75	43302.25
563.92	43854.62
564.08	43578.43
564.24	43938.88
564.41	43124.37
564.57	43583.12
564.74	43817.17
564.90	43658.01
565.07	43957.60
565.23	44069.95
565.39	43295.23
565.56	43622.90
565.72	43477.79
565.88	43817.17
566.05	43517.58
566.21	43672.06
566.38	43377.15
566.54	43360.76
566.70	43831.21
566.87	43892.07
567.03	43962.28
567.19	44217.40
567.36	43571.41
567.52	44055.90
567.68	43903.77
567.85	43765.68
568.01	43775.04
568.17	44055.90
568.34	44250.17
568.50	43578.43
568.66	43791.42
568.83	43674.40
568.99	43426.30
569.15	44062.93
569.32	43812.49
569.48	44016.11
569.64	44041.86
569.81	44236.12
569.97	43938.88
570.13	44325.07
570.30	43447.36
570.46	43358.42
570.62	43817.17
570.78	43819.51
570.95	44002.07
571.11	44289.96
571.27	43873.34
571.43	43882.70
571.60	43718.87
571.76	43622.90
571.92	43845.26
572.09	43744.61
572.25	44086.33
572.41	43999.73
572.57	43906.11
572.74	44767.43
572.90	44109.74
573.06	44243.15
573.22	44383.58
573.38	44172.93
573.55	43590.14
573.71	44470.18
573.87	44093.35
574.03	43885.04
574.20	43976.33
574.36	43931.86
574.52	44601.25
574.68	44367.20
574.84	44198.68
575.01	43852.28
575.17	44004.41
575.33	44142.50
575.49	44137.82
575.65	44362.51
575.82	44444.43
575.98	44472.52
576.14	44669.12
576.30	44339.11
576.46	44285.28
576.62	44016.11
576.79	44308.68
576.95	43739.93
577.11	44212.72
577.27	44130.80
577.43	44268.89
577.59	44467.84
577.75	44341.45
577.92	44540.39
578.08	43854.62
578.24	43929.51
578.40	44233.78
578.56	44587.21
578.72	44198.68
578.88	44538.05
579.04	44168.25
579.21	44369.54
579.37	43952.92
579.53	44217.40
579.69	44086.33
579.85	43892.07
580.01	44013.77
580.17	44158.89
580.33	44123.78
580.49	44287.62
580.65	44355.49
580.82	44388.26
580.98	44285.28
581.14	44091.01
581.30	44491.24
581.46	43966.96
581.62	44222.08
581.78	44605.93
581.94	44488.90
582.10	44231.44
582.26	44708.91
582.42	44119.10
582.58	44533.37
582.74	44163.57
582.90	44563.80
583.06	44598.91
583.22	44938.29
583.38	44559.12
583.54	44378.90
583.70	44296.98
583.86	44460.82
584.02	44126.12
584.18	44362.51
584.34	44048.88
584.50	44666.78
584.66	44285.28
584.82	44112.08
584.98	44531.03
585.14	44524.01
585.30	44425.71
585.46	44205.70
585.62	44006.75
585.78	44470.18
585.94	43969.30
586.10	44449.11
586.26	44423.37
586.42	44825.94
586.58	44540.39
586.74	44404.64
586.90	44699.55
587.06	43941.22
587.22	44388.26
587.38	44395.28
587.54	45104.46
587.70	44715.93
587.86	44680.83
588.02	44727.64
588.18	44882.11
588.34	43934.20
588.49	44414.01
588.65	44203.36
588.81	43847.60
588.97	44245.49
589.13	43906.11
589.29	44299.32
589.45	44184.63
589.61	44828.28
589.77	44664.44
589.93	44617.63
590.08	44348.47
590.24	45064.67
590.40	44697.21
