SpectraSuite Data File
++++++++++++++++++++++++++++++++++++
Date: Fri Oct 25 10:43:52 EDT 2013
User: price-jones
Dark Spectrum Present: No
Reference Spectrum Present: No
Number of Sampled Component Spectra: 1
Spectrometers: USB2+H05261
Integration Time (usec): 100000 (USB2+H05261)
Spectra Averaged: 1 (USB2+H05261)
Boxcar Smoothing: 0 (USB2+H05261)
Correct for Electrical Dark: No (USB2+H05261)
Strobe/Lamp Enabled: No (USB2+H05261)
Correct for Detector Non-linearity: No (USB2+H05261)
Correct for Stray Light: No (USB2+H05261)
Number of Pixels in Processed Spectrum: 2048
>>>>>Begin Processed Spectral Data<<<<<
365.73	133.41
365.92	133.41
366.12	133.41
366.32	49.15
366.52	79.58
366.72	37.45
366.91	28.09
367.11	9.36
367.31	11.70
367.51	0.00
367.70	32.77
367.90	0.00
368.10	21.06
368.30	23.41
368.49	44.47
368.69	84.26
368.89	81.92
369.09	30.43
369.28	77.24
369.48	63.19
369.68	67.88
369.87	25.75
370.07	140.43
370.27	142.77
370.47	168.52
370.66	372.15
370.86	416.62
371.06	435.34
371.25	468.11
371.45	458.74
371.65	470.45
371.84	512.58
372.04	402.57
372.24	468.11
372.44	484.49
372.63	528.96
372.83	559.39
373.03	519.60
373.22	461.09
373.42	526.62
373.62	510.24
373.81	524.28
374.01	622.58
374.21	575.77
374.40	559.39
374.60	617.90
374.79	587.47
374.99	528.96
375.19	592.16
375.38	533.64
375.58	561.73
375.78	559.39
375.97	575.77
376.17	697.48
376.37	667.05
376.56	655.35
376.76	566.41
376.95	613.22
377.15	608.54
377.35	578.11
377.54	664.71
377.74	667.05
377.93	594.50
378.13	582.79
378.33	692.80
378.52	660.03
378.72	746.63
378.91	678.76
379.11	667.05
379.31	695.14
379.50	692.80
379.70	631.94
379.89	720.88
380.09	692.80
380.28	699.82
380.48	697.48
380.68	826.21
380.87	711.52
381.07	741.95
381.26	716.20
381.46	748.97
381.65	645.99
381.85	678.76
382.04	608.54
382.24	725.57
382.43	706.84
382.63	702.16
382.83	718.54
383.02	727.91
383.22	746.63
383.41	645.99
383.61	732.59
383.80	823.87
384.00	748.97
384.19	791.10
384.39	835.57
384.58	854.30
384.78	779.40
384.97	805.14
385.17	840.25
385.36	802.80
385.56	805.14
385.75	765.36
385.95	889.40
386.14	877.70
386.34	882.38
386.53	847.27
386.72	924.51
386.92	791.10
387.11	844.93
387.31	896.43
387.50	854.30
387.70	779.40
387.89	882.38
388.09	912.81
388.28	882.38
388.48	978.34
388.67	947.92
388.86	917.49
389.06	849.61
389.25	952.60
389.45	992.39
389.64	945.58
389.84	1071.97
390.03	1008.77
390.22	1048.56
390.42	1027.50
390.61	1029.84
390.81	1015.79
391.00	1090.69
391.19	1149.20
391.39	1008.77
391.58	1062.60
391.78	1109.41
391.97	1069.62
392.16	1055.58
392.36	1046.22
392.55	1022.81
392.75	940.90
392.94	973.66
393.13	1130.48
393.33	1121.12
393.52	1128.14
393.71	1123.46
393.91	1172.61
394.10	1172.61
394.29	1151.54
394.49	1193.67
394.68	1226.44
394.88	1219.42
395.07	1345.81
395.26	1331.76
395.46	1200.69
395.65	1228.78
395.84	1296.66
396.04	1261.55
396.23	1221.76
396.42	1153.88
396.62	1301.34
396.81	1142.18
397.00	1163.25
397.19	1296.66
397.39	1320.06
397.58	1451.13
397.77	1371.55
397.97	1385.60
398.16	1467.52
398.35	1486.24
398.55	1418.36
398.74	1453.47
398.93	1614.97
399.12	1645.40
399.32	1481.56
399.51	1600.93
399.70	1533.05
399.90	1586.88
400.09	1680.50
400.28	1643.06
400.47	1519.01
400.67	1561.14
400.86	1696.89
401.05	1621.99
401.24	1624.33
401.44	1811.57
401.63	1713.27
401.82	1727.32
402.01	1678.16
402.21	1610.29
402.40	1785.83
402.59	1760.08
402.78	1832.64
402.97	1774.13
403.17	1844.34
403.36	1874.77
403.55	1879.45
403.74	1891.15
403.93	1975.41
404.13	1856.04
404.32	1959.03
404.51	1921.58
404.70	2040.95
404.89	1989.46
405.09	1966.05
405.28	2143.93
405.47	2008.18
405.66	2038.61
405.85	1937.96
406.05	2083.08
406.24	2029.24
406.43	2078.40
406.62	2122.87
406.81	2237.55
407.00	2143.93
407.20	2073.71
407.39	2150.95
407.58	2155.63
407.77	2218.83
407.96	2284.36
408.15	2221.17
408.34	2296.07
408.54	2476.29
408.73	2354.58
408.92	2286.70
409.11	2417.77
409.30	2436.50
409.49	2321.81
409.68	2303.09
409.87	2335.85
410.07	2382.67
410.26	2445.86
410.45	2492.67
410.64	2480.97
410.83	2513.74
411.02	2597.99
411.21	2616.72
411.40	2614.38
411.59	2630.76
411.78	2626.08
411.98	2675.23
412.17	2644.81
412.36	2679.91
412.55	2708.00
412.74	2832.05
412.93	2846.09
413.12	2759.49
413.31	3002.91
413.50	2963.12
413.69	2822.69
413.88	3005.25
414.07	2967.80
414.26	2928.01
414.45	3047.38
414.64	2981.84
414.83	3068.44
415.02	3096.53
415.22	3213.56
415.41	3276.75
415.60	3328.24
415.79	3180.79
415.98	3452.29
416.17	3304.84
416.36	3279.09
416.55	3229.94
416.74	3243.98
416.93	3346.97
417.12	3346.97
417.31	3421.86
417.50	3461.65
417.69	3513.14
417.88	3574.00
418.07	3503.78
418.26	3487.40
418.45	3520.17
418.64	3815.07
418.83	3555.27
419.02	3588.04
419.21	3590.38
419.39	3894.65
419.58	3550.59
419.77	3679.32
419.96	3623.15
420.15	3819.75
420.34	3843.16
420.53	3974.23
420.72	3978.91
420.91	3962.53
421.10	3831.46
421.29	3896.99
421.48	3915.72
421.67	3838.48
421.86	3908.69
422.05	3840.82
422.24	3817.41
422.43	3957.85
422.61	3899.33
422.80	3915.72
422.99	3934.44
423.18	4007.00
423.37	4072.53
423.56	4046.79
423.75	3990.61
423.94	4002.32
424.13	3716.77
424.32	3904.01
424.50	4018.70
424.69	4180.20
424.88	4145.09
425.07	3896.99
425.26	3957.85
425.45	4063.17
425.64	4133.39
425.83	4051.47
426.01	4259.78
426.20	4217.65
426.39	4044.45
426.58	3960.19
426.77	4007.00
426.96	3885.29
427.15	3967.21
427.33	4056.15
427.52	4023.38
427.71	4208.28
427.90	4248.07
428.09	4273.82
428.28	4163.81
428.46	4217.65
428.65	4266.80
428.84	4320.63
429.03	4344.03
429.22	4222.33
429.40	4227.01
429.59	4332.33
429.78	4187.22
429.97	3985.93
430.16	4102.96
430.34	4168.49
430.53	4318.29
430.72	4224.67
430.91	4421.27
431.10	4393.19
431.28	4664.69
431.47	4847.25
431.66	4711.50
431.85	4650.64
432.03	4655.33
432.22	4533.62
432.41	4578.09
432.60	4901.08
432.79	4767.67
432.97	4861.29
433.16	4938.53
433.35	4816.82
433.54	4699.80
433.72	4856.61
433.91	4746.61
434.10	4896.40
434.28	4849.59
434.47	4917.47
434.66	5097.69
434.85	5046.20
435.03	4964.28
435.22	5102.37
435.41	5170.24
435.59	5193.65
435.78	5200.67
435.97	5343.44
436.16	5270.89
436.34	5256.84
436.53	5329.40
436.72	5387.91
436.90	5226.42
437.09	5261.52
437.28	5313.02
437.46	5313.02
437.65	5369.19
437.84	5275.57
438.02	5184.29
438.21	5364.51
438.40	5252.16
438.58	5497.92
438.77	5448.77
438.96	5488.56
439.14	5687.50
439.33	5830.27
439.52	5764.74
439.70	5804.53
439.89	5853.68
440.08	5755.38
440.26	5785.80
440.45	5844.32
440.63	6104.12
440.82	6148.59
441.01	6179.01
441.19	6146.25
441.38	6260.93
441.57	6099.44
441.75	6218.80
441.94	6258.59
442.12	6359.24
442.31	6537.12
442.50	6518.39
442.68	6326.47
442.87	6492.65
443.05	6476.26
443.24	6731.38
443.43	6640.10
443.61	6593.29
443.80	6810.96
443.98	6586.27
444.17	6324.13
444.35	6693.93
444.54	6717.34
444.73	6656.48
444.91	6696.27
445.10	6628.40
445.28	6647.12
445.47	6626.06
445.65	6506.69
445.84	6656.48
446.02	6759.47
446.21	6689.25
446.39	6747.76
446.58	6836.70
446.77	6766.49
446.95	6712.66
447.14	6759.47
447.32	6913.94
447.51	6890.54
447.69	6862.45
447.88	6892.88
448.06	6930.33
448.25	7026.29
448.43	6986.50
448.62	7089.48
448.80	6789.89
448.99	7133.95
449.17	7269.70
449.36	7047.35
449.54	7145.66
449.73	7262.68
449.91	7258.00
450.10	7351.62
450.28	7330.56
450.46	7384.39
450.65	7335.24
450.83	7403.11
451.02	7417.16
451.20	7485.03
451.39	7286.09
451.57	7482.69
451.76	7447.58
451.94	7421.84
452.13	7503.76
452.31	7496.74
452.49	7258.00
452.68	7494.40
452.86	7307.15
453.05	7379.71
453.23	7620.78
453.42	7414.82
453.60	7463.97
453.78	7716.75
453.97	7492.05
454.15	7606.74
454.34	7494.40
454.52	7866.54
454.70	7742.49
454.89	7716.75
455.07	7651.21
455.26	7754.19
455.44	7770.58
455.62	7892.29
455.81	7864.20
455.99	7953.14
456.17	7939.10
456.36	7999.95
456.54	8009.31
456.73	7939.10
456.91	8191.88
457.09	8400.18
457.28	8439.97
457.46	8320.60
457.64	8259.75
457.83	8369.76
458.01	8285.50
458.19	8435.29
458.38	8423.59
458.56	8372.10
458.74	8552.32
458.93	8381.46
459.11	8512.53
459.29	8650.62
459.48	8470.40
459.66	8465.72
459.84	8606.15
460.03	8676.37
460.21	8659.98
460.39	8791.05
460.57	8760.63
460.76	8657.64
460.94	8805.10
461.12	8531.25
461.31	8844.88
461.49	8854.25
461.67	8912.76
461.85	9088.30
462.04	8990.00
462.22	9226.39
462.40	9083.62
462.59	8980.64
462.77	9076.60
462.95	9163.20
463.13	9041.49
463.32	9205.33
463.50	9268.52
463.68	8898.72
463.86	9329.38
464.05	9029.79
464.23	8994.68
464.41	9270.86
464.59	9163.20
464.78	9411.29
464.96	9305.97
465.14	9013.40
465.32	9362.14
465.50	9525.98
465.69	9472.15
465.87	9511.94
466.05	9338.74
466.23	9284.91
466.41	9486.19
466.60	9570.45
466.78	9415.98
466.96	9432.36
467.14	9355.12
467.32	9495.55
467.51	9907.49
467.69	9458.10
467.87	9556.41
468.05	9659.39
468.23	9736.63
468.41	9734.29
468.60	9680.46
468.78	9680.46
468.96	9851.31
469.14	9963.66
469.32	9799.82
469.50	9675.77
469.69	9865.36
469.87	9954.30
470.05	10150.90
470.23	9963.66
470.41	9795.14
470.59	10284.31
470.77	10115.80
470.95	10305.38
471.14	10532.41
471.32	10223.46
471.50	10310.06
471.68	10562.84
471.86	10670.50
472.04	10764.12
472.22	10916.26
472.40	10478.58
472.58	10857.75
472.77	10778.17
472.95	10932.64
473.13	11082.44
473.31	10626.03
473.49	10698.59
473.67	10752.42
473.85	10970.09
474.03	11059.03
474.21	11241.59
474.39	11325.85
474.57	11344.58
474.75	11403.09
474.93	11513.10
475.12	11480.33
475.30	11552.88
475.48	11407.77
475.66	11489.69
475.84	11536.50
476.02	11597.35
476.20	11527.14
476.38	12004.61
476.56	11988.22
476.74	12280.79
476.92	11812.68
477.10	12138.02
477.28	12306.54
477.46	12313.56
477.64	12636.55
477.82	12521.87
478.00	12741.88
478.18	12821.45
478.36	12807.41
478.54	12971.25
478.72	13022.74
478.90	13357.44
479.08	13270.84
479.26	13439.36
479.44	13462.76
479.62	13760.01
479.80	13664.05
479.98	13717.88
480.16	14157.90
480.34	13832.57
480.52	14012.79
480.70	13991.72
480.88	14270.25
481.06	14260.88
481.24	14225.78
481.41	14761.76
481.59	14541.75
481.77	14733.67
481.95	14813.25
482.13	14829.63
482.31	15040.28
482.49	15220.50
482.67	15325.83
482.85	15391.36
483.03	15536.48
483.21	15667.55
483.39	15857.13
483.57	15838.41
483.74	15733.08
483.92	16109.91
484.10	15948.41
484.28	16056.08
484.46	16463.33
484.64	16865.90
484.82	16596.74
485.00	16678.66
485.18	16517.16
485.35	17095.27
485.53	16245.66
485.71	16629.51
485.89	16774.62
486.07	16734.83
486.25	17102.29
486.43	17130.38
486.61	17514.23
486.78	17486.14
486.96	17769.35
487.14	17951.91
487.32	18111.07
487.50	18558.11
487.68	18277.24
487.85	19063.66
488.03	18923.23
488.21	18740.67
488.39	18864.72
488.57	18869.40
488.75	19300.06
488.92	19559.86
489.10	19791.57
489.28	19782.21
489.46	20100.52
489.64	20166.06
489.81	20556.93
489.99	20477.35
490.17	20208.19
490.35	20561.61
490.53	20570.97
490.70	20842.47
490.88	20933.75
491.06	21280.15
491.24	21167.80
491.41	21156.10
491.59	21146.74
491.77	21207.59
491.95	21642.93
492.13	21977.63
492.30	22094.66
492.48	22136.79
492.66	22284.24
492.84	22464.46
493.01	22806.18
493.19	22569.79
493.37	22672.77
493.54	22829.59
493.72	22981.72
493.90	22967.68
494.08	23405.36
494.25	23676.86
494.43	23309.40
494.61	23714.31
494.79	23943.68
494.96	23843.04
495.14	23917.93
495.32	24224.54
495.49	24147.31
495.67	24442.21
495.85	24517.11
496.02	24629.46
496.20	24779.25
496.38	24940.75
496.55	25057.78
496.73	25474.39
496.91	25212.25
497.09	25207.57
497.26	25495.46
497.44	25689.72
497.62	25532.90
497.79	25893.35
497.97	25956.54
498.14	25841.85
498.32	26129.74
498.50	26068.89
498.67	26845.94
498.85	26515.93
499.03	26817.86
499.20	26888.07
499.38	26923.18
499.56	26874.03
499.73	26904.46
499.91	27150.21
500.08	27522.36
500.26	26700.83
500.44	27213.41
500.61	27314.05
500.79	27087.02
500.97	27412.35
501.14	27351.50
501.32	27395.97
501.49	27709.60
501.67	27892.16
501.84	28006.85
502.02	28285.37
502.20	28240.90
502.37	28442.19
502.55	28245.58
502.72	28678.58
502.90	28669.22
503.07	28849.44
503.25	28718.37
503.43	28608.37
503.60	28797.95
503.78	29130.31
503.95	29022.64
504.13	28758.16
504.30	29298.83
504.48	29214.57
504.65	29193.50
504.83	29708.42
505.01	29738.85
505.18	29680.33
505.36	30106.31
505.53	29916.73
505.71	30363.77
505.88	30162.48
506.06	30146.10
506.23	30476.12
506.41	30249.08
506.58	30391.86
506.76	30464.41
506.93	30473.78
507.11	30668.04
507.28	30555.69
507.46	30562.72
507.63	30923.16
507.81	30761.66
507.98	30218.66
508.16	30958.27
508.33	31257.85
508.50	31445.10
508.68	31641.70
508.85	31480.21
509.03	31454.46
509.20	31662.77
509.38	32079.38
509.55	31768.09
509.73	31824.26
509.90	32290.03
510.08	31709.58
510.25	31763.41
510.42	32072.36
510.60	32542.81
510.77	32297.05
510.95	32875.16
511.12	32355.57
511.30	32631.75
511.47	33261.35
511.64	32774.52
511.82	32863.46
511.99	33074.11
512.17	32627.07
512.34	32826.01
512.51	33195.82
512.69	33376.04
512.86	33179.43
513.04	33530.51
513.21	33607.75
513.38	33523.49
513.56	33116.24
513.73	33654.56
513.90	33661.58
514.08	33429.87
514.25	33916.70
514.43	34036.07
514.60	33610.09
514.77	33556.26
514.95	34188.21
515.12	34017.35
515.29	34429.28
515.47	34920.79
515.64	34747.59
515.81	34347.36
515.99	34424.60
516.16	34565.03
516.33	34356.72
516.51	33933.09
516.68	33741.16
516.85	33954.15
517.03	34146.08
517.20	34459.71
517.37	34771.00
517.54	34979.31
517.72	34616.52
517.89	34464.39
518.06	34361.40
518.24	35014.41
518.41	35115.06
518.58	35356.13
518.75	35302.30
518.93	35648.70
519.10	35419.33
519.27	35592.53
519.45	35634.66
519.62	36070.00
519.79	36271.28
519.96	35978.72
520.14	35892.12
520.31	35892.12
520.48	36158.94
520.65	36098.08
520.83	36306.39
521.00	36474.91
521.17	36704.28
521.34	36203.41
521.52	37006.21
521.69	36774.50
521.86	36828.33
522.03	36751.09
522.20	36893.86
522.38	36950.04
522.55	37146.64
522.72	37090.47
522.89	36758.11
523.07	37085.79
523.24	36910.25
523.41	37333.89
523.58	37406.44
523.75	38026.68
523.92	37893.27
524.10	37832.42
524.27	37825.40
524.44	38122.65
524.61	38057.11
524.78	37869.87
524.96	38148.39
525.13	38014.98
525.30	38307.55
525.47	38518.20
525.64	38195.20
525.81	38391.81
525.98	38422.23
526.16	38405.85
526.33	37617.09
526.50	37904.98
526.67	37677.94
526.84	37804.33
527.01	38000.94
527.18	38281.80
527.36	38738.21
527.53	38660.97
527.70	38827.15
527.87	38976.94
528.04	38754.59
528.21	39110.35
528.38	39248.44
528.55	39510.58
528.72	39526.97
528.89	39370.15
529.07	39669.74
529.24	39702.51
529.41	39463.77
529.58	39512.92
529.75	39749.32
529.92	39620.59
530.09	39775.06
530.26	39454.41
530.43	40044.23
530.60	39936.56
530.77	39915.50
530.94	40416.37
531.11	39901.45
531.28	40409.35
531.46	40172.96
531.63	40247.85
531.80	40430.41
531.97	40177.64
532.14	40119.12
532.31	39868.69
532.48	40161.25
532.65	40493.61
532.82	39868.69
532.99	40423.39
533.16	40268.92
533.33	40662.13
533.50	41078.74
533.67	40208.06
533.84	40350.84
534.01	40615.32
534.18	40973.42
534.35	40989.80
534.52	40741.71
534.69	41038.95
534.86	41420.46
535.03	41139.60
535.20	41598.34
535.37	41265.99
535.54	41790.27
535.71	41113.85
535.88	41406.42
536.05	41139.60
536.22	41820.69
536.38	41099.81
536.55	41525.78
536.72	41357.27
536.89	40940.65
537.06	41141.94
537.23	41497.70
537.40	41780.90
537.57	41603.02
537.74	41813.67
537.91	41883.89
538.08	41504.72
538.25	41329.18
538.42	41581.96
538.59	42127.30
538.75	41467.27
538.92	42127.30
539.09	42195.18
539.26	42024.32
539.43	42113.26
539.60	41940.06
539.77	41825.37
539.94	41801.97
540.11	41830.05
540.28	41663.88
540.44	42071.13
540.61	42057.09
540.78	41745.80
540.95	42190.50
541.12	42141.35
541.29	42054.75
541.46	42447.96
541.62	42557.96
541.79	42946.49
541.96	42302.84
542.13	42555.62
542.30	42436.25
542.47	42660.94
542.63	42696.05
542.80	42536.90
542.97	42979.26
543.14	43328.00
543.31	43054.15
543.48	43189.91
543.64	43550.35
543.81	43777.38
543.98	43239.06
544.15	43414.60
544.32	43604.18
544.48	43580.78
544.65	43730.57
544.82	43578.43
544.99	43536.30
545.16	43761.00
545.32	43753.97
545.49	44327.41
545.66	43803.13
545.83	43735.25
546.00	44044.20
546.16	43470.77
546.33	43973.98
546.50	43618.22
546.67	43910.79
546.83	43725.89
547.00	43805.47
547.17	43793.76
547.34	43761.00
547.50	43901.43
547.67	44039.52
547.84	44268.89
548.00	44093.35
548.17	44512.31
548.34	43999.73
548.51	44612.95
548.67	44549.76
548.84	44294.64
549.01	44304.00
549.18	44418.69
549.34	44236.12
549.51	44666.78
549.68	44638.70
549.84	44547.42
550.01	44821.26
550.18	44524.01
550.34	44603.59
550.51	44680.83
550.68	44538.05
550.84	44177.61
551.01	45048.29
551.18	44767.43
551.34	44690.19
551.51	45055.31
551.68	45504.70
551.84	45151.27
552.01	44966.37
552.18	44493.58
552.34	44350.81
552.51	44985.10
552.68	44926.58
552.84	44830.62
553.01	45132.55
553.18	44954.67
553.34	44753.38
553.51	44933.60
553.67	45202.77
553.84	45017.86
554.01	45333.84
554.17	45298.73
554.34	45289.37
554.51	45399.37
554.67	45743.43
554.84	45502.35
555.00	45530.44
555.17	45390.01
555.33	45558.53
555.50	45359.58
555.67	45181.70
555.83	45188.72
556.00	45497.67
556.16	45626.40
556.33	45343.20
556.50	45415.76
556.66	45516.40
556.83	45167.66
556.99	45359.58
557.16	45492.99
557.32	45858.12
557.49	45659.17
557.65	45642.79
557.82	45612.36
557.98	45888.54
558.15	45619.38
558.32	45745.77
558.48	45911.95
558.65	45762.15
558.81	45319.79
558.98	45846.41
559.14	45361.92
559.31	45879.18
559.47	45930.67
559.64	46169.41
559.80	46052.38
559.97	45537.46
560.13	45663.85
560.30	45612.36
560.46	46082.81
560.63	46295.80
560.79	46073.45
560.96	46307.50
561.12	46047.70
561.29	45743.43
561.45	45705.98
561.61	46127.28
561.78	45773.86
561.94	45411.07
562.11	45897.91
562.27	45502.35
562.44	46117.92
562.60	46211.54
562.77	46333.24
562.93	45986.85
563.10	46351.97
563.26	45701.30
563.42	46171.75
563.59	46202.18
563.75	45937.69
563.92	46452.61
564.08	45940.04
564.24	46492.40
564.41	46419.84
564.57	46553.26
564.74	46368.35
564.90	46068.76
565.07	46401.12
565.23	45787.90
565.39	46092.17
565.56	46349.63
565.72	46124.94
565.88	45689.60
566.05	46115.58
566.21	46272.39
566.38	46518.15
566.54	46241.96
566.70	46756.88
566.87	46651.56
567.03	46471.34
567.19	47180.52
567.36	46660.92
567.52	46595.38
567.68	46443.25
567.85	46436.23
568.01	46810.71
568.17	46775.61
568.34	46480.70
568.50	46581.34
568.66	45736.41
568.83	46239.62
568.99	46363.67
569.15	46368.35
569.32	45954.08
569.48	46356.65
569.64	46759.22
569.81	46555.60
569.97	46068.76
570.13	46443.25
570.30	45897.91
570.46	46052.38
570.62	45837.05
570.78	46218.56
570.95	46291.12
571.11	46408.14
571.27	46408.14
571.43	46220.90
571.60	46337.93
571.76	46532.19
571.92	46656.24
572.09	46454.95
572.25	46850.50
572.41	46555.60
572.57	46885.61
572.74	46710.07
572.90	46450.27
573.06	46667.94
573.22	46588.36
573.38	46183.45
573.55	46658.58
573.71	46852.84
573.87	46211.54
574.03	46457.29
574.20	46579.00
574.36	46899.65
574.52	46913.70
574.68	46651.56
574.84	46604.75
575.01	46497.08
575.17	46316.86
575.33	46155.36
575.49	46532.19
575.65	46508.79
575.82	46656.24
575.98	46576.66
576.14	46813.05
576.30	46380.06
576.46	46681.98
576.62	46635.17
576.79	46471.34
576.95	46408.14
577.11	46326.22
577.27	46445.59
577.43	46426.87
577.59	47007.32
577.75	46256.01
577.92	46122.60
578.08	46113.23
578.24	46703.05
578.40	46693.69
578.56	46726.46
578.72	46862.21
578.88	46698.37
579.04	46918.38
579.21	46681.98
579.37	46546.23
579.53	46504.10
579.69	46946.47
579.85	46518.15
580.01	46632.83
580.17	46660.92
580.33	47075.19
580.49	46794.33
580.65	46616.45
580.82	46438.57
580.98	46366.01
581.14	46361.33
581.30	46824.76
581.46	46799.01
581.62	47082.22
581.78	46473.68
581.94	47210.95
582.10	46745.18
582.26	46597.73
582.42	46644.54
582.58	47084.56
582.74	46878.59
582.90	46904.34
583.06	47070.51
583.22	46951.15
583.38	47297.55
583.54	46677.30
583.70	46749.86
583.86	46712.41
584.02	46684.33
584.18	46913.70
584.34	46848.16
584.50	46824.76
584.66	46707.73
584.82	46363.67
584.98	46660.92
585.14	46855.18
585.30	46363.67
585.46	46618.79
585.62	46476.02
585.78	46251.33
585.94	46258.35
586.10	46810.71
586.26	46649.22
586.42	46873.91
586.58	47019.02
586.74	46934.76
586.90	46555.60
587.06	46913.70
587.22	46784.97
587.38	46480.70
587.54	46707.73
587.70	46707.73
587.86	46581.34
588.02	46653.90
588.18	46902.00
588.34	46576.66
588.49	46106.21
588.65	46117.92
588.81	45846.41
588.97	46541.55
589.13	46686.67
589.29	46422.19
589.45	46696.03
589.61	46408.14
589.77	46756.88
589.93	46518.15
