SpectraSuite Data File
++++++++++++++++++++++++++++++++++++
Date: Fri Oct 25 11:34:07 EDT 2013
User: price-jones
Dark Spectrum Present: No
Reference Spectrum Present: No
Number of Sampled Component Spectra: 1
Spectrometers: USB2+H05261
Integration Time (usec): 100000 (USB2+H05261)
Spectra Averaged: 1 (USB2+H05261)
Boxcar Smoothing: 0 (USB2+H05261)
Correct for Electrical Dark: No (USB2+H05261)
Strobe/Lamp Enabled: No (USB2+H05261)
Correct for Detector Non-linearity: No (USB2+H05261)
Correct for Stray Light: No (USB2+H05261)
Number of Pixels in Processed Spectrum: 2048
>>>>>Begin Processed Spectral Data<<<<<
365.73	292.57
365.92	292.57
366.12	292.57
366.32	227.03
366.52	110.01
366.72	222.35
366.91	173.20
367.11	177.88
367.31	131.07
367.51	191.92
367.70	163.84
367.90	93.62
368.10	161.50
368.30	201.29
368.49	227.03
368.69	215.33
368.89	191.92
369.09	159.16
369.28	271.50
369.48	184.90
369.68	208.31
369.87	243.42
370.07	212.99
370.27	266.82
370.47	362.78
370.66	507.90
370.86	540.66
371.06	524.28
371.25	510.24
371.45	554.71
371.65	554.71
371.84	533.64
372.04	512.58
372.24	580.45
372.44	603.86
372.63	650.67
372.83	615.56
373.03	681.10
373.22	519.60
373.42	568.75
373.62	627.26
373.81	624.92
374.01	650.67
374.21	631.94
374.40	662.37
374.60	706.84
374.79	620.24
374.99	601.52
375.19	664.71
375.38	603.86
375.58	664.71
375.78	751.31
375.97	667.05
376.17	648.33
376.37	667.05
376.56	662.37
376.76	657.69
376.95	678.76
377.15	624.92
377.35	683.44
377.54	716.20
377.74	653.01
377.93	685.78
378.13	678.76
378.33	683.44
378.52	650.67
378.72	744.29
378.91	746.63
379.11	681.10
379.31	741.95
379.50	732.59
379.70	781.74
379.89	678.76
380.09	704.50
380.28	645.99
380.48	713.86
380.68	713.86
380.87	676.41
381.07	793.44
381.26	791.10
381.46	732.59
381.65	716.20
381.85	732.59
382.04	830.89
382.24	725.57
382.43	791.10
382.63	713.86
382.83	772.38
383.02	812.17
383.22	851.96
383.41	748.97
383.61	781.74
383.80	800.46
384.00	816.85
384.19	758.33
384.39	800.46
384.58	809.83
384.78	837.91
384.97	765.36
385.17	835.57
385.36	807.48
385.56	814.51
385.75	844.93
385.95	781.74
386.14	844.93
386.34	826.21
386.53	959.62
386.72	807.48
386.92	819.19
387.11	905.79
387.31	866.00
387.50	901.11
387.70	823.87
387.89	929.19
388.09	926.85
388.28	835.57
388.48	812.17
388.67	947.92
388.86	884.72
389.06	840.25
389.25	912.81
389.45	945.58
389.64	987.71
389.84	926.85
390.03	866.00
390.22	929.19
390.42	870.68
390.61	973.66
390.81	994.73
391.00	1001.75
391.19	999.41
391.39	950.26
391.58	915.15
391.78	994.73
391.97	1008.77
392.16	1032.18
392.36	980.68
392.55	1048.56
392.75	1069.62
392.94	973.66
393.13	1025.15
393.33	1004.09
393.52	1100.05
393.71	1111.75
393.91	1027.50
394.10	1006.43
394.29	1153.88
394.49	1104.73
394.68	1181.97
394.88	1086.01
395.07	1125.80
395.26	1114.10
395.46	1121.12
395.65	1167.93
395.84	1167.93
396.04	1163.25
396.23	1104.73
396.42	1109.41
396.62	1123.46
396.81	1224.10
397.00	1221.76
397.19	1198.35
397.39	1198.35
397.58	1242.82
397.77	1217.08
397.97	1233.46
398.16	1280.27
398.35	1308.36
398.55	1308.36
398.74	1291.98
398.93	1338.79
399.12	1259.21
399.32	1256.87
399.51	1277.93
399.70	1343.47
399.90	1294.32
400.09	1437.09
400.28	1418.36
400.47	1413.68
400.67	1448.79
400.86	1441.77
401.05	1350.49
401.24	1369.21
401.44	1324.74
401.63	1404.32
401.82	1488.58
402.01	1467.52
402.21	1483.90
402.40	1446.45
402.59	1451.13
402.78	1385.60
402.97	1467.52
403.17	1467.52
403.36	1554.12
403.55	1565.82
403.74	1483.90
403.93	1577.52
404.13	1568.16
404.32	1554.12
404.51	1577.52
404.70	1579.86
404.89	1621.99
405.09	1621.99
405.28	1659.44
405.47	1661.78
405.66	1675.82
405.85	1675.82
406.05	1757.74
406.24	1701.57
406.43	1694.55
406.62	1692.21
406.81	1799.87
407.00	1788.17
407.20	1806.89
407.39	1703.91
407.58	1811.57
407.77	1884.13
407.96	1921.58
408.15	1872.43
408.34	1863.07
408.54	1827.96
408.73	1886.47
408.92	1949.67
409.11	1942.64
409.30	2050.31
409.49	1989.46
409.68	1966.05
409.87	1959.03
410.07	2104.14
410.26	2003.50
410.45	2031.58
410.64	2087.76
410.83	2181.38
411.02	2097.12
411.21	2186.06
411.40	2122.87
411.59	2143.93
411.78	2150.95
411.98	2183.72
412.17	2157.97
412.36	2223.51
412.55	2251.60
412.74	2382.67
412.93	2328.83
413.12	2303.09
413.31	2413.09
413.50	2403.73
413.69	2420.11
413.88	2387.35
414.07	2300.75
414.26	2406.07
414.45	2497.35
414.64	2537.14
414.83	2487.99
415.02	2499.69
415.22	2569.91
415.41	2616.72
415.60	2579.27
415.79	2682.25
415.98	2745.45
416.17	2668.21
416.36	2693.96
416.55	2649.49
416.74	2715.02
416.93	2782.90
417.12	2832.05
417.31	2892.90
417.50	2778.22
417.69	2909.29
417.88	2942.05
418.07	2974.82
418.26	2771.19
418.45	2986.52
418.64	3068.44
418.83	2944.39
419.02	2965.46
419.21	2991.20
419.39	3138.66
419.58	3049.72
419.77	3098.87
419.96	3070.78
420.15	3141.00
420.34	3035.67
420.53	3026.31
420.72	3148.02
420.91	3143.34
421.10	3251.00
421.29	3300.16
421.48	3155.04
421.67	3281.43
421.86	3288.45
422.05	3234.62
422.24	3232.28
422.43	3227.60
422.61	3335.26
422.80	3241.64
422.99	3323.56
423.18	3232.28
423.37	3393.78
423.56	3272.07
423.75	3382.07
423.94	3152.70
424.13	3131.64
424.32	3227.60
424.50	3417.18
424.69	3433.57
424.88	3335.26
425.07	3295.47
425.26	3300.16
425.45	3386.76
425.64	3295.47
425.83	3365.69
426.01	3417.18
426.20	3417.18
426.39	3480.38
426.58	3485.06
426.77	3513.14
426.96	3389.10
427.15	3513.14
427.33	3463.99
427.52	3365.69
427.71	3583.36
427.90	3550.59
428.09	3681.66
428.28	3599.74
428.46	3691.02
428.65	3574.00
428.84	3784.65
429.03	3681.66
429.22	3618.47
429.40	3733.15
429.59	3693.37
429.78	3555.27
429.97	3606.77
430.16	3679.32
430.34	3709.75
430.53	3859.54
430.72	3845.50
430.91	3782.31
431.10	3702.73
431.28	3815.07
431.47	3962.53
431.66	3920.40
431.85	3950.82
432.03	3943.80
432.22	4114.66
432.41	3997.64
432.60	4016.36
432.79	4126.36
432.97	4002.32
433.16	4053.81
433.35	4154.45
433.54	4037.42
433.72	4224.67
433.91	4145.09
434.10	4088.92
434.28	4163.81
434.47	4250.41
434.66	4255.09
434.85	4140.41
435.03	4257.43
435.22	4212.96
435.41	4355.74
435.59	4409.57
435.78	4299.56
435.97	4447.02
436.16	4416.59
436.34	4491.49
436.53	4458.72
436.72	4540.64
436.90	4379.14
437.09	4407.23
437.28	4337.01
437.46	4386.16
437.65	4435.32
437.84	4421.27
438.02	4505.53
438.21	4542.98
438.40	4603.83
438.58	4550.00
438.77	4683.41
438.96	4613.20
439.14	4737.24
439.33	4844.91
439.52	4861.29
439.70	4772.35
439.89	4945.55
440.08	4924.49
440.26	5034.49
440.45	4819.16
440.63	4873.00
440.82	5128.11
441.01	5179.61
441.19	4973.64
441.38	5226.42
441.57	5156.20
441.75	5282.59
441.94	5270.89
442.12	5455.79
442.31	5392.59
442.50	5317.70
442.68	5301.31
442.87	5352.81
443.05	5378.55
443.24	5607.92
443.43	5533.03
443.61	5427.70
443.80	5540.05
443.98	5633.67
444.17	5315.36
444.35	5387.91
444.54	5554.09
444.73	5605.58
444.91	5572.82
445.10	5687.50
445.28	5547.07
445.47	5521.32
445.65	5568.13
445.84	5605.58
446.02	5533.03
446.21	5490.90
446.39	5577.50
446.58	5664.10
446.77	5528.35
446.95	5390.25
447.14	5631.33
447.32	5804.53
447.51	5746.02
447.69	5420.68
447.88	5792.83
448.06	5626.65
448.25	5645.37
448.43	5542.39
448.62	5748.36
448.80	5708.57
448.99	5823.25
449.17	5870.06
449.36	5760.06
449.54	5750.70
449.73	5963.68
449.91	5818.57
450.10	5909.85
450.28	6094.76
450.46	6183.70
450.65	6066.67
450.83	6080.71
451.02	5870.06
451.20	5980.07
451.39	6047.94
451.57	6122.84
451.76	6251.57
451.94	6069.01
452.13	6342.85
452.31	6097.10
452.49	5912.19
452.68	6171.99
452.86	6200.08
453.05	6167.31
453.23	6282.00
453.42	6270.30
453.60	6286.68
453.78	6417.75
453.97	6183.70
454.15	6235.19
454.34	6368.60
454.52	6438.81
454.70	6392.00
454.89	6635.42
455.07	6422.43
455.26	6375.62
455.44	6579.25
455.62	6478.60
455.81	6616.69
455.99	6539.46
456.17	6342.85
456.36	6644.78
456.54	6604.99
456.73	6712.66
456.91	6771.17
457.09	6719.68
457.28	6984.16
457.46	6726.70
457.64	7026.29
457.83	6846.07
458.01	6754.79
458.19	7073.10
458.38	7077.78
458.56	6991.18
458.74	7035.65
458.93	6956.07
459.11	7218.21
459.29	6946.71
459.48	7164.38
459.66	7119.91
459.84	7208.85
460.03	7372.69
460.21	7276.73
460.39	7253.32
460.57	7379.71
460.76	7321.20
460.94	7332.90
461.12	7391.41
461.31	7258.00
461.49	7342.26
461.67	7342.26
461.85	7478.01
462.04	7506.10
462.22	7803.35
462.40	7667.60
462.59	7616.10
462.77	7602.06
462.95	7623.12
463.13	7632.49
463.32	7714.41
463.50	7786.96
463.68	7604.40
463.86	7873.56
464.05	7810.37
464.23	7695.68
464.41	7712.07
464.59	7644.19
464.78	7885.26
464.96	7646.53
465.14	7770.58
465.32	8006.97
465.50	7822.07
465.69	7817.39
465.87	7749.51
466.05	7978.89
466.23	7932.08
466.41	8177.83
466.60	8006.97
466.78	8067.83
466.96	7918.03
467.14	7967.18
467.32	8180.17
467.51	8194.22
467.69	7981.23
467.87	8149.75
468.05	8269.11
468.23	8252.73
468.41	8311.24
468.60	8322.94
468.78	8383.80
468.96	8360.39
469.14	8566.36
469.32	8444.65
469.50	8336.99
469.69	8234.00
469.87	8521.89
470.05	8648.28
470.23	8606.15
470.41	8610.83
470.59	8865.95
470.77	8564.02
470.95	8601.47
471.14	8786.37
471.32	8580.40
471.50	8896.38
471.68	8917.44
471.86	8812.12
472.04	8830.84
472.22	9160.86
472.40	8865.95
472.58	8978.30
472.77	9301.29
472.95	9240.44
473.13	9455.76
473.31	9315.33
473.49	9301.29
473.67	9259.16
473.85	9179.58
474.03	9535.34
474.21	9589.17
474.39	9708.54
474.57	9827.91
474.75	9860.68
474.93	9788.12
475.12	9701.52
475.30	9898.13
475.48	9900.47
475.66	10033.88
475.84	9769.40
476.02	9994.09
476.20	10054.94
476.38	10108.77
476.56	10361.55
476.74	10293.68
476.92	10256.23
477.10	10251.55
477.28	10527.73
477.46	10230.48
477.64	10532.41
477.82	10663.48
478.00	10991.16
478.18	10995.84
478.36	11176.06
478.54	11162.01
478.72	11147.97
478.90	11206.48
479.08	11332.87
479.26	11346.92
479.44	11377.34
479.62	11548.20
479.80	11679.27
479.98	11719.06
480.16	11798.64
480.34	11749.49
480.52	12131.00
480.70	11843.11
480.88	12032.69
481.06	11934.39
481.24	12166.10
481.41	12285.47
481.59	12784.01
481.77	12379.09
481.95	12578.04
482.13	12648.26
482.31	12821.45
482.49	12849.54
482.67	13142.11
482.85	13373.82
483.03	13092.96
483.21	13289.56
483.39	13738.94
483.57	13479.15
483.74	13621.92
483.92	13731.92
484.10	13743.63
484.28	14015.13
484.46	14171.94
484.64	14321.74
484.82	14394.29
485.00	14317.06
485.18	14623.67
485.35	14853.04
485.53	14431.74
485.71	14684.52
485.89	15176.03
486.07	14951.34
486.25	15044.96
486.43	15290.72
486.61	15419.45
486.78	15613.71
486.96	15529.45
487.14	15737.76
487.32	15592.65
487.50	15810.32
487.68	16285.45
487.85	16372.05
488.03	16372.05
488.21	16603.76
488.39	16458.65
488.57	16709.08
488.75	16783.98
488.92	17062.51
489.10	17165.49
489.28	17226.34
489.46	17568.06
489.64	16982.93
489.81	17720.20
489.99	17816.16
490.17	17933.18
490.35	18012.76
490.53	18017.44
490.70	18235.11
490.88	18092.34
491.06	18778.12
491.24	18583.85
491.41	18562.79
491.59	18574.49
491.77	18808.54
491.95	18899.83
492.13	19278.99
492.30	19325.80
492.48	19288.35
492.66	19396.02
492.84	19770.51
493.01	19644.12
493.19	19571.56
493.37	19983.49
493.54	19707.31
493.72	20095.84
493.90	19957.75
494.08	20306.49
494.25	20575.65
494.43	20460.96
494.61	20982.90
494.79	20992.26
494.96	20524.16
495.14	21198.23
495.32	21153.76
495.49	21205.25
495.67	21205.25
495.85	21453.35
496.02	21834.86
496.20	21839.54
496.38	21795.07
496.55	21902.73
496.73	22221.05
496.91	22232.75
497.09	22324.03
497.26	22239.77
497.44	22190.62
497.62	22735.96
497.79	22911.50
497.97	22965.34
498.14	22806.18
498.32	23178.33
498.50	23264.92
498.67	23473.23
498.85	23255.56
499.03	23496.64
499.20	23658.14
499.38	23328.12
499.56	24056.03
499.73	23569.19
499.91	24290.08
500.08	24336.89
500.26	24074.75
500.44	24364.98
500.61	24608.39
500.79	24341.57
500.97	24315.83
501.14	24615.41
501.32	24929.05
501.49	24613.07
501.67	24772.23
501.84	25090.54
502.02	25146.72
502.20	25163.10
502.37	25212.25
502.55	24973.52
502.72	25200.55
502.90	25680.36
503.07	25535.24
503.25	25530.56
503.43	25656.95
503.60	25591.42
503.78	26228.04
503.95	25809.09
504.13	26054.84
504.30	26073.57
504.48	26288.90
504.65	26349.75
504.83	26225.70
505.01	26579.12
505.18	26560.40
505.36	26560.40
505.53	26513.59
505.71	27040.21
505.88	27047.23
506.06	26635.30
506.23	27082.34
506.41	26932.54
506.58	27630.02
506.76	27365.54
506.93	27489.59
507.11	27281.28
507.28	27257.88
507.46	27456.82
507.63	27466.19
507.81	27854.72
507.98	28025.57
508.16	27978.76
508.33	28030.26
508.50	27969.40
508.68	28105.15
508.85	28472.62
509.03	28341.55
509.20	28528.79
509.38	28659.86
509.55	28706.67
509.73	28655.18
509.90	28589.64
510.08	28463.25
510.25	28620.07
510.42	29273.08
510.60	29270.74
510.77	29013.28
510.95	29460.32
511.12	29596.07
511.30	29252.02
511.47	29708.42
511.64	29645.23
511.82	29661.61
511.99	29589.05
512.17	29703.74
512.34	29881.62
512.51	30433.99
512.69	30382.49
512.86	30000.99
513.04	30466.75
513.21	30366.11
513.38	30354.41
513.56	30546.33
513.73	30206.95
513.90	30602.50
514.08	30436.33
514.25	30551.01
514.43	31185.30
514.60	31047.21
514.77	31299.98
514.95	30918.48
515.12	31089.34
515.29	30747.62
515.47	31227.43
515.64	31187.64
515.81	31477.86
515.99	31419.35
516.16	32046.62
516.33	31597.23
516.51	31620.64
516.68	31765.75
516.85	31545.74
517.03	31821.92
517.20	32161.30
517.37	32130.87
517.54	32011.51
517.72	32156.62
517.89	32451.53
518.06	32519.40
518.24	32060.66
518.41	32163.64
518.58	32442.17
518.75	32189.39
518.93	32247.90
519.10	32493.66
519.27	32385.99
519.45	32760.48
519.62	32989.85
519.79	33352.63
519.96	32837.72
520.14	33230.93
520.31	32699.62
520.48	33223.90
520.65	33088.15
520.83	33975.22
521.00	33975.22
521.17	33542.22
521.34	33734.14
521.52	33661.58
521.69	33659.24
521.86	33996.28
522.03	34047.77
522.20	34068.84
522.38	34080.54
522.55	34572.05
522.72	33729.46
522.89	34490.13
523.07	34515.88
523.24	34188.21
523.41	34677.38
523.58	34724.19
523.75	34778.02
523.92	34799.08
524.10	34813.13
524.27	35101.01
524.44	35021.44
524.61	34913.77
524.78	34810.79
524.96	35178.25
525.13	35227.40
525.30	35182.93
525.47	35384.22
525.64	35447.41
525.81	35438.05
525.98	35775.09
526.16	35489.54
526.33	35454.44
526.50	35840.62
526.67	35386.56
526.84	35803.17
527.01	35452.09
527.18	35927.22
527.36	36158.94
527.53	36126.17
527.70	36580.23
527.87	36318.09
528.04	36135.53
528.21	36294.69
528.38	36065.31
528.55	36418.74
528.72	36517.04
528.89	36748.75
529.07	36086.38
529.24	36453.84
529.41	36643.43
529.58	36725.35
529.75	36425.76
529.92	36617.68
530.09	36673.85
530.26	36746.41
530.43	36680.88
530.60	36879.82
530.77	37104.51
530.94	37193.45
531.11	36978.12
531.28	37432.19
531.46	37186.43
531.63	37429.85
531.80	37184.09
531.97	37488.36
532.14	37305.80
532.31	37326.86
532.48	37970.51
532.65	38122.65
532.82	37411.12
532.99	37673.26
533.16	37579.64
533.33	37687.31
533.50	37696.67
533.67	37809.01
533.84	37771.57
534.01	37865.19
534.18	38291.16
534.35	38363.72
534.52	38445.64
534.69	38157.75
534.86	38775.66
535.03	38553.30
535.20	38705.44
535.37	38455.00
535.54	38913.75
535.71	38298.19
535.88	38714.80
536.05	38852.89
536.22	38689.06
536.38	39070.56
536.55	38665.65
536.72	38572.03
536.89	39049.50
537.06	39335.04
537.23	39559.73
537.40	39033.11
537.57	39206.31
537.74	39150.14
537.91	39367.81
538.08	39531.65
538.25	39084.61
538.42	39161.84
538.59	39723.57
538.75	39339.72
538.92	39344.41
539.09	39669.74
539.26	39522.29
539.43	39594.84
539.60	39545.69
539.77	40098.06
539.94	40027.84
540.11	40098.06
540.28	40072.31
540.44	39714.21
540.61	39931.88
540.78	39742.30
540.95	39864.00
541.12	39992.73
541.29	39964.65
541.46	40149.55
541.62	40287.64
541.79	40535.74
541.96	40168.27
542.13	39959.97
542.30	40268.92
542.47	40531.06
542.63	40378.92
542.80	40577.87
542.97	41043.63
543.14	40935.97
543.31	41235.56
543.48	41078.74
543.64	41415.78
543.81	41104.49
543.98	41036.61
544.15	41600.68
544.32	41111.51
544.48	41565.57
544.65	41558.55
544.82	41186.41
544.99	41317.48
545.16	42021.98
545.32	41214.49
545.49	42043.04
545.66	41911.97
545.83	41588.98
546.00	41614.72
546.16	41759.84
546.33	41720.05
546.50	41570.25
546.67	41656.85
546.83	41174.70
547.00	41647.49
547.17	41902.61
547.34	42089.85
547.50	42267.73
547.67	42756.91
547.84	41918.99
548.00	42029.00
548.17	42363.70
548.34	42328.59
548.51	42508.81
548.67	42590.73
548.84	42541.58
549.01	42176.45
549.18	42330.93
549.34	42195.18
549.51	42508.81
549.68	42370.72
549.84	42646.90
550.01	42841.17
550.18	42515.83
550.34	42478.38
550.51	42667.97
550.68	42677.33
550.84	42548.60
551.01	42857.55
551.18	42354.33
551.34	42579.03
551.51	42487.74
551.68	43005.00
551.84	42784.99
552.01	42600.09
552.18	42953.51
552.34	43234.38
552.51	43157.14
552.68	42969.90
552.84	42965.21
553.01	43267.14
553.18	42721.80
553.34	43339.70
553.51	43328.00
553.67	43377.15
553.84	43168.84
554.01	43346.72
554.17	43185.22
554.34	44179.95
554.51	43438.00
554.67	43796.10
554.84	43749.29
555.00	43676.74
555.17	43510.56
555.33	43761.00
555.50	44088.67
555.67	43650.99
555.83	43634.61
556.00	43784.40
556.16	44116.76
556.33	43782.06
556.50	44236.12
556.66	44142.50
556.83	44442.09
556.99	44236.12
557.16	44336.77
557.32	44505.29
557.49	44425.71
557.65	44392.94
557.82	44041.86
557.98	44355.49
558.15	44348.47
558.32	44715.93
558.48	44069.95
558.65	44226.76
558.81	44271.23
558.98	44107.40
559.14	44168.25
559.31	44388.26
559.47	43973.98
559.64	44755.72
559.80	44144.84
559.97	45088.08
560.13	44203.36
560.30	44612.95
560.46	44708.91
560.63	44460.82
560.79	44938.29
560.96	45261.28
561.12	44942.97
561.29	44652.74
561.45	44711.25
561.61	44580.18
561.78	44877.43
561.94	44734.66
562.11	44575.50
562.27	44889.13
562.44	44966.37
562.60	44907.86
562.77	44694.87
562.93	45148.93
563.10	45048.29
563.26	44657.42
563.42	45415.76
563.59	44718.28
563.75	44659.76
563.92	44788.49
564.08	45500.01
564.24	44914.88
564.41	45144.25
564.57	45024.89
564.74	44973.39
564.90	44877.43
565.07	44807.22
565.23	45469.59
565.39	45223.83
565.56	45446.18
565.72	44959.35
565.88	45326.81
566.05	45507.04
566.21	45125.53
566.38	45177.02
566.54	45801.94
566.70	45205.11
566.87	45165.32
567.03	45350.22
567.19	45560.87
567.36	45595.98
567.52	45467.25
567.68	45542.14
567.85	45310.43
568.01	45549.17
568.17	45619.38
568.34	45546.82
568.50	45457.88
568.66	45090.42
568.83	45572.57
568.99	45757.47
569.15	45226.17
569.32	45188.72
569.48	45584.27
569.64	46431.55
569.81	45743.43
569.97	45752.79
570.13	45717.68
570.30	45233.19
570.46	45764.49
570.62	45841.73
570.78	45745.77
570.95	45661.51
571.11	45909.61
571.27	45759.81
571.43	45736.41
571.60	45778.54
571.76	45638.11
571.92	45745.77
572.09	45748.11
572.25	45705.98
572.41	45808.96
572.57	45684.92
572.74	46239.62
572.90	45633.42
573.06	46239.62
573.22	46274.73
573.38	46040.68
573.55	46251.33
573.71	46270.05
573.87	46291.12
574.03	45705.98
574.20	46230.26
574.36	46155.36
574.52	45965.78
574.68	45916.63
574.84	46347.29
575.01	45979.82
575.17	46445.59
575.33	45656.83
575.49	46012.59
575.65	46501.76
575.82	46103.87
575.98	46216.22
576.14	45979.82
576.30	46075.79
576.46	46284.09
576.62	46197.49
576.79	45921.31
576.95	45808.96
577.11	45940.04
577.27	46213.88
577.43	46202.18
577.59	46679.64
577.75	46321.54
577.92	45806.62
578.08	46092.17
578.24	46270.05
578.40	46513.47
578.56	46000.89
578.72	46178.77
578.88	45947.06
579.04	46256.01
579.21	46096.85
579.37	46389.42
579.53	46426.87
579.69	46260.69
579.85	46216.22
580.01	46181.11
580.17	46366.01
580.33	46284.09
580.49	46169.41
580.65	46447.93
580.82	46337.93
580.98	46373.03
581.14	46181.11
581.30	46309.84
581.46	46188.13
581.62	46012.59
581.78	46061.74
581.94	46438.57
582.10	46248.99
582.26	46667.94
582.42	46312.18
582.58	46263.03
582.74	46358.99
582.90	46321.54
583.06	46457.29
583.22	46167.07
583.38	46817.74
583.54	46382.40
583.70	46153.02
583.86	46717.09
584.02	46380.06
584.18	46398.78
584.34	46508.79
584.50	46555.60
584.66	46916.04
584.82	46284.09
584.98	46878.59
585.14	46405.80
585.30	46480.70
585.46	46689.01
585.62	46178.77
585.78	46476.02
585.94	46068.76
586.10	46293.46
586.26	46389.42
586.42	46424.53
586.58	46377.72
586.74	46518.15
586.90	46494.74
587.06	46471.34
587.22	46623.47
587.38	46595.38
587.54	46476.02
587.70	46621.13
587.86	46712.41
588.02	46389.42
588.18	46347.29
588.34	46754.54
588.49	46677.30
588.65	46522.83
588.81	46471.34
588.97	46768.58
589.13	46464.32
589.29	46354.31
589.45	47086.90
589.61	46490.06
589.77	46593.04
589.93	46703.05
590.08	46698.37
