SpectraSuite Data File
++++++++++++++++++++++++++++++++++++
Date: Fri Oct 25 11:22:48 EDT 2013
User: price-jones
Dark Spectrum Present: No
Reference Spectrum Present: No
Number of Sampled Component Spectra: 1
Spectrometers: USB2+H05261
Integration Time (usec): 100000 (USB2+H05261)
Spectra Averaged: 1 (USB2+H05261)
Boxcar Smoothing: 0 (USB2+H05261)
Correct for Electrical Dark: No (USB2+H05261)
Strobe/Lamp Enabled: No (USB2+H05261)
Correct for Detector Non-linearity: No (USB2+H05261)
Correct for Stray Light: No (USB2+H05261)
Number of Pixels in Processed Spectrum: 2048
>>>>>Begin Processed Spectral Data<<<<<
365.73	161.50
365.92	161.50
366.12	161.50
366.32	93.62
366.52	14.04
366.72	93.62
366.91	65.54
367.11	110.01
367.31	74.90
367.51	91.28
367.70	74.90
367.90	102.98
368.10	110.01
368.30	191.92
368.49	149.79
368.69	128.73
368.89	107.66
369.09	156.82
369.28	175.54
369.48	140.43
369.68	124.05
369.87	191.92
370.07	203.63
370.27	184.90
370.47	287.89
370.66	528.96
370.86	594.50
371.06	697.48
371.25	744.29
371.45	669.39
371.65	650.67
371.84	655.35
372.04	685.78
372.24	739.61
372.44	709.18
372.63	791.10
372.83	713.86
373.03	692.80
373.22	795.78
373.42	807.48
373.62	842.59
373.81	809.83
374.01	755.99
374.21	800.46
374.40	774.72
374.60	849.61
374.79	877.70
374.99	828.55
375.19	863.66
375.38	866.00
375.58	868.34
375.78	844.93
375.97	959.62
376.17	882.38
376.37	812.17
376.56	870.68
376.76	894.08
376.95	851.96
377.15	952.60
377.35	915.15
377.54	940.90
377.74	798.12
377.93	954.94
378.13	931.53
378.33	936.21
378.52	931.53
378.72	961.96
378.91	950.26
379.11	861.32
379.31	978.34
379.50	922.17
379.70	896.43
379.89	985.37
380.09	952.60
380.28	961.96
380.48	933.87
380.68	978.34
380.87	992.39
381.07	1001.75
381.26	954.94
381.46	931.53
381.65	954.94
381.85	1114.10
382.04	1086.01
382.24	1095.37
382.43	1015.79
382.63	1081.33
382.83	1008.77
383.02	1170.27
383.22	1156.22
383.41	1036.86
383.61	1020.47
383.80	1025.15
384.00	1121.12
384.19	1104.73
384.39	1193.67
384.58	1109.41
384.78	1191.33
384.97	1172.61
385.17	1233.46
385.36	1165.59
385.56	1123.46
385.75	1093.03
385.95	1191.33
386.14	1280.27
386.34	1188.99
386.53	1263.89
386.72	1174.95
386.92	1245.16
387.11	1289.64
387.31	1291.98
387.50	1214.74
387.70	1184.31
387.89	1233.46
388.09	1284.95
388.28	1226.44
388.48	1210.06
388.67	1259.21
388.86	1406.66
389.06	1413.68
389.25	1331.76
389.45	1399.64
389.64	1299.00
389.84	1266.23
390.03	1420.71
390.22	1526.03
390.42	1329.42
390.61	1324.74
390.81	1404.32
391.00	1406.66
391.19	1446.45
391.39	1460.49
391.58	1369.21
391.78	1376.24
391.97	1387.94
392.16	1425.39
392.36	1547.09
392.55	1523.69
392.75	1530.71
392.94	1434.75
393.13	1504.96
393.33	1474.54
393.52	1462.83
393.71	1694.55
393.91	1668.80
394.10	1509.65
394.29	1650.08
394.49	1596.25
394.68	1636.03
394.88	1675.82
395.07	1724.97
395.26	1638.38
395.46	1647.74
395.65	1832.64
395.84	1682.85
396.04	1734.34
396.23	1647.74
396.42	1713.27
396.62	1753.06
396.81	1820.94
397.00	1827.96
397.19	1769.44
397.39	1809.23
397.58	1813.92
397.77	1802.21
397.97	1886.47
398.16	1802.21
398.35	1902.86
398.55	1842.00
398.74	1863.07
398.93	1959.03
399.12	1949.67
399.32	1891.15
399.51	1933.28
399.70	1935.62
399.90	2017.54
400.09	2047.97
400.28	2059.67
400.47	1947.33
400.67	2097.12
400.86	2087.76
401.05	2043.29
401.24	2085.42
401.44	2174.36
401.63	2099.46
401.82	2204.78
402.01	2069.03
402.21	2083.08
402.40	2216.49
402.59	2211.81
402.78	2174.36
402.97	2263.30
403.17	2277.34
403.36	2282.02
403.55	2321.81
403.74	2282.02
403.93	2375.64
404.13	2349.90
404.32	2335.85
404.51	2445.86
404.70	2490.33
404.89	2389.69
405.09	2410.75
405.28	2544.16
405.47	2448.20
405.66	2420.11
405.85	2434.16
406.05	2506.71
406.24	2502.03
406.43	2466.92
406.62	2670.55
406.81	2630.76
407.00	2546.50
407.20	2668.21
407.39	2616.72
407.58	2700.98
407.77	2717.36
407.96	2736.09
408.15	2743.11
408.34	2726.72
408.54	2754.81
408.73	2822.69
408.92	2810.98
409.11	2920.99
409.30	2871.84
409.49	2913.97
409.68	2836.73
409.87	2937.37
410.07	3059.08
410.26	3038.02
410.45	3002.91
410.64	3075.46
410.83	3119.93
411.02	3063.76
411.21	3248.66
411.40	3276.75
411.59	3197.17
411.78	3087.17
411.98	3267.39
412.17	3241.64
412.36	3332.92
412.55	3393.78
412.74	3503.78
412.93	3431.23
413.12	3344.63
413.31	3480.38
413.50	3391.44
413.69	3578.68
413.88	3618.47
414.07	3590.38
414.26	3648.90
414.45	3538.89
414.64	3796.35
414.83	3698.05
415.02	3791.67
415.22	3794.01
415.41	3964.87
415.60	3878.27
415.79	3939.12
415.98	4060.83
416.17	3950.82
416.36	3995.29
416.55	3995.29
416.74	4035.08
416.93	3946.14
417.12	4114.66
417.31	4074.87
417.50	4236.37
417.69	4196.58
417.88	4332.33
418.07	4360.42
418.26	4259.78
418.45	4369.78
418.64	4458.72
418.83	4432.97
419.02	4376.80
419.21	4582.77
419.39	4404.89
419.58	4400.21
419.77	4486.81
419.96	4641.28
420.15	4465.74
420.34	4610.86
420.53	4695.11
420.72	4573.41
420.91	4615.54
421.10	4737.24
421.29	4739.58
421.48	4786.40
421.67	4926.83
421.86	4917.47
422.05	4894.06
422.24	4905.76
422.43	4772.35
422.61	4793.42
422.80	5025.13
422.99	4863.63
423.18	4992.36
423.37	5107.05
423.56	5121.09
423.75	4919.81
423.94	4975.98
424.13	4695.11
424.32	4655.33
424.50	5205.35
424.69	5074.28
424.88	5090.67
425.07	5025.13
425.26	5067.26
425.45	4975.98
425.64	4873.00
425.83	4983.00
426.01	5179.61
426.20	4990.02
426.39	4968.96
426.58	5074.28
426.77	5048.54
426.96	5181.95
427.15	5212.37
427.33	5118.75
427.52	5144.50
427.71	5317.70
427.90	5273.23
428.09	5504.94
428.28	5561.11
428.46	5401.96
428.65	5280.25
428.84	5533.03
429.03	5509.62
429.22	5359.83
429.40	5383.23
429.59	5420.68
429.78	5413.66
429.97	5287.27
430.16	5514.30
430.34	5577.50
430.53	5579.84
430.72	5746.02
430.91	5685.16
431.10	5561.11
431.28	5643.03
431.47	5638.35
431.66	5823.25
431.85	5771.76
432.03	5874.74
432.22	5937.94
432.41	5825.59
432.60	5898.15
432.79	6029.22
432.97	6045.60
433.16	6120.50
433.35	5991.77
433.54	6160.29
433.72	6221.14
433.91	6118.16
434.10	6104.12
434.28	6001.13
434.47	6153.27
434.66	6305.40
434.85	6377.96
435.03	6387.32
435.22	6389.66
435.41	6417.75
435.59	6356.90
435.78	6424.77
435.97	6408.39
436.16	6548.82
436.34	6647.12
436.53	6494.99
436.72	6743.08
436.90	6410.73
437.09	6562.86
437.28	6551.16
437.46	6462.22
437.65	6546.48
437.84	6494.99
438.02	6565.20
438.21	6703.29
438.40	6871.81
438.58	6974.80
438.77	7045.01
438.96	7059.06
439.14	7124.59
439.33	7225.23
439.52	7159.70
439.70	7176.08
439.89	7463.97
440.08	7438.22
440.26	7496.74
440.45	7262.68
440.63	7468.65
440.82	7665.25
441.01	7552.91
441.19	7674.62
441.38	7854.84
441.57	7728.45
441.75	7695.68
441.94	7999.95
442.12	7810.37
442.31	8084.21
442.50	8105.28
442.68	7948.46
442.87	8067.83
443.05	8086.55
443.24	8498.49
443.43	8145.06
443.61	8177.83
443.80	8468.06
443.98	7925.05
444.17	7751.85
444.35	8079.53
444.54	8290.18
444.73	8327.63
444.91	8344.01
445.10	8409.54
445.28	8241.03
445.47	8320.60
445.65	8219.96
445.84	8439.97
446.02	8732.54
446.21	8521.89
446.39	8376.78
446.58	8510.19
446.77	8336.99
446.95	8348.69
447.14	8332.31
447.32	8585.08
447.51	8465.72
447.69	8519.55
447.88	8446.99
448.06	8526.57
448.25	8566.36
448.43	8800.41
448.62	8629.56
448.80	8606.15
448.99	8718.50
449.17	8765.31
449.36	8479.76
449.54	9025.11
449.73	8940.85
449.91	9015.74
450.10	8990.00
450.28	9149.15
450.46	9160.86
450.65	9380.87
450.83	8987.66
451.02	8968.93
451.20	9238.09
451.39	9231.07
451.57	9130.43
451.76	9179.58
451.94	9121.07
452.13	9214.69
452.31	9221.71
452.49	9228.73
452.68	9493.21
452.86	9345.76
453.05	9476.83
453.23	9591.52
453.42	9523.64
453.60	9270.86
453.78	9633.64
453.97	9312.99
454.15	9490.87
454.34	9446.40
454.52	9696.84
454.70	9935.57
454.89	9795.14
455.07	9811.53
455.26	9832.59
455.44	9893.44
455.62	9626.62
455.81	9781.10
455.99	10202.40
456.17	9930.89
456.36	10101.75
456.54	10186.01
456.73	10106.43
456.91	10464.54
457.09	10483.26
457.28	10534.75
457.46	10312.40
457.64	10445.81
457.83	10422.41
458.01	10523.05
458.19	10736.04
458.38	10565.18
458.56	10359.21
458.74	10523.05
458.93	10782.85
459.11	10750.08
459.29	10822.64
459.48	10721.99
459.66	10712.63
459.84	11180.74
460.03	10829.66
460.21	10724.33
460.39	10839.02
460.57	10956.05
460.76	11208.83
460.94	11169.04
461.12	11131.59
461.31	11075.42
461.49	11129.25
461.67	11295.43
461.85	11454.58
462.04	11398.41
462.22	11810.34
462.40	11676.93
462.59	11433.52
462.77	11442.88
462.95	11405.43
463.13	11667.57
463.32	11791.62
463.50	11789.28
463.68	11843.11
463.86	11957.80
464.05	11733.11
464.23	11648.85
464.41	11934.39
464.59	11845.45
464.78	12271.43
464.96	12011.63
465.14	11786.94
465.32	12159.08
465.50	12088.87
465.69	12163.76
465.87	12215.26
466.05	12123.98
466.23	12212.92
466.41	12400.16
466.60	12594.42
466.78	12114.61
466.96	12170.79
467.14	12194.19
467.32	12432.93
467.51	12695.07
467.69	12156.74
467.87	12552.29
468.05	12861.24
468.23	12713.79
468.41	12482.08
468.60	12837.84
468.78	12868.27
468.96	12716.13
469.14	12816.77
469.32	13025.08
469.50	12732.51
469.69	13029.76
469.87	13275.52
470.05	13074.23
470.23	13394.89
470.41	13359.78
470.59	13282.54
470.77	13376.16
470.95	13582.13
471.14	13776.39
471.32	13289.56
471.50	13774.05
471.68	13757.67
471.86	13820.86
472.04	13769.37
472.22	14038.53
472.40	13790.44
472.58	13862.99
472.77	14054.92
472.95	14228.12
473.13	14607.28
473.31	14183.65
473.49	14164.92
473.67	14272.59
473.85	14169.60
474.03	14799.21
474.21	14672.82
474.39	14736.01
474.57	14815.59
474.75	14881.13
474.93	15185.40
475.12	14911.55
475.30	15080.07
475.48	15325.83
475.66	15044.96
475.84	15293.06
476.02	15501.37
476.20	15590.31
476.38	15768.19
476.56	16020.97
476.74	15754.15
476.92	15917.98
477.10	15859.47
477.28	16081.82
477.46	16304.17
477.64	16559.29
477.82	16524.18
478.00	16968.88
478.18	16957.18
478.36	16943.14
478.54	17289.54
478.72	17128.04
478.90	17385.50
479.08	17462.74
479.26	17900.42
479.44	17837.22
479.62	17977.65
479.80	18029.15
479.98	18183.62
480.16	18628.32
480.34	18242.14
480.52	18600.24
480.70	18562.79
480.88	18501.93
481.06	18478.53
481.24	18698.54
481.41	19447.51
481.59	19587.94
481.77	19508.37
481.95	19475.60
482.13	19726.04
482.31	19817.32
482.49	20397.77
482.67	20280.74
482.85	20482.03
483.03	20741.83
483.21	20636.50
483.39	20975.88
483.57	21095.25
483.74	21245.04
483.92	21432.29
484.10	21399.52
484.28	21357.39
484.46	21886.35
484.64	22270.20
484.82	21876.99
485.00	22204.66
485.18	22827.24
485.35	23150.24
485.53	22731.28
485.71	23124.49
485.89	23599.62
486.07	23414.72
486.25	23758.78
486.43	23721.33
486.61	24013.90
486.78	24273.70
486.96	24109.86
487.14	24704.35
487.32	24641.16
487.50	25205.23
487.68	24685.63
487.85	25446.30
488.03	25837.17
488.21	25975.27
488.39	25888.67
488.57	26202.30
488.75	26352.09
488.92	26195.28
489.10	27112.77
489.28	27115.11
489.46	27213.41
489.64	27040.21
489.81	27637.05
489.99	27388.95
490.17	27948.34
490.35	28074.73
490.53	28184.73
490.70	28566.24
490.88	28449.21
491.06	29027.32
491.24	29209.89
491.41	29043.71
491.59	29165.42
491.77	29455.64
491.95	30188.23
492.13	29631.18
492.30	30274.83
492.48	29823.11
492.66	30232.70
492.84	30225.68
493.01	30724.21
493.19	30717.19
493.37	31154.87
493.54	31110.40
493.72	31363.18
493.90	32013.85
494.08	31887.46
494.25	31964.70
494.43	32268.97
494.61	32683.24
494.79	32430.46
494.96	32751.12
495.14	32697.28
495.32	33584.35
495.49	33160.71
495.67	33553.92
495.85	33804.36
496.02	33818.40
496.20	34263.10
496.38	34099.26
496.55	34387.15
496.73	35026.12
496.91	34775.68
497.09	35253.15
497.26	35178.25
497.44	35112.72
497.62	35498.91
497.79	35915.52
497.97	35798.49
498.14	35882.75
498.32	35868.71
498.50	36259.58
498.67	36484.27
498.85	36582.57
499.03	36863.44
499.20	36823.65
499.38	37151.32
499.56	37270.69
499.73	37263.67
499.91	37390.06
500.08	37748.16
500.26	37343.25
500.44	37928.38
500.61	37907.32
500.79	37881.57
500.97	38323.93
501.14	38857.57
501.32	38682.03
501.49	38705.44
501.67	38625.86
501.84	39105.67
502.02	39145.46
502.20	38990.98
502.37	39463.77
502.55	39578.46
502.72	39695.49
502.90	39110.35
503.07	39665.06
503.25	39871.03
503.43	39683.78
503.60	40233.81
503.78	40397.65
503.95	40203.38
504.13	40669.15
504.30	40828.30
504.48	40346.15
504.65	40570.85
504.83	41193.43
505.01	41804.31
505.18	41607.70
505.36	41588.98
505.53	41762.18
505.71	42216.24
505.88	42010.28
506.06	41525.78
506.23	42197.52
506.41	42019.64
506.58	42356.67
506.76	42103.90
506.93	42834.14
507.11	42728.82
507.28	43098.62
507.46	42920.74
507.63	42995.64
507.81	43110.33
507.98	42993.30
508.16	43168.84
508.33	43257.78
508.50	43393.53
508.68	43969.30
508.85	44135.48
509.03	43899.09
509.20	44254.85
509.38	44296.98
509.55	44376.56
509.73	45036.59
509.90	45251.92
510.08	45071.70
510.25	45057.65
510.42	44802.53
510.60	45071.70
510.77	44982.76
510.95	45502.35
511.12	45186.38
511.30	45298.73
511.47	45605.34
511.64	45315.11
511.82	46497.08
511.99	45773.86
512.17	46129.62
512.34	45956.42
512.51	46564.96
512.69	46387.08
512.86	46244.30
513.04	46642.20
513.21	46557.94
513.38	47267.12
513.56	47110.30
513.73	47318.61
513.90	47140.73
514.08	47147.75
514.25	47199.24
514.43	47700.12
514.60	47552.66
514.77	47529.26
514.95	48135.46
515.12	47730.54
515.29	47803.10
515.47	48191.63
515.64	48238.44
515.81	48226.74
515.99	48479.52
516.16	48807.19
516.33	48807.19
516.51	48713.57
516.68	48849.32
516.85	48648.03
517.03	49008.48
517.20	49364.24
517.37	49324.45
517.54	49200.40
517.72	49425.09
517.89	49141.89
518.06	49570.21
518.24	49305.73
518.41	49195.72
518.58	49560.84
518.75	49757.45
518.93	49708.30
519.10	49624.04
519.27	49968.10
519.45	49984.48
519.62	49918.95
519.79	50138.96
519.96	50082.78
520.14	50178.75
520.31	50431.52
520.48	50370.67
520.65	50323.86
520.83	50866.86
521.00	50941.76
521.17	50520.46
521.34	50754.52
521.52	51119.64
521.69	50892.61
521.86	51138.36
522.03	51318.59
522.20	51716.48
522.38	51765.63
522.55	51578.39
522.72	51847.55
522.89	51447.32
523.07	51714.14
523.24	51737.54
523.41	51723.50
523.58	51494.13
523.75	51938.83
523.92	52053.51
524.10	51856.91
524.27	52083.94
524.44	51877.97
524.61	52463.11
524.78	52294.59
524.96	52460.77
525.13	52566.09
525.30	52521.62
525.47	52547.37
525.64	52381.19
525.81	52797.80
525.98	52818.87
526.16	52650.35
526.33	52734.61
526.50	53076.33
526.67	52889.09
526.84	53139.52
527.01	53294.00
527.18	52746.31
527.36	53188.67
527.53	53027.18
527.70	53619.33
527.87	53485.92
528.04	53434.43
528.21	53441.45
528.38	53347.83
528.55	53528.05
528.72	53638.06
528.89	53944.67
529.07	53612.31
529.24	53525.71
529.41	54096.80
529.58	53736.36
529.75	53633.38
529.92	53993.82
530.09	53907.22
530.26	54155.32
530.43	53853.39
530.60	53890.83
530.77	54096.80
530.94	53979.78
531.11	53958.71
531.28	54244.26
531.46	54522.78
531.63	54511.08
531.80	54262.98
531.97	54499.37
532.14	54707.68
532.31	54567.25
532.48	54887.90
532.65	54740.45
532.82	54569.59
532.99	54962.80
533.16	54651.51
533.33	54780.24
533.50	55128.98
533.67	54836.41
533.84	54759.17
534.01	55035.36
534.18	54885.56
534.35	55365.37
534.52	55543.25
534.69	55426.23
534.86	55409.84
535.03	55318.56
535.20	55194.51
535.37	55447.29
535.54	55480.06
535.71	55143.02
535.88	55709.43
536.05	55739.86
536.22	55753.90
536.38	55550.27
536.55	55597.09
536.72	55611.13
536.89	55725.81
537.06	55884.97
537.23	55789.01
537.40	55789.01
537.57	55634.53
537.74	55826.46
537.91	56018.38
538.08	56076.90
538.25	55718.79
538.42	56034.77
538.59	56158.81
538.75	56055.83
538.92	56086.26
539.09	56573.09
539.26	56090.94
539.43	56369.46
539.60	56334.35
539.77	56526.28
539.94	56577.77
540.11	56261.80
540.28	56626.92
540.44	56619.90
540.61	56350.74
540.78	56350.74
540.95	56460.74
541.12	56418.61
541.29	56598.83
541.46	56638.62
541.62	56858.63
541.79	56626.92
541.96	56397.55
542.13	56664.37
542.30	56987.36
542.47	57052.90
542.63	57055.24
542.80	56959.28
542.97	57190.99
543.14	57392.28
543.31	57333.76
543.48	57265.89
543.64	57731.65
543.81	57523.35
543.98	57305.68
544.15	57380.57
544.32	57654.42
544.48	57822.93
544.65	57434.41
544.82	57485.90
544.99	57509.30
545.16	57528.03
545.32	57366.53
545.49	57755.06
545.66	57818.25
545.83	57797.19
546.00	57836.98
546.16	57666.12
546.33	57752.72
546.50	57579.52
546.67	57698.89
546.83	57684.84
547.00	57783.15
547.17	57836.98
547.34	57710.59
547.50	58145.93
547.67	58159.97
547.84	57989.11
548.00	58302.74
548.17	58363.60
548.34	58230.19
548.51	58213.80
548.67	58246.57
548.84	58277.00
549.01	58176.36
549.18	58288.70
549.34	58136.57
549.51	58422.11
549.68	58492.33
549.84	58585.95
550.01	58541.48
550.18	58349.56
550.34	58489.99
550.51	58714.68
550.68	58358.92
550.84	58305.09
551.01	58555.52
551.18	58848.09
551.34	58473.60
551.51	58599.99
551.68	58688.93
551.84	58670.21
552.01	58504.03
552.18	58866.81
552.34	58796.60
552.51	58887.88
552.68	58681.91
552.84	58754.47
553.01	59077.46
553.18	59058.74
553.34	58927.67
553.51	58787.24
553.67	58960.44
553.84	58979.16
554.01	58894.90
554.17	59054.06
554.34	59107.89
554.51	59276.41
554.67	59348.96
554.84	59114.91
555.00	59044.69
555.17	58965.12
555.33	59248.32
555.50	59098.53
555.67	58920.65
555.83	59105.55
556.00	59178.10
556.16	59587.70
556.33	59456.63
556.50	59451.95
556.66	59599.40
556.83	59105.55
556.99	59559.61
557.16	59372.37
557.32	59430.88
557.49	59664.94
557.65	59547.91
557.82	59667.28
557.98	59498.76
558.15	59428.54
558.32	59423.86
558.48	59367.69
558.65	59585.36
558.81	59524.50
558.98	59721.11
559.14	59674.30
559.31	59704.73
559.47	59847.50
559.64	60114.32
559.80	59997.29
559.97	59962.18
560.13	59704.73
560.30	59744.51
560.46	59985.59
560.63	59854.52
560.79	60051.12
560.96	60004.31
561.12	60203.26
561.29	59908.35
561.45	59826.43
561.61	59887.29
561.78	59730.47
561.94	59908.35
562.11	59784.30
562.27	59767.92
562.44	59910.69
562.60	60039.42
562.77	60123.68
562.93	59831.11
563.10	59997.29
563.26	60069.85
563.42	60273.48
563.59	60147.09
563.75	60060.49
563.92	60076.87
564.08	60076.87
564.24	60294.54
564.41	60285.18
564.57	60193.90
564.74	60294.54
564.90	60205.60
565.07	60247.73
565.23	60207.94
565.39	60371.78
565.56	60324.97
565.72	60229.01
565.88	60189.22
566.05	60212.62
566.21	60264.11
566.38	60243.05
566.54	60348.37
566.70	60385.82
566.87	60552.00
567.03	60331.99
567.19	60446.68
567.36	60463.06
567.52	60245.39
567.68	60640.94
567.85	60238.37
568.01	60687.75
568.17	60416.25
568.34	60535.62
568.50	60449.02
568.66	60437.31
568.83	60439.65
568.99	60374.12
569.15	60575.40
569.32	60587.11
569.48	60601.15
569.64	60706.47
569.81	60552.00
569.97	60355.39
570.13	60701.79
570.30	60463.06
570.46	60699.45
570.62	60690.09
570.78	60610.51
570.95	60626.90
571.11	60530.93
571.27	60687.75
571.43	60692.43
571.60	60743.92
571.76	60671.37
571.92	60678.39
572.09	60650.30
572.25	60694.77
572.41	60587.11
572.57	60582.43
572.74	60811.80
572.90	60802.44
573.06	60643.28
573.22	60914.78
573.38	60830.52
573.55	60580.09
573.71	60980.32
573.87	60816.48
574.03	60544.98
574.20	60872.65
574.36	60755.63
574.52	60760.31
574.68	60919.46
574.84	60821.16
575.01	60837.54
575.17	60790.73
575.33	60851.59
575.49	60666.69
575.65	60935.85
575.82	60647.96
575.98	60753.29
576.14	61155.86
576.30	60928.83
576.46	60781.37
576.62	61057.56
576.79	60706.47
576.95	60893.72
577.11	61022.45
577.27	60884.36
577.43	60830.52
577.59	60760.31
577.75	60851.59
577.92	60842.23
578.08	60755.63
578.24	60825.84
578.40	61085.64
578.56	61024.79
578.72	60856.27
578.88	61087.98
579.04	61165.22
579.21	61167.56
579.37	61057.56
579.53	61216.71
579.69	60959.25
579.85	61024.79
580.01	60926.49
580.17	60952.23
580.33	60968.61
580.49	61202.67
580.65	61099.68
580.82	61123.09
580.98	61006.06
581.14	60814.14
581.30	61064.58
581.46	60793.07
581.62	60919.46
581.78	60959.25
581.94	61059.90
582.10	60980.32
582.26	61069.26
582.42	60743.92
582.58	61174.58
582.74	61207.35
582.90	61029.47
583.06	60977.98
583.22	61024.79
583.38	61153.52
583.54	61078.62
583.70	61076.28
583.86	61254.16
584.02	60912.44
584.18	61202.67
584.34	61027.13
584.50	61066.92
584.66	61066.92
584.82	60882.02
584.98	61242.46
585.14	60921.80
585.30	61062.24
585.46	61055.21
585.62	61097.34
585.78	61347.78
585.94	60959.25
586.10	61123.09
586.26	61015.43
586.42	61153.52
586.58	61242.46
586.74	61148.84
586.90	60903.08
587.06	61209.69
587.22	61181.60
587.38	61158.20
587.54	61371.19
587.70	61343.10
587.86	61228.41
588.02	61268.20
588.18	61284.59
588.34	61240.12
588.49	60980.32
