SpectraSuite Data File
++++++++++++++++++++++++++++++++++++
Date: Fri Oct 25 10:43:21 EDT 2013
User: price-jones
Dark Spectrum Present: No
Reference Spectrum Present: No
Number of Sampled Component Spectra: 1
Spectrometers: USB2+H05261
Integration Time (usec): 100000 (USB2+H05261)
Spectra Averaged: 1 (USB2+H05261)
Boxcar Smoothing: 0 (USB2+H05261)
Correct for Electrical Dark: No (USB2+H05261)
Strobe/Lamp Enabled: No (USB2+H05261)
Correct for Detector Non-linearity: No (USB2+H05261)
Correct for Stray Light: No (USB2+H05261)
Number of Pixels in Processed Spectrum: 2048
>>>>>Begin Processed Spectral Data<<<<<
365.73	161.50
365.92	161.50
366.12	161.50
366.32	72.56
366.52	0.00
366.72	37.45
366.91	0.00
367.11	49.15
367.31	0.00
367.51	28.09
367.70	42.13
367.90	4.68
368.10	11.70
368.30	23.41
368.49	0.00
368.69	28.09
368.89	88.94
369.09	0.00
369.28	0.00
369.48	4.68
369.68	79.58
369.87	51.49
370.07	95.96
370.27	131.07
370.47	145.11
370.66	379.17
370.86	386.19
371.06	505.56
371.25	477.47
371.45	475.13
371.65	440.02
371.84	423.64
372.04	400.23
372.24	451.72
372.44	458.74
372.63	503.22
372.83	524.28
373.03	566.41
373.22	557.05
373.42	500.87
373.62	535.98
373.81	528.96
374.01	543.00
374.21	491.51
374.40	470.45
374.60	667.05
374.79	517.26
374.99	517.26
375.19	519.60
375.38	592.16
375.58	559.39
375.78	603.86
375.97	638.97
376.17	587.47
376.37	620.24
376.56	606.20
376.76	589.82
376.95	601.52
377.15	631.94
377.35	653.01
377.54	592.16
377.74	601.52
377.93	617.90
378.13	641.31
378.33	688.12
378.52	657.69
378.72	753.65
378.91	648.33
379.11	653.01
379.31	671.73
379.50	624.92
379.70	664.71
379.89	727.91
380.09	554.71
380.28	725.57
380.48	734.93
380.68	641.31
380.87	678.76
381.07	709.18
381.26	713.86
381.46	718.54
381.65	741.95
381.85	678.76
382.04	667.05
382.24	657.69
382.43	746.63
382.63	709.18
382.83	725.57
383.02	704.50
383.22	763.01
383.41	739.61
383.61	746.63
383.80	828.55
384.00	739.61
384.19	767.70
384.39	877.70
384.58	880.04
384.78	835.57
384.97	840.25
385.17	844.93
385.36	763.01
385.56	880.04
385.75	805.14
385.95	809.83
386.14	849.61
386.34	821.53
386.53	828.55
386.72	795.78
386.92	898.77
387.11	863.66
387.31	891.74
387.50	866.00
387.70	898.77
387.89	875.36
388.09	880.04
388.28	880.04
388.48	947.92
388.67	905.79
388.86	924.51
389.06	954.94
389.25	1004.09
389.45	964.30
389.64	957.28
389.84	936.21
390.03	997.07
390.22	987.71
390.42	922.17
390.61	1069.62
390.81	957.28
391.00	1165.59
391.19	1074.31
391.39	877.70
391.58	1018.13
391.78	1041.54
391.97	1032.18
392.16	1011.11
392.36	1128.14
392.55	1041.54
392.75	1022.81
392.94	997.07
393.13	1053.24
393.33	1041.54
393.52	992.39
393.71	1020.47
393.91	1067.28
394.10	1128.14
394.29	1125.80
394.49	1135.16
394.68	1167.93
394.88	1198.35
395.07	1174.95
395.26	1196.01
395.46	1252.19
395.65	1336.45
395.84	1247.51
396.04	1245.16
396.23	1221.76
396.42	1114.10
396.62	1196.01
396.81	1207.72
397.00	1280.27
397.19	1320.06
397.39	1320.06
397.58	1364.53
397.77	1287.29
397.97	1397.30
398.16	1474.54
398.35	1509.65
398.55	1458.15
398.74	1441.77
398.93	1486.24
399.12	1490.92
399.32	1500.28
399.51	1556.46
399.70	1572.84
399.90	1528.37
400.09	1411.34
400.28	1650.08
400.47	1596.25
400.67	1549.43
400.86	1593.90
401.05	1769.44
401.24	1673.48
401.44	1757.74
401.63	1701.57
401.82	1729.66
402.01	1743.70
402.21	1750.72
402.40	1727.32
402.59	1682.85
402.78	1701.57
402.97	1715.61
403.17	1757.74
403.36	1790.51
403.55	1863.07
403.74	1893.49
403.93	1940.30
404.13	1919.24
404.32	1905.20
404.51	1961.37
404.70	1926.26
404.89	1947.33
405.09	2003.50
405.28	1893.49
405.47	1949.67
405.66	1970.73
405.85	1944.99
406.05	2050.31
406.24	2120.53
406.43	1930.94
406.62	1966.05
406.81	2202.44
407.00	2153.29
407.20	2017.54
407.39	2059.67
407.58	2129.89
407.77	2251.60
407.96	2148.61
408.15	2211.81
408.34	2172.02
408.54	2253.94
408.73	2193.08
408.92	2188.40
409.11	2275.00
409.30	2303.09
409.49	2298.41
409.68	2331.17
409.87	2270.32
410.07	2289.04
410.26	2377.98
410.45	2490.33
410.64	2466.92
410.83	2518.42
411.02	2513.74
411.21	2626.08
411.40	2473.95
411.59	2562.89
411.78	2651.83
411.98	2684.59
412.17	2729.06
412.36	2672.89
412.55	2745.45
412.74	2684.59
412.93	2766.51
413.12	2782.90
413.31	2836.73
413.50	2780.56
413.69	2771.19
413.88	2820.35
414.07	2813.32
414.26	2972.48
414.45	2862.48
414.64	2897.58
414.83	2991.20
415.02	3014.61
415.22	3016.95
415.41	3171.43
415.60	3129.30
415.79	3255.69
415.98	3265.05
416.17	3323.56
416.36	3243.98
416.55	3267.39
416.74	3105.89
416.93	3314.20
417.12	3129.30
417.31	3344.63
417.50	3321.22
417.69	3375.05
417.88	3410.16
418.07	3400.80
418.26	3552.93
418.45	3592.72
418.64	3630.17
418.83	3552.93
419.02	3653.58
419.21	3536.55
419.39	3581.02
419.58	3562.30
419.77	3545.91
419.96	3625.49
420.15	3801.03
420.34	3651.24
420.53	3705.07
420.72	3798.69
420.91	3889.97
421.10	3747.20
421.29	3913.38
421.48	3693.37
421.67	3922.74
421.86	3782.31
422.05	3810.39
422.24	3840.82
422.43	3875.93
422.61	3770.60
422.80	3969.55
422.99	3950.82
423.18	3920.40
423.37	3932.10
423.56	3913.38
423.75	3798.69
423.94	3887.63
424.13	3658.26
424.32	3772.94
424.50	3976.57
424.69	4191.90
424.88	4072.53
425.07	3885.29
425.26	3833.80
425.45	4046.79
425.64	4028.06
425.83	4016.36
426.01	4182.54
426.20	4107.64
426.39	3875.93
426.58	4088.92
426.77	3822.09
426.96	3962.53
427.15	4042.11
427.33	3990.61
427.52	4074.87
427.71	4250.41
427.90	4166.15
428.09	4093.60
428.28	4091.26
428.46	4079.55
428.65	4131.05
428.84	4100.62
429.03	4287.86
429.22	4095.94
429.40	4119.34
429.59	4163.81
429.78	3941.46
429.97	3845.50
430.16	4084.23
430.34	4084.23
430.53	3990.61
430.72	4187.22
430.91	4334.67
431.10	4346.37
431.28	4524.26
431.47	4657.67
431.66	4533.62
431.85	4519.57
432.03	4613.20
432.22	4755.97
432.41	4681.07
432.60	4788.74
432.79	4704.48
432.97	4727.88
433.16	4741.93
433.35	4713.84
433.54	4615.54
433.72	4524.26
433.91	4744.27
434.10	4765.33
434.28	4877.68
434.47	4807.46
434.66	4744.27
434.85	4917.47
435.03	4873.00
435.22	4959.60
435.41	5048.54
435.59	5050.88
435.78	5093.01
435.97	5158.54
436.16	5132.79
436.34	5064.92
436.53	5125.77
436.72	5364.51
436.90	5034.49
437.09	5088.32
437.28	5043.85
437.46	5076.62
437.65	5198.33
437.84	5427.70
438.02	5076.62
438.21	5153.86
438.40	5095.35
438.58	5275.57
438.77	5350.46
438.96	5411.32
439.14	5767.08
439.33	5582.18
439.52	5722.61
439.70	5614.95
439.89	5579.84
440.08	5589.20
440.26	5802.19
440.45	5762.40
440.63	5797.51
440.82	5823.25
441.01	5895.81
441.19	5863.04
441.38	6071.35
441.57	5994.11
441.75	6104.12
441.94	6232.85
442.12	6211.78
442.31	6384.98
442.50	6317.11
442.68	6420.09
442.87	6286.68
443.05	6399.02
443.24	6436.47
443.43	6363.92
443.61	6445.84
443.80	6789.89
443.98	6342.85
444.17	6338.17
444.35	6492.65
444.54	6806.28
444.73	6478.60
444.91	6511.37
445.10	6621.38
445.28	6413.07
445.47	6469.24
445.65	6326.47
445.84	6452.86
446.02	6633.08
446.21	6523.07
446.39	6487.96
446.58	6665.85
446.77	6654.14
446.95	6527.75
447.14	6848.41
447.32	6766.49
447.51	6761.81
447.69	6663.51
447.88	6752.45
448.06	6647.12
448.25	6675.21
448.43	6857.77
448.62	6754.79
448.80	6679.89
448.99	6874.15
449.17	6869.47
449.36	6817.98
449.54	6958.41
449.73	7056.72
449.91	7148.00
450.10	7140.97
450.28	7538.87
450.46	7091.82
450.65	7206.51
450.83	7391.41
451.02	7311.83
451.20	7300.13
451.39	7356.30
451.57	7119.91
451.76	7293.11
451.94	7098.84
452.13	7056.72
452.31	7229.91
452.49	7091.82
452.68	7183.10
452.86	7129.27
453.05	7433.54
453.23	7412.48
453.42	7279.07
453.60	7269.70
453.78	7386.73
453.97	7454.61
454.15	7517.80
454.34	7342.26
454.52	7400.77
454.70	7461.63
454.89	7555.25
455.07	7412.48
455.26	7688.66
455.44	7648.87
455.62	7613.76
455.81	7733.13
455.99	7733.13
456.17	7742.49
456.36	7913.35
456.54	7866.54
456.73	7997.61
456.91	8093.57
457.09	8121.66
457.28	8264.43
457.46	8131.02
457.64	8063.15
457.83	8095.91
458.01	8077.19
458.19	8238.69
458.38	8208.26
458.56	8498.49
458.74	8135.70
458.93	8264.43
459.11	8374.44
459.29	8301.88
459.48	8250.39
459.66	8395.50
459.84	8526.57
460.03	8606.15
460.21	8428.27
460.39	8557.00
460.57	8299.54
460.76	8526.57
460.94	8610.83
461.12	8549.98
461.31	8713.81
461.49	8622.53
461.67	8641.26
461.85	8681.05
462.04	8990.00
462.22	9408.95
462.40	9095.32
462.59	8816.80
462.77	9088.30
462.95	9055.53
463.13	8856.59
463.32	9074.26
463.50	9177.24
463.68	8896.38
463.86	9039.15
464.05	8961.91
464.23	8940.85
464.41	8884.67
464.59	8760.63
464.78	9102.34
464.96	8882.33
465.14	8809.78
465.32	9219.37
465.50	9107.02
465.69	9448.74
465.87	9137.45
466.05	9315.33
466.23	9179.58
466.41	9284.91
466.60	9312.99
466.78	9235.75
466.96	9420.66
467.14	9355.12
467.32	9184.26
467.51	9373.85
467.69	9090.64
467.87	9338.74
468.05	9355.12
468.23	9518.96
468.41	9282.56
468.60	9406.61
468.78	9703.86
468.96	9432.36
469.14	9626.62
469.32	9806.84
469.50	9495.55
469.69	9717.90
469.87	9813.87
470.05	9760.03
470.23	9935.57
470.41	9961.32
470.59	9958.98
470.77	9825.57
470.95	9916.85
471.14	10183.67
471.32	9881.74
471.50	10251.55
471.68	10249.21
471.86	10427.09
472.04	10410.70
472.22	10490.28
472.40	10167.29
472.58	10394.32
472.77	10399.00
472.95	10677.52
473.13	10832.00
473.31	10712.63
473.49	10670.50
473.67	10647.10
473.85	10696.25
474.03	10951.37
474.21	10834.34
474.39	10864.77
474.57	10984.13
474.75	10932.64
474.93	11183.08
475.12	11262.66
475.30	11250.96
475.48	11190.10
475.66	11302.45
475.84	11335.21
476.02	11365.64
476.20	11473.31
476.38	11683.95
476.56	11939.07
476.74	11740.13
476.92	11641.82
477.10	11791.62
477.28	12259.73
477.46	12140.36
477.64	12131.00
477.82	12372.07
478.00	12472.71
478.18	12482.08
478.36	12526.55
478.54	12554.63
478.72	12421.22
478.90	12865.92
479.08	12898.69
479.26	13202.96
479.44	13275.52
479.62	13207.64
479.80	13327.01
479.98	13399.57
480.16	13804.48
480.34	13441.70
480.52	13603.19
480.70	13624.26
480.88	13411.27
481.06	13846.61
481.24	13657.03
481.41	14075.98
481.59	14377.91
481.77	14408.34
481.95	14387.27
482.13	14530.05
482.31	14548.77
482.49	14934.96
482.67	14918.57
482.85	15056.67
483.03	15089.43
483.21	15304.76
483.39	15358.60
483.57	15286.04
483.74	15307.10
483.92	15634.78
484.10	15304.76
484.28	15737.76
484.46	15782.23
484.64	16304.17
484.82	16095.86
485.00	16065.44
485.18	16606.10
485.35	16390.77
485.53	16112.25
485.71	15854.79
485.89	16547.59
486.07	16217.57
486.25	16615.46
486.43	16837.81
486.61	16947.82
486.78	17043.78
486.96	17434.65
487.14	17565.72
487.32	17383.16
487.50	17752.96
487.68	18118.09
487.85	18363.84
488.03	18450.44
488.21	18443.42
488.39	18719.60
488.57	18640.03
488.75	18757.05
488.92	18956.00
489.10	19243.88
489.28	19302.40
489.46	19463.90
489.64	19840.72
489.81	19793.91
489.99	20444.58
490.17	20147.33
490.35	20369.68
490.53	20383.73
490.70	20423.51
490.88	20173.08
491.06	20657.57
491.24	20879.92
491.41	20624.80
491.59	20585.01
491.77	20823.75
491.95	20999.29
492.13	21139.72
492.30	21507.18
492.48	21841.88
492.66	22033.80
492.84	21837.20
493.01	22181.26
493.19	22010.40
493.37	22230.41
493.54	22305.31
493.72	22445.74
493.90	22876.40
494.08	22719.58
494.25	22970.02
494.43	23274.29
494.61	23321.10
494.79	23747.08
494.96	23473.23
495.14	23293.01
495.32	23576.22
495.49	23852.40
495.67	23828.99
495.85	24070.07
496.02	24095.82
496.20	24397.74
496.38	24276.04
496.55	24416.47
496.73	24856.49
496.91	24510.09
497.09	24823.72
497.26	25181.82
497.44	25104.59
497.62	24931.39
497.79	25308.21
497.97	25312.89
498.14	25507.16
498.32	25605.46
498.50	25813.77
498.67	25958.88
498.85	25834.83
499.03	25968.24
499.20	26017.40
499.38	26169.53
499.56	26513.59
499.73	26515.93
499.91	26340.39
500.08	26780.41
500.26	26249.11
500.44	26314.64
500.61	26499.55
500.79	26717.22
500.97	27019.14
501.14	27166.60
501.32	26747.64
501.49	26937.23
501.67	26740.62
501.84	27536.40
502.02	27520.02
502.20	27398.31
502.37	27931.95
502.55	27421.72
502.72	27819.61
502.90	27894.50
503.07	28023.23
503.25	28137.92
503.43	28156.64
503.60	28266.65
503.78	28381.34
503.95	28467.94
504.13	28325.16
504.30	28671.56
504.48	28711.35
504.65	28985.19
504.83	29134.99
505.01	28807.31
505.18	29209.89
505.36	28945.41
505.53	29535.22
505.71	29834.81
505.88	29497.77
506.06	29429.90
506.23	29532.88
506.41	29483.73
506.58	29738.85
506.76	30040.78
506.93	29898.00
507.11	29535.22
507.28	29916.73
507.46	29762.25
507.63	30047.80
507.81	29996.31
507.98	30068.86
508.16	30380.15
508.33	30597.82
508.50	30485.48
508.68	31033.16
508.85	30932.52
509.03	31058.91
509.20	31321.05
509.38	31222.75
509.55	31189.98
509.73	31243.81
509.90	31356.16
510.08	31178.28
510.25	31311.69
510.42	31597.23
510.60	31604.25
510.77	31826.60
510.95	31812.56
511.12	32217.47
511.30	31796.18
511.47	31866.39
511.64	32297.05
511.82	32620.05
511.99	32130.87
512.17	32154.28
512.34	32376.63
512.51	32849.42
512.69	32484.30
512.86	32755.80
513.04	32849.42
513.21	32608.34
513.38	32884.53
513.56	32929.00
513.73	32732.39
513.90	33125.60
514.08	33116.24
514.25	32882.19
514.43	33359.66
514.60	33022.62
514.77	33296.46
514.95	33486.04
515.12	33439.23
515.29	33446.26
515.47	33715.42
515.64	34401.19
515.81	33703.71
515.99	33820.74
516.16	34047.77
516.33	33846.49
516.51	33879.25
516.68	33362.00
516.85	33291.78
517.03	33715.42
517.20	33862.87
517.37	34272.46
517.54	34986.33
517.72	33961.17
517.89	34071.18
518.06	33633.50
518.24	34040.75
518.41	34064.16
518.58	34293.53
518.75	34377.79
518.93	34801.43
519.10	34602.48
519.27	35154.85
519.45	35054.20
519.62	35166.55
519.79	35267.19
519.96	35611.25
520.14	35335.07
520.31	34998.03
520.48	35204.00
520.65	35414.65
520.83	35990.42
521.00	35667.42
521.17	35648.70
521.34	36133.19
521.52	36121.49
521.69	35941.27
521.86	36259.58
522.03	36142.55
522.20	36161.28
522.38	36411.71
522.55	36201.07
522.72	36268.94
522.89	36395.33
523.07	36999.19
523.24	36912.59
523.41	36680.88
523.58	36840.03
523.75	36905.57
523.92	37144.30
524.10	37345.59
524.27	37401.76
524.44	37244.94
524.61	37212.18
524.78	37776.25
524.96	37170.05
525.13	37794.97
525.30	37703.69
525.47	37495.38
525.64	37408.78
525.81	37813.70
525.98	37766.88
526.16	37247.29
526.33	37420.48
526.50	37462.61
526.67	37148.98
526.84	37160.69
527.01	37762.20
527.18	37752.84
527.36	38045.41
527.53	38143.71
527.70	38213.93
527.87	38230.31
528.04	37792.63
528.21	38522.88
528.38	38050.09
528.55	39016.73
528.72	38583.73
528.89	38864.60
529.07	39105.67
529.24	38029.02
529.41	38373.08
529.58	38637.56
529.75	38852.89
529.92	38438.62
530.09	38733.53
530.26	39098.65
530.43	39395.90
530.60	39100.99
530.77	39276.53
530.94	39519.95
531.11	39426.32
531.28	39203.97
531.46	39676.76
531.63	39459.09
531.80	39452.07
531.97	38906.73
532.14	39262.49
532.31	39082.27
532.48	39447.39
532.65	39431.01
532.82	39297.59
532.99	39487.18
533.16	39138.44
533.33	39814.85
533.50	40109.76
533.67	39662.72
533.84	39454.41
534.01	40217.43
534.18	39803.15
534.35	40444.46
534.52	39779.74
534.69	40350.84
534.86	40299.34
535.03	39782.09
535.20	40643.40
535.37	40804.90
535.54	40947.67
535.71	40456.16
535.88	40680.85
536.05	40587.23
536.22	40891.50
536.38	40605.95
536.55	40369.56
536.72	40580.21
536.89	40362.54
537.06	40495.95
537.23	40811.92
537.40	40797.88
537.57	40741.71
537.74	40779.15
537.91	41560.89
538.08	41301.09
538.25	40783.83
538.42	40961.72
538.59	41177.04
538.75	40711.28
538.92	41516.42
539.09	41394.71
539.26	41404.08
539.43	41060.02
539.60	41467.27
539.77	41043.63
539.94	40807.24
540.11	41408.76
540.28	41282.37
540.44	41713.03
540.61	41684.94
540.78	40959.38
540.95	41855.80
541.12	41343.22
541.29	41991.55
541.46	41659.20
541.62	41977.51
541.79	42007.94
541.96	41092.79
542.13	41738.77
542.30	42080.49
542.47	41415.78
542.63	42068.79
542.80	41869.84
542.97	42291.14
543.14	42422.21
543.31	42557.96
543.48	42253.69
543.64	42492.43
543.81	42948.83
543.98	42721.80
544.15	42653.92
544.32	42703.07
544.48	42969.90
544.65	42251.35
544.82	42913.72
544.99	42672.65
545.16	42703.07
545.32	42590.73
545.49	43295.23
545.66	43246.08
545.83	42983.94
546.00	43035.43
546.16	42892.66
546.33	42698.39
546.50	42719.46
546.67	43157.14
546.83	42784.99
547.00	43187.56
547.17	43344.38
547.34	43105.65
547.50	43035.43
547.67	43110.33
547.84	43386.51
548.00	43730.57
548.17	43704.82
548.34	43913.13
548.51	43976.33
548.67	44072.29
548.84	43597.16
549.01	43606.52
549.18	43917.81
549.34	43704.82
549.51	43927.17
549.68	43744.61
549.84	43805.47
550.01	44177.61
550.18	43983.35
550.34	43746.95
550.51	44194.00
550.68	43721.21
550.84	43688.44
551.01	43931.86
551.18	43798.44
551.34	43796.10
551.51	43973.98
551.68	44154.21
551.84	44100.37
552.01	43737.59
552.18	44041.86
552.34	43779.72
552.51	44376.56
552.68	43962.28
552.84	44428.05
553.01	44505.29
553.18	44062.93
553.34	44301.66
553.51	44425.71
553.67	44273.57
553.84	44435.07
554.01	44952.33
554.17	44533.37
554.34	44690.19
554.51	44392.94
554.67	44708.91
554.84	44603.59
555.00	44322.72
555.17	44311.02
555.33	44414.01
555.50	44451.45
555.67	45008.50
555.83	44715.93
556.00	44722.96
556.16	44772.11
556.33	45045.95
556.50	44659.76
556.66	44687.85
556.83	44818.92
556.99	44655.08
557.16	45008.50
557.32	44758.06
557.49	44910.20
557.65	44737.00
557.82	44975.73
557.98	44891.48
558.15	44898.50
558.32	45507.04
558.48	44903.18
558.65	44713.59
558.81	45022.54
558.98	45191.06
559.14	45029.57
559.31	45013.18
559.47	44821.26
559.64	45195.74
559.80	45132.55
559.97	45095.10
560.13	45294.05
560.30	44690.19
560.46	45289.37
560.63	45333.84
560.79	45663.85
560.96	45324.47
561.12	45193.40
561.29	45102.12
561.45	45492.99
561.61	45045.95
561.78	44940.63
561.94	45029.57
562.11	45310.43
562.27	45373.63
562.44	44985.10
562.60	45691.94
562.77	45530.44
562.93	45219.15
563.10	45600.66
563.26	45296.39
563.42	45652.15
563.59	45336.18
563.75	45544.48
563.92	45200.43
564.08	45572.57
564.24	45322.13
564.41	45497.67
564.57	45120.85
564.74	45705.98
564.90	45406.39
565.07	45209.79
565.23	45605.34
565.39	45272.98
565.56	45710.66
565.72	44722.96
565.88	45312.77
566.05	45467.25
566.21	45366.60
566.38	45277.66
566.54	45371.28
566.70	46223.24
566.87	45893.22
567.03	45818.33
567.19	45839.39
567.36	45841.73
567.52	45645.13
567.68	45507.04
567.85	45476.61
568.01	45670.87
568.17	45450.86
568.34	45790.24
568.50	45406.39
568.66	45649.81
568.83	45684.92
568.99	45610.02
569.15	45656.83
569.32	45680.24
569.48	45612.36
569.64	46054.72
569.81	46064.08
569.97	45670.87
570.13	45900.25
570.30	45109.14
570.46	45312.77
570.62	44912.54
570.78	45296.39
570.95	45523.42
571.11	45745.77
571.27	45434.48
571.43	45907.27
571.60	45633.42
571.76	45851.09
571.92	45900.25
572.09	45399.37
572.25	45984.51
572.41	46014.93
572.57	46225.58
572.74	46080.47
572.90	45982.16
573.06	45848.75
573.22	45792.58
573.38	46115.58
573.55	45790.24
573.71	45701.30
573.87	45820.67
574.03	45846.41
574.20	45963.44
574.36	45614.70
574.52	45958.76
574.68	46012.59
574.84	45773.86
575.01	45457.88
575.17	45823.01
575.33	45649.81
575.49	45696.62
575.65	46007.91
575.82	46071.10
575.98	45963.44
576.14	46347.29
576.30	46120.26
576.46	45961.10
576.62	45315.11
576.79	45909.61
576.95	45785.56
577.11	46419.84
577.27	45951.74
577.43	46054.72
577.59	46038.34
577.75	45691.94
577.92	45687.26
578.08	45551.51
578.24	45504.70
578.40	45743.43
578.56	45968.12
578.72	45715.34
578.88	46164.73
579.04	46146.00
579.21	45272.98
579.37	45315.11
579.53	46103.87
579.69	45701.30
579.85	45778.54
580.01	45827.69
580.17	45792.58
580.33	45902.59
580.49	46162.39
580.65	45834.71
580.82	46136.64
580.98	45603.00
581.14	45736.41
581.30	45890.88
581.46	45801.94
581.62	45937.69
581.78	46358.99
581.94	46227.92
582.10	46148.34
582.26	46113.23
582.42	45830.03
582.58	45956.42
582.74	45794.92
582.90	46239.62
583.06	46209.20
583.22	46181.11
583.38	46281.75
583.54	46040.68
583.70	46258.35
583.86	46043.02
584.02	45731.73
584.18	46260.69
584.34	45799.60
584.50	46241.96
584.66	46096.85
584.82	46307.50
584.98	46068.76
585.14	46099.19
585.30	46099.19
585.46	46068.76
585.62	45467.25
585.78	45911.95
585.94	45961.10
586.10	45979.82
586.26	45223.83
586.42	45984.51
586.58	46284.09
586.74	46127.28
586.90	45682.58
587.06	46146.00
587.22	45610.02
587.38	45705.98
587.54	46024.29
587.70	45925.99
587.86	45853.44
588.02	46183.45
588.18	46167.07
588.34	45701.30
588.49	45624.06
588.65	45111.49
588.81	45102.12
588.97	45467.25
589.13	45331.50
589.29	45382.99
589.45	45593.64
589.61	45961.10
589.77	46108.55
589.93	46075.79
590.08	46703.05
