SpectraSuite Data File
++++++++++++++++++++++++++++++++++++
Date: Fri Oct 25 11:23:40 EDT 2013
User: price-jones
Dark Spectrum Present: No
Reference Spectrum Present: No
Number of Sampled Component Spectra: 1
Spectrometers: USB2+H05261
Integration Time (usec): 100000 (USB2+H05261)
Spectra Averaged: 1 (USB2+H05261)
Boxcar Smoothing: 0 (USB2+H05261)
Correct for Electrical Dark: No (USB2+H05261)
Strobe/Lamp Enabled: No (USB2+H05261)
Correct for Detector Non-linearity: No (USB2+H05261)
Correct for Stray Light: No (USB2+H05261)
Number of Pixels in Processed Spectrum: 2048
>>>>>Begin Processed Spectral Data<<<<<
365.73	187.24
365.92	187.24
366.12	187.24
366.32	133.41
366.52	126.39
366.72	142.77
366.91	159.16
367.11	105.32
367.31	100.64
367.51	119.37
367.70	117.03
367.90	159.16
368.10	112.35
368.30	32.77
368.49	140.43
368.69	168.52
368.89	180.22
369.09	102.98
369.28	140.43
369.48	147.45
369.68	149.79
369.87	231.71
370.07	117.03
370.27	205.97
370.47	304.27
370.66	507.90
370.86	582.79
371.06	671.73
371.25	702.16
371.45	627.26
371.65	753.65
371.84	641.31
372.04	688.12
372.24	678.76
372.44	702.16
372.63	774.72
372.83	744.29
373.03	704.50
373.22	781.74
373.42	751.31
373.62	704.50
373.81	746.63
374.01	779.40
374.21	739.61
374.40	727.91
374.60	755.99
374.79	770.04
374.99	793.44
375.19	812.17
375.38	861.32
375.58	830.89
375.78	901.11
375.97	936.21
376.17	875.36
376.37	851.96
376.56	868.34
376.76	877.70
376.95	873.02
377.15	926.85
377.35	919.83
377.54	954.94
377.74	947.92
377.93	898.77
378.13	889.40
378.33	945.58
378.52	968.98
378.72	884.72
378.91	1022.81
379.11	880.04
379.31	961.96
379.50	919.83
379.70	1029.84
379.89	1004.09
380.09	924.51
380.28	849.61
380.48	964.30
380.68	947.92
380.87	1064.94
381.07	992.39
381.26	1011.11
381.46	997.07
381.65	1004.09
381.85	1032.18
382.04	1055.58
382.24	990.05
382.43	1043.88
382.63	1015.79
382.83	1090.69
383.02	1057.92
383.22	1071.97
383.41	994.73
383.61	1093.03
383.80	1095.37
384.00	1093.03
384.19	1146.86
384.39	1123.46
384.58	1116.44
384.78	1111.75
384.97	1116.44
385.17	1153.88
385.36	1186.65
385.56	1102.39
385.75	1219.42
385.95	1128.14
386.14	1217.08
386.34	1188.99
386.53	1160.91
386.72	1184.31
386.92	1219.42
387.11	1303.68
387.31	1266.23
387.50	1263.89
387.70	1247.51
387.89	1221.76
388.09	1221.76
388.28	1406.66
388.48	1366.87
388.67	1394.96
388.86	1373.89
389.06	1259.21
389.25	1392.62
389.45	1303.68
389.64	1397.30
389.84	1401.98
390.03	1479.22
390.22	1390.28
390.42	1385.60
390.61	1406.66
390.81	1366.87
391.00	1432.41
391.19	1387.94
391.39	1399.64
391.58	1366.87
391.78	1533.05
391.97	1474.54
392.16	1394.96
392.36	1612.63
392.55	1465.18
392.75	1526.03
392.94	1472.20
393.13	1439.43
393.33	1511.99
393.52	1614.97
393.71	1631.35
393.91	1453.47
394.10	1528.37
394.29	1605.61
394.49	1640.72
394.68	1687.53
394.88	1727.32
395.07	1668.80
395.26	1551.78
395.46	1715.61
395.65	1685.19
395.84	1593.90
396.04	1781.15
396.23	1699.23
396.42	1724.97
396.62	1827.96
396.81	1753.06
397.00	1701.57
397.19	1802.21
397.39	1818.60
397.58	1762.42
397.77	1790.51
397.97	1811.57
398.16	1853.70
398.35	1844.34
398.55	1785.83
398.74	1935.62
398.93	1909.88
399.12	1998.82
399.32	1898.17
399.51	1816.26
399.70	2099.46
399.90	2026.90
400.09	2012.86
400.28	2101.80
400.47	2024.56
400.67	2083.08
400.86	2059.67
401.05	2066.69
401.24	2101.80
401.44	2101.80
401.63	2134.57
401.82	2136.91
402.01	2036.27
402.21	2202.44
402.40	2108.82
402.59	2214.15
402.78	2162.66
402.97	2183.72
403.17	2239.89
403.36	2293.72
403.55	2359.26
403.74	2286.70
403.93	2331.17
404.13	2352.24
404.32	2399.05
404.51	2368.62
404.70	2342.88
404.89	2286.70
405.09	2490.33
405.28	2448.20
405.47	2487.99
405.66	2583.95
405.85	2551.18
406.05	2541.82
406.24	2497.35
406.43	2567.57
406.62	2649.49
406.81	2726.72
407.00	2572.25
407.20	2640.12
407.39	2675.23
407.58	2715.02
407.77	2710.34
407.96	2616.72
408.15	2719.70
408.34	2782.90
408.54	2764.17
408.73	2740.77
408.92	2890.56
409.11	2818.00
409.30	2979.50
409.49	2832.05
409.68	2937.37
409.87	2913.97
410.07	3026.31
410.26	3007.59
410.45	3119.93
410.64	3056.74
410.83	3070.78
411.02	3019.29
411.21	3122.27
411.40	3087.17
411.59	3133.98
411.78	3136.32
411.98	3194.83
412.17	3269.73
412.36	3407.82
412.55	3311.86
412.74	3494.42
412.93	3487.40
413.12	3417.18
413.31	3583.36
413.50	3454.63
413.69	3489.74
413.88	3545.91
414.07	3592.72
414.26	3648.90
414.45	3669.96
414.64	3637.19
414.83	3730.81
415.02	3719.11
415.22	3840.82
415.41	3911.04
415.60	3899.33
415.79	3889.97
415.98	4109.98
416.17	3859.54
416.36	3983.59
416.55	3922.74
416.74	4177.86
416.93	4102.96
417.12	4182.54
417.31	4088.92
417.50	4163.81
417.69	4217.65
417.88	4290.20
418.07	4400.21
418.26	4332.33
418.45	4358.08
418.64	4346.37
418.83	4360.42
419.02	4496.17
419.21	4454.04
419.39	4542.98
419.58	4367.44
419.77	4311.27
419.96	4470.42
420.15	4561.70
420.34	4528.94
420.53	4657.67
420.72	4770.01
420.91	4737.24
421.10	4711.50
421.29	4739.58
421.48	4655.33
421.67	4681.07
421.86	4800.44
422.05	4690.43
422.24	4774.69
422.43	4802.78
422.61	4926.83
422.80	4950.23
422.99	4961.94
423.18	4957.25
423.37	5057.90
423.56	4779.37
423.75	4896.40
423.94	4709.16
424.13	4629.58
424.32	4732.56
424.50	4980.66
424.69	5032.15
424.88	5088.32
425.07	5027.47
425.26	4868.31
425.45	4959.60
425.64	5043.85
425.83	4978.32
426.01	5055.56
426.20	5158.54
426.39	5011.09
426.58	5055.56
426.77	4947.89
426.96	5203.01
427.15	4973.64
427.33	5242.80
427.52	5137.48
427.71	5125.77
427.90	5294.29
428.09	5296.63
428.28	5331.74
428.46	5430.04
428.65	5336.42
428.84	5526.00
429.03	5584.52
429.22	5315.36
429.40	5448.77
429.59	5596.22
429.78	5448.77
429.97	5308.34
430.16	5455.79
430.34	5561.11
430.53	5652.39
430.72	5839.64
430.91	5664.10
431.10	5633.67
431.28	5771.76
431.47	5797.51
431.66	5856.02
431.85	5886.45
432.03	5867.72
432.22	5877.09
432.41	5977.73
432.60	5926.24
432.79	5923.90
432.97	5963.68
433.16	5937.94
433.35	5834.96
433.54	6005.81
433.72	6071.35
433.91	6036.24
434.10	6108.80
434.28	6064.33
434.47	6073.69
434.66	6487.96
434.85	6225.82
435.03	6333.49
435.22	6291.36
435.41	6328.81
435.59	6399.02
435.78	6321.79
435.97	6340.51
436.16	6424.77
436.34	6279.66
436.53	6384.98
436.72	6623.72
436.90	6361.58
437.09	6623.72
437.28	6434.13
437.46	6637.76
437.65	6761.81
437.84	6693.93
438.02	6499.67
438.21	6904.58
438.40	6675.21
438.58	7192.47
438.77	7052.03
438.96	6979.48
439.14	7171.40
439.33	7110.55
439.52	7007.56
439.70	7318.86
439.89	7178.42
440.08	7552.91
440.26	7211.19
440.45	7344.60
440.63	7428.86
440.82	7524.82
441.01	7496.74
441.19	7571.63
441.38	7747.17
441.57	7779.94
441.75	7747.17
441.94	7981.23
442.12	7803.35
442.31	8004.63
442.50	8116.98
442.68	8107.62
442.87	7911.01
443.05	7990.59
443.24	8177.83
443.43	8109.96
443.61	8100.59
443.80	8449.33
443.98	7981.23
444.17	7665.25
444.35	8102.93
444.54	8369.76
444.73	8229.32
444.91	8128.68
445.10	8355.71
445.28	8439.97
445.47	8060.80
445.65	8404.86
445.84	8461.04
446.02	8578.06
446.21	8351.03
446.39	8287.84
446.58	8610.83
446.77	8383.80
446.95	8168.47
447.14	8578.06
447.32	8631.90
447.51	8730.20
447.69	8538.27
447.88	8575.72
448.06	8421.25
448.25	8554.66
448.43	8571.04
448.62	8681.05
448.80	8564.02
448.99	8603.81
449.17	8615.51
449.36	8526.57
449.54	8774.67
449.73	8982.98
449.91	9050.85
450.10	9039.15
450.28	9090.64
450.46	9088.30
450.65	8905.74
450.83	9142.13
451.02	9081.28
451.20	9018.08
451.39	9219.37
451.57	9364.48
451.76	9160.86
451.94	9259.16
452.13	9483.85
452.31	9310.65
452.49	9029.79
452.68	9380.87
452.86	9249.80
453.05	9348.10
453.23	9458.10
453.42	9458.10
453.60	9540.02
453.78	9703.86
453.97	9556.41
454.15	9509.60
454.34	9481.51
454.52	9741.31
454.70	9551.73
454.89	9834.93
455.07	9832.59
455.26	9966.00
455.44	9947.28
455.62	9940.26
455.81	9799.82
455.99	10120.48
456.17	10115.80
456.36	9884.08
456.54	10150.90
456.73	10401.34
456.91	10207.08
457.09	10593.26
457.28	10485.60
457.46	10478.58
457.64	10626.03
457.83	10469.22
458.01	10340.49
458.19	10768.80
458.38	10532.41
458.56	10836.68
458.74	10588.58
458.93	10562.84
459.11	10757.10
459.29	10829.66
459.48	10654.12
459.66	10729.02
459.84	11014.56
460.03	11070.73
460.21	11183.08
460.39	11126.91
460.57	11201.80
460.76	11309.47
460.94	11234.57
461.12	11227.55
461.31	11363.30
461.49	10965.41
461.67	11162.01
461.85	11468.62
462.04	11363.30
462.22	11742.47
462.40	11637.14
462.59	11763.53
462.77	11419.47
462.95	11695.66
463.13	11508.41
463.32	11859.49
463.50	11681.61
463.68	11861.84
463.86	11702.68
464.05	11641.82
464.23	11728.42
464.41	11899.28
464.59	11698.00
464.78	12149.72
464.96	11775.24
465.14	11779.92
465.32	11934.39
465.50	12177.81
465.69	12056.10
465.87	11999.93
466.05	12025.67
466.23	12280.79
466.41	12173.13
466.60	12552.29
466.78	12156.74
466.96	12294.83
467.14	12159.08
467.32	12283.13
467.51	12446.97
467.69	12102.91
467.87	12510.16
468.05	12620.17
468.23	12367.39
468.41	12236.32
468.60	12517.18
468.78	12791.03
468.96	12519.53
469.14	12800.39
469.32	13146.79
469.50	12746.56
469.69	12989.97
469.87	13275.52
470.05	13226.37
470.23	13149.13
470.41	13205.30
470.59	13231.05
470.77	13142.11
470.95	13212.32
471.14	13376.16
471.32	13268.50
471.50	13675.75
471.68	13603.19
471.86	13654.69
472.04	13741.29
472.22	14153.22
472.40	13848.95
472.58	13937.89
472.77	14104.07
472.95	14059.60
473.13	14593.24
473.31	14015.13
473.49	14246.84
473.67	14185.99
473.85	14150.88
474.03	14663.46
474.21	14581.54
474.39	14764.10
474.57	14759.42
474.75	14586.22
474.93	15077.73
475.12	14611.96
475.30	15166.67
475.48	15037.94
475.66	15241.57
475.84	15126.88
476.02	15363.28
476.20	15513.07
476.38	15730.74
476.56	15992.88
476.74	15976.50
476.92	15957.77
477.10	16009.26
477.28	16009.26
477.46	16243.32
477.64	16606.10
477.82	16500.78
478.00	16982.93
478.18	16681.00
478.36	16996.97
478.54	17280.18
478.72	17439.33
478.90	17315.28
479.08	17575.08
479.26	17802.11
479.44	17589.13
479.62	17902.76
479.80	18036.17
479.98	18169.58
480.16	18298.31
480.34	18523.00
480.52	18611.94
480.70	18909.19
480.88	18614.28
481.06	18738.33
481.24	18785.14
481.41	19206.44
481.59	19367.93
481.77	19683.91
481.95	19632.41
482.13	19435.81
482.31	19740.08
482.49	20226.91
482.67	20098.18
482.85	20592.03
483.03	20662.25
483.21	20828.43
483.39	21057.80
483.57	20830.77
483.74	21280.15
483.92	21240.36
484.10	21310.58
484.28	21673.36
484.46	21998.70
484.64	22305.31
484.82	22029.12
485.00	22246.79
485.18	22993.42
485.35	23248.54
485.53	23206.41
485.71	22878.74
485.89	23569.19
486.07	23630.05
486.25	23496.64
486.43	23779.84
486.61	23826.65
486.78	24173.05
486.96	24381.36
487.14	24400.08
487.32	24704.35
487.50	24987.56
487.68	24910.32
487.85	25514.18
488.03	25706.10
488.21	25790.36
488.39	25830.15
488.57	26099.31
488.75	26164.85
488.92	26499.55
489.10	26740.62
489.28	26693.81
489.46	27253.20
489.64	26892.76
489.81	27679.18
489.99	27555.13
490.17	28121.54
490.35	28217.50
490.53	28283.03
490.70	28669.22
490.88	28500.70
491.06	28528.79
491.24	28940.72
491.41	29139.67
491.59	29195.84
491.77	29352.66
491.95	29699.06
492.13	30113.33
492.30	29963.54
492.48	29764.59
492.66	30171.85
492.84	30581.44
493.01	30735.92
493.19	30574.42
493.37	31222.75
493.54	31115.08
493.72	31335.09
493.90	31405.31
494.08	31850.01
494.25	32130.87
494.43	31967.04
494.61	32545.15
494.79	32929.00
494.96	32437.48
495.14	32708.99
495.32	33174.75
495.49	33132.62
495.67	33432.21
495.85	33301.14
496.02	33984.58
496.20	34167.14
496.38	34059.48
496.55	34267.78
496.73	34817.81
496.91	34642.27
497.09	35192.30
497.26	34834.19
497.44	34574.39
497.62	35484.86
497.79	36100.42
497.97	35634.66
498.14	35988.08
498.32	36392.99
498.50	36009.14
498.67	36561.51
498.85	36870.46
499.03	36589.59
499.20	36678.54
499.38	37177.07
499.56	36875.14
499.73	37177.07
499.91	37148.98
500.08	37483.68
500.26	37518.79
500.44	37631.13
500.61	37900.29
500.79	37474.32
500.97	38169.46
501.14	38958.22
501.32	38480.75
501.49	38464.36
501.67	38653.95
501.84	38857.57
502.02	39082.27
502.20	39316.32
502.37	39049.50
502.55	39321.00
502.72	39335.04
502.90	39730.59
503.07	39442.71
503.25	39496.54
503.43	39725.91
503.60	40313.39
503.78	40055.93
503.95	40591.91
504.13	40669.15
504.30	40683.19
504.48	40538.08
504.65	40645.74
504.83	41057.68
505.01	41053.00
505.18	41230.88
505.36	41460.25
505.53	41195.77
505.71	41883.89
505.88	41923.68
506.06	41193.43
506.23	42052.41
506.41	41588.98
506.58	41762.18
506.76	42082.83
506.93	42787.33
507.11	42401.14
507.28	42782.65
507.46	42445.62
507.63	42813.08
507.81	43033.09
507.98	43100.97
508.16	43014.37
508.33	43124.37
508.50	43601.84
508.68	43533.96
508.85	44194.00
509.03	43674.40
509.20	43751.63
509.38	44296.98
509.55	44355.49
509.73	44428.05
509.90	44545.08
510.08	45024.89
510.25	44514.65
510.42	44732.32
510.60	45170.00
510.77	45254.26
510.95	45509.38
511.12	45436.82
511.30	45184.04
511.47	45551.51
511.64	45450.86
511.82	45902.59
511.99	45413.41
512.17	45970.46
512.34	46136.64
512.51	46366.01
512.69	46487.72
512.86	46859.87
513.04	46574.32
513.21	46698.37
513.38	46677.30
513.56	46710.07
513.73	46845.82
513.90	46801.35
514.08	47157.11
514.25	46909.02
514.43	47402.87
514.60	47426.28
514.77	47171.16
514.95	47648.63
515.12	47459.04
515.29	47501.17
515.47	47878.00
515.64	48378.87
515.81	48030.13
515.99	48158.86
516.16	48252.48
516.33	48493.56
516.51	48739.32
516.68	48467.81
516.85	48598.88
517.03	48779.10
517.20	48715.91
517.37	49099.76
517.54	49165.29
517.72	49041.24
517.89	49242.53
518.06	49427.43
518.24	49338.49
518.41	49277.64
518.58	49453.18
518.75	49249.55
518.93	49705.96
519.10	49397.01
519.27	49954.05
519.45	49813.62
519.62	49801.92
519.79	49794.90
519.96	49841.71
520.14	50504.08
520.31	50082.78
520.48	50735.79
520.65	50520.46
520.83	50644.51
521.00	50735.79
521.17	50272.37
521.34	50717.07
521.52	50955.80
521.69	51208.58
521.86	50948.78
522.03	51299.86
522.20	51283.48
522.38	51531.57
522.55	51611.15
522.72	51618.17
522.89	51419.23
523.07	51653.28
523.24	51650.94
523.41	51629.88
523.58	51562.00
523.75	51798.40
523.92	51920.10
524.10	52109.69
524.27	51847.55
524.44	51959.89
524.61	52238.42
524.78	52048.83
524.96	52039.47
525.13	52154.16
525.30	52645.67
525.47	52594.18
525.64	52404.59
525.81	52664.39
525.98	52694.82
526.16	52612.90
526.33	52500.56
526.50	52966.32
526.67	52758.02
526.84	52832.91
527.01	53130.16
527.18	52596.52
527.36	53029.52
527.53	53055.26
527.70	53420.39
527.87	53476.56
528.04	53425.07
528.21	53406.34
528.38	53443.79
528.55	53738.70
528.72	53436.77
528.89	53268.25
529.07	53333.79
529.24	53347.83
529.41	53961.05
529.58	53621.67
529.75	53932.96
529.92	53525.71
530.09	53806.58
530.26	53888.49
530.43	54096.80
530.60	54277.02
530.77	53886.15
530.94	54042.97
531.11	54052.33
531.28	54113.19
531.46	54262.98
531.63	54239.57
531.80	54234.89
531.97	54454.90
532.14	54574.27
532.31	54103.82
532.48	54569.59
532.65	54733.43
532.82	54480.65
532.99	54941.74
533.16	54719.38
533.33	54745.13
533.50	55068.12
533.67	55121.96
533.84	54663.21
534.01	54948.76
534.18	55072.81
534.35	55379.42
534.52	55047.06
534.69	55178.13
534.86	55426.23
535.03	55068.12
535.20	55222.60
535.37	55444.95
535.54	55255.37
535.71	55154.72
535.88	55192.17
536.05	55599.43
536.22	55711.77
536.38	55552.62
536.55	55707.09
536.72	55847.52
536.89	55559.64
537.06	55522.19
537.23	55948.17
537.40	55709.43
537.57	55561.98
537.74	56039.45
537.91	55901.36
538.08	55966.89
538.25	55613.47
538.42	55812.41
538.59	56147.11
538.75	55915.40
538.92	56002.00
539.09	56107.32
539.26	56151.79
539.43	56247.75
539.60	56207.97
539.77	56317.97
539.94	56289.88
540.11	56343.72
540.28	56556.70
540.44	56446.70
540.61	56535.64
540.78	56530.96
540.95	56479.47
541.12	56336.69
541.29	56633.94
541.46	56640.96
541.62	56624.58
541.79	56725.22
541.96	56404.57
542.13	56467.76
542.30	56790.76
542.47	56921.83
542.63	56830.55
542.80	57057.58
542.97	56987.36
543.14	57013.11
543.31	57006.09
543.48	57385.25
543.64	57546.75
543.81	57450.79
543.98	57293.97
544.15	57429.72
544.32	57539.73
544.48	57675.48
544.65	57652.08
544.82	57319.72
544.99	57251.84
545.16	57593.56
545.32	57350.15
545.49	57813.57
545.66	57712.93
545.83	57748.04
546.00	57607.61
546.16	58078.05
546.33	57509.30
546.50	57439.09
546.67	57715.27
546.83	57357.17
547.00	57858.04
547.17	57741.02
547.34	58007.84
547.50	58000.82
547.67	58040.60
547.84	58010.18
548.00	58059.33
548.17	58340.19
548.34	58021.88
548.51	58340.19
548.67	58321.47
548.84	58244.23
549.01	58010.18
549.18	58164.65
549.34	58487.65
549.51	58305.09
549.68	58312.11
549.84	58588.29
550.01	58342.53
550.18	58382.32
550.34	58504.03
550.51	58543.82
550.68	58539.14
550.84	58267.64
551.01	58520.41
551.18	58628.08
551.34	58562.54
551.51	58616.38
551.68	58574.25
551.84	58525.10
552.01	58368.28
552.18	58660.85
552.34	58478.28
552.51	58632.76
552.68	58719.36
552.84	58585.95
553.01	59061.08
553.18	58838.73
553.34	58937.03
553.51	59040.01
553.67	58892.56
553.84	59051.72
554.01	58890.22
554.17	59007.25
554.34	59121.93
554.51	58843.41
554.67	59110.23
554.84	59096.19
555.00	59009.59
555.17	59079.80
555.33	59131.29
555.50	59030.65
555.67	59140.66
555.83	59105.55
556.00	59224.92
556.16	59421.52
556.33	59185.13
556.50	59107.89
556.66	59519.82
556.83	59187.47
556.99	59547.91
557.16	59606.42
557.32	59653.23
557.49	59693.02
557.65	59386.41
557.82	59365.35
557.98	59508.12
558.15	59501.10
558.32	59538.55
558.48	59304.49
558.65	59531.53
558.81	59632.17
558.98	59442.59
559.14	59807.71
559.31	59716.43
559.47	59585.36
559.64	59814.73
559.80	59730.47
559.97	59859.20
560.13	59765.58
560.30	59751.54
560.46	59737.49
560.63	59669.62
560.79	59756.22
560.96	59742.17
561.12	59887.29
561.29	59847.50
561.45	59898.99
561.61	59889.63
561.78	59742.17
561.94	59791.33
562.11	59927.08
562.27	59852.18
562.44	59948.14
562.60	60023.04
562.77	59896.65
562.93	59772.60
563.10	60062.83
563.26	59887.29
563.42	60126.02
563.59	60186.88
563.75	60149.43
563.92	60055.81
564.08	59997.29
564.24	60158.79
564.41	60062.83
564.57	60163.47
564.74	60182.19
564.90	60088.57
565.07	60214.96
565.23	60119.00
565.39	60266.45
565.56	60271.14
565.72	60093.25
565.88	60374.12
566.05	60280.50
566.21	60151.77
566.38	60367.10
566.54	60217.30
566.70	60240.71
566.87	60353.05
567.03	60184.54
567.19	60626.90
567.36	60509.87
567.52	60390.50
567.68	60404.55
567.85	60355.39
568.01	60460.72
568.17	60315.61
568.34	60413.91
568.50	60264.11
568.66	60292.20
568.83	60416.25
568.99	60495.83
569.15	60406.89
569.32	60362.42
569.48	60369.44
569.64	60460.72
569.81	60563.70
569.97	60441.99
570.13	60402.21
570.30	60432.63
570.46	60465.40
570.62	60601.15
570.78	60514.55
570.95	60465.40
571.11	60708.82
571.27	60769.67
571.43	60594.13
571.60	60711.16
571.76	60711.16
571.92	60591.79
572.09	60575.40
572.25	60474.76
572.41	60547.32
572.57	60619.88
572.74	60860.95
572.90	60573.06
573.06	60666.69
573.22	60640.94
573.38	60638.60
573.55	60879.67
573.71	60708.82
573.87	60662.00
574.03	60774.35
574.20	60769.67
574.36	60722.86
574.52	60666.69
574.68	60573.06
574.84	60886.70
575.01	60940.53
575.17	60741.58
575.33	60748.60
575.49	60736.90
575.65	60823.50
575.82	60774.35
575.98	60748.60
576.14	60874.99
576.30	60889.04
576.46	60697.11
576.62	60727.54
576.79	60952.23
576.95	60666.69
577.11	60797.76
577.27	60772.01
577.43	61048.19
577.59	60598.81
577.75	60729.88
577.92	60757.97
578.08	60732.22
578.24	60968.61
578.40	60912.44
578.56	61010.74
578.72	60741.58
578.88	61001.38
579.04	61137.13
579.21	60793.07
579.37	61038.83
579.53	60973.30
579.69	60884.36
579.85	61057.56
580.01	60886.70
580.17	60685.41
580.33	60739.24
580.49	61029.47
580.65	61015.43
580.82	61109.05
580.98	60757.97
581.14	60762.65
581.30	61087.98
581.46	60809.46
581.62	61095.00
581.78	60863.29
581.94	61048.19
582.10	60919.46
582.26	61041.17
582.42	60896.06
582.58	61090.32
582.74	60746.26
582.90	61038.83
583.06	61062.24
583.22	60980.32
583.38	60921.80
583.54	61034.15
583.70	60865.63
583.86	60825.84
584.02	60987.34
584.18	61057.56
584.34	60970.96
584.50	60954.57
584.66	61034.15
584.82	60804.78
584.98	61071.60
585.14	60961.59
585.30	60891.38
585.46	61186.28
585.62	61109.05
585.78	61132.45
585.94	60825.84
586.10	61076.28
586.26	61120.75
586.42	60905.42
586.58	61137.13
586.74	61083.30
586.90	61066.92
587.06	60975.64
587.22	61237.78
587.38	60992.02
587.54	61221.39
587.70	61378.21
587.86	61263.52
588.02	61209.69
588.18	61111.39
588.34	61034.15
588.49	61090.32
