SpectraSuite Data File
++++++++++++++++++++++++++++++++++++
Date: Fri Oct 25 10:44:33 EDT 2013
User: price-jones
Dark Spectrum Present: No
Reference Spectrum Present: No
Number of Sampled Component Spectra: 1
Spectrometers: USB2+H05261
Integration Time (usec): 100000 (USB2+H05261)
Spectra Averaged: 1 (USB2+H05261)
Boxcar Smoothing: 0 (USB2+H05261)
Correct for Electrical Dark: No (USB2+H05261)
Strobe/Lamp Enabled: No (USB2+H05261)
Correct for Detector Non-linearity: No (USB2+H05261)
Correct for Stray Light: No (USB2+H05261)
Number of Pixels in Processed Spectrum: 2048
>>>>>Begin Processed Spectral Data<<<<<
365.73	93.62
365.92	93.62
366.12	93.62
366.32	0.00
366.52	4.68
366.72	95.96
366.91	23.41
367.11	93.62
367.31	0.00
367.51	42.13
367.70	0.00
367.90	11.70
368.10	46.81
368.30	72.56
368.49	107.66
368.69	91.28
368.89	11.70
369.09	7.02
369.28	18.72
369.48	7.02
369.68	77.24
369.87	98.30
370.07	86.60
370.27	180.22
370.47	201.29
370.66	400.23
370.86	416.62
371.06	491.51
371.25	535.98
371.45	407.25
371.65	465.77
371.84	430.66
372.04	423.64
372.24	461.09
372.44	479.81
372.63	472.79
372.83	482.15
373.03	447.04
373.22	440.02
373.42	491.51
373.62	573.43
373.81	491.51
374.01	519.60
374.21	543.00
374.40	503.22
374.60	538.32
374.79	535.98
374.99	571.09
375.19	477.47
375.38	496.19
375.58	552.37
375.78	601.52
375.97	606.20
376.17	620.24
376.37	596.84
376.56	521.94
376.76	620.24
376.95	587.47
377.15	596.84
377.35	648.33
377.54	587.47
377.74	620.24
377.93	531.30
378.13	615.56
378.33	566.41
378.52	662.37
378.72	662.37
378.91	636.63
379.11	655.35
379.31	575.77
379.50	552.37
379.70	662.37
379.89	622.58
380.09	613.22
380.28	660.03
380.48	631.94
380.68	653.01
380.87	655.35
381.07	660.03
381.26	645.99
381.46	711.52
381.65	702.16
381.85	664.71
382.04	709.18
382.24	657.69
382.43	688.12
382.63	697.48
382.83	763.01
383.02	758.33
383.22	812.17
383.41	657.69
383.61	660.03
383.80	702.16
384.00	727.91
384.19	784.08
384.39	718.54
384.58	784.08
384.78	851.96
384.97	800.46
385.17	702.16
385.36	737.27
385.56	753.65
385.75	793.44
385.95	777.06
386.14	781.74
386.34	819.19
386.53	821.53
386.72	741.95
386.92	837.91
387.11	882.38
387.31	887.06
387.50	896.43
387.70	791.10
387.89	826.21
388.09	919.83
388.28	777.06
388.48	819.19
388.67	866.00
388.86	819.19
389.06	983.02
389.25	873.02
389.45	940.90
389.64	887.06
389.84	858.98
390.03	985.37
390.22	980.68
390.42	1011.11
390.61	1027.50
390.81	912.81
391.00	919.83
391.19	973.66
391.39	992.39
391.58	936.21
391.78	997.07
391.97	1011.11
392.16	945.58
392.36	1034.52
392.55	1036.86
392.75	884.72
392.94	987.71
393.13	954.94
393.33	968.98
393.52	947.92
393.71	1107.07
393.91	1043.88
394.10	1020.47
394.29	1032.18
394.49	1013.45
394.68	1142.18
394.88	1041.54
395.07	1095.37
395.26	1125.80
395.46	1196.01
395.65	1163.25
395.84	1142.18
396.04	1205.38
396.23	1104.73
396.42	1196.01
396.62	1144.52
396.81	1184.31
397.00	1177.29
397.19	1160.91
397.39	1317.72
397.58	1364.53
397.77	1242.82
397.97	1371.55
398.16	1289.64
398.35	1317.72
398.55	1261.55
398.74	1284.95
398.93	1387.94
399.12	1343.47
399.32	1289.64
399.51	1373.89
399.70	1373.89
399.90	1357.51
400.09	1465.18
400.28	1411.34
400.47	1455.81
400.67	1476.88
400.86	1540.07
401.05	1554.12
401.24	1490.92
401.44	1472.20
401.63	1516.67
401.82	1603.27
402.01	1511.99
402.21	1640.72
402.40	1535.39
402.59	1570.50
402.78	1579.86
402.97	1640.72
403.17	1591.56
403.36	1589.22
403.55	1666.46
403.74	1764.76
403.93	1561.14
404.13	1685.19
404.32	1727.32
404.51	1771.79
404.70	1750.72
404.89	1645.40
405.09	1736.68
405.28	1708.59
405.47	1760.08
405.66	1736.68
405.85	1867.75
406.05	1774.13
406.24	1750.72
406.43	1811.57
406.62	1863.07
406.81	1860.73
407.00	1935.62
407.20	1863.07
407.39	1973.07
407.58	1961.37
407.77	1984.77
407.96	1982.43
408.15	2012.86
408.34	1959.03
408.54	2076.06
408.73	2073.71
408.92	2047.97
409.11	2146.27
409.30	2094.78
409.49	2094.78
409.68	2090.10
409.87	2153.29
410.07	2153.29
410.26	2064.35
410.45	2120.53
410.64	2204.78
410.83	2275.00
411.02	2204.78
411.21	2338.20
411.40	2319.47
411.59	2298.41
411.78	2246.91
411.98	2345.22
412.17	2314.79
412.36	2406.07
412.55	2506.71
412.74	2471.61
412.93	2487.99
413.12	2478.63
413.31	2569.91
413.50	2581.61
413.69	2656.51
413.88	2595.65
414.07	2609.70
414.26	2504.37
414.45	2663.53
414.64	2640.12
414.83	2778.22
415.02	2640.12
415.22	2834.39
415.41	2963.12
415.60	2939.71
415.79	2920.99
415.98	2923.33
416.17	2857.79
416.36	2993.55
416.55	2935.03
416.74	2937.37
416.93	3014.61
417.12	3028.65
417.31	2963.12
417.50	3033.33
417.69	3040.36
417.88	3066.10
418.07	3115.25
418.26	3215.90
418.45	3204.19
418.64	3204.19
418.83	3248.66
419.02	3155.04
419.21	3187.81
419.39	3283.77
419.58	3215.90
419.77	3262.71
419.96	3358.67
420.15	3419.52
420.34	3389.10
420.53	3368.03
420.72	3463.99
420.91	3510.80
421.10	3609.11
421.29	3578.68
421.48	3449.95
421.67	3337.60
421.86	3426.54
422.05	3492.08
422.24	3290.79
422.43	3515.48
422.61	3506.12
422.80	3613.79
422.99	3585.70
423.18	3674.64
423.37	3681.66
423.56	3632.51
423.75	3616.13
423.94	3529.53
424.13	3454.63
424.32	3419.52
424.50	3592.72
424.69	3714.43
424.88	3471.01
425.07	3581.02
425.26	3536.55
425.45	3648.90
425.64	3590.38
425.83	3716.77
426.01	3756.56
426.20	3658.26
426.39	3665.28
426.58	3583.36
426.77	3684.00
426.96	3627.83
427.15	3655.92
427.33	3772.94
427.52	3714.43
427.71	3702.73
427.90	3719.11
428.09	3765.92
428.28	3749.54
428.46	3840.82
428.65	3744.86
428.84	4074.87
429.03	3964.87
429.22	3805.71
429.40	3922.74
429.59	3838.48
429.78	3688.68
429.97	3630.17
430.16	3812.73
430.34	3934.44
430.53	3864.22
430.72	3911.04
430.91	4035.08
431.10	4016.36
431.28	4109.98
431.47	4212.96
431.66	4344.03
431.85	4145.09
432.03	4245.73
432.22	4219.99
432.41	4259.78
432.60	4292.54
432.79	4308.93
432.97	4390.84
433.16	4329.99
433.35	4201.26
433.54	4311.27
433.72	4458.72
433.91	4367.44
434.10	4390.84
434.28	4376.80
434.47	4503.19
434.66	4484.47
434.85	4660.01
435.03	4547.66
435.22	4451.70
435.41	4631.92
435.59	4662.35
435.78	4573.41
435.97	4753.63
436.16	4671.71
436.34	4711.50
436.53	4762.99
436.72	4786.40
436.90	4638.94
437.09	4727.88
437.28	4561.70
437.46	4835.55
437.65	4793.42
437.84	4725.54
438.02	4730.22
438.21	4748.95
438.40	4669.37
438.58	4868.31
438.77	4936.19
438.96	5022.79
439.14	5085.98
439.33	5191.31
439.52	5032.15
439.70	5193.65
439.89	5146.84
440.08	5320.04
440.26	5310.68
440.45	5280.25
440.63	5385.57
440.82	5523.66
441.01	5348.12
441.19	5408.98
441.38	5598.56
441.57	5589.20
441.75	5621.97
441.94	5682.82
442.12	5750.70
442.31	5806.87
442.50	5881.77
442.68	5898.15
442.87	5790.49
443.05	5928.58
443.24	5802.19
443.43	5846.66
443.61	5844.32
443.80	6031.56
443.98	5776.44
444.17	5755.38
444.35	5940.28
444.54	6008.16
444.73	5940.28
444.91	6101.78
445.10	5767.08
445.28	5959.00
445.47	5923.90
445.65	5830.27
445.84	5881.77
446.02	5975.39
446.21	6022.20
446.39	6022.20
446.58	6104.12
446.77	5963.68
446.95	6076.03
447.14	6080.71
447.32	6195.40
447.51	5970.71
447.69	6139.23
447.88	6157.95
448.06	6019.86
448.25	6228.17
448.43	6153.27
448.62	5996.45
448.80	6207.10
448.99	6249.23
449.17	6349.87
449.36	6249.23
449.54	6469.24
449.73	6455.20
449.91	6307.74
450.10	6658.82
450.28	6747.76
450.46	6565.20
450.65	6569.88
450.83	6509.03
451.02	6485.62
451.20	6637.76
451.39	6722.02
451.57	6656.48
451.76	6565.20
451.94	6473.92
452.13	6588.61
452.31	6408.39
452.49	6429.45
452.68	6644.78
452.86	6588.61
453.05	6686.91
453.23	6759.47
453.42	6583.93
453.60	6759.47
453.78	6705.63
453.97	6771.17
454.15	6743.08
454.34	6902.24
454.52	6867.13
454.70	6956.07
454.89	7021.61
455.07	6958.41
455.26	7005.22
455.44	7136.29
455.62	7229.91
455.81	7040.33
455.99	7197.15
456.17	7234.60
456.36	7023.95
456.54	7218.21
456.73	7225.23
456.91	7360.98
457.09	7349.28
457.28	7503.76
457.46	7368.01
457.64	7609.08
457.83	7552.91
458.01	7314.17
458.19	7557.59
458.38	7339.92
458.56	7688.66
458.74	7639.51
458.93	7545.89
459.11	7581.00
459.29	7786.96
459.48	7688.66
459.66	7660.57
459.84	7529.50
460.03	7793.98
460.21	7878.24
460.39	7758.88
460.57	7854.84
460.76	7737.81
460.94	7833.77
461.12	7892.29
461.31	7833.77
461.49	7857.18
461.67	7829.09
461.85	8079.53
462.04	8046.76
462.22	8217.62
462.40	8280.82
462.59	8154.43
462.77	8173.15
462.95	8053.78
463.13	8112.30
463.32	8105.28
463.50	8191.88
463.68	8437.63
463.86	8308.90
464.05	8138.04
464.23	8086.55
464.41	8276.13
464.59	8049.10
464.78	8578.06
464.96	8512.53
465.14	8329.97
465.32	8636.58
465.50	8372.10
465.69	8507.85
465.87	8781.69
466.05	8489.12
466.23	8409.54
466.41	8643.60
466.60	8699.77
466.78	8437.63
466.96	8479.76
467.14	8505.51
467.32	8704.45
467.51	8753.60
467.69	8479.76
467.87	8732.54
468.05	8844.88
468.23	8924.46
468.41	8807.44
468.60	8662.32
468.78	9029.79
468.96	8709.13
469.14	8912.76
469.32	9118.73
469.50	8992.34
469.69	8858.93
469.87	9109.36
470.05	9163.20
470.23	9032.13
470.41	8985.32
470.59	9228.73
470.77	9273.20
470.95	9233.41
471.14	9345.76
471.32	9329.38
471.50	9554.07
471.68	9392.57
471.86	9497.89
472.04	9502.58
472.22	9799.82
472.40	9563.43
472.58	9668.75
472.77	9741.31
472.95	9635.99
473.13	10040.90
473.31	9554.07
473.49	9734.29
473.67	9635.99
473.85	9900.47
474.03	10157.92
474.21	10047.92
474.39	10228.14
474.57	10080.69
474.75	10319.42
474.93	10497.30
475.12	10228.14
475.30	10443.47
475.48	10256.23
475.66	10396.66
475.84	10541.77
476.02	10616.67
476.20	10504.32
476.38	10911.58
476.56	10827.32
476.74	10995.84
476.92	11211.17
477.10	10902.22
477.28	11059.03
477.46	11070.73
477.64	11379.68
477.82	11517.78
478.00	11913.33
478.18	11534.16
478.36	11714.38
478.54	11866.52
478.72	11714.38
478.90	11978.86
479.08	12042.06
479.26	12184.83
479.44	12285.47
479.62	12156.74
479.80	12369.73
479.98	12241.00
480.16	12540.59
480.34	12512.50
480.52	12688.04
480.70	12788.69
480.88	12615.49
481.06	13001.68
481.24	12798.05
481.41	13172.54
481.59	13350.42
481.77	13291.90
481.95	13504.89
482.13	13774.05
482.31	13525.96
482.49	13387.86
482.67	14005.77
482.85	13912.14
483.03	13956.61
483.21	14052.58
483.39	14445.79
483.57	14080.66
483.74	14462.17
483.92	14614.30
484.10	14555.79
484.28	14785.16
484.46	14766.44
484.64	15131.56
484.82	14773.46
485.00	15274.34
485.18	15288.38
485.35	15454.56
485.53	15367.96
485.71	15143.27
485.89	15449.88
486.07	15681.59
486.25	15976.50
486.43	15861.81
486.61	15793.94
486.78	16322.90
486.96	16042.03
487.14	16643.55
487.32	16580.36
487.50	16650.57
487.68	16844.84
487.85	16718.45
488.03	17488.48
488.21	17287.20
488.39	17214.64
488.57	17436.99
488.75	17376.14
488.92	17902.76
489.10	17893.40
489.28	18054.89
489.46	18387.25
489.64	18462.15
489.81	18558.11
489.99	18408.31
490.17	18799.18
490.35	18876.42
490.53	18878.76
490.70	19122.18
490.88	19147.92
491.06	19594.96
491.24	19559.86
491.41	19466.24
491.59	19822.00
491.77	19536.45
491.95	19594.96
492.13	19990.52
492.30	20091.16
492.48	20299.47
492.66	20397.77
492.84	20255.00
493.01	20690.34
493.19	20379.04
493.37	20945.45
493.54	21046.10
493.72	21158.44
493.90	21259.09
494.08	21268.45
494.25	21390.16
494.43	21575.06
494.61	22017.42
494.79	21900.39
494.96	21994.01
495.14	21933.16
495.32	22263.18
495.49	22260.84
495.67	22267.86
495.85	22757.03
496.02	22768.73
496.20	22909.16
496.38	22595.53
496.55	22726.60
496.73	23260.24
496.91	23349.18
497.09	23190.03
497.26	23283.65
497.44	23604.30
497.62	23400.68
497.79	23494.30
497.97	23576.22
498.14	23798.57
498.32	24093.47
498.50	23882.83
498.67	24217.52
498.85	24414.13
499.03	24484.34
499.20	24372.00
499.38	24823.72
499.56	24570.94
499.73	24781.59
499.91	24568.60
500.08	24861.17
500.26	24774.57
500.44	24994.58
500.61	25006.28
500.79	25120.97
500.97	25443.96
501.14	25600.78
501.32	25715.47
501.49	25495.46
501.67	25544.61
501.84	25493.12
502.02	25792.70
502.20	26057.18
502.37	26167.19
502.55	25900.37
502.72	26073.57
502.90	26448.05
503.07	26302.94
503.25	26632.96
503.43	26291.24
503.60	26544.02
503.78	26340.39
503.95	26663.38
504.13	27037.87
504.30	26801.47
504.48	26752.32
504.65	27159.58
504.83	27515.34
505.01	27948.34
505.18	27257.88
505.36	27489.59
505.53	27775.14
505.71	27899.19
505.88	27971.74
506.06	27597.26
506.23	27747.05
506.41	28032.60
506.58	28334.53
506.76	27894.50
506.93	28250.27
507.11	28053.66
507.28	28058.34
507.46	28393.04
507.63	28320.48
507.81	28393.04
507.98	28245.58
508.16	28596.67
508.33	28755.82
508.50	29015.62
508.68	28924.34
508.85	29378.40
509.03	29160.73
509.20	29205.20
509.38	29434.58
509.55	29675.65
509.73	29607.78
509.90	29614.80
510.08	29511.81
510.25	29399.47
510.42	29869.92
510.60	29535.22
510.77	30036.09
510.95	30338.02
511.12	30265.47
511.30	30459.73
511.47	30541.65
511.64	30501.86
511.82	30801.45
511.99	30373.13
512.17	30639.95
512.34	30511.22
512.51	31021.46
512.69	31091.68
512.86	30771.02
513.04	31381.90
513.21	31143.17
513.38	31065.93
513.56	31009.76
513.73	30892.73
513.90	31466.16
514.08	31007.42
514.25	31321.05
514.43	31124.44
514.60	31328.07
514.77	31676.81
514.95	32095.77
515.12	31606.59
515.29	32182.37
515.47	32297.05
515.64	32215.13
515.81	32002.14
515.99	32100.45
516.16	32020.87
516.33	31917.89
516.51	32093.43
516.68	31978.74
516.85	32009.17
517.03	31744.69
517.20	32268.97
517.37	32442.17
517.54	32739.41
517.72	32811.97
517.89	32355.57
518.06	32678.56
518.24	32786.22
518.41	32706.65
518.58	32233.86
518.75	32442.17
518.93	33141.99
519.10	32917.29
519.27	33172.41
519.45	33036.66
519.62	33474.34
519.79	33677.97
519.96	33551.58
520.14	33750.52
520.31	33544.56
520.48	33661.58
520.65	33350.29
520.83	34010.32
521.00	34415.24
521.17	33982.24
521.34	34155.44
521.52	34497.16
521.69	34459.71
521.86	34375.45
522.03	34504.18
522.20	34298.21
522.38	34827.17
522.55	34761.64
522.72	34766.32
522.89	34246.72
523.07	34485.45
523.24	34588.44
523.41	34916.11
523.58	34768.66
523.75	35655.72
523.92	35433.37
524.10	35056.54
524.27	35519.97
524.44	35079.95
524.61	35379.54
524.78	35262.51
524.96	35754.02
525.13	35409.96
525.30	36095.74
525.47	35892.12
525.64	35754.02
525.81	35648.70
525.98	35641.68
526.16	35835.94
526.33	35651.04
526.50	35920.20
526.67	35714.23
526.84	35665.08
527.01	35910.84
527.18	36034.89
527.36	36079.36
527.53	36634.06
527.70	36657.47
527.87	36676.19
528.04	36451.50
528.21	36694.92
528.38	36655.13
528.55	36556.83
528.72	36648.11
528.89	37261.33
529.07	36825.99
529.24	36933.65
529.41	36488.95
529.58	36840.03
529.75	36933.65
529.92	37209.84
530.09	37436.87
530.26	37528.15
530.43	37549.21
530.60	37347.93
530.77	36788.54
530.94	37574.96
531.11	37560.92
531.28	37778.59
531.46	38244.35
531.63	37467.30
531.80	37471.98
531.97	37750.50
532.14	37820.72
532.31	37659.22
532.48	37684.97
532.65	37633.47
532.82	37860.51
532.99	37919.02
533.16	38014.98
533.33	38319.25
533.50	38330.95
533.67	38614.16
533.84	37865.19
534.01	38389.47
534.18	38436.28
534.35	38838.85
534.52	38462.02
534.69	38562.67
534.86	38567.35
535.03	38380.10
535.20	38817.78
535.37	39016.73
535.54	39077.58
535.71	38607.14
535.88	38665.65
536.05	38471.39
536.22	39098.65
536.38	39210.99
536.55	39105.67
536.72	38838.85
536.89	38969.92
537.06	38845.87
537.23	39517.60
537.40	38880.98
537.57	38925.45
537.74	38899.70
537.91	39512.92
538.08	39672.08
538.25	38920.77
538.42	38986.30
538.59	39391.22
538.75	39218.02
538.92	39505.90
539.09	39278.87
539.26	39721.23
539.43	39587.82
539.60	39555.05
539.77	39512.92
539.94	39543.35
540.11	39620.59
540.28	39620.59
540.44	39807.83
540.61	40250.19
540.78	39906.13
540.95	39613.57
541.12	39913.16
541.29	39529.31
541.46	39990.39
541.62	40030.18
541.79	40187.00
541.96	39854.64
542.13	40123.80
542.30	39889.75
542.47	40189.34
542.63	40346.15
542.80	40133.17
542.97	40755.75
543.14	41158.32
543.31	40992.14
543.48	40666.81
543.64	41357.27
543.81	41083.42
543.98	41043.63
544.15	40865.75
544.32	41038.95
544.48	41633.45
544.65	40809.58
544.82	41212.15
544.99	40837.67
545.16	41420.46
545.32	41322.16
545.49	41663.88
545.66	41493.02
545.83	41340.88
546.00	42216.24
546.16	41092.79
546.33	41298.75
546.50	40809.58
546.67	41415.78
546.83	41202.79
547.00	41713.03
547.17	41305.77
547.34	41713.03
547.50	41858.14
547.67	41621.75
547.84	41663.88
548.00	42103.90
548.17	42192.84
548.34	42157.73
548.51	41979.85
548.67	42094.53
548.84	41956.44
549.01	42440.93
549.18	41841.76
549.34	41935.38
549.51	42099.22
549.68	42520.51
549.84	42298.16
550.01	42478.38
550.18	42012.62
550.34	42471.36
550.51	42124.96
550.68	42328.59
550.84	42078.15
551.01	42939.47
551.18	42349.65
551.34	42494.77
551.51	42450.30
551.68	42794.36
551.84	42995.64
552.01	42483.06
552.18	42719.46
552.34	42714.78
552.51	42733.50
552.68	41923.68
552.84	43342.04
553.01	43168.84
553.18	42682.01
553.34	43012.02
553.51	42618.81
553.67	42583.71
553.84	43229.69
554.01	43250.76
554.17	42946.49
554.34	43580.78
554.51	43344.38
554.67	42885.64
554.84	43217.99
555.00	42993.30
555.17	42934.79
555.33	42939.47
555.50	43056.50
555.67	42927.77
555.83	42979.26
556.00	43400.55
556.16	43536.30
556.33	43077.56
556.50	43438.00
556.66	43381.83
556.83	43250.76
556.99	43536.30
557.16	43695.46
557.32	43672.06
557.49	43866.32
557.65	43086.92
557.82	43264.80
557.98	43260.12
558.15	43241.40
558.32	43714.19
558.48	43133.73
558.65	43739.93
558.81	43461.41
558.98	43297.57
559.14	43271.82
559.31	43241.40
559.47	43728.23
559.64	43826.53
559.80	43931.86
559.97	43526.94
560.13	43309.27
560.30	43400.55
560.46	43924.83
560.63	43746.95
560.79	43835.89
560.96	44409.32
561.12	43807.81
561.29	44053.56
561.45	44076.97
561.61	43611.20
561.78	43831.21
561.94	43964.62
562.11	44034.84
562.27	43770.36
562.44	43711.84
562.60	44339.11
562.77	44095.69
562.93	44041.86
563.10	44065.27
563.26	44102.71
563.42	43915.47
563.59	43604.18
563.75	44016.11
563.92	43798.44
564.08	44079.31
564.24	44875.09
564.41	44313.36
564.57	44140.16
564.74	43784.40
564.90	44210.38
565.07	44233.78
565.23	44299.32
565.39	44165.91
565.56	44418.69
565.72	43646.31
565.88	44376.56
566.05	44062.93
566.21	44116.76
566.38	43856.96
566.54	44456.14
566.70	44292.30
566.87	44776.79
567.03	44161.23
567.19	44437.41
567.36	44395.28
567.52	44432.73
567.68	44423.37
567.85	44418.69
568.01	44528.69
568.17	44360.17
568.34	44442.09
568.50	44435.07
568.66	44240.81
568.83	44474.86
568.99	44135.48
569.15	43971.64
569.32	44186.97
569.48	43777.38
569.64	44629.34
569.81	44467.84
569.97	44048.88
570.13	44917.22
570.30	44737.00
570.46	44514.65
570.62	44219.74
570.78	44376.56
570.95	44020.80
571.11	44481.88
571.27	44245.49
571.43	44505.29
571.60	44147.18
571.76	44444.43
571.92	44301.66
572.09	44760.40
572.25	44229.10
572.41	44383.58
572.57	44577.84
572.74	44907.86
572.90	44271.23
573.06	44584.86
573.22	44493.58
573.38	44397.62
573.55	44514.65
573.71	44872.75
573.87	44753.38
574.03	44552.10
574.20	44769.77
574.36	44516.99
574.52	44744.02
574.68	44538.05
574.84	44514.65
575.01	44591.89
575.17	44701.89
575.33	44634.02
575.49	44189.31
575.65	44556.78
575.82	44982.76
575.98	44322.72
576.14	44519.33
576.30	44334.43
576.46	44980.42
576.62	44641.04
576.79	44762.75
576.95	44034.84
577.11	44563.80
577.27	45036.59
577.43	44802.53
577.59	44460.82
577.75	44102.71
577.92	44112.08
578.08	44528.69
578.24	44762.75
578.40	44722.96
578.56	44671.46
578.72	44823.60
578.88	44968.71
579.04	44954.67
579.21	44753.38
579.37	45001.48
579.53	44949.99
579.69	44547.42
579.85	44821.26
580.01	44636.36
580.17	44748.70
580.33	45113.83
580.49	45116.17
580.65	45404.05
580.82	44779.13
580.98	44439.75
581.14	44577.84
581.30	45144.25
581.46	45001.48
581.62	44828.28
581.78	44804.88
581.94	44935.95
582.10	44900.84
582.26	44828.28
582.42	44823.60
582.58	44809.56
582.74	44605.93
582.90	44968.71
583.06	45090.42
583.22	45036.59
583.38	45198.09
583.54	44945.31
583.70	44851.69
583.86	45219.15
584.02	44589.55
584.18	44737.00
584.34	44790.83
584.50	44987.44
584.66	44732.32
584.82	44910.20
584.98	45031.91
585.14	44949.99
585.30	44905.52
585.46	45097.44
585.62	45043.61
585.78	45109.14
585.94	44289.96
586.10	44594.23
586.26	44825.94
586.42	44708.91
586.58	45006.16
586.74	44893.82
586.90	44612.95
587.06	44800.19
587.22	44648.06
587.38	44641.04
587.54	44737.00
587.70	45202.77
587.86	45116.17
588.02	44875.09
588.18	45062.33
588.34	44573.16
588.49	44535.71
588.65	44458.48
588.81	44425.71
588.97	44809.56
589.13	44425.71
589.29	44687.85
589.45	44596.57
589.61	44662.10
589.77	45036.59
589.93	44818.92
590.08	45113.83
590.24	45027.23
