SpectraSuite Data File
++++++++++++++++++++++++++++++++++++
Date: Fri Oct 25 11:25:53 EDT 2013
User: price-jones
Dark Spectrum Present: No
Reference Spectrum Present: No
Number of Sampled Component Spectra: 1
Spectrometers: USB2+H05261
Integration Time (usec): 100000 (USB2+H05261)
Spectra Averaged: 1 (USB2+H05261)
Boxcar Smoothing: 0 (USB2+H05261)
Correct for Electrical Dark: No (USB2+H05261)
Strobe/Lamp Enabled: No (USB2+H05261)
Correct for Detector Non-linearity: No (USB2+H05261)
Correct for Stray Light: No (USB2+H05261)
Number of Pixels in Processed Spectrum: 2048
>>>>>Begin Processed Spectral Data<<<<<
365.73	205.97
365.92	205.97
366.12	205.97
366.32	128.73
366.52	126.39
366.72	163.84
366.91	131.07
367.11	121.71
367.31	128.73
367.51	201.29
367.70	126.39
367.90	107.66
368.10	156.82
368.30	187.24
368.49	133.41
368.69	135.75
368.89	112.35
369.09	149.79
369.28	210.65
369.48	205.97
369.68	156.82
369.87	205.97
370.07	243.42
370.27	222.35
370.47	341.72
370.66	526.62
370.86	545.34
371.06	704.50
371.25	629.60
371.45	636.63
371.65	737.27
371.84	744.29
372.04	697.48
372.24	767.70
372.44	741.95
372.63	725.57
372.83	772.38
373.03	746.63
373.22	718.54
373.42	795.78
373.62	784.08
373.81	751.31
374.01	816.85
374.21	753.65
374.40	863.66
374.60	805.14
374.79	854.30
374.99	795.78
375.19	821.53
375.38	816.85
375.58	849.61
375.78	936.21
375.97	912.81
376.17	933.87
376.37	894.08
376.56	887.06
376.76	898.77
376.95	837.91
377.15	903.45
377.35	889.40
377.54	910.47
377.74	929.19
377.93	877.70
378.13	901.11
378.33	940.90
378.52	917.49
378.72	945.58
378.91	936.21
379.11	976.00
379.31	931.53
379.50	936.21
379.70	950.26
379.89	999.41
380.09	978.34
380.28	1015.79
380.48	1020.47
380.68	959.62
380.87	994.73
381.07	1036.86
381.26	1086.01
381.46	961.96
381.65	1015.79
381.85	1053.24
382.04	1029.84
382.24	1104.73
382.43	1097.71
382.63	1083.67
382.83	1114.10
383.02	1055.58
383.22	1160.91
383.41	1160.91
383.61	1104.73
383.80	1139.84
384.00	1111.75
384.19	1165.59
384.39	1137.50
384.58	1100.05
384.78	1132.82
384.97	1090.69
385.17	1053.24
385.36	1116.44
385.56	1252.19
385.75	1104.73
385.95	1235.80
386.14	1226.44
386.34	1205.38
386.53	1238.14
386.72	1247.51
386.92	1205.38
387.11	1233.46
387.31	1198.35
387.50	1228.78
387.70	1256.87
387.89	1226.44
388.09	1284.95
388.28	1303.68
388.48	1284.95
388.67	1329.42
388.86	1261.55
389.06	1266.23
389.25	1280.27
389.45	1371.55
389.64	1390.28
389.84	1409.00
390.03	1423.05
390.22	1397.30
390.42	1341.13
390.61	1364.53
390.81	1240.48
391.00	1409.00
391.19	1345.81
391.39	1523.69
391.58	1420.71
391.78	1467.52
391.97	1481.56
392.16	1420.71
392.36	1404.32
392.55	1486.24
392.75	1535.39
392.94	1535.39
393.13	1547.09
393.33	1577.52
393.52	1558.80
393.71	1570.50
393.91	1626.67
394.10	1577.52
394.29	1603.27
394.49	1504.96
394.68	1568.16
394.88	1652.42
395.07	1584.54
395.26	1568.16
395.46	1636.03
395.65	1528.37
395.84	1577.52
396.04	1849.02
396.23	1736.68
396.42	1764.76
396.62	1727.32
396.81	1858.39
397.00	1834.98
397.19	1788.17
397.39	1764.76
397.58	1830.30
397.77	1832.64
397.97	1860.73
398.16	1799.87
398.35	1839.66
398.55	1891.15
398.74	1994.14
398.93	2005.84
399.12	1996.48
399.32	1900.52
399.51	1970.73
399.70	1984.77
399.90	1952.01
400.09	2073.71
400.28	2069.03
400.47	2005.84
400.67	2129.89
400.86	1954.35
401.05	2115.84
401.24	2052.65
401.44	2202.44
401.63	2165.00
401.82	2172.02
402.01	2132.23
402.21	2157.97
402.40	2244.57
402.59	2183.72
402.78	2193.08
402.97	2275.00
403.17	2186.06
403.36	2249.25
403.55	2335.85
403.74	2511.39
403.93	2399.05
404.13	2354.58
404.32	2417.77
404.51	2406.07
404.70	2417.77
404.89	2399.05
405.09	2572.25
405.28	2415.43
405.47	2495.01
405.66	2406.07
405.85	2541.82
406.05	2487.99
406.24	2487.99
406.43	2586.29
406.62	2534.80
406.81	2684.59
407.00	2492.67
407.20	2597.99
407.39	2544.16
407.58	2703.32
407.77	2768.85
407.96	2799.28
408.15	2789.92
408.34	2630.76
408.54	2832.05
408.73	2815.66
408.92	2689.28
409.11	2836.73
409.30	2729.06
409.49	2799.28
409.68	2864.82
409.87	3005.25
410.07	3141.00
410.26	2986.52
410.45	3002.91
410.64	3082.49
410.83	3005.25
411.02	3145.68
411.21	3136.32
411.40	3101.21
411.59	3318.88
411.78	3265.05
411.98	3136.32
412.17	3262.71
412.36	3183.13
412.55	3379.73
412.74	3501.44
412.93	3363.35
413.12	3353.99
413.31	3445.27
413.50	3440.59
413.69	3548.25
413.88	3641.87
414.07	3606.77
414.26	3712.09
414.45	3669.96
414.64	3721.45
414.83	3735.50
415.02	3861.88
415.22	3742.52
415.41	3812.73
415.60	3854.86
415.79	3936.78
415.98	3875.93
416.17	3955.51
416.36	3880.61
416.55	3955.51
416.74	4091.26
416.93	4046.79
417.12	4215.30
417.31	4177.86
417.50	4112.32
417.69	4255.09
417.88	4114.66
418.07	4219.99
418.26	4386.16
418.45	4276.16
418.64	4374.46
418.83	4395.53
419.02	4379.14
419.21	4503.19
419.39	4442.34
419.58	4395.53
419.77	4468.08
419.96	4519.57
420.15	4514.89
420.34	4592.13
420.53	4559.36
420.72	4655.33
420.91	4737.24
421.10	4816.82
421.29	4854.27
421.48	4760.65
421.67	4713.84
421.86	4938.53
422.05	4793.42
422.24	4758.31
422.43	4968.96
422.61	4901.08
422.80	4723.20
422.99	4887.04
423.18	4954.91
423.37	4922.15
423.56	4959.60
423.75	4971.30
423.94	4905.76
424.13	4601.49
424.32	4734.90
424.50	4952.57
424.69	5104.71
424.88	5027.47
425.07	5076.62
425.26	4978.32
425.45	4999.38
425.64	4964.28
425.83	4952.57
426.01	4975.98
426.20	5125.77
426.39	4968.96
426.58	5144.50
426.77	5013.43
426.96	5146.84
427.15	5032.15
427.33	5139.82
427.52	5153.86
427.71	5296.63
427.90	5362.17
428.09	5275.57
428.28	5390.25
428.46	5371.53
428.65	5432.38
428.84	5460.47
429.03	5502.60
429.22	5298.97
429.40	5469.83
429.59	5465.15
429.78	5371.53
429.97	5228.76
430.16	5509.62
430.34	5636.01
430.53	5687.50
430.72	5621.97
430.91	5668.78
431.10	5584.52
431.28	5753.04
431.47	5813.89
431.66	5748.36
431.85	5731.97
432.03	5872.40
432.22	6036.24
432.41	5954.32
432.60	6008.16
432.79	6073.69
432.97	5935.60
433.16	6031.56
433.35	6120.50
433.54	5846.66
433.72	6148.59
433.91	5970.71
434.10	6237.53
434.28	6139.23
434.47	6260.93
434.66	6176.67
434.85	6368.60
435.03	6274.98
435.22	6195.40
435.41	6326.47
435.59	6389.66
435.78	6307.74
435.97	6527.75
436.16	6443.49
436.34	6366.26
436.53	6492.65
436.72	6792.23
436.90	6574.56
437.09	6670.53
437.28	6640.10
437.46	6602.65
437.65	6593.29
437.84	6892.88
438.02	6686.91
438.21	6745.42
438.40	6738.40
438.58	6855.43
438.77	7101.19
438.96	6995.86
439.14	7136.29
439.33	7077.78
439.52	7180.76
439.70	7269.70
439.89	7321.20
440.08	7463.97
440.26	7349.28
440.45	7396.09
440.63	7492.05
440.82	7613.76
441.01	7669.94
441.19	7557.59
441.38	7524.82
441.57	7609.08
441.75	7653.55
441.94	7854.84
442.12	7911.01
442.31	8124.00
442.50	7976.55
442.68	7911.01
442.87	7990.59
443.05	8070.17
443.24	8107.62
443.43	8145.06
443.61	8159.11
443.80	8322.94
443.98	7992.93
444.17	7918.03
444.35	8205.92
444.54	8318.26
444.73	8477.42
444.91	8306.56
445.10	8131.02
445.28	8257.41
445.47	8131.02
445.65	8367.42
445.84	8475.08
446.02	8313.58
446.21	8557.00
446.39	8430.61
446.58	8383.80
446.77	8393.16
446.95	8250.39
447.14	8500.83
447.32	8458.70
447.51	8325.29
447.69	8360.39
447.88	8486.78
448.06	8423.59
448.25	8603.81
448.43	8606.15
448.62	8603.81
448.80	8346.35
448.99	8566.36
449.17	8793.39
449.36	8704.45
449.54	8741.90
449.73	8938.51
449.91	8940.85
450.10	8950.21
450.28	9069.58
450.46	9043.83
450.65	8943.19
450.83	8877.65
451.02	9025.11
451.20	9142.13
451.39	9198.31
451.57	9132.77
451.76	8936.17
451.94	9163.20
452.13	9261.50
452.31	9195.96
452.49	9029.79
452.68	9310.65
452.86	9348.10
453.05	9427.68
453.23	9331.72
453.42	9570.45
453.60	9252.14
453.78	9657.05
453.97	9289.59
454.15	9612.58
454.34	9554.07
454.52	9776.42
454.70	9619.60
454.89	9600.88
455.07	9919.19
455.26	9797.48
455.44	9982.38
455.62	9797.48
455.81	9795.14
455.99	9989.41
456.17	9998.77
456.36	9743.65
456.54	10193.03
456.73	10382.62
456.91	10406.02
457.09	10497.30
457.28	10717.31
457.46	10181.33
457.64	10579.22
457.83	10356.87
458.01	10246.87
458.19	10626.03
458.38	10551.14
458.56	10764.12
458.74	10635.39
458.93	10551.14
459.11	10630.71
459.29	10555.82
459.48	10691.57
459.66	10918.60
459.84	10843.70
460.03	11026.26
460.21	10813.28
460.39	10857.75
460.57	10888.17
460.76	10977.11
460.94	11290.74
461.12	11410.11
461.31	11014.56
461.49	11272.02
461.67	11283.72
461.85	11309.47
462.04	11400.75
462.22	11627.78
462.40	11428.84
462.59	11412.45
462.77	11482.67
462.95	11723.74
463.13	11501.39
463.32	11826.73
463.50	11735.45
463.68	11840.77
463.86	11786.94
464.05	11648.85
464.23	11698.00
464.41	11978.86
464.59	11791.62
464.78	12140.36
464.96	12217.60
465.14	11925.03
465.32	12100.57
465.50	12009.29
465.69	12032.69
465.87	12173.13
466.05	12058.44
466.23	12093.55
466.41	12037.38
466.60	12444.63
466.78	12346.33
466.96	12203.55
467.14	12273.77
467.32	12521.87
467.51	12456.33
467.69	12255.04
467.87	12451.65
468.05	12437.61
468.23	12423.56
468.41	12458.67
468.60	12755.92
468.78	12716.13
468.96	12669.32
469.14	12931.46
469.32	12608.47
469.50	12666.98
469.69	12713.79
469.87	12896.35
470.05	12868.27
470.23	13123.38
470.41	13104.66
470.59	13212.32
470.77	13071.89
470.95	13406.59
471.14	13483.83
471.32	13259.13
471.50	13284.88
471.68	13289.56
471.86	13865.33
472.04	13603.19
472.22	14003.43
472.40	13525.96
472.58	13804.48
472.77	13980.02
472.95	14073.64
473.13	14298.33
473.31	14003.43
473.49	14111.09
473.67	14331.10
473.85	14207.05
474.03	14523.02
474.21	14658.78
474.39	14544.09
474.57	14689.20
474.75	14892.83
474.93	14878.79
475.12	14878.79
475.30	14799.21
475.48	15077.73
475.66	15075.39
475.84	15154.97
476.02	15147.95
476.20	15428.81
476.38	15625.42
476.56	15836.06
476.74	15962.45
476.92	15922.66
477.10	15798.62
477.28	16107.57
477.46	16283.11
477.64	16231.62
477.82	16369.71
478.00	17069.53
478.18	16673.98
478.36	16699.72
478.54	17139.74
478.72	17212.30
478.90	17151.45
479.08	17245.07
479.26	17874.67
479.44	17415.93
479.62	17905.10
479.80	18134.47
479.98	18377.89
480.16	18445.76
480.34	18073.62
480.52	18717.26
480.70	18817.91
480.88	18335.76
481.06	18724.29
481.24	18616.62
481.41	19147.92
481.59	19332.82
481.77	19543.47
481.95	19697.95
482.13	19796.25
482.31	19852.42
482.49	20011.58
482.67	20032.65
482.85	20418.83
483.03	20814.38
483.21	20676.29
483.39	20987.58
483.57	20868.22
483.74	21376.11
483.92	21380.79
484.10	21132.70
484.28	21532.93
484.46	22061.89
484.64	22284.24
484.82	22031.46
485.00	22490.21
485.18	22869.37
485.35	22967.68
485.53	22890.44
485.71	22927.89
485.89	23412.38
486.07	22787.46
486.25	23632.39
486.43	23417.06
486.61	23798.57
486.78	24105.18
486.96	24332.21
487.14	24673.93
487.32	24931.39
487.50	24687.97
487.68	24861.17
487.85	25090.54
488.03	25465.03
488.21	25685.04
488.39	26085.27
488.57	26183.57
488.75	26253.79
488.92	26352.09
489.10	26820.20
489.28	26836.58
489.46	27283.62
489.64	26979.36
489.81	27274.26
489.99	27466.19
490.17	27807.90
490.35	28074.73
490.53	28280.69
490.70	28367.29
490.88	28393.04
491.06	28994.56
491.24	28952.43
491.41	28931.36
491.59	29048.39
491.77	29057.75
491.95	29532.88
492.13	29497.77
492.30	29659.27
492.48	29575.01
492.66	30256.11
492.84	30326.32
493.01	30501.86
493.19	30759.32
493.37	30768.68
493.54	30817.83
493.72	31644.04
493.90	31590.21
494.08	31742.35
494.25	31791.50
494.43	31831.29
494.61	32126.19
494.79	32652.81
494.96	32404.72
495.14	32755.80
495.32	32896.23
495.49	33141.99
495.67	33359.66
495.85	33656.90
496.02	33684.99
496.20	33766.91
496.38	33605.41
496.55	34359.06
496.73	34700.78
496.91	34408.22
497.09	34726.53
497.26	34794.40
497.44	34979.31
497.62	35065.91
497.79	35948.29
497.97	35325.71
498.14	35826.58
498.32	35955.31
498.50	35749.34
498.67	36591.94
498.85	36002.12
499.03	36748.75
499.20	36910.25
499.38	36877.48
499.56	37261.33
499.73	37156.00
499.91	37106.85
500.08	37408.78
500.26	37474.32
500.44	37818.38
500.61	37631.13
500.79	37869.87
500.97	38162.43
501.14	38396.49
501.32	38410.53
501.49	38785.02
501.67	38557.99
501.84	38920.77
502.02	38710.12
502.20	39016.73
502.37	39232.06
502.55	39171.21
502.72	39225.04
502.90	39515.26
503.07	39475.48
503.25	39618.25
503.43	39852.30
503.60	40048.91
503.78	40191.68
503.95	39913.16
504.13	40491.27
504.30	40432.75
504.48	40353.18
504.65	40928.95
504.83	40957.03
505.01	41448.55
505.18	41326.84
505.36	41600.68
505.53	41106.83
505.71	41769.20
505.88	41703.67
506.06	41614.72
506.23	42045.38
506.41	41635.79
506.58	41937.72
506.76	41804.31
506.93	41834.74
507.11	42335.61
507.28	42796.70
507.46	42471.36
507.63	42754.57
507.81	43325.66
507.98	42679.67
508.16	43000.32
508.33	43316.29
508.50	43618.22
508.68	43400.55
508.85	44191.65
509.03	43693.12
509.20	44086.33
509.38	44011.43
509.55	44018.46
509.73	44037.18
509.90	44519.33
510.08	44336.77
510.25	44666.78
510.42	44989.78
510.60	44875.09
510.77	45036.59
510.95	44992.12
511.12	45287.03
511.30	45160.64
511.47	45270.64
511.64	45500.01
511.82	45682.58
511.99	45635.77
512.17	45752.79
512.34	45612.36
512.51	46199.83
512.69	46134.30
512.86	46358.99
513.04	46454.95
513.21	46412.82
513.38	46618.79
513.56	46646.88
513.73	46939.44
513.90	46902.00
514.08	46815.40
514.25	47409.89
514.43	47363.08
514.60	47129.03
514.77	47578.41
514.95	47445.00
515.12	47419.25
515.29	47419.25
515.47	47746.93
515.64	48020.77
515.81	47910.77
515.99	47980.98
516.16	48479.52
516.33	48105.03
516.51	48591.86
516.68	48013.75
516.85	48538.03
517.03	48905.49
517.20	48760.38
517.37	48842.30
517.54	48715.91
517.72	49066.99
517.89	48825.92
518.06	48992.09
518.24	49045.93
518.41	49029.54
518.58	49127.84
518.75	48680.80
518.93	49497.65
519.10	49216.78
519.27	49977.46
519.45	49385.30
519.62	49815.96
519.79	50066.40
519.96	49918.95
520.14	49907.24
520.31	50204.49
520.48	50206.83
520.65	50513.44
520.83	50475.99
521.00	50787.28
521.17	50773.24
521.34	50721.75
521.52	50382.37
521.69	50946.44
521.86	50913.67
522.03	51021.34
522.20	51234.33
522.38	51082.19
522.55	51126.66
522.72	51175.81
522.89	51306.88
523.07	51421.57
523.24	51510.51
523.41	51824.14
523.58	51402.85
523.75	51728.18
523.92	51763.29
524.10	51824.14
524.27	52009.04
524.44	52058.20
524.61	52388.21
524.78	52212.67
524.96	51964.57
525.13	52083.94
525.30	52430.34
525.47	52310.97
525.64	52186.92
525.81	52521.62
525.98	52545.03
526.16	52495.88
526.33	52603.54
526.50	52863.34
526.67	52648.01
526.84	52947.60
527.01	52755.68
527.18	52949.94
527.36	52858.66
527.53	53137.18
527.70	53254.21
527.87	53399.32
528.04	53062.29
528.21	53153.57
528.38	53481.24
528.55	53368.90
528.72	53095.05
528.89	53394.64
529.07	53478.90
529.24	53425.07
529.41	53752.74
529.58	53619.33
529.75	53633.38
529.92	53518.69
530.09	53935.30
530.26	53858.07
530.43	53638.06
530.60	53628.69
530.77	53998.50
530.94	53982.12
531.11	54047.65
531.28	54162.34
531.46	54157.66
531.63	54049.99
531.80	54162.34
531.97	54206.81
532.14	54232.55
532.31	54361.28
532.48	54473.63
532.65	54452.56
532.82	54326.17
532.99	54632.78
533.16	54326.17
533.33	54871.52
533.50	54614.06
533.67	54834.07
533.84	54567.25
534.01	54679.60
534.18	54700.66
534.35	55056.42
534.52	55189.83
534.69	55243.66
534.86	55519.85
535.03	54923.01
535.20	55405.16
535.37	55217.92
535.54	55391.12
535.71	55388.78
535.88	55325.58
536.05	55487.08
536.22	55592.40
536.38	55814.76
536.55	55671.98
536.72	55444.95
536.89	55222.60
537.06	55601.77
537.23	55491.76
537.40	55529.21
537.57	55753.90
537.74	55812.41
537.91	56207.97
538.08	55835.82
538.25	55718.79
538.42	55927.10
538.59	56222.01
538.75	55746.88
538.92	55896.67
539.09	56151.79
539.26	55952.85
539.43	56086.26
539.60	56423.29
539.77	56095.62
539.94	56481.81
540.11	56214.99
540.28	56472.45
540.44	56348.40
540.61	56362.44
540.78	56243.07
540.95	56320.31
541.12	56463.08
541.29	56250.09
541.46	56317.97
541.62	56575.43
541.79	56615.22
541.96	56463.08
542.13	56437.34
542.30	56655.01
542.47	56750.97
542.63	56849.27
542.80	56706.50
542.97	56495.85
543.14	57123.11
543.31	57319.72
543.48	57254.18
543.64	57174.61
543.81	57326.74
543.98	57247.16
544.15	57230.78
544.32	57315.04
544.48	57586.54
544.65	57439.09
544.82	57298.65
544.99	57190.99
545.16	57626.33
545.32	57403.98
545.49	57542.07
545.66	57616.97
545.83	57324.40
546.00	57771.44
546.16	57513.98
546.33	57315.04
546.50	57436.75
546.67	57703.57
546.83	57326.74
547.00	57572.50
547.17	57289.29
547.34	57815.91
547.50	57991.45
547.67	57958.69
547.84	57923.58
548.00	57860.38
548.17	58340.19
548.34	58082.73
548.51	58391.68
548.67	58145.93
548.84	58035.92
549.01	58255.93
549.18	58269.98
549.34	58087.42
549.51	58178.70
549.68	58445.52
549.84	58412.75
550.01	58340.19
550.18	58143.59
550.34	58485.31
550.51	58330.83
550.68	58401.05
550.84	58258.27
551.01	58394.03
551.18	58375.30
551.34	58401.05
551.51	58656.17
551.68	58667.87
551.84	58695.95
552.01	58220.83
552.18	58520.41
552.34	58466.58
552.51	58504.03
552.68	58312.11
552.84	58602.33
553.01	58993.20
553.18	58845.75
553.34	58869.15
553.51	58850.43
553.67	58766.17
553.84	58934.69
554.01	58810.64
554.17	58922.99
554.34	59040.01
554.51	59058.74
554.67	59299.81
554.84	59035.33
555.00	59016.61
555.17	58864.47
555.33	58927.67
555.50	58857.45
555.67	59025.97
555.83	59009.59
556.00	59271.73
556.16	59374.71
556.33	59260.02
556.50	59224.92
556.66	59351.30
556.83	59138.32
556.99	59437.90
557.16	59412.16
557.32	59257.68
557.49	59681.32
557.65	59224.92
557.82	59283.43
557.98	59374.71
558.15	59430.88
558.32	59353.65
558.48	59451.95
558.65	59465.99
558.81	59451.95
558.98	59428.54
559.14	59536.21
559.31	59735.15
559.47	59524.50
559.64	59566.63
559.80	59695.36
559.97	59697.70
560.13	59653.23
560.30	59519.82
560.46	59608.76
560.63	59781.96
560.79	59767.92
560.96	59653.23
561.12	59765.58
561.29	59746.86
561.45	59856.86
561.61	59786.64
561.78	59800.69
561.94	59842.82
562.11	59866.22
562.27	59753.88
562.44	60060.49
562.60	60207.94
562.77	59971.55
562.93	59723.45
563.10	59838.14
563.26	59948.14
563.42	60224.32
563.59	60048.78
563.75	60041.76
563.92	60104.96
564.08	59880.27
564.24	60238.37
564.41	60198.58
564.57	60048.78
564.74	59964.52
564.90	60086.23
565.07	60214.96
565.23	60231.35
565.39	60023.04
565.56	60317.95
565.72	59994.95
565.88	60013.68
566.05	60102.62
566.21	60041.76
566.38	60254.75
566.54	60221.98
566.70	60343.69
566.87	60434.97
567.03	60011.34
567.19	60453.70
567.36	60282.84
567.52	60184.54
567.68	60474.76
567.85	60472.42
568.01	60324.97
568.17	60369.44
568.34	60437.31
568.50	60313.26
568.66	60170.49
568.83	60271.14
568.99	60327.31
569.15	60413.91
569.32	60254.75
569.48	60437.31
569.64	60292.20
569.81	60636.26
569.97	60130.70
570.13	60268.79
570.30	60341.35
570.46	60458.38
570.62	60472.42
570.78	60467.74
570.95	60423.27
571.11	60708.82
571.27	60542.64
571.43	60385.82
571.60	60638.60
571.76	60308.58
571.92	60528.59
572.09	60484.12
572.25	60591.79
572.41	60427.95
572.57	60453.70
572.74	60736.90
572.90	60238.37
573.06	60596.47
573.22	60596.47
573.38	60640.94
573.55	60575.40
573.71	60867.97
573.87	60622.22
574.03	60369.44
574.20	60669.03
574.36	60500.51
574.52	60755.63
574.68	60610.51
574.84	60842.23
575.01	60718.18
575.17	60711.16
575.33	60779.03
575.49	60540.30
575.65	60903.08
575.82	60615.19
575.98	60767.33
576.14	60921.80
576.30	60713.50
576.46	60697.11
576.62	60633.92
576.79	60755.63
576.95	60563.70
577.11	60797.76
577.27	60669.03
577.43	60994.36
577.59	60748.60
577.75	60669.03
577.92	60631.58
578.08	60662.00
578.24	60825.84
578.40	60989.68
578.56	60809.46
578.72	60753.29
578.88	61020.11
579.04	60903.08
579.21	60919.46
579.37	61073.94
579.53	61013.08
579.69	60743.92
579.85	60715.84
580.01	60739.24
580.17	60683.07
580.33	60741.58
580.49	60886.70
580.65	60961.59
580.82	60891.38
580.98	60626.90
581.14	60800.10
581.30	60977.98
581.46	60863.29
581.62	60865.63
581.78	60451.36
581.94	61048.19
582.10	60877.33
582.26	60678.39
582.42	60973.30
582.58	60748.60
582.74	60856.27
582.90	61050.53
583.06	60893.72
583.22	60825.84
583.38	61064.58
583.54	60966.27
583.70	61172.24
583.86	60926.49
584.02	60846.91
584.18	61263.52
584.34	61034.15
584.50	60903.08
584.66	60926.49
584.82	60809.46
584.98	61090.32
585.14	60933.51
585.30	60814.14
585.46	61095.00
585.62	61069.26
585.78	60921.80
585.94	60772.01
586.10	61066.92
586.26	61144.16
586.42	60975.64
586.58	61078.62
586.74	61247.14
586.90	61162.88
587.06	60973.30
587.22	61282.25
587.38	60989.68
587.54	61422.68
587.70	61172.24
587.86	61073.94
588.02	60882.02
588.18	61214.37
588.34	60837.54
588.49	60980.32
