SpectraSuite Data File
++++++++++++++++++++++++++++++++++++
Date: Fri Oct 25 11:22:39 EDT 2013
User: price-jones
Dark Spectrum Present: No
Reference Spectrum Present: No
Number of Sampled Component Spectra: 1
Spectrometers: USB2+H05261
Integration Time (usec): 100000 (USB2+H05261)
Spectra Averaged: 1 (USB2+H05261)
Boxcar Smoothing: 0 (USB2+H05261)
Correct for Electrical Dark: No (USB2+H05261)
Strobe/Lamp Enabled: No (USB2+H05261)
Correct for Detector Non-linearity: No (USB2+H05261)
Correct for Stray Light: No (USB2+H05261)
Number of Pixels in Processed Spectrum: 2048
>>>>>Begin Processed Spectral Data<<<<<
365.73	227.03
365.92	227.03
366.12	227.03
366.32	126.39
366.52	72.56
366.72	126.39
366.91	119.37
367.11	138.09
367.31	91.28
367.51	124.05
367.70	159.16
367.90	180.22
368.10	110.01
368.30	138.09
368.49	102.98
368.69	124.05
368.89	161.50
369.09	140.43
369.28	159.16
369.48	194.26
369.68	175.54
369.87	149.79
370.07	229.37
370.27	280.86
370.47	259.80
370.66	620.24
370.86	594.50
371.06	685.78
371.25	650.67
371.45	641.31
371.65	638.97
371.84	648.33
372.04	627.26
372.24	587.47
372.44	802.80
372.63	720.88
372.83	760.67
373.03	788.76
373.22	699.82
373.42	699.82
373.62	793.44
373.81	821.53
374.01	833.23
374.21	751.31
374.40	772.38
374.60	805.14
374.79	873.02
374.99	866.00
375.19	772.38
375.38	816.85
375.58	891.74
375.78	809.83
375.97	814.51
376.17	858.98
376.37	856.64
376.56	889.40
376.76	875.36
376.95	884.72
377.15	952.60
377.35	896.43
377.54	875.36
377.74	828.55
377.93	973.66
378.13	947.92
378.33	961.96
378.52	901.11
378.72	957.28
378.91	1015.79
379.11	957.28
379.31	1006.43
379.50	866.00
379.70	1027.50
379.89	952.60
380.09	983.02
380.28	929.19
380.48	954.94
380.68	966.64
380.87	950.26
381.07	1018.13
381.26	1050.90
381.46	1043.88
381.65	990.05
381.85	1001.75
382.04	1004.09
382.24	1022.81
382.43	1011.11
382.63	1029.84
382.83	1027.50
383.02	1118.78
383.22	1130.48
383.41	1062.60
383.61	1025.15
383.80	1064.94
384.00	1139.84
384.19	1090.69
384.39	1043.88
384.58	1071.97
384.78	1163.25
384.97	1212.40
385.17	1160.91
385.36	1130.48
385.56	1191.33
385.75	1191.33
385.95	1198.35
386.14	1289.64
386.34	1170.27
386.53	1235.80
386.72	1252.19
386.92	1184.31
387.11	1163.25
387.31	1214.74
387.50	1256.87
387.70	1303.68
387.89	1256.87
388.09	1270.91
388.28	1266.23
388.48	1322.40
388.67	1224.10
388.86	1355.17
389.06	1390.28
389.25	1303.68
389.45	1378.58
389.64	1284.95
389.84	1373.89
390.03	1324.74
390.22	1423.05
390.42	1390.28
390.61	1404.32
390.81	1343.47
391.00	1383.26
391.19	1439.43
391.39	1472.20
391.58	1434.75
391.78	1465.18
391.97	1465.18
392.16	1416.02
392.36	1593.90
392.55	1519.01
392.75	1460.49
392.94	1434.75
393.13	1458.15
393.33	1568.16
393.52	1488.58
393.71	1598.59
393.91	1565.82
394.10	1610.29
394.29	1600.93
394.49	1624.33
394.68	1624.33
394.88	1638.38
395.07	1671.14
395.26	1563.48
395.46	1673.48
395.65	1781.15
395.84	1703.91
396.04	1734.34
396.23	1729.66
396.42	1795.19
396.62	1863.07
396.81	1860.73
397.00	1804.55
397.19	1802.21
397.39	1785.83
397.58	1778.81
397.77	1909.88
397.97	1898.17
398.16	1867.75
398.35	1921.58
398.55	1856.04
398.74	1926.26
398.93	1944.99
399.12	1930.94
399.32	1886.47
399.51	2005.84
399.70	1923.92
399.90	1968.39
400.09	2010.52
400.28	2038.61
400.47	2010.52
400.67	2157.97
400.86	1984.77
401.05	2064.35
401.24	2076.06
401.44	2169.68
401.63	2176.70
401.82	2188.40
402.01	2033.93
402.21	2235.21
402.40	2040.95
402.59	2134.57
402.78	2249.25
402.97	2258.62
403.17	2340.54
403.36	2317.13
403.55	2267.98
403.74	2354.58
403.93	2385.01
404.13	2389.69
404.32	2279.68
404.51	2300.75
404.70	2448.20
404.89	2471.61
405.09	2495.01
405.28	2417.77
405.47	2480.97
405.66	2602.68
405.85	2569.91
406.05	2626.08
406.24	2628.42
406.43	2511.39
406.62	2562.89
406.81	2771.19
407.00	2616.72
407.20	2532.46
407.39	2663.53
407.58	2803.96
407.77	2658.85
407.96	2808.64
408.15	2813.32
408.34	2836.73
408.54	2700.98
408.73	2883.54
408.92	2731.41
409.11	2885.88
409.30	2998.23
409.49	2967.80
409.68	2869.50
409.87	3007.59
410.07	3089.51
410.26	3002.91
410.45	3141.00
410.64	3026.31
410.83	3103.55
411.02	3166.74
411.21	3159.72
411.40	3201.85
411.59	3169.09
411.78	3119.93
411.98	3262.71
412.17	3281.43
412.36	3361.01
412.55	3363.35
412.74	3456.97
412.93	3459.31
413.12	3442.93
413.31	3534.21
413.50	3506.12
413.69	3475.70
413.88	3588.04
414.07	3609.11
414.26	3658.26
414.45	3681.66
414.64	3723.79
414.83	3742.52
415.02	3824.44
415.22	3880.61
415.41	3985.93
415.60	3880.61
415.79	3992.95
415.98	4053.81
416.17	3997.64
416.36	3887.63
416.55	4014.02
416.74	4060.83
416.93	4028.06
417.12	4250.41
417.31	4210.62
417.50	4205.94
417.69	4341.69
417.88	4402.55
418.07	4241.05
418.26	4301.90
418.45	4414.25
418.64	4430.63
418.83	4409.57
419.02	4437.66
419.21	4489.15
419.39	4580.43
419.58	4601.49
419.77	4421.27
419.96	4762.99
420.15	4713.84
420.34	4629.58
420.53	4650.64
420.72	4652.98
420.91	4683.41
421.10	4844.91
421.29	4770.01
421.48	4777.03
421.67	4765.33
421.86	4833.21
422.05	4809.80
422.24	4840.23
422.43	4835.55
422.61	4992.36
422.80	4987.68
422.99	4952.57
423.18	4961.94
423.37	4931.51
423.56	5069.60
423.75	4908.10
423.94	4952.57
424.13	4669.37
424.32	4788.74
424.50	5041.51
424.69	5142.16
424.88	4912.78
425.07	4975.98
425.26	4943.21
425.45	5067.26
425.64	4957.25
425.83	5011.09
426.01	4992.36
426.20	4987.68
426.39	5104.71
426.58	5027.47
426.77	5167.90
426.96	5282.59
427.15	5144.50
427.33	5313.02
427.52	5130.45
427.71	5336.42
427.90	5233.44
428.09	5320.04
428.28	5284.93
428.46	5203.01
428.65	5420.68
428.84	5638.35
429.03	5596.22
429.22	5350.46
429.40	5465.15
429.59	5537.71
429.78	5296.63
429.97	5390.25
430.16	5568.13
430.34	5563.45
430.53	5619.63
430.72	5654.73
430.91	5937.94
431.10	5701.54
431.28	5675.80
431.47	5865.38
431.66	5874.74
431.85	5806.87
432.03	5951.98
432.22	6101.78
432.41	5963.68
432.60	5849.00
432.79	6031.56
432.97	5980.07
433.16	6078.37
433.35	6099.44
433.54	6038.58
433.72	6132.20
433.91	6134.54
434.10	6209.44
434.28	6134.54
434.47	6200.08
434.66	6319.45
434.85	6298.38
435.03	6340.51
435.22	6293.70
435.41	6534.78
435.59	6513.71
435.78	6427.11
435.97	6534.78
436.16	6368.60
436.34	6277.32
436.53	6586.27
436.72	6768.83
436.90	6457.54
437.09	6684.57
437.28	6586.27
437.46	6743.08
437.65	6752.45
437.84	6822.66
438.02	6677.55
438.21	6796.92
438.40	6757.13
438.58	6953.73
438.77	6951.39
438.96	6960.75
439.14	7119.91
439.33	7094.16
439.52	7201.83
439.70	7318.86
439.89	7522.48
440.08	7463.97
440.26	7419.50
440.45	7466.31
440.63	7616.10
440.82	7728.45
441.01	7550.57
441.19	7875.90
441.38	7775.26
441.57	7723.77
441.75	7920.37
441.94	8119.32
442.12	8142.72
442.31	7925.05
442.50	8095.91
442.68	7934.42
442.87	7964.84
443.05	8065.49
443.24	8248.05
443.43	8191.88
443.61	8163.79
443.80	8493.80
443.98	8217.62
444.17	7974.21
444.35	8184.85
444.54	8273.79
444.73	8489.12
444.91	8243.37
445.10	8449.33
445.28	8297.20
445.47	8248.05
445.65	8339.33
445.84	8425.93
446.02	8571.04
446.21	8435.29
446.39	8484.44
446.58	8592.11
446.77	8704.45
446.95	8187.19
447.14	8475.08
447.32	8603.81
447.51	8641.26
447.69	8681.05
447.88	8753.60
448.06	8659.98
448.25	8582.74
448.43	8800.41
448.62	8629.56
448.80	8615.51
448.99	8767.65
449.17	8875.31
449.36	8812.12
449.54	9151.49
449.73	9104.68
449.91	9015.74
450.10	8812.12
450.28	9177.24
450.46	8997.02
450.65	9179.58
450.83	9294.27
451.02	9247.46
451.20	9263.84
451.39	9200.65
451.57	9207.67
451.76	9195.96
451.94	9341.08
452.13	9547.05
452.31	9540.02
452.49	9046.17
452.68	9453.42
452.86	9369.16
453.05	9614.92
453.23	9369.16
453.42	9413.63
453.60	9270.86
453.78	9671.09
453.97	9659.39
454.15	9591.52
454.34	9617.26
454.52	9778.76
454.70	9685.14
454.89	9893.44
455.07	9823.23
455.26	9795.14
455.44	10010.47
455.62	10054.94
455.81	9980.04
455.99	10303.04
456.17	10190.69
456.36	10244.52
456.54	10300.70
456.73	10279.63
456.91	10630.71
457.09	10431.77
457.28	10555.82
457.46	10359.21
457.64	10677.52
457.83	10827.32
458.01	10434.11
458.19	11028.60
458.38	10743.06
458.56	10761.78
458.74	10754.76
458.93	10729.02
459.11	10677.52
459.29	10658.80
459.48	11035.63
459.66	10885.83
459.84	10934.98
460.03	11412.45
460.21	11164.36
460.39	11080.10
460.57	11119.89
460.76	11227.55
460.94	11351.60
461.12	11314.15
461.31	11187.76
461.49	11300.11
461.67	11337.56
461.85	11456.92
462.04	11342.24
462.22	11908.65
462.40	11705.02
462.59	11641.82
462.77	11637.14
462.95	11517.78
463.13	11660.55
463.32	11723.74
463.50	11882.90
463.68	12098.23
463.86	11854.81
464.05	11740.13
464.23	11665.23
464.41	12095.89
464.59	11597.35
464.78	12149.72
464.96	12107.59
465.14	11829.07
465.32	12243.34
465.50	12180.15
465.69	12564.00
465.87	12236.32
466.05	12208.23
466.23	12376.75
466.41	12489.10
466.60	12674.00
466.78	12343.99
466.96	12388.46
467.14	12325.26
467.32	12470.37
467.51	12631.87
467.69	12325.26
467.87	12458.67
468.05	12802.73
468.23	12489.10
468.41	12629.53
468.60	12608.47
468.78	12975.93
468.96	12606.13
469.14	12828.48
469.32	12929.12
469.50	12744.22
469.69	13160.83
469.87	13149.13
470.05	13280.20
470.23	13308.29
470.41	13125.72
470.59	13516.59
470.77	13331.69
470.95	13401.91
471.14	13640.64
471.32	13247.43
471.50	13713.20
471.68	14003.43
471.86	13928.53
472.04	13912.14
472.22	14040.87
472.40	14108.75
472.58	13947.25
472.77	14066.62
472.95	14270.25
473.13	14862.40
473.31	14373.23
473.49	14295.99
473.67	14153.22
473.85	14169.60
474.03	14614.30
474.21	14822.61
474.39	14782.82
474.57	14626.01
474.75	15110.50
474.93	14916.23
475.12	14857.72
475.30	15487.32
475.48	14984.11
475.66	15590.31
475.84	15335.19
476.02	15768.19
476.20	15618.39
476.38	16051.39
476.56	15988.20
476.74	16093.52
476.92	16121.61
477.10	15908.62
477.28	16542.91
477.46	16187.14
477.64	16472.69
477.82	16819.09
478.00	17011.01
478.18	16926.75
478.36	17195.92
478.54	17392.52
478.72	17429.97
478.90	17245.07
479.08	17951.91
479.26	17884.03
479.44	17745.94
479.62	18078.30
479.80	18045.53
479.98	18338.10
480.16	18827.27
480.34	18312.35
480.52	18633.00
480.70	18958.34
480.88	18572.15
481.06	18834.29
481.24	19185.37
481.41	19171.33
481.59	19573.90
481.77	19601.99
481.95	19576.24
482.13	19852.42
482.31	19868.81
482.49	20245.63
482.67	20435.22
482.85	20596.71
483.03	20863.54
483.21	20826.09
483.39	21139.72
483.57	21076.52
483.74	21193.55
483.92	21851.24
484.10	21413.56
484.28	21972.95
484.46	21867.63
484.64	22717.24
484.82	21979.97
485.00	22686.81
485.18	23014.49
485.35	23204.07
485.53	23246.20
485.71	23108.11
485.89	23873.46
486.07	23550.47
486.25	23311.74
486.43	24011.56
486.61	24168.37
486.78	24587.33
486.96	24388.38
487.14	24879.89
487.32	24702.01
487.50	25177.14
487.68	25315.23
487.85	25434.60
488.03	25659.29
488.21	26080.59
488.39	26260.81
488.57	26242.09
488.75	26548.70
488.92	26817.86
489.10	27168.94
489.28	27028.51
489.46	27421.72
489.64	27187.66
489.81	27721.30
489.99	28168.35
490.17	28194.09
490.35	28339.21
490.53	28453.89
490.70	28493.68
490.88	28802.63
491.06	29184.14
491.24	29448.62
491.41	29429.90
491.59	29495.43
491.77	29544.58
491.95	29858.21
492.13	30244.40
492.30	30277.17
492.48	30288.87
492.66	30480.80
492.84	30609.53
493.01	30946.56
493.19	31028.48
493.37	31138.49
493.54	31697.88
493.72	31800.86
493.90	31676.81
494.08	32102.79
494.25	32034.91
494.43	32297.05
494.61	32680.90
494.79	32755.80
494.96	32938.36
495.14	32563.87
495.32	33186.46
495.49	33804.36
495.67	33600.73
495.85	33596.05
496.02	33820.74
496.20	34506.52
496.38	34639.93
496.55	34099.26
496.73	35241.45
496.91	34895.05
497.09	35276.55
497.26	35358.47
497.44	35019.10
497.62	35175.91
497.79	36102.76
497.97	35639.34
498.14	36287.67
498.32	36772.16
498.50	36229.15
498.67	36573.21
498.85	36943.02
499.03	36552.15
499.20	37310.48
499.38	37345.59
499.56	37378.36
499.73	37507.08
499.91	38078.18
500.08	37895.61
500.26	37486.02
500.44	38281.80
500.61	38022.00
500.79	38192.86
500.97	38712.46
501.14	39086.95
501.32	38808.42
501.49	38986.30
501.67	38653.95
501.84	39330.36
502.02	39360.79
502.20	39021.41
502.37	39559.73
502.55	39892.09
502.72	39688.46
502.90	39758.68
503.07	40222.11
503.25	40299.34
503.43	40039.54
503.60	40467.86
503.78	41160.66
503.95	40748.73
504.13	41322.16
504.30	40524.04
504.48	41001.50
504.65	40957.03
504.83	41273.01
505.01	41799.63
505.18	41373.65
505.36	41961.12
505.53	41633.45
505.71	42005.59
505.88	42293.48
506.06	41790.27
506.23	42094.53
506.41	41816.01
506.58	42454.98
506.76	42813.08
506.93	42941.81
507.11	42738.18
507.28	42646.90
507.46	43206.29
507.63	43358.42
507.81	43351.40
507.98	43519.92
508.16	43339.70
508.33	43988.03
508.50	43889.73
508.68	43922.49
508.85	44238.47
509.03	44470.18
509.20	44119.10
509.38	44816.58
509.55	44832.96
509.73	44926.58
509.90	44769.77
510.08	44793.17
510.25	44854.03
510.42	45090.42
510.60	45380.65
510.77	45607.68
510.95	45698.96
511.12	45584.27
511.30	45455.54
511.47	45654.49
511.64	45659.17
511.82	46358.99
511.99	46066.42
512.17	46218.56
512.34	46438.57
512.51	46777.95
512.69	46808.37
512.86	46581.34
513.04	46834.12
513.21	47187.54
513.38	46667.94
513.56	47562.03
513.73	47267.12
513.90	47533.94
514.08	47250.74
514.25	47873.32
514.43	47730.54
514.60	47922.47
514.77	47833.53
514.95	48299.30
515.12	47988.00
515.29	48016.09
515.47	47800.76
515.64	48659.74
515.81	48198.65
515.99	48390.58
516.16	48933.58
516.33	48832.94
516.51	48949.96
516.68	48732.29
516.85	48823.58
517.03	49160.61
517.20	49057.63
517.37	49296.36
517.54	49694.25
517.72	49499.99
517.89	49375.94
518.06	49923.63
518.24	49717.66
518.41	49502.33
518.58	49329.13
518.75	49450.84
518.93	50078.10
519.10	49841.71
519.27	50012.57
519.45	49951.71
519.62	50145.98
519.79	50270.03
519.96	50314.50
520.14	50373.01
520.31	50497.06
520.48	50490.04
520.65	50656.21
520.83	51002.61
521.00	51051.76
521.17	50759.20
521.34	51072.83
521.52	50904.31
521.69	51470.72
521.86	51306.88
522.03	51414.55
522.20	51515.19
522.38	51664.99
522.55	51690.73
522.72	51957.55
522.89	51660.30
523.07	51786.69
523.24	51969.26
523.41	52236.08
523.58	51793.71
523.75	52229.05
523.92	52149.48
524.10	52516.94
524.27	52435.02
524.44	52280.55
524.61	52542.69
524.78	52617.58
524.96	52694.82
525.13	52748.65
525.30	52781.42
525.47	52975.69
525.64	52713.55
525.81	52839.93
525.98	52760.36
526.16	52849.30
526.33	53111.44
526.50	53200.38
526.67	53041.22
526.84	53324.43
527.01	53303.36
527.18	52900.79
527.36	53249.53
527.53	53404.00
527.70	53612.31
527.87	53647.42
528.04	53378.26
528.21	53404.00
528.38	53570.18
528.55	53673.16
528.72	53652.10
528.89	53888.49
529.07	53633.38
529.24	53689.55
529.41	53839.34
529.58	54035.95
529.75	53965.73
529.92	53939.99
530.09	54298.09
530.26	54206.81
530.43	54405.75
530.60	54007.86
530.77	54253.62
530.94	54490.01
531.11	54340.22
531.28	54569.59
531.46	54248.94
531.63	54614.06
531.80	54464.27
531.97	54810.67
532.14	54611.72
532.31	54876.20
532.48	55051.74
532.65	54906.63
532.82	54710.02
532.99	55035.36
533.16	54848.11
533.33	55004.93
533.50	55192.17
533.67	55152.38
533.84	54827.05
534.01	55227.28
534.18	55248.35
534.35	55611.13
534.52	55103.23
534.69	55592.40
534.86	55627.51
535.03	55444.95
535.20	55339.63
535.37	55533.89
535.54	55625.17
535.71	55540.91
535.88	55702.41
536.05	55833.48
536.22	56086.26
536.38	55695.39
536.55	55749.22
536.72	55821.78
536.89	55868.59
537.06	56065.19
537.23	56053.49
537.40	55873.27
537.57	55964.55
537.74	55962.21
537.91	56280.52
538.08	56292.22
538.25	55983.27
538.42	56048.81
538.59	56479.47
538.75	56184.56
538.92	56205.62
539.09	56582.45
539.26	56322.65
539.43	56589.47
539.60	56404.57
539.77	56388.19
539.94	56413.93
540.11	56484.15
540.28	56870.34
540.44	56741.61
540.61	56725.22
540.78	56498.19
540.95	56757.99
541.12	56748.63
541.29	56573.09
541.46	56893.74
541.62	56797.78
541.79	57092.69
541.96	56664.37
542.13	56886.72
542.30	57146.52
542.47	57048.22
542.63	57083.33
542.80	57261.21
542.97	57296.31
543.14	57446.11
543.31	57272.91
543.48	57162.90
543.64	57680.16
543.81	57666.12
543.98	57513.98
544.15	57504.62
544.32	57673.14
544.48	57780.81
544.65	57506.96
544.82	57567.82
544.99	57612.29
545.16	57567.82
545.32	57811.23
545.49	57883.79
545.66	58134.23
545.83	57783.15
546.00	58061.67
546.16	57750.38
546.33	57944.64
546.50	57666.12
546.67	57932.94
546.83	57811.23
547.00	58237.21
547.17	57932.94
547.34	58176.36
547.50	58096.78
547.67	58092.10
547.84	58223.17
548.00	58391.68
548.17	58396.37
548.34	58391.68
548.51	58492.33
548.67	58464.24
548.84	58410.41
549.01	58333.17
549.18	58349.56
549.34	58501.69
549.51	58567.23
549.68	58672.55
549.84	58656.17
550.01	58581.27
550.18	58300.40
550.34	58890.22
550.51	58894.90
550.68	58639.78
550.84	58244.23
551.01	58754.47
551.18	58735.74
551.34	58543.82
551.51	58628.08
551.68	58721.70
551.84	58801.28
552.01	58653.82
552.18	58997.88
552.34	58763.83
552.51	58908.94
552.68	58798.94
552.84	59091.51
553.01	59016.61
553.18	59290.45
553.34	59171.08
553.51	58876.18
553.67	59056.40
553.84	59082.14
554.01	59215.55
554.17	59098.53
554.34	59164.06
554.51	59161.72
554.67	59199.17
554.84	59327.90
555.00	59276.41
555.17	59264.70
555.33	59302.15
555.50	59164.06
555.67	59145.34
555.83	59227.26
556.00	59365.35
556.16	59716.43
556.33	59587.70
556.50	59461.31
556.66	59510.46
556.83	59107.89
556.99	59657.91
557.16	59700.04
557.32	59615.79
557.49	59728.13
557.65	59690.68
557.82	59505.78
557.98	59721.11
558.15	59662.60
558.32	59856.86
558.48	59580.68
558.65	59758.56
558.81	59786.64
558.98	59765.58
559.14	59941.12
559.31	59828.77
559.47	60226.66
559.64	59870.90
559.80	60039.42
559.97	60039.42
560.13	59737.49
560.30	60060.49
560.46	60081.55
560.63	60116.66
560.79	60060.49
560.96	60245.39
561.12	60111.98
561.29	60079.21
561.45	60088.57
561.61	59997.29
561.78	60018.36
561.94	59997.29
562.11	60034.74
562.27	60184.54
562.44	60095.60
562.60	60240.71
562.77	60240.71
562.93	60149.43
563.10	60090.91
563.26	60111.98
563.42	60409.23
563.59	60151.77
563.75	60186.88
563.92	60413.91
564.08	60154.11
564.24	60364.76
564.41	60168.15
564.57	60371.78
564.74	60402.21
564.90	60385.82
565.07	60341.35
565.23	60399.86
565.39	60381.14
565.56	60521.57
565.72	60161.13
565.88	60430.29
566.05	60306.24
566.21	60573.06
566.38	60472.42
566.54	60505.19
566.70	60645.62
566.87	60748.60
567.03	60512.21
567.19	60664.35
567.36	60734.56
567.52	60411.57
567.68	60624.56
567.85	60568.38
568.01	60764.99
568.17	60521.57
568.34	60619.88
568.50	60444.33
568.66	60406.89
568.83	60516.89
568.99	60624.56
569.15	60662.00
569.32	60537.96
569.48	60683.07
569.64	60645.62
569.81	60767.33
569.97	60612.85
570.13	60432.63
570.30	60650.30
570.46	60671.37
570.62	60788.39
570.78	60715.84
570.95	60760.31
571.11	60706.47
571.27	60856.27
571.43	60828.18
571.60	60917.12
571.76	60722.86
571.92	60863.29
572.09	60804.78
572.25	60748.60
572.41	60781.37
572.57	60699.45
572.74	61029.47
572.90	60837.54
573.06	60708.82
573.22	60870.31
573.38	60844.57
573.55	60762.65
573.71	61069.26
573.87	60853.93
574.03	60781.37
574.20	60893.72
574.36	60849.25
574.52	60893.72
574.68	60914.78
574.84	60961.59
575.01	61057.56
575.17	60865.63
575.33	60882.02
575.49	61043.51
575.65	61038.83
575.82	60947.55
575.98	60945.21
576.14	61193.31
576.30	61158.20
576.46	60989.68
576.62	60903.08
576.79	60917.12
576.95	60903.08
577.11	61066.92
577.27	60837.54
577.43	61034.15
577.59	60736.90
577.75	61017.77
577.92	60959.25
578.08	60982.66
578.24	61172.24
578.40	61219.05
578.56	61083.30
578.72	61092.66
578.88	61319.70
579.04	61375.87
579.21	61214.37
579.37	61254.16
579.53	61268.20
579.69	60830.52
579.85	61123.09
580.01	60919.46
580.17	61045.85
580.33	61127.77
580.49	61254.16
580.65	61181.60
580.82	60877.33
580.98	61167.56
581.14	61024.79
581.30	61022.45
581.46	60879.67
581.62	60989.68
581.78	60977.98
581.94	61263.52
582.10	61181.60
582.26	61352.46
582.42	61062.24
582.58	61160.54
582.74	61216.71
582.90	61095.00
583.06	60973.30
583.22	61113.73
583.38	61340.76
583.54	61296.29
583.70	61291.61
583.86	61010.74
584.02	60851.59
584.18	61242.46
584.34	61457.79
584.50	61095.00
584.66	61282.25
584.82	60980.32
584.98	61120.75
585.14	61226.07
585.30	61097.34
585.46	61207.35
585.62	61303.31
585.78	61415.66
585.94	60992.02
586.10	61193.31
586.26	61277.57
586.42	61310.33
586.58	61406.30
586.74	61305.65
586.90	61155.86
587.06	61137.13
587.22	61567.79
587.38	61336.08
587.54	61520.98
587.70	61453.11
587.86	61319.70
588.02	61235.44
588.18	61343.10
588.34	61293.95
