SpectraSuite Data File
++++++++++++++++++++++++++++++++++++
Date: Fri Oct 25 11:33:08 EDT 2013
User: price-jones
Dark Spectrum Present: No
Reference Spectrum Present: No
Number of Sampled Component Spectra: 1
Spectrometers: USB2+H05261
Integration Time (usec): 100000 (USB2+H05261)
Spectra Averaged: 1 (USB2+H05261)
Boxcar Smoothing: 0 (USB2+H05261)
Correct for Electrical Dark: No (USB2+H05261)
Strobe/Lamp Enabled: No (USB2+H05261)
Correct for Detector Non-linearity: No (USB2+H05261)
Correct for Stray Light: No (USB2+H05261)
Number of Pixels in Processed Spectrum: 2048
>>>>>Begin Processed Spectral Data<<<<<
365.73	238.73
365.92	238.73
366.12	238.73
366.32	203.63
366.52	163.84
366.72	222.35
366.91	145.11
367.11	217.67
367.31	215.33
367.51	124.05
367.70	175.54
367.90	107.66
368.10	177.88
368.30	238.73
368.49	161.50
368.69	245.76
368.89	236.39
369.09	170.86
369.28	215.33
369.48	191.92
369.68	215.33
369.87	191.92
370.07	238.73
370.27	241.08
370.47	332.36
370.66	376.83
370.86	564.07
371.06	533.64
371.25	578.11
371.45	568.75
371.65	479.81
371.84	524.28
372.04	500.87
372.24	629.60
372.44	613.22
372.63	615.56
372.83	620.24
373.03	601.52
373.22	589.82
373.42	596.84
373.62	657.69
373.81	629.60
374.01	699.82
374.21	650.67
374.40	608.54
374.60	615.56
374.79	603.86
374.99	688.12
375.19	706.84
375.38	695.14
375.58	662.37
375.78	709.18
375.97	704.50
376.17	758.33
376.37	648.33
376.56	655.35
376.76	664.71
376.95	622.58
377.15	727.91
377.35	741.95
377.54	678.76
377.74	660.03
377.93	678.76
378.13	695.14
378.33	739.61
378.52	744.29
378.72	727.91
378.91	709.18
379.11	699.82
379.31	725.57
379.50	615.56
379.70	732.59
379.89	765.36
380.09	685.78
380.28	725.57
380.48	718.54
380.68	753.65
380.87	755.99
381.07	807.48
381.26	760.67
381.46	748.97
381.65	793.44
381.85	763.01
382.04	788.76
382.24	746.63
382.43	755.99
382.63	830.89
382.83	709.18
383.02	744.29
383.22	793.44
383.41	812.17
383.61	814.51
383.80	840.25
384.00	875.36
384.19	819.19
384.39	840.25
384.58	746.63
384.78	861.32
384.97	842.59
385.17	830.89
385.36	826.21
385.56	751.31
385.75	880.04
385.95	800.46
386.14	940.90
386.34	821.53
386.53	844.93
386.72	833.23
386.92	976.00
387.11	891.74
387.31	912.81
387.50	837.91
387.70	837.91
387.89	898.77
388.09	931.53
388.28	842.59
388.48	957.28
388.67	910.47
388.86	896.43
389.06	894.08
389.25	931.53
389.45	952.60
389.64	929.19
389.84	964.30
390.03	968.98
390.22	987.71
390.42	987.71
390.61	877.70
390.81	877.70
391.00	1036.86
391.19	1036.86
391.39	1008.77
391.58	1036.86
391.78	990.05
391.97	1020.47
392.16	997.07
392.36	1137.50
392.55	1121.12
392.75	1128.14
392.94	1062.60
393.13	1020.47
393.33	976.00
393.52	1093.03
393.71	1156.22
393.91	1186.65
394.10	1086.01
394.29	1053.24
394.49	1139.84
394.68	1081.33
394.88	1132.82
395.07	1177.29
395.26	1128.14
395.46	1224.10
395.65	1224.10
395.84	1196.01
396.04	1196.01
396.23	1184.31
396.42	1245.16
396.62	1217.08
396.81	1247.51
397.00	1266.23
397.19	1280.27
397.39	1200.69
397.58	1310.70
397.77	1170.27
397.97	1273.25
398.16	1256.87
398.35	1259.21
398.55	1299.00
398.74	1301.34
398.93	1268.57
399.12	1322.40
399.32	1317.72
399.51	1336.45
399.70	1446.45
399.90	1373.89
400.09	1306.02
400.28	1451.13
400.47	1378.58
400.67	1467.52
400.86	1364.53
401.05	1523.69
401.24	1413.68
401.44	1437.09
401.63	1406.66
401.82	1502.62
402.01	1460.49
402.21	1497.94
402.40	1521.35
402.59	1448.79
402.78	1448.79
402.97	1483.90
403.17	1614.97
403.36	1523.69
403.55	1629.01
403.74	1598.59
403.93	1610.29
404.13	1643.06
404.32	1596.25
404.51	1598.59
404.70	1694.55
404.89	1593.90
405.09	1675.82
405.28	1682.85
405.47	1743.70
405.66	1694.55
405.85	1687.53
406.05	1685.19
406.24	1703.91
406.43	1680.50
406.62	1778.81
406.81	1797.53
407.00	1760.08
407.20	1818.60
407.39	1713.27
407.58	1891.15
407.77	1879.45
407.96	1935.62
408.15	1956.69
408.34	1963.71
408.54	1865.41
408.73	1923.92
408.92	1942.64
409.11	1926.26
409.30	1916.90
409.49	2026.90
409.68	1923.92
409.87	1977.75
410.07	2054.99
410.26	2092.44
410.45	2092.44
410.64	2097.12
410.83	2120.53
411.02	2134.57
411.21	2223.51
411.40	2303.09
411.59	2188.40
411.78	2207.13
411.98	2307.77
412.17	2307.77
412.36	2340.54
412.55	2347.56
412.74	2375.64
412.93	2338.20
413.12	2394.37
413.31	2356.92
413.50	2464.58
413.69	2555.86
413.88	2485.65
414.07	2480.97
414.26	2586.29
414.45	2480.97
414.64	2640.12
414.83	2654.17
415.02	2621.40
415.22	2693.96
415.41	2621.40
415.60	2696.30
415.79	2661.19
415.98	2696.30
416.17	2689.28
416.36	2719.70
416.55	2785.24
416.74	2827.37
416.93	2775.88
417.12	2881.20
417.31	2862.48
417.50	2899.92
417.69	3131.64
417.88	2949.08
418.07	2944.39
418.26	2944.39
418.45	2974.82
418.64	3208.87
418.83	3009.93
419.02	3021.63
419.21	2979.50
419.39	3122.27
419.58	3171.43
419.77	3110.57
419.96	3169.09
420.15	3152.70
420.34	3260.37
420.53	3138.66
420.72	3206.53
420.91	3206.53
421.10	3215.90
421.29	3346.97
421.48	3386.76
421.67	3361.01
421.86	3316.54
422.05	3255.69
422.24	3309.52
422.43	3368.03
422.61	3421.86
422.80	3480.38
422.99	3461.65
423.18	3384.41
423.37	3456.97
423.56	3454.63
423.75	3438.25
423.94	3372.71
424.13	3272.07
424.32	3239.30
424.50	3494.42
424.69	3588.04
424.88	3445.27
425.07	3449.95
425.26	3459.31
425.45	3471.01
425.64	3503.78
425.83	3569.32
426.01	3538.89
426.20	3583.36
426.39	3569.32
426.58	3529.53
426.77	3515.48
426.96	3548.25
427.15	3623.15
427.33	3625.49
427.52	3501.44
427.71	3559.95
427.90	3695.71
428.09	3630.17
428.28	3737.84
428.46	3688.68
428.65	3676.98
428.84	3866.56
429.03	3747.20
429.22	3719.11
429.40	3742.52
429.59	3847.84
429.78	3651.24
429.97	3581.02
430.16	3763.58
430.34	3929.76
430.53	3824.44
430.72	3962.53
430.91	4004.66
431.10	3983.59
431.28	3971.89
431.47	4117.00
431.66	4182.54
431.85	3983.59
432.03	3927.42
432.22	4182.54
432.41	4131.05
432.60	4098.28
432.79	4014.02
432.97	4058.49
433.16	4126.36
433.35	4170.83
433.54	4264.46
433.72	4311.27
433.91	4262.12
434.10	4234.03
434.28	4102.96
434.47	4252.75
434.66	4430.63
434.85	4311.27
435.03	4449.36
435.22	4386.16
435.41	4395.53
435.59	4425.95
435.78	4435.32
435.97	4456.38
436.16	4313.61
436.34	4315.95
436.53	4559.36
436.72	4510.21
436.90	4456.38
437.09	4571.07
437.28	4589.79
437.46	4594.47
437.65	4575.75
437.84	4650.64
438.02	4812.14
438.21	4692.77
438.40	4561.70
438.58	4840.23
438.77	4858.95
438.96	4777.03
439.14	4910.44
439.33	4830.87
439.52	4926.83
439.70	5039.17
439.89	4940.87
440.08	5060.24
440.26	5088.32
440.45	5029.81
440.63	5156.20
440.82	5238.12
441.01	5219.39
441.19	5376.21
441.38	5263.86
441.57	5305.99
441.75	5497.92
441.94	5380.89
442.12	5364.51
442.31	5483.88
442.50	5549.41
442.68	5420.68
442.87	5495.58
443.05	5408.98
443.24	5589.20
443.43	5614.95
443.61	5500.26
443.80	5692.18
443.98	5507.28
444.17	5366.85
444.35	5657.07
444.54	5591.54
444.73	5636.01
444.91	5799.85
445.10	5783.46
445.28	5645.37
445.47	5633.67
445.65	5612.60
445.84	5757.72
446.02	5877.09
446.21	5668.78
446.39	5692.18
446.58	5933.26
446.77	5905.17
446.95	5596.22
447.14	5797.51
447.32	5884.11
447.51	5933.26
447.69	5570.48
447.88	5841.98
448.06	5905.17
448.25	5806.87
448.43	5823.25
448.62	5921.56
448.80	5933.26
448.99	5975.39
449.17	6031.56
449.36	5961.34
449.54	6033.90
449.73	6071.35
449.91	6193.06
450.10	6237.53
450.28	6164.97
450.46	6232.85
450.65	6129.86
450.83	6235.19
451.02	6207.10
451.20	6263.27
451.39	6370.94
451.57	6183.70
451.76	6225.82
451.94	6333.49
452.13	6342.85
452.31	6441.15
452.49	6260.93
452.68	6424.77
452.86	6373.28
453.05	6523.07
453.23	6473.92
453.42	6221.14
453.60	6349.87
453.78	6487.96
453.97	6387.32
454.15	6555.84
454.34	6483.28
454.52	6672.87
454.70	6703.29
454.89	6602.65
455.07	6679.89
455.26	6719.68
455.44	6729.04
455.62	6642.44
455.81	6679.89
455.99	6836.70
456.17	6794.58
456.36	6693.93
456.54	6953.73
456.73	6906.92
456.91	7082.46
457.09	7122.25
457.28	7456.95
457.46	7110.55
457.64	7190.13
457.83	7073.10
458.01	7082.46
458.19	7143.32
458.38	7215.87
458.56	7335.24
458.74	7323.54
458.93	7138.63
459.11	7288.43
459.29	7393.75
459.48	7227.57
459.66	7365.67
459.84	7368.01
460.03	7562.27
460.21	7356.30
460.39	7421.84
460.57	7534.18
460.76	7452.27
460.94	7583.34
461.12	7386.73
461.31	7520.14
461.49	7653.55
461.67	7581.00
461.85	7655.89
462.04	7648.87
462.22	8166.13
462.40	8051.44
462.59	7812.71
462.77	7885.26
462.95	7779.94
463.13	7953.14
463.32	7981.23
463.50	7964.84
463.68	8004.63
463.86	8196.56
464.05	7999.95
464.23	7981.23
464.41	8063.15
464.59	7932.08
464.78	8271.45
464.96	7894.63
465.14	7772.92
465.32	8079.53
465.50	8163.79
465.69	8161.45
465.87	8126.34
466.05	8304.22
466.23	8154.43
466.41	8297.20
466.60	8393.16
466.78	8264.43
466.96	8133.36
467.14	8414.23
467.32	8418.91
467.51	8587.43
467.69	8243.37
467.87	8498.49
468.05	8510.19
468.23	8510.19
468.41	8482.10
468.60	8629.56
468.78	8545.30
468.96	8580.40
469.14	8610.83
469.32	8730.20
469.50	8643.60
469.69	8807.44
469.87	8727.86
470.05	8959.57
470.23	8704.45
470.41	9011.06
470.59	9011.06
470.77	8954.89
470.95	8901.06
471.14	9207.67
471.32	8959.57
471.50	9081.28
471.68	9142.13
471.86	9081.28
472.04	9280.22
472.22	9390.23
472.40	9200.65
472.58	9366.82
472.77	9404.27
472.95	9357.46
473.13	9825.57
473.31	9558.75
473.49	9511.94
473.67	9504.92
473.85	9462.79
474.03	9907.49
474.21	9888.76
474.39	9966.00
474.57	9870.04
474.75	9846.63
474.93	9996.43
475.12	10038.56
475.30	10253.89
475.48	10125.16
475.66	10064.30
475.84	10171.97
476.02	10387.30
476.20	10438.79
476.38	10396.66
476.56	10738.38
476.74	10729.02
476.92	10483.26
477.10	10494.96
477.28	10850.72
477.46	10815.62
477.64	11002.86
477.82	11197.12
478.00	11477.99
478.18	11262.66
478.36	11040.31
478.54	11398.41
478.72	11346.92
478.90	11613.74
479.08	11712.04
479.26	11716.72
479.44	11576.29
479.62	12035.03
479.80	12145.04
479.98	12063.12
480.16	12308.88
480.34	12262.07
480.52	12421.22
480.70	12318.24
480.88	12393.14
481.06	12475.06
481.24	12461.01
481.41	12678.68
481.59	12849.54
481.77	13123.38
481.95	13001.68
482.13	13067.21
482.31	13163.17
482.49	13394.89
482.67	13334.03
482.85	13715.54
483.03	13741.29
483.21	13862.99
483.39	13933.21
483.57	14040.87
483.74	14087.68
483.92	14200.03
484.10	14291.31
484.28	14485.58
484.46	14745.38
484.64	14815.59
484.82	14586.22
485.00	14771.12
485.18	15169.01
485.35	15173.69
485.53	15356.25
485.71	15321.15
485.89	15573.92
486.07	15435.83
486.25	15777.55
486.43	15843.09
486.61	15786.91
486.78	16226.93
486.96	16140.33
487.14	16058.42
487.32	16329.92
487.50	16411.84
487.68	16556.95
487.85	17090.59
488.03	16702.06
488.21	17539.97
488.39	16957.18
488.57	17324.65
488.75	17048.46
488.92	17554.02
489.10	17860.63
489.28	17869.99
489.46	17998.72
489.64	18008.08
489.81	18569.81
489.99	18305.33
490.17	18127.45
490.35	18747.69
490.53	18714.92
490.70	18946.64
490.88	18853.02
491.06	18766.42
491.24	19192.39
491.41	19136.22
491.59	19538.79
491.77	19637.09
491.95	19578.58
492.13	19988.18
492.30	19892.21
492.48	20168.40
492.66	19800.93
492.84	20257.34
493.01	20376.70
493.19	20669.27
493.37	20968.86
493.54	20589.69
493.72	20582.67
493.90	21053.12
494.08	20744.17
494.25	21156.10
494.43	21425.26
494.61	21394.84
494.79	21514.20
494.96	21109.29
495.14	21568.04
495.32	21827.84
495.49	21942.52
495.67	22167.21
495.85	22471.48
496.02	22307.65
496.20	22436.38
496.38	22415.31
496.55	22693.83
496.73	23068.32
496.91	22796.82
497.09	23077.68
497.26	23452.17
497.44	23548.13
497.62	23438.12
497.79	23562.17
497.97	23592.60
498.14	23608.98
498.32	24285.40
498.50	23800.91
498.67	24219.86
498.85	24261.99
499.03	24168.37
499.20	24582.65
499.38	24390.72
499.56	24762.87
499.73	24765.21
499.91	24790.95
500.08	25017.99
500.26	24779.25
500.44	25083.52
500.61	25010.96
500.79	25249.70
500.97	25205.23
501.14	25675.68
501.32	25692.06
501.49	25717.81
501.67	25649.93
501.84	25734.19
502.02	26260.81
502.20	26022.08
502.37	25881.64
502.55	25970.58
502.72	26164.85
502.90	26265.49
503.07	26249.11
503.25	26581.46
503.43	26270.17
503.60	26679.77
503.78	27016.80
503.95	26850.63
504.13	27047.23
504.30	26593.17
504.48	27161.92
504.65	27356.18
504.83	27290.65
505.01	27400.65
505.18	27620.66
505.36	27779.82
505.53	27491.93
505.71	27765.78
505.88	27800.88
506.06	27601.94
506.23	27903.87
506.41	27510.66
506.58	28191.75
506.76	28371.97
506.93	28437.51
507.11	27838.33
507.28	28168.35
507.46	28407.08
507.63	28718.37
507.81	28481.98
507.98	28418.78
508.16	28587.30
508.33	29078.82
508.50	29364.36
508.68	29064.77
508.85	29546.92
509.03	29486.07
509.20	29539.90
509.38	29759.91
509.55	29640.54
509.73	29546.92
509.90	29727.14
510.08	29937.79
510.25	29422.87
510.42	29975.24
510.60	30169.51
510.77	30485.48
510.95	30431.65
511.12	30384.83
511.30	30417.60
511.47	30834.22
511.64	30354.41
511.82	30733.57
511.99	30302.92
512.17	30991.03
512.34	30586.12
512.51	31257.85
512.69	31185.30
512.86	31012.10
513.04	31079.97
513.21	31197.00
513.38	31384.24
513.56	31585.53
513.73	31262.54
513.90	31496.59
514.08	31414.67
514.25	31538.72
514.43	32030.23
514.60	31985.76
514.77	32123.85
514.95	32519.40
515.12	31952.99
515.29	31894.48
515.47	32285.35
515.64	32044.27
515.81	32093.43
515.99	32629.41
516.16	32861.12
516.33	32428.12
516.51	33181.77
516.68	32980.49
516.85	33104.54
517.03	33163.05
517.20	33071.77
517.37	32957.08
517.54	33415.83
517.72	32975.81
517.89	33539.88
518.06	33748.18
518.24	33453.28
518.41	33439.23
518.58	33542.22
518.75	33574.98
518.93	33724.78
519.10	34078.20
519.27	33851.17
519.45	33839.47
519.62	33958.83
519.79	34174.16
519.96	34272.46
520.14	34288.85
520.31	33818.40
520.48	34340.34
520.65	34506.52
520.83	34803.77
521.00	34925.47
521.17	34607.16
521.34	34883.34
521.52	34691.42
521.69	34967.60
521.86	34813.13
522.03	35470.82
522.20	35166.55
522.38	35681.47
522.55	35695.51
522.72	35309.32
522.89	34998.03
523.07	35800.83
523.24	35805.52
523.41	35922.54
523.58	35880.41
523.75	35952.97
523.92	35833.60
524.10	35910.84
524.27	35693.17
524.44	36407.03
524.61	36397.67
524.78	36259.58
524.96	36847.05
525.13	36605.98
525.30	36273.62
525.47	36730.03
525.64	36144.89
525.81	36987.49
525.98	36458.52
526.16	36699.60
526.33	37083.45
526.50	37237.92
526.67	36713.64
526.84	37359.63
527.01	36907.91
527.18	36655.13
527.36	37216.86
527.53	37130.26
527.70	37902.64
527.87	37904.98
528.04	36919.61
528.21	37565.60
528.38	37614.75
528.55	37464.96
528.72	37333.89
528.89	37706.03
529.07	37589.00
529.24	37551.56
529.41	37738.80
529.58	38209.25
529.75	37699.01
529.92	38288.82
530.09	38127.33
530.26	37937.74
530.43	38323.93
530.60	38370.74
530.77	38148.39
530.94	38155.41
531.11	38361.38
531.28	38394.15
531.46	38546.28
531.63	38642.24
531.80	38639.90
531.97	38813.10
532.14	38518.20
532.31	38958.22
532.48	38515.86
532.65	38920.77
532.82	39274.19
532.99	39220.36
533.16	38951.20
533.33	38944.17
533.50	39033.11
533.67	39407.60
533.84	39016.73
534.01	39201.63
534.18	39122.05
534.35	39707.19
534.52	39716.55
534.69	39447.39
534.86	39587.82
535.03	39625.27
535.20	39718.89
535.37	39952.94
535.54	39871.03
535.71	39833.58
535.88	39995.07
536.05	39981.03
536.22	39861.66
536.38	40208.06
536.55	40229.13
536.72	40442.12
536.89	40058.27
537.06	40191.68
537.23	40545.10
537.40	40673.83
537.57	40098.06
537.74	40425.73
537.91	40961.72
538.08	40617.66
538.25	40285.30
538.42	40795.54
538.59	41223.86
538.75	40671.49
538.92	40872.78
539.09	40975.76
539.26	40886.82
539.43	41027.25
539.60	41352.58
539.77	40872.78
539.94	41198.11
540.11	41193.43
540.28	41123.21
540.44	41144.28
540.61	41036.61
540.78	41048.32
540.95	41221.52
541.12	41258.96
541.29	41275.35
541.46	41462.59
541.62	41876.86
541.79	42012.62
541.96	41359.61
542.13	41593.66
542.30	41715.37
542.47	41549.19
542.63	41888.57
542.80	41848.78
542.97	42253.69
543.14	42440.93
543.31	42183.48
543.48	42031.34
543.64	42504.13
543.81	42604.77
543.98	42782.65
544.15	42532.22
544.32	42735.84
544.48	42658.60
544.65	42759.25
544.82	42719.46
544.99	42696.05
545.16	42295.82
545.32	42555.62
545.49	42733.50
545.66	43229.69
545.83	42731.16
546.00	43409.92
546.16	43297.57
546.33	42897.34
546.50	42529.87
546.67	42986.28
546.83	42583.71
547.00	42787.33
547.17	43012.02
547.34	43599.50
547.50	43461.41
547.67	43758.66
547.84	42866.91
548.00	43248.42
548.17	43599.50
548.34	43545.67
548.51	43515.24
548.67	43667.37
548.84	43845.26
549.01	43538.65
549.18	43746.95
549.34	43772.70
549.51	43973.98
549.68	44191.65
549.84	43878.02
550.01	43658.01
550.18	43683.76
550.34	44161.23
550.51	44664.44
550.68	43985.69
550.84	43772.70
551.01	44245.49
551.18	44051.22
551.34	43880.36
551.51	44374.22
551.68	44531.03
551.84	44301.66
552.01	44306.34
552.18	44404.64
552.34	44177.61
552.51	44624.65
552.68	44472.52
552.84	44729.98
553.01	44713.59
553.18	44477.20
553.34	44928.92
553.51	44626.99
553.67	44706.57
553.84	44816.58
554.01	44722.96
554.17	44945.31
554.34	44807.22
554.51	45289.37
554.67	45485.97
554.84	45343.20
555.00	45378.31
555.17	45055.31
555.33	45045.95
555.50	45425.12
555.67	45254.26
555.83	45214.47
556.00	45219.15
556.16	45858.12
556.33	45446.18
556.50	45354.90
556.66	45216.81
556.83	45083.40
556.99	45705.98
557.16	45359.58
557.32	45986.85
557.49	45766.84
557.65	45633.42
557.82	45518.74
557.98	45333.84
558.15	45670.87
558.32	45794.92
558.48	45411.07
558.65	45525.76
558.81	45734.07
558.98	45598.32
559.14	45385.33
559.31	45509.38
559.47	45769.18
559.64	46220.90
559.80	45972.80
559.97	46120.26
560.13	45935.35
560.30	45626.40
560.46	45993.87
560.63	46251.33
560.79	46272.39
560.96	46450.27
561.12	46267.71
561.29	46791.99
561.45	46204.52
561.61	46274.73
561.78	46134.30
561.94	46174.09
562.11	46075.79
562.27	46188.13
562.44	45886.20
562.60	46010.25
562.77	46560.28
562.93	45827.69
563.10	46766.24
563.26	46171.75
563.42	46684.33
563.59	46513.47
563.75	46628.15
563.92	46623.47
564.08	46143.66
564.24	46714.75
564.41	46780.29
564.57	46440.91
564.74	46328.56
564.90	46405.80
565.07	46466.66
565.23	46408.14
565.39	46227.92
565.56	46705.39
565.72	46763.90
565.88	46487.72
566.05	46665.60
566.21	46667.94
566.38	46721.77
566.54	46869.23
566.70	46461.97
566.87	46904.34
567.03	46724.11
567.19	46761.56
567.36	46588.36
567.52	46656.24
567.68	47215.63
567.85	46880.93
568.01	47232.01
568.17	47042.43
568.34	47199.24
568.50	46932.42
568.66	46700.71
568.83	46735.82
568.99	46878.59
569.15	47065.83
569.32	46583.68
569.48	47138.39
569.64	47112.64
569.81	47519.90
569.97	46820.08
570.13	47215.63
570.30	46721.77
570.46	47002.64
570.62	47381.80
570.78	46965.19
570.95	46878.59
571.11	47522.24
571.27	46930.08
571.43	46665.60
571.60	46932.42
571.76	47119.66
571.92	46845.82
572.09	47250.74
572.25	47089.24
572.41	46897.31
572.57	47187.54
572.74	47632.24
572.90	47199.24
573.06	47732.89
573.22	47540.96
573.38	47587.77
573.55	47313.93
573.71	47470.75
573.87	47281.16
574.03	47002.64
574.20	47648.63
574.36	47250.74
574.52	47157.11
574.68	47468.40
574.84	47508.19
575.01	47288.18
575.17	47433.30
575.33	47400.53
575.49	47178.18
575.65	47662.67
575.82	47372.44
575.98	47466.06
576.14	47538.62
576.30	47636.92
576.46	47459.04
576.62	47416.91
576.79	47814.80
576.95	47054.13
577.11	47150.09
577.27	47313.93
577.43	47599.47
577.59	47590.11
577.75	47260.10
577.92	47583.09
578.08	47370.10
578.24	47147.75
578.40	47646.29
578.56	47299.89
578.72	47686.07
578.88	47735.23
579.04	47232.01
579.21	47356.06
579.37	47796.08
579.53	47826.51
579.69	47786.72
579.85	47508.19
580.01	47770.33
580.17	47468.40
580.33	48018.43
580.49	47700.12
580.65	47744.59
580.82	47833.53
580.98	47206.26
581.14	47346.70
581.30	47812.46
581.46	47723.52
581.62	47737.57
581.78	47564.37
581.94	47435.64
582.10	47763.31
582.26	47763.31
582.42	47587.77
582.58	47821.83
582.74	47992.68
582.90	47868.64
583.06	48116.73
583.22	47454.36
583.38	47650.97
583.54	48177.59
583.70	47920.13
583.86	47735.23
584.02	48137.80
584.18	47746.93
584.34	48184.61
584.50	48156.52
584.66	48039.50
584.82	47945.87
584.98	48385.89
585.14	47557.35
585.30	47398.19
585.46	48247.80
585.62	47590.11
585.78	48034.81
585.94	47587.77
586.10	48128.44
586.26	47744.59
586.42	47798.42
586.58	47894.38
586.74	47655.65
586.90	47564.37
587.06	47973.96
587.22	48296.95
587.38	47887.36
587.54	47796.08
587.70	48254.82
587.86	47842.89
588.02	47571.39
588.18	47990.34
588.34	47721.18
588.49	47969.28
588.65	47969.28
588.81	47562.03
588.97	48062.90
589.13	47959.92
589.29	48238.44
589.45	47842.89
589.61	48339.08
589.77	48266.53
589.93	47840.55
590.08	48289.93
