SpectraSuite Data File
++++++++++++++++++++++++++++++++++++
Date: Fri Oct 25 11:22:28 EDT 2013
User: price-jones
Dark Spectrum Present: No
Reference Spectrum Present: No
Number of Sampled Component Spectra: 1
Spectrometers: USB2+H05261
Integration Time (usec): 100000 (USB2+H05261)
Spectra Averaged: 1 (USB2+H05261)
Boxcar Smoothing: 0 (USB2+H05261)
Correct for Electrical Dark: No (USB2+H05261)
Strobe/Lamp Enabled: No (USB2+H05261)
Correct for Detector Non-linearity: No (USB2+H05261)
Correct for Stray Light: No (USB2+H05261)
Number of Pixels in Processed Spectrum: 2048
>>>>>Begin Processed Spectral Data<<<<<
365.73	217.67
365.92	217.67
366.12	217.67
366.32	173.20
366.52	166.18
366.72	114.69
366.91	70.22
367.11	201.29
367.31	100.64
367.51	110.01
367.70	112.35
367.90	114.69
368.10	126.39
368.30	65.54
368.49	93.62
368.69	91.28
368.89	100.64
369.09	88.94
369.28	180.22
369.48	147.45
369.68	215.33
369.87	220.01
370.07	156.82
370.27	231.71
370.47	304.27
370.66	507.90
370.86	603.86
371.06	594.50
371.25	737.27
371.45	657.69
371.65	683.44
371.84	657.69
372.04	685.78
372.24	650.67
372.44	664.71
372.63	753.65
372.83	758.33
373.03	713.86
373.22	709.18
373.42	753.65
373.62	695.14
373.81	828.55
374.01	802.80
374.21	805.14
374.40	767.70
374.60	861.32
374.79	840.25
374.99	807.48
375.19	777.06
375.38	849.61
375.58	779.40
375.78	870.68
375.97	858.98
376.17	922.17
376.37	912.81
376.56	791.10
376.76	823.87
376.95	819.19
377.15	898.77
377.35	830.89
377.54	875.36
377.74	912.81
377.93	889.40
378.13	884.72
378.33	933.87
378.52	844.93
378.72	992.39
378.91	987.71
379.11	877.70
379.31	936.21
379.50	922.17
379.70	1006.43
379.89	1022.81
380.09	954.94
380.28	954.94
380.48	964.30
380.68	1034.52
380.87	1034.52
381.07	1069.62
381.26	966.64
381.46	1015.79
381.65	1046.22
381.85	1062.60
382.04	1071.97
382.24	978.34
382.43	1039.20
382.63	1036.86
382.83	1107.07
383.02	1011.11
383.22	1158.57
383.41	1100.05
383.61	1015.79
383.80	1078.99
384.00	1184.31
384.19	1196.01
384.39	1088.35
384.58	1207.72
384.78	1142.18
384.97	1135.16
385.17	1233.46
385.36	1205.38
385.56	1160.91
385.75	1205.38
385.95	1193.67
386.14	1193.67
386.34	1186.65
386.53	1233.46
386.72	1163.25
386.92	1296.66
387.11	1273.25
387.31	1214.74
387.50	1193.67
387.70	1238.14
387.89	1320.06
388.09	1240.48
388.28	1214.74
388.48	1291.98
388.67	1263.89
388.86	1350.49
389.06	1240.48
389.25	1434.75
389.45	1294.32
389.64	1357.51
389.84	1373.89
390.03	1404.32
390.22	1322.40
390.42	1387.94
390.61	1376.24
390.81	1268.57
391.00	1425.39
391.19	1444.11
391.39	1488.58
391.58	1526.03
391.78	1582.20
391.97	1493.26
392.16	1446.45
392.36	1504.96
392.55	1497.94
392.75	1437.09
392.94	1561.14
393.13	1526.03
393.33	1497.94
393.52	1547.09
393.71	1589.22
393.91	1570.50
394.10	1736.68
394.29	1598.59
394.49	1591.56
394.68	1703.91
394.88	1631.35
395.07	1631.35
395.26	1748.38
395.46	1603.27
395.65	1619.65
395.84	1724.97
396.04	1776.47
396.23	1762.42
396.42	1788.17
396.62	1799.87
396.81	1771.79
397.00	1781.15
397.19	1806.89
397.39	1926.26
397.58	1895.83
397.77	1741.36
397.97	1844.34
398.16	1809.23
398.35	1844.34
398.55	1839.66
398.74	1856.04
398.93	1970.73
399.12	1954.35
399.32	1902.86
399.51	1930.94
399.70	2036.27
399.90	1975.41
400.09	1996.48
400.28	1984.77
400.47	2012.86
400.67	2108.82
400.86	2111.16
401.05	2186.06
401.24	2115.84
401.44	2120.53
401.63	2094.78
401.82	2263.30
402.01	2207.13
402.21	2176.70
402.40	2373.30
402.59	2228.19
402.78	2122.87
402.97	2272.66
403.17	2286.70
403.36	2228.19
403.55	2331.17
403.74	2333.51
403.93	2349.90
404.13	2286.70
404.32	2438.84
404.51	2420.11
404.70	2473.95
404.89	2427.14
405.09	2551.18
405.28	2408.41
405.47	2541.82
405.66	2562.89
405.85	2626.08
406.05	2523.10
406.24	2623.74
406.43	2562.89
406.62	2516.08
406.81	2633.10
407.00	2668.21
407.20	2658.85
407.39	2705.66
407.58	2642.46
407.77	2766.51
407.96	2888.22
408.15	2869.50
408.34	2691.62
408.54	2752.47
408.73	2644.81
408.92	2878.86
409.11	2843.75
409.30	2963.12
409.49	2878.86
409.68	2986.52
409.87	2939.71
410.07	2951.42
410.26	3094.19
410.45	3087.17
410.64	2977.16
410.83	3197.17
411.02	3169.09
411.21	3279.09
411.40	3061.42
411.59	3236.96
411.78	3187.81
411.98	3222.92
412.17	3293.13
412.36	3400.80
412.55	3459.31
412.74	3419.52
412.93	3419.52
413.12	3456.97
413.31	3588.04
413.50	3435.91
413.69	3555.27
413.88	3527.19
414.07	3651.24
414.26	3625.49
414.45	3709.75
414.64	3597.40
414.83	3770.60
415.02	3667.62
415.22	3978.91
415.41	4016.36
415.60	3871.25
415.79	3880.61
415.98	4056.15
416.17	4051.47
416.36	3990.61
416.55	4074.87
416.74	4065.51
416.93	4135.73
417.12	4091.26
417.31	4257.43
417.50	4168.49
417.69	4339.35
417.88	4271.48
418.07	4283.18
418.26	4344.03
418.45	4337.01
418.64	4608.51
418.83	4482.13
419.02	4463.40
419.21	4643.62
419.39	4564.04
419.58	4442.34
419.77	4456.38
419.96	4542.98
420.15	4695.11
420.34	4538.30
420.53	4704.48
420.72	4760.65
420.91	4856.61
421.10	4835.55
421.29	4924.49
421.48	4643.62
421.67	4648.30
421.86	4884.70
422.05	4936.19
422.24	4819.16
422.43	4889.38
422.61	4819.16
422.80	4966.62
422.99	4980.66
423.18	4896.40
423.37	5153.86
423.56	4919.81
423.75	5111.73
423.94	5027.47
424.13	4627.24
424.32	4807.46
424.50	5153.86
424.69	5200.67
424.88	5195.99
425.07	5158.54
425.26	4805.12
425.45	4997.04
425.64	4999.38
425.83	5078.96
426.01	5123.43
426.20	5050.88
426.39	5184.29
426.58	5191.31
426.77	4933.85
426.96	5107.05
427.15	5228.76
427.33	5149.18
427.52	5158.54
427.71	5441.75
427.90	5383.23
428.09	5275.57
428.28	5383.23
428.46	5500.26
428.65	5385.57
428.84	5493.24
429.03	5577.50
429.22	5465.15
429.40	5439.40
429.59	5586.86
429.78	5425.36
429.97	5315.36
430.16	5523.66
430.34	5673.46
430.53	5514.30
430.72	5584.52
430.91	5612.60
431.10	5570.48
431.28	5680.48
431.47	5755.38
431.66	5879.43
431.85	5774.10
432.03	5998.79
432.22	6047.94
432.41	6080.71
432.60	6012.84
432.79	6188.38
432.97	5973.05
433.16	6157.95
433.35	5963.68
433.54	6085.39
433.72	6265.61
433.91	6134.54
434.10	6314.77
434.28	6118.16
434.47	6413.07
434.66	6260.93
434.85	6333.49
435.03	6487.96
435.22	6216.46
435.41	6693.93
435.59	6572.22
435.78	6544.14
435.97	6532.44
436.16	6572.22
436.34	6523.07
436.53	6621.38
436.72	6796.92
436.90	6532.44
437.09	6743.08
437.28	6427.11
437.46	6544.14
437.65	6682.23
437.84	7061.40
438.02	6679.89
438.21	6895.22
438.40	6628.40
438.58	7192.47
438.77	7218.21
438.96	7066.08
439.14	7094.16
439.33	7206.51
439.52	7311.83
439.70	7293.11
439.89	7428.86
440.08	7438.22
440.26	7335.24
440.45	7503.76
440.63	7599.72
440.82	7571.63
441.01	7595.04
441.19	7569.29
441.38	7646.53
441.57	7801.01
441.75	7894.63
441.94	8128.68
442.12	8131.02
442.31	8182.51
442.50	8039.74
442.68	8037.40
442.87	8208.26
443.05	8276.13
443.24	8329.97
443.43	8313.58
443.61	8205.92
443.80	8514.87
443.98	8266.77
444.17	7922.71
444.35	8411.89
444.54	8395.50
444.73	8578.06
444.91	8344.01
445.10	8734.88
445.28	8322.94
445.47	8351.03
445.65	8393.16
445.84	8638.92
446.02	8723.18
446.21	8514.87
446.39	8521.89
446.58	8557.00
446.77	8547.64
446.95	8367.42
447.14	8655.30
447.32	8760.63
447.51	8667.00
447.69	8437.63
447.88	8540.61
448.06	8800.41
448.25	8784.03
448.43	8709.13
448.62	8769.99
448.80	8411.89
448.99	8730.20
449.17	8896.38
449.36	8924.46
449.54	8894.04
449.73	9064.89
449.91	9055.53
450.10	9015.74
450.28	9259.16
450.46	9263.84
450.65	9174.90
450.83	9224.05
451.02	9144.47
451.20	9312.99
451.39	9198.31
451.57	9254.48
451.76	9252.14
451.94	9423.00
452.13	9554.07
452.31	9441.72
452.49	9289.59
452.68	9577.47
452.86	9315.33
453.05	9572.79
453.23	9633.64
453.42	9413.63
453.60	9261.50
453.78	9547.05
453.97	9535.34
454.15	9561.09
454.34	9472.15
454.52	9867.70
454.70	9844.29
454.89	9830.25
455.07	9816.21
455.26	10026.86
455.44	10090.05
455.62	9956.64
455.81	10019.83
455.99	10064.30
456.17	10026.86
456.36	10326.44
456.54	10333.47
456.73	10389.64
456.91	10616.67
457.09	10457.51
457.28	10750.08
457.46	10391.98
457.64	10761.78
457.83	10806.25
458.01	10377.94
458.19	10764.12
458.38	10684.55
458.56	10869.45
458.74	10651.78
458.93	10930.30
459.11	10895.19
459.29	10747.74
459.48	10764.12
459.66	10918.60
459.84	10930.30
460.03	11290.74
460.21	11009.88
460.39	10988.82
460.57	11077.76
460.76	11260.32
460.94	11522.46
461.12	11452.24
461.31	11250.96
461.49	11239.25
461.67	11489.69
461.85	11620.76
462.04	11590.33
462.22	11466.28
462.40	11822.05
462.59	11889.92
462.77	11520.12
462.95	11676.93
463.13	11782.26
463.32	11810.34
463.50	11838.43
463.68	11978.86
463.86	11997.59
464.05	11892.26
464.23	11840.77
464.41	12065.46
464.59	11672.25
464.78	12126.32
464.96	11826.73
465.14	12229.30
465.32	12152.06
465.50	12503.14
465.69	12458.67
465.87	12250.36
466.05	12348.67
466.23	12191.85
466.41	12351.01
466.60	12381.43
466.78	12414.20
466.96	12421.22
467.14	12479.74
467.32	12608.47
467.51	12786.35
467.69	12187.17
467.87	12800.39
468.05	13018.06
468.23	12603.78
468.41	12582.72
468.60	12896.35
468.78	12936.14
468.96	12947.84
469.14	12809.75
469.32	12980.61
469.50	12929.12
469.69	13214.66
469.87	13268.50
470.05	13324.67
470.23	13429.99
470.41	13474.46
470.59	13535.32
470.77	13294.24
470.95	13486.17
471.14	13781.07
471.32	13179.56
471.50	13542.34
471.68	13685.11
471.86	13802.14
472.04	13799.80
472.22	14216.41
472.40	13984.70
472.58	13879.38
472.77	14054.92
472.95	14281.95
473.13	14618.99
473.31	14216.41
473.49	14150.88
473.67	14288.97
473.85	14497.28
474.03	14885.81
474.21	14885.81
474.39	14923.26
474.57	14768.78
474.75	15009.86
474.93	15145.61
475.12	15255.61
475.30	15428.81
475.48	15267.31
475.66	15374.98
475.84	15482.64
476.02	15531.80
476.20	15440.51
476.38	15761.17
476.56	16084.16
476.74	16210.55
476.92	16093.52
477.10	16168.42
477.28	16580.36
477.46	16386.09
477.64	16589.72
477.82	16798.02
478.00	17254.43
478.18	17266.13
478.36	17256.77
478.54	17404.22
478.72	17439.33
478.90	17432.31
479.08	17804.46
479.26	17919.14
479.44	17832.54
479.62	17844.24
479.80	18338.10
479.98	18412.99
480.16	19290.70
480.34	18443.42
480.52	18710.24
480.70	18792.16
480.88	18841.31
481.06	18897.49
481.24	19283.67
481.41	19442.83
481.59	19653.48
481.77	19637.09
481.95	19899.23
482.13	19962.43
482.31	19988.18
482.49	20634.16
482.67	20280.74
482.85	20615.44
483.03	20856.51
483.21	21029.71
483.39	21296.53
483.57	21109.29
483.74	21221.64
483.92	21649.96
484.10	21694.43
484.28	21715.49
484.46	22328.71
484.64	22717.24
484.82	22258.49
485.00	22471.48
485.18	22771.07
485.35	23208.75
485.53	23098.75
485.71	23580.90
485.89	23861.76
486.07	23599.62
486.25	24060.71
486.43	23964.75
486.61	24320.51
486.78	24496.05
486.96	24535.84
487.14	25032.03
487.32	24957.13
487.50	25455.67
487.68	25312.89
487.85	25724.83
488.03	25778.66
488.21	26324.01
488.39	26153.15
488.57	26485.50
488.75	26796.79
488.92	26494.86
489.10	27166.60
489.28	27208.73
489.46	27730.67
489.64	27482.57
489.81	27901.53
489.99	28081.75
490.17	27981.10
490.35	28348.57
490.53	28360.27
490.70	28638.80
490.88	28819.02
491.06	29090.52
491.24	29359.68
491.41	29385.43
491.59	29549.26
491.77	29703.74
491.95	29961.20
492.13	29956.52
492.30	30415.26
492.48	30438.67
492.66	30747.62
492.84	30909.11
493.01	31002.74
493.19	31049.55
493.37	31407.65
493.54	31274.24
493.72	31929.59
493.90	31894.48
494.08	31960.02
494.25	32411.74
494.43	32336.84
494.61	32652.81
494.79	32800.27
494.96	33109.22
495.14	33071.77
495.32	33373.70
495.49	33682.65
495.67	33832.44
495.85	33912.02
496.02	33776.27
496.20	34625.89
496.38	34384.81
496.55	34515.88
496.73	35306.98
496.91	35330.39
497.09	35150.17
497.26	35309.32
497.44	35365.49
497.62	35686.15
497.79	36395.33
497.97	35768.07
498.14	36470.23
498.32	36662.15
498.50	36491.29
498.67	37195.79
498.85	36809.61
499.03	36994.51
499.20	37069.40
499.38	37340.91
499.56	37921.36
499.73	37649.86
499.91	38167.12
500.08	37940.08
500.26	38101.58
500.44	38061.79
500.61	38487.77
500.79	38220.95
500.97	38878.64
501.14	39332.70
501.32	39189.93
501.49	38677.35
501.67	39264.83
501.84	39407.60
502.02	39152.48
502.20	39246.10
502.37	39580.80
502.55	39662.72
502.72	40076.99
502.90	40334.45
503.07	40201.04
503.25	40683.19
503.43	40128.48
503.60	40891.50
503.78	40706.60
503.95	40893.84
504.13	40715.96
504.30	41174.70
504.48	40975.76
504.65	41359.61
504.83	41436.84
505.01	41514.08
505.18	41621.75
505.36	42199.86
505.53	41607.70
505.71	42660.94
505.88	42515.83
506.06	41933.04
506.23	42801.38
506.41	42380.08
506.58	42274.76
506.76	43185.22
506.93	43395.87
507.11	42864.57
507.28	42988.62
507.46	43248.42
507.63	43278.85
507.81	43812.49
507.98	43414.60
508.16	43660.35
508.33	43885.04
508.50	43819.51
508.68	44069.95
508.85	44322.72
509.03	44502.95
509.20	44935.95
509.38	44889.13
509.55	45186.38
509.73	45170.00
509.90	45212.13
510.08	45141.91
510.25	45254.26
510.42	45347.88
510.60	45509.38
510.77	45439.16
510.95	45446.18
511.12	45677.90
511.30	45415.76
511.47	45848.75
511.64	46127.28
511.82	46515.81
511.99	46286.43
512.17	46061.74
512.34	46239.62
512.51	47164.14
512.69	46904.34
512.86	46913.70
513.04	46944.12
513.21	46831.78
513.38	46916.04
513.56	47227.33
513.73	47608.84
513.90	47489.47
514.08	47306.91
514.25	47669.69
514.43	47817.14
514.60	48149.50
514.77	47555.00
514.95	48062.90
515.12	48128.44
515.29	48140.14
515.47	48500.58
515.64	48636.33
515.81	48385.89
515.99	48608.25
516.16	48954.64
516.33	48589.52
516.51	49029.54
516.68	49099.76
516.85	49029.54
517.03	49663.83
517.20	49474.24
517.37	49017.84
517.54	49298.70
517.72	49359.56
517.89	49703.62
518.06	49771.49
518.24	49617.02
518.41	49792.56
518.58	50050.02
518.75	49441.48
518.93	50197.47
519.10	49977.46
519.27	50342.58
519.45	50225.56
519.62	50403.44
519.79	50635.15
519.96	50625.79
520.14	50759.20
520.31	50178.75
520.48	50864.52
520.65	50845.80
520.83	51274.12
521.00	51332.63
521.17	51194.54
521.34	50918.35
521.52	51419.23
521.69	51419.23
521.86	51484.76
522.03	51576.04
522.20	51433.27
522.38	51784.35
522.55	51629.88
522.72	51863.93
522.89	51889.68
523.07	52189.27
523.24	52006.70
523.41	52282.89
523.58	51997.34
523.75	52161.18
523.92	52362.46
524.10	52397.57
524.27	52617.58
524.44	52444.38
524.61	52692.48
524.78	52322.68
524.96	52582.48
525.13	52781.42
525.30	52891.43
525.47	53155.91
525.64	52706.52
525.81	52835.25
525.98	53169.95
526.16	53022.50
526.33	52746.31
526.50	53708.27
526.67	53270.59
526.84	53048.24
527.01	53450.81
527.18	53544.44
527.36	53427.41
527.53	53551.46
527.70	53736.36
527.87	53389.96
528.04	53380.60
528.21	53797.21
528.38	54155.32
528.55	53696.57
528.72	53722.32
528.89	53776.15
529.07	53886.15
529.24	53855.73
529.41	54131.91
529.58	54150.63
529.75	53944.67
529.92	54213.83
530.09	54089.78
530.26	54550.87
530.43	54569.59
530.60	54272.34
530.77	54415.11
530.94	54447.88
531.11	54127.23
531.28	54745.13
531.46	54618.74
531.63	54780.24
531.80	54714.70
531.97	54712.36
532.14	54787.26
532.31	54838.75
532.48	54937.05
532.65	55035.36
532.82	54843.43
532.99	54908.97
533.16	54988.55
533.33	55351.33
533.50	55234.30
533.67	55168.77
533.84	55011.95
534.01	55454.31
534.18	55510.49
534.35	55842.84
534.52	55454.31
534.69	55671.98
534.86	55861.57
535.03	55447.29
535.20	55407.50
535.37	55489.42
535.54	55896.67
535.71	55723.47
535.88	55781.99
536.05	55913.06
536.22	55842.84
536.38	55894.33
536.55	56004.34
536.72	55908.38
536.89	55828.80
537.06	55866.25
537.23	56336.69
537.40	55952.85
537.57	56104.98
537.74	56090.94
537.91	56404.57
538.08	56147.11
538.25	56060.51
538.42	56158.81
538.59	56537.98
538.75	56378.82
538.92	56437.34
539.09	56371.80
539.26	56399.89
539.43	56568.41
539.60	56701.82
539.77	56683.09
539.94	56865.66
540.11	56699.48
540.28	56659.69
540.44	56708.84
540.61	56973.32
540.78	56697.14
540.95	56917.15
541.12	56933.53
541.29	56875.02
541.46	56889.06
541.62	57013.11
541.79	56856.29
541.96	56713.52
542.13	56938.21
542.30	57125.46
542.47	57195.67
542.63	57240.14
542.80	57174.61
542.97	57392.28
543.14	57345.47
543.31	57427.38
543.48	57523.35
543.64	57743.36
543.81	57633.35
543.98	57467.17
544.15	57745.70
544.32	57684.84
544.48	57935.28
544.65	57563.14
544.82	57710.59
544.99	57612.29
545.16	57612.29
545.32	57633.35
545.49	58007.84
545.66	58101.46
545.83	57939.96
546.00	57869.75
546.16	57932.94
546.33	58169.33
546.50	57794.85
546.67	58014.86
546.83	57748.04
547.00	58277.00
547.17	58131.89
547.34	57984.43
547.50	58497.01
547.67	58520.41
547.84	58295.72
548.00	58354.24
548.17	58520.41
548.34	58319.13
548.51	58688.93
548.67	58457.22
548.84	58340.19
549.01	58445.52
549.18	58478.28
549.34	58539.14
549.51	58562.54
549.68	58672.55
549.84	58527.44
550.01	58658.51
550.18	58698.30
550.34	58555.52
550.51	58880.86
550.68	58763.83
550.84	58525.10
551.01	58857.45
551.18	58777.87
551.34	58862.13
551.51	58756.81
551.68	58810.64
551.84	58995.54
552.01	58841.07
552.18	59114.91
552.34	58920.65
552.51	59096.19
552.68	58848.09
552.84	58983.84
553.01	59316.20
553.18	58925.33
553.34	59224.92
553.51	58831.71
553.67	59079.80
553.84	59267.05
554.01	59194.49
554.17	59152.36
554.34	59159.38
554.51	59194.49
554.67	59512.80
554.84	59238.96
555.00	59157.04
555.17	59400.46
555.33	59150.02
555.50	59224.92
555.67	59269.39
555.83	59264.70
556.00	59480.03
556.16	59704.73
556.33	59632.17
556.50	59725.79
556.66	59686.00
556.83	59480.03
556.99	59676.64
557.16	59744.51
557.32	59861.54
557.49	59667.28
557.65	59810.05
557.82	59571.32
557.98	59756.22
558.15	59690.68
558.32	59779.62
558.48	59838.14
558.65	59709.41
558.81	59941.12
558.98	59796.01
559.14	59889.63
559.31	60013.68
559.47	60060.49
559.64	60069.85
559.80	59838.14
559.97	60069.85
560.13	59969.21
560.30	60107.30
560.46	60001.97
560.63	59753.88
560.79	60076.87
560.96	60252.41
561.12	60327.31
561.29	60214.96
561.45	60121.34
561.61	60224.32
561.78	60158.79
561.94	60369.44
562.11	60142.41
562.27	60254.75
562.44	60420.93
562.60	60430.29
562.77	60306.24
562.93	60102.62
563.10	60331.99
563.26	60324.97
563.42	60430.29
563.59	60458.38
563.75	60327.31
563.92	60193.90
564.08	60294.54
564.24	60357.74
564.41	60427.95
564.57	60299.22
564.74	60505.19
564.90	60446.68
565.07	60484.12
565.23	60430.29
565.39	60456.04
565.56	60528.59
565.72	60502.85
565.88	60673.71
566.05	60654.98
566.21	60449.02
566.38	60666.69
566.54	60582.43
566.70	60608.17
566.87	60580.09
567.03	60362.42
567.19	60818.82
567.36	60596.47
567.52	60605.83
567.68	60835.20
567.85	60818.82
568.01	60769.67
568.17	60509.87
568.34	60795.42
568.50	60680.73
568.66	60638.60
568.83	60638.60
568.99	60608.17
569.15	60610.51
569.32	60706.47
569.48	60767.33
569.64	60870.31
569.81	60769.67
569.97	60706.47
570.13	60802.44
570.30	60528.59
570.46	60662.00
570.62	60760.31
570.78	60910.10
570.95	60760.31
571.11	61043.51
571.27	60804.78
571.43	60853.93
571.60	60839.89
571.76	60921.80
571.92	61111.39
572.09	60818.82
572.25	61043.51
572.41	60907.76
572.57	61015.43
572.74	61277.57
572.90	60945.21
573.06	61095.00
573.22	60907.76
573.38	60905.42
573.55	60863.29
573.71	61137.13
573.87	61050.53
574.03	60797.76
574.20	60942.87
574.36	60935.85
574.52	60994.36
574.68	61024.79
574.84	61123.09
575.01	61104.37
575.17	60989.68
575.33	61052.87
575.49	61073.94
575.65	61127.77
575.82	61270.54
575.98	61066.92
576.14	61155.86
576.30	61223.73
576.46	61125.43
576.62	61155.86
576.79	61162.88
576.95	61015.43
577.11	60921.80
577.27	61104.37
577.43	61052.87
577.59	60926.49
577.75	61041.17
577.92	61146.50
578.08	61076.28
578.24	61186.28
578.40	61176.92
578.56	61324.38
578.72	61212.03
578.88	61226.07
579.04	61410.98
579.21	61106.71
579.37	61130.11
579.53	61357.14
579.69	61050.53
579.85	61310.33
580.01	60994.36
580.17	61226.07
580.33	61293.95
580.49	61233.10
580.65	61364.17
580.82	61066.92
580.98	61188.63
581.14	61174.58
581.30	61293.95
581.46	61083.30
581.62	61148.84
581.78	61146.50
581.94	61293.95
582.10	61008.40
582.26	61205.01
582.42	61130.11
582.58	61371.19
582.74	61092.66
582.90	61059.90
583.06	61048.19
583.22	61176.92
583.38	61298.63
583.54	61422.68
583.70	61116.07
583.86	61322.04
584.02	60973.30
584.18	61380.55
584.34	61460.13
584.50	61188.63
584.66	61181.60
584.82	60935.85
584.98	61298.63
585.14	61244.80
585.30	61151.18
585.46	61223.73
585.62	61226.07
585.78	61565.45
585.94	61036.49
586.10	61385.23
586.26	61254.16
586.42	61572.47
586.58	61418.00
586.74	61392.25
586.90	61380.55
587.06	61167.56
587.22	61572.47
587.38	61319.70
587.54	61317.35
587.70	61532.68
587.86	61392.25
588.02	61429.70
588.18	61216.71
588.34	61322.04
588.49	61394.59
