SpectraSuite Data File
++++++++++++++++++++++++++++++++++++
Date: Fri Oct 25 11:23:31 EDT 2013
User: price-jones
Dark Spectrum Present: No
Reference Spectrum Present: No
Number of Sampled Component Spectra: 1
Spectrometers: USB2+H05261
Integration Time (usec): 100000 (USB2+H05261)
Spectra Averaged: 1 (USB2+H05261)
Boxcar Smoothing: 0 (USB2+H05261)
Correct for Electrical Dark: No (USB2+H05261)
Strobe/Lamp Enabled: No (USB2+H05261)
Correct for Detector Non-linearity: No (USB2+H05261)
Correct for Stray Light: No (USB2+H05261)
Number of Pixels in Processed Spectrum: 2048
>>>>>Begin Processed Spectral Data<<<<<
365.73	191.92
365.92	191.92
366.12	191.92
366.32	133.41
366.52	142.77
366.72	180.22
366.91	128.73
367.11	110.01
367.31	154.48
367.51	110.01
367.70	173.20
367.90	149.79
368.10	126.39
368.30	140.43
368.49	154.48
368.69	126.39
368.89	72.56
369.09	107.66
369.28	201.29
369.48	220.01
369.68	173.20
369.87	187.24
370.07	212.99
370.27	224.69
370.47	266.82
370.66	648.33
370.86	638.97
371.06	587.47
371.25	706.84
371.45	613.22
371.65	725.57
371.84	594.50
372.04	690.46
372.24	711.52
372.44	688.12
372.63	720.88
372.83	798.12
373.03	699.82
373.22	683.44
373.42	807.48
373.62	711.52
373.81	746.63
374.01	835.57
374.21	835.57
374.40	774.72
374.60	851.96
374.79	826.21
374.99	837.91
375.19	877.70
375.38	849.61
375.58	823.87
375.78	858.98
375.97	805.14
376.17	821.53
376.37	809.83
376.56	873.02
376.76	833.23
376.95	833.23
377.15	894.08
377.35	898.77
377.54	912.81
377.74	882.38
377.93	926.85
378.13	908.13
378.33	968.98
378.52	1006.43
378.72	959.62
378.91	1034.52
379.11	901.11
379.31	868.34
379.50	950.26
379.70	994.73
379.89	1004.09
380.09	922.17
380.28	1011.11
380.48	1006.43
380.68	976.00
380.87	866.00
381.07	1027.50
381.26	1062.60
381.46	966.64
381.65	1022.81
381.85	1071.97
382.04	1090.69
382.24	1057.92
382.43	1071.97
382.63	992.39
382.83	1022.81
383.02	1069.62
383.22	1102.39
383.41	1116.44
383.61	1114.10
383.80	1139.84
384.00	1067.28
384.19	1135.16
384.39	1170.27
384.58	1090.69
384.78	1123.46
384.97	1123.46
385.17	1132.82
385.36	1228.78
385.56	1172.61
385.75	1123.46
385.95	1135.16
386.14	1128.14
386.34	1142.18
386.53	1186.65
386.72	1198.35
386.92	1240.48
387.11	1160.91
387.31	1263.89
387.50	1282.61
387.70	1282.61
387.89	1334.11
388.09	1313.04
388.28	1238.14
388.48	1315.38
388.67	1327.08
388.86	1306.02
389.06	1263.89
389.25	1451.13
389.45	1263.89
389.64	1336.45
389.84	1397.30
390.03	1308.36
390.22	1315.38
390.42	1439.43
390.61	1242.82
390.81	1416.02
391.00	1479.22
391.19	1497.94
391.39	1397.30
391.58	1453.47
391.78	1446.45
391.97	1437.09
392.16	1427.73
392.36	1547.09
392.55	1533.05
392.75	1554.12
392.94	1523.69
393.13	1598.59
393.33	1535.39
393.52	1561.14
393.71	1607.95
393.91	1614.97
394.10	1533.05
394.29	1643.06
394.49	1598.59
394.68	1678.16
394.88	1596.25
395.07	1652.42
395.26	1696.89
395.46	1624.33
395.65	1732.00
395.84	1760.08
396.04	1778.81
396.23	1661.78
396.42	1631.35
396.62	1699.23
396.81	1757.74
397.00	1692.21
397.19	1715.61
397.39	1806.89
397.58	1701.57
397.77	1743.70
397.97	1858.39
398.16	1797.53
398.35	1937.96
398.55	1846.68
398.74	1823.28
398.93	1926.26
399.12	1893.49
399.32	1930.94
399.51	1884.13
399.70	1984.77
399.90	1827.96
400.09	1891.15
400.28	1952.01
400.47	1930.94
400.67	2045.63
400.86	2050.31
401.05	2073.71
401.24	2118.18
401.44	2097.12
401.63	2242.23
401.82	2064.35
402.01	2143.93
402.21	2195.42
402.40	2108.82
402.59	2279.68
402.78	2263.30
402.97	2221.17
403.17	2183.72
403.36	2298.41
403.55	2305.43
403.74	2385.01
403.93	2408.41
404.13	2314.79
404.32	2413.09
404.51	2279.68
404.70	2387.35
404.89	2345.22
405.09	2385.01
405.28	2499.69
405.47	2576.93
405.66	2424.80
405.85	2523.10
406.05	2478.63
406.24	2626.08
406.43	2546.50
406.62	2565.23
406.81	2600.34
407.00	2642.46
407.20	2684.59
407.39	2607.36
407.58	2698.64
407.77	2642.46
407.96	2684.59
408.15	2899.92
408.34	2754.81
408.54	2796.94
408.73	2843.75
408.92	2881.20
409.11	2836.73
409.30	2944.39
409.49	2867.16
409.68	2918.65
409.87	2829.71
410.07	3000.57
410.26	3073.12
410.45	2972.48
410.64	3197.17
410.83	3089.51
411.02	3038.02
411.21	3155.04
411.40	3126.96
411.59	3112.91
411.78	3199.51
411.98	3169.09
412.17	3208.87
412.36	3353.99
412.55	3304.84
412.74	3433.57
412.93	3496.76
413.12	3424.20
413.31	3562.30
413.50	3424.20
413.69	3454.63
413.88	3606.77
414.07	3688.68
414.26	3634.85
414.45	3585.70
414.64	3658.26
414.83	3686.34
415.02	3728.47
415.22	3817.41
415.41	3815.07
415.60	3794.01
415.79	3873.59
415.98	3913.38
416.17	3878.27
416.36	3901.67
416.55	4058.49
416.74	4079.55
416.93	4187.22
417.12	4086.58
417.31	4201.26
417.50	4315.95
417.69	4304.25
417.88	4290.20
418.07	4365.10
418.26	4348.72
418.45	4416.59
418.64	4428.29
418.83	4500.85
419.02	4381.48
419.21	4524.26
419.39	4559.36
419.58	4454.04
419.77	4456.38
419.96	4425.95
420.15	4638.94
420.34	4503.19
420.53	4482.13
420.72	4606.17
420.91	4739.58
421.10	4664.69
421.29	4915.12
421.48	4697.46
421.67	4734.90
421.86	4697.46
422.05	4765.33
422.24	4830.87
422.43	4964.28
422.61	4868.31
422.80	5041.51
422.99	4826.18
423.18	4894.06
423.37	4940.87
423.56	4847.25
423.75	4894.06
423.94	4910.44
424.13	4667.03
424.32	4767.67
424.50	4912.78
424.69	5116.41
424.88	5022.79
425.07	4952.57
425.26	4908.10
425.45	4978.32
425.64	5060.24
425.83	4966.62
426.01	5067.26
426.20	5069.60
426.39	5018.11
426.58	4997.04
426.77	5011.09
426.96	5221.74
427.15	4926.83
427.33	5289.61
427.52	5102.37
427.71	5329.40
427.90	5226.42
428.09	5425.36
428.28	5294.29
428.46	5345.78
428.65	5277.91
428.84	5542.39
429.03	5406.64
429.22	5296.63
429.40	5556.43
429.59	5556.43
429.78	5338.76
429.97	5263.86
430.16	5472.17
430.34	5647.71
430.53	5736.65
430.72	5542.39
430.91	5694.52
431.10	5633.67
431.28	5860.70
431.47	5753.04
431.66	5659.42
431.85	5724.95
432.03	5865.38
432.22	6033.90
432.41	5778.78
432.60	5921.56
432.79	5818.57
432.97	6094.76
433.16	5956.66
433.35	6174.33
433.54	5996.45
433.72	6090.07
433.91	6207.10
434.10	6150.93
434.28	6160.29
434.47	6200.08
434.66	6193.06
434.85	6279.66
435.03	6310.08
435.22	6377.96
435.41	6366.26
435.59	6548.82
435.78	6401.37
435.97	6429.45
436.16	6520.73
436.34	6473.92
436.53	6513.71
436.72	6466.90
436.90	6345.19
437.09	6630.74
437.28	6621.38
437.46	6565.20
437.65	6530.09
437.84	6841.39
438.02	6623.72
438.21	6780.53
438.40	6677.55
438.58	7016.93
438.77	7023.95
438.96	7042.67
439.14	7091.82
439.33	7066.08
439.52	7052.03
439.70	7192.47
439.89	7103.53
440.08	7407.80
440.26	7501.42
440.45	7407.80
440.63	7581.00
440.82	7463.97
441.01	7316.51
441.19	7262.68
441.38	7641.85
441.57	7707.38
441.75	7889.95
441.94	8224.64
442.12	7882.92
442.31	7892.29
442.50	8074.85
442.68	7990.59
442.87	8037.40
443.05	8301.88
443.24	8173.15
443.43	8182.51
443.61	8053.78
443.80	8404.86
443.98	8060.80
444.17	7714.41
444.35	8320.60
444.54	8339.33
444.73	8287.84
444.91	8224.64
445.10	8250.39
445.28	8344.01
445.47	8102.93
445.65	8575.72
445.84	8493.80
446.02	8592.11
446.21	8304.22
446.39	8402.52
446.58	8430.61
446.77	8484.44
446.95	8372.10
447.14	8444.65
447.32	8702.11
447.51	8414.23
447.69	8454.02
447.88	8472.74
448.06	8549.98
448.25	8528.91
448.43	8671.68
448.62	8690.41
448.80	8561.68
448.99	8727.86
449.17	8798.07
449.36	8559.34
449.54	8711.47
449.73	9121.07
449.91	9034.47
450.10	9104.68
450.28	9081.28
450.46	9004.04
450.65	9006.38
450.83	9144.47
451.02	9074.26
451.20	9092.98
451.39	9043.83
451.57	9273.20
451.76	8992.34
451.94	9069.58
452.13	9240.44
452.31	9210.01
452.49	9252.14
452.68	9430.02
452.86	9369.16
453.05	9444.06
453.23	9540.02
453.42	9252.14
453.60	9156.18
453.78	9476.83
453.97	9661.73
454.15	9596.20
454.34	9235.75
454.52	9738.97
454.70	9760.03
454.89	9692.16
455.07	9708.54
455.26	9811.53
455.44	9771.74
455.62	9837.27
455.81	9771.74
455.99	9893.44
456.17	9947.28
456.36	10148.56
456.54	10377.94
456.73	10331.12
456.91	10249.21
457.09	10380.28
457.28	10569.86
457.46	10293.68
457.64	10600.29
457.83	10576.88
458.01	10310.06
458.19	10686.89
458.38	10427.09
458.56	10665.82
458.74	10761.78
458.93	10684.55
459.11	10731.36
459.29	10839.02
459.48	10857.75
459.66	10806.25
459.84	10970.09
460.03	11274.36
460.21	10986.47
460.39	11220.53
460.57	11040.31
460.76	10899.87
460.94	11419.47
461.12	11154.99
461.31	11309.47
461.49	11033.29
461.67	10946.69
461.85	11222.87
462.04	11358.62
462.22	11672.25
462.40	11559.91
462.59	11365.64
462.77	11452.24
462.95	11779.92
463.13	11735.45
463.32	11772.89
463.50	11758.85
463.68	11737.79
463.86	11765.87
464.05	11674.59
464.23	11651.19
464.41	11896.94
464.59	11597.35
464.78	12159.08
464.96	12257.39
465.14	11854.81
465.32	12063.12
465.50	12077.16
465.69	12278.45
465.87	12280.79
466.05	12051.42
466.23	12149.72
466.41	12238.66
466.60	12428.24
466.78	12259.73
466.96	12325.26
467.14	12266.75
467.32	12507.82
467.51	12556.97
467.69	12423.56
467.87	12486.76
468.05	12615.49
468.23	12437.61
468.41	12362.71
468.60	12760.60
468.78	12828.48
468.96	12500.80
469.14	13008.70
469.32	13025.08
469.50	12681.02
469.69	12905.71
469.87	12994.65
470.05	13195.94
470.23	13013.38
470.41	13078.91
470.59	13366.80
470.77	13118.70
470.95	13355.10
471.14	13507.23
471.32	13364.46
471.50	13624.26
471.68	13771.71
471.86	13514.25
472.04	13575.11
472.22	14127.47
472.40	13645.32
472.58	13731.92
472.77	14068.96
472.95	14115.77
473.13	14754.74
473.31	14230.46
473.49	13965.98
473.67	14256.20
473.85	14190.67
474.03	14487.92
474.21	14600.26
474.39	14712.61
474.57	14890.49
474.75	15000.49
474.93	14965.39
475.12	15023.90
475.30	15124.54
475.48	14960.70
475.66	15419.45
475.84	15232.21
476.02	15349.23
476.20	15138.58
476.38	15812.66
476.56	15885.22
476.74	16049.05
476.92	15756.49
477.10	15824.36
477.28	16229.27
477.46	16147.36
477.64	16035.01
477.82	16783.98
478.00	17088.25
478.18	17102.29
478.36	16737.17
478.54	17121.02
478.72	17137.40
478.90	17385.50
479.08	17514.23
479.26	18019.78
479.44	17563.38
479.62	17820.84
479.80	18284.26
479.98	18277.24
480.16	18560.45
480.34	18429.38
480.52	18810.89
480.70	18555.77
480.88	18452.78
481.06	18803.86
481.24	18841.31
481.41	18848.33
481.59	19283.67
481.77	19407.72
481.95	19442.83
482.13	19477.94
482.31	19475.60
482.49	20341.60
482.67	20184.78
482.85	20585.01
483.03	20559.27
483.21	20652.89
483.39	20989.92
483.57	20826.09
483.74	20959.50
483.92	21259.09
484.10	21553.99
484.28	21596.12
484.46	22047.85
484.64	22265.52
484.82	22003.38
485.00	22923.21
485.18	22920.87
485.35	22988.74
485.53	23082.36
485.71	23063.64
485.89	23655.79
486.07	23555.15
486.25	23721.33
486.43	23819.63
486.61	23491.96
486.78	23924.96
486.96	24177.73
487.14	24627.12
487.32	24603.71
487.50	24783.93
487.68	24807.34
487.85	25542.27
488.03	25860.58
488.21	25750.57
488.39	25652.27
488.57	26244.43
488.75	26314.64
488.92	26560.40
489.10	26801.47
489.28	26700.83
489.46	27084.68
489.64	27194.68
489.81	27365.54
489.99	27604.28
490.17	27660.45
490.35	28135.58
490.53	28423.47
490.70	28449.21
490.88	28496.02
491.06	28966.47
491.24	29029.66
491.41	29029.66
491.59	29687.36
491.77	29326.91
491.95	29659.27
492.13	29881.62
492.30	30075.88
492.48	29860.55
492.66	30551.01
492.84	30342.70
493.01	30789.75
493.19	30773.36
493.37	30885.71
493.54	31035.50
493.72	31419.35
493.90	31454.46
494.08	31604.25
494.25	32177.68
494.43	31882.78
494.61	32584.94
494.79	32673.88
494.96	32779.20
495.14	32844.74
495.32	33352.63
495.49	33401.79
495.67	33287.10
495.85	33635.84
496.02	34054.79
496.20	33799.68
496.38	34220.97
496.55	34398.85
496.73	34864.62
496.91	34787.38
497.09	34572.05
497.26	35274.21
497.44	35215.70
497.62	35192.30
497.79	36030.21
497.97	35454.44
498.14	35955.31
498.32	35955.31
498.50	36659.81
498.67	36814.29
498.85	36762.79
499.03	36430.44
499.20	36519.38
499.38	36912.59
499.56	37380.70
499.73	37441.55
499.91	37436.87
500.08	37811.35
500.26	37687.31
500.44	37563.26
500.61	37879.23
500.79	37799.65
500.97	37624.11
501.14	38398.83
501.32	38366.06
501.49	38352.02
501.67	38719.48
501.84	39330.36
502.02	38686.71
502.20	39210.99
502.37	39419.30
502.55	39246.10
502.72	39538.67
502.90	39620.59
503.07	39819.53
503.25	39723.57
503.43	39896.77
503.60	40081.67
503.78	40175.30
503.95	40336.79
504.13	40772.13
504.30	40779.15
504.48	40392.97
504.65	40727.66
504.83	41219.17
505.01	41268.33
505.18	41411.10
505.36	41469.61
505.53	41219.17
505.71	41483.66
505.88	42160.07
506.06	41993.89
506.23	42146.03
506.41	41998.57
506.58	42227.95
506.76	42485.40
506.93	42258.37
507.11	42307.52
507.28	43147.78
507.46	42658.60
507.63	43196.93
507.81	43370.13
507.98	43136.07
508.16	43721.21
508.33	43363.11
508.50	44093.35
508.68	43526.94
508.85	43606.52
509.03	43988.03
509.20	43782.06
509.38	44196.34
509.55	44381.24
509.73	44348.47
509.90	44872.75
510.08	44327.41
510.25	44734.66
510.42	44737.00
510.60	44865.73
510.77	45062.33
510.95	45425.12
511.12	45322.13
511.30	45029.57
511.47	45598.32
511.64	45851.09
511.82	45453.20
511.99	45965.78
512.17	45689.60
512.34	45551.51
512.51	46461.97
512.69	46382.40
512.86	46078.13
513.04	46667.94
513.21	46791.99
513.38	46916.04
513.56	47014.34
513.73	46532.19
513.90	47175.84
514.08	46759.22
514.25	47306.91
514.43	47281.16
514.60	47707.14
514.77	47730.54
514.95	47372.44
515.12	47950.56
515.29	47845.23
515.47	48041.84
515.64	47824.17
515.81	47840.55
515.99	48100.35
516.16	48648.03
516.33	48119.07
516.51	48865.70
516.68	48591.86
516.85	48275.89
517.03	48755.70
517.20	48846.98
517.37	48956.99
517.54	49310.41
517.72	48903.15
517.89	49113.80
518.06	49277.64
518.24	49277.64
518.41	49471.90
518.58	49310.41
518.75	49254.23
518.93	49712.98
519.10	49389.98
519.27	49787.88
519.45	49804.26
519.62	50136.62
519.79	50167.04
519.96	49701.28
520.14	50270.03
520.31	50288.75
520.48	50459.61
520.65	50501.74
520.83	50815.37
521.00	50773.24
521.17	50330.88
521.34	50841.12
521.52	50663.24
521.69	50803.67
521.86	51318.59
522.03	51370.08
522.20	51295.18
522.38	51622.86
522.55	51447.32
522.72	51510.51
522.89	51531.57
523.07	51866.27
523.24	51657.96
523.41	51875.63
523.58	51606.47
523.75	52119.05
523.92	51627.54
524.10	52046.49
524.27	51985.64
524.44	52257.14
524.61	52186.92
524.78	52236.08
524.96	52385.87
525.13	52264.16
525.30	52769.72
525.47	52561.41
525.64	52523.96
525.81	52776.74
525.98	52633.97
526.16	52580.13
526.33	52556.73
526.50	53020.16
526.67	52907.81
526.84	53034.20
527.01	52809.51
527.18	53139.52
527.36	53071.65
527.53	52921.85
527.70	53301.02
527.87	53521.03
528.04	53279.96
528.21	53591.25
528.38	53532.73
528.55	53715.29
528.72	53396.98
528.89	53666.14
529.07	53694.23
529.24	53638.06
529.41	53645.08
529.58	53750.40
529.75	53797.21
529.92	53844.02
530.09	53881.47
530.26	53991.48
530.43	54225.53
530.60	53619.33
530.77	53647.42
530.94	54408.09
531.11	54096.80
531.28	54342.56
531.46	54300.43
531.63	54167.02
531.80	54363.62
531.97	54653.85
532.14	54534.48
532.31	54387.03
532.48	54543.84
532.65	54646.83
532.82	54445.54
532.99	54693.64
533.16	54658.53
533.33	54817.69
533.50	54637.47
533.67	54745.13
533.84	54873.86
534.01	54953.44
534.18	55075.15
534.35	55262.39
534.52	55009.61
534.69	55098.55
534.86	55512.83
535.03	55025.99
535.20	55288.13
535.37	55238.98
535.54	55379.42
535.71	55311.54
535.88	55498.78
536.05	55278.77
536.22	55550.27
536.38	55482.40
536.55	55456.65
536.72	55781.99
536.89	55533.89
537.06	55608.79
537.23	56081.58
537.40	55531.55
537.57	55870.93
537.74	55859.23
537.91	56210.31
538.08	56046.47
538.25	55732.84
538.42	55941.14
538.59	56107.32
538.75	55810.07
538.92	56055.83
539.09	56243.07
539.26	56130.73
539.43	56177.54
539.60	56184.56
539.77	56112.00
539.94	56413.93
540.11	56390.53
540.28	56142.43
540.44	56589.47
540.61	56566.07
540.78	56516.92
540.95	56502.87
541.12	56427.98
541.29	56458.40
541.46	56353.08
541.62	56704.16
541.79	56750.97
541.96	56437.34
542.13	56652.67
542.30	56811.82
542.47	56947.57
542.63	56701.82
542.80	56750.97
542.97	57102.05
543.14	57298.65
543.31	57176.95
543.48	57434.41
543.64	57315.04
543.81	57532.71
543.98	57230.78
544.15	57418.02
544.32	57471.85
544.48	57488.24
544.65	57361.85
544.82	57502.28
544.99	57319.72
545.16	57476.54
545.32	57490.58
545.49	57773.78
545.66	57808.89
545.83	57497.60
546.00	57853.36
546.16	57811.23
546.33	57680.16
546.50	57591.22
546.67	57731.65
546.83	57551.43
547.00	57818.25
547.17	57841.66
547.34	57991.45
547.50	58089.76
547.67	58159.97
547.84	57923.58
548.00	58312.11
548.17	58010.18
548.34	57998.48
548.51	58466.58
548.67	58131.89
548.84	58372.96
549.01	58206.78
549.18	58277.00
549.34	58501.69
549.51	58433.81
549.68	58396.37
549.84	58590.63
550.01	58557.86
550.18	58326.15
550.34	58508.71
550.51	58494.67
550.68	58450.20
550.84	58237.21
551.01	58562.54
551.18	58578.93
551.34	58585.95
551.51	58632.76
551.68	58543.82
551.84	58604.67
552.01	58255.93
552.18	58637.44
552.34	58824.68
552.51	58876.18
552.68	58616.38
552.84	58714.68
553.01	58915.96
553.18	58864.47
553.34	58904.26
553.51	58791.92
553.67	58866.81
553.84	59091.51
554.01	58976.82
554.17	59040.01
554.34	59159.38
554.51	59082.14
554.67	59196.83
554.84	59105.55
555.00	59185.13
555.17	59063.42
555.33	59227.26
555.50	58986.18
555.67	59075.12
555.83	59021.29
556.00	59185.13
556.16	59461.31
556.33	59412.16
556.50	59274.07
556.66	59714.09
556.83	59175.76
556.99	59224.92
557.16	59552.59
557.32	59568.97
557.49	59709.41
557.65	59400.46
557.82	59449.61
557.98	59327.90
558.15	59405.14
558.32	59475.35
558.48	59299.81
558.65	59622.81
558.81	59714.09
558.98	59632.17
559.14	59807.71
559.31	59714.09
559.47	59863.88
559.64	59737.49
559.80	59788.98
559.97	59887.29
560.13	59501.10
560.30	59777.28
560.46	59650.89
560.63	59732.81
560.79	59908.35
560.96	59767.92
561.12	59903.67
561.29	60020.70
561.45	59856.86
561.61	59999.63
561.78	59519.82
561.94	59978.57
562.11	59819.41
562.27	59845.16
562.44	59990.27
562.60	60058.15
562.77	60023.04
562.93	60009.00
563.10	59891.97
563.26	60130.70
563.42	60168.15
563.59	60032.40
563.75	60116.66
563.92	59945.80
564.08	60018.36
564.24	60161.13
564.41	60006.65
564.57	60102.62
564.74	60252.41
564.90	60217.30
565.07	60023.04
565.23	60214.96
565.39	60072.19
565.56	60374.12
565.72	60317.95
565.88	60065.17
566.05	60104.96
566.21	60329.65
566.38	60301.56
566.54	60207.94
566.70	60385.82
566.87	60540.30
567.03	60130.70
567.19	60378.80
567.36	60444.33
567.52	60282.84
567.68	60477.10
567.85	60479.44
568.01	60449.02
568.17	60472.42
568.34	60453.70
568.50	60416.25
568.66	60285.18
568.83	60514.55
568.99	60336.67
569.15	60479.44
569.32	60416.25
569.48	60535.62
569.64	60537.96
569.81	60275.82
569.97	60388.16
570.13	60729.88
570.30	60542.64
570.46	60514.55
570.62	60818.82
570.78	60488.80
570.95	60617.53
571.11	60509.87
571.27	60444.33
571.43	60399.86
571.60	60736.90
571.76	60706.47
571.92	60484.12
572.09	60446.68
572.25	60453.70
572.41	60488.80
572.57	60643.28
572.74	60687.75
572.90	60687.75
573.06	60591.79
573.22	60669.03
573.38	60938.19
573.55	60706.47
573.71	60931.17
573.87	60711.16
574.03	60624.56
574.20	60722.86
574.36	60673.71
574.52	60795.42
574.68	60832.86
574.84	60863.29
575.01	60720.52
575.17	60814.14
575.33	60706.47
575.49	60706.47
575.65	60804.78
575.82	60783.71
575.98	60952.23
576.14	60938.19
576.30	60858.61
576.46	60760.31
576.62	60772.01
576.79	60612.85
576.95	60591.79
577.11	60917.12
577.27	60877.33
577.43	61010.74
577.59	60427.95
577.75	60898.40
577.92	60769.67
578.08	60872.65
578.24	60884.36
578.40	61013.08
578.56	61057.56
578.72	61085.64
578.88	60931.17
579.04	61153.52
579.21	60905.42
579.37	61160.54
579.53	61031.81
579.69	60788.39
579.85	61036.49
580.01	60996.70
580.17	60903.08
580.33	61190.97
580.49	61080.96
580.65	61001.38
580.82	60849.25
580.98	60671.37
581.14	60975.64
581.30	61085.64
581.46	60678.39
581.62	61090.32
581.78	60985.00
581.94	60975.64
582.10	60900.74
582.26	60912.44
582.42	61059.90
582.58	60917.12
582.74	61024.79
582.90	60938.19
583.06	61057.56
583.22	60507.53
583.38	60926.49
583.54	61006.06
583.70	61111.39
583.86	61064.58
584.02	60996.70
584.18	61158.20
584.34	61214.37
584.50	60985.00
584.66	60874.99
584.82	60947.55
584.98	61106.71
585.14	61153.52
585.30	61024.79
585.46	60961.59
585.62	61036.49
585.78	61153.52
585.94	60818.82
586.10	60973.30
586.26	61087.98
586.42	61045.85
586.58	61132.45
586.74	61015.43
586.90	60985.00
587.06	60900.74
587.22	61179.26
587.38	60860.95
587.54	61148.84
587.70	61221.39
587.86	61235.44
588.02	61076.28
588.18	61209.69
588.34	61111.39
588.49	61008.40
