SpectraSuite Data File
++++++++++++++++++++++++++++++++++++
Date: Fri Oct 25 11:23:08 EDT 2013
User: price-jones
Dark Spectrum Present: No
Reference Spectrum Present: No
Number of Sampled Component Spectra: 1
Spectrometers: USB2+H05261
Integration Time (usec): 100000 (USB2+H05261)
Spectra Averaged: 1 (USB2+H05261)
Boxcar Smoothing: 0 (USB2+H05261)
Correct for Electrical Dark: No (USB2+H05261)
Strobe/Lamp Enabled: No (USB2+H05261)
Correct for Detector Non-linearity: No (USB2+H05261)
Correct for Stray Light: No (USB2+H05261)
Number of Pixels in Processed Spectrum: 2048
>>>>>Begin Processed Spectral Data<<<<<
365.73	236.39
365.92	236.39
366.12	236.39
366.32	212.99
366.52	147.45
366.72	145.11
366.91	117.03
367.11	154.48
367.31	100.64
367.51	140.43
367.70	107.66
367.90	119.37
368.10	112.35
368.30	107.66
368.49	138.09
368.69	220.01
368.89	215.33
369.09	205.97
369.28	112.35
369.48	145.11
369.68	166.18
369.87	170.86
370.07	227.03
370.27	227.03
370.47	299.59
370.66	564.07
370.86	692.80
371.06	636.63
371.25	685.78
371.45	538.32
371.65	636.63
371.84	650.67
372.04	737.27
372.24	706.84
372.44	657.69
372.63	767.70
372.83	805.14
373.03	685.78
373.22	767.70
373.42	727.91
373.62	833.23
373.81	758.33
374.01	758.33
374.21	812.17
374.40	777.06
374.60	828.55
374.79	739.61
374.99	837.91
375.19	751.31
375.38	870.68
375.58	833.23
375.78	875.36
375.97	840.25
376.17	896.43
376.37	837.91
376.56	828.55
376.76	795.78
376.95	800.46
377.15	891.74
377.35	905.79
377.54	889.40
377.74	884.72
377.93	912.81
378.13	915.15
378.33	1013.45
378.52	926.85
378.72	931.53
378.91	999.41
379.11	957.28
379.31	856.64
379.50	978.34
379.70	957.28
379.89	959.62
380.09	1032.18
380.28	983.02
380.48	973.66
380.68	947.92
380.87	1008.77
381.07	1041.54
381.26	940.90
381.46	1083.67
381.65	990.05
381.85	1011.11
382.04	1060.26
382.24	1036.86
382.43	1062.60
382.63	1006.43
382.83	1034.52
383.02	1107.07
383.22	1086.01
383.41	1088.35
383.61	1090.69
383.80	1114.10
384.00	1034.52
384.19	1123.46
384.39	1167.93
384.58	1130.48
384.78	1128.14
384.97	1170.27
385.17	1071.97
385.36	1088.35
385.56	1196.01
385.75	1100.05
385.95	1186.65
386.14	1196.01
386.34	1142.18
386.53	1228.78
386.72	1181.97
386.92	1252.19
387.11	1214.74
387.31	1165.59
387.50	1210.06
387.70	1188.99
387.89	1221.76
388.09	1263.89
388.28	1303.68
388.48	1277.93
388.67	1228.78
388.86	1270.91
389.06	1270.91
389.25	1394.96
389.45	1369.21
389.64	1280.27
389.84	1444.11
390.03	1387.94
390.22	1390.28
390.42	1390.28
390.61	1425.39
390.81	1394.96
391.00	1406.66
391.19	1451.13
391.39	1437.09
391.58	1490.92
391.78	1413.68
391.97	1432.41
392.16	1434.75
392.36	1568.16
392.55	1511.99
392.75	1448.79
392.94	1593.90
393.13	1488.58
393.33	1462.83
393.52	1577.52
393.71	1682.85
393.91	1551.78
394.10	1596.25
394.29	1516.67
394.49	1659.44
394.68	1619.65
394.88	1614.97
395.07	1701.57
395.26	1706.25
395.46	1596.25
395.65	1678.16
395.84	1713.27
396.04	1858.39
396.23	1715.61
396.42	1762.42
396.62	1778.81
396.81	1746.04
397.00	1746.04
397.19	1769.44
397.39	1907.54
397.58	1867.75
397.77	1844.34
397.97	1959.03
398.16	1865.41
398.35	1830.30
398.55	1921.58
398.74	1886.47
398.93	1879.45
399.12	1926.26
399.32	1860.73
399.51	1928.60
399.70	2101.80
399.90	2052.65
400.09	1919.24
400.28	2099.46
400.47	2033.93
400.67	2108.82
400.86	2031.58
401.05	2195.42
401.24	2155.63
401.44	2101.80
401.63	2160.31
401.82	2134.57
402.01	2237.55
402.21	2122.87
402.40	2190.74
402.59	2162.66
402.78	2225.85
402.97	2143.93
403.17	2305.43
403.36	2111.16
403.55	2270.32
403.74	2373.30
403.93	2385.01
404.13	2300.75
404.32	2401.39
404.51	2504.37
404.70	2527.78
404.89	2424.80
405.09	2438.84
405.28	2466.92
405.47	2548.84
405.66	2534.80
405.85	2614.38
406.05	2558.21
406.24	2677.57
406.43	2537.14
406.62	2600.34
406.81	2651.83
407.00	2635.44
407.20	2640.12
407.39	2717.36
407.58	2696.30
407.77	2815.66
407.96	2708.00
408.15	2796.94
408.34	2626.08
408.54	2740.77
408.73	2806.30
408.92	2810.98
409.11	2991.20
409.30	2967.80
409.49	2951.42
409.68	2993.55
409.87	2953.76
410.07	3005.25
410.26	3061.42
410.45	2995.89
410.64	3059.08
410.83	3033.33
411.02	3061.42
411.21	3234.62
411.40	3239.30
411.59	3258.03
411.78	3243.98
411.98	3211.22
412.17	3258.03
412.36	3349.31
412.55	3330.58
412.74	3403.14
412.93	3562.30
413.12	3377.39
413.31	3517.83
413.50	3473.36
413.69	3454.63
413.88	3517.83
414.07	3627.83
414.26	3702.73
414.45	3845.50
414.64	3679.32
414.83	3808.05
415.02	3868.91
415.22	3854.86
415.41	3880.61
415.60	3885.29
415.79	4014.02
415.98	3974.23
416.17	4049.13
416.36	3913.38
416.55	3974.23
416.74	4098.28
416.93	4140.41
417.12	4170.83
417.31	4236.37
417.50	4189.56
417.69	4205.94
417.88	4294.88
418.07	4278.50
418.26	4383.82
418.45	4337.01
418.64	4599.15
418.83	4348.72
419.02	4512.55
419.21	4390.84
419.39	4566.39
419.58	4554.68
419.77	4545.32
419.96	4573.41
420.15	4697.46
420.34	4716.18
420.53	4685.75
420.72	4842.57
420.91	4781.71
421.10	4765.33
421.29	4732.56
421.48	4798.10
421.67	4851.93
421.86	4788.74
422.05	4847.25
422.24	4807.46
422.43	4786.40
422.61	4917.47
422.80	5027.47
422.99	5083.64
423.18	4847.25
423.37	5057.90
423.56	4954.91
423.75	4992.36
423.94	4807.46
424.13	4617.88
424.32	4823.84
424.50	4994.70
424.69	5153.86
424.88	5076.62
425.07	4994.70
425.26	4880.02
425.45	4983.00
425.64	5032.15
425.83	4901.08
426.01	5146.84
426.20	5111.73
426.39	5074.28
426.58	5095.35
426.77	5025.13
426.96	5184.29
427.15	5139.82
427.33	5259.18
427.52	5268.55
427.71	5238.12
427.90	5284.93
428.09	5315.36
428.28	5320.04
428.46	5521.32
428.65	5343.44
428.84	5582.18
429.03	5575.16
429.22	5458.13
429.40	5387.91
429.59	5568.13
429.78	5345.78
429.97	5373.87
430.16	5502.60
430.34	5612.60
430.53	5734.31
430.72	5729.63
430.91	5638.35
431.10	5738.99
431.28	5736.65
431.47	5898.15
431.66	5881.77
431.85	5937.94
432.03	5837.30
432.22	6080.71
432.41	5968.37
432.60	5970.71
432.79	6040.92
432.97	6097.10
433.16	5893.47
433.35	6008.16
433.54	6033.90
433.72	6071.35
433.91	5989.43
434.10	6090.07
434.28	6223.48
434.47	6244.55
434.66	6361.58
434.85	6359.24
435.03	6424.77
435.22	6352.21
435.41	6600.31
435.59	6485.62
435.78	6626.06
435.97	6494.99
436.16	6576.91
436.34	6469.24
436.53	6689.25
436.72	6590.95
436.90	6537.12
437.09	6637.76
437.28	6497.33
437.46	6722.02
437.65	6703.29
437.84	6909.26
438.02	6881.18
438.21	6972.46
438.40	6780.53
438.58	7108.21
438.77	7084.80
438.96	7119.91
439.14	7171.40
439.33	7220.55
439.52	7419.50
439.70	7236.94
439.89	7581.00
440.08	7461.63
440.26	7358.64
440.45	7552.91
440.63	7428.86
440.82	7805.69
441.01	7538.87
441.19	7880.58
441.38	7889.95
441.57	7798.66
441.75	7777.60
441.94	8100.59
442.12	8046.76
442.31	8149.75
442.50	7939.10
442.68	8037.40
442.87	8093.57
443.05	8079.53
443.24	8248.05
443.43	8128.68
443.61	8224.64
443.80	8414.23
443.98	8142.72
444.17	7833.77
444.35	8114.64
444.54	8557.00
444.73	8269.11
444.91	8201.24
445.10	8458.70
445.28	8383.80
445.47	8414.23
445.65	8414.23
445.84	8709.13
446.02	8554.66
446.21	8716.16
446.39	8571.04
446.58	8578.06
446.77	8512.53
446.95	8468.06
447.14	8505.51
447.32	8648.28
447.51	8589.77
447.69	8505.51
447.88	8465.72
448.06	8664.66
448.25	8540.61
448.43	8746.58
448.62	8538.27
448.80	8526.57
448.99	8645.94
449.17	8884.67
449.36	8589.77
449.54	8889.35
449.73	8887.01
449.91	9114.05
450.10	9020.42
450.28	9294.27
450.46	9240.44
450.65	8980.64
450.83	9259.16
451.02	9202.99
451.20	9139.79
451.39	9280.22
451.57	9270.86
451.76	9273.20
451.94	9177.24
452.13	9399.59
452.31	9437.04
452.49	9427.68
452.68	9518.96
452.86	9406.61
453.05	9668.75
453.23	9514.28
453.42	9277.88
453.60	9423.00
453.78	9589.17
453.97	9706.20
454.15	9734.29
454.34	9558.75
454.52	9788.12
454.70	9738.97
454.89	9820.89
455.07	9975.36
455.26	9905.15
455.44	10064.30
455.62	9844.29
455.81	10017.49
455.99	10064.30
456.17	10260.91
456.36	9989.41
456.54	10274.95
456.73	10289.00
456.91	10619.01
457.09	10572.20
457.28	10780.51
457.46	10150.90
457.64	10471.56
457.83	10572.20
458.01	10303.04
458.19	10792.21
458.38	10604.97
458.56	11012.22
458.74	10780.51
458.93	10836.68
459.11	10785.19
459.29	10923.28
459.48	10850.72
459.66	10890.51
459.84	10939.66
460.03	11260.32
460.21	11103.50
460.39	11023.92
460.57	11178.40
460.76	11154.99
460.94	11243.93
461.12	11307.13
461.31	11414.79
461.49	11213.51
461.67	11321.17
461.85	11714.38
462.04	11405.43
462.22	11714.38
462.40	11702.68
462.59	11604.38
462.77	11817.36
462.95	11826.73
463.13	11639.48
463.32	11791.62
463.50	11889.92
463.68	11922.69
463.86	12294.83
464.05	11700.34
464.23	11824.39
464.41	12212.92
464.59	11859.49
464.78	12348.67
464.96	12032.69
465.14	11927.37
465.32	12273.77
465.50	12135.68
465.69	12320.58
465.87	12299.52
466.05	12219.94
466.23	12098.23
466.41	12367.39
466.60	12531.23
466.78	12285.47
466.96	12381.43
467.14	12262.07
467.32	12606.13
467.51	12641.23
467.69	12285.47
467.87	12699.75
468.05	12973.59
468.23	12599.10
468.41	12674.00
468.60	12819.11
468.78	12837.84
468.96	12606.13
469.14	12800.39
469.32	13062.53
469.50	12601.44
469.69	13123.38
469.87	13406.59
470.05	13123.38
470.23	13193.60
470.41	13259.13
470.59	13455.74
470.77	13490.85
470.95	13387.86
471.14	13521.27
471.32	13542.34
471.50	13650.00
471.68	13607.87
471.86	13745.97
472.04	13865.33
472.22	14157.90
472.40	13741.29
472.58	14071.30
472.77	14010.45
472.95	14483.24
473.13	14703.25
473.31	14113.43
473.49	14080.66
473.67	14139.18
473.85	14714.95
474.03	14974.75
474.21	14736.01
474.39	14920.92
474.57	14806.23
474.75	15080.07
474.93	15344.55
475.12	15119.86
475.30	15594.99
475.48	15037.94
475.66	15480.30
475.84	15431.15
476.02	15688.61
476.20	15548.18
476.38	15971.82
476.56	16322.90
476.74	15990.54
476.92	16025.65
477.10	15829.04
477.28	16390.77
477.46	16152.04
477.64	16372.05
477.82	16608.44
478.00	17060.16
478.18	17235.70
478.36	17121.02
478.54	17139.74
478.72	17355.07
478.90	17589.13
479.08	17778.71
479.26	17989.36
479.44	18043.19
479.62	18059.57
479.80	18506.62
479.98	18146.17
480.16	18916.21
480.34	18080.64
480.52	18810.89
480.70	18668.11
480.88	18773.44
481.06	19096.43
481.24	18860.04
481.41	19176.01
481.59	19620.71
481.77	19679.22
481.95	19831.36
482.13	19922.64
482.31	20116.90
482.49	20695.02
482.67	20299.47
482.85	20847.15
483.03	20762.89
483.21	20971.20
483.39	21135.04
483.57	21245.04
483.74	21200.57
483.92	21418.24
484.10	21678.04
484.28	21788.05
484.46	22448.08
484.64	22515.95
484.82	21916.78
485.00	22609.58
485.18	22927.89
485.35	23269.61
485.53	22904.48
485.71	23309.40
485.89	23803.25
486.07	23384.29
486.25	23840.70
486.43	23669.84
486.61	24304.12
486.78	24290.08
486.96	24318.17
487.14	24842.45
487.32	25200.55
487.50	24982.88
487.68	25528.22
487.85	25724.83
488.03	25642.91
488.21	25818.45
488.39	26122.72
488.57	26309.96
488.75	26529.97
488.92	26492.52
489.10	26937.23
489.28	27084.68
489.46	27229.79
489.64	26855.31
489.81	27749.39
489.99	27852.38
490.17	27782.16
490.35	28556.88
490.53	28259.63
490.70	28687.95
490.88	28687.95
491.06	29102.22
491.24	29244.99
491.41	29596.07
491.59	29645.23
491.77	29785.66
491.95	29750.55
492.13	30017.37
492.30	30375.47
492.48	30122.69
492.66	30349.73
492.84	30656.34
493.01	30986.35
493.19	30986.35
493.37	31426.37
493.54	31358.50
493.72	32196.41
493.90	31641.70
494.08	31908.52
494.25	32187.05
494.43	32210.45
494.61	32474.93
494.79	32713.67
494.96	32699.62
495.14	33184.12
495.32	33799.68
495.49	33769.25
495.67	33340.93
495.85	34256.08
496.02	34195.23
496.20	34068.84
496.38	34291.19
496.55	34405.88
496.73	35117.40
496.91	34960.58
497.09	35213.36
497.26	35665.08
497.44	35323.36
497.62	35562.10
497.79	36194.04
497.97	36151.91
498.14	36535.76
498.32	36343.84
498.50	36357.88
498.67	36830.67
498.85	37053.02
499.03	37413.46
499.20	36905.57
499.38	37053.02
499.56	37420.48
499.73	37471.98
499.91	37493.04
500.08	37799.65
500.26	37893.27
500.44	38340.32
500.61	38225.63
500.79	38359.04
500.97	38511.17
501.14	38787.36
501.32	38986.30
501.49	38792.04
501.67	39075.24
501.84	39494.20
502.02	39318.66
502.20	39482.50
502.37	39372.49
502.55	39433.35
502.72	39585.48
502.90	40535.74
503.07	39704.85
503.25	40554.46
503.43	40289.98
503.60	40411.69
503.78	40807.24
503.95	40957.03
504.13	40898.52
504.30	40673.83
504.48	40655.11
504.65	41029.59
504.83	41020.23
505.01	41116.19
505.18	41673.24
505.36	41858.14
505.53	41738.77
505.71	42232.63
505.88	42209.22
506.06	41804.31
506.23	42871.59
506.41	42153.05
506.58	42665.63
506.76	42410.51
506.93	42831.80
507.11	42375.40
507.28	42677.33
507.46	43072.88
507.63	43154.80
507.81	43594.82
507.98	43412.26
508.16	43379.49
508.33	43498.86
508.50	43723.55
508.68	44039.52
508.85	44502.95
509.03	44292.30
509.20	44662.10
509.38	44879.77
509.55	44802.53
509.73	44346.13
509.90	45221.49
510.08	45368.94
510.25	45036.59
510.42	45074.04
510.60	45308.09
510.77	45450.86
510.95	46174.09
511.12	45490.65
511.30	45181.70
511.47	46066.42
511.64	45935.35
511.82	46265.37
511.99	46010.25
512.17	46337.93
512.34	46394.10
512.51	46623.47
512.69	46777.95
512.86	46873.91
513.04	47227.33
513.21	47131.37
513.38	47407.55
513.56	46988.60
513.73	47110.30
513.90	47538.62
514.08	47452.02
514.25	47896.72
514.43	47538.62
514.60	47763.31
514.77	47662.67
514.95	47988.00
515.12	48170.57
515.29	48179.93
515.47	48425.68
515.64	48299.30
515.81	48229.08
515.99	48346.11
516.16	48935.92
516.33	49003.80
516.51	48594.20
516.68	48425.68
516.85	48942.94
517.03	49294.02
517.20	49291.68
517.37	49294.02
517.54	49308.07
517.72	49160.61
517.89	49670.85
518.06	49563.18
518.24	49640.42
518.41	49720.00
518.58	49595.95
518.75	49420.41
518.93	50012.57
519.10	50099.17
519.27	49890.86
519.45	50028.95
519.62	50506.42
519.79	50272.37
519.96	50604.72
520.14	50651.53
520.31	50157.68
520.48	50660.90
520.65	50623.45
520.83	51110.28
521.00	51201.56
521.17	51054.11
521.34	51182.84
521.52	51140.71
521.69	51075.17
521.86	51363.06
522.03	51585.41
522.20	51751.59
522.38	51681.37
522.55	51657.96
522.72	51622.86
522.89	51643.92
523.07	52163.52
523.24	51922.44
523.41	52163.52
523.58	51746.90
523.75	52163.52
523.92	52123.73
524.10	52343.74
524.27	52500.56
524.44	52350.76
524.61	52610.56
524.78	52662.05
524.96	52472.47
525.13	52706.52
525.30	52800.15
525.47	52825.89
525.64	52633.97
525.81	52769.72
525.98	52928.87
526.16	53006.11
526.33	53256.55
526.50	53265.91
526.67	53214.42
526.84	53024.84
527.01	53031.86
527.18	53263.57
527.36	53153.57
527.53	53471.88
527.70	53722.32
527.87	53719.98
528.04	53621.67
528.21	53769.13
528.38	53443.79
528.55	53963.39
528.72	53607.63
528.89	53757.42
529.07	53563.16
529.24	53654.44
529.41	54038.29
529.58	53979.78
529.75	54124.89
529.92	54124.89
530.09	54049.99
530.26	54527.46
530.43	54391.71
530.60	54185.74
530.77	54075.74
530.94	54541.50
531.11	54234.89
531.28	54321.49
531.46	54625.76
531.63	54391.71
531.80	54384.69
531.97	54562.57
532.14	54749.81
532.31	54607.04
532.48	54899.61
532.65	55065.78
532.82	54731.09
532.99	55119.62
533.16	54946.42
533.33	54990.89
533.50	55388.78
533.67	54925.35
533.84	54759.17
534.01	55171.11
534.18	55072.81
534.35	55494.10
534.52	55379.42
534.69	55358.35
534.86	55405.16
535.03	55391.12
535.20	55583.04
535.37	55683.69
535.54	55786.67
535.71	55592.40
535.88	55648.58
536.05	55700.07
536.22	55697.73
536.38	56006.68
536.55	55774.97
536.72	55840.50
536.89	55852.20
537.06	55931.78
537.23	56161.15
537.40	55908.38
537.57	55927.10
537.74	56102.64
537.91	56296.91
538.08	56179.88
538.25	56133.07
538.42	56126.05
538.59	56280.52
538.75	56039.45
538.92	56200.94
539.09	56420.95
539.26	56324.99
539.43	56413.93
539.60	56519.26
539.77	56343.72
539.94	56629.26
540.11	56732.25
540.28	56968.64
540.44	56624.58
540.61	56804.80
540.78	56633.94
540.95	56580.11
541.12	56739.27
541.29	56662.03
541.46	56872.68
541.62	56741.61
541.79	56877.36
541.96	56664.37
542.13	56788.42
542.30	56924.17
542.47	57310.36
542.63	57214.40
542.80	57064.60
542.97	57396.96
543.14	57380.57
543.31	57256.53
543.48	57495.26
543.64	57712.93
543.81	57595.90
543.98	57717.61
544.15	57659.10
544.32	57663.78
544.48	57904.85
544.65	57537.39
544.82	57792.51
544.99	57525.69
545.16	57612.29
545.32	57595.90
545.49	58017.20
545.66	58099.12
545.83	57874.43
546.00	57932.94
546.16	57822.93
546.33	57932.94
546.50	57698.89
546.67	57881.45
546.83	57698.89
547.00	58131.89
547.17	57986.77
547.34	58026.56
547.50	58274.66
547.67	58176.36
547.84	58141.25
548.00	58499.35
548.17	58461.90
548.34	58525.10
548.51	58546.16
548.67	58658.51
548.84	58541.48
549.01	58557.86
549.18	58560.20
549.34	58539.14
549.51	58433.81
549.68	58803.62
549.84	58635.10
550.01	58632.76
550.18	58651.48
550.34	58604.67
550.51	58770.85
550.68	58590.63
550.84	58506.37
551.01	58990.86
551.18	58768.51
551.34	58843.41
551.51	58817.66
551.68	58749.79
551.84	58850.43
552.01	58728.72
552.18	58937.03
552.34	58871.49
552.51	59042.35
552.68	58791.92
552.84	59241.30
553.01	59110.23
553.18	58911.28
553.34	59255.34
553.51	58859.79
553.67	58812.98
553.84	59325.56
554.01	59260.02
554.17	59178.10
554.34	59351.30
554.51	59126.61
554.67	59276.41
554.84	59433.22
555.00	59267.05
555.17	59110.23
555.33	59334.92
555.50	59262.36
555.67	59070.44
555.83	59267.05
556.00	59395.77
556.16	59723.45
556.33	59529.19
556.50	59494.08
556.66	59636.85
556.83	59365.35
556.99	59718.77
557.16	59746.86
557.32	59590.04
557.49	59739.83
557.65	59564.29
557.82	59604.08
557.98	59704.73
558.15	59533.87
558.32	59707.07
558.48	59599.40
558.65	59805.37
558.81	59641.53
558.98	59791.33
559.14	59819.41
559.31	59929.42
559.47	60203.26
559.64	60156.45
559.80	59906.01
559.97	60009.00
560.13	59934.10
560.30	59845.16
560.46	59910.69
560.63	59852.18
560.79	59952.82
560.96	60172.83
561.12	60044.10
561.29	60067.51
561.45	60090.91
561.61	59985.59
561.78	60032.40
561.94	60111.98
562.11	60086.23
562.27	60168.15
562.44	60378.80
562.60	60296.88
562.77	60289.86
562.93	59863.88
563.10	60322.63
563.26	60273.48
563.42	60467.74
563.59	60184.54
563.75	60179.85
563.92	60292.20
564.08	60308.58
564.24	60582.43
564.41	60486.46
564.57	60425.61
564.74	60432.63
564.90	60392.84
565.07	60376.46
565.23	60376.46
565.39	60341.35
565.56	60502.85
565.72	60456.04
565.88	60439.65
566.05	60385.82
566.21	60437.31
566.38	60603.49
566.54	60409.23
566.70	60612.85
566.87	60537.96
567.03	60420.93
567.19	60570.72
567.36	60568.38
567.52	60362.42
567.68	60781.37
567.85	60697.11
568.01	60652.64
568.17	60582.43
568.34	60491.15
568.50	60619.88
568.66	60516.89
568.83	60748.60
568.99	60500.51
569.15	60662.00
569.32	60633.92
569.48	60519.23
569.64	60764.99
569.81	60631.58
569.97	60554.34
570.13	60804.78
570.30	60676.05
570.46	60549.66
570.62	60818.82
570.78	60657.32
570.95	60762.65
571.11	60928.83
571.27	60858.61
571.43	60755.63
571.60	60924.14
571.76	60821.16
571.92	60891.38
572.09	60903.08
572.25	60598.81
572.41	60853.93
572.57	60931.17
572.74	60905.42
572.90	60905.42
573.06	61027.13
573.22	60973.30
573.38	60893.72
573.55	61003.72
573.71	60942.87
573.87	60935.85
574.03	60666.69
574.20	60921.80
574.36	60743.92
574.52	60973.30
574.68	61006.06
574.84	60851.59
575.01	61080.96
575.17	60912.44
575.33	60947.55
575.49	60837.54
575.65	60959.25
575.82	61010.74
575.98	61045.85
576.14	61221.39
576.30	60982.66
576.46	61010.74
576.62	60980.32
576.79	60912.44
576.95	60828.18
577.11	61013.08
577.27	61209.69
577.43	61123.09
577.59	61024.79
577.75	60713.50
577.92	60872.65
578.08	61099.68
578.24	61116.07
578.40	61275.22
578.56	61155.86
578.72	61071.60
578.88	61291.61
579.04	61176.92
579.21	61036.49
579.37	61263.52
579.53	61317.35
579.69	60921.80
579.85	61219.05
580.01	61027.13
580.17	60816.48
580.33	61109.05
580.49	61303.31
580.65	61359.48
580.82	61179.26
580.98	61090.32
581.14	61087.98
581.30	61237.78
581.46	61043.51
581.62	61315.01
581.78	61064.58
581.94	61195.65
582.10	60992.02
582.26	61345.44
582.42	61125.43
582.58	61197.99
582.74	61083.30
582.90	61066.92
583.06	61062.24
583.22	60905.42
583.38	61207.35
583.54	61226.07
583.70	61158.20
583.86	61331.40
584.02	61233.10
584.18	61298.63
584.34	61050.53
584.50	61261.18
584.66	60949.89
584.82	60938.19
584.98	61387.57
585.14	61350.12
585.30	61197.99
585.46	61261.18
585.62	61312.67
585.78	61429.70
585.94	61153.52
586.10	61333.74
586.26	61244.80
586.42	61230.75
586.58	61511.62
586.74	61296.29
586.90	61172.24
587.06	61275.22
587.22	61544.39
587.38	61286.93
587.54	61448.42
587.70	61410.98
587.86	61420.34
588.02	61340.76
588.18	61291.61
588.34	61169.90
