SpectraSuite Data File
++++++++++++++++++++++++++++++++++++
Date: Fri Oct 25 10:48:06 EDT 2013
User: price-jones
Dark Spectrum Present: No
Reference Spectrum Present: No
Number of Sampled Component Spectra: 1
Spectrometers: USB2+H05261
Integration Time (usec): 100000 (USB2+H05261)
Spectra Averaged: 1 (USB2+H05261)
Boxcar Smoothing: 0 (USB2+H05261)
Correct for Electrical Dark: No (USB2+H05261)
Strobe/Lamp Enabled: No (USB2+H05261)
Correct for Detector Non-linearity: No (USB2+H05261)
Correct for Stray Light: No (USB2+H05261)
Number of Pixels in Processed Spectrum: 2048
>>>>>Begin Processed Spectral Data<<<<<
365.73	149.79
365.92	149.79
366.12	149.79
366.32	121.71
366.52	77.24
366.72	4.68
366.91	70.22
367.11	77.24
367.31	63.19
367.51	81.92
367.70	35.11
367.90	70.22
368.10	63.19
368.30	18.72
368.49	23.41
368.69	88.94
368.89	112.35
369.09	93.62
369.28	46.81
369.48	51.49
369.68	39.79
369.87	86.60
370.07	102.98
370.27	131.07
370.47	201.29
370.66	322.99
370.86	360.44
371.06	414.27
371.25	498.53
371.45	468.11
371.65	526.62
371.84	461.09
372.04	418.96
372.24	475.13
372.44	458.74
372.63	472.79
372.83	564.07
373.03	545.34
373.22	489.17
373.42	596.84
373.62	505.56
373.81	622.58
374.01	585.13
374.21	559.39
374.40	423.64
374.60	514.92
374.79	498.53
374.99	510.24
375.19	503.22
375.38	622.58
375.58	561.73
375.78	622.58
375.97	669.39
376.17	645.99
376.37	636.63
376.56	528.96
376.76	645.99
376.95	631.94
377.15	643.65
377.35	601.52
377.54	650.67
377.74	634.29
377.93	594.50
378.13	631.94
378.33	636.63
378.52	615.56
378.72	650.67
378.91	620.24
379.11	629.60
379.31	641.31
379.50	594.50
379.70	653.01
379.89	638.97
380.09	634.29
380.28	571.09
380.48	662.37
380.68	653.01
380.87	573.43
381.07	671.73
381.26	716.20
381.46	638.97
381.65	690.46
381.85	629.60
382.04	688.12
382.24	784.08
382.43	706.84
382.63	704.50
382.83	781.74
383.02	704.50
383.22	746.63
383.41	727.91
383.61	674.07
383.80	713.86
384.00	709.18
384.19	826.21
384.39	751.31
384.58	760.67
384.78	800.46
384.97	730.25
385.17	770.04
385.36	784.08
385.56	767.70
385.75	758.33
385.95	739.61
386.14	751.31
386.34	791.10
386.53	809.83
386.72	755.99
386.92	835.57
387.11	833.23
387.31	784.08
387.50	755.99
387.70	812.17
387.89	819.19
388.09	795.78
388.28	866.00
388.48	816.85
388.67	894.08
388.86	868.34
389.06	844.93
389.25	950.26
389.45	910.47
389.64	833.23
389.84	945.58
390.03	837.91
390.22	940.90
390.42	910.47
390.61	915.15
390.81	968.98
391.00	968.98
391.19	980.68
391.39	999.41
391.58	910.47
391.78	901.11
391.97	971.32
392.16	903.45
392.36	961.96
392.55	1041.54
392.75	950.26
392.94	999.41
393.13	980.68
393.33	933.87
393.52	1008.77
393.71	1018.13
393.91	1090.69
394.10	985.37
394.29	1041.54
394.49	1022.81
394.68	1081.33
394.88	1081.33
395.07	1116.44
395.26	1090.69
395.46	1116.44
395.65	1153.88
395.84	1116.44
396.04	1135.16
396.23	1116.44
396.42	1116.44
396.62	1118.78
396.81	1076.65
397.00	1137.50
397.19	1200.69
397.39	1172.61
397.58	1186.65
397.77	1123.46
397.97	1282.61
398.16	1184.31
398.35	1207.72
398.55	1231.12
398.74	1294.32
398.93	1380.92
399.12	1231.12
399.32	1233.46
399.51	1233.46
399.70	1299.00
399.90	1259.21
400.09	1327.08
400.28	1355.17
400.47	1465.18
400.67	1427.73
400.86	1462.83
401.05	1462.83
401.24	1437.09
401.44	1460.49
401.63	1490.92
401.82	1537.73
402.01	1383.26
402.21	1423.05
402.40	1497.94
402.59	1537.73
402.78	1479.22
402.97	1497.94
403.17	1516.67
403.36	1572.84
403.55	1554.12
403.74	1563.48
403.93	1591.56
404.13	1504.96
404.32	1603.27
404.51	1638.38
404.70	1575.18
404.89	1692.21
405.09	1682.85
405.28	1657.10
405.47	1650.08
405.66	1710.93
405.85	1762.42
406.05	1657.10
406.24	1666.46
406.43	1689.87
406.62	1806.89
406.81	1879.45
407.00	1952.01
407.20	1797.53
407.39	1788.17
407.58	1858.39
407.77	1827.96
407.96	1895.83
408.15	1914.56
408.34	1944.99
408.54	2001.16
408.73	1928.60
408.92	1991.80
409.11	1893.49
409.30	1970.73
409.49	1959.03
409.68	1996.48
409.87	2073.71
410.07	2017.54
410.26	2162.66
410.45	1959.03
410.64	2064.35
410.83	2092.44
411.02	2174.36
411.21	2172.02
411.40	2125.21
411.59	2237.55
411.78	2284.36
411.98	2202.44
412.17	2272.66
412.36	2349.90
412.55	2401.39
412.74	2345.22
412.93	2296.07
413.12	2265.64
413.31	2562.89
413.50	2401.39
413.69	2483.31
413.88	2502.03
414.07	2452.88
414.26	2459.90
414.45	2476.29
414.64	2513.74
414.83	2605.02
415.02	2719.70
415.22	2768.85
415.41	2787.58
415.60	2651.83
415.79	2675.23
415.98	2960.78
416.17	2832.05
416.36	2675.23
416.55	2780.56
416.74	2766.51
416.93	2820.35
417.12	2930.35
417.31	2822.69
417.50	2918.65
417.69	3009.93
417.88	2916.31
418.07	2920.99
418.26	3063.76
418.45	3054.40
418.64	3229.94
418.83	3075.46
419.02	3171.43
419.21	3229.94
419.39	3220.58
419.58	3222.92
419.77	3133.98
419.96	3227.60
420.15	3225.26
420.34	3197.17
420.53	3248.66
420.72	3293.13
420.91	3370.37
421.10	3426.54
421.29	3361.01
421.48	3318.88
421.67	3351.65
421.86	3251.00
422.05	3283.77
422.24	3389.10
422.43	3344.63
422.61	3461.65
422.80	3482.72
422.99	3400.80
423.18	3489.74
423.37	3524.85
423.56	3405.48
423.75	3482.72
423.94	3400.80
424.13	3375.05
424.32	3234.62
424.50	3468.67
424.69	3463.99
424.88	3604.42
425.07	3363.35
425.26	3351.65
425.45	3426.54
425.64	3461.65
425.83	3400.80
426.01	3548.25
426.20	3543.57
426.39	3485.06
426.58	3499.10
426.77	3323.56
426.96	3489.74
427.15	3730.81
427.33	3515.48
427.52	3758.90
427.71	3590.38
427.90	3679.32
428.09	3583.36
428.28	3627.83
428.46	3712.09
428.65	3754.22
428.84	3693.37
429.03	3885.29
429.22	3632.51
429.40	3782.31
429.59	3667.62
429.78	3604.42
429.97	3536.55
430.16	3751.88
430.34	3779.97
430.53	3822.09
430.72	3829.12
430.91	3786.99
431.10	3932.10
431.28	3969.55
431.47	4065.51
431.66	4135.73
431.85	3906.35
432.03	4014.02
432.22	4105.30
432.41	4004.66
432.60	4077.21
432.79	4191.90
432.97	4121.68
433.16	4245.73
433.35	4180.20
433.54	4074.87
433.72	4259.78
433.91	4208.28
434.10	4194.24
434.28	4315.95
434.47	4234.03
434.66	4198.92
434.85	4379.14
435.03	4248.07
435.22	4491.49
435.41	4557.02
435.59	4353.40
435.78	4442.34
435.97	4596.81
436.16	4601.49
436.34	4505.53
436.53	4454.04
436.72	4578.09
436.90	4372.12
437.09	4573.41
437.28	4624.90
437.46	4542.98
437.65	4603.83
437.84	4706.82
438.02	4585.11
438.21	4648.30
438.40	4643.62
438.58	4898.74
438.77	4908.10
438.96	4786.40
439.14	4828.53
439.33	4786.40
439.52	4830.87
439.70	4842.57
439.89	5149.18
440.08	4964.28
440.26	5074.28
440.45	5104.71
440.63	4919.81
440.82	5210.03
441.01	5221.74
441.19	5261.52
441.38	5298.97
441.57	5296.63
441.75	5364.51
441.94	5474.51
442.12	5434.72
442.31	5568.13
442.50	5434.72
442.68	5401.96
442.87	5563.45
443.05	5593.88
443.24	5689.84
443.43	5600.90
443.61	5640.69
443.80	5755.38
443.98	5589.20
444.17	5472.17
444.35	5743.67
444.54	5846.66
444.73	5572.82
444.91	5617.29
445.10	5650.05
445.28	5731.97
445.47	5526.00
445.65	5760.06
445.84	5771.76
446.02	5956.66
446.21	5731.97
446.39	5811.55
446.58	5827.93
446.77	5722.61
446.95	5776.44
447.14	5886.45
447.32	5989.43
447.51	5844.32
447.69	5853.68
447.88	5895.81
448.06	5963.68
448.25	5692.18
448.43	5774.10
448.62	5844.32
448.80	5968.37
448.99	5991.77
449.17	6054.97
449.36	5874.74
449.54	6092.41
449.73	6181.35
449.91	6253.91
450.10	6164.97
450.28	6443.49
450.46	6134.54
450.65	6366.26
450.83	6239.87
451.02	6235.19
451.20	6366.26
451.39	6176.67
451.57	6129.86
451.76	6202.42
451.94	6417.75
452.13	6509.03
452.31	6251.57
452.49	6368.60
452.68	6387.32
452.86	6431.79
453.05	6509.03
453.23	6602.65
453.42	6399.02
453.60	6359.24
453.78	6604.99
453.97	6389.66
454.15	6506.69
454.34	6480.94
454.52	6677.55
454.70	6551.16
454.89	6647.12
455.07	6684.57
455.26	6595.63
455.44	6616.69
455.62	6670.53
455.81	6698.61
455.99	6937.35
456.17	6679.89
456.36	6775.85
456.54	6923.30
456.73	6986.50
456.91	7148.00
457.09	6899.90
457.28	7033.31
457.46	7054.37
457.64	7286.09
457.83	6972.46
458.01	6796.92
458.19	7346.94
458.38	7126.93
458.56	7171.40
458.74	7180.76
458.93	7169.06
459.11	7222.89
459.29	7339.92
459.48	7218.21
459.66	7360.98
459.84	7482.69
460.03	7391.41
460.21	7456.95
460.39	7426.52
460.57	7391.41
460.76	7478.01
460.94	7641.85
461.12	7592.70
461.31	7459.29
461.49	7499.08
461.67	7571.63
461.85	7786.96
462.04	7712.07
462.22	8238.69
462.40	7882.92
462.59	7878.24
462.77	7749.51
462.95	7939.10
463.13	7798.66
463.32	7765.90
463.50	7967.18
463.68	7990.59
463.86	8100.59
464.05	7885.26
464.23	7974.21
464.41	7976.55
464.59	7941.44
464.78	8173.15
464.96	8051.44
465.14	7946.12
465.32	8285.50
465.50	8166.13
465.69	8236.35
465.87	8362.73
466.05	8107.62
466.23	8149.75
466.41	8114.64
466.60	8622.53
466.78	8182.51
466.96	8212.94
467.14	8175.49
467.32	8290.18
467.51	8393.16
467.69	8126.34
467.87	8454.02
468.05	8376.78
468.23	8372.10
468.41	8491.46
468.60	8557.00
468.78	8479.76
468.96	8524.23
469.14	8777.01
469.32	8634.24
469.50	8182.51
469.69	8744.24
469.87	8725.52
470.05	8875.31
470.23	8751.26
470.41	8933.82
470.59	9004.04
470.77	8877.65
470.95	9060.21
471.14	8734.88
471.32	8837.86
471.50	9217.03
471.68	8982.98
471.86	9228.73
472.04	9263.84
472.22	9380.87
472.40	9149.15
472.58	9448.74
472.77	9074.26
472.95	9565.77
473.13	9631.30
473.31	9362.14
473.49	9451.08
473.67	9572.79
473.85	9467.47
474.03	9638.33
474.21	9724.93
474.39	9811.53
474.57	9963.66
474.75	9923.87
474.93	10106.43
475.12	9881.74
475.30	10221.12
475.48	10087.71
475.66	9977.70
475.84	10061.96
476.02	10071.33
476.20	10193.03
476.38	10317.08
476.56	10682.20
476.74	10466.88
476.92	10658.80
477.10	10480.92
477.28	10836.68
477.46	10785.19
477.64	10881.15
477.82	10923.28
478.00	11110.52
478.18	11098.82
478.36	11035.63
478.54	11101.16
478.72	11239.25
478.90	11482.67
479.08	11576.29
479.26	11536.50
479.44	11653.53
479.62	11822.05
479.80	11882.90
479.98	11831.41
480.16	12056.10
480.34	12161.42
480.52	12395.48
480.70	12138.02
480.88	12046.74
481.06	12257.39
481.24	12393.14
481.41	12540.59
481.59	12760.60
481.77	12924.44
481.95	12987.63
482.13	12816.77
482.31	12987.63
482.49	13291.90
482.67	13467.44
482.85	13448.72
483.03	13422.97
483.21	13535.32
483.39	13542.34
483.57	13650.00
483.74	13905.12
483.92	13825.54
484.10	13696.82
484.28	14214.07
484.46	14551.11
484.64	14590.90
484.82	14611.96
485.00	14476.21
485.18	14951.34
485.35	14780.48
485.53	14963.04
485.71	14759.42
485.89	15005.17
486.07	15087.09
486.25	15171.35
486.43	15136.24
486.61	15447.54
486.78	15606.69
486.96	15798.62
487.14	15831.38
487.32	15903.94
487.50	16304.17
487.68	16292.47
487.85	16294.81
488.03	16615.46
488.21	16776.96
488.39	16744.19
488.57	16936.12
488.75	16908.03
488.92	17011.01
489.10	17432.31
489.28	17317.62
489.46	17446.35
489.64	17645.30
489.81	18008.08
489.99	18218.73
490.17	18286.61
490.35	18075.96
490.53	18424.70
490.70	18595.56
490.88	18340.44
491.06	18523.00
491.24	18614.28
491.41	18515.98
491.59	19208.78
491.77	18918.55
491.95	19023.87
492.13	19152.60
492.30	19634.75
492.48	19545.81
492.66	19812.63
492.84	19473.26
493.01	19810.29
493.19	19798.59
493.37	20290.10
493.54	20074.77
493.72	20355.64
493.90	20379.04
494.08	20613.10
494.25	21064.82
494.43	20840.13
494.61	21125.68
494.79	21263.77
494.96	21137.38
495.14	21235.68
495.32	21153.76
495.49	21188.87
495.67	21462.71
495.85	21666.34
496.02	21680.38
496.20	22097.00
496.38	22104.02
496.55	22068.91
496.73	22501.91
496.91	22560.42
497.09	22558.08
497.26	22738.30
497.44	22731.28
497.62	22902.14
497.79	23178.33
497.97	22890.44
498.14	23276.63
498.32	23269.61
498.50	23440.47
498.67	23510.68
498.85	23899.21
499.03	23730.69
499.20	23580.90
499.38	23878.15
499.56	23976.45
499.73	23910.91
499.91	24128.58
500.08	24137.94
500.26	23510.68
500.44	24379.02
500.61	24191.78
500.79	24198.80
500.97	24673.93
501.14	24442.21
501.32	25083.52
501.49	24800.32
501.67	24795.64
501.84	24975.86
502.02	24533.50
502.20	25177.14
502.37	25408.86
502.55	25432.26
502.72	25364.39
502.90	25577.37
503.07	25223.95
503.25	25680.36
503.43	25656.95
503.60	25713.13
503.78	25923.77
503.95	25802.07
504.13	25713.13
504.30	25982.29
504.48	26073.57
504.65	26436.35
504.83	26206.98
505.01	27056.59
505.18	26574.44
505.36	26925.52
505.53	26632.96
505.71	26883.39
505.88	26712.53
506.06	26693.81
506.23	26984.04
506.41	26654.02
506.58	27255.54
506.76	27201.71
506.93	27360.86
507.11	27089.36
507.28	27503.64
507.46	27625.34
507.63	27922.59
507.81	27817.27
507.98	27625.34
508.16	27770.46
508.33	27882.80
508.50	28210.48
508.68	28268.99
508.85	28329.84
509.03	28292.40
509.20	28432.83
509.38	29078.82
509.55	28577.94
509.73	28634.11
509.90	28620.07
510.08	28821.36
510.25	28917.32
510.42	28620.07
510.60	29099.88
510.77	29226.27
510.95	29364.36
511.12	29617.14
511.30	29289.46
511.47	29549.26
511.64	29682.67
511.82	29731.83
511.99	29432.24
512.17	29818.42
512.34	29575.01
512.51	30017.37
512.69	30246.74
512.86	30405.90
513.04	30518.25
513.21	30043.12
513.38	30078.22
513.56	30281.85
513.73	30431.65
513.90	30480.80
514.08	30382.49
514.25	30881.03
514.43	30508.88
514.60	30579.10
514.77	30623.57
514.95	31236.79
515.12	31033.16
515.29	30789.75
515.47	31150.19
515.64	31459.14
515.81	31117.42
515.99	31192.32
516.16	31243.81
516.33	31363.18
516.51	31833.63
516.68	31365.52
516.85	31255.51
517.03	31716.60
517.20	31527.02
517.37	31449.78
517.54	32037.25
517.72	31461.48
517.89	31831.29
518.06	31920.23
518.24	31805.54
518.41	31494.25
518.58	32016.19
518.75	32173.00
518.93	32559.19
519.10	32400.04
519.27	32425.78
519.45	32456.21
519.62	32126.19
519.79	32676.22
519.96	32627.07
520.14	32856.44
520.31	32678.56
520.48	32952.40
520.65	33259.01
520.83	33476.68
521.00	32933.68
521.17	32966.45
521.34	33345.61
521.52	33598.39
521.69	34099.26
521.86	33532.86
522.03	33582.01
522.20	33886.28
522.38	33949.47
522.55	33795.00
522.72	33766.91
522.89	33832.44
523.07	34068.84
523.24	34274.80
523.41	34192.89
523.58	33598.39
523.75	34480.77
523.92	34352.04
524.10	34223.31
524.27	34539.29
524.44	34642.27
524.61	34773.34
524.78	34536.94
524.96	34579.07
525.13	34953.56
525.30	34899.73
525.47	35000.37
525.64	34986.33
525.81	34862.28
525.98	34876.32
526.16	34897.39
526.33	34967.60
526.50	35115.06
526.67	35342.09
526.84	35246.13
527.01	34677.38
527.18	35271.87
527.36	35482.52
527.53	35323.36
527.70	35999.78
527.87	35412.31
528.04	35882.75
528.21	35742.32
528.38	35711.89
528.55	35672.10
528.72	36065.31
528.89	35761.05
529.07	36142.55
529.24	35700.19
529.41	36072.34
529.58	35735.30
529.75	36247.88
529.92	36011.48
530.09	36222.13
530.26	36514.70
530.43	36095.74
530.60	36519.38
530.77	36531.08
530.94	36790.88
531.11	36622.36
531.28	36620.02
531.46	36844.71
531.63	36807.26
531.80	36919.61
531.97	36629.38
532.14	36989.83
532.31	36795.56
532.48	37172.39
532.65	37160.69
532.82	37214.52
532.99	37380.70
533.16	36971.10
533.33	37109.19
533.50	37298.78
533.67	37230.90
533.84	37099.83
534.01	37486.02
534.18	37366.65
534.35	37825.40
534.52	37661.56
534.69	37724.75
534.86	37846.46
535.03	37647.52
535.20	37638.15
535.37	37820.72
535.54	37991.58
535.71	37539.85
535.88	37900.29
536.05	37827.74
536.22	38047.75
536.38	38124.99
536.55	38005.62
536.72	37909.66
536.89	37745.82
537.06	37668.58
537.23	38492.45
537.40	38312.23
537.57	38511.17
537.74	38670.33
537.91	38890.34
538.08	38555.64
538.25	38181.16
538.42	38522.88
538.59	39012.05
538.75	38632.88
538.92	38513.52
539.09	38845.87
539.26	38822.47
539.43	38831.83
539.60	38897.36
539.77	38911.41
539.94	38869.28
540.11	38831.83
540.28	38761.61
540.44	38759.27
540.61	39112.69
540.78	39274.19
540.95	39210.99
541.12	39379.51
541.29	39559.73
541.46	39023.75
541.62	39232.06
541.79	39840.60
541.96	39019.07
542.13	39402.92
542.30	39878.05
542.47	39522.29
542.63	39662.72
542.80	39564.42
542.97	40149.55
543.14	40172.96
543.31	40364.88
543.48	40013.80
543.64	40568.51
543.81	40147.21
543.98	40194.02
544.15	40128.48
544.32	40172.96
544.48	40765.11
544.65	39723.57
544.82	40727.66
544.99	40208.06
545.16	40601.27
545.32	40280.62
545.49	40414.03
545.66	40669.15
545.83	40620.00
546.00	40978.10
546.16	40685.53
546.33	40163.59
546.50	40121.46
546.67	40603.61
546.83	40570.85
547.00	40540.42
547.17	40484.25
547.34	40446.80
547.50	40945.33
547.67	41301.09
547.84	41099.81
548.00	41343.22
548.17	41088.10
548.34	41148.96
548.51	40931.29
548.67	41490.68
548.84	41158.32
549.01	41020.23
549.18	41118.53
549.34	41273.01
549.51	41738.77
549.68	41647.49
549.84	41776.22
550.01	41642.81
550.18	41127.89
550.34	41481.31
550.51	41453.23
550.68	41343.22
550.84	41209.81
551.01	41661.54
551.18	41418.12
551.34	41654.51
551.51	41633.45
551.68	42141.35
551.84	42178.79
552.01	41965.81
552.18	41799.63
552.34	41731.75
552.51	41825.37
552.68	42384.76
552.84	41991.55
553.01	42288.80
553.18	42066.45
553.34	41816.01
553.51	41579.62
553.67	42085.17
553.84	42405.83
554.01	42270.08
554.17	42279.44
554.34	42195.18
554.51	42066.45
554.67	42588.39
554.84	42567.32
555.00	42422.21
555.17	41820.69
555.33	42230.29
555.50	42199.86
555.67	42789.67
555.83	42377.74
556.00	42438.59
556.16	43140.75
556.33	42429.23
556.50	42939.47
556.66	42651.58
556.83	42469.02
556.99	42948.83
557.16	43021.39
557.32	42822.44
557.49	42756.91
557.65	42775.63
557.82	42656.26
557.98	42581.37
558.15	42871.59
558.32	42742.86
558.48	42845.85
558.65	42965.21
558.81	43049.47
558.98	43012.02
559.14	42724.14
559.31	43115.01
559.47	43363.11
559.64	43632.27
559.80	43578.43
559.97	43419.28
560.13	42834.14
560.30	43117.35
560.46	42923.08
560.63	43173.52
560.79	43152.46
560.96	43522.26
561.12	42990.96
561.29	43613.54
561.45	43428.64
561.61	43107.99
561.78	43342.04
561.94	42815.42
562.11	42983.94
562.27	43515.24
562.44	43335.02
562.60	43365.45
562.77	43571.41
562.93	43498.86
563.10	43840.57
563.26	43241.40
563.42	43732.91
563.59	43063.52
563.75	43194.59
563.92	43695.46
564.08	43309.27
564.24	43555.03
564.41	43650.99
564.57	43585.46
564.74	43358.42
564.90	43721.21
565.07	43508.22
565.23	43732.91
565.39	43452.05
565.56	44020.80
565.72	43320.98
565.88	43744.61
566.05	43475.45
566.21	44041.86
566.38	43653.33
566.54	43725.89
566.70	43660.35
566.87	44336.77
567.03	43868.66
567.19	44264.21
567.36	43913.13
567.52	43707.16
567.68	43690.78
567.85	43487.15
568.01	43477.79
568.17	43299.91
568.34	43690.78
568.50	43849.94
568.66	43878.02
568.83	44093.35
568.99	43615.88
569.15	43704.82
569.32	43807.81
569.48	44327.41
569.64	44215.06
569.81	44460.82
569.97	43735.25
570.13	44339.11
570.30	43653.33
570.46	44072.29
570.62	43695.46
570.78	43709.50
570.95	44219.74
571.11	43875.68
571.27	44172.93
571.43	44027.82
571.60	44278.25
571.76	43728.23
571.92	43950.58
572.09	43714.19
572.25	44032.50
572.41	43522.26
572.57	43887.39
572.74	44346.13
572.90	44058.24
573.06	44219.74
573.22	44318.04
573.38	44217.40
573.55	44006.75
573.71	44598.91
573.87	44526.35
574.03	43428.64
574.20	44254.85
574.36	43950.58
574.52	44348.47
574.68	44278.25
574.84	44233.78
575.01	44203.36
575.17	44626.99
575.33	43852.28
575.49	44093.35
575.65	44182.29
575.82	44673.81
575.98	44076.97
576.14	44657.42
576.30	44116.76
576.46	43889.73
576.62	44252.51
576.79	44034.84
576.95	43517.58
577.11	44128.46
577.27	43800.79
577.43	44325.07
577.59	43983.35
577.75	44088.67
577.92	43725.89
578.08	43889.73
578.24	43924.83
578.40	44498.26
578.56	44268.89
578.72	44039.52
578.88	44252.51
579.04	44278.25
579.21	44205.70
579.37	43910.79
579.53	44397.62
579.69	44126.12
579.85	44069.95
580.01	44119.10
580.17	44535.71
580.33	44666.78
580.49	44320.38
580.65	44671.46
580.82	44664.44
580.98	44179.95
581.14	44371.88
581.30	44357.83
581.46	44390.60
581.62	43730.57
581.78	44545.08
581.94	44910.20
582.10	44498.26
582.26	44498.26
582.42	44439.75
582.58	44423.37
582.74	44079.31
582.90	44603.59
583.06	44809.56
583.22	44589.55
583.38	44638.70
583.54	44346.13
583.70	44355.49
583.86	44367.20
584.02	44566.14
584.18	44362.51
584.34	44648.06
584.50	44495.92
584.66	44430.39
584.82	44318.04
584.98	44378.90
585.14	44636.36
585.30	44399.96
585.46	44821.26
585.62	44264.21
585.78	44154.21
585.94	43966.96
586.10	44626.99
586.26	44339.11
586.42	44669.12
586.58	44364.85
586.74	44287.62
586.90	44224.42
587.06	44123.78
587.22	44737.00
587.38	44142.50
587.54	44741.68
587.70	44711.25
587.86	45055.31
588.02	44509.97
588.18	44392.94
588.34	44470.18
588.49	44692.53
588.65	44030.16
588.81	44144.84
588.97	44189.31
589.13	44289.96
589.29	44507.63
589.45	44865.73
589.61	44624.65
589.77	44659.76
589.93	44533.37
590.08	44847.00
590.24	44514.65
