SpectraSuite Data File
++++++++++++++++++++++++++++++++++++
Date: Fri Oct 25 11:26:20 EDT 2013
User: price-jones
Dark Spectrum Present: No
Reference Spectrum Present: No
Number of Sampled Component Spectra: 1
Spectrometers: USB2+H05261
Integration Time (usec): 100000 (USB2+H05261)
Spectra Averaged: 1 (USB2+H05261)
Boxcar Smoothing: 0 (USB2+H05261)
Correct for Electrical Dark: No (USB2+H05261)
Strobe/Lamp Enabled: No (USB2+H05261)
Correct for Detector Non-linearity: No (USB2+H05261)
Correct for Stray Light: No (USB2+H05261)
Number of Pixels in Processed Spectrum: 2048
>>>>>Begin Processed Spectral Data<<<<<
365.73	245.76
365.92	245.76
366.12	245.76
366.32	175.54
366.52	102.98
366.72	182.56
366.91	149.79
367.11	212.99
367.31	112.35
367.51	140.43
367.70	177.88
367.90	149.79
368.10	154.48
368.30	220.01
368.49	180.22
368.69	208.31
368.89	180.22
369.09	138.09
369.28	217.67
369.48	175.54
369.68	133.41
369.87	201.29
370.07	128.73
370.27	243.42
370.47	397.89
370.66	538.32
370.86	592.16
371.06	662.37
371.25	683.44
371.45	662.37
371.65	723.23
371.84	685.78
372.04	669.39
372.24	695.14
372.44	723.23
372.63	746.63
372.83	746.63
373.03	847.27
373.22	770.04
373.42	828.55
373.62	781.74
373.81	746.63
374.01	842.59
374.21	777.06
374.40	767.70
374.60	858.98
374.79	851.96
374.99	758.33
375.19	788.76
375.38	851.96
375.58	814.51
375.78	943.24
375.97	840.25
376.17	842.59
376.37	819.19
376.56	830.89
376.76	903.45
376.95	873.02
377.15	912.81
377.35	891.74
377.54	980.68
377.74	891.74
377.93	901.11
378.13	910.47
378.33	931.53
378.52	791.10
378.72	898.77
378.91	1018.13
379.11	980.68
379.31	917.49
379.50	922.17
379.70	1039.20
379.89	919.83
380.09	873.02
380.28	964.30
380.48	968.98
380.68	983.02
380.87	1022.81
381.07	978.34
381.26	1048.56
381.46	1053.24
381.65	1027.50
381.85	1029.84
382.04	1018.13
382.24	1130.48
382.43	1043.88
382.63	1060.26
382.83	1149.20
383.02	1088.35
383.22	1125.80
383.41	1041.54
383.61	1057.92
383.80	1191.33
384.00	1163.25
384.19	1137.50
384.39	1181.97
384.58	1191.33
384.78	1069.62
384.97	1158.57
385.17	1102.39
385.36	1172.61
385.56	1181.97
385.75	1170.27
385.95	1226.44
386.14	1151.54
386.34	1233.46
386.53	1184.31
386.72	1167.93
386.92	1214.74
387.11	1167.93
387.31	1184.31
387.50	1235.80
387.70	1282.61
387.89	1306.02
388.09	1238.14
388.28	1313.04
388.48	1207.72
388.67	1315.38
388.86	1329.42
389.06	1380.92
389.25	1322.40
389.45	1324.74
389.64	1359.85
389.84	1455.81
390.03	1317.72
390.22	1394.96
390.42	1362.19
390.61	1418.36
390.81	1507.30
391.00	1409.00
391.19	1483.90
391.39	1437.09
391.58	1439.43
391.78	1577.52
391.97	1495.60
392.16	1444.11
392.36	1523.69
392.55	1483.90
392.75	1509.65
392.94	1561.14
393.13	1528.37
393.33	1589.22
393.52	1666.46
393.71	1558.80
393.91	1530.71
394.10	1530.71
394.29	1619.65
394.49	1537.73
394.68	1664.12
394.88	1626.67
395.07	1629.01
395.26	1629.01
395.46	1689.87
395.65	1607.95
395.84	1636.03
396.04	1781.15
396.23	1678.16
396.42	1708.59
396.62	1788.17
396.81	1734.34
397.00	1734.34
397.19	1799.87
397.39	1849.02
397.58	1837.32
397.77	1755.40
397.97	1916.90
398.16	1816.26
398.35	1757.74
398.55	1844.34
398.74	1858.39
398.93	1935.62
399.12	1813.92
399.32	1937.96
399.51	1949.67
399.70	1930.94
399.90	1935.62
400.09	2022.22
400.28	1994.14
400.47	2120.53
400.67	2022.22
400.86	2125.21
401.05	2026.90
401.24	2073.71
401.44	2064.35
401.63	2136.91
401.82	2038.61
402.01	2015.20
402.21	2165.00
402.40	2157.97
402.59	2211.81
402.78	2209.47
402.97	2228.19
403.17	2263.30
403.36	2155.63
403.55	2211.81
403.74	2340.54
403.93	2345.22
404.13	2333.51
404.32	2289.04
404.51	2277.34
404.70	2431.82
404.89	2331.17
405.09	2436.50
405.28	2464.58
405.47	2424.80
405.66	2516.08
405.85	2520.76
406.05	2513.74
406.24	2490.33
406.43	2551.18
406.62	2595.65
406.81	2581.61
407.00	2658.85
407.20	2588.63
407.39	2675.23
407.58	2544.16
407.77	2623.74
407.96	2736.09
408.15	2780.56
408.34	2738.43
408.54	2698.64
408.73	2764.17
408.92	2939.71
409.11	2899.92
409.30	2867.16
409.49	2839.07
409.68	2808.64
409.87	2942.05
410.07	2923.33
410.26	2874.18
410.45	3035.67
410.64	3009.93
410.83	2986.52
411.02	3162.06
411.21	3234.62
411.40	3028.65
411.59	3105.89
411.78	3218.24
411.98	3084.83
412.17	3169.09
412.36	3267.39
412.55	3222.92
412.74	3328.24
412.93	3300.16
413.12	3349.31
413.31	3602.08
413.50	3480.38
413.69	3482.72
413.88	3599.74
414.07	3578.68
414.26	3545.91
414.45	3494.42
414.64	3454.63
414.83	3735.50
415.02	3646.55
415.22	3786.99
415.41	3981.25
415.60	3719.11
415.79	3953.16
415.98	3957.85
416.17	3871.25
416.36	3943.80
416.55	3878.27
416.74	4058.49
416.93	3990.61
417.12	3962.53
417.31	4196.58
417.50	4060.83
417.69	4189.56
417.88	4280.84
418.07	4308.93
418.26	4105.30
418.45	4358.08
418.64	4369.78
418.83	4475.10
419.02	4475.10
419.21	4393.19
419.39	4416.59
419.58	4367.44
419.77	4404.89
419.96	4517.23
420.15	4465.74
420.34	4664.69
420.53	4613.20
420.72	4557.02
420.91	4720.86
421.10	4662.35
421.29	4678.73
421.48	4765.33
421.67	4788.74
421.86	4746.61
422.05	4844.91
422.24	4753.63
422.43	4882.36
422.61	5011.09
422.80	4931.51
422.99	4901.08
423.18	4887.04
423.37	4959.60
423.56	4830.87
423.75	4973.64
423.94	4931.51
424.13	4512.55
424.32	4784.06
424.50	5018.11
424.69	5076.62
424.88	5081.30
425.07	4840.23
425.26	4929.17
425.45	4978.32
425.64	4931.51
425.83	4898.74
426.01	5165.56
426.20	5006.41
426.39	5004.07
426.58	4971.30
426.77	5076.62
426.96	5177.26
427.15	5015.77
427.33	4947.89
427.52	5167.90
427.71	5177.26
427.90	5128.11
428.09	5231.10
428.28	5352.81
428.46	5322.38
428.65	5296.63
428.84	5425.36
429.03	5430.04
429.22	5247.48
429.40	5345.78
429.59	5481.53
429.78	5296.63
429.97	5170.24
430.16	5448.77
430.34	5521.32
430.53	5423.02
430.72	5526.00
430.91	5612.60
431.10	5554.09
431.28	5750.70
431.47	5621.97
431.66	5781.12
431.85	5706.23
432.03	5867.72
432.22	5930.92
432.41	5741.33
432.60	5818.57
432.79	5916.87
432.97	6052.63
433.16	6001.13
433.35	5975.39
433.54	6064.33
433.72	6003.47
433.91	6104.12
434.10	6094.76
434.28	6085.39
434.47	6146.25
434.66	6214.12
434.85	6380.30
435.03	6251.57
435.22	6029.22
435.41	6335.83
435.59	6289.02
435.78	6525.41
435.97	6448.18
436.16	6267.95
436.34	6319.45
436.53	6457.54
436.72	6513.71
436.90	6429.45
437.09	6663.51
437.28	6555.84
437.46	6548.82
437.65	6553.50
437.84	6654.14
438.02	6670.53
438.21	6675.21
438.40	6649.46
438.58	6925.65
438.77	6965.43
438.96	6906.92
439.14	7016.93
439.33	6979.48
439.52	7183.10
439.70	7286.09
439.89	7370.35
440.08	7112.89
440.26	7253.32
440.45	7274.38
440.63	7344.60
440.82	7599.72
441.01	7470.99
441.19	7592.70
441.38	7653.55
441.57	7510.78
441.75	7728.45
441.94	7946.12
442.12	7962.50
442.31	7911.01
442.50	7990.59
442.68	8093.57
442.87	8030.38
443.05	8187.19
443.24	7995.27
443.43	8088.89
443.61	8166.13
443.80	8390.82
443.98	7880.58
444.17	8023.36
444.35	8116.98
444.54	8278.47
444.73	8287.84
444.91	8170.81
445.10	8210.60
445.28	8269.11
445.47	8262.09
445.65	8290.18
445.84	8327.63
446.02	8540.61
446.21	8346.35
446.39	8280.82
446.58	8472.74
446.77	8393.16
446.95	8196.56
447.14	8465.72
447.32	8402.52
447.51	8355.71
447.69	8451.67
447.88	8304.22
448.06	8535.93
448.25	8589.77
448.43	8564.02
448.62	8561.68
448.80	8580.40
448.99	8667.00
449.17	8699.77
449.36	8753.60
449.54	8802.75
449.73	8961.91
449.91	8959.57
450.10	8828.50
450.28	9074.26
450.46	9092.98
450.65	9048.51
450.83	9163.20
451.02	8933.82
451.20	8889.35
451.39	9043.83
451.57	8968.93
451.76	8837.86
451.94	9057.87
452.13	9273.20
452.31	9268.52
452.49	9043.83
452.68	9364.48
452.86	9259.16
453.05	9413.63
453.23	9401.93
453.42	9315.33
453.60	9334.06
453.78	9411.29
453.97	9273.20
454.15	9345.76
454.34	9371.50
454.52	9476.83
454.70	9706.20
454.89	9682.80
455.07	9806.84
455.26	9694.50
455.44	9734.29
455.62	9762.37
455.81	9605.56
455.99	9958.98
456.17	10068.98
456.36	9851.31
456.54	10153.24
456.73	10237.50
456.91	10296.02
457.09	10345.17
457.28	10377.94
457.46	10267.93
457.64	10511.35
457.83	10490.28
458.01	10284.31
458.19	10743.06
458.38	10216.44
458.56	10410.70
458.74	10445.81
458.93	10595.61
459.11	10588.58
459.29	10750.08
459.48	10619.01
459.66	10576.88
459.84	10682.20
460.03	10906.90
460.21	10869.45
460.39	10808.59
460.57	10829.66
460.76	11019.24
460.94	11162.01
461.12	11040.31
461.31	11157.33
461.49	11016.90
461.67	11119.89
461.85	11262.66
462.04	11037.97
462.22	11648.85
462.40	11477.99
462.59	11119.89
462.77	11286.06
462.95	11578.63
463.13	11562.25
463.32	11445.22
463.50	11466.28
463.68	11602.04
463.86	11735.45
464.05	11426.50
464.23	11623.10
464.41	11908.65
464.59	11595.01
464.78	11964.82
464.96	11784.60
465.14	11934.39
465.32	12102.91
465.50	12079.50
465.69	12205.89
465.87	12105.25
466.05	12065.46
466.23	12002.27
466.41	12241.00
466.60	12266.75
466.78	12084.19
466.96	12084.19
467.14	12393.14
467.32	12311.22
467.51	12149.72
467.69	11878.22
467.87	12482.08
468.05	12482.08
468.23	12266.75
468.41	12348.67
468.60	12542.93
468.78	12624.85
468.96	12320.58
469.14	12713.79
469.32	13018.06
469.50	12456.33
469.69	12896.35
469.87	12889.33
470.05	13191.26
470.23	12849.54
470.41	13001.68
470.59	13158.49
470.77	12996.99
470.95	13174.88
471.14	13551.70
471.32	13205.30
471.50	13666.39
471.68	13156.15
471.86	13568.09
472.04	13561.06
472.22	13752.99
472.40	13549.36
472.58	13673.41
472.77	14040.87
472.95	13830.23
473.13	14616.65
473.31	13886.40
473.49	14033.85
473.67	14059.60
473.85	13980.02
474.03	14403.66
474.21	14218.75
474.39	14494.94
474.57	14576.86
474.75	14897.51
474.93	14604.94
475.12	14541.75
475.30	15047.30
475.48	14981.77
475.66	15108.16
475.84	15087.09
476.02	15386.68
476.20	15075.39
476.38	15487.32
476.56	15910.96
476.74	15791.59
476.92	15300.08
477.10	15878.19
477.28	15847.77
477.46	16301.83
477.64	15843.09
477.82	16421.20
478.00	16865.90
478.18	16664.61
478.36	16943.14
478.54	17055.48
478.72	17090.59
478.90	17174.85
479.08	17305.92
479.26	17532.95
479.44	17624.23
479.62	17912.12
479.80	17724.88
479.98	17980.00
480.16	18548.75
480.34	18094.68
480.52	18368.52
480.70	18537.04
480.88	18469.17
481.06	18527.68
481.24	18551.09
481.41	18838.97
481.59	19098.77
481.77	19377.30
481.95	19360.91
482.13	19491.98
482.31	19461.55
482.49	19896.89
482.67	20044.35
482.85	20308.83
483.03	20603.74
483.21	20327.55
483.39	20676.29
483.57	20912.69
483.74	21039.08
483.92	21167.80
484.10	20711.40
484.28	21542.29
484.46	21699.11
484.64	22328.71
484.82	21781.03
485.00	22169.55
485.18	22319.35
485.35	22349.78
485.53	22628.30
485.71	22565.10
485.89	23253.22
486.07	23164.28
486.25	23353.87
486.43	23597.28
486.61	23859.42
486.78	23878.15
486.96	23714.31
487.14	24528.81
487.32	24098.16
487.50	24568.60
487.68	24308.80
487.85	24692.65
488.03	25560.99
488.21	25968.24
488.39	25355.02
488.57	26059.52
488.75	25893.35
488.92	26129.74
489.10	26520.61
489.28	26607.21
489.46	26764.03
489.64	26682.11
489.81	27264.90
489.99	27480.23
490.17	27445.12
490.35	27955.36
490.53	27995.15
490.70	28212.82
490.88	28056.00
491.06	28933.70
491.24	28842.42
491.41	28809.65
491.59	28851.78
491.77	28994.56
491.95	29605.44
492.13	29736.51
492.30	29668.63
492.48	29783.32
492.66	30099.29
492.84	29961.20
493.01	30478.46
493.19	30319.30
493.37	30464.41
493.54	31023.80
493.72	30946.56
493.90	31421.69
494.08	31613.62
494.25	31800.86
494.43	31641.70
494.61	31964.70
494.79	31934.27
494.96	31786.82
495.14	32507.70
495.32	32851.76
495.49	32910.27
495.67	32957.08
495.85	33256.67
496.02	33263.69
496.20	33699.03
496.38	33467.32
496.55	33577.33
496.73	34536.94
496.91	34270.12
497.09	34583.76
497.26	34799.08
497.44	34431.62
497.62	35433.37
497.79	35414.65
497.97	35093.99
498.14	35873.39
498.32	35838.28
498.50	36037.23
498.67	36519.38
498.85	35995.10
499.03	36254.90
499.20	36737.05
499.38	36381.29
499.56	36987.49
499.73	37111.53
499.91	37027.28
500.08	37076.43
500.26	37209.84
500.44	37553.90
500.61	37471.98
500.79	37591.34
500.97	37762.20
501.14	38092.22
501.32	38237.33
501.49	38408.19
501.67	38494.79
501.84	38667.99
502.02	39014.39
502.20	38831.83
502.37	38773.31
502.55	38948.85
502.72	39311.64
502.90	39566.76
503.07	39185.25
503.25	39545.69
503.43	39194.61
503.60	39924.86
503.78	39824.22
503.95	40062.95
504.13	40327.43
504.30	40112.10
504.48	40273.60
504.65	40545.10
504.83	40257.21
505.01	41273.01
505.18	40835.33
505.36	41415.78
505.53	40933.63
505.71	41340.88
505.88	41347.90
506.06	40912.56
506.23	41553.87
506.41	41757.50
506.58	41832.39
506.76	41827.71
506.93	42108.58
507.11	41883.89
507.28	42099.22
507.46	42569.66
507.63	42749.88
507.81	43044.79
507.98	42637.54
508.16	42443.27
508.33	43098.62
508.50	42836.48
508.68	43213.31
508.85	43508.22
509.03	43320.98
509.20	43428.64
509.38	44233.78
509.55	44034.84
509.73	43976.33
509.90	43892.07
510.08	44112.08
510.25	44100.37
510.42	44495.92
510.60	44987.44
510.77	44694.87
510.95	44861.05
511.12	44762.75
511.30	45354.90
511.47	45116.17
511.64	45050.63
511.82	45755.13
511.99	45151.27
512.17	45698.96
512.34	45645.13
512.51	45783.22
512.69	45942.38
512.86	46089.83
513.04	46429.21
513.21	46323.88
513.38	46506.44
513.56	46607.09
513.73	46536.87
513.90	46962.85
514.08	46684.33
514.25	46557.94
514.43	46960.51
514.60	47306.91
514.77	47042.43
514.95	47213.29
515.12	46930.08
515.29	47400.53
515.47	47756.29
515.64	47723.52
515.81	47363.08
515.99	47531.60
516.16	48128.44
516.33	48090.99
516.51	48437.39
516.68	48360.15
516.85	48397.60
517.03	48514.62
517.20	48123.75
517.37	48226.74
517.54	48046.52
517.72	48655.06
517.89	48692.50
518.06	48748.68
518.24	48872.73
518.41	48872.73
518.58	49141.89
518.75	48933.58
518.93	49340.83
519.10	49167.63
519.27	49310.41
519.45	49155.93
519.62	49680.21
519.79	49621.70
519.96	49553.82
520.14	49757.45
520.31	49453.18
520.48	49818.30
520.65	50251.30
520.83	50106.19
521.00	50391.73
521.17	49954.05
521.34	50298.11
521.52	50272.37
521.69	50480.67
521.86	50595.36
522.03	50237.26
522.20	50693.66
522.38	51002.61
522.55	50768.56
522.72	50965.17
522.89	51241.35
523.07	51089.21
523.24	51302.20
523.41	51248.37
523.58	51166.45
523.75	51215.60
523.92	51391.14
524.10	51316.25
524.27	51746.90
524.44	52004.36
524.61	51742.22
524.78	51980.96
524.96	51559.66
525.13	51803.08
525.30	52200.97
525.47	52179.90
525.64	51948.19
525.81	52229.05
525.98	52123.73
526.16	51931.81
526.33	52310.97
526.50	53027.18
526.67	52449.06
526.84	52743.97
527.01	52444.38
527.18	52360.12
527.36	52767.38
527.53	52961.64
527.70	52896.11
527.87	52942.92
528.04	52924.19
528.21	52919.51
528.38	53069.31
528.55	53169.95
528.72	53160.59
528.89	53034.20
529.07	53013.13
529.24	53279.96
529.41	53703.59
529.58	53411.02
529.75	53528.05
529.92	53535.07
530.09	53616.99
530.26	53619.33
530.43	53663.80
530.60	53404.00
530.77	53656.78
530.94	53867.43
531.11	53855.73
531.28	54045.31
531.46	53738.70
531.63	53886.15
531.80	53949.35
531.97	54026.59
532.14	54019.56
532.31	53858.07
532.48	54003.18
532.65	54614.06
532.82	54340.22
532.99	54452.56
533.16	54387.03
533.33	54663.21
533.50	54518.10
533.67	54567.25
533.84	54543.84
534.01	54539.16
534.18	54637.47
534.35	55164.09
534.52	54817.69
534.69	54822.37
534.86	54824.71
535.03	54777.90
535.20	55014.29
535.37	54850.45
535.54	55201.53
535.71	54965.14
535.88	55128.98
536.05	55316.22
536.22	55606.45
536.38	55323.24
536.55	55246.00
536.72	55313.88
536.89	55360.69
537.06	55255.37
537.23	55384.10
537.40	55538.57
537.57	55557.30
537.74	55552.62
537.91	55487.08
538.08	55522.19
538.25	55428.57
538.42	55674.32
538.59	55856.88
538.75	55636.87
538.92	55842.84
539.09	55866.25
539.26	55884.97
539.43	55906.04
539.60	56133.07
539.77	56023.06
539.94	56449.04
540.11	56231.37
540.28	56137.75
540.44	55973.91
540.61	56315.63
540.78	56097.96
540.95	56264.14
541.12	56254.78
541.29	56266.48
541.46	56095.62
541.62	56381.16
541.79	56289.88
541.96	56280.52
542.13	56392.87
542.30	56332.01
542.47	56591.81
542.63	56292.22
542.80	56584.79
542.97	56872.68
543.14	56814.16
543.31	56762.67
543.48	56942.89
543.64	57125.46
543.81	57481.22
543.98	57221.42
544.15	57088.01
544.32	57277.59
544.48	57272.91
544.65	57106.73
544.82	57240.14
544.99	57109.07
545.16	57212.06
545.32	56982.68
545.49	57502.28
545.66	57705.91
545.83	57464.83
546.00	57506.96
546.16	57375.89
546.33	57387.60
546.50	57319.72
546.67	57551.43
546.83	57382.91
547.00	57558.45
547.17	57418.02
547.34	57401.64
547.50	57752.72
547.67	57804.21
547.84	57780.81
548.00	57911.88
548.17	57696.55
548.34	57755.06
548.51	58031.24
548.67	58019.54
548.84	57963.37
549.01	57773.78
549.18	57989.11
549.34	58127.20
549.51	58110.82
549.68	58174.02
549.84	57881.45
550.01	58143.59
550.18	58115.50
550.34	58204.44
550.51	58183.38
550.68	58169.33
550.84	58045.29
551.01	58337.85
551.18	58176.36
551.34	58241.89
551.51	58372.96
551.68	58431.47
551.84	58492.33
552.01	58178.70
552.18	58375.30
552.34	58307.43
552.51	58670.21
552.68	58447.86
552.84	58520.41
553.01	58841.07
553.18	58546.16
553.34	58805.96
553.51	58553.18
553.67	58578.93
553.84	58848.09
554.01	58864.47
554.17	58838.73
554.34	58871.49
554.51	58878.52
554.67	58684.25
554.84	58635.10
555.00	58710.00
555.17	58756.81
555.33	58707.66
555.50	58548.50
555.67	58913.62
555.83	58726.38
556.00	58962.78
556.16	59002.56
556.33	59105.55
556.50	59009.59
556.66	59217.89
556.83	58873.84
556.99	59269.39
557.16	59260.02
557.32	59292.79
557.49	59344.28
557.65	58843.41
557.82	59009.59
557.98	59128.95
558.15	59295.13
558.32	59337.26
558.48	59348.96
558.65	59180.45
558.81	59327.90
558.98	59512.80
559.14	59454.29
559.31	59283.43
559.47	59372.37
559.64	59377.05
559.80	59318.54
559.97	59590.04
560.13	59529.19
560.30	59517.48
560.46	59508.12
560.63	59568.97
560.79	59554.93
560.96	59667.28
561.12	59704.73
561.29	59480.03
561.45	59533.87
561.61	59531.53
561.78	59536.21
561.94	59468.33
562.11	59426.20
562.27	59686.00
562.44	59718.77
562.60	59838.14
562.77	59793.67
562.93	59568.97
563.10	59845.16
563.26	59678.98
563.42	60053.47
563.59	59669.62
563.75	59903.67
563.92	59585.36
564.08	59784.30
564.24	59901.33
564.41	59779.62
564.57	59992.61
564.74	60039.42
564.90	59924.74
565.07	59877.93
565.23	59686.00
565.39	59767.92
565.56	59990.27
565.72	59920.05
565.88	59889.63
566.05	60041.76
566.21	60221.98
566.38	59985.59
566.54	59952.82
566.70	60203.26
566.87	60093.25
567.03	59966.87
567.19	60229.01
567.36	60200.92
567.52	60236.03
567.68	60449.02
567.85	60051.12
568.01	60273.48
568.17	60240.71
568.34	60221.98
568.50	60151.77
568.66	60198.58
568.83	60168.15
568.99	60207.94
569.15	60271.14
569.32	60147.09
569.48	60095.60
569.64	60294.54
569.81	60172.83
569.97	59929.42
570.13	60289.86
570.30	60289.86
570.46	60336.67
570.62	60179.85
570.78	60467.74
570.95	60308.58
571.11	60402.21
571.27	60355.39
571.43	60287.52
571.60	60633.92
571.76	60371.78
571.92	60217.30
572.09	60317.95
572.25	60376.46
572.41	60491.15
572.57	60289.86
572.74	60460.72
572.90	60388.16
573.06	60236.03
573.22	60313.26
573.38	60526.25
573.55	60369.44
573.71	60612.85
573.87	60430.29
574.03	60303.90
574.20	60554.34
574.36	60512.21
574.52	60514.55
574.68	60463.06
574.84	60725.20
575.01	60750.94
575.17	60331.99
575.33	60371.78
575.49	60406.89
575.65	60500.51
575.82	60549.66
575.98	60683.07
576.14	60772.01
576.30	60624.56
576.46	60484.12
576.62	60603.49
576.79	60636.26
576.95	60355.39
577.11	60580.09
577.27	60596.47
577.43	60591.79
577.59	60631.58
577.75	60544.98
577.92	60453.70
578.08	60640.94
578.24	60711.16
578.40	60767.33
578.56	60720.52
578.72	60486.46
578.88	60830.52
579.04	60491.15
579.21	60685.41
579.37	60619.88
579.53	60720.52
579.69	60280.50
579.85	60624.56
580.01	60594.13
580.17	60544.98
580.33	60774.35
580.49	60729.88
580.65	60858.61
580.82	60720.52
580.98	60488.80
581.14	60577.75
581.30	60612.85
581.46	60584.77
581.62	60725.20
581.78	60647.96
581.94	60779.03
582.10	60556.68
582.26	60781.37
582.42	60652.64
582.58	60554.34
582.74	60781.37
582.90	60853.93
583.06	60739.24
583.22	60484.12
583.38	60542.64
583.54	60788.39
583.70	60659.66
583.86	60879.67
584.02	60811.80
584.18	61006.06
584.34	60647.96
584.50	60591.79
584.66	60633.92
584.82	60643.28
584.98	61043.51
585.14	60940.53
585.30	60449.02
585.46	60743.92
585.62	60896.06
585.78	60903.08
585.94	60477.10
586.10	60622.22
586.26	60886.70
586.42	60903.08
586.58	60837.54
586.74	60760.31
586.90	60795.42
587.06	60889.04
587.22	60935.85
587.38	60959.25
587.54	61057.56
587.70	60994.36
587.86	60853.93
588.02	60865.63
588.18	60933.51
588.34	60928.83
588.49	60940.53
