SpectraSuite Data File
++++++++++++++++++++++++++++++++++++
Date: Fri Oct 25 11:25:16 EDT 2013
User: price-jones
Dark Spectrum Present: No
Reference Spectrum Present: No
Number of Sampled Component Spectra: 1
Spectrometers: USB2+H05261
Integration Time (usec): 100000 (USB2+H05261)
Spectra Averaged: 1 (USB2+H05261)
Boxcar Smoothing: 0 (USB2+H05261)
Correct for Electrical Dark: No (USB2+H05261)
Strobe/Lamp Enabled: No (USB2+H05261)
Correct for Detector Non-linearity: No (USB2+H05261)
Correct for Stray Light: No (USB2+H05261)
Number of Pixels in Processed Spectrum: 2048
>>>>>Begin Processed Spectral Data<<<<<
365.73	227.03
365.92	227.03
366.12	227.03
366.32	72.56
366.52	102.98
366.72	95.96
366.91	81.92
367.11	119.37
367.31	112.35
367.51	112.35
367.70	126.39
367.90	196.60
368.10	198.95
368.30	177.88
368.49	180.22
368.69	133.41
368.89	126.39
369.09	117.03
369.28	220.01
369.48	191.92
369.68	248.10
369.87	154.48
370.07	210.65
370.27	224.69
370.47	306.61
370.66	540.66
370.86	645.99
371.06	648.33
371.25	753.65
371.45	624.92
371.65	683.44
371.84	606.20
372.04	695.14
372.24	706.84
372.44	755.99
372.63	788.76
372.83	858.98
373.03	830.89
373.22	777.06
373.42	688.12
373.62	802.80
373.81	777.06
374.01	856.64
374.21	821.53
374.40	760.67
374.60	809.83
374.79	861.32
374.99	814.51
375.19	767.70
375.38	819.19
375.58	877.70
375.78	875.36
375.97	905.79
376.17	919.83
376.37	877.70
376.56	947.92
376.76	786.42
376.95	912.81
377.15	877.70
377.35	912.81
377.54	936.21
377.74	898.77
377.93	842.59
378.13	889.40
378.33	922.17
378.52	952.60
378.72	938.55
378.91	908.13
379.11	896.43
379.31	985.37
379.50	985.37
379.70	966.64
379.89	1034.52
380.09	873.02
380.28	983.02
380.48	994.73
380.68	1008.77
380.87	964.30
381.07	1034.52
381.26	976.00
381.46	1097.71
381.65	910.47
381.85	1067.28
382.04	1074.31
382.24	1060.26
382.43	999.41
382.63	999.41
382.83	1055.58
383.02	1081.33
383.22	1086.01
383.41	987.71
383.61	1132.82
383.80	1142.18
384.00	1184.31
384.19	1123.46
384.39	1146.86
384.58	1153.88
384.78	1137.50
384.97	1179.63
385.17	1184.31
385.36	1217.08
385.56	1165.59
385.75	1207.72
385.95	1170.27
386.14	1158.57
386.34	1181.97
386.53	1205.38
386.72	1165.59
386.92	1245.16
387.11	1266.23
387.31	1142.18
387.50	1291.98
387.70	1235.80
387.89	1268.57
388.09	1277.93
388.28	1350.49
388.48	1238.14
388.67	1249.85
388.86	1369.21
389.06	1341.13
389.25	1420.71
389.45	1329.42
389.64	1275.59
389.84	1245.16
390.03	1526.03
390.22	1418.36
390.42	1404.32
390.61	1338.79
390.81	1411.34
391.00	1425.39
391.19	1385.60
391.39	1423.05
391.58	1411.34
391.78	1409.00
391.97	1490.92
392.16	1460.49
392.36	1516.67
392.55	1411.34
392.75	1495.60
392.94	1497.94
393.13	1479.22
393.33	1544.75
393.52	1556.46
393.71	1612.63
393.91	1598.59
394.10	1537.73
394.29	1556.46
394.49	1654.76
394.68	1647.74
394.88	1645.40
395.07	1713.27
395.26	1717.95
395.46	1654.76
395.65	1694.55
395.84	1706.25
396.04	1830.30
396.23	1823.28
396.42	1614.97
396.62	1746.04
396.81	1727.32
397.00	1783.49
397.19	1830.30
397.39	1842.00
397.58	1842.00
397.77	1872.43
397.97	1830.30
398.16	1900.52
398.35	1872.43
398.55	1860.73
398.74	1837.32
398.93	1980.09
399.12	1881.79
399.32	1956.69
399.51	1963.71
399.70	2026.90
399.90	2031.58
400.09	1959.03
400.28	2052.65
400.47	2026.90
400.67	2108.82
400.86	2052.65
401.05	2054.99
401.24	1968.39
401.44	2139.25
401.63	2118.18
401.82	2101.80
402.01	2155.63
402.21	2202.44
402.40	2221.17
402.59	2235.21
402.78	2132.23
402.97	2139.25
403.17	2338.20
403.36	2172.02
403.55	2235.21
403.74	2267.98
403.93	2382.67
404.13	2300.75
404.32	2307.77
404.51	2342.88
404.70	2361.60
404.89	2305.43
405.09	2415.43
405.28	2455.22
405.47	2469.27
405.66	2642.46
405.85	2576.93
406.05	2478.63
406.24	2607.36
406.43	2483.31
406.62	2553.52
406.81	2647.15
407.00	2532.46
407.20	2544.16
407.39	2647.15
407.58	2675.23
407.77	2682.25
407.96	2818.00
408.15	2731.41
408.34	2581.61
408.54	2825.03
408.73	2715.02
408.92	2864.82
409.11	2796.94
409.30	2808.64
409.49	2935.03
409.68	2958.44
409.87	2881.20
410.07	3068.44
410.26	2920.99
410.45	2902.26
410.64	3026.31
410.83	3068.44
411.02	3159.72
411.21	3094.19
411.40	3122.27
411.59	3213.56
411.78	3281.43
411.98	3178.45
412.17	3117.59
412.36	3272.07
412.55	3403.14
412.74	3428.88
412.93	3344.63
413.12	3361.01
413.31	3569.32
413.50	3449.95
413.69	3475.70
413.88	3576.34
414.07	3574.00
414.26	3595.06
414.45	3707.41
414.64	3623.15
414.83	3728.47
415.02	3662.94
415.22	3794.01
415.41	3721.45
415.60	3915.72
415.79	3948.48
415.98	3838.48
416.17	3971.89
416.36	3892.31
416.55	3880.61
416.74	4051.47
416.93	4084.23
417.12	4037.42
417.31	4196.58
417.50	4222.33
417.69	4362.76
417.88	4229.35
418.07	4100.62
418.26	4334.67
418.45	4393.19
418.64	4432.97
418.83	4428.29
419.02	4390.84
419.21	4486.81
419.39	4510.21
419.58	4365.10
419.77	4369.78
419.96	4552.34
420.15	4566.39
420.34	4510.21
420.53	4669.37
420.72	4713.84
420.91	4610.86
421.10	4748.95
421.29	4627.24
421.48	4440.00
421.67	4828.53
421.86	4758.31
422.05	4781.71
422.24	4798.10
422.43	4814.48
422.61	4741.93
422.80	4898.74
422.99	4861.29
423.18	4917.47
423.37	4917.47
423.56	4957.25
423.75	4926.83
423.94	4894.06
424.13	4470.42
424.32	4667.03
424.50	4875.34
424.69	5043.85
424.88	5184.29
425.07	4933.85
425.26	4915.12
425.45	4882.36
425.64	4901.08
425.83	4978.32
426.01	5020.45
426.20	4983.00
426.39	4983.00
426.58	4968.96
426.77	5130.45
426.96	5121.09
427.15	5078.96
427.33	5088.32
427.52	5032.15
427.71	5280.25
427.90	5329.40
428.09	5198.33
428.28	5270.89
428.46	5327.06
428.65	5413.66
428.84	5455.79
429.03	5469.83
429.22	5266.21
429.40	5448.77
429.59	5535.37
429.78	5275.57
429.97	5146.84
430.16	5345.78
430.34	5650.05
430.53	5521.32
430.72	5659.42
430.91	5610.26
431.10	5628.99
431.28	5593.88
431.47	5668.78
431.66	5837.30
431.85	5741.33
432.03	5858.36
432.22	6162.63
432.41	5912.19
432.60	5767.08
432.79	5818.57
432.97	6022.20
433.16	5930.92
433.35	6005.81
433.54	6211.78
433.72	6087.73
433.91	6050.28
434.10	6113.48
434.28	5984.75
434.47	6111.14
434.66	6139.23
434.85	6274.98
435.03	6108.80
435.22	6150.93
435.41	6471.58
435.59	6359.24
435.78	6445.84
435.97	6532.44
436.16	6380.30
436.34	6396.68
436.53	6586.27
436.72	6565.20
436.90	6345.19
437.09	6600.31
437.28	6377.96
437.46	6363.92
437.65	6436.47
437.84	6757.13
438.02	6677.55
438.21	6668.19
438.40	6672.87
438.58	6925.65
438.77	6906.92
438.96	6988.84
439.14	7126.93
439.33	7183.10
439.52	7143.32
439.70	7304.81
439.89	7297.79
440.08	7379.71
440.26	7342.26
440.45	7346.94
440.63	7346.94
440.82	7503.76
441.01	7410.14
441.19	7709.72
441.38	7735.47
441.57	7681.64
441.75	7719.09
441.94	7939.10
442.12	7838.45
442.31	7887.61
442.50	8004.63
442.68	7843.14
442.87	7796.32
443.05	8098.25
443.24	8180.17
443.43	8109.96
443.61	8173.15
443.80	8231.66
443.98	7791.64
444.17	7747.17
444.35	8147.40
444.54	8304.22
444.73	8390.82
444.91	8154.43
445.10	8358.05
445.28	8355.71
445.47	8056.12
445.65	8168.47
445.84	8416.57
446.02	8353.37
446.21	8351.03
446.39	8407.20
446.58	8294.86
446.77	8395.50
446.95	8348.69
447.14	8395.50
447.32	8503.17
447.51	8280.82
447.69	8388.48
447.88	8442.31
448.06	8451.67
448.25	8538.27
448.43	8608.49
448.62	8636.58
448.80	8547.64
448.99	8510.19
449.17	8580.40
449.36	8596.79
449.54	8917.44
449.73	8802.75
449.91	8992.34
450.10	8786.37
450.28	9034.47
450.46	8982.98
450.65	8936.17
450.83	8994.68
451.02	8908.08
451.20	9125.75
451.39	9011.06
451.57	9008.72
451.76	8830.84
451.94	9046.17
452.13	9256.82
452.31	9160.86
452.49	9170.22
452.68	9408.95
452.86	9324.69
453.05	9415.98
453.23	9207.67
453.42	9315.33
453.60	9252.14
453.78	9451.08
453.97	9509.60
454.15	9289.59
454.34	9357.46
454.52	9678.12
454.70	9664.07
454.89	9832.59
455.07	9757.69
455.26	9764.72
455.44	9846.63
455.62	9921.53
455.81	9872.38
455.99	9966.00
456.17	10003.45
456.36	9860.68
456.54	9987.07
456.73	10050.26
456.91	10583.90
457.09	10108.77
457.28	10377.94
457.46	10256.23
457.64	10349.85
457.83	10303.04
458.01	10469.22
458.19	10441.13
458.38	10483.26
458.56	10764.12
458.74	10644.76
458.93	10679.86
459.11	10869.45
459.29	10707.95
459.48	10537.09
459.66	10834.34
459.84	10761.78
460.03	11021.58
460.21	10707.95
460.39	10925.62
460.57	10920.94
460.76	11304.79
460.94	11080.10
461.12	11192.44
461.31	11105.84
461.49	10963.07
461.67	10967.75
461.85	11595.01
462.04	11290.74
462.22	11836.09
462.40	11485.01
462.59	11456.92
462.77	11375.00
462.95	11501.39
463.13	11482.67
463.32	11573.95
463.50	11683.95
463.68	11669.91
463.86	11939.07
464.05	11431.18
464.23	11646.51
464.41	11716.72
464.59	11606.72
464.78	11971.84
464.96	12079.50
465.14	11859.49
465.32	12058.44
465.50	12056.10
465.69	12229.30
465.87	12175.47
466.05	12037.38
466.23	12159.08
466.41	12201.21
466.60	12627.19
466.78	11943.75
466.96	12306.54
467.14	12383.77
467.32	12568.68
467.51	12514.84
467.69	12369.73
467.87	12135.68
468.05	12360.37
468.23	12470.37
468.41	12318.24
468.60	12535.91
468.78	12606.13
468.96	12519.53
469.14	12702.09
469.32	12692.73
469.50	12816.77
469.69	12950.18
469.87	13004.02
470.05	13193.60
470.23	13224.03
470.41	13095.30
470.59	13422.97
470.77	13067.21
470.95	13224.03
471.14	13413.61
471.32	13193.60
471.50	13586.81
471.68	13486.17
471.86	13603.19
472.04	13446.38
472.22	14146.20
472.40	13717.88
472.58	13647.66
472.77	13853.63
472.95	13949.59
473.13	14487.92
473.31	13982.36
473.49	14188.33
473.67	14029.17
473.85	14059.60
474.03	14602.60
474.21	14602.60
474.39	14401.32
474.57	14424.72
474.75	14860.06
474.93	14679.84
475.12	15009.86
475.30	15084.75
475.48	14974.75
475.66	15218.16
475.84	15272.00
476.02	15370.30
476.20	15412.43
476.38	15522.43
476.56	15906.28
476.74	15807.98
476.92	15676.91
477.10	15639.46
477.28	16231.62
477.46	16475.03
477.64	16121.61
477.82	16617.80
478.00	16802.71
478.18	16552.27
478.36	16917.39
478.54	17207.62
478.72	17074.21
478.90	17322.30
479.08	17589.13
479.26	17483.80
479.44	17687.43
479.62	17935.53
479.80	18001.06
479.98	17961.27
480.16	18380.23
480.34	18181.28
480.52	18546.40
480.70	18597.90
480.88	18534.70
481.06	18534.70
481.24	18808.54
481.41	19047.28
481.59	19023.87
481.77	19255.59
481.95	19412.40
482.13	19562.20
482.31	19566.88
482.49	20107.54
482.67	19889.87
482.85	20163.72
483.03	20638.84
483.21	20421.17
483.39	20706.72
483.57	21020.35
483.74	20994.61
483.92	21476.76
484.10	20699.70
484.28	21628.89
484.46	21811.45
484.64	22342.75
484.82	21802.09
485.00	22120.40
485.18	22712.56
485.35	22972.36
485.53	22317.01
485.71	22796.82
485.89	23283.65
486.07	23019.17
486.25	23323.44
486.43	23311.74
486.61	23805.59
486.78	23990.49
486.96	24123.90
487.14	24346.25
487.32	24491.37
487.50	24690.31
487.68	24858.83
487.85	25198.21
488.03	25497.80
488.21	25378.43
488.39	25673.34
488.57	25860.58
488.75	25914.41
488.92	26286.56
489.10	26558.06
489.28	26876.37
489.46	27129.15
489.64	26888.07
489.81	27442.78
489.99	27517.68
490.17	27576.19
490.35	27894.50
490.53	28456.23
490.70	28517.09
490.88	28390.70
491.06	28613.05
491.24	28414.10
491.41	28900.94
491.59	29427.56
491.77	29109.24
491.95	29628.84
492.13	29439.26
492.30	29977.58
492.48	30066.52
492.66	30171.85
492.84	30066.52
493.01	30534.63
493.19	29823.11
493.37	30937.20
493.54	30794.43
493.72	31274.24
493.90	31424.03
494.08	31519.99
494.25	31948.31
494.43	31875.76
494.61	32470.25
494.79	32332.16
494.96	32238.54
495.14	32931.34
495.32	32978.15
495.49	32804.95
495.67	33448.60
495.85	33031.98
496.02	33242.63
496.20	34206.93
496.38	33734.14
496.55	34497.16
496.73	34644.61
496.91	34071.18
497.09	34782.70
497.26	34735.89
497.44	34721.85
497.62	35091.65
497.79	35945.95
497.97	35316.34
498.14	35777.43
498.32	35913.18
498.50	36121.49
498.67	36514.70
498.85	36329.80
499.03	36584.91
499.20	36697.26
499.38	36664.49
499.56	36858.76
499.73	37284.73
499.91	37085.79
500.08	37329.20
500.26	37291.76
500.44	37343.25
500.61	37172.39
500.79	37411.12
500.97	37947.11
501.14	38349.68
501.32	38562.67
501.49	38265.42
501.67	38632.88
501.84	38614.16
502.02	38658.63
502.20	38932.47
502.37	38995.67
502.55	39051.84
502.72	38885.66
502.90	39028.43
503.07	39452.07
503.25	39047.16
503.43	39323.34
503.60	40156.57
503.78	39948.26
503.95	40081.67
504.13	40343.81
504.30	40687.87
504.48	40397.65
504.65	40465.52
504.83	40589.57
505.01	41621.75
505.18	41111.51
505.36	41673.24
505.53	41249.60
505.71	41507.06
505.88	41427.48
506.06	41425.14
506.23	41380.67
506.41	41855.80
506.58	42012.62
506.76	42253.69
506.93	42199.86
507.11	42342.63
507.28	42251.35
507.46	42721.80
507.63	42754.57
507.81	42576.69
507.98	42609.45
508.16	42487.74
508.33	42983.94
508.50	43117.35
508.68	43515.24
508.85	43906.11
509.03	43461.41
509.20	43765.68
509.38	44219.74
509.55	44289.96
509.73	44114.42
509.90	44329.75
510.08	44598.91
510.25	44458.48
510.42	44502.95
510.60	44797.85
510.77	44945.31
510.95	45202.77
511.12	45441.50
511.30	45088.08
511.47	45474.27
511.64	45310.43
511.82	45759.81
511.99	45177.02
512.17	45846.41
512.34	45649.81
512.51	46036.00
512.69	46312.18
512.86	46272.39
513.04	46817.74
513.21	46178.77
513.38	46487.72
513.56	47068.17
513.73	46408.14
513.90	46979.23
514.08	46431.55
514.25	47124.35
514.43	46979.23
514.60	47468.40
514.77	47122.01
514.95	47459.04
515.12	47452.02
515.29	47323.29
515.47	48067.58
515.64	47997.37
515.81	47363.08
515.99	47838.21
516.16	47730.54
516.33	48095.67
516.51	48409.30
516.68	48514.62
516.85	48046.52
517.03	48566.12
517.20	48491.22
517.37	48495.90
517.54	48491.22
517.72	48680.80
517.89	48921.88
518.06	48961.67
518.24	49099.76
518.41	49324.45
518.58	49228.49
518.75	48755.70
518.93	49055.29
519.10	49345.51
519.27	49521.05
519.45	49343.17
519.62	49570.21
519.79	49897.88
519.96	49944.69
520.14	50052.36
520.31	50010.23
520.48	50155.34
520.65	50103.85
520.83	50614.08
521.00	50267.69
521.17	50316.84
521.34	50314.50
521.52	50499.40
521.69	50621.11
521.86	50932.40
522.03	51047.08
522.20	51063.47
522.38	51358.38
522.55	51208.58
522.72	51035.38
522.89	51379.44
523.07	51587.75
523.24	51365.40
523.41	51859.25
523.58	51210.92
523.75	51779.67
523.92	51517.53
524.10	51838.18
524.27	51641.58
524.44	52016.07
524.61	51957.55
524.78	52046.49
524.96	51688.39
525.13	52275.87
525.30	52203.31
525.47	52158.84
525.64	52219.69
525.81	52369.49
525.98	52624.60
526.16	52191.61
526.33	52582.48
526.50	52722.91
526.67	52701.84
526.84	52814.19
527.01	52739.29
527.18	52875.04
527.36	52821.21
527.53	52666.73
527.70	53244.85
527.87	53186.33
528.04	52861.00
528.21	53155.91
528.38	53289.32
528.55	53429.75
528.72	53258.89
528.89	53268.25
529.07	53399.32
529.24	53284.64
529.41	53647.42
529.58	53673.16
529.75	53385.28
529.92	53591.25
530.09	53705.93
530.26	53792.53
530.43	53818.28
530.60	53668.48
530.77	53624.01
530.94	54094.46
531.11	53860.41
531.28	53865.09
531.46	53972.75
531.63	54054.67
531.80	53958.71
531.97	53937.65
532.14	54363.62
532.31	54445.54
532.48	54740.45
532.65	54520.44
532.82	54309.79
532.99	54700.66
533.16	54405.75
533.33	54356.60
533.50	54667.89
533.67	54569.59
533.84	54461.93
534.01	54911.31
534.18	54890.24
534.35	55121.96
534.52	54813.01
534.69	54906.63
534.86	55047.06
535.03	54749.81
535.20	55164.09
535.37	55194.51
535.54	54986.21
535.71	55047.06
535.88	55023.65
536.05	55463.67
536.22	55503.46
536.38	55454.31
536.55	55660.28
536.72	55648.58
536.89	55430.91
537.06	55402.82
537.23	55512.83
537.40	55557.30
537.57	55702.41
537.74	55515.17
537.91	55922.42
538.08	55622.83
538.25	55583.04
538.42	55812.41
538.59	55901.36
538.75	55646.24
538.92	55906.04
539.09	56072.21
539.26	56020.72
539.43	55917.74
539.60	56128.39
539.77	56158.81
539.94	56453.72
540.11	56191.58
540.28	56009.02
540.44	56205.62
540.61	56348.40
540.78	56374.14
540.95	56465.42
541.12	56170.52
541.29	56381.16
541.46	56072.21
541.62	56306.27
541.79	56530.96
541.96	56137.75
542.13	56404.57
542.30	56598.83
542.47	56624.58
542.63	56757.99
542.80	56938.21
542.97	57024.81
543.14	56961.62
543.31	57120.77
543.48	56966.30
543.64	57237.80
543.81	57352.49
543.98	57090.35
544.15	57350.15
544.32	57364.19
544.48	57474.20
544.65	57396.96
544.82	57230.78
544.99	57176.95
545.16	57406.32
545.32	57392.28
545.49	57495.26
545.66	57705.91
545.83	57415.68
546.00	57748.04
546.16	57607.61
546.33	57392.28
546.50	57439.09
546.67	57612.29
546.83	57350.15
547.00	57326.74
547.17	57485.90
547.34	57712.93
547.50	57867.40
547.67	58033.58
547.84	57656.76
548.00	57998.48
548.17	57986.77
548.34	57886.13
548.51	58024.22
548.67	58054.65
548.84	58145.93
549.01	58071.03
549.18	58089.76
549.34	58007.84
549.51	58087.42
549.68	58204.44
549.84	58148.27
550.01	58351.90
550.18	58129.54
550.34	58379.98
550.51	58354.24
550.68	58396.37
550.84	58174.02
551.01	58401.05
551.18	58340.19
551.34	58417.43
551.51	58225.51
551.68	58328.49
551.84	58358.92
552.01	58251.25
552.18	58429.13
552.34	58143.59
552.51	58623.40
552.68	58485.31
552.84	58461.90
553.01	58887.88
553.18	58679.57
553.34	58822.34
553.51	58569.57
553.67	58939.37
553.84	58866.81
554.01	58953.41
554.17	59105.55
554.34	58841.07
554.51	58894.90
554.67	59079.80
554.84	58810.64
555.00	58740.42
555.17	58803.62
555.33	58834.05
555.50	58763.83
555.67	58972.14
555.83	58894.90
556.00	58887.88
556.16	59344.28
556.33	59231.94
556.50	59086.82
556.66	59370.03
556.83	58997.88
556.99	59236.62
557.16	59255.34
557.32	59351.30
557.49	59449.61
557.65	59175.76
557.82	59414.50
557.98	59297.47
558.15	59150.02
558.32	59311.52
558.48	59164.06
558.65	59166.40
558.81	59250.66
558.98	59442.59
559.14	59412.16
559.31	59627.49
559.47	59576.00
559.64	59819.41
559.80	59742.17
559.97	59732.81
560.13	59660.26
560.30	59702.38
560.46	59648.55
560.63	59863.88
560.79	59557.27
560.96	59742.17
561.12	59744.51
561.29	59718.77
561.45	59625.15
561.61	59788.98
561.78	59655.57
561.94	59660.26
562.11	59646.21
562.27	59620.47
562.44	59903.67
562.60	60030.06
562.77	59796.01
562.93	59618.13
563.10	59840.48
563.26	59732.81
563.42	60030.06
563.59	59838.14
563.75	59938.78
563.92	59999.63
564.08	59884.95
564.24	60100.28
564.41	59938.78
564.57	59943.46
564.74	60027.72
564.90	60027.72
565.07	59938.78
565.23	59959.84
565.39	59994.95
565.56	60147.09
565.72	60079.21
565.88	60090.91
566.05	59854.52
566.21	59927.08
566.38	60133.04
566.54	60018.36
566.70	60119.00
566.87	60198.58
567.03	59875.58
567.19	60268.79
567.36	60322.63
567.52	60086.23
567.68	60315.61
567.85	60289.86
568.01	60364.76
568.17	60236.03
568.34	60289.86
568.50	60151.77
568.66	60144.75
568.83	60278.16
568.99	60126.02
569.15	60264.11
569.32	60420.93
569.48	60409.23
569.64	60603.49
569.81	60334.33
569.97	60238.37
570.13	60488.80
570.30	60257.09
570.46	60493.49
570.62	60481.78
570.78	60350.71
570.95	60381.14
571.11	60371.78
571.27	60257.09
571.43	60514.55
571.60	60561.36
571.76	60589.45
571.92	60369.44
572.09	60484.12
572.25	60458.38
572.41	60521.57
572.57	60601.15
572.74	60631.58
572.90	60303.90
573.06	60385.82
573.22	60514.55
573.38	60612.85
573.55	60458.38
573.71	60697.11
573.87	60676.05
574.03	60453.70
574.20	60467.74
574.36	60498.17
574.52	60704.13
574.68	60533.28
574.84	60783.71
575.01	60626.90
575.17	60570.72
575.33	60409.23
575.49	60556.68
575.65	60664.35
575.82	60554.34
575.98	60725.20
576.14	60781.37
576.30	60774.35
576.46	60556.68
576.62	60449.02
576.79	60570.72
576.95	60612.85
577.11	60640.94
577.27	60687.75
577.43	60729.88
577.59	60769.67
577.75	60563.70
577.92	60500.51
578.08	60678.39
578.24	60666.69
578.40	60860.95
578.56	60769.67
578.72	60662.00
578.88	60945.21
579.04	60743.92
579.21	60666.69
579.37	60846.91
579.53	60877.33
579.69	60556.68
579.85	60645.62
580.01	60650.30
580.17	60411.57
580.33	60907.76
580.49	60779.03
580.65	60882.02
580.82	60790.73
580.98	60624.56
581.14	60678.39
581.30	60832.86
581.46	60856.27
581.62	60949.89
581.78	60690.09
581.94	60633.92
582.10	60788.39
582.26	60786.05
582.42	60645.62
582.58	60678.39
582.74	60772.01
582.90	61071.60
583.06	60685.41
583.22	60666.69
583.38	60624.56
583.54	60879.67
583.70	60776.69
583.86	60994.36
584.02	60664.35
584.18	60912.44
584.34	61006.06
584.50	60718.18
584.66	60825.84
584.82	60687.75
584.98	61148.84
585.14	60767.33
585.30	60748.60
585.46	60886.70
585.62	60860.95
585.78	60884.36
585.94	60973.30
586.10	60919.46
586.26	60821.16
586.42	60898.40
586.58	60961.59
586.74	61013.08
586.90	60882.02
587.06	60882.02
587.22	60889.04
587.38	60741.58
587.54	61001.38
587.70	61141.81
587.86	61134.79
588.02	60947.55
588.18	60912.44
588.34	60830.52
588.49	60949.89
