SpectraSuite Data File
++++++++++++++++++++++++++++++++++++
Date: Fri Oct 25 11:23:34 EDT 2013
User: price-jones
Dark Spectrum Present: No
Reference Spectrum Present: No
Number of Sampled Component Spectra: 1
Spectrometers: USB2+H05261
Integration Time (usec): 100000 (USB2+H05261)
Spectra Averaged: 1 (USB2+H05261)
Boxcar Smoothing: 0 (USB2+H05261)
Correct for Electrical Dark: No (USB2+H05261)
Strobe/Lamp Enabled: No (USB2+H05261)
Correct for Detector Non-linearity: No (USB2+H05261)
Correct for Stray Light: No (USB2+H05261)
Number of Pixels in Processed Spectrum: 2048
>>>>>Begin Processed Spectral Data<<<<<
365.73	212.99
365.92	212.99
366.12	212.99
366.32	173.20
366.52	79.58
366.72	203.63
366.91	191.92
367.11	215.33
367.31	205.97
367.51	126.39
367.70	168.52
367.90	168.52
368.10	110.01
368.30	74.90
368.49	74.90
368.69	152.13
368.89	222.35
369.09	163.84
369.28	187.24
369.48	142.77
369.68	154.48
369.87	182.56
370.07	210.65
370.27	238.73
370.47	299.59
370.66	545.34
370.86	638.97
371.06	648.33
371.25	697.48
371.45	655.35
371.65	629.60
371.84	681.10
372.04	671.73
372.24	702.16
372.44	725.57
372.63	737.27
372.83	737.27
373.03	758.33
373.22	709.18
373.42	702.16
373.62	711.52
373.81	751.31
374.01	840.25
374.21	718.54
374.40	870.68
374.60	875.36
374.79	774.72
374.99	802.80
375.19	849.61
375.38	844.93
375.58	854.30
375.78	828.55
375.97	795.78
376.17	873.02
376.37	781.74
376.56	896.43
376.76	896.43
376.95	826.21
377.15	833.23
377.35	828.55
377.54	870.68
377.74	919.83
377.93	809.83
378.13	961.96
378.33	905.79
378.52	891.74
378.72	868.34
378.91	954.94
379.11	837.91
379.31	952.60
379.50	898.77
379.70	997.07
379.89	950.26
380.09	980.68
380.28	891.74
380.48	992.39
380.68	1039.20
380.87	1050.90
381.07	954.94
381.26	1041.54
381.46	978.34
381.65	1006.43
381.85	1116.44
382.04	1050.90
382.24	1057.92
382.43	1053.24
382.63	964.30
382.83	1081.33
383.02	1074.31
383.22	1081.33
383.41	1097.71
383.61	1076.65
383.80	1078.99
384.00	1128.14
384.19	1149.20
384.39	1043.88
384.58	1135.16
384.78	1125.80
384.97	1174.95
385.17	1071.97
385.36	1123.46
385.56	1160.91
385.75	1179.63
385.95	1228.78
386.14	1221.76
386.34	1214.74
386.53	1245.16
386.72	1196.01
386.92	1235.80
387.11	1320.06
387.31	1203.04
387.50	1296.66
387.70	1245.16
387.89	1287.29
388.09	1341.13
388.28	1259.21
388.48	1261.55
388.67	1266.23
388.86	1334.11
389.06	1289.64
389.25	1291.98
389.45	1287.29
389.64	1348.15
389.84	1341.13
390.03	1479.22
390.22	1378.58
390.42	1294.32
390.61	1308.36
390.81	1423.05
391.00	1352.83
391.19	1453.47
391.39	1411.34
391.58	1540.07
391.78	1453.47
391.97	1401.98
392.16	1540.07
392.36	1607.95
392.55	1561.14
392.75	1540.07
392.94	1542.41
393.13	1582.20
393.33	1476.88
393.52	1603.27
393.71	1575.18
393.91	1600.93
394.10	1453.47
394.29	1528.37
394.49	1570.50
394.68	1675.82
394.88	1607.95
395.07	1682.85
395.26	1650.08
395.46	1692.21
395.65	1757.74
395.84	1710.93
396.04	1837.32
396.23	1795.19
396.42	1825.62
396.62	1757.74
396.81	1762.42
397.00	1823.28
397.19	1809.23
397.39	1788.17
397.58	1849.02
397.77	1830.30
397.97	1984.77
398.16	1867.75
398.35	1909.88
398.55	1902.86
398.74	1949.67
398.93	1928.60
399.12	1842.00
399.32	1973.07
399.51	1956.69
399.70	1944.99
399.90	1937.96
400.09	1973.07
400.28	2022.22
400.47	2012.86
400.67	1994.14
400.86	2057.33
401.05	2090.10
401.24	2106.48
401.44	2197.76
401.63	2108.82
401.82	2181.38
402.01	2073.71
402.21	2108.82
402.40	2258.62
402.59	2136.91
402.78	2176.70
402.97	2172.02
403.17	2211.81
403.36	2326.49
403.55	2321.81
403.74	2279.68
403.93	2380.32
404.13	2345.22
404.32	2382.67
404.51	2417.77
404.70	2441.18
404.89	2469.27
405.09	2520.76
405.28	2579.27
405.47	2480.97
405.66	2483.31
405.85	2593.31
406.05	2513.74
406.24	2443.52
406.43	2525.44
406.62	2534.80
406.81	2689.28
407.00	2581.61
407.20	2581.61
407.39	2630.76
407.58	2670.55
407.77	2754.81
407.96	2761.83
408.15	2820.35
408.34	2731.41
408.54	2743.11
408.73	2799.28
408.92	2892.90
409.11	2939.71
409.30	2928.01
409.49	2930.35
409.68	2853.11
409.87	3033.33
410.07	2958.44
410.26	3005.25
410.45	2984.18
410.64	2960.78
410.83	3087.17
411.02	3019.29
411.21	3201.85
411.40	3129.30
411.59	3152.70
411.78	3152.70
411.98	3236.96
412.17	3251.00
412.36	3384.41
412.55	3318.88
412.74	3473.36
412.93	3375.05
413.12	3365.69
413.31	3618.47
413.50	3433.57
413.69	3403.14
413.88	3667.62
414.07	3672.30
414.26	3604.42
414.45	3660.60
414.64	3693.37
414.83	3798.69
415.02	3782.31
415.22	3812.73
415.41	3815.07
415.60	3843.16
415.79	3953.16
415.98	4072.53
416.17	4025.72
416.36	3833.80
416.55	4037.42
416.74	4184.88
416.93	3969.55
417.12	4142.75
417.31	4285.52
417.50	4154.45
417.69	4212.96
417.88	4276.16
418.07	4229.35
418.26	4248.07
418.45	4402.55
418.64	4545.32
418.83	4369.78
419.02	4461.06
419.21	4531.28
419.39	4451.70
419.58	4510.21
419.77	4660.01
419.96	4645.96
420.15	4662.35
420.34	4702.14
420.53	4643.62
420.72	4688.09
420.91	4753.63
421.10	4777.03
421.29	4699.80
421.48	4669.37
421.67	4814.48
421.86	4725.54
422.05	4751.29
422.24	4863.63
422.43	4835.55
422.61	4816.82
422.80	4854.27
422.99	4870.65
423.18	4896.40
423.37	4844.91
423.56	4997.04
423.75	5139.82
423.94	4880.02
424.13	4788.74
424.32	4798.10
424.50	4959.60
424.69	5081.30
424.88	5146.84
425.07	5085.98
425.26	4894.06
425.45	5109.39
425.64	5025.13
425.83	5076.62
426.01	5163.22
426.20	5022.79
426.39	5032.15
426.58	5008.75
426.77	5050.88
426.96	5151.52
427.15	5203.01
427.33	5139.82
427.52	5118.75
427.71	5102.37
427.90	5203.01
428.09	5329.40
428.28	5364.51
428.46	5455.79
428.65	5219.39
428.84	5542.39
429.03	5617.29
429.22	5514.30
429.40	5401.96
429.59	5584.52
429.78	5219.39
429.97	5282.59
430.16	5530.69
430.34	5720.27
430.53	5547.07
430.72	5762.40
430.91	5746.02
431.10	5673.46
431.28	5643.03
431.47	5706.23
431.66	5776.44
431.85	5867.72
432.03	5849.00
432.22	5933.26
432.41	5867.72
432.60	6008.16
432.79	6047.94
432.97	6040.92
433.16	5898.15
433.35	6029.22
433.54	6143.91
433.72	6066.67
433.91	6197.74
434.10	6270.30
434.28	6045.60
434.47	6282.00
434.66	6232.85
434.85	6256.25
435.03	6286.68
435.22	6237.53
435.41	6340.51
435.59	6387.32
435.78	6464.56
435.97	6548.82
436.16	6349.87
436.34	6628.40
436.53	6448.18
436.72	6698.61
436.90	6487.96
437.09	6740.74
437.28	6602.65
437.46	6654.14
437.65	6684.57
437.84	6855.43
438.02	6579.25
438.21	6827.34
438.40	6576.91
438.58	7143.32
438.77	7105.87
438.96	6951.39
439.14	7253.32
439.33	7115.23
439.52	7206.51
439.70	7377.37
439.89	7250.98
440.08	7356.30
440.26	7454.61
440.45	7440.56
440.63	7527.16
440.82	7569.29
441.01	7573.97
441.19	7779.94
441.38	7779.94
441.57	7950.80
441.75	7901.65
441.94	8060.80
442.12	8065.49
442.31	8154.43
442.50	8025.70
442.68	7988.25
442.87	8021.02
443.05	7985.91
443.24	8060.80
443.43	8079.53
443.61	8182.51
443.80	8313.58
443.98	7932.08
444.17	7983.57
444.35	8297.20
444.54	8325.29
444.73	8454.02
444.91	8276.13
445.10	8322.94
445.28	8418.91
445.47	8327.63
445.65	8468.06
445.84	8629.56
446.02	8351.03
446.21	8454.02
446.39	8528.91
446.58	8526.57
446.77	8547.64
446.95	8280.82
447.14	8585.08
447.32	8662.32
447.51	8498.49
447.69	8491.46
447.88	8367.42
448.06	8491.46
448.25	8346.35
448.43	8596.79
448.62	8723.18
448.80	8505.51
448.99	8681.05
449.17	8671.68
449.36	8746.58
449.54	8851.91
449.73	8889.35
449.91	8943.19
450.10	9034.47
450.28	9202.99
450.46	9015.74
450.65	9048.51
450.83	9006.38
451.02	9240.44
451.20	9135.11
451.39	9277.88
451.57	9167.88
451.76	9121.07
451.94	9359.80
452.13	9298.95
452.31	9366.82
452.49	9301.29
452.68	9521.30
452.86	9415.98
453.05	9474.49
453.23	9434.70
453.42	9305.97
453.60	9423.00
453.78	9621.94
453.97	9490.87
454.15	9458.10
454.34	9462.79
454.52	9846.63
454.70	9942.60
454.89	9802.16
455.07	9863.02
455.26	9806.84
455.44	10099.41
455.62	9905.15
455.81	9895.78
455.99	9818.55
456.17	10141.54
456.36	10068.98
456.54	10354.53
456.73	10286.65
456.91	10429.43
457.09	10551.14
457.28	10581.56
457.46	10417.72
457.64	10516.03
457.83	10523.05
458.01	10518.37
458.19	10904.56
458.38	10492.62
458.56	10778.17
458.74	10824.98
458.93	10670.50
459.11	10984.13
459.29	10731.36
459.48	10932.64
459.66	10860.09
459.84	10930.30
460.03	10949.03
460.21	11094.14
460.39	11178.40
460.57	10988.82
460.76	11159.67
460.94	11290.74
461.12	11147.97
461.31	11260.32
461.49	11080.10
461.67	11164.36
461.85	11332.87
462.04	11255.64
462.22	11513.10
462.40	11826.73
462.59	11707.36
462.77	11595.01
462.95	11550.54
463.13	11747.15
463.32	11754.17
463.50	11868.86
463.68	11735.45
463.86	11934.39
464.05	11800.98
464.23	11946.09
464.41	11599.70
464.59	11590.33
464.78	12093.55
464.96	12142.70
465.14	11946.09
465.32	12102.91
465.50	12109.93
465.69	12105.25
465.87	12306.54
466.05	12098.23
466.23	12147.38
466.41	12231.64
466.60	12484.42
466.78	12072.48
466.96	12360.37
467.14	12318.24
467.32	12397.82
467.51	12479.74
467.69	12250.36
467.87	12594.42
468.05	12461.01
468.23	12556.97
468.41	12306.54
468.60	12678.68
468.78	12599.10
468.96	12571.02
469.14	13074.23
469.32	13071.89
469.50	13055.51
469.69	13060.19
469.87	13097.64
470.05	13104.66
470.23	13151.47
470.41	13011.04
470.59	13039.12
470.77	13390.20
470.95	13394.89
471.14	13790.44
471.32	13327.01
471.50	13565.74
471.68	13378.50
471.86	13282.54
472.04	13769.37
472.22	14085.34
472.40	13558.72
472.58	13872.36
472.77	14045.55
472.95	14253.86
473.13	14757.08
473.31	14143.86
473.49	14265.57
473.67	14396.64
473.85	14225.78
474.03	14478.55
474.21	14796.87
474.39	14754.74
474.57	14504.30
474.75	14794.53
474.93	15077.73
475.12	14799.21
475.30	15367.96
475.48	14972.41
475.66	15279.02
475.84	15316.47
476.02	15515.41
476.20	15410.09
476.38	15583.29
476.56	16360.34
476.74	16086.50
476.92	16063.10
477.10	15868.83
477.28	15990.54
477.46	16365.03
477.64	16287.79
477.82	16519.50
478.00	17018.04
478.18	16936.12
478.36	17106.98
478.54	17369.12
478.72	17298.90
478.90	17493.16
479.08	17380.82
479.26	17706.15
479.44	17752.96
479.62	17926.16
479.80	18033.83
479.98	18085.32
480.16	18824.93
480.34	18623.64
480.52	18843.65
480.70	18738.33
480.88	18494.91
481.06	18977.06
481.24	18789.82
481.41	19283.67
481.59	19477.94
481.77	19524.75
481.95	19644.12
482.13	19770.51
482.31	19850.08
482.49	20496.07
482.67	20446.92
482.85	20500.75
483.03	20676.29
483.21	20868.22
483.39	20936.09
483.57	20872.90
483.74	21151.42
483.92	21645.27
484.10	21448.67
484.28	22026.78
484.46	22073.59
484.64	22317.01
484.82	22260.84
485.00	22263.18
485.18	23037.89
485.35	23161.94
485.53	22951.29
485.71	22834.27
485.89	23351.52
486.07	23487.28
486.25	23325.78
486.43	23571.54
486.61	24198.80
486.78	24301.78
486.96	24215.18
487.14	24657.54
487.32	24636.48
487.50	25013.31
487.68	25146.72
487.85	25631.21
488.03	25420.56
488.21	25968.24
488.39	25752.91
488.57	26085.27
488.75	26195.28
488.92	26869.35
489.10	26902.12
489.28	26710.19
489.46	27098.72
489.64	27094.04
489.81	27913.23
489.99	27496.61
490.17	27761.09
490.35	28011.53
490.53	28332.18
490.70	28599.01
490.88	28306.44
491.06	28994.56
491.24	28929.02
491.41	29195.84
491.59	28926.68
491.77	29296.49
491.95	29553.94
492.13	29912.05
492.30	30281.85
492.48	30235.04
492.66	30129.72
492.84	30298.23
493.01	31065.93
493.19	30937.20
493.37	31101.04
493.54	31143.17
493.72	31503.61
493.90	31742.35
494.08	32081.72
494.25	31735.32
494.43	32088.74
494.61	32142.58
494.79	32929.00
494.96	32676.22
495.14	32706.65
495.32	33345.61
495.49	33455.62
495.67	33191.14
495.85	33731.80
496.02	33806.70
496.20	34199.91
496.38	34134.37
496.55	34110.97
496.73	35007.39
496.91	34969.94
497.09	35014.41
497.26	35496.56
497.44	35192.30
497.62	34955.90
497.79	35924.88
497.97	35365.49
498.14	35819.56
498.32	36460.87
498.50	36446.82
498.67	36474.91
498.85	36636.41
499.03	36687.90
499.20	37048.34
499.38	36790.88
499.56	37635.81
499.73	37670.92
499.91	37797.31
500.08	37376.01
500.26	37563.26
500.44	37837.10
500.61	37968.17
500.79	38223.29
500.97	37993.92
501.14	38969.92
501.32	38527.56
501.49	38810.76
501.67	39019.07
501.84	39400.58
502.02	39131.42
502.20	39047.16
502.37	39388.88
502.55	39452.07
502.72	39786.77
502.90	39854.64
503.07	39728.25
503.25	40140.19
503.43	40030.18
503.60	40046.57
503.78	40184.66
503.95	40423.39
504.13	40224.45
504.30	40753.41
504.48	40678.51
504.65	41034.27
504.83	41165.34
505.01	41734.09
505.18	41153.64
505.36	41504.72
505.53	41579.62
505.71	41729.41
505.88	42312.20
506.06	41790.27
506.23	42113.26
506.41	41748.14
506.58	42078.15
506.76	42501.79
506.93	42665.63
507.11	42728.82
507.28	43232.04
507.46	42878.61
507.63	42738.18
507.81	42990.96
507.98	43164.16
508.16	43515.24
508.33	43625.25
508.50	43842.92
508.68	43695.46
508.85	44053.56
509.03	44264.21
509.20	44203.36
509.38	44423.37
509.55	44287.62
509.73	44666.78
509.90	44814.24
510.08	44404.64
510.25	44886.79
510.42	44994.46
510.60	45132.55
510.77	45359.58
510.95	45778.54
511.12	45366.60
511.30	45670.87
511.47	45832.37
511.64	45532.78
511.82	46216.22
511.99	46024.29
512.17	46024.29
512.34	45956.42
512.51	46679.64
512.69	46705.39
512.86	46557.94
513.04	46930.08
513.21	47159.45
513.38	46820.08
513.56	47384.15
513.73	46939.44
513.90	47414.57
514.08	47299.89
514.25	47508.19
514.43	47437.98
514.60	47763.31
514.77	47732.89
514.95	47959.92
515.12	47749.27
515.29	48147.16
515.47	48334.40
515.64	48210.35
515.81	48552.07
515.99	48428.02
516.16	48463.13
516.33	48341.42
516.51	48982.73
516.68	48676.12
516.85	48968.69
517.03	49308.07
517.20	48947.62
517.37	49219.13
517.54	49198.06
517.72	49076.35
517.89	49174.66
518.06	49778.51
518.24	49198.06
518.41	49404.03
518.58	49556.16
518.75	49598.29
518.93	49670.85
519.10	49389.98
519.27	49844.05
519.45	49928.31
519.62	50162.36
519.79	50370.67
519.96	50108.53
520.14	50494.72
520.31	50190.45
520.48	50234.92
520.65	50499.40
520.83	50813.03
521.00	50908.99
521.17	50946.44
521.34	50656.21
521.52	50981.55
521.69	51171.13
521.86	51030.70
522.03	51494.13
522.20	51505.83
522.38	51728.18
522.55	51320.93
522.72	51716.48
522.89	51255.39
523.07	51587.75
523.24	51543.28
523.41	52114.37
523.58	51611.15
523.75	52233.74
523.92	51515.19
524.10	52229.05
524.27	52193.95
524.44	52137.77
524.61	52325.02
524.78	52437.36
524.96	52404.59
525.13	52236.08
525.30	52884.40
525.47	52523.96
525.64	52645.67
525.81	52917.17
525.98	52783.76
526.16	52664.39
526.33	52676.10
526.50	53450.81
526.67	53043.56
526.84	53396.98
527.01	53069.31
527.18	52961.64
527.36	53289.32
527.53	53176.97
527.70	53284.64
527.87	53385.28
528.04	53169.95
528.21	53499.97
528.38	53581.88
528.55	53794.87
528.72	53296.34
528.89	53532.73
529.07	53483.58
529.24	53645.08
529.41	53841.68
529.58	53769.13
529.75	53656.78
529.92	54005.52
530.09	54071.06
530.26	54045.31
530.43	54298.09
530.60	54038.29
530.77	54061.69
530.94	54358.94
531.11	54059.35
531.28	54349.58
531.46	54145.95
531.63	54330.86
531.80	54513.42
531.97	54536.82
532.14	54485.33
532.31	54424.48
532.48	54747.47
532.65	54728.75
532.82	54571.93
532.99	55082.17
533.16	54571.93
533.33	55117.28
533.50	55077.49
533.67	54834.07
533.84	54953.44
534.01	55458.99
534.18	55082.17
534.35	55454.31
534.52	55210.90
534.69	55302.18
534.86	55400.48
535.03	55147.70
535.20	55468.36
535.37	55363.03
535.54	55487.08
535.71	55306.86
535.88	55487.08
536.05	55545.59
536.22	55683.69
536.38	55891.99
536.55	55746.88
536.72	55936.46
536.89	55573.68
537.06	55648.58
537.23	55866.25
537.40	55632.19
537.57	55758.58
537.74	56037.11
537.91	56151.79
538.08	56044.13
538.25	55838.16
538.42	56027.74
538.59	56266.48
538.75	56109.66
538.92	56116.68
539.09	55987.95
539.26	56224.35
539.43	56121.37
539.60	56507.55
539.77	56432.66
539.94	56580.11
540.11	56306.27
540.28	56500.53
540.44	56633.94
540.61	56631.60
540.78	56638.62
540.95	56486.49
541.12	56594.15
541.29	56664.37
541.46	56655.01
541.62	56582.45
541.79	56708.84
541.96	56472.45
542.13	56549.68
542.30	56900.76
542.47	56832.89
542.63	56968.64
542.80	57085.67
542.97	57247.16
543.14	57387.60
543.31	57286.95
543.48	57130.14
543.64	57446.11
543.81	57305.68
543.98	57626.33
544.15	57439.09
544.32	57591.22
544.48	57642.71
544.65	57387.60
544.82	57509.30
544.99	57375.89
545.16	57808.89
545.32	57521.01
545.49	57923.58
545.66	57663.78
545.83	57827.62
546.00	57954.00
546.16	57834.64
546.33	57715.27
546.50	57516.32
546.67	57911.88
546.83	57542.07
547.00	57813.57
547.17	57851.02
547.34	57785.49
547.50	58073.37
547.67	58232.53
547.84	58110.82
548.00	58138.91
548.17	58349.56
548.34	58499.35
548.51	58288.70
548.67	58553.18
548.84	58234.87
549.01	58241.89
549.18	58204.44
549.34	58436.16
549.51	58473.60
549.68	58583.61
549.84	58543.82
550.01	58482.97
550.18	58426.79
550.34	58717.02
550.51	58693.61
550.68	58532.12
550.84	58464.24
551.01	58637.44
551.18	58529.78
551.34	58838.73
551.51	58702.98
551.68	58621.06
551.84	58738.08
552.01	58571.91
552.18	58995.54
552.34	58768.51
552.51	59154.70
552.68	58639.78
552.84	58862.13
553.01	59035.33
553.18	58967.46
553.34	59145.34
553.51	58827.02
553.67	59199.17
553.84	59128.95
554.01	58944.05
554.17	59100.87
554.34	59185.13
554.51	59187.47
554.67	59040.01
554.84	59185.13
555.00	59121.93
555.17	59114.91
555.33	59121.93
555.50	58990.86
555.67	59044.69
555.83	59178.10
556.00	59353.65
556.16	59405.14
556.33	59405.14
556.50	59311.52
556.66	59568.97
556.83	59470.67
556.99	59409.82
557.16	59512.80
557.32	59683.66
557.49	59866.22
557.65	59386.41
557.82	59234.28
557.98	59620.47
558.15	59583.02
558.32	59491.74
558.48	59487.06
558.65	59554.93
558.81	59398.12
558.98	59540.89
559.14	59723.45
559.31	59728.13
559.47	59798.35
559.64	59540.89
559.80	59943.46
559.97	59767.92
560.13	59683.66
560.30	59976.23
560.46	59838.14
560.63	60053.47
560.79	60001.97
560.96	60048.78
561.12	59856.86
561.29	59985.59
561.45	60020.70
561.61	60060.49
561.78	59976.23
561.94	59966.87
562.11	59999.63
562.27	60032.40
562.44	59952.82
562.60	59994.95
562.77	60034.74
562.93	59943.46
563.10	60093.25
563.26	59868.56
563.42	60306.24
563.59	60133.04
563.75	60191.56
563.92	60226.66
564.08	60011.34
564.24	60299.22
564.41	60207.94
564.57	60207.94
564.74	60240.71
564.90	60470.08
565.07	60170.49
565.23	60357.74
565.39	60126.02
565.56	60282.84
565.72	60264.11
565.88	60343.69
566.05	60205.60
566.21	60336.67
566.38	60329.65
566.54	60355.39
566.70	60467.74
566.87	60587.11
567.03	60119.00
567.19	60544.98
567.36	60280.50
567.52	60374.12
567.68	60544.98
567.85	60470.08
568.01	60537.96
568.17	60594.13
568.34	60622.22
568.50	60446.68
568.66	60523.91
568.83	60528.59
568.99	60493.49
569.15	60624.56
569.32	60327.31
569.48	60556.68
569.64	60687.75
569.81	60467.74
569.97	60589.45
570.13	60540.30
570.30	60453.70
570.46	60596.47
570.62	60629.24
570.78	60692.43
570.95	60552.00
571.11	60673.71
571.27	60619.88
571.43	60690.09
571.60	60896.06
571.76	60811.80
571.92	60640.94
572.09	60645.62
572.25	60657.32
572.41	60669.03
572.57	60732.22
572.74	60989.68
572.90	60617.53
573.06	60711.16
573.22	60893.72
573.38	60673.71
573.55	60704.13
573.71	60699.45
573.87	60889.04
574.03	60741.58
574.20	60762.65
574.36	60659.66
574.52	60811.80
574.68	60757.97
574.84	60917.12
575.01	61015.43
575.17	60764.99
575.33	60853.93
575.49	60865.63
575.65	60903.08
575.82	60874.99
575.98	60949.89
576.14	61193.31
576.30	60907.76
576.46	61043.51
576.62	60725.20
576.79	60772.01
576.95	60882.02
577.11	60809.46
577.27	60893.72
577.43	61059.90
577.59	60739.24
577.75	60816.48
577.92	60954.57
578.08	60818.82
578.24	60999.04
578.40	61125.43
578.56	61073.94
578.72	60954.57
578.88	61038.83
579.04	61008.40
579.21	60963.93
579.37	61148.84
579.53	61013.08
579.69	60912.44
579.85	61036.49
580.01	61073.94
580.17	60889.04
580.33	61104.37
580.49	61010.74
580.65	60961.59
580.82	61052.87
580.98	60839.89
581.14	60874.99
581.30	61338.42
581.46	60987.34
581.62	60933.51
581.78	60849.25
581.94	61141.81
582.10	60891.38
582.26	60954.57
582.42	61017.77
582.58	61013.08
582.74	61010.74
582.90	61158.20
583.06	61029.47
583.22	60858.61
583.38	61057.56
583.54	60987.34
583.70	61186.28
583.86	61130.11
584.02	61036.49
584.18	61258.84
584.34	61024.79
584.50	61263.52
584.66	61183.94
584.82	60828.18
584.98	61272.88
585.14	61167.56
585.30	60821.16
585.46	61324.38
585.62	61104.37
585.78	61251.82
585.94	61071.60
586.10	61059.90
586.26	61261.18
586.42	61172.24
586.58	61155.86
586.74	61034.15
586.90	60966.27
587.06	61240.12
587.22	61132.45
587.38	61104.37
587.54	61240.12
587.70	61219.05
587.86	61251.82
588.02	61141.81
588.18	61247.14
588.34	61104.37
588.49	61382.89
