SpectraSuite Data File
++++++++++++++++++++++++++++++++++++
Date: Fri Oct 25 11:25:14 EDT 2013
User: price-jones
Dark Spectrum Present: No
Reference Spectrum Present: No
Number of Sampled Component Spectra: 1
Spectrometers: USB2+H05261
Integration Time (usec): 100000 (USB2+H05261)
Spectra Averaged: 1 (USB2+H05261)
Boxcar Smoothing: 0 (USB2+H05261)
Correct for Electrical Dark: No (USB2+H05261)
Strobe/Lamp Enabled: No (USB2+H05261)
Correct for Detector Non-linearity: No (USB2+H05261)
Correct for Stray Light: No (USB2+H05261)
Number of Pixels in Processed Spectrum: 2048
>>>>>Begin Processed Spectral Data<<<<<
365.73	262.14
365.92	262.14
366.12	262.14
366.32	135.75
366.52	140.43
366.72	180.22
366.91	128.73
367.11	184.90
367.31	58.51
367.51	95.96
367.70	84.26
367.90	156.82
368.10	112.35
368.30	131.07
368.49	145.11
368.69	227.03
368.89	220.01
369.09	173.20
369.28	187.24
369.48	184.90
369.68	191.92
369.87	187.24
370.07	201.29
370.27	227.03
370.47	311.29
370.66	550.03
370.86	657.69
371.06	678.76
371.25	702.16
371.45	720.88
371.65	676.41
371.84	730.25
372.04	674.07
372.24	655.35
372.44	744.29
372.63	758.33
372.83	720.88
373.03	730.25
373.22	704.50
373.42	791.10
373.62	781.74
373.81	737.27
374.01	847.27
374.21	690.46
374.40	704.50
374.60	760.67
374.79	854.30
374.99	826.21
375.19	908.13
375.38	791.10
375.58	830.89
375.78	816.85
375.97	791.10
376.17	901.11
376.37	931.53
376.56	793.44
376.76	894.08
376.95	863.66
377.15	800.46
377.35	931.53
377.54	882.38
377.74	936.21
377.93	919.83
378.13	924.51
378.33	1008.77
378.52	894.08
378.72	950.26
378.91	964.30
379.11	889.40
379.31	940.90
379.50	908.13
379.70	1027.50
379.89	985.37
380.09	997.07
380.28	929.19
380.48	933.87
380.68	943.24
380.87	910.47
381.07	940.90
381.26	1043.88
381.46	997.07
381.65	1102.39
381.85	997.07
382.04	1090.69
382.24	1086.01
382.43	1137.50
382.63	1034.52
382.83	1046.22
383.02	1088.35
383.22	1086.01
383.41	1060.26
383.61	1177.29
383.80	1111.75
384.00	1109.41
384.19	1125.80
384.39	1111.75
384.58	1146.86
384.78	1100.05
384.97	1144.52
385.17	1097.71
385.36	1088.35
385.56	1156.22
385.75	1179.63
385.95	1259.21
386.14	1188.99
386.34	1242.82
386.53	1179.63
386.72	1188.99
386.92	1235.80
387.11	1238.14
387.31	1219.42
387.50	1273.25
387.70	1289.64
387.89	1186.65
388.09	1210.06
388.28	1205.38
388.48	1247.51
388.67	1247.51
388.86	1352.83
389.06	1352.83
389.25	1385.60
389.45	1310.70
389.64	1261.55
389.84	1334.11
390.03	1399.64
390.22	1362.19
390.42	1315.38
390.61	1380.92
390.81	1320.06
391.00	1376.24
391.19	1423.05
391.39	1352.83
391.58	1439.43
391.78	1504.96
391.97	1502.62
392.16	1448.79
392.36	1603.27
392.55	1572.84
392.75	1528.37
392.94	1500.28
393.13	1647.74
393.33	1544.75
393.52	1575.18
393.71	1519.01
393.91	1490.92
394.10	1469.86
394.29	1661.78
394.49	1629.01
394.68	1643.06
394.88	1589.22
395.07	1696.89
395.26	1507.30
395.46	1547.09
395.65	1771.79
395.84	1614.97
396.04	1748.38
396.23	1788.17
396.42	1680.50
396.62	1732.00
396.81	1813.92
397.00	1795.19
397.19	1722.63
397.39	1774.13
397.58	1874.77
397.77	1769.44
397.97	1813.92
398.16	1722.63
398.35	1893.49
398.55	1809.23
398.74	1954.35
398.93	1944.99
399.12	1898.17
399.32	1968.39
399.51	2043.29
399.70	1991.80
399.90	2026.90
400.09	1914.56
400.28	1930.94
400.47	2012.86
400.67	2052.65
400.86	2001.16
401.05	2132.23
401.24	2099.46
401.44	2188.40
401.63	2127.55
401.82	2104.14
402.01	2026.90
402.21	2111.16
402.40	2172.02
402.59	2169.68
402.78	2197.76
402.97	2209.47
403.17	2244.57
403.36	2244.57
403.55	2305.43
403.74	2244.57
403.93	2207.13
404.13	2356.92
404.32	2373.30
404.51	2345.22
404.70	2452.88
404.89	2235.21
405.09	2462.24
405.28	2403.73
405.47	2480.97
405.66	2448.20
405.85	2504.37
406.05	2583.95
406.24	2588.63
406.43	2539.48
406.62	2619.06
406.81	2686.94
407.00	2537.14
407.20	2562.89
407.39	2672.89
407.58	2590.97
407.77	2825.03
407.96	2722.04
408.15	2759.49
408.34	2743.11
408.54	2679.91
408.73	2689.28
408.92	2813.32
409.11	2794.60
409.30	2822.69
409.49	2803.96
409.68	2864.82
409.87	2911.63
410.07	2951.42
410.26	2883.54
410.45	2967.80
410.64	3075.46
410.83	3150.36
411.02	3192.49
411.21	3108.23
411.40	3166.74
411.59	3049.72
411.78	3117.59
411.98	3262.71
412.17	3185.47
412.36	3379.73
412.55	3349.31
412.74	3349.31
412.93	3356.33
413.12	3300.16
413.31	3599.74
413.50	3419.52
413.69	3449.95
413.88	3489.74
414.07	3606.77
414.26	3581.02
414.45	3761.24
414.64	3634.85
414.83	3824.44
415.02	3646.55
415.22	3899.33
415.41	3838.48
415.60	3899.33
415.79	3934.44
415.98	3871.25
416.17	3962.53
416.36	3978.91
416.55	3969.55
416.74	4021.04
416.93	4042.11
417.12	4004.66
417.31	4121.68
417.50	4205.94
417.69	4355.74
417.88	4105.30
418.07	4264.46
418.26	4339.35
418.45	4198.92
418.64	4318.29
418.83	4458.72
419.02	4234.03
419.21	4521.92
419.39	4393.19
419.58	4362.76
419.77	4423.61
419.96	4397.87
420.15	4683.41
420.34	4540.64
420.53	4596.81
420.72	4685.75
420.91	4643.62
421.10	4704.48
421.29	4919.81
421.48	4716.18
421.67	4645.96
421.86	4819.16
422.05	4753.63
422.24	4669.37
422.43	4664.69
422.61	4760.65
422.80	4877.68
422.99	4755.97
423.18	5004.07
423.37	5041.51
423.56	4868.31
423.75	4952.57
423.94	4755.97
424.13	4594.47
424.32	4842.57
424.50	4975.98
424.69	4997.04
424.88	4992.36
425.07	4910.44
425.26	4856.61
425.45	5053.22
425.64	4938.53
425.83	4812.14
426.01	4994.70
426.20	5146.84
426.39	4999.38
426.58	4929.17
426.77	4929.17
426.96	5135.14
427.15	5093.01
427.33	5151.52
427.52	5078.96
427.71	5261.52
427.90	5076.62
428.09	5315.36
428.28	5280.25
428.46	5235.78
428.65	5303.65
428.84	5427.70
429.03	5362.17
429.22	5315.36
429.40	5547.07
429.59	5455.79
429.78	5200.67
429.97	5308.34
430.16	5490.90
430.34	5493.24
430.53	5528.35
430.72	5706.23
430.91	5540.05
431.10	5715.59
431.28	5600.90
431.47	5570.48
431.66	5776.44
431.85	5713.25
432.03	5795.17
432.22	5809.21
432.41	5771.76
432.60	5844.32
432.79	5870.06
432.97	5926.24
433.16	5884.11
433.35	5830.27
433.54	5863.04
433.72	6015.18
433.91	5891.13
434.10	6132.20
434.28	6010.50
434.47	6267.95
434.66	6141.57
434.85	6230.51
435.03	6422.43
435.22	6239.87
435.41	6534.78
435.59	6399.02
435.78	6331.15
435.97	6354.55
436.16	6392.00
436.34	6408.39
436.53	6525.41
436.72	6469.24
436.90	6216.46
437.09	6544.14
437.28	6473.92
437.46	6532.44
437.65	6525.41
437.84	6628.40
438.02	6628.40
438.21	6668.19
438.40	6693.93
438.58	6871.81
438.77	6911.60
438.96	6871.81
439.14	7239.28
439.33	7016.93
439.52	7052.03
439.70	7218.21
439.89	7248.64
440.08	7372.69
440.26	7143.32
440.45	7302.47
440.63	7463.97
440.82	7644.19
441.01	7400.77
441.19	7323.54
441.38	7665.25
441.57	7658.23
441.75	7569.29
441.94	8037.40
442.12	8100.59
442.31	8021.02
442.50	7953.14
442.68	7929.74
442.87	8002.29
443.05	7824.41
443.24	8072.51
443.43	7995.27
443.61	8219.96
443.80	8461.04
443.98	7990.59
444.17	7808.03
444.35	8222.30
444.54	8465.72
444.73	8093.57
444.91	8060.80
445.10	8131.02
445.28	8442.31
445.47	8224.64
445.65	8395.50
445.84	8322.94
446.02	8348.69
446.21	8170.81
446.39	8145.06
446.58	8379.12
446.77	8280.82
446.95	8095.91
447.14	8344.01
447.32	8388.48
447.51	8292.52
447.69	8355.71
447.88	8615.51
448.06	8528.91
448.25	8507.85
448.43	8592.11
448.62	8517.21
448.80	8306.56
448.99	8512.53
449.17	8659.98
449.36	8606.15
449.54	8765.31
449.73	8947.87
449.91	9076.60
450.10	8779.35
450.28	8748.92
450.46	8966.59
450.65	9088.30
450.83	8961.91
451.02	8812.12
451.20	9163.20
451.39	9097.66
451.57	9004.04
451.76	9034.47
451.94	9364.48
452.13	9423.00
452.31	9205.33
452.49	8982.98
452.68	9256.82
452.86	9268.52
453.05	9521.30
453.23	9273.20
453.42	9390.23
453.60	9151.49
453.78	9465.13
453.97	9430.02
454.15	9394.91
454.34	9530.66
454.52	9755.35
454.70	9479.17
454.89	9525.98
455.07	9654.71
455.26	9652.37
455.44	9877.06
455.62	9820.89
455.81	9928.55
455.99	9909.83
456.17	10136.86
456.36	9987.07
456.54	10001.11
456.73	10195.37
456.91	10389.64
457.09	10356.87
457.28	10342.83
457.46	10228.14
457.64	10469.22
457.83	10373.25
458.01	10270.27
458.19	10422.41
458.38	10406.02
458.56	10431.77
458.74	10616.67
458.93	10621.35
459.11	10609.65
459.29	10672.84
459.48	10576.88
459.66	10703.27
459.84	10829.66
460.03	10906.90
460.21	10836.68
460.39	10782.85
460.57	10836.68
460.76	11103.50
460.94	10920.94
461.12	11239.25
461.31	11002.86
461.49	10977.11
461.67	11040.31
461.85	11267.34
462.04	11300.11
462.22	11756.51
462.40	11538.84
462.59	11346.92
462.77	11571.61
462.95	11482.67
463.13	11405.43
463.32	11843.11
463.50	11587.99
463.68	11672.25
463.86	11800.98
464.05	11609.06
464.23	11573.95
464.41	11936.73
464.59	11267.34
464.78	11871.20
464.96	11712.04
465.14	11791.62
465.32	11735.45
465.50	12112.27
465.69	12084.19
465.87	11976.52
466.05	12285.47
466.23	12102.91
466.41	12053.76
466.60	12496.12
466.78	12138.02
466.96	12461.01
467.14	11894.60
467.32	12308.88
467.51	12280.79
467.69	12025.67
467.87	12533.57
468.05	12425.90
468.23	12285.47
468.41	12376.75
468.60	12617.83
468.78	12762.94
468.96	12493.78
469.14	12666.98
469.32	12566.34
469.50	12528.89
469.69	12739.54
469.87	13048.49
470.05	12882.31
470.23	13036.78
470.41	12992.31
470.59	13090.62
470.77	13305.95
470.95	13235.73
471.14	13254.45
471.32	12898.69
471.50	13657.03
471.68	13359.78
471.86	13624.26
472.04	13352.76
472.22	13923.85
472.40	13598.51
472.58	13727.24
472.77	13720.22
472.95	13965.98
473.13	14640.05
473.31	13949.59
473.49	14012.79
473.67	13874.70
473.85	14263.22
474.03	14408.34
474.21	14363.87
474.39	14420.04
474.57	14422.38
474.75	14792.19
474.93	14803.89
475.12	14773.46
475.30	14904.53
475.48	14640.05
475.66	15152.63
475.84	15110.50
476.02	15321.15
476.20	15367.96
476.38	15470.94
476.56	16037.35
476.74	15784.57
476.92	15541.16
477.10	15819.68
477.28	16079.48
477.46	16086.50
477.64	15864.15
477.82	16599.08
478.00	16798.02
478.18	16613.12
478.36	16854.20
478.54	16992.29
478.72	16861.22
478.90	17158.47
479.08	17439.33
479.26	17563.38
479.44	17661.68
479.62	17530.61
479.80	18094.68
479.98	17811.48
480.16	18408.31
480.34	17991.70
480.52	18497.25
480.70	18115.75
480.88	18258.52
481.06	18476.19
481.24	18635.35
481.41	19138.56
481.59	19066.00
481.77	19255.59
481.95	19339.85
482.13	19529.43
482.31	19192.39
482.49	20205.84
482.67	19819.66
482.85	20269.04
483.03	20355.64
483.21	20395.43
483.39	20507.77
483.57	20779.28
483.74	21092.91
483.92	21294.19
484.10	20870.56
484.28	21296.53
484.46	21586.76
484.64	22412.97
484.82	21600.80
485.00	22075.93
485.18	22724.26
485.35	22972.36
485.53	22097.00
485.71	22750.01
485.89	23407.70
486.07	22998.10
486.25	23234.50
486.43	23473.23
486.61	23791.55
486.78	23892.19
486.96	23971.77
487.14	24065.39
487.32	24467.96
487.50	24746.48
487.68	24797.98
487.85	24989.90
488.03	25422.90
488.21	25781.00
488.39	25343.32
488.57	25647.59
488.75	26232.72
488.92	26405.92
489.10	26038.46
489.28	26712.53
489.46	26471.46
489.64	26487.84
489.81	27529.38
489.99	27374.91
490.17	27587.89
490.35	28041.96
490.53	28004.51
490.70	28088.77
490.88	27576.19
491.06	28584.96
491.24	28603.69
491.41	29041.37
491.59	28898.59
491.77	29287.12
491.95	29237.97
492.13	29137.33
492.30	29717.78
492.48	29823.11
492.66	29881.62
492.84	29935.45
493.01	30656.34
493.19	29975.24
493.37	30642.29
493.54	30808.47
493.72	30918.48
493.90	31147.85
494.08	31435.74
494.25	31644.04
494.43	31758.73
494.61	32032.57
494.79	32219.81
494.96	32369.61
495.14	32362.59
495.32	32762.82
495.49	32526.42
495.67	33031.98
495.85	33186.46
496.02	33593.71
496.20	33696.69
496.38	33373.70
496.55	33640.52
496.73	34630.57
496.91	34043.09
497.09	34426.94
497.26	34689.08
497.44	34902.07
497.62	34700.78
497.79	35400.60
497.97	35147.82
498.14	35510.61
498.32	36154.26
498.50	35992.76
498.67	36147.23
498.85	36233.83
499.03	36168.30
499.20	36521.72
499.38	36418.74
499.56	36587.25
499.73	36744.07
499.91	37205.16
500.08	37289.42
500.26	36891.52
500.44	37443.89
500.61	37909.66
500.79	37443.89
500.97	37642.84
501.14	37944.76
501.32	38375.42
501.49	37869.87
501.67	38347.34
501.84	39098.65
502.02	38157.75
502.20	38672.67
502.37	39185.25
502.55	39063.54
502.72	39283.55
502.90	39562.08
503.07	39580.80
503.25	39370.15
503.43	39508.24
503.60	39746.98
503.78	39899.11
503.95	40048.91
504.13	39721.23
504.30	40023.16
504.48	40205.72
504.65	40287.64
504.83	40549.78
505.01	40964.06
505.18	41141.94
505.36	41371.31
505.53	40882.14
505.71	40882.14
505.88	41406.42
506.06	40559.14
506.23	41741.11
506.41	41762.18
506.58	41928.36
506.76	41804.31
506.93	42286.46
507.11	41687.28
507.28	42223.26
507.46	42312.20
507.63	42492.43
507.81	42869.25
507.98	42567.32
508.16	42305.18
508.33	43196.93
508.50	42597.75
508.68	43035.43
508.85	43463.75
509.03	42817.76
509.20	43679.08
509.38	43555.03
509.55	44378.90
509.73	44032.50
509.90	44231.44
510.08	43929.51
510.25	44184.63
510.42	43992.71
510.60	44790.83
510.77	44741.68
510.95	44985.10
511.12	44779.13
511.30	44762.75
511.47	44804.88
511.64	44872.75
511.82	45640.45
511.99	45043.61
512.17	45750.45
512.34	45497.67
512.51	45963.44
512.69	46106.21
512.86	46106.21
513.04	46178.77
513.21	46401.12
513.38	46068.76
513.56	46124.94
513.73	46136.64
513.90	46639.86
514.08	46354.31
514.25	46988.60
514.43	46791.99
514.60	47292.86
514.77	47093.92
514.95	47334.99
515.12	47044.77
515.29	47367.76
515.47	47758.63
515.64	47746.93
515.81	47604.16
515.99	47999.71
516.16	47901.40
516.33	48009.07
516.51	48252.48
516.68	47800.76
516.85	48397.60
517.03	48877.41
517.20	48397.60
517.37	48598.88
517.54	48509.94
517.72	48678.46
517.89	48816.55
518.06	48542.71
518.24	48421.00
518.41	48980.39
518.58	48718.25
518.75	48987.41
518.93	49326.79
519.10	49287.00
519.27	49329.13
519.45	49448.50
519.62	49469.56
519.79	49806.60
519.96	49427.43
520.14	49705.96
520.31	49815.96
520.48	50050.02
520.65	50293.43
520.83	50461.95
521.00	50447.91
521.17	49991.50
521.34	50497.06
521.52	50241.94
521.69	50789.62
521.86	50871.54
522.03	50653.87
522.20	50941.76
522.38	51011.98
522.55	51199.22
522.72	51164.11
522.89	50707.71
523.07	51615.83
523.24	51192.20
523.41	51615.83
523.58	51129.00
523.75	51519.87
523.92	51262.41
524.10	51845.21
524.27	51814.78
524.44	51679.03
524.61	51709.46
524.78	51952.87
524.96	51908.40
525.13	52287.57
525.30	52301.61
525.47	52102.67
525.64	52051.17
525.81	52322.68
525.98	52385.87
526.16	52158.84
526.33	52458.43
526.50	52748.65
526.67	52446.72
526.84	52355.44
527.01	52467.79
527.18	52519.28
527.36	52598.86
527.53	52863.34
527.70	53200.38
527.87	52975.69
528.04	52835.25
528.21	53289.32
528.38	53155.91
528.55	53221.44
528.72	53277.61
528.89	53247.19
529.07	53155.91
529.24	53116.12
529.41	53661.46
529.58	53413.37
529.75	53277.61
529.92	53429.75
530.09	53698.91
530.26	53675.51
530.43	53485.92
530.60	53258.89
530.77	53476.56
530.94	53860.41
531.11	53930.62
531.28	53970.41
531.46	54031.27
531.63	53851.05
531.80	54054.67
531.97	54089.78
532.14	54204.47
532.31	54307.45
532.48	54143.61
532.65	54363.62
532.82	54164.68
532.99	54569.59
533.16	54494.69
533.33	54473.63
533.50	54653.85
533.67	54466.61
533.84	54335.54
534.01	54499.37
534.18	54862.16
534.35	54845.77
534.52	54724.07
534.69	54784.92
534.86	54946.42
535.03	54871.52
535.20	54906.63
535.37	55159.41
535.54	55086.85
535.71	54784.92
535.88	55381.76
536.05	55360.69
536.22	55304.52
536.38	55412.18
536.55	55379.42
536.72	55461.33
536.89	55058.76
537.06	55444.95
537.23	55716.45
537.40	55262.39
537.57	55466.02
537.74	55543.25
537.91	55803.05
538.08	55817.10
538.25	55592.40
538.42	55664.96
538.59	55784.33
538.75	55742.20
538.92	55587.72
539.09	56065.19
539.26	55875.61
539.43	55983.27
539.60	56069.87
539.77	56205.62
539.94	56177.54
540.11	56088.60
540.28	56186.90
540.44	56086.26
540.61	56163.50
540.78	56135.41
540.95	56334.35
541.12	56299.25
541.29	56163.50
541.46	56034.77
541.62	56381.16
541.79	56289.88
541.96	56168.18
542.13	56647.99
542.30	56409.25
542.47	56439.68
542.63	56807.14
542.80	56797.78
542.97	56830.55
543.14	57193.33
543.31	56807.14
543.48	57073.96
543.64	57450.79
543.81	57359.51
543.98	57195.67
544.15	56945.23
544.32	57106.73
544.48	57448.45
544.65	57324.40
544.82	57062.26
544.99	56931.19
545.16	57207.37
545.32	57113.75
545.49	57123.11
545.66	57726.97
545.83	57439.09
546.00	57602.92
546.16	57195.67
546.33	57418.02
546.50	57373.55
546.67	57663.78
546.83	57237.80
547.00	57563.14
547.17	57546.75
547.34	57558.45
547.50	57614.63
547.67	57741.02
547.84	57872.09
548.00	58017.20
548.17	57986.77
548.34	57705.91
548.51	58218.49
548.67	57984.43
548.84	58176.36
549.01	57881.45
549.18	58061.67
549.34	57963.37
549.51	58042.95
549.68	58340.19
549.84	58138.91
550.01	58281.68
550.18	58012.52
550.34	58246.57
550.51	58323.81
550.68	58087.42
550.84	58012.52
551.01	58700.64
551.18	58234.87
551.34	58195.08
551.51	58485.31
551.68	58372.96
551.84	58394.03
552.01	58164.65
552.18	58349.56
552.34	58087.42
552.51	58501.69
552.68	58475.94
552.84	58323.81
553.01	58918.31
553.18	58508.71
553.34	58525.10
553.51	58644.46
553.67	58663.19
553.84	58684.25
554.01	58684.25
554.17	58824.68
554.34	58756.81
554.51	58635.10
554.67	58920.65
554.84	58721.70
555.00	58621.06
555.17	58845.75
555.33	58637.44
555.50	58688.93
555.67	58735.74
555.83	58775.53
556.00	58974.48
556.16	59377.05
556.33	59044.69
556.50	59145.34
556.66	59365.35
556.83	58969.80
556.99	59213.21
557.16	59313.86
557.32	59128.95
557.49	59334.92
557.65	59021.29
557.82	59224.92
557.98	59236.62
558.15	59058.74
558.32	59323.22
558.48	59388.75
558.65	59189.81
558.81	59241.30
558.98	59194.49
559.14	59105.55
559.31	59243.64
559.47	59484.72
559.64	59391.09
559.80	59522.16
559.97	59379.39
560.13	59554.93
560.30	59625.15
560.46	59470.67
560.63	59632.17
560.79	59636.85
560.96	59648.55
561.12	59643.87
561.29	59683.66
561.45	59690.68
561.61	59540.89
561.78	59760.90
561.94	59458.97
562.11	59629.83
562.27	59657.91
562.44	59716.43
562.60	59887.29
562.77	59859.20
562.93	59627.49
563.10	59763.24
563.26	59786.64
563.42	59952.82
563.59	59749.20
563.75	59788.98
563.92	59840.48
564.08	59922.40
564.24	59800.69
564.41	59983.25
564.57	59976.23
564.74	59966.87
564.90	59915.37
565.07	59840.48
565.23	59917.71
565.39	59693.02
565.56	60006.65
565.72	60126.02
565.88	59936.44
566.05	59863.88
566.21	60018.36
566.38	60011.34
566.54	59980.91
566.70	60196.24
566.87	60243.05
567.03	59978.57
567.19	60226.66
567.36	60095.60
567.52	60053.47
567.68	60320.29
567.85	60086.23
568.01	60346.03
568.17	60062.83
568.34	60044.10
568.50	60069.85
568.66	60142.41
568.83	60271.14
568.99	60072.19
569.15	60111.98
569.32	60254.75
569.48	60062.83
569.64	60308.58
569.81	60053.47
569.97	60130.70
570.13	60425.61
570.30	60217.30
570.46	60294.54
570.62	60287.52
570.78	60058.15
570.95	60292.20
571.11	60474.76
571.27	60247.73
571.43	60364.76
571.60	60441.99
571.76	60430.29
571.92	60484.12
572.09	60493.49
572.25	60191.56
572.41	60336.67
572.57	60289.86
572.74	60418.59
572.90	60350.71
573.06	60570.72
573.22	60423.27
573.38	60615.19
573.55	60493.49
573.71	60856.27
573.87	60528.59
574.03	60432.63
574.20	60537.96
574.36	60364.76
574.52	60664.35
574.68	60458.38
574.84	60514.55
575.01	60594.13
575.17	60568.38
575.33	60507.53
575.49	60250.07
575.65	60456.04
575.82	60645.62
575.98	60514.55
576.14	60678.39
576.30	60736.90
576.46	60640.94
576.62	60643.28
576.79	60453.70
576.95	60451.36
577.11	60659.66
577.27	60573.06
577.43	60694.77
577.59	60420.93
577.75	60528.59
577.92	60484.12
578.08	60629.24
578.24	60563.70
578.40	60652.64
578.56	60842.23
578.72	60666.69
578.88	60802.44
579.04	60631.58
579.21	60521.57
579.37	60690.09
579.53	60811.80
579.69	60486.46
579.85	60519.23
580.01	60640.94
580.17	60601.15
580.33	60608.17
580.49	60793.07
580.65	60690.09
580.82	60657.32
580.98	60685.41
581.14	60701.79
581.30	60685.41
581.46	60837.54
581.62	60774.35
581.78	60645.62
581.94	60647.96
582.10	60605.83
582.26	60729.88
582.42	60647.96
582.58	60879.67
582.74	60619.88
582.90	60509.87
583.06	60683.07
583.22	60507.53
583.38	60591.79
583.54	60757.97
583.70	60762.65
583.86	60865.63
584.02	60570.72
584.18	60917.12
584.34	60690.09
584.50	60846.91
584.66	60762.65
584.82	60636.26
584.98	60860.95
585.14	60860.95
585.30	60809.46
585.46	60837.54
585.62	60729.88
585.78	60669.03
585.94	60715.84
586.10	60863.29
586.26	60917.12
586.42	60989.68
586.58	60863.29
586.74	60846.91
586.90	60926.49
587.06	60750.94
587.22	60867.97
587.38	60800.10
587.54	60961.59
587.70	60837.54
587.86	60851.59
588.02	60839.89
588.18	61045.85
588.34	60933.51
588.49	60828.18
