SpectraSuite Data File
++++++++++++++++++++++++++++++++++++
Date: Fri Oct 25 10:44:52 EDT 2013
User: price-jones
Dark Spectrum Present: No
Reference Spectrum Present: No
Number of Sampled Component Spectra: 1
Spectrometers: USB2+H05261
Integration Time (usec): 100000 (USB2+H05261)
Spectra Averaged: 1 (USB2+H05261)
Boxcar Smoothing: 0 (USB2+H05261)
Correct for Electrical Dark: No (USB2+H05261)
Strobe/Lamp Enabled: No (USB2+H05261)
Correct for Detector Non-linearity: No (USB2+H05261)
Correct for Stray Light: No (USB2+H05261)
Number of Pixels in Processed Spectrum: 2048
>>>>>Begin Processed Spectral Data<<<<<
365.73	182.56
365.92	182.56
366.12	182.56
366.32	16.38
366.52	72.56
366.72	23.41
366.91	0.00
367.11	0.00
367.31	0.00
367.51	23.41
367.70	42.13
367.90	0.00
368.10	30.43
368.30	0.00
368.49	30.43
368.69	56.17
368.89	46.81
369.09	0.00
369.28	70.22
369.48	74.90
369.68	72.56
369.87	100.64
370.07	112.35
370.27	77.24
370.47	210.65
370.66	367.46
370.86	369.80
371.06	479.81
371.25	451.72
371.45	423.64
371.65	414.27
371.84	395.55
372.04	409.59
372.24	421.30
372.44	423.64
372.63	538.32
372.83	470.45
373.03	451.72
373.22	505.56
373.42	482.15
373.62	468.11
373.81	461.09
374.01	496.19
374.21	510.24
374.40	477.47
374.60	550.03
374.79	559.39
374.99	510.24
375.19	538.32
375.38	608.54
375.58	524.28
375.78	533.64
375.97	571.09
376.17	638.97
376.37	617.90
376.56	617.90
376.76	564.07
376.95	505.56
377.15	589.82
377.35	620.24
377.54	568.75
377.74	617.90
377.93	585.13
378.13	547.69
378.33	636.63
378.52	622.58
378.72	671.73
378.91	643.65
379.11	592.16
379.31	610.88
379.50	622.58
379.70	671.73
379.89	702.16
380.09	653.01
380.28	617.90
380.48	650.67
380.68	622.58
380.87	702.16
381.07	662.37
381.26	688.12
381.46	716.20
381.65	667.05
381.85	734.93
382.04	709.18
382.24	688.12
382.43	704.50
382.63	650.67
382.83	655.35
383.02	657.69
383.22	746.63
383.41	720.88
383.61	730.25
383.80	739.61
384.00	674.07
384.19	667.05
384.39	667.05
384.58	732.59
384.78	718.54
384.97	774.72
385.17	744.29
385.36	692.80
385.56	758.33
385.75	774.72
385.95	774.72
386.14	795.78
386.34	791.10
386.53	737.27
386.72	781.74
386.92	788.76
387.11	826.21
387.31	774.72
387.50	819.19
387.70	704.50
387.89	802.80
388.09	758.33
388.28	819.19
388.48	828.55
388.67	896.43
388.86	875.36
389.06	807.48
389.25	870.68
389.45	884.72
389.64	812.17
389.84	952.60
390.03	880.04
390.22	875.36
390.42	870.68
390.61	980.68
390.81	961.96
391.00	931.53
391.19	959.62
391.39	1018.13
391.58	1027.50
391.78	1036.86
391.97	936.21
392.16	973.66
392.36	992.39
392.55	952.60
392.75	929.19
392.94	971.32
393.13	964.30
393.33	1004.09
393.52	994.73
393.71	1020.47
393.91	1144.52
394.10	1025.15
394.29	1081.33
394.49	1055.58
394.68	1071.97
394.88	1086.01
395.07	1095.37
395.26	1156.22
395.46	1086.01
395.65	1160.91
395.84	1167.93
396.04	1277.93
396.23	1111.75
396.42	1083.67
396.62	1060.26
396.81	1137.50
397.00	1069.62
397.19	1125.80
397.39	1275.59
397.58	1198.35
397.77	1287.29
397.97	1228.78
398.16	1313.04
398.35	1261.55
398.55	1212.40
398.74	1336.45
398.93	1320.06
399.12	1336.45
399.32	1313.04
399.51	1348.15
399.70	1418.36
399.90	1446.45
400.09	1355.17
400.28	1306.02
400.47	1448.79
400.67	1467.52
400.86	1394.96
401.05	1448.79
401.24	1420.71
401.44	1441.77
401.63	1486.24
401.82	1467.52
402.01	1591.56
402.21	1441.77
402.40	1521.35
402.59	1570.50
402.78	1547.09
402.97	1537.73
403.17	1647.74
403.36	1558.80
403.55	1579.86
403.74	1753.06
403.93	1678.16
404.13	1652.42
404.32	1643.06
404.51	1692.21
404.70	1631.35
404.89	1736.68
405.09	1692.21
405.28	1612.63
405.47	1708.59
405.66	1818.60
405.85	1734.34
406.05	1727.32
406.24	1858.39
406.43	1778.81
406.62	1937.96
406.81	1816.26
407.00	1837.32
407.20	1818.60
407.39	1891.15
407.58	1806.89
407.77	1923.92
407.96	1926.26
408.15	1874.77
408.34	1949.67
408.54	2146.27
408.73	2097.12
408.92	1989.46
409.11	2019.88
409.30	1914.56
409.49	2005.84
409.68	1982.43
409.87	2019.88
410.07	2052.65
410.26	2120.53
410.45	2214.15
410.64	2064.35
410.83	2291.38
411.02	2232.87
411.21	2232.87
411.40	2207.13
411.59	2373.30
411.78	2272.66
411.98	2256.28
412.17	2272.66
412.36	2338.20
412.55	2403.73
412.74	2438.84
412.93	2422.45
413.12	2406.07
413.31	2457.56
413.50	2534.80
413.69	2583.95
413.88	2654.17
414.07	2530.12
414.26	2668.21
414.45	2619.06
414.64	2579.27
414.83	2684.59
415.02	2738.43
415.22	2766.51
415.41	2808.64
415.60	2768.85
415.79	2731.41
415.98	2881.20
416.17	2869.50
416.36	2810.98
416.55	2956.10
416.74	2862.48
416.93	2890.56
417.12	2920.99
417.31	2878.86
417.50	2984.18
417.69	3239.30
417.88	3126.96
418.07	2998.23
418.26	3045.04
418.45	3040.36
418.64	3178.45
418.83	3115.25
419.02	3229.94
419.21	3204.19
419.39	3192.49
419.58	3215.90
419.77	3096.53
419.96	3253.34
420.15	3365.69
420.34	3267.39
420.53	3328.24
420.72	3410.16
420.91	3370.37
421.10	3463.99
421.29	3442.93
421.48	3513.14
421.67	3492.08
421.86	3295.47
422.05	3407.82
422.24	3297.81
422.43	3447.61
422.61	3370.37
422.80	3412.50
422.99	3482.72
423.18	3513.14
423.37	3602.08
423.56	3630.17
423.75	3506.12
423.94	3473.36
424.13	3316.54
424.32	3349.31
424.50	3595.06
424.69	3698.05
424.88	3552.93
425.07	3492.08
425.26	3524.85
425.45	3611.45
425.64	3609.11
425.83	3571.66
426.01	3721.45
426.20	3688.68
426.39	3538.89
426.58	3698.05
426.77	3566.98
426.96	3665.28
427.15	3578.68
427.33	3616.13
427.52	3651.24
427.71	3705.07
427.90	3794.01
428.09	3810.39
428.28	3880.61
428.46	3871.25
428.65	3894.65
428.84	3899.33
429.03	3833.80
429.22	3604.42
429.40	3850.18
429.59	3751.88
429.78	3606.77
429.97	3782.31
430.16	3936.78
430.34	3817.41
430.53	3845.50
430.72	3932.10
430.91	3878.27
431.10	3990.61
431.28	4121.68
431.47	4133.39
431.66	4187.22
431.85	4212.96
432.03	4145.09
432.22	4217.65
432.41	4231.69
432.60	4044.45
432.79	4266.80
432.97	4273.82
433.16	4166.15
433.35	4180.20
433.54	4386.16
433.72	4278.50
433.91	4285.52
434.10	4358.08
434.28	4287.86
434.47	4477.44
434.66	4381.48
434.85	4468.08
435.03	4470.42
435.22	4400.21
435.41	4650.64
435.59	4582.77
435.78	4381.48
435.97	4704.48
436.16	4585.11
436.34	4655.33
436.53	4578.09
436.72	4791.08
436.90	4676.39
437.09	4652.98
437.28	4585.11
437.46	4709.16
437.65	4629.58
437.84	4732.56
438.02	4669.37
438.21	4648.30
438.40	4636.60
438.58	4915.12
438.77	4915.12
438.96	4985.34
439.14	4908.10
439.33	5025.13
439.52	5132.79
439.70	5135.14
439.89	5179.61
440.08	5284.93
440.26	5245.14
440.45	4980.66
440.63	5170.24
440.82	5329.40
441.01	5324.72
441.19	5390.25
441.38	5579.84
441.57	5600.90
441.75	5528.35
441.94	5586.86
442.12	5582.18
442.31	5731.97
442.50	5750.70
442.68	5661.76
442.87	5741.33
443.05	5895.81
443.24	5877.09
443.43	5926.24
443.61	5781.12
443.80	5907.51
443.98	5694.52
444.17	5645.37
444.35	5888.79
444.54	5898.15
444.73	5980.07
444.91	5865.38
445.10	5734.31
445.28	5841.98
445.47	5757.72
445.65	5741.33
445.84	5919.21
446.02	5856.02
446.21	5827.93
446.39	6010.50
446.58	6038.58
446.77	6019.86
446.95	5673.46
447.14	6195.40
447.32	6197.74
447.51	5954.32
447.69	5987.09
447.88	6047.94
448.06	6214.12
448.25	6015.18
448.43	6118.16
448.62	6069.01
448.80	6094.76
448.99	6113.48
449.17	6122.84
449.36	6176.67
449.54	6282.00
449.73	6300.72
449.91	6342.85
450.10	6401.37
450.28	6480.94
450.46	6361.58
450.65	6502.01
450.83	6394.34
451.02	6562.86
451.20	6466.90
451.39	6490.31
451.57	6502.01
451.76	6420.09
451.94	6462.22
452.13	6677.55
452.31	6562.86
452.49	6473.92
452.68	6504.35
452.86	6392.00
453.05	6595.63
453.23	6775.85
453.42	6619.04
453.60	6633.08
453.78	6609.67
453.97	6754.79
454.15	6750.10
454.34	6541.80
454.52	6815.64
454.70	6892.88
454.89	6836.70
455.07	6864.79
455.26	6803.94
455.44	6939.69
455.62	6862.45
455.81	6974.80
455.99	7007.56
456.17	7112.89
456.36	7012.24
456.54	7225.23
456.73	7192.47
456.91	7353.96
457.09	7267.36
457.28	7468.65
457.46	7110.55
457.64	7452.27
457.83	7297.79
458.01	7295.45
458.19	7489.71
458.38	7265.02
458.56	7620.78
458.74	7339.92
458.93	7508.44
459.11	7543.55
459.29	7417.16
459.48	7445.24
459.66	7466.31
459.84	7655.89
460.03	7683.98
460.21	7688.66
460.39	7775.26
460.57	7801.01
460.76	7496.74
460.94	7737.81
461.12	7915.69
461.31	7857.18
461.49	7810.37
461.67	7691.00
461.85	8105.28
462.04	8025.70
462.22	8208.26
462.40	7920.37
462.59	7950.80
462.77	7948.46
462.95	8107.62
463.13	7960.16
463.32	8198.90
463.50	8142.72
463.68	7964.84
463.86	8128.68
464.05	7995.27
464.23	8154.43
464.41	8074.85
464.59	8053.78
464.78	8365.07
464.96	8245.71
465.14	8074.85
465.32	8351.03
465.50	8318.26
465.69	8346.35
465.87	8266.77
466.05	8313.58
466.23	8327.63
466.41	8322.94
466.60	8629.56
466.78	8395.50
466.96	8273.79
467.14	8568.70
467.32	8739.56
467.51	8667.00
467.69	8360.39
467.87	8596.79
468.05	8587.43
468.23	8463.38
468.41	8505.51
468.60	8652.96
468.78	8655.30
468.96	8608.49
469.14	8919.78
469.32	8849.57
469.50	8638.92
469.69	8919.78
469.87	8872.97
470.05	9022.77
470.23	9022.77
470.41	8833.18
470.59	9195.96
470.77	9186.60
470.95	9100.00
471.14	9170.22
471.32	9095.32
471.50	9350.44
471.68	9451.08
471.86	9406.61
472.04	9352.78
472.22	9628.96
472.40	9310.65
472.58	9284.91
472.77	9593.86
472.95	9607.90
473.13	9944.94
473.31	9631.30
473.49	9654.71
473.67	9753.01
473.85	9654.71
474.03	9900.47
474.21	10120.48
474.39	9982.38
474.57	10171.97
474.75	10167.29
474.93	10394.32
475.12	10167.29
475.30	10417.72
475.48	10155.58
475.66	10134.52
475.84	10235.16
476.02	10354.53
476.20	10560.50
476.38	10408.36
476.56	11087.12
476.74	10768.80
476.92	10839.02
477.10	10885.83
477.28	11026.26
477.46	11262.66
477.64	11101.16
477.82	11094.14
478.00	11470.97
478.18	11424.15
478.36	11456.92
478.54	11461.60
478.72	11466.28
478.90	11667.57
479.08	11906.31
479.26	11939.07
479.44	11929.71
479.62	11967.16
479.80	12301.86
479.98	12135.68
480.16	12503.14
480.34	12772.30
480.52	12468.03
480.70	12517.18
480.88	12252.70
481.06	12744.22
481.24	12699.75
481.41	12755.92
481.59	13125.72
481.77	13074.23
481.95	13214.66
482.13	13135.09
482.31	13315.31
482.49	13453.40
482.67	13783.41
482.85	13584.47
483.03	13902.78
483.21	13921.51
483.39	13900.44
483.57	14031.51
483.74	14537.07
483.92	14122.79
484.10	14221.10
484.28	14740.69
484.46	14822.61
484.64	14808.57
484.82	14848.36
485.00	14628.35
485.18	15194.76
485.35	15154.97
485.53	15087.09
485.71	15255.61
485.89	15419.45
486.07	15211.14
486.25	15480.30
486.43	15585.63
486.61	15716.70
486.78	15913.30
486.96	16292.47
487.14	16147.36
487.32	16299.49
487.50	16386.09
487.68	16737.17
487.85	16980.59
488.03	17006.33
488.21	17043.78
488.39	17219.32
488.57	17446.35
488.75	16989.95
488.92	17778.71
489.10	17912.12
489.28	17855.95
489.46	18005.74
489.64	17949.57
489.81	18478.53
489.99	18300.65
490.17	18412.99
490.35	18895.14
490.53	18958.34
490.70	18939.62
490.88	18780.46
491.06	19194.73
491.24	19145.58
491.41	19370.27
491.59	19332.82
491.77	19342.19
491.95	19442.83
492.13	19679.22
492.30	19915.62
492.48	19819.66
492.66	20060.73
492.84	19836.04
493.01	20580.33
493.19	20411.81
493.37	20498.41
493.54	20336.91
493.72	21158.44
493.90	20723.10
494.08	20996.95
494.25	21060.14
494.43	21352.71
494.61	21397.18
494.79	21348.03
494.96	21326.96
495.14	21521.23
495.32	21708.47
495.49	21687.40
495.67	22188.28
495.85	22478.50
496.02	22417.65
496.20	22314.67
496.38	22377.86
496.55	22546.38
496.73	22944.27
496.91	22876.40
497.09	23070.66
497.26	23035.55
497.44	23108.11
497.62	23042.57
497.79	23410.04
497.97	23197.05
498.14	23573.88
498.32	23796.23
498.50	23531.75
498.67	23962.40
498.85	23761.12
499.03	24088.79
499.20	24093.47
499.38	23995.17
499.56	24556.90
499.73	24407.11
499.91	24545.20
500.08	24496.05
500.26	24795.64
500.44	25046.07
500.61	24989.90
500.79	24760.53
500.97	25144.38
501.14	25404.17
501.32	25352.68
501.49	24882.24
501.67	25242.68
501.84	25570.35
502.02	25596.10
502.20	25722.49
502.37	25809.09
502.55	25469.71
502.72	25921.43
502.90	25788.02
503.07	25942.50
503.25	26305.28
503.43	26242.09
503.60	26176.55
503.78	26326.35
503.95	26525.29
504.13	26529.97
504.30	26417.63
504.48	26930.20
504.65	26813.18
504.83	26951.27
505.01	27033.19
505.18	26911.48
505.36	27449.80
505.53	27005.10
505.71	27417.04
505.88	27442.78
506.06	27005.10
506.23	27770.46
506.41	27232.13
506.58	27562.15
506.76	27571.51
506.93	27873.44
507.11	27749.39
507.28	28034.94
507.46	27709.60
507.63	27833.65
507.81	28264.31
507.98	27931.95
508.16	28379.00
508.33	28027.92
508.50	28781.57
508.68	28783.91
508.85	29071.79
509.03	28627.09
509.20	28748.80
509.38	29216.91
509.55	29216.91
509.73	28772.21
509.90	29364.36
510.08	29022.64
510.25	29275.42
510.42	29425.22
510.60	29811.40
510.77	29448.62
510.95	29500.11
511.12	29851.19
511.30	30047.80
511.47	30728.89
511.64	30078.22
511.82	30146.10
511.99	29795.02
512.17	29827.79
512.34	30169.51
512.51	30700.81
512.69	30785.07
512.86	31000.40
513.04	30845.92
513.21	30728.89
513.38	30462.07
513.56	30775.70
513.73	30775.70
513.90	30820.17
514.08	30998.06
514.25	30838.90
514.43	30661.02
514.60	31070.61
514.77	30916.14
514.95	31454.46
515.12	31199.34
515.29	31391.26
515.47	31943.63
515.64	32126.19
515.81	31812.56
515.99	31805.54
516.16	31599.57
516.33	31597.23
516.51	31772.77
516.68	31491.91
516.85	31814.90
517.03	32191.73
517.20	31718.94
517.37	32070.02
517.54	32126.19
517.72	32458.55
517.89	32011.51
518.06	32077.04
518.24	32360.25
518.41	32100.45
518.58	32535.79
518.75	32484.30
518.93	33165.39
519.10	32800.27
519.27	32606.00
519.45	32641.11
519.62	33092.83
519.79	33076.45
519.96	33338.59
520.14	33329.23
520.31	33544.56
520.48	33469.66
520.65	33270.72
520.83	33708.40
521.00	33851.17
521.17	33635.84
521.34	33820.74
521.52	34232.68
521.69	33933.09
521.86	34029.05
522.03	34064.16
522.20	34106.29
522.38	34415.24
522.55	34185.86
522.72	34263.10
522.89	34026.71
523.07	34457.37
523.24	34412.90
523.41	34712.49
523.58	34780.36
523.75	35157.19
523.92	35061.22
524.10	34988.67
524.27	35192.30
524.44	35211.02
524.61	35695.51
524.78	35161.87
524.96	35281.24
525.13	35875.73
525.30	35613.59
525.47	35384.22
525.64	35440.39
525.81	35487.20
525.98	35194.64
526.16	35311.66
526.33	35386.56
526.50	35931.90
526.67	35393.58
526.84	35117.40
527.01	35409.96
527.18	35508.27
527.36	35969.35
527.53	36259.58
527.70	36285.33
527.87	36306.39
528.04	36332.14
528.21	36339.16
528.38	36027.87
528.55	36507.68
528.72	36746.41
528.89	36601.30
529.07	36191.70
529.24	36566.19
529.41	36685.56
529.58	36615.34
529.75	36451.50
529.92	36697.26
530.09	36760.45
530.26	37038.98
530.43	36828.33
530.60	36940.68
530.77	37099.83
530.94	36999.19
531.11	36868.12
531.28	36833.01
531.46	37069.40
531.63	37132.60
531.80	37177.07
531.97	37184.09
532.14	37031.96
532.31	37659.22
532.48	37881.57
532.65	37670.92
532.82	37383.04
532.99	38082.86
533.16	37696.67
533.33	37933.06
533.50	38302.87
533.67	37830.08
533.84	37408.78
534.01	37879.23
534.18	38045.41
534.35	38466.70
534.52	38192.86
534.69	38445.64
534.86	38185.84
535.03	38101.58
535.20	38848.21
535.37	38813.10
535.54	38845.87
535.71	38450.32
535.88	38253.72
536.05	38188.18
536.22	38876.30
536.38	38429.26
536.55	38389.47
536.72	38361.38
536.89	38347.34
537.06	38859.91
537.23	38600.12
537.40	38838.85
537.57	38773.31
537.74	38642.24
537.91	39257.81
538.08	38983.96
538.25	38752.25
538.42	38890.34
538.59	39047.16
538.75	38958.22
538.92	38630.54
539.09	38845.87
539.26	39199.29
539.43	39248.44
539.60	39489.52
539.77	39503.56
539.94	39304.62
540.11	38637.56
540.28	39227.38
540.44	39318.66
540.61	39405.26
540.78	39084.61
540.95	39033.11
541.12	39440.37
541.29	39468.45
541.46	39761.02
541.62	39503.56
541.79	40446.80
541.96	39487.18
542.13	39505.90
542.30	39655.70
542.47	39831.24
542.63	40205.72
542.80	40065.29
542.97	39936.56
543.14	40666.81
543.31	40311.05
543.48	40273.60
543.64	40765.11
543.81	40980.44
543.98	40631.70
544.15	40652.76
544.32	41095.13
544.48	41301.09
544.65	41041.29
544.82	40968.74
544.99	40540.42
545.16	41010.87
545.32	40818.94
545.49	41525.78
545.66	41221.52
545.83	41106.83
546.00	41139.60
546.16	41284.71
546.33	40811.92
546.50	41029.59
546.67	41223.86
546.83	40734.68
547.00	40964.06
547.17	41064.70
547.34	40900.86
547.50	41801.97
547.67	41731.75
547.84	41940.06
548.00	41401.74
548.17	41832.39
548.34	41642.81
548.51	41907.29
548.67	41703.67
548.84	42176.45
549.01	41668.56
549.18	41385.35
549.34	41918.99
549.51	41757.50
549.68	41956.44
549.84	41890.91
550.01	41879.21
550.18	41907.29
550.34	41865.16
550.51	41961.12
550.68	41902.61
550.84	41839.42
551.01	41869.84
551.18	41947.08
551.34	41855.80
551.51	42337.95
551.68	42071.13
551.84	42195.18
552.01	42218.58
552.18	42167.09
552.34	42216.24
552.51	42103.90
552.68	42157.73
552.84	42927.77
553.01	42705.41
553.18	42462.00
553.34	42567.32
553.51	41986.87
553.67	42305.18
553.84	42913.72
554.01	42473.70
554.17	42740.52
554.34	42885.64
554.51	42244.33
554.67	42944.15
554.84	43037.77
555.00	42932.45
555.17	42527.53
555.33	42525.19
555.50	42646.90
555.67	42593.07
555.83	43145.44
556.00	42848.19
556.16	43330.34
556.33	42913.72
556.50	42710.10
556.66	43182.88
556.83	42665.63
556.99	42656.26
557.16	43122.03
557.32	43147.78
557.49	43117.35
557.65	42841.17
557.82	43304.59
557.98	43058.84
558.15	43718.87
558.32	43573.75
558.48	42958.19
558.65	43304.59
558.81	42986.28
558.98	42918.40
559.14	42909.04
559.31	42892.66
559.47	43662.69
559.64	43608.86
559.80	43220.33
559.97	43622.90
560.13	43084.58
560.30	43152.46
560.46	43189.91
560.63	43440.34
560.79	43625.25
560.96	43973.98
561.12	43515.24
561.29	43077.56
561.45	43716.53
561.61	43634.61
561.78	43512.90
561.94	43557.37
562.11	43592.48
562.27	43683.76
562.44	43824.19
562.60	43569.07
562.77	43835.89
562.93	43395.87
563.10	43702.48
563.26	43470.77
563.42	43929.51
563.59	43653.33
563.75	43313.95
563.92	43936.54
564.08	43690.78
564.24	43941.22
564.41	43683.76
564.57	43833.55
564.74	43618.22
564.90	44046.54
565.07	43840.57
565.23	44023.14
565.39	43819.51
565.56	44229.10
565.72	43634.61
565.88	44170.59
566.05	44107.40
566.21	43819.51
566.38	43707.16
566.54	44105.06
566.70	44807.22
566.87	44201.02
567.03	44280.60
567.19	44807.22
567.36	44240.81
567.52	44081.65
567.68	44020.80
567.85	44435.07
568.01	43964.62
568.17	43917.81
568.34	44198.68
568.50	44282.94
568.66	44222.08
568.83	44261.87
568.99	43655.67
569.15	43908.45
569.32	43756.32
569.48	43840.57
569.64	44505.29
569.81	44556.78
569.97	44121.44
570.13	44250.17
570.30	44081.65
570.46	44055.90
570.62	43702.48
570.78	43943.56
570.95	44224.42
571.11	44055.90
571.27	43962.28
571.43	43997.39
571.60	43990.37
571.76	43856.96
571.92	44453.79
572.09	44404.64
572.25	44205.70
572.41	43648.65
572.57	44397.62
572.74	44680.83
572.90	44367.20
573.06	44891.48
573.22	44343.79
573.38	44793.17
573.55	44002.07
573.71	44505.29
573.87	44362.51
574.03	44177.61
574.20	44694.87
574.36	43779.72
574.52	44259.53
574.68	44498.26
574.84	44697.21
575.01	44196.34
575.17	44168.25
575.33	44119.10
575.49	44243.15
575.65	44858.71
575.82	44720.62
575.98	44439.75
576.14	44891.48
576.30	44940.63
576.46	44371.88
576.62	44280.60
576.79	44315.70
576.95	44346.13
577.11	44350.81
577.27	44254.85
577.43	44577.84
577.59	44500.61
577.75	44631.68
577.92	44037.18
578.08	43728.23
578.24	44238.47
578.40	44137.82
578.56	44252.51
578.72	44268.89
578.88	44751.04
579.04	44626.99
579.21	44189.31
579.37	44676.15
579.53	44704.23
579.69	44318.04
579.85	44306.34
580.01	44502.95
580.17	44809.56
580.33	44729.98
580.49	44147.18
580.65	44706.57
580.82	44823.60
580.98	44528.69
581.14	44357.83
581.30	44636.36
581.46	44552.10
581.62	44664.44
581.78	44575.50
581.94	45090.42
582.10	44648.06
582.26	44247.83
582.42	44825.94
582.58	44254.85
582.74	44751.04
582.90	44842.32
583.06	44484.22
583.22	44498.26
583.38	44938.29
583.54	44498.26
583.70	44444.43
583.86	44844.66
584.02	44430.39
584.18	45116.17
584.34	44406.98
584.50	44238.47
584.66	44252.51
584.82	44498.26
584.98	44699.55
585.14	45067.02
585.30	44779.13
585.46	44556.78
585.62	44793.17
585.78	44350.81
585.94	44105.06
586.10	44554.44
586.26	44748.70
586.42	44788.49
586.58	44706.57
586.74	44514.65
586.90	44444.43
587.06	44554.44
587.22	44662.10
587.38	44531.03
587.54	44744.02
587.70	44587.21
587.86	45083.40
588.02	44804.88
588.18	44601.25
588.34	44383.58
588.49	44573.16
588.65	44149.53
588.81	44292.30
588.97	44369.54
589.13	44568.48
589.29	44273.57
589.45	45010.84
589.61	44608.27
589.77	45071.70
589.93	45031.91
590.08	44458.48
590.24	44601.25
