SpectraSuite Data File
++++++++++++++++++++++++++++++++++++
Date: Fri Oct 25 10:47:25 EDT 2013
User: price-jones
Dark Spectrum Present: No
Reference Spectrum Present: No
Number of Sampled Component Spectra: 1
Spectrometers: USB2+H05261
Integration Time (usec): 100000 (USB2+H05261)
Spectra Averaged: 1 (USB2+H05261)
Boxcar Smoothing: 0 (USB2+H05261)
Correct for Electrical Dark: No (USB2+H05261)
Strobe/Lamp Enabled: No (USB2+H05261)
Correct for Detector Non-linearity: No (USB2+H05261)
Correct for Stray Light: No (USB2+H05261)
Number of Pixels in Processed Spectrum: 2048
>>>>>Begin Processed Spectral Data<<<<<
365.73	112.35
365.92	112.35
366.12	112.35
366.32	110.01
366.52	0.00
366.72	35.11
366.91	72.56
367.11	44.47
367.31	93.62
367.51	39.79
367.70	0.00
367.90	53.83
368.10	67.88
368.30	65.54
368.49	58.51
368.69	46.81
368.89	110.01
369.09	72.56
369.28	142.77
369.48	149.79
369.68	100.64
369.87	77.24
370.07	32.77
370.27	117.03
370.47	170.86
370.66	337.04
370.86	393.21
371.06	395.55
371.25	521.94
371.45	449.38
371.65	465.77
371.84	491.51
372.04	461.09
372.24	454.06
372.44	496.19
372.63	418.96
372.83	543.00
373.03	493.85
373.22	491.51
373.42	528.96
373.62	486.83
373.81	535.98
374.01	550.03
374.21	514.92
374.40	458.74
374.60	500.87
374.79	564.07
374.99	512.58
375.19	557.05
375.38	437.68
375.58	601.52
375.78	589.82
375.97	507.90
376.17	575.77
376.37	566.41
376.56	496.19
376.76	629.60
376.95	622.58
377.15	557.05
377.35	662.37
377.54	461.09
377.74	585.13
377.93	624.92
378.13	653.01
378.33	601.52
378.52	613.22
378.72	674.07
378.91	634.29
379.11	622.58
379.31	676.41
379.50	550.03
379.70	676.41
379.89	660.03
380.09	571.09
380.28	648.33
380.48	702.16
380.68	587.47
380.87	561.73
381.07	608.54
381.26	608.54
381.46	657.69
381.65	704.50
381.85	688.12
382.04	774.72
382.24	709.18
382.43	718.54
382.63	634.29
382.83	723.23
383.02	725.57
383.22	765.36
383.41	683.44
383.61	734.93
383.80	734.93
384.00	704.50
384.19	704.50
384.39	779.40
384.58	777.06
384.78	816.85
384.97	748.97
385.17	751.31
385.36	814.51
385.56	681.10
385.75	802.80
385.95	765.36
386.14	753.65
386.34	683.44
386.53	774.72
386.72	805.14
386.92	903.45
387.11	835.57
387.31	837.91
387.50	781.74
387.70	854.30
387.89	795.78
388.09	842.59
388.28	805.14
388.48	842.59
388.67	830.89
388.86	830.89
389.06	877.70
389.25	863.66
389.45	861.32
389.64	929.19
389.84	910.47
390.03	929.19
390.22	877.70
390.42	936.21
390.61	954.94
390.81	866.00
391.00	898.77
391.19	968.98
391.39	936.21
391.58	971.32
391.78	987.71
391.97	929.19
392.16	964.30
392.36	1036.86
392.55	952.60
392.75	1034.52
392.94	1015.79
393.13	931.53
393.33	917.49
393.52	917.49
393.71	1053.24
393.91	1025.15
394.10	1008.77
394.29	1015.79
394.49	1102.39
394.68	1196.01
394.88	1088.35
395.07	1078.99
395.26	1064.94
395.46	1046.22
395.65	1151.54
395.84	1055.58
396.04	1191.33
396.23	1128.14
396.42	1116.44
396.62	1193.67
396.81	1128.14
397.00	1057.92
397.19	1170.27
397.39	1177.29
397.58	1263.89
397.77	1158.57
397.97	1212.40
398.16	1235.80
398.35	1193.67
398.55	1299.00
398.74	1282.61
398.93	1303.68
399.12	1299.00
399.32	1240.48
399.51	1261.55
399.70	1437.09
399.90	1409.00
400.09	1451.13
400.28	1427.73
400.47	1411.34
400.67	1441.77
400.86	1437.09
401.05	1488.58
401.24	1479.22
401.44	1537.73
401.63	1519.01
401.82	1418.36
402.01	1451.13
402.21	1474.54
402.40	1544.75
402.59	1568.16
402.78	1537.73
402.97	1486.24
403.17	1556.46
403.36	1631.35
403.55	1624.33
403.74	1502.62
403.93	1612.63
404.13	1584.54
404.32	1563.48
404.51	1692.21
404.70	1680.50
404.89	1687.53
405.09	1640.72
405.28	1685.19
405.47	1795.19
405.66	1748.38
405.85	1776.47
406.05	1682.85
406.24	1785.83
406.43	1818.60
406.62	1919.24
406.81	1914.56
407.00	1834.98
407.20	1802.21
407.39	1795.19
407.58	1912.22
407.77	1944.99
407.96	1961.37
408.15	2005.84
408.34	1942.64
408.54	1987.11
408.73	2038.61
408.92	2069.03
409.11	1935.62
409.30	1980.09
409.49	2050.31
409.68	2052.65
409.87	2083.08
410.07	1998.82
410.26	2087.76
410.45	2029.24
410.64	2122.87
410.83	2270.32
411.02	2202.44
411.21	2193.08
411.40	2122.87
411.59	2286.70
411.78	2172.02
411.98	2303.09
412.17	2366.28
412.36	2375.64
412.55	2347.56
412.74	2375.64
412.93	2452.88
413.12	2356.92
413.31	2558.21
413.50	2452.88
413.69	2335.85
413.88	2633.10
414.07	2679.91
414.26	2605.02
414.45	2597.99
414.64	2642.46
414.83	2654.17
415.02	2693.96
415.22	2815.66
415.41	2803.96
415.60	2836.73
415.79	2843.75
415.98	2860.13
416.17	2939.71
416.36	2759.49
416.55	2853.11
416.74	2937.37
416.93	2911.63
417.12	2864.82
417.31	2935.03
417.50	2986.52
417.69	3124.62
417.88	2998.23
418.07	2977.16
418.26	3038.02
418.45	3026.31
418.64	3309.52
418.83	3173.77
419.02	3159.72
419.21	3208.87
419.39	3215.90
419.58	3164.40
419.77	3279.09
419.96	3251.00
420.15	3302.50
420.34	3126.96
420.53	3309.52
420.72	3471.01
420.91	3389.10
421.10	3405.48
421.29	3463.99
421.48	3349.31
421.67	3431.23
421.86	3346.97
422.05	3363.35
422.24	3346.97
422.43	3545.91
422.61	3403.14
422.80	3531.87
422.99	3485.06
423.18	3459.31
423.37	3482.72
423.56	3583.36
423.75	3510.80
423.94	3375.05
424.13	3260.37
424.32	3314.20
424.50	3506.12
424.69	3508.46
424.88	3599.74
425.07	3513.14
425.26	3454.63
425.45	3447.61
425.64	3428.88
425.83	3590.38
426.01	3581.02
426.20	3578.68
426.39	3541.23
426.58	3651.24
426.77	3566.98
426.96	3555.27
427.15	3522.51
427.33	3627.83
427.52	3599.74
427.71	3524.85
427.90	3751.88
428.09	3719.11
428.28	3777.62
428.46	3749.54
428.65	3864.22
428.84	3932.10
429.03	3747.20
429.22	3784.65
429.40	3749.54
429.59	3786.99
429.78	3557.61
429.97	3698.05
430.16	3623.15
430.34	3740.18
430.53	3997.64
430.72	3822.09
430.91	3906.35
431.10	3922.74
431.28	4107.64
431.47	4009.34
431.66	4102.96
431.85	3981.25
432.03	4030.40
432.22	4203.60
432.41	4161.47
432.60	4273.82
432.79	4161.47
432.97	4119.34
433.16	4229.35
433.35	4049.13
433.54	4264.46
433.72	4259.78
433.91	4322.97
434.10	4177.86
434.28	4234.03
434.47	4287.86
434.66	4510.21
434.85	4440.00
435.03	4486.81
435.22	4421.27
435.41	4594.47
435.59	4660.01
435.78	4652.98
435.97	4554.68
436.16	4507.87
436.34	4610.86
436.53	4578.09
436.72	4697.46
436.90	4557.02
437.09	4662.35
437.28	4636.60
437.46	4519.57
437.65	4615.54
437.84	4760.65
438.02	4650.64
438.21	4751.29
438.40	4657.67
438.58	4868.31
438.77	4835.55
438.96	4912.78
439.14	4938.53
439.33	5004.07
439.52	5111.73
439.70	5050.88
439.89	5149.18
440.08	5132.79
440.26	5296.63
440.45	5139.82
440.63	5076.62
440.82	5359.83
441.01	5170.24
441.19	5385.57
441.38	5455.79
441.57	5481.53
441.75	5481.53
441.94	5516.64
442.12	5636.01
442.31	5661.76
442.50	5554.09
442.68	5788.14
442.87	5486.22
443.05	5841.98
443.24	5619.63
443.43	5762.40
443.61	5720.27
443.80	5966.03
443.98	5703.89
444.17	5659.42
444.35	5853.68
444.54	5717.93
444.73	5898.15
444.91	5846.66
445.10	5769.42
445.28	5832.62
445.47	5806.87
445.65	5748.36
445.84	5755.38
446.02	5900.49
446.21	5874.74
446.39	5912.19
446.58	5914.53
446.77	5895.81
446.95	5792.83
447.14	5870.06
447.32	6059.65
447.51	5834.96
447.69	5961.34
447.88	6120.50
448.06	6001.13
448.25	5959.00
448.43	5933.26
448.62	5987.09
448.80	5919.21
448.99	6069.01
449.17	6071.35
449.36	5987.09
449.54	6146.25
449.73	6387.32
449.91	6279.66
450.10	6244.55
450.28	6392.00
450.46	6361.58
450.65	6485.62
450.83	6382.64
451.02	6310.08
451.20	6534.78
451.39	6399.02
451.57	6396.68
451.76	6279.66
451.94	6436.47
452.13	6525.41
452.31	6494.99
452.49	6272.64
452.68	6480.94
452.86	6415.41
453.05	6675.21
453.23	6590.95
453.42	6612.01
453.60	6569.88
453.78	6689.25
453.97	6640.10
454.15	6855.43
454.34	6459.88
454.52	6864.79
454.70	6771.17
454.89	6883.52
455.07	6834.36
455.26	6707.98
455.44	6850.75
455.62	6981.82
455.81	6939.69
455.99	6834.36
456.17	7037.99
456.36	7087.14
456.54	7108.21
456.73	7115.23
456.91	7157.36
457.09	7194.81
457.28	7393.75
457.46	7274.38
457.64	7236.94
457.83	7255.66
458.01	7164.38
458.19	7241.62
458.38	7229.91
458.56	7386.73
458.74	7595.04
458.93	7290.77
459.11	7302.47
459.29	7529.50
459.48	7435.88
459.66	7431.20
459.84	7609.08
460.03	7702.70
460.21	7499.08
460.39	7564.61
460.57	7604.40
460.76	7815.05
460.94	7815.05
461.12	7637.17
461.31	7723.77
461.49	7885.26
461.67	7777.60
461.85	7747.17
462.04	7777.60
462.22	8329.97
462.40	7983.57
462.59	7840.79
462.77	7852.50
462.95	7969.52
463.13	7967.18
463.32	7962.50
463.50	7929.74
463.68	8131.02
463.86	8149.75
464.05	7651.21
464.23	8046.76
464.41	8128.68
464.59	7950.80
464.78	8348.69
464.96	8248.05
465.14	8191.88
465.32	8262.09
465.50	8308.90
465.69	8517.21
465.87	8287.84
466.05	8175.49
466.23	8360.39
466.41	8191.88
466.60	8507.85
466.78	8629.56
466.96	8369.76
467.14	8255.07
467.32	8395.50
467.51	8769.99
467.69	8294.86
467.87	8439.97
468.05	8564.02
468.23	8549.98
468.41	8528.91
468.60	8533.59
468.78	8659.98
468.96	8655.30
469.14	8610.83
469.32	8760.63
469.50	8606.15
469.69	8959.57
469.87	8936.17
470.05	8905.74
470.23	9020.42
470.41	8919.78
470.59	9123.41
470.77	9174.90
470.95	9125.75
471.14	9078.94
471.32	8723.18
471.50	9263.84
471.68	9125.75
471.86	9210.01
472.04	9277.88
472.22	9621.94
472.40	9226.39
472.58	9399.59
472.77	9198.31
472.95	9451.08
473.13	9689.82
473.31	9586.83
473.49	9647.69
473.67	9776.42
473.85	9738.97
474.03	10015.15
474.21	9963.66
474.39	10157.92
474.57	9881.74
474.75	10169.63
474.93	10115.80
475.12	9963.66
475.30	10312.40
475.48	10249.21
475.66	10249.21
475.84	10389.64
476.02	10373.25
476.20	10321.76
476.38	10555.82
476.56	10661.14
476.74	10703.27
476.92	10670.50
477.10	10729.02
477.28	10581.56
477.46	10743.06
477.64	11070.73
477.82	11204.14
478.00	11414.79
478.18	11349.26
478.36	11403.09
478.54	11529.48
478.72	11754.17
478.90	11712.04
479.08	11571.61
479.26	11805.66
479.44	12058.44
479.62	11946.09
479.80	11791.62
479.98	12355.69
480.16	12528.89
480.34	12126.32
480.52	12453.99
480.70	12439.95
480.88	12498.46
481.06	12503.14
481.24	12788.69
481.41	12905.71
481.59	12851.88
481.77	13067.21
481.95	13245.09
482.13	13364.46
482.31	13149.13
482.49	13610.22
482.67	13486.17
482.85	13710.86
483.03	13729.58
483.21	14071.30
483.39	13984.70
483.57	13797.46
483.74	13870.01
483.92	14118.11
484.10	14368.55
484.28	14450.47
484.46	14703.25
484.64	14600.26
484.82	14492.60
485.00	14518.34
485.18	15211.14
485.35	15124.54
485.53	14733.67
485.71	15005.17
485.89	15218.16
486.07	15314.13
486.25	15384.34
486.43	15602.01
486.61	15910.96
486.78	15793.94
486.96	16013.95
487.14	16325.24
487.32	16098.20
487.50	16229.27
487.68	16425.88
487.85	16638.87
488.03	16629.51
488.21	16957.18
488.39	17076.55
488.57	17081.23
488.75	17226.34
488.92	17329.33
489.10	17596.15
489.28	17645.30
489.46	17657.00
489.64	17930.84
489.81	18155.54
489.99	18272.56
490.17	18237.45
490.35	18293.63
490.53	18583.85
490.70	18630.66
490.88	18593.22
491.06	19044.94
491.24	18911.53
491.41	19110.47
491.59	19318.78
491.77	18941.96
491.95	19302.40
492.13	19758.80
492.30	19737.74
492.48	20053.71
492.66	20224.57
492.84	19775.19
493.01	20285.42
493.19	20175.42
493.37	20369.68
493.54	20538.20
493.72	20472.67
493.90	20577.99
494.08	20767.57
494.25	21188.87
494.43	20992.26
494.61	21329.30
494.79	21586.76
494.96	21216.96
495.14	21151.42
495.32	21879.33
495.49	21893.37
495.67	21635.91
495.85	22015.08
496.02	22270.20
496.20	22197.64
496.38	22312.33
496.55	22466.80
496.73	22813.20
496.91	22948.95
497.09	22691.49
497.26	23194.71
497.44	22852.99
497.62	23007.47
497.79	23470.89
497.97	23393.65
498.14	23363.23
498.32	23527.06
498.50	23770.48
498.67	23442.81
498.85	23412.38
499.03	23843.04
499.20	23768.14
499.38	23913.25
499.56	24283.06
499.73	24257.31
499.91	24449.24
500.08	24730.10
500.26	24507.75
500.44	24556.90
500.61	24634.14
500.79	24610.73
500.97	24741.80
501.14	25090.54
501.32	25149.06
501.49	24882.24
501.67	25142.03
501.84	25319.92
502.02	25525.88
502.20	25551.63
502.37	25511.84
502.55	25579.71
502.72	25968.24
502.90	25729.51
503.07	25773.98
503.25	26214.00
503.43	25883.98
503.60	26099.31
503.78	26485.50
503.95	26185.91
504.13	26277.19
504.30	26501.89
504.48	26497.20
504.65	26588.49
504.83	26916.16
505.01	26878.71
505.18	27096.38
505.36	26930.20
505.53	26934.88
505.71	27267.24
505.88	27372.57
506.06	27349.16
506.23	27583.21
506.41	27257.88
506.58	27372.57
506.76	27686.20
506.93	27999.83
507.11	27578.53
507.28	27845.35
507.46	27840.67
507.63	28020.89
507.81	28166.01
507.98	27733.01
508.16	28203.46
508.33	28428.15
508.50	28114.52
508.68	28467.94
508.85	28496.02
509.03	28496.02
509.20	28622.41
509.38	28985.19
509.55	29191.16
509.73	28823.70
509.90	29422.87
510.08	29350.32
510.25	28924.34
510.42	29408.83
510.60	29425.22
510.77	29797.36
510.95	29799.70
511.12	29631.18
511.30	29818.42
511.47	29998.65
511.64	29879.28
511.82	29898.00
511.99	30000.99
512.17	29951.84
512.34	29986.94
512.51	30398.88
512.69	30859.96
512.86	30445.69
513.04	30686.76
513.21	30417.60
513.38	30642.29
513.56	30871.67
513.73	30242.06
513.90	30939.54
514.08	30551.01
514.25	30675.06
514.43	31023.80
514.60	30962.95
514.77	30864.64
514.95	31229.77
515.12	31372.54
515.29	31260.20
515.47	31875.76
515.64	31461.48
515.81	31248.49
515.99	31484.89
516.16	31747.03
516.33	31255.51
516.51	31534.04
516.68	31332.75
516.85	31417.01
517.03	31494.25
517.20	31721.28
517.37	32009.17
517.54	32254.92
517.72	32261.94
517.89	31852.35
518.06	32383.65
518.24	32481.95
518.41	32271.31
518.58	32339.18
518.75	32147.26
518.93	33251.99
519.10	32783.88
519.27	33259.01
519.45	32566.21
519.62	33106.88
519.79	33050.70
519.96	32800.27
520.14	33177.09
520.31	33216.88
520.48	33347.95
520.65	33460.30
520.83	33722.44
521.00	33579.67
521.17	33364.34
521.34	33624.14
521.52	33663.93
521.69	33862.87
521.86	34403.53
522.03	34117.99
522.20	34129.69
522.38	33984.58
522.55	34398.85
522.72	34347.36
522.89	34110.97
523.07	34689.08
523.24	34050.11
523.41	34684.40
523.58	34429.28
523.75	34932.50
523.92	34869.30
524.10	35077.61
524.27	34871.64
524.44	34871.64
524.61	34562.69
524.78	35440.39
524.96	34700.78
525.13	35379.54
525.30	35552.74
525.47	35566.78
525.64	35360.81
525.81	35683.81
525.98	35250.81
526.16	35515.29
526.33	35475.50
526.50	35580.82
526.67	35316.34
526.84	35175.91
527.01	35398.26
527.18	35564.44
527.36	35711.89
527.53	36154.26
527.70	36109.78
527.87	36350.86
528.04	36025.53
528.21	35997.44
528.38	35908.50
528.55	36456.18
528.72	36273.62
528.89	36666.83
529.07	36215.11
529.24	36067.66
529.41	36575.55
529.58	36318.09
529.75	36430.44
529.92	36617.68
530.09	36793.22
530.26	36575.55
530.43	36868.12
530.60	36484.27
530.77	36760.45
530.94	37069.40
531.11	36928.97
531.28	36879.82
531.46	37413.46
531.63	37301.12
531.80	37069.40
531.97	37123.24
532.14	37329.20
532.31	37731.78
532.48	37656.88
532.65	37593.68
532.82	37525.81
532.99	38047.75
533.16	37296.44
533.33	37340.91
533.50	37893.27
533.67	37621.77
533.84	37752.84
534.01	38003.28
534.18	37757.52
534.35	38146.05
534.52	37675.60
534.69	38089.88
534.86	37909.66
535.03	38043.07
535.20	38274.78
535.37	38363.72
535.54	39005.03
535.71	38157.75
535.88	38345.00
536.05	38230.31
536.22	38595.43
536.38	38597.77
536.55	38391.81
536.72	38171.80
536.89	38368.40
537.06	38230.31
537.23	38455.00
537.40	38850.55
537.57	38925.45
537.74	38944.17
537.91	38859.91
538.08	39023.75
538.25	38799.06
538.42	38967.58
538.59	39236.74
538.75	38763.95
538.92	38969.92
539.09	39461.43
539.26	39201.63
539.43	39342.06
539.60	38824.81
539.77	39164.18
539.94	38897.36
540.11	39480.16
540.28	39239.08
540.44	39407.60
540.61	39398.24
540.78	39690.80
540.95	39688.46
541.12	39189.93
541.29	39716.55
541.46	39622.93
541.62	39564.42
541.79	39798.47
541.96	39332.70
542.13	39667.40
542.30	39913.16
542.47	39810.17
542.63	40161.25
542.80	39765.70
542.97	40088.70
543.14	40610.64
543.31	40746.39
543.48	40547.44
543.64	41226.20
543.81	40594.25
543.98	40481.91
544.15	40254.87
544.32	41256.62
544.48	40828.30
544.65	40704.26
544.82	40917.25
544.99	40722.98
545.16	40708.94
545.32	40414.03
545.49	41062.36
545.66	40917.25
545.83	40842.35
546.00	41434.50
546.16	41146.62
546.33	40889.16
546.50	41010.87
546.67	41247.26
546.83	40802.56
547.00	40783.83
547.17	40631.70
547.34	41354.93
547.50	41326.84
547.67	41495.36
547.84	40847.03
548.00	41504.72
548.17	41698.98
548.34	41216.83
548.51	41865.16
548.67	42108.58
548.84	41701.32
549.01	41455.57
549.18	41588.98
549.34	41727.07
549.51	42169.43
549.68	41722.39
549.84	42141.35
550.01	41827.71
550.18	41918.99
550.34	41928.36
550.51	42113.26
550.68	42029.00
550.84	42012.62
551.01	42206.88
551.18	41942.40
551.34	42225.60
551.51	41717.71
551.68	42153.05
551.84	42590.73
552.01	41663.88
552.18	42279.44
552.34	42057.09
552.51	42590.73
552.68	42281.78
552.84	42684.35
553.01	42616.47
553.18	42440.93
553.34	42209.22
553.51	42543.92
553.67	42562.64
553.84	42892.66
554.01	42796.70
554.17	42965.21
554.34	42543.92
554.51	42618.81
554.67	42684.35
554.84	42780.31
555.00	43037.77
555.17	42953.51
555.33	42628.18
555.50	43051.81
555.67	42672.65
555.83	42838.83
556.00	43332.68
556.16	43339.70
556.33	43241.40
556.50	43103.31
556.66	43339.70
556.83	42845.85
556.99	43517.58
557.16	42632.86
557.32	42836.48
557.49	42899.68
557.65	42752.23
557.82	43171.18
557.98	43124.37
558.15	43222.67
558.32	43225.01
558.48	43316.29
558.65	43269.48
558.81	43119.69
558.98	43203.95
559.14	43107.99
559.31	43510.56
559.47	42831.80
559.64	43927.17
559.80	43510.56
559.97	43318.64
560.13	43239.06
560.30	43203.95
560.46	43129.05
560.63	43363.11
560.79	43510.56
560.96	43840.57
561.12	43842.92
561.29	43491.83
561.45	43395.87
561.61	43550.35
561.78	43686.10
561.94	43070.54
562.11	43264.80
562.27	43344.38
562.44	43711.84
562.60	43955.26
562.77	43714.19
562.93	43414.60
563.10	44107.40
563.26	43487.15
563.42	43894.41
563.59	43606.52
563.75	43807.81
563.92	44112.08
564.08	44130.80
564.24	44362.51
564.41	44376.56
564.57	43632.27
564.74	44172.93
564.90	44313.36
565.07	43906.11
565.23	43990.37
565.39	43770.36
565.56	44194.00
565.72	43842.92
565.88	44271.23
566.05	43629.93
566.21	43835.89
566.38	43957.60
566.54	43826.53
566.70	43833.55
566.87	44315.70
567.03	44355.49
567.19	44334.43
567.36	44315.70
567.52	44144.84
567.68	44048.88
567.85	44051.22
568.01	44474.86
568.17	44336.77
568.34	44243.15
568.50	44568.48
568.66	43824.19
568.83	44194.00
568.99	44154.21
569.15	44280.60
569.32	43906.11
569.48	44058.24
569.64	44329.75
569.81	44189.31
569.97	43955.26
570.13	44348.47
570.30	43885.04
570.46	43924.83
570.62	43906.11
570.78	43952.92
570.95	43899.09
571.11	44528.69
571.27	44257.19
571.43	44264.21
571.60	44814.24
571.76	44217.40
571.92	44332.09
572.09	44264.21
572.25	44535.71
572.41	44589.55
572.57	44191.65
572.74	44615.29
572.90	44460.82
573.06	44327.41
573.22	44037.18
573.38	44516.99
573.55	43803.13
573.71	44334.43
573.87	44521.67
574.03	44065.27
574.20	44418.69
574.36	44217.40
574.52	44769.77
574.68	44435.07
574.84	44299.32
575.01	44212.72
575.17	44392.94
575.33	44526.35
575.49	44364.85
575.65	44837.64
575.82	44676.15
575.98	44334.43
576.14	45057.65
576.30	44701.89
576.46	44491.24
576.62	44818.92
576.79	44711.25
576.95	44006.75
577.11	44353.15
577.27	44619.97
577.43	44374.22
577.59	44603.59
577.75	44617.63
577.92	44252.51
578.08	44519.33
578.24	44114.42
578.40	44535.71
578.56	44664.44
578.72	44371.88
578.88	44856.37
579.04	44570.82
579.21	44217.40
579.37	44156.55
579.53	44418.69
579.69	44463.16
579.85	44596.57
580.01	44737.00
580.17	44617.63
580.33	45127.87
580.49	44655.08
580.65	44861.05
580.82	44554.44
580.98	44521.67
581.14	44816.58
581.30	44751.04
581.46	44814.24
581.62	44847.00
581.78	44704.23
581.94	44849.35
582.10	44418.69
582.26	44758.06
582.42	44215.06
582.58	44797.85
582.74	44465.50
582.90	44975.73
583.06	44346.13
583.22	44744.02
583.38	44680.83
583.54	45097.44
583.70	44814.24
583.86	44626.99
584.02	43999.73
584.18	44395.28
584.34	44914.88
584.50	44781.47
584.66	44189.31
584.82	44577.84
584.98	44837.64
585.14	44507.63
585.30	44535.71
585.46	44500.61
585.62	44711.25
585.78	44226.76
585.94	44423.37
586.10	44739.34
586.26	44568.48
586.42	45116.17
586.58	44634.02
586.74	44858.71
586.90	44715.93
587.06	44498.26
587.22	44933.60
587.38	44566.14
587.54	45322.13
587.70	44683.17
587.86	44884.45
588.02	45216.81
588.18	44978.07
588.34	44570.82
588.49	44519.33
588.65	44521.67
588.81	44409.32
588.97	44486.56
589.13	44423.37
589.29	44737.00
589.45	44376.56
589.61	44491.24
589.77	45055.31
589.93	45006.16
590.08	44837.64
590.24	45191.06
