SpectraSuite Data File
++++++++++++++++++++++++++++++++++++
Date: Fri Oct 25 11:25:52 EDT 2013
User: price-jones
Dark Spectrum Present: No
Reference Spectrum Present: No
Number of Sampled Component Spectra: 1
Spectrometers: USB2+H05261
Integration Time (usec): 100000 (USB2+H05261)
Spectra Averaged: 1 (USB2+H05261)
Boxcar Smoothing: 0 (USB2+H05261)
Correct for Electrical Dark: No (USB2+H05261)
Strobe/Lamp Enabled: No (USB2+H05261)
Correct for Detector Non-linearity: No (USB2+H05261)
Correct for Stray Light: No (USB2+H05261)
Number of Pixels in Processed Spectrum: 2048
>>>>>Begin Processed Spectral Data<<<<<
365.73	215.33
365.92	215.33
366.12	215.33
366.32	51.49
366.52	152.13
366.72	142.77
366.91	145.11
367.11	135.75
367.31	131.07
367.51	105.32
367.70	177.88
367.90	140.43
368.10	161.50
368.30	152.13
368.49	170.86
368.69	145.11
368.89	128.73
369.09	161.50
369.28	168.52
369.48	147.45
369.68	217.67
369.87	168.52
370.07	205.97
370.27	250.44
370.47	311.29
370.66	589.82
370.86	667.05
371.06	674.07
371.25	655.35
371.45	629.60
371.65	725.57
371.84	683.44
372.04	667.05
372.24	674.07
372.44	678.76
372.63	716.20
372.83	770.04
373.03	781.74
373.22	753.65
373.42	791.10
373.62	685.78
373.81	819.19
374.01	851.96
374.21	828.55
374.40	866.00
374.60	777.06
374.79	781.74
374.99	753.65
375.19	884.72
375.38	861.32
375.58	919.83
375.78	847.27
375.97	889.40
376.17	887.06
376.37	847.27
376.56	830.89
376.76	849.61
376.95	877.70
377.15	959.62
377.35	840.25
377.54	940.90
377.74	908.13
377.93	847.27
378.13	919.83
378.33	1001.75
378.52	959.62
378.72	1020.47
378.91	966.64
379.11	856.64
379.31	905.79
379.50	926.85
379.70	973.66
379.89	961.96
380.09	940.90
380.28	1015.79
380.48	976.00
380.68	1015.79
380.87	917.49
381.07	994.73
381.26	1055.58
381.46	976.00
381.65	1111.75
381.85	978.34
382.04	1069.62
382.24	1008.77
382.43	1018.13
382.63	1053.24
382.83	1095.37
383.02	1081.33
383.22	1090.69
383.41	1097.71
383.61	1088.35
383.80	1151.54
384.00	1053.24
384.19	1123.46
384.39	1116.44
384.58	1135.16
384.78	1118.78
384.97	1210.06
385.17	1170.27
385.36	1191.33
385.56	1238.14
385.75	1231.12
385.95	1196.01
386.14	1254.53
386.34	1125.80
386.53	1313.04
386.72	1240.48
386.92	1268.57
387.11	1242.82
387.31	1343.47
387.50	1238.14
387.70	1221.76
387.89	1299.00
388.09	1266.23
388.28	1238.14
388.48	1359.85
388.67	1376.24
388.86	1373.89
389.06	1336.45
389.25	1315.38
389.45	1315.38
389.64	1273.25
389.84	1369.21
390.03	1460.49
390.22	1357.51
390.42	1320.06
390.61	1315.38
390.81	1465.18
391.00	1444.11
391.19	1572.84
391.39	1497.94
391.58	1376.24
391.78	1437.09
391.97	1416.02
392.16	1490.92
392.36	1526.03
392.55	1528.37
392.75	1645.40
392.94	1582.20
393.13	1500.28
393.33	1441.77
393.52	1568.16
393.71	1614.97
393.91	1621.99
394.10	1502.62
394.29	1621.99
394.49	1619.65
394.68	1640.72
394.88	1626.67
395.07	1671.14
395.26	1706.25
395.46	1533.05
395.65	1666.46
395.84	1760.08
396.04	1905.20
396.23	1706.25
396.42	1703.91
396.62	1724.97
396.81	1795.19
397.00	1802.21
397.19	1717.95
397.39	1701.57
397.58	1849.02
397.77	1818.60
397.97	1818.60
398.16	1825.62
398.35	1879.45
398.55	1856.04
398.74	1947.33
398.93	2026.90
399.12	1905.20
399.32	1930.94
399.51	1949.67
399.70	1856.04
399.90	1870.09
400.09	2150.95
400.28	1930.94
400.47	2064.35
400.67	2054.99
400.86	2165.00
401.05	2036.27
401.24	2019.88
401.44	2111.16
401.63	2106.48
401.82	2057.33
402.01	2190.74
402.21	2190.74
402.40	2111.16
402.59	2155.63
402.78	2193.08
402.97	2200.10
403.17	2260.96
403.36	2333.51
403.55	2225.85
403.74	2473.95
403.93	2345.22
404.13	2303.09
404.32	2389.69
404.51	2277.34
404.70	2436.50
404.89	2410.75
405.09	2504.37
405.28	2485.65
405.47	2527.78
405.66	2499.69
405.85	2544.16
406.05	2424.80
406.24	2623.74
406.43	2551.18
406.62	2710.34
406.81	2693.96
407.00	2567.57
407.20	2656.51
407.39	2661.19
407.58	2691.62
407.77	2612.04
407.96	2719.70
408.15	2736.09
408.34	2862.48
408.54	2754.81
408.73	2818.00
408.92	2717.36
409.11	2764.17
409.30	2860.13
409.49	2977.16
409.68	2935.03
409.87	2923.33
410.07	2871.84
410.26	2911.63
410.45	3075.46
410.64	2949.08
410.83	3208.87
411.02	3073.12
411.21	3131.64
411.40	3145.68
411.59	3122.27
411.78	3265.05
411.98	3283.77
412.17	3309.52
412.36	3190.15
412.55	3445.27
412.74	3370.37
412.93	3396.12
413.12	3421.86
413.31	3545.91
413.50	3463.99
413.69	3316.54
413.88	3599.74
414.07	3555.27
414.26	3688.68
414.45	3662.94
414.64	3726.13
414.83	3749.54
415.02	3885.29
415.22	3796.35
415.41	3946.14
415.60	3906.35
415.79	3854.86
415.98	3962.53
416.17	3920.40
416.36	3843.16
416.55	4081.89
416.74	4079.55
416.93	4117.00
417.12	4166.15
417.31	4168.49
417.50	4100.62
417.69	4205.94
417.88	4264.46
418.07	4346.37
418.26	4348.72
418.45	4379.14
418.64	4388.50
418.83	4334.67
419.02	4470.42
419.21	4580.43
419.39	4510.21
419.58	4400.21
419.77	4493.83
419.96	4648.30
420.15	4641.28
420.34	4554.68
420.53	4629.58
420.72	4702.14
420.91	4599.15
421.10	4699.80
421.29	4774.69
421.48	4650.64
421.67	4821.50
421.86	4833.21
422.05	4709.16
422.24	4641.28
422.43	4674.05
422.61	4798.10
422.80	5008.75
422.99	4957.25
423.18	4917.47
423.37	4894.06
423.56	4940.87
423.75	4875.34
423.94	4737.24
424.13	4582.77
424.32	4660.01
424.50	4999.38
424.69	5118.75
424.88	5018.11
425.07	4952.57
425.26	4994.70
425.45	4910.44
425.64	4957.25
425.83	4959.60
426.01	5001.72
426.20	5022.79
426.39	5043.85
426.58	5022.79
426.77	4978.32
426.96	5191.31
427.15	5090.67
427.33	5083.64
427.52	5060.24
427.71	5146.84
427.90	5195.99
428.09	5212.37
428.28	5198.33
428.46	5336.42
428.65	5263.86
428.84	5416.00
429.03	5523.66
429.22	5355.15
429.40	5540.05
429.59	5586.86
429.78	5336.42
429.97	5226.42
430.16	5441.75
430.34	5806.87
430.53	5542.39
430.72	5437.06
430.91	5708.57
431.10	5685.16
431.28	5701.54
431.47	5827.93
431.66	5715.59
431.85	5823.25
432.03	5806.87
432.22	6101.78
432.41	6001.13
432.60	5872.40
432.79	5853.68
432.97	6076.03
433.16	5984.75
433.35	5898.15
433.54	6050.28
433.72	6024.54
433.91	5900.49
434.10	6069.01
434.28	6005.81
434.47	6237.53
434.66	6256.25
434.85	6134.54
435.03	6253.91
435.22	6204.76
435.41	6450.52
435.59	6380.30
435.78	6413.07
435.97	6628.40
436.16	6590.95
436.34	6436.47
436.53	6431.79
436.72	6560.52
436.90	6314.77
437.09	6562.86
437.28	6305.40
437.46	6520.73
437.65	6729.04
437.84	6686.91
438.02	6614.35
438.21	6572.22
438.40	6633.08
438.58	6981.82
438.77	6965.43
438.96	6970.12
439.14	6974.80
439.33	7045.01
439.52	7246.30
439.70	7232.26
439.89	7288.43
440.08	7323.54
440.26	7328.22
440.45	7262.68
440.63	7485.03
440.82	7679.30
441.01	7510.78
441.19	7625.47
441.38	7681.64
441.57	7705.04
441.75	7903.99
441.94	7955.48
442.12	7772.92
442.31	8013.99
442.50	8018.68
442.68	7875.90
442.87	7943.78
443.05	8053.78
443.24	8173.15
443.43	8311.24
443.61	8198.90
443.80	8346.35
443.98	7995.27
444.17	7686.32
444.35	8205.92
444.54	8369.76
444.73	8355.71
444.91	8212.94
445.10	8191.88
445.28	8245.71
445.47	8334.65
445.65	8477.42
445.84	8329.97
446.02	8741.90
446.21	8388.48
446.39	8318.26
446.58	8458.70
446.77	8468.06
446.95	8482.10
447.14	8470.40
447.32	8578.06
447.51	8442.31
447.69	8468.06
447.88	8517.21
448.06	8425.93
448.25	8449.33
448.43	8559.34
448.62	8622.53
448.80	8456.36
448.99	8578.06
449.17	8779.35
449.36	8748.92
449.54	8959.57
449.73	8943.19
449.91	8982.98
450.10	8791.05
450.28	9081.28
450.46	9160.86
450.65	9160.86
450.83	8854.25
451.02	9104.68
451.20	9177.24
451.39	9125.75
451.57	8938.51
451.76	9060.21
451.94	9315.33
452.13	9366.82
452.31	9228.73
452.49	9085.96
452.68	9165.54
452.86	9315.33
453.05	9338.74
453.23	9425.34
453.42	9214.69
453.60	9371.50
453.78	9401.93
453.97	9514.28
454.15	9247.46
454.34	9554.07
454.52	9453.42
454.70	9727.27
454.89	9724.93
455.07	9748.33
455.26	9703.86
455.44	9891.10
455.62	9736.63
455.81	9975.36
455.99	10052.60
456.17	9991.75
456.36	9944.94
456.54	10122.82
456.73	10359.21
456.91	10459.85
457.09	10167.29
457.28	10401.34
457.46	10324.10
457.64	10342.83
457.83	10583.90
458.01	10326.44
458.19	10768.80
458.38	10349.85
458.56	10691.57
458.74	10595.61
458.93	10747.74
459.11	10757.10
459.29	10626.03
459.48	10841.36
459.66	10827.32
459.84	10937.32
460.03	11016.90
460.21	10932.64
460.39	11133.93
460.57	11047.33
460.76	11288.40
460.94	11059.03
461.12	11108.18
461.31	11147.97
461.49	11124.57
461.67	10918.60
461.85	11470.97
462.04	11323.51
462.22	11812.68
462.40	11831.41
462.59	11606.72
462.77	11351.60
462.95	11688.64
463.13	11602.04
463.32	11580.97
463.50	11744.81
463.68	11918.01
463.86	11705.02
464.05	11700.34
464.23	11793.96
464.41	11838.43
464.59	11674.59
464.78	11981.20
464.96	12156.74
465.14	11789.28
465.32	12121.63
465.50	12049.08
465.69	12215.26
465.87	11868.86
466.05	11800.98
466.23	12264.41
466.41	12187.17
466.60	12393.14
466.78	12133.34
466.96	12257.39
467.14	12304.20
467.32	12346.33
467.51	12400.16
467.69	12177.81
467.87	12355.69
468.05	12624.85
468.23	12475.06
468.41	12442.29
468.60	12589.74
468.78	12704.43
468.96	12484.42
469.14	12741.88
469.32	12823.80
469.50	12702.09
469.69	12744.22
469.87	13301.26
470.05	13228.71
470.23	13160.83
470.41	13128.06
470.59	13130.41
470.77	13151.47
470.95	13357.44
471.14	13628.94
471.32	12950.18
471.50	13614.90
471.68	13495.53
471.86	13422.97
472.04	13617.24
472.22	14153.22
472.40	13598.51
472.58	13785.76
472.77	13865.33
472.95	14045.55
473.13	14455.15
473.31	13757.67
473.49	14075.98
473.67	14005.77
473.85	14272.59
474.03	14567.49
474.21	14860.06
474.39	14661.12
474.57	14597.92
474.75	14579.20
474.93	14970.07
475.12	14862.40
475.30	15007.52
475.48	15023.90
475.66	15260.29
475.84	15005.17
476.02	15669.89
476.20	15283.70
476.38	15337.53
476.56	15812.66
476.74	15852.45
476.92	15903.94
477.10	15740.10
477.28	16081.82
477.46	16072.46
477.64	16266.72
477.82	16453.97
478.00	17081.23
478.18	17174.85
478.36	16959.52
478.54	17132.72
478.72	17003.99
478.90	17474.44
479.08	17647.64
479.26	17706.15
479.44	17947.23
479.62	17860.63
479.80	17809.14
479.98	18436.40
480.16	18546.40
480.34	18164.90
480.52	18331.08
480.70	18768.76
480.88	18445.76
481.06	18719.60
481.24	18792.16
481.41	18977.06
481.59	19211.12
481.77	19496.66
481.95	19321.12
482.13	19569.22
482.31	19768.16
482.49	20166.06
482.67	20119.24
482.85	20372.02
483.03	20177.76
483.21	20664.59
483.39	20863.54
483.57	20868.22
483.74	21013.33
483.92	21352.71
484.10	21336.32
484.28	21680.38
484.46	21886.35
484.64	22602.55
484.82	21687.40
485.00	22462.12
485.18	22771.07
485.35	23042.57
485.53	22785.12
485.71	23250.88
485.89	23105.77
486.07	23356.21
486.25	23173.64
486.43	23559.83
486.61	23796.23
486.78	24224.54
486.96	24147.31
487.14	24596.69
487.32	25099.90
487.50	24706.70
487.68	25219.27
487.85	25022.67
488.03	25715.47
488.21	25759.94
488.39	25963.56
488.57	26331.03
488.75	26441.03
488.92	26515.93
489.10	26759.34
489.28	26735.94
489.46	26787.43
489.64	26916.16
489.81	27716.62
489.99	27480.23
490.17	27892.16
490.35	28177.71
490.53	27955.36
490.70	28212.82
490.88	27995.15
491.06	28680.92
491.24	28893.91
491.41	28793.27
491.59	29029.66
491.77	29343.30
491.95	29736.51
492.13	29846.51
492.30	29961.20
492.48	30288.87
492.66	30122.69
492.84	30256.11
493.01	30845.92
493.19	30897.41
493.37	30920.82
493.54	30918.48
493.72	31297.64
493.90	31197.00
494.08	31517.65
494.25	31847.67
494.43	31440.42
494.61	32273.65
494.79	32306.41
494.96	32692.60
495.14	32659.84
495.32	33043.68
495.49	32556.85
495.67	33369.02
495.85	33795.00
496.02	33708.40
496.20	34146.08
496.38	34031.39
496.55	34043.09
496.73	34586.10
496.91	34476.09
497.09	34740.57
497.26	34979.31
497.44	35101.01
497.62	35264.85
497.79	35543.38
497.97	35323.36
498.14	35805.52
498.32	36313.41
498.50	36229.15
498.67	36446.82
498.85	35952.97
499.03	36594.28
499.20	36514.70
499.38	36964.08
499.56	36926.63
499.73	36975.78
499.91	36833.01
500.08	37565.60
500.26	37060.04
500.44	37483.68
500.61	37308.14
500.79	37680.28
500.97	37752.84
501.14	38541.60
501.32	38333.29
501.49	38014.98
501.67	38574.37
501.84	38962.90
502.02	39166.52
502.20	39026.09
502.37	39358.45
502.55	39260.15
502.72	39442.71
502.90	39590.16
503.07	39423.98
503.25	39903.79
503.43	39763.36
503.60	39739.96
503.78	40123.80
503.95	40006.78
504.13	40294.66
504.30	40484.25
504.48	40268.92
504.65	41003.85
504.83	41017.89
505.01	41258.96
505.18	41062.36
505.36	41579.62
505.53	41095.13
505.71	41109.17
505.88	41696.64
506.06	41006.19
506.23	41811.33
506.41	41600.68
506.58	41989.21
506.76	41563.23
506.93	42267.73
507.11	42157.73
507.28	42401.14
507.46	42244.33
507.63	42639.88
507.81	42726.48
507.98	42887.98
508.16	43225.01
508.33	43147.78
508.50	43189.91
508.68	43318.64
508.85	43973.98
509.03	43660.35
509.20	44172.93
509.38	44102.71
509.55	44053.56
509.73	44210.38
509.90	44350.81
510.08	43847.60
510.25	44589.55
510.42	44713.59
510.60	44734.66
510.77	44938.29
510.95	45635.77
511.12	45336.18
511.30	44954.67
511.47	45464.91
511.64	45308.09
511.82	45628.74
511.99	45212.13
512.17	45766.84
512.34	46012.59
512.51	46082.81
512.69	46387.08
512.86	46424.53
513.04	46639.86
513.21	46674.96
513.38	46841.14
513.56	46686.67
513.73	46571.98
513.90	47026.04
514.08	46796.67
514.25	47119.66
514.43	47110.30
514.60	47229.67
514.77	47124.35
514.95	47547.98
515.12	47178.18
515.29	47309.25
515.47	47653.31
515.64	48154.18
515.81	47400.53
515.99	48158.86
516.16	48404.62
516.33	48238.44
516.51	48821.23
516.68	48212.70
516.85	48479.52
517.03	48575.48
517.20	48704.21
517.37	48884.43
517.54	48519.31
517.72	48545.05
517.89	49134.87
518.06	48992.09
518.24	49284.66
518.41	48884.43
518.58	49263.60
518.75	49247.21
518.93	49425.09
519.10	49233.17
519.27	49682.55
519.45	49427.43
519.62	49911.92
519.79	49869.79
519.96	49736.38
520.14	49893.20
520.31	49787.88
520.48	50267.69
520.65	50052.36
520.83	50543.87
521.00	50295.77
521.17	50188.11
521.34	50714.73
521.52	50583.66
521.69	50401.10
521.86	50976.87
522.03	50869.20
522.20	51358.38
522.38	51260.07
522.55	51353.69
522.72	51061.13
522.89	51157.09
523.07	51700.09
523.24	51604.13
523.41	51341.99
523.58	51468.38
523.75	51737.54
523.92	51847.55
524.10	51641.58
524.27	51782.01
524.44	51861.59
524.61	51784.35
524.78	51934.15
524.96	52177.56
525.13	52339.06
525.30	52245.44
525.47	52514.60
525.64	52259.48
525.81	52406.94
525.98	52713.55
526.16	52353.10
526.33	52680.78
526.50	52837.59
526.67	52573.11
526.84	52825.89
527.01	53043.56
527.18	52655.03
527.36	52603.54
527.53	52989.73
527.70	53202.72
527.87	53198.04
528.04	53057.60
528.21	53237.83
528.38	53411.02
528.55	53593.59
528.72	53488.26
528.89	53277.61
529.07	53066.97
529.24	53401.66
529.41	53984.46
529.58	53783.17
529.75	53883.81
529.92	53357.19
530.09	53558.48
530.26	53989.14
530.43	53846.36
530.60	53460.18
530.77	54033.61
530.94	54134.25
531.11	53766.79
531.28	54199.79
531.46	54237.23
531.63	54045.31
531.80	54284.04
531.97	54288.73
532.14	54377.67
532.31	54412.77
532.48	54590.66
532.65	54457.24
532.82	54372.99
532.99	54642.15
533.16	54443.20
533.33	54595.34
533.50	54864.50
533.67	54913.65
533.84	54529.80
534.01	54770.88
534.18	54848.11
534.35	55161.75
534.52	55131.32
534.69	55112.59
534.86	55238.98
535.03	54913.65
535.20	55091.53
535.37	55229.62
535.54	55444.95
535.71	55227.28
535.88	55150.04
536.05	55449.63
536.22	55454.31
536.38	55615.81
536.55	55416.86
536.72	55327.92
536.89	55491.76
537.06	55480.06
537.23	55707.09
537.40	55524.53
537.57	55817.10
537.74	55927.10
537.91	56013.70
538.08	55791.35
538.25	55529.21
538.42	55824.12
538.59	56025.40
538.75	55608.79
538.92	56086.26
539.09	56245.41
539.26	56104.98
539.43	56086.26
539.60	56147.11
539.77	56182.22
539.94	56310.95
540.11	56362.44
540.28	56294.56
540.44	56460.74
540.61	56442.02
540.78	56516.92
540.95	56273.50
541.12	56509.89
541.29	56460.74
541.46	56573.09
541.62	56582.45
541.79	56647.99
541.96	56353.08
542.13	56470.11
542.30	56547.34
542.47	56493.51
542.63	56996.73
542.80	56853.95
542.97	57017.79
543.14	57078.64
543.31	57066.94
543.48	56980.34
543.64	57439.09
543.81	57485.90
543.98	57162.90
544.15	57141.84
544.32	57289.29
544.48	57588.88
544.65	57301.00
544.82	57408.66
544.99	57088.01
545.16	57467.17
545.32	57366.53
545.49	57626.33
545.66	57563.14
545.83	57560.79
546.00	57614.63
546.16	57490.58
546.33	57598.24
546.50	57399.30
546.67	57719.95
546.83	57478.88
547.00	57736.34
547.17	57684.84
547.34	57923.58
547.50	58019.54
547.67	58003.16
547.84	57844.00
548.00	58003.16
548.17	58003.16
548.34	58085.07
548.51	58326.15
548.67	58143.59
548.84	57991.45
549.01	57680.16
549.18	58099.12
549.34	58143.59
549.51	58080.39
549.68	58314.45
549.84	58113.16
550.01	58141.25
550.18	58382.32
550.34	58436.16
550.51	58379.98
550.68	58365.94
550.84	57930.60
551.01	58639.78
551.18	58396.37
551.34	58358.92
551.51	58508.71
551.68	58625.74
551.84	58354.24
552.01	58447.86
552.18	58389.34
552.34	58410.41
552.51	58684.25
552.68	58422.11
552.84	58632.76
553.01	58766.17
553.18	58637.44
553.34	58820.00
553.51	58649.14
553.67	58742.77
553.84	58993.20
554.01	58925.33
554.17	58733.40
554.34	58878.52
554.51	58934.69
554.67	58997.88
554.84	58974.48
555.00	58930.01
555.17	58930.01
555.33	58663.19
555.50	59091.51
555.67	59077.46
555.83	58979.16
556.00	59126.61
556.16	59400.46
556.33	59199.17
556.50	59238.96
556.66	59339.60
556.83	59173.42
556.99	59299.81
557.16	59323.22
557.32	59423.86
557.49	59433.22
557.65	59351.30
557.82	59227.26
557.98	59327.90
558.15	59489.40
558.32	59409.82
558.48	59238.96
558.65	59508.12
558.81	59639.19
558.98	59489.40
559.14	59250.66
559.31	59444.93
559.47	59585.36
559.64	59594.72
559.80	59639.19
559.97	59599.40
560.13	59583.02
560.30	59557.27
560.46	59632.17
560.63	59728.13
560.79	59648.55
560.96	59847.50
561.12	59730.47
561.29	60011.34
561.45	59868.56
561.61	59964.52
561.78	59819.41
561.94	59664.94
562.11	59742.17
562.27	59760.90
562.44	59849.84
562.60	59924.74
562.77	59908.35
562.93	59543.23
563.10	60048.78
563.26	59849.84
563.42	60212.62
563.59	59807.71
563.75	59831.11
563.92	60055.81
564.08	59952.82
564.24	60205.60
564.41	60142.41
564.57	60147.09
564.74	60069.85
564.90	60048.78
565.07	59983.25
565.23	60025.38
565.39	60116.66
565.56	60154.11
565.72	60046.44
565.88	60245.39
566.05	60182.19
566.21	60245.39
566.38	60060.49
566.54	60095.60
566.70	60229.01
566.87	60287.52
567.03	60114.32
567.19	60381.14
567.36	60140.07
567.52	60317.95
567.68	60299.22
567.85	60439.65
568.01	60252.41
568.17	60385.82
568.34	60224.32
568.50	60168.15
568.66	60341.35
568.83	60470.08
568.99	60236.03
569.15	60413.91
569.32	60191.56
569.48	60367.10
569.64	60388.16
569.81	60411.57
569.97	60135.38
570.13	60451.36
570.30	60266.45
570.46	60423.27
570.62	60580.09
570.78	60500.51
570.95	60427.95
571.11	60544.98
571.27	60376.46
571.43	60519.23
571.60	60608.17
571.76	60331.99
571.92	60537.96
572.09	60397.52
572.25	60420.93
572.41	60439.65
572.57	60582.43
572.74	60638.60
572.90	60664.35
573.06	60631.58
573.22	60353.05
573.38	60430.29
573.55	60603.49
573.71	60652.64
573.87	60741.58
574.03	60732.22
574.20	60704.13
574.36	60694.77
574.52	60603.49
574.68	60444.33
574.84	60678.39
575.01	60760.31
575.17	60638.60
575.33	60514.55
575.49	60561.36
575.65	60643.28
575.82	60722.86
575.98	60837.54
576.14	60977.98
576.30	60907.76
576.46	60659.66
576.62	60673.71
576.79	60570.72
576.95	60507.53
577.11	60692.43
577.27	60884.36
577.43	60662.00
577.59	60781.37
577.75	60657.32
577.92	60619.88
578.08	60671.37
578.24	60767.33
578.40	60814.14
578.56	60863.29
578.72	60832.86
578.88	60898.40
579.04	61013.08
579.21	60914.78
579.37	60987.34
579.53	60837.54
579.69	60626.90
579.85	60776.69
580.01	60671.37
580.17	60860.95
580.33	60680.73
580.49	60999.04
580.65	60889.04
580.82	60849.25
580.98	60891.38
581.14	60804.78
581.30	60893.72
581.46	60811.80
581.62	60743.92
581.78	60736.90
581.94	60886.70
582.10	60715.84
582.26	60999.04
582.42	60577.75
582.58	60898.40
582.74	60830.52
582.90	60781.37
583.06	60837.54
583.22	60884.36
583.38	60898.40
583.54	60903.08
583.70	60954.57
583.86	60750.94
584.02	60814.14
584.18	60989.68
584.34	60961.59
584.50	61052.87
584.66	60762.65
584.82	60830.52
584.98	61092.66
585.14	60933.51
585.30	60762.65
585.46	60912.44
585.62	61013.08
585.78	61066.92
585.94	60687.75
586.10	60966.27
586.26	61013.08
586.42	61132.45
586.58	61134.79
586.74	60865.63
586.90	61090.32
587.06	60793.07
587.22	61027.13
587.38	60814.14
587.54	61186.28
587.70	61169.90
587.86	60987.34
588.02	61116.07
588.18	61312.67
588.34	60949.89
588.49	60893.72
