SpectraSuite Data File
++++++++++++++++++++++++++++++++++++
Date: Fri Oct 25 10:43:29 EDT 2013
User: price-jones
Dark Spectrum Present: No
Reference Spectrum Present: No
Number of Sampled Component Spectra: 1
Spectrometers: USB2+H05261
Integration Time (usec): 100000 (USB2+H05261)
Spectra Averaged: 1 (USB2+H05261)
Boxcar Smoothing: 0 (USB2+H05261)
Correct for Electrical Dark: No (USB2+H05261)
Strobe/Lamp Enabled: No (USB2+H05261)
Correct for Detector Non-linearity: No (USB2+H05261)
Correct for Stray Light: No (USB2+H05261)
Number of Pixels in Processed Spectrum: 2048
>>>>>Begin Processed Spectral Data<<<<<
365.73	124.05
365.92	124.05
366.12	124.05
366.32	74.90
366.52	0.00
366.72	60.85
366.91	7.02
367.11	49.15
367.31	25.75
367.51	11.70
367.70	0.00
367.90	25.75
368.10	0.00
368.30	93.62
368.49	23.41
368.69	0.00
368.89	0.00
369.09	16.38
369.28	98.30
369.48	110.01
369.68	7.02
369.87	30.43
370.07	39.79
370.27	117.03
370.47	114.69
370.66	358.10
370.86	470.45
371.06	433.00
371.25	486.83
371.45	428.32
371.65	449.38
371.84	393.21
372.04	503.22
372.24	449.38
372.44	451.72
372.63	564.07
372.83	468.11
373.03	512.58
373.22	519.60
373.42	507.90
373.62	440.02
373.81	496.19
374.01	547.69
374.21	566.41
374.40	596.84
374.60	587.47
374.79	507.90
374.99	557.05
375.19	622.58
375.38	603.86
375.58	589.82
375.78	638.97
375.97	641.31
376.17	655.35
376.37	550.03
376.56	634.29
376.76	648.33
376.95	660.03
377.15	690.46
377.35	615.56
377.54	615.56
377.74	613.22
377.93	727.91
378.13	685.78
378.33	671.73
378.52	683.44
378.72	774.72
378.91	690.46
379.11	601.52
379.31	657.69
379.50	592.16
379.70	655.35
379.89	732.59
380.09	648.33
380.28	674.07
380.48	716.20
380.68	636.63
380.87	610.88
381.07	777.06
381.26	725.57
381.46	709.18
381.65	779.40
381.85	634.29
382.04	678.76
382.24	739.61
382.43	690.46
382.63	695.14
382.83	681.10
383.02	746.63
383.22	760.67
383.41	695.14
383.61	706.84
383.80	770.04
384.00	791.10
384.19	819.19
384.39	788.76
384.58	802.80
384.78	779.40
384.97	866.00
385.17	704.50
385.36	760.67
385.56	828.55
385.75	861.32
385.95	770.04
386.14	919.83
386.34	847.27
386.53	898.77
386.72	812.17
386.92	894.08
387.11	833.23
387.31	851.96
387.50	887.06
387.70	873.02
387.89	833.23
388.09	896.43
388.28	779.40
388.48	866.00
388.67	903.45
388.86	873.02
389.06	940.90
389.25	990.05
389.45	992.39
389.64	931.53
389.84	1088.35
390.03	1022.81
390.22	943.24
390.42	964.30
390.61	964.30
390.81	1036.86
391.00	1015.79
391.19	1111.75
391.39	1046.22
391.58	1060.26
391.78	1149.20
391.97	990.05
392.16	980.68
392.36	1093.03
392.55	1001.75
392.75	999.41
392.94	947.92
393.13	973.66
393.33	1060.26
393.52	994.73
393.71	1121.12
393.91	1132.82
394.10	1118.78
394.29	1179.63
394.49	1158.57
394.68	1210.06
394.88	1256.87
395.07	1198.35
395.26	1186.65
395.46	1226.44
395.65	1263.89
395.84	1217.08
396.04	1313.04
396.23	1107.07
396.42	1093.03
396.62	1191.33
396.81	1193.67
397.00	1203.04
397.19	1284.95
397.39	1334.11
397.58	1399.64
397.77	1282.61
397.97	1455.81
398.16	1474.54
398.35	1439.43
398.55	1437.09
398.74	1451.13
398.93	1516.67
399.12	1497.94
399.32	1509.65
399.51	1462.83
399.70	1446.45
399.90	1511.99
400.09	1586.88
400.28	1530.71
400.47	1593.90
400.67	1715.61
400.86	1661.78
401.05	1633.69
401.24	1732.00
401.44	1678.16
401.63	1776.47
401.82	1710.93
402.01	1629.01
402.21	1804.55
402.40	1806.89
402.59	1619.65
402.78	1762.42
402.97	1813.92
403.17	1636.03
403.36	1729.66
403.55	1802.21
403.74	1973.07
403.93	1898.17
404.13	1900.52
404.32	1818.60
404.51	1898.17
404.70	1942.64
404.89	2008.18
405.09	1898.17
405.28	1947.33
405.47	1884.13
405.66	1916.90
405.85	1989.46
406.05	1984.77
406.24	1944.99
406.43	2019.88
406.62	2153.29
406.81	2115.84
407.00	2073.71
407.20	1973.07
407.39	2045.63
407.58	2134.57
407.77	2265.64
407.96	2153.29
408.15	2251.60
408.34	2186.06
408.54	2218.83
408.73	2225.85
408.92	2260.96
409.11	2347.56
409.30	2270.32
409.49	2239.89
409.68	2237.55
409.87	2298.41
410.07	2338.20
410.26	2270.32
410.45	2363.94
410.64	2340.54
410.83	2420.11
411.02	2523.10
411.21	2502.03
411.40	2457.56
411.59	2609.70
411.78	2534.80
411.98	2527.78
412.17	2663.53
412.36	2623.74
412.55	2640.12
412.74	2689.28
412.93	2668.21
413.12	2731.41
413.31	2869.50
413.50	2913.97
413.69	2867.16
413.88	2967.80
414.07	2967.80
414.26	3049.72
414.45	2923.33
414.64	2984.18
414.83	3082.49
415.02	3049.72
415.22	3059.08
415.41	3066.10
415.60	2963.12
415.79	3103.55
415.98	3190.15
416.17	3178.45
416.36	3220.58
416.55	3267.39
416.74	3288.45
416.93	3171.43
417.12	3361.01
417.31	3386.76
417.50	3323.56
417.69	3433.57
417.88	3496.76
418.07	3494.42
418.26	3431.23
418.45	3485.06
418.64	3536.55
418.83	3562.30
419.02	3501.44
419.21	3618.47
419.39	3604.42
419.58	3595.06
419.77	3501.44
419.96	3669.96
420.15	3613.79
420.34	3686.34
420.53	3625.49
420.72	3562.30
420.91	3728.47
421.10	3791.67
421.29	3808.05
421.48	3700.39
421.67	3847.84
421.86	3695.71
422.05	3794.01
422.24	3889.97
422.43	3880.61
422.61	4004.66
422.80	3920.40
422.99	3758.90
423.18	4023.38
423.37	3894.65
423.56	3981.25
423.75	3936.78
423.94	3875.93
424.13	3714.43
424.32	3896.99
424.50	4021.04
424.69	3953.16
424.88	3967.21
425.07	3971.89
425.26	3934.44
425.45	3789.33
425.64	3978.91
425.83	3892.31
426.01	4037.42
426.20	3920.40
426.39	3950.82
426.58	4035.08
426.77	3981.25
426.96	4056.15
427.15	3969.55
427.33	4093.60
427.52	3948.48
427.71	4023.38
427.90	4114.66
428.09	4086.58
428.28	4009.34
428.46	4102.96
428.65	4140.41
428.84	4259.78
429.03	4294.88
429.22	4145.09
429.40	4187.22
429.59	4217.65
429.78	3955.51
429.97	3880.61
430.16	4049.13
430.34	4180.20
430.53	4140.41
430.72	4266.80
430.91	4212.96
431.10	4285.52
431.28	4500.85
431.47	4638.94
431.66	4660.01
431.85	4444.68
432.03	4479.79
432.22	4608.51
432.41	4526.60
432.60	4568.73
432.79	4599.15
432.97	4629.58
433.16	4620.22
433.35	4706.82
433.54	4585.11
433.72	4627.24
433.91	4631.92
434.10	4660.01
434.28	4685.75
434.47	4798.10
434.66	4877.68
434.85	4908.10
435.03	4835.55
435.22	4999.38
435.41	4992.36
435.59	4889.38
435.78	5076.62
435.97	5116.41
436.16	5064.92
436.34	5172.58
436.53	5093.01
436.72	5200.67
436.90	5102.37
437.09	5100.03
437.28	5022.79
437.46	5231.10
437.65	5085.98
437.84	5125.77
438.02	5076.62
438.21	5289.61
438.40	5193.65
438.58	5404.30
438.77	5371.53
438.96	5345.78
439.14	5408.98
439.33	5575.16
439.52	5638.35
439.70	5636.01
439.89	5645.37
440.08	5607.92
440.26	5760.06
440.45	5518.98
440.63	5741.33
440.82	6045.60
441.01	5951.98
441.19	5898.15
441.38	6022.20
441.57	5891.13
441.75	6017.52
441.94	6235.19
442.12	6298.38
442.31	6113.48
442.50	6237.53
442.68	6239.87
442.87	6328.81
443.05	6328.81
443.24	6562.86
443.43	6457.54
443.61	6359.24
443.80	6523.07
443.98	6420.09
444.17	6284.34
444.35	6480.94
444.54	6462.22
444.73	6656.48
444.91	6572.22
445.10	6408.39
445.28	6352.21
445.47	6417.75
445.65	6427.11
445.84	6422.43
446.02	6607.33
446.21	6558.18
446.39	6537.12
446.58	6750.10
446.77	6630.74
446.95	6518.39
447.14	6829.68
447.32	6726.70
447.51	6616.69
447.69	6626.06
447.88	6604.99
448.06	6764.15
448.25	6583.93
448.43	6518.39
448.62	6635.42
448.80	6654.14
448.99	6656.48
449.17	6609.67
449.36	6782.87
449.54	6792.23
449.73	7035.65
449.91	6916.28
450.10	7073.10
450.28	7169.06
450.46	7012.24
450.65	7344.60
450.83	7180.76
451.02	7152.68
451.20	7267.36
451.39	7143.32
451.57	7040.33
451.76	7075.44
451.94	7126.93
452.13	7204.17
452.31	7246.30
452.49	7023.95
452.68	7267.36
452.86	7082.46
453.05	7302.47
453.23	7283.75
453.42	7222.89
453.60	7213.53
453.78	7541.21
453.97	7255.66
454.15	7218.21
454.34	7222.89
454.52	7520.14
454.70	7386.73
454.89	7468.65
455.07	7386.73
455.26	7602.06
455.44	7599.72
455.62	7772.92
455.81	7658.23
455.99	7723.77
456.17	7777.60
456.36	7672.28
456.54	7864.20
456.73	7913.35
456.91	8124.00
457.09	8280.82
457.28	8152.09
457.46	7889.95
457.64	8198.90
457.83	8325.29
458.01	7894.63
458.19	8184.85
458.38	8018.68
458.56	8058.46
458.74	8201.24
458.93	8229.32
459.11	8224.64
459.29	8255.07
459.48	8397.84
459.66	8397.84
459.84	8484.44
460.03	8222.30
460.21	8351.03
460.39	8491.46
460.57	8397.84
460.76	8542.96
460.94	8498.49
461.12	8535.93
461.31	8793.39
461.49	8564.02
461.67	8585.08
461.85	8814.46
462.04	8571.04
462.22	9373.85
462.40	8875.31
462.59	8910.42
462.77	8896.38
462.95	8709.13
463.13	8887.01
463.32	8828.50
463.50	9008.72
463.68	8894.04
463.86	8781.69
464.05	8842.54
464.23	8990.00
464.41	8938.51
464.59	8716.16
464.78	9102.34
464.96	9125.75
465.14	9160.86
465.32	9181.92
465.50	9083.62
465.69	8964.25
465.87	9165.54
466.05	9413.63
466.23	8968.93
466.41	9081.28
466.60	9320.01
466.78	8982.98
466.96	9151.49
467.14	9352.78
467.32	9242.78
467.51	9596.20
467.69	9277.88
467.87	9509.60
468.05	9460.45
468.23	9371.50
468.41	9373.85
468.60	9544.70
468.78	9474.49
468.96	9556.41
469.14	9638.33
469.32	9619.60
469.50	9446.40
469.69	9516.62
469.87	9848.97
470.05	9834.93
470.23	9661.73
470.41	9713.22
470.59	9647.69
470.77	9802.16
470.95	9947.28
471.14	9912.17
471.32	10111.11
471.50	10228.14
471.68	10153.24
471.86	10223.46
472.04	10242.18
472.22	10235.16
472.40	10146.22
472.58	10193.03
472.77	10546.45
472.95	10551.14
473.13	10527.73
473.31	10448.15
473.49	10455.17
473.67	10572.20
473.85	10506.66
474.03	10974.77
474.21	10862.43
474.39	11028.60
474.57	10946.69
474.75	11140.95
474.93	11194.78
475.12	11206.48
475.30	11375.00
475.48	11236.91
475.66	11253.30
475.84	11250.96
476.02	11253.30
476.20	11269.68
476.38	11358.62
476.56	11990.56
476.74	11784.60
476.92	11800.98
477.10	11412.45
477.28	12009.29
477.46	11885.24
477.64	11910.99
477.82	12315.90
478.00	12442.29
478.18	12294.83
478.36	12608.47
478.54	12695.07
478.72	12844.86
478.90	12833.16
479.08	12849.54
479.26	13008.70
479.44	13062.53
479.62	13146.79
479.80	13352.76
479.98	13310.63
480.16	13310.63
480.34	13621.92
480.52	13376.16
480.70	13586.81
480.88	13659.37
481.06	13701.50
481.24	13933.21
481.41	13940.23
481.59	14193.01
481.77	14232.80
481.95	14305.35
482.13	14607.28
482.31	14429.40
482.49	14813.25
482.67	14789.85
482.85	14979.43
483.03	14888.15
483.21	15051.99
483.39	15377.32
483.57	15150.29
483.74	15323.49
483.92	15651.16
484.10	15316.47
484.28	15920.32
484.46	15868.83
484.64	15974.16
484.82	15829.04
485.00	15943.73
485.18	16418.86
485.35	16397.79
485.53	16217.57
485.71	15829.04
485.89	16287.79
486.07	16180.12
486.25	16437.58
486.43	16556.95
486.61	17053.14
486.78	16968.88
486.96	17266.13
487.14	17626.57
487.32	17554.02
487.50	17853.61
487.68	17816.16
487.85	18185.96
488.03	18338.10
488.21	18473.85
488.39	18391.93
488.57	18705.56
488.75	18541.72
488.92	18892.80
489.10	19304.74
489.28	19407.72
489.46	19587.94
489.64	19384.32
489.81	19924.98
489.99	19927.32
490.17	20156.69
490.35	20304.15
490.53	20013.92
490.70	20346.28
490.88	20489.05
491.06	20828.43
491.24	20727.78
491.41	20779.28
491.59	20603.74
491.77	20884.60
491.95	21130.36
492.13	20952.48
492.30	21467.39
492.48	21113.97
492.66	21778.68
492.84	21685.06
493.01	21776.34
493.19	21696.77
493.37	21940.18
493.54	22040.82
493.72	22684.47
493.90	22604.89
494.08	22794.48
494.25	22761.71
494.43	23063.64
494.61	23428.76
494.79	23122.15
494.96	22951.29
495.14	23449.83
495.32	23686.22
495.49	23508.34
495.67	23758.78
495.85	23674.52
496.02	24030.28
496.20	24053.69
496.38	24294.76
496.55	24769.89
496.73	24631.80
496.91	24732.44
497.09	24603.71
497.26	24643.50
497.44	24711.38
497.62	25022.67
497.79	25418.22
497.97	25041.39
498.14	25350.34
498.32	25818.45
498.50	25497.80
498.67	25673.34
498.85	25539.93
499.03	25888.67
499.20	26377.84
499.38	25963.56
499.56	26256.13
499.73	26490.18
499.91	26431.67
500.08	26307.62
500.26	26658.70
500.44	26663.38
500.61	26274.85
500.79	26216.34
500.97	26724.24
501.14	26768.71
501.32	27248.52
501.49	27037.87
501.67	26703.17
501.84	27129.15
502.02	26923.18
502.20	27754.07
502.37	27674.49
502.55	27812.59
502.72	27758.75
502.90	27967.06
503.07	27821.95
503.25	27824.29
503.43	28074.73
503.60	27957.70
503.78	27915.57
503.95	27913.23
504.13	28301.76
504.30	28519.43
504.48	28575.60
504.65	28631.77
504.83	28268.99
505.01	29186.48
505.18	28886.89
505.36	29179.46
505.53	28968.81
505.71	29673.31
505.88	29252.02
506.06	29200.52
506.23	29532.88
506.41	29104.56
506.58	29434.58
506.76	29598.41
506.93	30045.46
507.11	29685.01
507.28	29518.84
507.46	29750.55
507.63	29989.28
507.81	29324.57
507.98	30061.84
508.16	29769.27
508.33	30424.62
508.50	30768.68
508.68	30534.63
508.85	30972.31
509.03	30476.12
509.20	30532.29
509.38	31002.74
509.55	31021.46
509.73	31091.68
509.90	31112.74
510.08	30925.50
510.25	31236.79
510.42	31349.14
510.60	31407.65
510.77	31564.46
510.95	31873.42
511.12	31536.38
511.30	31768.09
511.47	31913.20
511.64	32077.04
511.82	32063.00
511.99	32177.68
512.17	32313.44
512.34	32355.57
512.51	32037.25
512.69	32451.53
512.86	32070.02
513.04	32701.96
513.21	32360.25
513.38	32613.02
513.56	32594.30
513.73	32936.02
513.90	32631.75
514.08	33008.58
514.25	33301.14
514.43	32671.54
514.60	33202.84
514.77	33263.69
514.95	33472.00
515.12	33383.06
515.29	33041.34
515.47	33464.98
515.64	33474.34
515.81	33619.46
515.99	33703.71
516.16	33333.91
516.33	33532.86
516.51	33357.32
516.68	33104.54
516.85	32868.14
517.03	33502.43
517.20	33677.97
517.37	33780.95
517.54	34019.69
517.72	33900.32
517.89	33848.83
518.06	33574.98
518.24	33738.82
518.41	34064.16
518.58	34438.64
518.75	34171.82
518.93	34792.06
519.10	34326.30
519.27	34852.92
519.45	34740.57
519.62	34878.66
519.79	34995.69
519.96	34946.54
520.14	35274.21
520.31	35068.25
520.48	35297.62
520.65	35274.21
520.83	35821.90
521.00	35611.25
521.17	35311.66
521.34	35686.15
521.52	35477.84
521.69	35938.93
521.86	35936.59
522.03	36058.29
522.20	36048.93
522.38	36275.96
522.55	36100.42
522.72	35948.29
522.89	36027.87
523.07	36505.34
523.24	36259.58
523.41	36638.75
523.58	36329.80
523.75	37085.79
523.92	36687.90
524.10	37083.45
524.27	36706.62
524.44	37010.89
524.61	36893.86
524.78	36950.04
524.96	37083.45
525.13	36982.80
525.30	37479.00
525.47	37453.25
525.64	37322.18
525.81	37050.68
525.98	37352.61
526.16	37071.75
526.33	37226.22
526.50	37069.40
526.67	36673.85
526.84	36776.84
527.01	36910.25
527.18	37495.38
527.36	38153.07
527.53	38106.26
527.70	37991.58
527.87	37928.38
528.04	37771.57
528.21	38134.35
528.38	38110.94
528.55	38560.33
528.72	38508.83
528.89	38810.76
529.07	38356.70
529.24	38033.71
529.41	38813.10
529.58	38401.17
529.75	38031.36
529.92	38621.18
530.09	38873.96
530.26	38838.85
530.43	39180.57
530.60	38621.18
530.77	38763.95
530.94	39213.34
531.11	39033.11
531.28	39548.03
531.46	39182.91
531.63	39328.02
531.80	39203.97
531.97	39290.57
532.14	39533.99
532.31	39152.48
532.48	38778.00
532.65	39449.73
532.82	39203.97
532.99	39260.15
533.16	39110.35
533.33	39868.69
533.50	39576.12
533.67	39487.18
533.84	39732.93
534.01	39969.33
534.18	39400.58
534.35	40353.18
534.52	39796.13
534.69	40254.87
534.86	39915.50
535.03	40374.24
535.20	40224.45
535.37	40161.25
535.54	40570.85
535.71	40203.38
535.88	40177.64
536.05	39950.60
536.22	40624.68
536.38	40678.51
536.55	40439.78
536.72	40240.83
536.89	39915.50
537.06	40287.64
537.23	40844.69
537.40	40631.70
537.57	40919.59
537.74	40959.38
537.91	41375.99
538.08	41331.52
538.25	40802.56
538.42	40875.12
538.59	40968.74
538.75	40926.61
538.92	41060.02
539.09	41074.06
539.26	40816.60
539.43	40910.22
539.60	40725.32
539.77	40832.99
539.94	41256.62
540.11	41282.37
540.28	41045.97
540.44	41174.70
540.61	41265.99
540.78	40811.92
540.95	41233.22
541.12	41067.04
541.29	41244.92
541.46	41607.70
541.62	41715.37
541.79	42120.28
541.96	41329.18
542.13	41666.22
542.30	41628.77
542.47	41385.35
542.63	41930.70
542.80	42211.56
542.97	42351.99
543.14	42171.77
543.31	42314.55
543.48	42003.25
543.64	42574.34
543.81	42728.82
543.98	42377.74
544.15	42370.72
544.32	42569.66
544.48	42948.83
544.65	42417.53
544.82	42389.44
544.99	42335.61
545.16	42698.39
545.32	42550.94
545.49	43524.60
545.66	42969.90
545.83	42457.32
546.00	42976.92
546.16	42852.87
546.33	42703.07
546.50	42541.58
546.67	42869.25
546.83	42789.67
547.00	43208.63
547.17	43091.60
547.34	42887.98
547.50	43065.86
547.67	43107.99
547.84	43234.38
548.00	43449.70
548.17	43419.28
548.34	43194.59
548.51	43859.30
548.67	43447.36
548.84	43491.83
549.01	43360.76
549.18	43402.89
549.34	43171.18
549.51	43484.81
549.68	43716.53
549.84	43405.23
550.01	43711.84
550.18	43349.06
550.34	43800.79
550.51	43948.24
550.68	43466.09
550.84	43398.21
551.01	44074.63
551.18	43697.80
551.34	43660.35
551.51	43805.47
551.68	43875.68
551.84	43571.41
552.01	43461.41
552.18	43838.23
552.34	44175.27
552.51	44088.67
552.68	44079.31
552.84	44011.43
553.01	44119.10
553.18	44002.07
553.34	43950.58
553.51	43878.02
553.67	44439.75
553.84	44292.30
554.01	44428.05
554.17	44289.96
554.34	44641.04
554.51	44177.61
554.67	44149.53
554.84	44212.72
555.00	44385.92
555.17	44130.80
555.33	44474.86
555.50	44219.74
555.67	44538.05
555.83	44528.69
556.00	44301.66
556.16	44722.96
556.33	44294.64
556.50	44034.84
556.66	44561.46
556.83	44568.48
556.99	44442.09
557.16	44765.09
557.32	44570.82
557.49	44470.18
557.65	43922.49
557.82	45200.43
557.98	44514.65
558.15	44626.99
558.32	44638.70
558.48	44549.76
558.65	45027.23
558.81	44542.74
558.98	44325.07
559.14	44456.14
559.31	44837.64
559.47	45050.63
559.64	44739.34
559.80	45184.04
559.97	44495.92
560.13	44748.70
560.30	44769.77
560.46	44889.13
560.63	45399.37
560.79	45420.44
560.96	45413.41
561.12	44760.40
561.29	44746.36
561.45	45153.62
561.61	44634.02
561.78	45013.18
561.94	45251.92
562.11	44739.34
562.27	45031.91
562.44	45261.28
562.60	45116.17
562.77	44781.47
562.93	45003.82
563.10	45806.62
563.26	44711.25
563.42	45535.12
563.59	44992.12
563.75	45352.56
563.92	45209.79
564.08	45125.53
564.24	45610.02
564.41	45532.78
564.57	45170.00
564.74	45017.86
564.90	44652.74
565.07	45184.04
565.23	45408.73
565.39	45242.56
565.56	45469.59
565.72	45525.76
565.88	45277.66
566.05	45015.52
566.21	45118.51
566.38	45352.56
566.54	45272.98
566.70	45832.37
566.87	45446.18
567.03	45708.32
567.19	45748.11
567.36	45200.43
567.52	45727.05
567.68	45677.90
567.85	45364.26
568.01	45710.66
568.17	45635.77
568.34	45399.37
568.50	45673.21
568.66	45670.87
568.83	45612.36
568.99	45673.21
569.15	45394.69
569.32	45584.27
569.48	45542.14
569.64	45647.47
569.81	46024.29
569.97	45579.59
570.13	45631.08
570.30	44886.79
570.46	45076.38
570.62	45518.74
570.78	44842.32
570.95	45120.85
571.11	45942.38
571.27	45591.30
571.43	45448.52
571.60	45600.66
571.76	45698.96
571.92	45921.31
572.09	45507.04
572.25	45411.07
572.41	45663.85
572.57	45954.08
572.74	46117.92
572.90	45668.53
573.06	45476.61
573.22	45691.94
573.38	45640.45
573.55	45631.08
573.71	45862.80
573.87	45371.28
574.03	45638.11
574.20	45626.40
574.36	45619.38
574.52	46204.52
574.68	45567.89
574.84	45808.96
575.01	45731.73
575.17	45937.69
575.33	45242.56
575.49	45404.05
575.65	46050.04
575.82	45677.90
575.98	45434.48
576.14	45996.21
576.30	45661.51
576.46	45734.07
576.62	45228.51
576.79	45741.09
576.95	45380.65
577.11	45890.88
577.27	45925.99
577.43	45975.14
577.59	45219.15
577.75	45500.01
577.92	45303.41
578.08	45467.25
578.24	45050.63
578.40	45530.44
578.56	45598.32
578.72	45780.88
578.88	46305.16
579.04	45680.24
579.21	45595.98
579.37	45607.68
579.53	45626.40
579.69	45329.16
579.85	45759.81
580.01	45628.74
580.17	45502.35
580.33	46003.23
580.49	45666.19
580.65	45970.46
580.82	45682.58
580.98	45478.95
581.14	45357.24
581.30	45909.61
581.46	45834.71
581.62	45951.74
581.78	45750.45
581.94	46092.17
582.10	45755.13
582.26	46127.28
582.42	46110.89
582.58	46167.07
582.74	46078.13
582.90	45834.71
583.06	46146.00
583.22	45837.05
583.38	46153.02
583.54	46270.05
583.70	45911.95
583.86	45792.58
584.02	45572.57
584.18	45930.67
584.34	45949.40
584.50	45867.48
584.66	45893.22
584.82	45518.74
584.98	46089.83
585.14	45858.12
585.30	45897.91
585.46	45696.62
585.62	45343.20
585.78	45366.60
585.94	45762.15
586.10	45631.08
586.26	45546.82
586.42	45738.75
586.58	45979.82
586.74	45935.35
586.90	45743.43
587.06	45923.65
587.22	45797.26
587.38	45825.35
587.54	46054.72
587.70	45628.74
587.86	45794.92
588.02	45504.70
588.18	46454.95
588.34	45542.14
588.49	45425.12
588.65	45382.99
588.81	45137.23
588.97	45230.85
589.13	44980.42
589.29	44992.12
589.45	45427.46
589.61	45591.30
589.77	46241.96
589.93	46078.13
590.08	45769.18
