SpectraSuite Data File
++++++++++++++++++++++++++++++++++++
Date: Fri Oct 25 11:22:43 EDT 2013
User: price-jones
Dark Spectrum Present: No
Reference Spectrum Present: No
Number of Sampled Component Spectra: 1
Spectrometers: USB2+H05261
Integration Time (usec): 100000 (USB2+H05261)
Spectra Averaged: 1 (USB2+H05261)
Boxcar Smoothing: 0 (USB2+H05261)
Correct for Electrical Dark: No (USB2+H05261)
Strobe/Lamp Enabled: No (USB2+H05261)
Correct for Detector Non-linearity: No (USB2+H05261)
Correct for Stray Light: No (USB2+H05261)
Number of Pixels in Processed Spectrum: 2048
>>>>>Begin Processed Spectral Data<<<<<
365.73	264.48
365.92	264.48
366.12	264.48
366.32	191.92
366.52	110.01
366.72	149.79
366.91	124.05
367.11	98.30
367.31	112.35
367.51	124.05
367.70	149.79
367.90	102.98
368.10	63.19
368.30	81.92
368.49	105.32
368.69	198.95
368.89	124.05
369.09	191.92
369.28	119.37
369.48	91.28
369.68	119.37
369.87	224.69
370.07	182.56
370.27	198.95
370.47	292.57
370.66	547.69
370.86	645.99
371.06	638.97
371.25	683.44
371.45	704.50
371.65	669.39
371.84	744.29
372.04	688.12
372.24	627.26
372.44	716.20
372.63	725.57
372.83	758.33
373.03	840.25
373.22	779.40
373.42	746.63
373.62	788.76
373.81	800.46
374.01	884.72
374.21	730.25
374.40	798.12
374.60	891.74
374.79	868.34
374.99	835.57
375.19	830.89
375.38	826.21
375.58	877.70
375.78	854.30
375.97	805.14
376.17	931.53
376.37	821.53
376.56	884.72
376.76	795.78
376.95	933.87
377.15	709.18
377.35	868.34
377.54	882.38
377.74	931.53
377.93	936.21
378.13	847.27
378.33	898.77
378.52	940.90
378.72	917.49
378.91	908.13
379.11	959.62
379.31	999.41
379.50	861.32
379.70	992.39
379.89	950.26
380.09	952.60
380.28	999.41
380.48	1006.43
380.68	952.60
380.87	997.07
381.07	950.26
381.26	1104.73
381.46	957.28
381.65	1055.58
381.85	1027.50
382.04	1060.26
382.24	1078.99
382.43	1053.24
382.63	1064.94
382.83	1102.39
383.02	1083.67
383.22	1086.01
383.41	1057.92
383.61	1086.01
383.80	1191.33
384.00	1055.58
384.19	1104.73
384.39	1165.59
384.58	1186.65
384.78	1158.57
384.97	1254.53
385.17	1186.65
385.36	1210.06
385.56	1172.61
385.75	1167.93
385.95	1160.91
386.14	1174.95
386.34	1156.22
386.53	1245.16
386.72	1226.44
386.92	1217.08
387.11	1261.55
387.31	1240.48
387.50	1245.16
387.70	1291.98
387.89	1247.51
388.09	1308.36
388.28	1327.08
388.48	1303.68
388.67	1315.38
388.86	1324.74
389.06	1280.27
389.25	1217.08
389.45	1394.96
389.64	1348.15
389.84	1437.09
390.03	1306.02
390.22	1451.13
390.42	1444.11
390.61	1418.36
390.81	1369.21
391.00	1465.18
391.19	1504.96
391.39	1474.54
391.58	1502.62
391.78	1378.58
391.97	1483.90
392.16	1542.41
392.36	1706.25
392.55	1481.56
392.75	1516.67
392.94	1500.28
393.13	1540.07
393.33	1427.73
393.52	1530.71
393.71	1523.69
393.91	1549.43
394.10	1516.67
394.29	1547.09
394.49	1600.93
394.68	1526.03
394.88	1603.27
395.07	1626.67
395.26	1624.33
395.46	1720.29
395.65	1741.36
395.84	1746.04
396.04	1792.85
396.23	1762.42
396.42	1790.51
396.62	1753.06
396.81	1792.85
397.00	1703.91
397.19	1746.04
397.39	1816.26
397.58	1818.60
397.77	1764.76
397.97	1914.56
398.16	1816.26
398.35	1886.47
398.55	1851.36
398.74	1989.46
398.93	1942.64
399.12	1809.23
399.32	1858.39
399.51	1902.86
399.70	1973.07
399.90	2008.18
400.09	1980.09
400.28	2031.58
400.47	2146.27
400.67	1970.73
400.86	2050.31
401.05	2073.71
401.24	2043.29
401.44	2047.97
401.63	2146.27
401.82	2160.31
402.01	2134.57
402.21	2169.68
402.40	2165.00
402.59	2179.04
402.78	2134.57
402.97	2176.70
403.17	2242.23
403.36	2195.42
403.55	2253.94
403.74	2307.77
403.93	2289.04
404.13	2335.85
404.32	2321.81
404.51	2492.67
404.70	2534.80
404.89	2354.58
405.09	2392.03
405.28	2457.56
405.47	2502.03
405.66	2401.39
405.85	2523.10
406.05	2532.46
406.24	2560.55
406.43	2579.27
406.62	2717.36
406.81	2679.91
407.00	2635.44
407.20	2586.29
407.39	2691.62
407.58	2750.13
407.77	2703.32
407.96	2778.22
408.15	2789.92
408.34	2733.75
408.54	2792.26
408.73	2815.66
408.92	2785.24
409.11	2911.63
409.30	2853.11
409.49	2988.86
409.68	2916.31
409.87	2923.33
410.07	2995.89
410.26	3056.74
410.45	3030.99
410.64	3108.23
410.83	3054.40
411.02	3038.02
411.21	3105.89
411.40	3108.23
411.59	3225.26
411.78	3103.55
411.98	3290.79
412.17	3304.84
412.36	3229.94
412.55	3356.33
412.74	3485.06
412.93	3417.18
413.12	3440.59
413.31	3634.85
413.50	3475.70
413.69	3445.27
413.88	3613.79
414.07	3555.27
414.26	3676.98
414.45	3829.12
414.64	3639.53
414.83	3812.73
415.02	3723.79
415.22	3831.46
415.41	3859.54
415.60	3948.48
415.79	3854.86
415.98	3941.46
416.17	3999.98
416.36	3995.29
416.55	3955.51
416.74	4081.89
416.93	4084.23
417.12	4072.53
417.31	4049.13
417.50	4280.84
417.69	4224.67
417.88	4257.43
418.07	4325.31
418.26	4304.25
418.45	4381.48
418.64	4442.34
418.83	4397.87
419.02	4575.75
419.21	4564.04
419.39	4463.40
419.58	4528.94
419.77	4365.10
419.96	4641.28
420.15	4564.04
420.34	4571.07
420.53	4702.14
420.72	4739.58
420.91	4725.54
421.10	4793.42
421.29	4734.90
421.48	4615.54
421.67	4849.59
421.86	4793.42
422.05	4994.70
422.24	4835.55
422.43	4856.61
422.61	4889.38
422.80	4933.85
422.99	5111.73
423.18	4887.04
423.37	5025.13
423.56	5022.79
423.75	4835.55
423.94	4919.81
424.13	4596.81
424.32	4861.29
424.50	5149.18
424.69	5135.14
424.88	4973.64
425.07	5020.45
425.26	5050.88
425.45	5020.45
425.64	5041.51
425.83	4905.76
426.01	5036.83
426.20	5018.11
426.39	5020.45
426.58	4945.55
426.77	5088.32
426.96	5114.07
427.15	5247.48
427.33	5282.59
427.52	5090.67
427.71	5214.71
427.90	5245.14
428.09	5383.23
428.28	5423.02
428.46	5390.25
428.65	5453.45
428.84	5708.57
429.03	5565.79
429.22	5329.40
429.40	5462.81
429.59	5533.03
429.78	5385.57
429.97	5404.30
430.16	5462.81
430.34	5607.92
430.53	5657.07
430.72	5734.31
430.91	5614.95
431.10	5769.42
431.28	5832.62
431.47	5757.72
431.66	5916.87
431.85	5713.25
432.03	5909.85
432.22	6010.50
432.41	6026.88
432.60	6001.13
432.79	5818.57
432.97	5991.77
433.16	6125.18
433.35	5928.58
433.54	6092.41
433.72	6270.30
433.91	6059.65
434.10	6113.48
434.28	6265.61
434.47	6265.61
434.66	6251.57
434.85	6230.51
435.03	6408.39
435.22	6310.08
435.41	6525.41
435.59	6296.04
435.78	6476.26
435.97	6516.05
436.16	6588.61
436.34	6305.40
436.53	6619.04
436.72	6499.67
436.90	6408.39
437.09	6644.78
437.28	6417.75
437.46	6612.01
437.65	6759.47
437.84	6747.76
438.02	6614.35
438.21	6724.36
438.40	6775.85
438.58	7082.46
438.77	7110.55
438.96	7187.79
439.14	6958.41
439.33	7014.59
439.52	7302.47
439.70	7176.08
439.89	7475.67
440.08	7197.15
440.26	7527.16
440.45	7534.18
440.63	7475.67
440.82	7653.55
441.01	7337.58
441.19	7461.63
441.38	7728.45
441.57	7658.23
441.75	7833.77
441.94	8037.40
442.12	7981.23
442.31	8037.40
442.50	8084.21
442.68	7950.80
442.87	7915.69
443.05	8147.40
443.24	8344.01
443.43	8175.49
443.61	8243.37
443.80	8458.70
443.98	8145.06
444.17	7833.77
444.35	8173.15
444.54	8388.48
444.73	8292.52
444.91	8252.73
445.10	8346.35
445.28	8400.18
445.47	8444.65
445.65	8390.82
445.84	8788.71
446.02	8503.17
446.21	8592.11
446.39	8367.42
446.58	8421.25
446.77	8580.40
446.95	8219.96
447.14	8484.44
447.32	8678.71
447.51	8657.64
447.69	8477.42
447.88	8641.26
448.06	8491.46
448.25	8657.64
448.43	8631.90
448.62	8655.30
448.80	8786.37
448.99	8800.41
449.17	8669.34
449.36	8657.64
449.54	8858.93
449.73	9050.85
449.91	9046.17
450.10	9102.34
450.28	9102.34
450.46	9224.05
450.65	8922.12
450.83	9231.07
451.02	9207.67
451.20	9226.39
451.39	9057.87
451.57	9195.96
451.76	9202.99
451.94	9298.95
452.13	9465.13
452.31	9324.69
452.49	9202.99
452.68	9418.32
452.86	9294.27
453.05	9619.60
453.23	9544.70
453.42	9547.05
453.60	9413.63
453.78	9652.37
453.97	9528.32
454.15	9556.41
454.34	9465.13
454.52	9933.23
454.70	9628.96
454.89	9715.56
455.07	9832.59
455.26	9951.96
455.44	9994.09
455.62	9748.33
455.81	9933.23
455.99	9867.70
456.17	10106.43
456.36	10010.47
456.54	10384.96
456.73	10424.75
456.91	10218.78
457.09	10366.23
457.28	10567.52
457.46	10338.15
457.64	10293.68
457.83	10438.79
458.01	10427.09
458.19	10832.00
458.38	10630.71
458.56	10750.08
458.74	10698.59
458.93	10677.52
459.11	10626.03
459.29	10635.39
459.48	10984.13
459.66	10946.69
459.84	10740.72
460.03	10977.11
460.21	11047.33
460.39	11066.05
460.57	10932.64
460.76	11180.74
460.94	11220.53
461.12	11133.93
461.31	11276.70
461.49	11412.45
461.67	11239.25
461.85	11520.12
462.04	11117.54
462.22	12128.66
462.40	11578.63
462.59	11676.93
462.77	11449.90
462.95	11580.97
463.13	11800.98
463.32	11665.23
463.50	11887.58
463.68	11775.24
463.86	12081.85
464.05	11606.72
464.23	11639.48
464.41	11997.59
464.59	11550.54
464.78	12138.02
464.96	12105.25
465.14	11988.22
465.32	11981.20
465.50	11964.82
465.69	12259.73
465.87	12065.46
466.05	12219.94
466.23	12283.13
466.41	12231.64
466.60	12423.56
466.78	12269.09
466.96	12131.00
467.14	12248.02
467.32	12493.78
467.51	12683.36
467.69	12262.07
467.87	12430.59
468.05	12751.24
468.23	12442.29
468.41	12402.50
468.60	12650.60
468.78	12767.62
468.96	12730.17
469.14	12753.58
469.32	13083.59
469.50	12681.02
469.69	13032.10
469.87	13174.88
470.05	13153.81
470.23	13490.85
470.41	13121.04
470.59	13319.99
470.77	13399.57
470.95	13242.75
471.14	13628.94
471.32	13137.43
471.50	13493.19
471.68	13558.72
471.86	13682.77
472.04	13769.37
472.22	13935.55
472.40	13764.69
472.58	13701.50
472.77	14132.15
472.95	14176.62
473.13	14441.11
473.31	14267.91
473.49	14193.01
473.67	14108.75
473.85	14333.44
474.03	14647.07
474.21	14595.58
474.39	14607.28
474.57	14796.87
474.75	14864.74
474.93	15014.54
475.12	14876.44
475.30	15173.69
475.48	14991.13
475.66	15204.12
475.84	15199.44
476.02	15400.72
476.20	15330.51
476.38	15817.34
476.56	16102.89
476.74	16042.03
476.92	16006.92
477.10	15613.71
477.28	16142.67
477.46	16540.57
477.64	16278.43
477.82	16807.39
478.00	17064.85
478.18	16879.94
478.36	16826.11
478.54	16954.84
478.72	17053.14
478.90	17191.23
479.08	17334.01
479.26	17785.73
479.44	17771.69
479.62	17813.82
479.80	17935.53
479.98	18225.75
480.16	18574.49
480.34	18473.85
480.52	18534.70
480.70	18565.13
480.88	18492.57
481.06	18986.43
481.24	18862.38
481.41	19241.54
481.59	19393.68
481.77	19548.15
481.95	19513.05
482.13	19775.19
482.31	19826.68
482.49	20109.88
482.67	20196.48
482.85	20362.66
483.03	20783.96
483.21	20662.25
483.39	20830.77
483.57	21160.78
483.74	21380.79
483.92	21240.36
484.10	21411.22
484.28	21771.66
484.46	22216.36
484.64	22408.29
484.82	22050.19
485.00	22256.15
485.18	22735.96
485.35	23211.09
485.53	22824.90
485.71	23126.83
485.89	23559.83
486.07	23344.50
486.25	23477.91
486.43	23709.63
486.61	24077.09
486.78	24442.21
486.96	24166.03
487.14	24753.51
487.32	24430.51
487.50	25177.14
487.68	24907.98
487.85	25441.62
488.03	25692.06
488.21	26029.10
488.39	25919.09
488.57	26405.92
488.75	26389.54
488.92	26642.32
489.10	26867.01
489.28	26686.79
489.46	27302.35
489.64	27337.46
489.81	27711.94
489.99	27831.31
490.17	27922.59
490.35	28341.55
490.53	28226.86
490.70	28664.54
490.88	28699.65
491.06	28414.10
491.24	29013.28
491.41	29104.56
491.59	29221.59
491.77	29450.96
491.95	29659.27
492.13	30017.37
492.30	30178.87
492.48	30155.46
492.66	30199.93
492.84	30733.57
493.01	30740.60
493.19	30707.83
493.37	31145.51
493.54	30796.77
493.72	31433.39
493.90	31601.91
494.08	31917.89
494.25	31751.71
494.43	32327.48
494.61	32238.54
494.79	32755.80
494.96	32783.88
495.14	33001.55
495.32	33296.46
495.49	33677.97
495.67	33497.75
495.85	33738.82
496.02	33872.23
496.20	34485.45
496.38	34113.31
496.55	34253.74
496.73	35058.88
496.91	34785.04
497.09	35002.71
497.26	35014.41
497.44	35316.34
497.62	35519.97
497.79	36067.66
497.97	35875.73
498.14	35985.74
498.32	36449.16
498.50	36341.50
498.67	36577.89
498.85	36669.17
499.03	36971.10
499.20	36580.23
499.38	36744.07
499.56	37029.62
499.73	36996.85
499.91	37443.89
500.08	37731.78
500.26	37619.43
500.44	37855.82
500.61	38305.21
500.79	37654.54
500.97	38244.35
501.14	38569.69
501.32	38396.49
501.49	38256.06
501.67	38684.37
501.84	39452.07
502.02	38932.47
502.20	39072.90
502.37	39524.63
502.55	39484.84
502.72	39519.95
502.90	39573.78
503.07	39477.82
503.25	39763.36
503.43	39849.96
503.60	40224.45
503.78	40224.45
503.95	40151.89
504.13	40184.66
504.30	40898.52
504.48	40804.90
504.65	40947.67
504.83	41361.95
505.01	41511.74
505.18	41422.80
505.36	42101.56
505.53	41511.74
505.71	41717.71
505.88	42176.45
506.06	41745.80
506.23	41918.99
506.41	41731.75
506.58	42153.05
506.76	42506.47
506.93	42480.72
507.11	42770.95
507.28	42686.69
507.46	43325.66
507.63	43171.18
507.81	43009.68
507.98	42880.95
508.16	43536.30
508.33	43742.27
508.50	43220.33
508.68	43847.60
508.85	44114.42
509.03	43849.94
509.20	43880.36
509.38	44678.49
509.55	44608.27
509.73	44465.50
509.90	44704.23
510.08	44800.19
510.25	44327.41
510.42	44898.50
510.60	45172.34
510.77	45261.28
510.95	45722.37
511.12	45603.00
511.30	45455.54
511.47	45624.06
511.64	45390.01
511.82	46124.94
511.99	45895.56
512.17	46162.39
512.34	46333.24
512.51	46253.67
512.69	46665.60
512.86	46649.22
513.04	46417.50
513.21	46983.91
513.38	47323.29
513.56	46829.44
513.73	46768.58
513.90	47295.21
514.08	46902.00
514.25	47578.41
514.43	47559.69
514.60	47767.99
514.77	47840.55
514.95	47765.65
515.12	47508.19
515.29	47856.93
515.47	48079.28
515.64	48236.10
515.81	48474.84
515.99	48341.42
516.16	48718.25
516.33	48559.09
516.51	49059.97
516.68	48648.03
516.85	49050.61
517.03	49165.29
517.20	49027.20
517.37	49177.00
517.54	48832.94
517.72	49223.81
517.89	49209.76
518.06	49492.97
518.24	48884.43
518.41	49464.88
518.58	49602.97
518.75	49361.90
518.93	49963.42
519.10	49546.80
519.27	49928.31
519.45	49830.01
519.62	50162.36
519.79	50005.55
519.96	50136.62
520.14	50494.72
520.31	49923.63
520.48	50527.48
520.65	50220.87
520.83	50401.10
521.00	50836.44
521.17	50752.18
521.34	50918.35
521.52	50759.20
521.69	51175.81
521.86	51033.04
522.03	51412.21
522.20	51377.10
522.38	51695.41
522.55	51611.15
522.72	51480.08
522.89	51487.10
523.07	52119.05
523.24	51660.30
523.41	52198.63
523.58	51522.21
523.75	51887.34
523.92	51812.44
524.10	52280.55
524.27	52193.95
524.44	52060.54
524.61	52271.18
524.78	52273.52
524.96	52325.02
525.13	52493.54
525.30	52739.29
525.47	52952.28
525.64	52561.41
525.81	52650.35
525.98	52587.16
526.16	52474.81
526.33	52720.57
526.50	53003.77
526.67	52816.53
526.84	53193.36
527.01	52924.19
527.18	53174.63
527.36	53076.33
527.53	53069.31
527.70	53467.20
527.87	53476.56
528.04	53258.89
528.21	53516.35
528.38	53457.84
528.55	53635.72
528.72	53649.76
528.89	53773.81
529.07	53474.22
529.24	53521.03
529.41	53759.76
529.58	53785.51
529.75	54014.88
529.92	53773.81
530.09	53837.00
530.26	53961.05
530.43	54155.32
530.60	53801.89
530.77	53879.13
530.94	54141.27
531.11	53998.50
531.28	54171.70
531.46	54335.54
531.63	54508.74
531.80	54246.60
531.97	54719.38
532.14	54490.01
532.31	54695.98
532.48	54667.89
532.65	54658.53
532.82	54365.96
532.99	54777.90
533.16	54670.23
533.33	54965.14
533.50	54791.94
533.67	54824.71
533.84	54918.33
534.01	54915.99
534.18	55140.68
534.35	55334.95
534.52	55224.94
534.69	55157.06
534.86	55524.53
535.03	55157.06
535.20	55503.46
535.37	55285.79
535.54	55414.52
535.71	55302.18
535.88	55435.59
536.05	55693.05
536.22	55693.05
536.38	55697.73
536.55	55676.66
536.72	55714.11
536.89	55597.09
537.06	55821.78
537.23	56100.30
537.40	55597.09
537.57	55636.87
537.74	55707.09
537.91	55962.21
538.08	55875.61
538.25	55789.01
538.42	56109.66
538.59	56308.61
538.75	56128.39
538.92	56172.86
539.09	56271.16
539.26	56130.73
539.43	56116.68
539.60	56104.98
539.77	56362.44
539.94	56516.92
540.11	56329.67
540.28	56659.69
540.44	56491.17
540.61	56296.91
540.78	56364.78
540.95	56523.94
541.12	56694.80
541.29	56636.28
541.46	56743.95
541.62	56619.90
541.79	56914.81
541.96	56390.53
542.13	56676.07
542.30	56910.13
542.47	57066.94
542.63	57064.60
542.80	57038.86
542.97	57160.56
543.14	57394.62
543.31	57483.56
543.48	57190.99
543.64	57495.26
543.81	57401.64
543.98	57392.28
544.15	57481.22
544.32	57357.17
544.48	57829.96
544.65	57481.22
544.82	57511.64
544.99	57373.55
545.16	57455.47
545.32	57434.41
545.49	57799.53
545.66	57729.31
545.83	57705.91
546.00	57794.85
546.16	57820.59
546.33	57818.25
546.50	57471.85
546.67	57855.70
546.83	57244.82
547.00	57584.20
547.17	57799.53
547.34	58042.95
547.50	58134.23
547.67	58152.95
547.84	58021.88
548.00	57958.69
548.17	58326.15
548.34	58087.42
548.51	58351.90
548.67	58262.96
548.84	58197.42
549.01	58159.97
549.18	58288.70
549.34	58438.50
549.51	58185.72
549.68	58431.47
549.84	58534.46
550.01	58475.94
550.18	58450.20
550.34	58408.07
550.51	58576.59
550.68	58482.97
550.84	58487.65
551.01	58740.42
551.18	58585.95
551.34	58878.52
551.51	58684.25
551.68	58726.38
551.84	58728.72
552.01	58599.99
552.18	58972.14
552.34	58714.68
552.51	58822.34
552.68	58733.40
552.84	58763.83
553.01	58820.00
553.18	58836.39
553.34	59018.95
553.51	58770.85
553.67	58948.73
553.84	59147.68
554.01	59030.65
554.17	58922.99
554.34	59093.85
554.51	59159.38
554.67	59119.59
554.84	58930.01
555.00	59018.95
555.17	58965.12
555.33	59143.00
555.50	58965.12
555.67	59044.69
555.83	59192.15
556.00	59222.58
556.16	59505.78
556.33	59283.43
556.50	59217.89
556.66	59592.38
556.83	59171.08
556.99	59400.46
557.16	59512.80
557.32	59564.29
557.49	59819.41
557.65	59480.03
557.82	59306.83
557.98	59543.23
558.15	59531.53
558.32	59503.44
558.48	59498.76
558.65	59599.40
558.81	59655.57
558.98	59629.83
559.14	59725.79
559.31	59709.41
559.47	59723.45
559.64	59903.67
559.80	59545.57
559.97	59875.58
560.13	59812.39
560.30	59676.64
560.46	59849.84
560.63	59824.09
560.79	59964.52
560.96	60006.65
561.12	59913.03
561.29	59971.55
561.45	59833.46
561.61	59962.18
561.78	60079.21
561.94	59845.16
562.11	59962.18
562.27	59978.57
562.44	60217.30
562.60	60069.85
562.77	60060.49
562.93	59903.67
563.10	60116.66
563.26	60149.43
563.42	60381.14
563.59	60046.44
563.75	60238.37
563.92	60191.56
564.08	59994.95
564.24	60315.61
564.41	60179.85
564.57	60210.28
564.74	60158.79
564.90	60062.83
565.07	60177.51
565.23	60121.34
565.39	60324.97
565.56	60292.20
565.72	60278.16
565.88	60463.06
566.05	60238.37
566.21	60229.01
566.38	60250.07
566.54	60451.36
566.70	60498.17
566.87	60570.72
567.03	60472.42
567.19	60287.52
567.36	60413.91
567.52	60465.40
567.68	60575.40
567.85	60523.91
568.01	60678.39
568.17	60308.58
568.34	60453.70
568.50	60444.33
568.66	60437.31
568.83	60514.55
568.99	60449.02
569.15	60409.23
569.32	60353.05
569.48	60320.29
569.64	60584.77
569.81	60575.40
569.97	60603.49
570.13	60615.19
570.30	60495.83
570.46	60645.62
570.62	60638.60
570.78	60734.56
570.95	60512.21
571.11	60722.86
571.27	60481.78
571.43	60528.59
571.60	60669.03
571.76	60619.88
571.92	60776.69
572.09	60739.24
572.25	60654.98
572.41	60420.93
572.57	60802.44
572.74	60800.10
572.90	60835.20
573.06	60748.60
573.22	60760.31
573.38	60575.40
573.55	60610.51
573.71	60917.12
573.87	61095.00
574.03	60500.51
574.20	60722.86
574.36	60446.68
574.52	60926.49
574.68	60807.12
574.84	60708.82
575.01	60776.69
575.17	60858.61
575.33	60828.18
575.49	60484.12
575.65	60814.14
575.82	60982.66
575.98	60699.45
576.14	60961.59
576.30	61106.71
576.46	60748.60
576.62	60715.84
576.79	60842.23
576.95	60779.03
577.11	60952.23
577.27	61010.74
577.43	60924.14
577.59	60800.10
577.75	60779.03
577.92	60687.75
578.08	61080.96
578.24	61050.53
578.40	60996.70
578.56	60839.89
578.72	60938.19
578.88	60966.27
579.04	61034.15
579.21	60823.50
579.37	61050.53
579.53	61176.92
579.69	60807.12
579.85	60917.12
580.01	60989.68
580.17	60954.57
580.33	61144.16
580.49	61120.75
580.65	61015.43
580.82	60945.21
580.98	60945.21
581.14	61031.81
581.30	61052.87
581.46	61066.92
581.62	61132.45
581.78	60921.80
581.94	61022.45
582.10	61017.77
582.26	60982.66
582.42	61078.62
582.58	60961.59
582.74	60940.53
582.90	61155.86
583.06	60975.64
583.22	61127.77
583.38	61085.64
583.54	61209.69
583.70	61006.06
583.86	60910.10
584.02	61034.15
584.18	61116.07
584.34	61066.92
584.50	61010.74
584.66	61036.49
584.82	60743.92
584.98	61193.31
585.14	61186.28
585.30	60947.55
585.46	61059.90
585.62	61144.16
585.78	61144.16
585.94	60877.33
586.10	61097.34
586.26	61167.56
586.42	61197.99
586.58	60893.72
586.74	61179.26
586.90	60919.46
587.06	60926.49
587.22	61371.19
587.38	61186.28
587.54	61221.39
587.70	61319.70
587.86	61193.31
588.02	61104.37
588.18	61300.97
588.34	61319.70
588.49	61116.07
