SpectraSuite Data File
++++++++++++++++++++++++++++++++++++
Date: Fri Oct 25 11:23:14 EDT 2013
User: price-jones
Dark Spectrum Present: No
Reference Spectrum Present: No
Number of Sampled Component Spectra: 1
Spectrometers: USB2+H05261
Integration Time (usec): 100000 (USB2+H05261)
Spectra Averaged: 1 (USB2+H05261)
Boxcar Smoothing: 0 (USB2+H05261)
Correct for Electrical Dark: No (USB2+H05261)
Strobe/Lamp Enabled: No (USB2+H05261)
Correct for Detector Non-linearity: No (USB2+H05261)
Correct for Stray Light: No (USB2+H05261)
Number of Pixels in Processed Spectrum: 2048
>>>>>Begin Processed Spectral Data<<<<<
365.73	250.44
365.92	250.44
366.12	250.44
366.32	147.45
366.52	91.28
366.72	161.50
366.91	203.63
367.11	121.71
367.31	35.11
367.51	128.73
367.70	156.82
367.90	135.75
368.10	156.82
368.30	145.11
368.49	102.98
368.69	170.86
368.89	121.71
369.09	124.05
369.28	163.84
369.48	166.18
369.68	107.66
369.87	201.29
370.07	140.43
370.27	152.13
370.47	297.25
370.66	564.07
370.86	657.69
371.06	709.18
371.25	751.31
371.45	681.10
371.65	655.35
371.84	620.24
372.04	709.18
372.24	706.84
372.44	695.14
372.63	786.42
372.83	751.31
373.03	720.88
373.22	779.40
373.42	702.16
373.62	873.02
373.81	781.74
374.01	819.19
374.21	821.53
374.40	826.21
374.60	784.08
374.79	788.76
374.99	861.32
375.19	809.83
375.38	767.70
375.58	835.57
375.78	884.72
375.97	1001.75
376.17	912.81
376.37	823.87
376.56	842.59
376.76	858.98
376.95	837.91
377.15	828.55
377.35	854.30
377.54	903.45
377.74	889.40
377.93	866.00
378.13	887.06
378.33	866.00
378.52	947.92
378.72	910.47
378.91	915.15
379.11	908.13
379.31	898.77
379.50	966.64
379.70	952.60
379.89	1011.11
380.09	973.66
380.28	978.34
380.48	1015.79
380.68	1020.47
380.87	997.07
381.07	943.24
381.26	1064.94
381.46	978.34
381.65	1057.92
381.85	1041.54
382.04	1064.94
382.24	1088.35
382.43	1013.45
382.63	1034.52
382.83	1043.88
383.02	1069.62
383.22	1163.25
383.41	1123.46
383.61	1074.31
383.80	1191.33
384.00	1191.33
384.19	1086.01
384.39	1142.18
384.58	1116.44
384.78	1191.33
384.97	1254.53
385.17	1107.07
385.36	1228.78
385.56	1149.20
385.75	1188.99
385.95	1231.12
386.14	1123.46
386.34	1186.65
386.53	1231.12
386.72	1210.06
386.92	1392.62
387.11	1256.87
387.31	1196.01
387.50	1188.99
387.70	1254.53
387.89	1310.70
388.09	1299.00
388.28	1303.68
388.48	1387.94
388.67	1315.38
388.86	1366.87
389.06	1275.59
389.25	1460.49
389.45	1420.71
389.64	1371.55
389.84	1343.47
390.03	1364.53
390.22	1383.26
390.42	1418.36
390.61	1350.49
390.81	1376.24
391.00	1423.05
391.19	1481.56
391.39	1420.71
391.58	1416.02
391.78	1488.58
391.97	1411.34
392.16	1406.66
392.36	1519.01
392.55	1465.18
392.75	1481.56
392.94	1556.46
393.13	1551.78
393.33	1591.56
393.52	1558.80
393.71	1579.86
393.91	1607.95
394.10	1589.22
394.29	1528.37
394.49	1565.82
394.68	1607.95
394.88	1509.65
395.07	1654.76
395.26	1755.40
395.46	1626.67
395.65	1713.27
395.84	1682.85
396.04	1720.29
396.23	1849.02
396.42	1879.45
396.62	1792.85
396.81	1795.19
397.00	1783.49
397.19	1834.98
397.39	1846.68
397.58	1781.15
397.77	1760.08
397.97	1811.57
398.16	1888.81
398.35	1830.30
398.55	1790.51
398.74	1802.21
398.93	1959.03
399.12	2033.93
399.32	1956.69
399.51	1877.11
399.70	1949.67
399.90	1975.41
400.09	2045.63
400.28	2108.82
400.47	2076.06
400.67	2052.65
400.86	2071.37
401.05	2090.10
401.24	2113.50
401.44	2202.44
401.63	2150.95
401.82	2179.04
402.01	2127.55
402.21	2204.78
402.40	2204.78
402.59	2155.63
402.78	2356.92
402.97	2120.53
403.17	2225.85
403.36	2267.98
403.55	2328.83
403.74	2347.56
403.93	2445.86
404.13	2305.43
404.32	2434.16
404.51	2321.81
404.70	2420.11
404.89	2387.35
405.09	2399.05
405.28	2366.28
405.47	2532.46
405.66	2490.33
405.85	2537.14
406.05	2464.58
406.24	2509.05
406.43	2663.53
406.62	2630.76
406.81	2733.75
407.00	2509.05
407.20	2679.91
407.39	2722.04
407.58	2663.53
407.77	2703.32
407.96	2693.96
408.15	2778.22
408.34	2757.15
408.54	2857.79
408.73	2930.35
408.92	2820.35
409.11	2796.94
409.30	2836.73
409.49	2991.20
409.68	2939.71
409.87	2972.48
410.07	2977.16
410.26	2998.23
410.45	3035.67
410.64	3063.76
410.83	3101.21
411.02	3131.64
411.21	3201.85
411.40	3103.55
411.59	3262.71
411.78	3150.36
411.98	3180.79
412.17	3258.03
412.36	3229.94
412.55	3391.44
412.74	3337.60
412.93	3421.86
413.12	3508.46
413.31	3569.32
413.50	3522.51
413.69	3604.42
413.88	3592.72
414.07	3651.24
414.26	3623.15
414.45	3660.60
414.64	3655.92
414.83	3850.18
415.02	3887.63
415.22	3913.38
415.41	3801.03
415.60	3892.31
415.79	3896.99
415.98	3911.04
416.17	4021.04
416.36	3953.16
416.55	4119.34
416.74	4030.40
416.93	3997.64
417.12	4058.49
417.31	4196.58
417.50	4252.75
417.69	4376.80
417.88	4369.78
418.07	4194.24
418.26	4353.40
418.45	4411.91
418.64	4404.89
418.83	4430.63
419.02	4540.64
419.21	4573.41
419.39	4751.29
419.58	4624.90
419.77	4519.57
419.96	4596.81
420.15	4678.73
420.34	4678.73
420.53	4709.16
420.72	4739.58
420.91	4664.69
421.10	4744.27
421.29	4744.27
421.48	4744.27
421.67	4678.73
421.86	4809.80
422.05	4830.87
422.24	4744.27
422.43	4875.34
422.61	4875.34
422.80	4894.06
422.99	4971.30
423.18	4901.08
423.37	4975.98
423.56	5034.49
423.75	4821.50
423.94	4964.28
424.13	4755.97
424.32	4746.61
424.50	5135.14
424.69	5191.31
424.88	5205.35
425.07	5034.49
425.26	4912.78
425.45	4966.62
425.64	5095.35
425.83	5090.67
426.01	4994.70
426.20	4999.38
426.39	5114.07
426.58	4985.34
426.77	5242.80
426.96	5320.04
427.15	5118.75
427.33	5181.95
427.52	5203.01
427.71	5221.74
427.90	5221.74
428.09	5289.61
428.28	5390.25
428.46	5383.23
428.65	5521.32
428.84	5572.82
429.03	5661.76
429.22	5535.37
429.40	5612.60
429.59	5614.95
429.78	5444.09
429.97	5310.68
430.16	5476.85
430.34	5746.02
430.53	5860.70
430.72	5720.27
430.91	5666.44
431.10	5579.84
431.28	5678.14
431.47	5841.98
431.66	6085.39
431.85	5738.99
432.03	5961.34
432.22	6076.03
432.41	6045.60
432.60	6026.88
432.79	5998.79
432.97	6005.81
433.16	6005.81
433.35	5898.15
433.54	6132.20
433.72	6218.80
433.91	6111.14
434.10	6249.23
434.28	6099.44
434.47	6246.89
434.66	6305.40
434.85	6382.64
435.03	6443.49
435.22	6331.15
435.41	6614.35
435.59	6499.67
435.78	6532.44
435.97	6572.22
436.16	6506.69
436.34	6658.82
436.53	6600.31
436.72	6820.32
436.90	6548.82
437.09	6693.93
437.28	6668.19
437.46	6525.41
437.65	6445.84
437.84	6820.32
438.02	6841.39
438.21	6965.43
438.40	6951.39
438.58	6932.67
438.77	7169.06
438.96	7033.31
439.14	7314.17
439.33	7126.93
439.52	7360.98
439.70	7323.54
439.89	7335.24
440.08	7393.75
440.26	7573.97
440.45	7447.58
440.63	7382.05
440.82	7679.30
441.01	7691.00
441.19	7599.72
441.38	7798.66
441.57	8032.72
441.75	7967.18
441.94	7925.05
442.12	7950.80
442.31	8138.04
442.50	8219.96
442.68	7885.26
442.87	8056.12
443.05	8102.93
443.24	8222.30
443.43	8311.24
443.61	8159.11
443.80	8594.45
443.98	8191.88
444.17	7999.95
444.35	8339.33
444.54	8500.83
444.73	8479.76
444.91	8454.02
445.10	8538.27
445.28	8252.73
445.47	8266.77
445.65	8517.21
445.84	8505.51
446.02	8557.00
446.21	8519.55
446.39	8432.95
446.58	8423.59
446.77	8713.81
446.95	8280.82
447.14	8538.27
447.32	8690.41
447.51	8699.77
447.69	8667.00
447.88	8622.53
448.06	8767.65
448.25	8594.45
448.43	8741.90
448.62	8587.43
448.80	8791.05
448.99	8823.82
449.17	8837.86
449.36	8788.71
449.54	9057.87
449.73	8945.53
449.91	9160.86
450.10	9111.71
450.28	9132.77
450.46	9205.33
450.65	8994.68
450.83	9184.26
451.02	9249.80
451.20	9427.68
451.39	9259.16
451.57	9160.86
451.76	9078.94
451.94	9280.22
452.13	9446.40
452.31	9380.87
452.49	9404.27
452.68	9591.52
452.86	9259.16
453.05	9528.32
453.23	9465.13
453.42	9476.83
453.60	9675.77
453.78	9493.21
453.97	9675.77
454.15	9799.82
454.34	9507.26
454.52	9785.78
454.70	9872.38
454.89	9757.69
455.07	9947.28
455.26	9790.46
455.44	10068.98
455.62	10090.05
455.81	9956.64
455.99	10143.88
456.17	10036.22
456.36	10181.33
456.54	10387.30
456.73	10317.08
456.91	10647.10
457.09	10511.35
457.28	10633.05
457.46	10471.56
457.64	10516.03
457.83	10630.71
458.01	10689.23
458.19	11042.65
458.38	10761.78
458.56	10782.85
458.74	10630.71
458.93	10801.57
459.11	11061.37
459.29	10771.15
459.48	10960.73
459.66	11009.88
459.84	11021.58
460.03	11180.74
460.21	11234.57
460.39	11108.18
460.57	11410.11
460.76	11332.87
460.94	11145.63
461.12	11194.78
461.31	11344.58
461.49	11384.37
461.67	11243.93
461.85	11447.56
462.04	11651.19
462.22	11754.17
462.40	11765.87
462.59	11604.38
462.77	11372.66
462.95	11857.15
463.13	11887.58
463.32	11808.00
463.50	12159.08
463.68	12173.13
463.86	11971.84
464.05	11793.96
464.23	11939.07
464.41	12039.72
464.59	11861.84
464.78	12294.83
464.96	12229.30
465.14	11824.39
465.32	12196.53
465.50	12325.26
465.69	12301.86
465.87	12388.46
466.05	12678.68
466.23	12177.81
466.41	12311.22
466.60	12456.33
466.78	12287.81
466.96	12329.94
467.14	12404.84
467.32	12617.83
467.51	12510.16
467.69	12533.57
467.87	12470.37
468.05	12681.02
468.23	12641.23
468.41	12727.83
468.60	12844.86
468.78	12905.71
468.96	12798.05
469.14	12725.49
469.32	13198.28
469.50	12809.75
469.69	13195.94
469.87	13502.55
470.05	13322.33
470.23	13378.50
470.41	13486.17
470.59	13422.97
470.77	13273.18
470.95	13268.50
471.14	13635.96
471.32	13322.33
471.50	13785.76
471.68	13717.88
471.86	13542.34
472.04	13947.25
472.22	14008.11
472.40	13743.63
472.58	13825.54
472.77	14059.60
472.95	14085.34
473.13	14511.32
473.31	14136.84
473.49	14293.65
473.67	14291.31
473.85	14633.03
474.03	15019.22
474.21	14766.44
474.39	14883.47
474.57	14871.76
474.75	14953.68
474.93	15213.48
475.12	15094.11
475.30	15529.45
475.48	15176.03
475.66	15311.78
475.84	15304.76
476.02	15470.94
476.20	15454.56
476.38	16121.61
476.56	16016.29
476.74	16182.46
476.92	15901.60
477.10	16018.63
477.28	16240.98
477.46	16294.81
477.64	16601.42
477.82	16395.45
478.00	17011.01
478.18	17085.91
478.36	16994.63
478.54	17537.63
478.72	17474.44
478.90	17528.27
479.08	17696.79
479.26	17778.71
479.44	17928.50
479.62	18029.15
479.80	18101.70
479.98	18628.32
480.16	18871.74
480.34	18307.67
480.52	18633.00
480.70	19068.34
480.88	18541.72
481.06	18993.45
481.24	19096.43
481.41	19548.15
481.59	19363.25
481.77	19735.40
481.95	19655.82
482.13	19920.30
482.31	19910.94
482.49	20477.35
482.67	20341.60
482.85	20521.82
483.03	21001.63
483.21	20882.26
483.39	21118.65
483.57	21151.42
483.74	21626.55
483.92	21420.58
484.10	21422.92
484.28	21729.53
484.46	22361.48
484.64	22740.64
484.82	22139.13
485.00	22459.78
485.18	23054.28
485.35	22939.59
485.53	23112.79
485.71	23271.95
485.89	23576.22
486.07	23901.55
486.25	23810.27
486.43	23992.83
486.61	23819.63
486.78	24479.66
486.96	24372.00
487.14	24842.45
487.32	24706.70
487.50	24950.11
487.68	25420.56
487.85	25277.79
488.03	25759.94
488.21	25792.70
488.39	26412.95
488.57	26513.59
488.75	26307.62
488.92	26831.90
489.10	26801.47
489.28	27190.00
489.46	27632.36
489.64	27531.72
489.81	28102.81
489.99	27775.14
490.17	28299.42
490.35	28535.81
490.53	28624.75
490.70	28851.78
490.88	28463.25
491.06	28954.77
491.24	28854.12
491.41	29380.74
491.59	29907.37
491.77	29668.63
491.95	30265.47
492.13	30279.51
492.30	30211.64
492.48	30216.32
492.66	30817.83
492.84	30405.90
493.01	30878.69
493.19	31271.90
493.37	31559.78
493.54	31665.11
493.72	31627.66
493.90	31782.13
494.08	32158.96
494.25	32222.16
494.43	32414.08
494.61	32664.52
494.79	32903.25
494.96	32938.36
495.14	32975.81
495.32	33343.27
495.49	33617.11
495.67	33773.93
495.85	33827.76
496.02	34504.18
496.20	34136.71
496.38	34464.39
496.55	34890.37
496.73	35164.21
496.91	34754.61
497.09	35136.12
497.26	35264.85
497.44	35253.15
497.62	35594.87
497.79	36091.06
497.97	36226.81
498.14	36041.91
498.32	36727.69
498.50	36659.81
498.67	36818.97
498.85	37038.98
499.03	37013.23
499.20	36989.83
499.38	37254.31
499.56	37397.08
499.73	37397.08
499.91	37659.22
500.08	37902.64
500.26	37764.54
500.44	37649.86
500.61	38096.90
500.79	38188.18
500.97	38773.31
501.14	38838.85
501.32	38630.54
501.49	38660.97
501.67	39531.65
501.84	39730.59
502.02	39239.08
502.20	39768.04
502.37	39316.32
502.55	39810.17
502.72	40278.28
502.90	39959.97
503.07	39744.64
503.25	40355.52
503.43	40126.14
503.60	40140.19
503.78	41027.25
503.95	40884.48
504.13	40753.41
504.30	40924.27
504.48	40837.67
504.65	41497.70
504.83	41759.84
505.01	41963.46
505.18	41352.58
505.36	41832.39
505.53	41729.41
505.71	42178.79
505.88	42471.36
506.06	41783.24
506.23	42564.98
506.41	42340.29
506.58	42459.66
506.76	42122.62
506.93	42766.27
507.11	42927.77
507.28	43159.48
507.46	42649.24
507.63	43225.01
507.81	43995.05
507.98	43033.09
508.16	43672.06
508.33	43833.55
508.50	44107.40
508.68	44100.37
508.85	44093.35
509.03	44243.15
509.20	44292.30
509.38	44868.07
509.55	44854.03
509.73	44411.67
509.90	45071.70
510.08	45125.53
510.25	44924.24
510.42	45045.95
510.60	45352.56
510.77	45546.82
510.95	46080.47
511.12	45432.14
511.30	45790.24
511.47	45951.74
511.64	45743.43
511.82	46080.47
511.99	45979.82
512.17	46096.85
512.34	46461.97
512.51	46707.73
512.69	46803.69
512.86	46590.70
513.04	46983.91
513.21	46887.95
513.38	47061.15
513.56	47246.05
513.73	47564.37
513.90	47529.26
514.08	47070.51
514.25	47611.18
514.43	47831.19
514.60	47770.33
514.77	48046.52
514.95	48027.79
515.12	47917.79
515.29	48041.84
515.47	48266.53
515.64	48509.94
515.81	48329.72
515.99	48722.93
516.16	49036.56
516.33	48439.73
516.51	48992.09
516.68	48938.26
516.85	48980.39
517.03	49474.24
517.20	49097.42
517.37	49294.02
517.54	49095.08
517.72	49560.84
517.89	49329.13
518.06	49635.74
518.24	49497.65
518.41	49633.40
518.58	49785.54
518.75	49694.25
518.93	50101.51
519.10	49509.35
519.27	50337.90
519.45	49937.67
519.62	50059.38
519.79	50106.19
519.96	50382.37
520.14	50504.08
520.31	50127.25
520.48	50768.56
520.65	50497.06
520.83	50990.91
521.00	51175.81
521.17	51271.78
521.34	51112.62
521.52	51234.33
521.69	51306.88
521.86	51536.26
522.03	51519.87
522.20	51835.84
522.38	51597.11
522.55	51461.36
522.72	51667.33
522.89	51718.82
523.07	51948.19
523.24	51983.30
523.41	51992.66
523.58	51798.40
523.75	52060.54
523.92	52093.30
524.10	52261.82
524.27	52500.56
524.44	52566.09
524.61	52285.23
524.78	52369.49
524.96	52428.00
525.13	52479.49
525.30	52711.20
525.47	52790.78
525.64	52659.71
525.81	52856.32
525.98	53134.84
526.16	53006.11
526.33	53050.58
526.50	53616.99
526.67	53205.06
526.84	53514.01
527.01	53071.65
527.18	53270.59
527.36	53167.61
527.53	53261.23
527.70	53457.84
527.87	53769.13
528.04	53633.38
528.21	53701.25
528.38	53485.92
528.55	54211.49
528.72	53780.83
528.89	53443.79
529.07	53895.52
529.24	53661.46
529.41	54358.94
529.58	54167.02
529.75	54260.64
529.92	54096.80
530.09	54073.40
530.26	54122.55
530.43	54340.22
530.60	54337.88
530.77	54218.51
530.94	54511.08
531.11	54028.93
531.28	54368.30
531.46	54539.16
531.63	54475.97
531.80	54614.06
531.97	54775.56
532.14	54555.55
532.31	55025.99
532.48	54827.05
532.65	54925.35
532.82	54490.01
532.99	54817.69
533.16	54841.09
533.33	55166.43
533.50	55238.98
533.67	55154.72
533.84	54934.71
534.01	54948.76
534.18	55234.30
534.35	55594.74
534.52	55423.89
534.69	55880.29
534.86	55636.87
535.03	55337.29
535.20	55583.04
535.37	55550.27
535.54	55765.60
535.71	55601.77
535.88	55739.86
536.05	55690.71
536.22	56058.17
536.38	55840.50
536.55	55910.72
536.72	55779.65
536.89	55653.26
537.06	56079.24
537.23	56053.49
537.40	55753.90
537.57	56037.11
537.74	55760.92
537.91	56530.96
538.08	56191.58
538.25	56053.49
538.42	56247.75
538.59	56472.45
538.75	56245.41
538.92	56364.78
539.09	56580.11
539.26	56203.28
539.43	56378.82
539.60	56577.77
539.77	56449.04
539.94	56886.72
540.11	56580.11
540.28	56779.06
540.44	56493.51
540.61	56650.33
540.78	56617.56
540.95	56945.23
541.12	56835.23
541.29	56690.12
541.46	56891.40
541.62	56987.36
541.79	56931.19
541.96	56626.92
542.13	56865.66
542.30	56973.32
542.47	56975.66
542.63	57104.39
542.80	57289.29
542.97	57195.67
543.14	57429.72
543.31	57481.22
543.48	57551.43
543.64	57890.81
543.81	57551.43
543.98	57539.73
544.15	57551.43
544.32	57757.40
544.48	57715.27
544.65	57645.05
544.82	57614.63
544.99	57542.07
545.16	57804.21
545.32	57626.33
545.49	57961.03
545.66	57822.93
545.83	57844.00
546.00	58003.16
546.16	57935.28
546.33	57801.87
546.50	57836.98
546.67	57900.17
546.83	57783.15
547.00	57939.96
547.17	58014.86
547.34	58141.25
547.50	58152.95
547.67	58576.59
547.84	58176.36
548.00	58667.87
548.17	58473.60
548.34	58267.64
548.51	58452.54
548.67	58480.63
548.84	58312.11
549.01	58309.77
549.18	58354.24
549.34	58426.79
549.51	58621.06
549.68	58637.44
549.84	58677.23
550.01	58663.19
550.18	58527.44
550.34	58691.27
550.51	58651.48
550.68	58812.98
550.84	58438.50
551.01	58803.62
551.18	58763.83
551.34	58754.47
551.51	58890.22
551.68	58784.90
551.84	58859.79
552.01	58539.14
552.18	58885.54
552.34	58824.68
552.51	58880.86
552.68	58815.32
552.84	58986.18
553.01	59056.40
553.18	59093.85
553.34	59297.47
553.51	58803.62
553.67	59145.34
553.84	59278.75
554.01	59178.10
554.17	59262.36
554.34	59105.55
554.51	59157.04
554.67	59269.39
554.84	59224.92
555.00	59318.54
555.17	59063.42
555.33	59451.95
555.50	59334.92
555.67	59290.45
555.83	59295.13
556.00	59175.76
556.16	59643.87
556.33	59545.57
556.50	59414.50
556.66	59550.25
556.83	59473.01
556.99	59643.87
557.16	59678.98
557.32	59887.29
557.49	59695.36
557.65	59557.27
557.82	59426.20
557.98	59669.62
558.15	59700.04
558.32	59583.02
558.48	59454.29
558.65	59770.26
558.81	59786.64
558.98	59917.71
559.14	59863.88
559.31	59910.69
559.47	59702.38
559.64	60212.62
559.80	59915.37
559.97	60093.25
560.13	59732.81
560.30	60177.51
560.46	59980.91
560.63	60013.68
560.79	60177.51
560.96	60170.49
561.12	59964.52
561.29	60032.40
561.45	60254.75
561.61	59849.84
561.78	60093.25
561.94	60151.77
562.11	59931.76
562.27	60065.17
562.44	60170.49
562.60	60247.73
562.77	60245.39
562.93	59891.97
563.10	60163.47
563.26	60200.92
563.42	60430.29
563.59	60154.11
563.75	60458.38
563.92	60596.47
564.08	60212.62
564.24	60247.73
564.41	60420.93
564.57	60495.83
564.74	60324.97
564.90	60479.44
565.07	60430.29
565.23	60346.03
565.39	60308.58
565.56	60357.74
565.72	60434.97
565.88	60399.86
566.05	60360.08
566.21	60271.14
566.38	60505.19
566.54	60577.75
566.70	60678.39
566.87	60650.30
567.03	60467.74
567.19	60781.37
567.36	60544.98
567.52	60561.36
567.68	60994.36
567.85	60687.75
568.01	60839.89
568.17	60566.04
568.34	60671.37
568.50	60467.74
568.66	60669.03
568.83	60549.66
568.99	60741.58
569.15	60617.53
569.32	60729.88
569.48	60549.66
569.64	60853.93
569.81	60643.28
569.97	60938.19
570.13	60788.39
570.30	60575.40
570.46	60612.85
570.62	60926.49
570.78	60720.52
570.95	60711.16
571.11	60706.47
571.27	60708.82
571.43	60783.71
571.60	60980.32
571.76	60795.42
571.92	60926.49
572.09	60704.13
572.25	60856.27
572.41	60788.39
572.57	60963.93
572.74	61003.72
572.90	60825.84
573.06	60989.68
573.22	60800.10
573.38	60800.10
573.55	60856.27
573.71	61001.38
573.87	61024.79
574.03	60711.16
574.20	61003.72
574.36	60797.76
574.52	60931.17
574.68	61006.06
574.84	60992.02
575.01	60933.51
575.17	61020.11
575.33	60968.61
575.49	60985.00
575.65	61057.56
575.82	60767.33
575.98	61151.18
576.14	61207.35
576.30	61186.28
576.46	61155.86
576.62	61113.73
576.79	60963.93
576.95	60809.46
577.11	61083.30
577.27	61036.49
577.43	61022.45
577.59	60989.68
577.75	61120.75
577.92	60830.52
578.08	60870.31
578.24	61226.07
578.40	61209.69
578.56	61169.90
578.72	60891.38
578.88	61317.35
579.04	61179.26
579.21	61017.77
579.37	61277.57
579.53	61216.71
579.69	61106.71
579.85	61057.56
580.01	61340.76
580.17	61099.68
580.33	61027.13
580.49	61153.52
580.65	61270.54
580.82	61235.44
580.98	61167.56
581.14	61048.19
581.30	61209.69
581.46	61197.99
581.62	61251.82
581.78	61205.01
581.94	61350.12
582.10	61183.94
582.26	61242.46
582.42	61275.22
582.58	61256.50
582.74	61066.92
582.90	61118.41
583.06	61172.24
583.22	60963.93
583.38	61167.56
583.54	61158.20
583.70	61226.07
583.86	61322.04
584.02	61038.83
584.18	61368.85
584.34	61242.46
584.50	61104.37
584.66	61034.15
584.82	61038.83
584.98	61410.98
585.14	61221.39
585.30	61052.87
585.46	61340.76
585.62	61256.50
585.78	61240.12
585.94	61272.88
586.10	61242.46
586.26	61247.14
586.42	61263.52
586.58	61380.55
586.74	61312.67
586.90	61085.64
587.06	61202.67
587.22	61453.11
587.38	61223.73
587.54	61464.81
587.70	61490.55
587.86	61471.83
588.02	61254.16
588.18	61286.93
588.34	61251.82
