SpectraSuite Data File
++++++++++++++++++++++++++++++++++++
Date: Fri Oct 25 10:43:49 EDT 2013
User: price-jones
Dark Spectrum Present: No
Reference Spectrum Present: No
Number of Sampled Component Spectra: 1
Spectrometers: USB2+H05261
Integration Time (usec): 100000 (USB2+H05261)
Spectra Averaged: 1 (USB2+H05261)
Boxcar Smoothing: 0 (USB2+H05261)
Correct for Electrical Dark: No (USB2+H05261)
Strobe/Lamp Enabled: No (USB2+H05261)
Correct for Detector Non-linearity: No (USB2+H05261)
Correct for Stray Light: No (USB2+H05261)
Number of Pixels in Processed Spectrum: 2048
>>>>>Begin Processed Spectral Data<<<<<
365.73	84.26
365.92	84.26
366.12	84.26
366.32	0.00
366.52	4.68
366.72	7.02
366.91	44.47
367.11	4.68
367.31	81.92
367.51	14.04
367.70	53.83
367.90	0.00
368.10	4.68
368.30	9.36
368.49	32.77
368.69	79.58
368.89	28.09
369.09	28.09
369.28	49.15
369.48	128.73
369.68	100.64
369.87	95.96
370.07	86.60
370.27	147.45
370.47	217.67
370.66	400.23
370.86	435.34
371.06	512.58
371.25	449.38
371.45	437.68
371.65	545.34
371.84	456.40
372.04	475.13
372.24	521.94
372.44	475.13
372.63	545.34
372.83	458.74
373.03	575.77
373.22	489.17
373.42	557.05
373.62	521.94
373.81	493.85
374.01	629.60
374.21	545.34
374.40	519.60
374.60	650.67
374.79	489.17
374.99	573.43
375.19	641.31
375.38	634.29
375.58	617.90
375.78	594.50
375.97	606.20
376.17	615.56
376.37	601.52
376.56	603.86
376.76	557.05
376.95	547.69
377.15	685.78
377.35	697.48
377.54	592.16
377.74	587.47
377.93	545.34
378.13	685.78
378.33	603.86
378.52	650.67
378.72	660.03
378.91	716.20
379.11	683.44
379.31	631.94
379.50	664.71
379.70	732.59
379.89	835.57
380.09	655.35
380.28	667.05
380.48	704.50
380.68	660.03
380.87	692.80
381.07	664.71
381.26	772.38
381.46	713.86
381.65	711.52
381.85	648.33
382.04	704.50
382.24	671.73
382.43	671.73
382.63	713.86
382.83	741.95
383.02	730.25
383.22	739.61
383.41	741.95
383.61	767.70
383.80	767.70
384.00	798.12
384.19	699.82
384.39	788.76
384.58	833.23
384.78	798.12
384.97	774.72
385.17	798.12
385.36	779.40
385.56	809.83
385.75	807.48
385.95	767.70
386.14	777.06
386.34	889.40
386.53	858.98
386.72	854.30
386.92	858.98
387.11	826.21
387.31	908.13
387.50	807.48
387.70	861.32
387.89	835.57
388.09	854.30
388.28	905.79
388.48	912.81
388.67	901.11
388.86	950.26
389.06	933.87
389.25	1025.15
389.45	983.02
389.64	966.64
389.84	905.79
390.03	976.00
390.22	936.21
390.42	933.87
390.61	978.34
390.81	990.05
391.00	1060.26
391.19	1064.94
391.39	1015.79
391.58	983.02
391.78	1053.24
391.97	968.98
392.16	1025.15
392.36	1053.24
392.55	1022.81
392.75	929.19
392.94	1034.52
393.13	978.34
393.33	978.34
393.52	936.21
393.71	1142.18
393.91	1156.22
394.10	1167.93
394.29	1078.99
394.49	1165.59
394.68	1132.82
394.88	1184.31
395.07	1210.06
395.26	1217.08
395.46	1252.19
395.65	1268.57
395.84	1235.80
396.04	1149.20
396.23	1165.59
396.42	1174.95
396.62	1186.65
396.81	1146.86
397.00	1186.65
397.19	1296.66
397.39	1329.42
397.58	1355.17
397.77	1287.29
397.97	1401.98
398.16	1352.83
398.35	1495.60
398.55	1479.22
398.74	1511.99
398.93	1507.30
399.12	1488.58
399.32	1488.58
399.51	1486.24
399.70	1521.35
399.90	1551.78
400.09	1561.14
400.28	1643.06
400.47	1629.01
400.67	1720.29
400.86	1645.40
401.05	1652.42
401.24	1631.35
401.44	1668.80
401.63	1795.19
401.82	1729.66
402.01	1682.85
402.21	1732.00
402.40	1750.72
402.59	1755.40
402.78	1673.48
402.97	1715.61
403.17	1720.29
403.36	1767.10
403.55	1933.28
403.74	1842.00
403.93	1926.26
404.13	1893.49
404.32	1900.52
404.51	1900.52
404.70	1912.22
404.89	1888.81
405.09	1987.11
405.28	1956.69
405.47	2003.50
405.66	1963.71
405.85	1956.69
406.05	1959.03
406.24	1935.62
406.43	2059.67
406.62	2155.63
406.81	2099.46
407.00	2183.72
407.20	2019.88
407.39	2008.18
407.58	2225.85
407.77	2186.06
407.96	2221.17
408.15	2279.68
408.34	2256.28
408.54	2326.49
408.73	2305.43
408.92	2373.30
409.11	2392.03
409.30	2207.13
409.49	2289.04
409.68	2272.66
409.87	2230.53
410.07	2359.26
410.26	2286.70
410.45	2380.32
410.64	2424.80
410.83	2530.12
411.02	2534.80
411.21	2544.16
411.40	2438.84
411.59	2530.12
411.78	2567.57
411.98	2581.61
412.17	2647.15
412.36	2628.42
412.55	2724.38
412.74	2764.17
412.93	2696.30
413.12	2600.34
413.31	2946.73
413.50	2794.60
413.69	2818.00
413.88	2913.97
414.07	2822.69
414.26	2890.56
414.45	2867.16
414.64	2895.24
414.83	3131.64
415.02	3002.91
415.22	3016.95
415.41	3169.09
415.60	3131.64
415.79	3159.72
415.98	3269.73
416.17	3283.77
416.36	3246.32
416.55	3265.05
416.74	3302.50
416.93	3304.84
417.12	3351.65
417.31	3267.39
417.50	3342.28
417.69	3466.33
417.88	3353.99
418.07	3398.46
418.26	3588.04
418.45	3330.58
418.64	3555.27
418.83	3618.47
419.02	3611.45
419.21	3651.24
419.39	3632.51
419.58	3473.36
419.77	3440.59
419.96	3452.29
420.15	3765.92
420.34	3684.00
420.53	3761.24
420.72	3770.60
420.91	3812.73
421.10	3784.65
421.29	3791.67
421.48	3716.77
421.67	3915.72
421.86	3904.01
422.05	3763.58
422.24	3838.48
422.43	3826.78
422.61	3854.86
422.80	3894.65
422.99	3812.73
423.18	3992.95
423.37	3974.23
423.56	3920.40
423.75	3936.78
423.94	3875.93
424.13	3609.11
424.32	3705.07
424.50	4114.66
424.69	3934.44
424.88	4100.62
425.07	3882.95
425.26	3899.33
425.45	3941.46
425.64	3803.37
425.83	3934.44
426.01	4107.64
426.20	3971.89
426.39	4018.70
426.58	3988.27
426.77	3995.29
426.96	4098.28
427.15	4056.15
427.33	4065.51
427.52	4070.19
427.71	4147.43
427.90	4205.94
428.09	4053.81
428.28	4152.11
428.46	4086.58
428.65	4376.80
428.84	4273.82
429.03	4292.54
429.22	4081.89
429.40	4056.15
429.59	4060.83
429.78	3936.78
429.97	3889.97
430.16	4114.66
430.34	3983.59
430.53	4264.46
430.72	4273.82
430.91	4262.12
431.10	4311.27
431.28	4517.23
431.47	4517.23
431.66	4695.11
431.85	4514.89
432.03	4662.35
432.22	4550.00
432.41	4760.65
432.60	4629.58
432.79	4580.43
432.97	4734.90
433.16	4863.63
433.35	4667.03
433.54	4711.50
433.72	4643.62
433.91	4542.98
434.10	4800.44
434.28	4695.11
434.47	4739.58
434.66	4784.06
434.85	4933.85
435.03	5043.85
435.22	4952.57
435.41	5078.96
435.59	5245.14
435.78	5158.54
435.97	5097.69
436.16	4936.19
436.34	5074.28
436.53	5226.42
436.72	5245.14
436.90	5050.88
437.09	5289.61
437.28	5172.58
437.46	5172.58
437.65	5083.64
437.84	5097.69
438.02	5207.69
438.21	5252.16
438.40	4954.91
438.58	5373.87
438.77	5252.16
438.96	5343.44
439.14	5607.92
439.33	5570.48
439.52	5540.05
439.70	5554.09
439.89	5556.43
440.08	5565.79
440.26	5682.82
440.45	5577.50
440.63	5830.27
440.82	5963.68
441.01	5968.37
441.19	5909.85
441.38	6071.35
441.57	6176.67
441.75	6066.67
441.94	6052.63
442.12	6258.59
442.31	6279.66
442.50	6399.02
442.68	6349.87
442.87	6448.18
443.05	6305.40
443.24	6314.77
443.43	6511.37
443.61	6480.94
443.80	6604.99
443.98	6370.94
444.17	6129.86
444.35	6546.48
444.54	6675.21
444.73	6558.18
444.91	6345.19
445.10	6691.59
445.28	6452.86
445.47	6338.17
445.65	6427.11
445.84	6445.84
446.02	6633.08
446.21	6422.43
446.39	6434.13
446.58	6675.21
446.77	6574.56
446.95	6497.33
447.14	6796.92
447.32	6780.53
447.51	6619.04
447.69	6569.88
447.88	6754.79
448.06	6775.85
448.25	6736.06
448.43	6841.39
448.62	6705.63
448.80	6729.04
448.99	6862.45
449.17	6773.51
449.36	6719.68
449.54	6981.82
449.73	6979.48
449.91	7000.54
450.10	7138.63
450.28	7119.91
450.46	7162.04
450.65	7349.28
450.83	7119.91
451.02	7159.70
451.20	7171.40
451.39	7328.22
451.57	7225.23
451.76	7178.42
451.94	7087.14
452.13	7136.29
452.31	7150.34
452.49	7295.45
452.68	7265.02
452.86	7157.36
453.05	7353.96
453.23	7396.09
453.42	7269.70
453.60	7358.64
453.78	7494.40
453.97	7253.32
454.15	7279.07
454.34	7517.80
454.52	7602.06
454.70	7508.44
454.89	7473.33
455.07	7520.14
455.26	7576.31
455.44	7885.26
455.62	7754.19
455.81	7798.66
455.99	7784.62
456.17	7810.37
456.36	7779.94
456.54	7796.32
456.73	7906.33
456.91	8154.43
457.09	7948.46
457.28	8147.40
457.46	7896.97
457.64	8077.19
457.83	8173.15
458.01	8126.34
458.19	8269.11
458.38	8215.28
458.56	8390.82
458.74	8329.97
458.93	8248.05
459.11	8290.18
459.29	8224.64
459.48	8301.88
459.66	8290.18
459.84	8072.51
460.03	8479.76
460.21	8538.27
460.39	8435.29
460.57	8484.44
460.76	8362.73
460.94	8730.20
461.12	8741.90
461.31	8704.45
461.49	8582.74
461.67	8650.62
461.85	8982.98
462.04	8748.92
462.22	9116.39
462.40	8912.76
462.59	8872.97
462.77	9013.40
462.95	8922.12
463.13	9032.13
463.32	8667.00
463.50	8898.72
463.68	8844.88
463.86	9097.66
464.05	8844.88
464.23	8877.65
464.41	8964.25
464.59	9015.74
464.78	9097.66
464.96	8908.08
465.14	8954.89
465.32	9200.65
465.50	9184.26
465.69	9207.67
465.87	9123.41
466.05	9123.41
466.23	9200.65
466.41	9212.35
466.60	9338.74
466.78	8954.89
466.96	9298.95
467.14	9476.83
467.32	9451.08
467.51	9504.92
467.69	9158.52
467.87	9301.29
468.05	9202.99
468.23	9348.10
468.41	9425.34
468.60	9446.40
468.78	9699.18
468.96	9380.87
469.14	9760.03
469.32	9678.12
469.50	9469.81
469.69	9554.07
469.87	9614.92
470.05	9879.40
470.23	9776.42
470.41	9675.77
470.59	9837.27
470.77	9984.73
470.95	9923.87
471.14	10242.18
471.32	10097.07
471.50	10441.13
471.68	10326.44
471.86	10506.66
472.04	10438.79
472.22	10647.10
472.40	10211.76
472.58	10431.77
472.77	10427.09
472.95	10553.48
473.13	10963.07
473.31	10459.85
473.49	10551.14
473.67	10640.08
473.85	10656.46
474.03	11019.24
474.21	10815.62
474.39	11349.26
474.57	11075.42
474.75	11171.38
474.93	11482.67
475.12	11283.72
475.30	11211.17
475.48	11103.50
475.66	11283.72
475.84	11391.39
476.02	11445.22
476.20	11477.99
476.38	11611.40
476.56	11824.39
476.74	11599.70
476.92	11501.39
477.10	11747.15
477.28	11934.39
477.46	12276.11
477.64	12238.66
477.82	12294.83
478.00	12608.47
478.18	12451.65
478.36	12645.91
478.54	12638.89
478.72	12645.91
478.90	12779.32
479.08	13043.81
479.26	13284.88
479.44	13011.04
479.62	13217.01
479.80	13439.36
479.98	13607.87
480.16	13886.40
480.34	13502.55
480.52	13696.82
480.70	13479.15
480.88	13642.98
481.06	13898.10
481.24	14075.98
481.41	14052.58
481.59	14352.16
481.77	14504.30
481.95	14544.09
482.13	14689.20
482.31	14382.59
482.49	14860.06
482.67	14970.07
482.85	15030.92
483.03	15183.06
483.21	15253.27
483.39	15288.38
483.57	15557.54
483.74	15384.34
483.92	15550.52
484.10	15440.51
484.28	15796.28
484.46	16011.60
484.64	16542.91
484.82	16030.33
485.00	16332.26
485.18	16367.37
485.35	16505.46
485.53	16304.17
485.71	16070.12
485.89	16322.90
486.07	16231.62
486.25	16563.97
486.43	16924.41
486.61	17109.32
486.78	17298.90
486.96	17598.49
487.14	17675.73
487.32	17736.58
487.50	17771.69
487.68	18195.32
487.85	18232.77
488.03	18396.61
488.21	18686.84
488.39	18501.93
488.57	18686.84
488.75	18881.10
488.92	18944.30
489.10	19239.20
489.28	19583.26
489.46	19775.19
489.64	19590.28
489.81	20194.14
489.99	20194.14
490.17	20126.27
490.35	20311.17
490.53	20329.89
490.70	20416.49
490.88	20528.84
491.06	20877.58
491.24	20762.89
491.41	20926.73
491.59	21163.12
491.77	20809.70
491.95	21200.57
492.13	21160.78
492.30	21490.80
492.48	21823.16
492.66	21717.83
492.84	22022.10
493.01	21593.78
493.19	22092.32
493.37	22188.28
493.54	22108.70
493.72	22541.70
493.90	22408.29
494.08	23016.83
494.25	22824.90
494.43	23646.43
494.61	23213.43
494.79	23784.52
494.96	23302.37
495.14	23316.42
495.32	23630.05
495.49	23601.96
495.67	23779.84
495.85	24250.29
496.02	24142.63
496.20	24201.14
496.38	24006.87
496.55	24624.78
496.73	24634.14
496.91	24669.25
497.09	25191.19
497.26	25142.03
497.44	24851.81
497.62	25081.18
497.79	25612.48
497.97	24973.52
498.14	25238.00
498.32	25668.66
498.50	25722.49
498.67	25883.98
498.85	25993.99
499.03	26167.19
499.20	26031.44
499.38	26305.28
499.56	26272.51
499.73	26267.83
499.91	26366.13
500.08	26630.62
500.26	26415.29
500.44	26724.24
500.61	26780.41
500.79	26429.33
500.97	26981.70
501.14	27063.61
501.32	27005.10
501.49	26967.65
501.67	26834.24
501.84	27229.79
502.02	27737.69
502.20	27695.56
502.37	27934.29
502.55	27442.78
502.72	27737.69
502.90	27885.14
503.07	27896.85
503.25	28002.17
503.43	27936.63
503.60	28222.18
503.78	27899.19
503.95	28151.96
504.13	28072.39
504.30	28790.93
504.48	28545.17
504.65	29067.11
504.83	29090.52
505.01	29200.52
505.18	29249.67
505.36	29219.25
505.53	29420.53
505.71	29745.87
505.88	29792.68
506.06	29369.04
506.23	29799.70
506.41	29633.52
506.58	30057.16
506.76	29659.27
506.93	29724.80
507.11	29673.31
507.28	30103.97
507.46	29820.77
507.63	30150.78
507.81	30551.01
507.98	29993.97
508.16	30560.37
508.33	30572.08
508.50	30319.30
508.68	30976.99
508.85	31438.08
509.03	31152.53
509.20	30953.58
509.38	31498.93
509.55	31344.45
509.73	30958.27
509.90	31213.38
510.08	31393.61
510.25	31381.90
510.42	31356.16
510.60	31718.94
510.77	31927.25
510.95	32023.21
511.12	31447.44
511.30	31969.38
511.47	32449.19
511.64	32411.74
511.82	32641.11
511.99	32346.20
512.17	32521.74
512.34	32030.23
512.51	32907.93
512.69	32444.51
512.86	32723.03
513.04	32929.00
513.21	32510.04
513.38	32898.57
513.56	32739.41
513.73	32797.93
513.90	32816.65
514.08	32814.31
514.25	33076.45
514.43	33518.81
514.60	32924.32
514.77	33235.61
514.95	33804.36
515.12	33570.30
515.29	33844.15
515.47	34366.09
515.64	34000.96
515.81	33881.60
515.99	33521.15
516.16	33642.86
516.33	33490.73
516.51	33750.52
516.68	33198.16
516.85	33331.57
517.03	33467.32
517.20	33780.95
517.37	33787.97
517.54	34174.16
517.72	34146.08
517.89	33757.55
518.06	34302.89
518.24	34085.22
518.41	34492.47
518.58	34384.81
518.75	34560.35
518.93	34948.88
519.10	34651.63
519.27	34923.13
519.45	34946.54
519.62	35161.87
519.79	34831.85
519.96	35208.68
520.14	35901.48
520.31	35187.61
520.48	35810.20
520.65	35304.64
520.83	35747.00
521.00	35377.20
521.17	35728.28
521.34	35702.53
521.52	36322.77
521.69	35564.44
521.86	36180.00
522.03	36444.48
522.20	36479.59
522.38	36437.46
522.55	36301.71
522.72	36180.00
522.89	36360.22
523.07	36273.62
523.24	36488.95
523.41	36999.19
523.58	36699.60
523.75	37357.29
523.92	37191.11
524.10	37193.45
524.27	37507.08
524.44	37268.35
524.61	37453.25
524.78	37659.22
524.96	37186.43
525.13	37516.45
525.30	37811.35
525.47	37818.38
525.64	37411.12
525.81	37872.21
525.98	37446.23
526.16	37116.22
526.33	37287.07
526.50	37146.64
526.67	36837.69
526.84	37095.15
527.01	37296.44
527.18	37689.65
527.36	38038.39
527.53	38136.69
527.70	38710.12
527.87	38162.43
528.04	37853.48
528.21	38176.48
528.38	38387.13
528.55	38646.93
528.72	38731.18
528.89	39005.03
529.07	38543.94
529.24	38925.45
529.41	38794.38
529.58	38677.35
529.75	38586.07
529.92	38778.00
530.09	39157.16
530.26	39084.61
530.43	39049.50
530.60	39370.15
530.77	38955.88
530.94	39524.63
531.11	39306.96
531.28	39407.60
531.46	39805.49
531.63	39604.20
531.80	39239.08
531.97	39196.95
532.14	39400.58
532.31	39058.86
532.48	39339.72
532.65	39665.06
532.82	39512.92
532.99	39655.70
533.16	39950.60
533.33	39810.17
533.50	39845.28
533.67	39466.11
533.84	39622.93
534.01	40170.61
534.18	39789.11
534.35	40271.26
534.52	39997.41
534.69	40430.41
534.86	40570.85
535.03	40451.48
535.20	40683.19
535.37	41008.53
535.54	41090.44
535.71	40825.96
535.88	40650.42
536.05	40339.13
536.22	40912.56
536.38	40540.42
536.55	40641.06
536.72	40488.93
536.89	40631.70
537.06	40856.39
537.23	40919.59
537.40	40905.54
537.57	40872.78
537.74	41153.64
537.91	41736.43
538.08	41188.75
538.25	41022.57
538.42	41474.29
538.59	41069.38
538.75	40884.48
538.92	41130.23
539.09	41165.34
539.26	41436.84
539.43	41752.82
539.60	41495.36
539.77	41565.57
539.94	41579.62
540.11	41425.14
540.28	41258.96
540.44	41336.20
540.61	41488.34
540.78	41280.03
540.95	41787.92
541.12	41549.19
541.29	41813.67
541.46	42024.32
541.62	41961.12
541.79	42284.12
541.96	41448.55
542.13	42031.34
542.30	42160.07
542.47	41647.49
542.63	42007.94
542.80	42260.71
542.97	42490.09
543.14	42492.43
543.31	42532.22
543.48	42454.98
543.64	43037.77
543.81	42876.27
543.98	42749.88
544.15	42377.74
544.32	42504.13
544.48	42967.55
544.65	42543.92
544.82	43096.28
544.99	42740.52
545.16	42808.40
545.32	42326.25
545.49	43168.84
545.66	43459.07
545.83	43353.74
546.00	42808.40
546.16	43227.35
546.33	43187.56
546.50	42923.08
546.67	42897.34
546.83	42983.94
547.00	42621.16
547.17	43096.28
547.34	42958.19
547.50	43363.11
547.67	43316.29
547.84	43576.09
548.00	44055.90
548.17	43545.67
548.34	43922.49
548.51	44051.22
548.67	44002.07
548.84	43981.01
549.01	43442.68
549.18	43758.66
549.34	43913.13
549.51	43611.20
549.68	43585.46
549.84	43915.47
550.01	44018.46
550.18	44083.99
550.34	44009.09
550.51	43973.98
550.68	43613.54
550.84	43821.85
551.01	44147.18
551.18	44030.16
551.34	43878.02
551.51	44215.06
551.68	44521.67
551.84	44083.99
552.01	44023.14
552.18	44236.12
552.34	43945.90
552.51	43969.30
552.68	44149.53
552.84	44409.32
553.01	44692.53
553.18	44570.82
553.34	44547.42
553.51	44002.07
553.67	44711.25
553.84	44711.25
554.01	44458.48
554.17	44868.07
554.34	44992.12
554.51	44790.83
554.67	44804.88
554.84	44460.82
555.00	44058.24
555.17	44421.03
555.33	44308.68
555.50	44928.92
555.67	44818.92
555.83	44587.21
556.00	44751.04
556.16	45048.29
556.33	44753.38
556.50	44676.15
556.66	44439.75
556.83	44793.17
556.99	44704.23
557.16	44947.65
557.32	44828.28
557.49	45427.46
557.65	44891.48
557.82	45081.06
557.98	45251.92
558.15	44910.20
558.32	45371.28
558.48	44533.37
558.65	44673.81
558.81	45228.51
558.98	45165.32
559.14	44676.15
559.31	45177.02
559.47	45013.18
559.64	45338.52
559.80	45090.42
559.97	45109.14
560.13	45043.61
560.30	44999.14
560.46	45467.25
560.63	45595.98
560.79	45198.09
560.96	45366.60
561.12	44842.32
561.29	45109.14
561.45	45366.60
561.61	45605.34
561.78	45207.45
561.94	45109.14
562.11	45006.16
562.27	45109.14
562.44	45474.27
562.60	45268.30
562.77	45303.41
562.93	45289.37
563.10	45813.65
563.26	45214.47
563.42	45200.43
563.59	45420.44
563.75	45404.05
563.92	45015.52
564.08	45846.41
564.24	45858.12
564.41	45258.94
564.57	45380.65
564.74	45567.89
564.90	45411.07
565.07	45797.26
565.23	45881.52
565.39	45146.59
565.56	45364.26
565.72	45228.51
565.88	45483.63
566.05	45600.66
566.21	45806.62
566.38	45804.28
566.54	45446.18
566.70	45773.86
566.87	46225.58
567.03	45881.52
567.19	46019.61
567.36	46028.98
567.52	45860.46
567.68	46272.39
567.85	45977.48
568.01	46183.45
568.17	45860.46
568.34	46106.21
568.50	46202.18
568.66	45741.09
568.83	46096.85
568.99	45530.44
569.15	45818.33
569.32	45834.71
569.48	45713.00
569.64	46045.36
569.81	45705.98
569.97	46185.79
570.13	45762.15
570.30	45584.27
570.46	45469.59
570.62	45375.97
570.78	45181.70
570.95	45280.00
571.11	45528.10
571.27	45387.67
571.43	45670.87
571.60	45811.31
571.76	45968.12
571.92	45537.46
572.09	45986.85
572.25	46206.86
572.41	46073.45
572.57	46101.53
572.74	46431.55
572.90	45918.97
573.06	46291.12
573.22	46010.25
573.38	46394.10
573.55	45560.87
573.71	46323.88
573.87	46237.28
574.03	45741.09
574.20	45979.82
574.36	46265.37
574.52	45823.01
574.68	45902.59
574.84	46260.69
575.01	45778.54
575.17	45949.40
575.33	45940.04
575.49	46220.90
575.65	45982.16
575.82	45837.05
575.98	45963.44
576.14	46117.92
576.30	46110.89
576.46	46024.29
576.62	46103.87
576.79	45897.91
576.95	45567.89
577.11	45844.07
577.27	45900.25
577.43	45729.39
577.59	45956.42
577.75	45867.48
577.92	45401.71
578.08	45804.28
578.24	45453.20
578.40	46000.89
578.56	45799.60
578.72	46195.15
578.88	46220.90
579.04	46307.50
579.21	45879.18
579.37	45778.54
579.53	46169.41
579.69	45830.03
579.85	46026.63
580.01	46230.26
580.17	45904.93
580.33	46129.62
580.49	46480.70
580.65	46314.52
580.82	46300.48
580.98	45544.48
581.14	45815.99
581.30	46330.90
581.46	45830.03
581.62	46614.11
581.78	46033.66
581.94	46431.55
582.10	46171.75
582.26	46176.43
582.42	45963.44
582.58	46363.67
582.74	46068.76
582.90	46375.37
583.06	46211.54
583.22	46284.09
583.38	46344.95
583.54	46696.03
583.70	46298.14
583.86	46574.32
584.02	46216.22
584.18	46225.58
584.34	45986.85
584.50	46356.65
584.66	45670.87
584.82	46246.65
584.98	45942.38
585.14	46536.87
585.30	46021.95
585.46	46031.32
585.62	45881.52
585.78	45867.48
585.94	45467.25
586.10	46050.04
586.26	45890.88
586.42	46319.20
586.58	46403.46
586.74	46141.32
586.90	46096.85
587.06	46230.26
587.22	45918.97
587.38	46373.03
587.54	46113.23
587.70	46536.87
587.86	46239.62
588.02	46096.85
588.18	46300.48
588.34	45675.55
588.49	45755.13
588.65	45907.27
588.81	45528.10
588.97	45989.19
589.13	45748.11
589.29	46080.47
589.45	46003.23
589.61	46532.19
589.77	46344.95
589.93	45839.39
590.08	46248.99
