SpectraSuite Data File
++++++++++++++++++++++++++++++++++++
Date: Fri Oct 25 11:22:38 EDT 2013
User: price-jones
Dark Spectrum Present: No
Reference Spectrum Present: No
Number of Sampled Component Spectra: 1
Spectrometers: USB2+H05261
Integration Time (usec): 100000 (USB2+H05261)
Spectra Averaged: 1 (USB2+H05261)
Boxcar Smoothing: 0 (USB2+H05261)
Correct for Electrical Dark: No (USB2+H05261)
Strobe/Lamp Enabled: No (USB2+H05261)
Correct for Detector Non-linearity: No (USB2+H05261)
Correct for Stray Light: No (USB2+H05261)
Number of Pixels in Processed Spectrum: 2048
>>>>>Begin Processed Spectral Data<<<<<
365.73	208.31
365.92	208.31
366.12	208.31
366.32	107.66
366.52	168.52
366.72	168.52
366.91	168.52
367.11	128.73
367.31	112.35
367.51	159.16
367.70	128.73
367.90	131.07
368.10	124.05
368.30	145.11
368.49	152.13
368.69	133.41
368.89	93.62
369.09	114.69
369.28	86.60
369.48	114.69
369.68	189.58
369.87	173.20
370.07	198.95
370.27	217.67
370.47	360.44
370.66	505.56
370.86	699.82
371.06	678.76
371.25	657.69
371.45	648.33
371.65	709.18
371.84	613.22
372.04	671.73
372.24	704.50
372.44	678.76
372.63	681.10
372.83	702.16
373.03	699.82
373.22	690.46
373.42	667.05
373.62	809.83
373.81	786.42
374.01	784.08
374.21	725.57
374.40	751.31
374.60	741.95
374.79	805.14
374.99	788.76
375.19	840.25
375.38	814.51
375.58	842.59
375.78	758.33
375.97	889.40
376.17	901.11
376.37	809.83
376.56	896.43
376.76	882.38
376.95	866.00
377.15	938.55
377.35	901.11
377.54	908.13
377.74	807.48
377.93	887.06
378.13	833.23
378.33	966.64
378.52	882.38
378.72	950.26
378.91	952.60
379.11	980.68
379.31	945.58
379.50	931.53
379.70	1043.88
379.89	997.07
380.09	966.64
380.28	940.90
380.48	1008.77
380.68	1020.47
380.87	961.96
381.07	1104.73
381.26	1151.54
381.46	1034.52
381.65	1071.97
381.85	1086.01
382.04	985.37
382.24	1034.52
382.43	1132.82
382.63	1036.86
382.83	1055.58
383.02	1102.39
383.22	1158.57
383.41	1107.07
383.61	1137.50
383.80	1107.07
384.00	1118.78
384.19	1181.97
384.39	1069.62
384.58	1188.99
384.78	1142.18
384.97	1137.50
385.17	1210.06
385.36	1188.99
385.56	1170.27
385.75	1149.20
385.95	1130.48
386.14	1181.97
386.34	1095.37
386.53	1186.65
386.72	1235.80
386.92	1249.85
387.11	1245.16
387.31	1284.95
387.50	1203.04
387.70	1277.93
387.89	1177.29
388.09	1371.55
388.28	1212.40
388.48	1310.70
388.67	1348.15
388.86	1315.38
389.06	1301.34
389.25	1277.93
389.45	1320.06
389.64	1345.81
389.84	1313.04
390.03	1366.87
390.22	1369.21
390.42	1434.75
390.61	1327.08
390.81	1441.77
391.00	1432.41
391.19	1441.77
391.39	1355.17
391.58	1441.77
391.78	1469.86
391.97	1437.09
392.16	1432.41
392.36	1533.05
392.55	1582.20
392.75	1575.18
392.94	1610.29
393.13	1621.99
393.33	1507.30
393.52	1528.37
393.71	1584.54
393.91	1680.50
394.10	1575.18
394.29	1570.50
394.49	1657.10
394.68	1565.82
394.88	1547.09
395.07	1739.02
395.26	1647.74
395.46	1762.42
395.65	1682.85
395.84	1678.16
396.04	1809.23
396.23	1724.97
396.42	1746.04
396.62	1806.89
396.81	1741.36
397.00	1816.26
397.19	1785.83
397.39	1799.87
397.58	1816.26
397.77	1785.83
397.97	1879.45
398.16	1895.83
398.35	1881.79
398.55	1912.22
398.74	1877.11
398.93	1952.01
399.12	1858.39
399.32	1937.96
399.51	1973.07
399.70	2054.99
399.90	1881.79
400.09	2050.31
400.28	2031.58
400.47	2038.61
400.67	2165.00
400.86	2120.53
401.05	2029.24
401.24	2113.50
401.44	2038.61
401.63	2139.25
401.82	2087.76
402.01	2181.38
402.21	2099.46
402.40	2146.27
402.59	2197.76
402.78	2183.72
402.97	2223.51
403.17	2228.19
403.36	2317.13
403.55	2286.70
403.74	2387.35
403.93	2319.47
404.13	2464.58
404.32	2340.54
404.51	2441.18
404.70	2448.20
404.89	2392.03
405.09	2490.33
405.28	2471.61
405.47	2403.73
405.66	2516.08
405.85	2609.70
406.05	2455.22
406.24	2504.37
406.43	2583.95
406.62	2616.72
406.81	2677.57
407.00	2546.50
407.20	2558.21
407.39	2656.51
407.58	2647.15
407.77	2703.32
407.96	2752.47
408.15	2855.45
408.34	2862.48
408.54	2778.22
408.73	2885.88
408.92	2808.64
409.11	2906.95
409.30	2869.50
409.49	2981.84
409.68	2909.29
409.87	2972.48
410.07	2953.76
410.26	3014.61
410.45	2991.20
410.64	3155.04
410.83	3133.98
411.02	3112.91
411.21	3129.30
411.40	3070.78
411.59	3178.45
411.78	3201.85
411.98	3201.85
412.17	3353.99
412.36	3325.90
412.55	3487.40
412.74	3473.36
412.93	3342.28
413.12	3356.33
413.31	3576.34
413.50	3524.85
413.69	3468.67
413.88	3707.41
414.07	3679.32
414.26	3646.55
414.45	3616.13
414.64	3660.60
414.83	3765.92
415.02	3777.62
415.22	3840.82
415.41	3988.27
415.60	3953.16
415.79	3918.06
415.98	4016.36
416.17	3992.95
416.36	3962.53
416.55	3955.51
416.74	4044.45
416.93	4060.83
417.12	4102.96
417.31	4294.88
417.50	4177.86
417.69	4395.53
417.88	4290.20
418.07	4320.63
418.26	4248.07
418.45	4388.50
418.64	4561.70
418.83	4404.89
419.02	4425.95
419.21	4489.15
419.39	4664.69
419.58	4432.97
419.77	4545.32
419.96	4688.09
420.15	4667.03
420.34	4587.45
420.53	4676.39
420.72	4737.24
420.91	4770.01
421.10	4758.31
421.29	4873.00
421.48	4711.50
421.67	4805.12
421.86	4739.58
422.05	4863.63
422.24	4835.55
422.43	4802.78
422.61	4882.36
422.80	4938.53
422.99	4865.97
423.18	5001.72
423.37	5217.05
423.56	5083.64
423.75	5008.75
423.94	4828.53
424.13	4716.18
424.32	4905.76
424.50	4931.51
424.69	5111.73
424.88	5104.71
425.07	4901.08
425.26	4865.97
425.45	5006.41
425.64	4873.00
425.83	5006.41
426.01	5116.41
426.20	5083.64
426.39	4924.49
426.58	4983.00
426.77	5200.67
426.96	5179.61
427.15	5280.25
427.33	5144.50
427.52	5334.08
427.71	5313.02
427.90	5268.55
428.09	5556.43
428.28	5451.11
428.46	5359.83
428.65	5399.62
428.84	5516.64
429.03	5568.13
429.22	5371.53
429.40	5570.48
429.59	5549.41
429.78	5181.95
429.97	5224.08
430.16	5392.59
430.34	5720.27
430.53	5738.99
430.72	5521.32
430.91	5561.11
431.10	5614.95
431.28	5830.27
431.47	5912.19
431.66	5856.02
431.85	5776.44
432.03	5944.96
432.22	6162.63
432.41	5935.60
432.60	5856.02
432.79	6019.86
432.97	6146.25
433.16	6223.48
433.35	5905.17
433.54	6054.97
433.72	6174.33
433.91	6146.25
434.10	6361.58
434.28	6179.01
434.47	6106.46
434.66	6349.87
434.85	6272.64
435.03	6291.36
435.22	6073.69
435.41	6523.07
435.59	6380.30
435.78	6291.36
435.97	6399.02
436.16	6555.84
436.34	6492.65
436.53	6541.80
436.72	6789.89
436.90	6534.78
437.09	6658.82
437.28	6590.95
437.46	6759.47
437.65	6633.08
437.84	7019.27
438.02	6778.19
438.21	6792.23
438.40	6761.81
438.58	6913.94
438.77	6965.43
438.96	7075.44
439.14	7194.81
439.33	7145.66
439.52	7239.28
439.70	7272.04
439.89	7363.33
440.08	7524.82
440.26	7510.78
440.45	7389.07
440.63	7503.76
440.82	7885.26
441.01	7559.93
441.19	7382.05
441.38	7808.03
441.57	7803.35
441.75	7953.14
441.94	8030.38
442.12	8182.51
442.31	7922.71
442.50	8252.73
442.68	8105.28
442.87	8116.98
443.05	7981.23
443.24	8184.85
443.43	8262.09
443.61	8299.54
443.80	8400.18
443.98	8238.69
444.17	7730.79
444.35	8184.85
444.54	8353.37
444.73	8360.39
444.91	8407.20
445.10	8351.03
445.28	8341.67
445.47	8379.12
445.65	8552.32
445.84	8620.19
446.02	8734.88
446.21	8580.40
446.39	8470.40
446.58	8718.50
446.77	8674.03
446.95	8526.57
447.14	8524.23
447.32	8624.87
447.51	8446.99
447.69	8638.92
447.88	8695.09
448.06	8512.53
448.25	8755.94
448.43	8718.50
448.62	8828.50
448.80	8503.17
448.99	8725.52
449.17	8823.82
449.36	8805.10
449.54	9022.77
449.73	8982.98
449.91	9088.30
450.10	9118.73
450.28	9109.36
450.46	9039.15
450.65	9142.13
450.83	9191.28
451.02	9128.09
451.20	9245.12
451.39	9151.49
451.57	9320.01
451.76	9118.73
451.94	9280.22
452.13	9259.16
452.31	9467.47
452.49	9401.93
452.68	9547.05
452.86	9481.51
453.05	9516.62
453.23	9514.28
453.42	9554.07
453.60	9404.27
453.78	9717.90
453.97	9577.47
454.15	9509.60
454.34	9687.48
454.52	9633.64
454.70	9741.31
454.89	9738.97
455.07	10029.20
455.26	9872.38
455.44	10024.51
455.62	9982.38
455.81	9980.04
455.99	10076.01
456.17	10059.62
456.36	9947.28
456.54	10066.64
456.73	10375.59
456.91	10633.05
457.09	10427.09
457.28	10630.71
457.46	10452.83
457.64	10583.90
457.83	10492.62
458.01	10511.35
458.19	10883.49
458.38	10597.95
458.56	10836.68
458.74	10771.15
458.93	10752.42
459.11	11009.88
459.29	10832.00
459.48	10876.47
459.66	11042.65
459.84	11044.99
460.03	10923.28
460.21	11059.03
460.39	10956.05
460.57	11133.93
460.76	11052.01
460.94	11314.15
461.12	11194.78
461.31	11360.96
461.49	11183.08
461.67	11337.56
461.85	11440.54
462.04	11501.39
462.22	12006.95
462.40	11676.93
462.59	11639.48
462.77	11634.80
462.95	11756.51
463.13	11754.17
463.32	11800.98
463.50	11934.39
463.68	11758.85
463.86	12058.44
464.05	11810.34
464.23	11875.88
464.41	12203.55
464.59	11721.40
464.78	12271.43
464.96	11866.52
465.14	11868.86
465.32	12081.85
465.50	12123.98
465.69	12416.54
465.87	12411.86
466.05	12168.45
466.23	12175.47
466.41	12491.44
466.60	12655.28
466.78	12493.78
466.96	12248.02
467.14	12355.69
467.32	12503.14
467.51	12699.75
467.69	12269.09
467.87	12435.27
468.05	12765.28
468.23	12446.97
468.41	12416.54
468.60	12734.85
468.78	12847.20
468.96	12685.70
469.14	12959.55
469.32	13249.77
469.50	12879.97
469.69	13212.32
469.87	13289.56
470.05	13139.77
470.23	13153.81
470.41	13312.97
470.59	13502.55
470.77	13451.06
470.95	13638.30
471.14	13624.26
471.32	13341.05
471.50	13734.26
471.68	13598.51
471.86	13762.35
472.04	13652.34
472.22	14120.45
472.40	13799.80
472.58	13886.40
472.77	14178.97
472.95	14239.82
473.13	14778.14
473.31	14473.87
473.49	14516.00
473.67	14270.25
473.85	14394.29
474.03	14700.90
474.21	14899.85
474.39	14965.39
474.57	14913.89
474.75	15253.27
474.93	15314.13
475.12	15126.88
475.30	15145.61
475.48	14780.48
475.66	15623.08
475.84	15353.91
476.02	15686.27
476.20	15482.64
476.38	15948.41
476.56	16152.04
476.74	16224.59
476.92	16056.08
477.10	16004.58
477.28	16332.26
477.46	16453.97
477.64	16547.59
477.82	16662.27
478.00	17013.35
478.18	17099.95
478.36	16926.75
478.54	17085.91
478.72	17256.77
478.90	17759.98
479.08	17869.99
479.26	17872.33
479.44	17907.44
479.62	17942.55
479.80	18530.02
479.98	18361.50
480.16	18944.30
480.34	18588.53
480.52	18738.33
480.70	18803.86
480.88	18590.88
481.06	18881.10
481.24	19023.87
481.41	19126.86
481.59	19630.07
481.77	19536.45
481.95	19784.55
482.13	20030.30
482.31	19899.23
482.49	20535.86
482.67	20390.75
482.85	20716.08
483.03	20922.05
483.21	21123.33
483.39	21027.37
483.57	20933.75
483.74	21247.38
483.92	21781.03
484.10	21303.56
484.28	21963.59
484.46	22192.96
484.64	22445.74
484.82	22302.96
485.00	22684.47
485.18	22499.57
485.35	23307.05
485.53	22993.42
485.71	23218.11
485.89	23836.02
486.07	23545.79
486.25	23674.52
486.43	23857.08
486.61	24229.23
486.78	24156.67
486.96	24292.42
487.14	24690.31
487.32	25050.75
487.50	25348.00
487.68	25443.96
487.85	25593.76
488.03	25806.75
488.21	26108.68
488.39	26143.78
488.57	26316.98
488.75	26541.68
488.92	27028.51
489.10	27014.46
489.28	26869.35
489.46	27278.94
489.64	27056.59
489.81	28208.14
489.99	27931.95
490.17	27880.46
490.35	28692.63
490.53	28673.90
490.70	28472.62
490.88	28795.61
491.06	29308.19
491.24	29254.36
491.41	29174.78
491.59	29483.73
491.77	29605.44
491.95	29823.11
492.13	30298.23
492.30	30141.42
492.48	30174.19
492.66	30223.34
492.84	30122.69
493.01	30962.95
493.19	30897.41
493.37	30932.52
493.54	31552.76
493.72	31770.43
493.90	31690.85
494.08	32004.49
494.25	32147.26
494.43	32009.17
494.61	32629.41
494.79	32659.84
494.96	32531.11
495.14	33120.92
495.32	33453.28
495.49	33525.83
495.67	33390.08
495.85	33715.42
496.02	34082.88
496.20	34190.55
496.38	34190.55
496.55	34532.26
496.73	34602.48
496.91	35019.10
497.09	35138.46
497.26	35658.06
497.44	34998.03
497.62	35641.68
497.79	35814.88
497.97	36259.58
498.14	36378.95
498.32	36339.16
498.50	36734.71
498.67	37020.25
498.85	36828.33
499.03	36772.16
499.20	37331.54
499.38	37273.03
499.56	37198.13
499.73	37518.79
499.91	37837.10
500.08	37612.41
500.26	37989.24
500.44	37986.89
500.61	37890.93
500.79	38061.79
500.97	38078.18
501.14	38799.06
501.32	39131.42
501.49	39009.71
501.67	38883.32
501.84	39136.10
502.02	39253.12
502.20	39339.72
502.37	39805.49
502.55	39676.76
502.72	39768.04
502.90	39548.03
503.07	40025.50
503.25	39765.70
503.43	40432.75
503.60	40627.02
503.78	40793.20
503.95	40952.35
504.13	41111.51
504.30	40978.10
504.48	41109.17
504.65	41326.84
504.83	41567.91
505.01	41476.63
505.18	41254.28
505.36	42192.84
505.53	41755.16
505.71	41998.57
505.88	41666.22
506.06	42089.85
506.23	42721.80
506.41	42110.92
506.58	42799.04
506.76	42511.15
506.93	42871.59
507.11	42843.51
507.28	43075.22
507.46	42822.44
507.63	42880.95
507.81	43318.64
507.98	43405.23
508.16	42974.58
508.33	43388.85
508.50	43920.15
508.68	44334.43
508.85	44542.74
509.03	44086.33
509.20	44573.16
509.38	45125.53
509.55	44959.35
509.73	44907.86
509.90	45207.45
510.08	45144.25
510.25	45148.93
510.42	45385.33
510.60	45380.65
510.77	45277.66
510.95	45720.02
511.12	45677.90
511.30	45490.65
511.47	45806.62
511.64	46103.87
511.82	46195.15
511.99	46036.00
512.17	46131.96
512.34	46326.22
512.51	46586.02
512.69	46518.15
512.86	47089.24
513.04	47117.32
513.21	46918.38
513.38	47147.75
513.56	47283.50
513.73	47084.56
513.90	47463.72
514.08	47402.87
514.25	47636.92
514.43	47791.40
514.60	47826.51
514.77	47660.33
514.95	47859.27
515.12	47833.53
515.29	47601.82
515.47	47983.32
515.64	48610.59
515.81	48589.52
515.99	48732.29
516.16	48711.23
516.33	48603.56
516.51	49099.76
516.68	48802.51
516.85	48795.49
517.03	49315.09
517.20	49109.12
517.37	49202.74
517.54	49406.37
517.72	49265.94
517.89	49249.55
518.06	49640.42
518.24	49521.05
518.41	49631.06
518.58	49787.88
518.75	49488.29
518.93	49610.00
519.10	49811.28
519.27	50202.15
519.45	50066.40
519.62	50440.89
519.79	50574.30
519.96	50333.22
520.14	50539.19
520.31	50248.96
520.48	50644.51
520.65	50555.57
520.83	51189.86
521.00	51119.64
521.17	50674.94
521.34	51114.96
521.52	51164.11
521.69	51040.06
521.86	51475.40
522.03	51489.45
522.20	51749.24
522.38	51859.25
522.55	51615.83
522.72	51826.48
522.89	51774.99
523.07	51901.38
523.24	52037.13
523.41	52079.26
523.58	51838.18
523.75	52065.22
523.92	52428.00
524.10	52294.59
524.27	52226.71
524.44	52437.36
524.61	52425.66
524.78	52615.24
524.96	52205.65
525.13	52446.72
525.30	52493.54
525.47	52519.28
525.64	52837.59
525.81	52938.24
525.98	52975.69
526.16	52996.75
526.33	52987.39
526.50	53298.68
526.67	53186.33
526.84	53193.36
527.01	52982.71
527.18	52992.07
527.36	53200.38
527.53	53523.37
527.70	53549.12
527.87	53647.42
528.04	53256.55
528.21	53567.84
528.38	53153.57
528.55	53921.26
528.72	53635.72
528.89	53965.73
529.07	53656.78
529.24	53614.65
529.41	53755.08
529.58	54138.93
529.75	54033.61
529.92	53914.24
530.09	54204.47
530.26	54403.41
530.43	54265.32
530.60	54145.95
530.77	54195.10
530.94	54501.71
531.11	54454.90
531.28	54372.99
531.46	54461.93
531.63	54560.23
531.80	54342.56
531.97	54838.75
532.14	54824.71
532.31	54593.00
532.48	54990.89
532.65	54703.00
532.82	54763.85
532.99	54969.82
533.16	54726.41
533.33	54848.11
533.50	55154.72
533.67	55213.24
533.84	55124.30
534.01	55248.35
534.18	55208.56
534.35	55309.20
534.52	55351.33
534.69	55430.91
534.86	55695.39
535.03	55243.66
535.20	55660.28
535.37	55421.55
535.54	55866.25
535.71	55646.24
535.88	55583.04
536.05	55669.64
536.22	55793.69
536.38	55884.97
536.55	55744.54
536.72	55861.57
536.89	55643.90
537.06	55917.74
537.23	55908.38
537.40	55690.71
537.57	56116.68
537.74	56114.34
537.91	56491.17
538.08	56013.70
538.25	56053.49
538.42	56140.09
538.59	56355.42
538.75	56341.38
538.92	56355.42
539.09	56596.49
539.26	56348.40
539.43	56334.35
539.60	56268.82
539.77	56339.04
539.94	56811.82
540.11	56488.83
540.28	56776.72
540.44	56643.30
540.61	56615.22
540.78	56814.16
540.95	56357.76
541.12	56591.81
541.29	56594.15
541.46	56914.81
541.62	56907.79
541.79	56837.57
541.96	56985.02
542.13	56992.04
542.30	57233.12
542.47	56987.36
542.63	57181.63
542.80	57214.40
542.97	57268.23
543.14	57546.75
543.31	57495.26
543.48	57488.24
543.64	57612.29
543.81	57691.86
543.98	57481.22
544.15	57539.73
544.32	57649.74
544.48	57858.04
544.65	57670.80
544.82	57600.58
544.99	57623.99
545.16	57762.08
545.32	57748.04
545.49	57916.56
545.66	57904.85
545.83	57942.30
546.00	58171.67
546.16	57989.11
546.33	57797.19
546.50	57689.52
546.67	58005.50
546.83	57708.25
547.00	58061.67
547.17	57904.85
547.34	57979.75
547.50	58234.87
547.67	58335.51
547.84	58120.18
548.00	58328.49
548.17	58541.48
548.34	58120.18
548.51	58529.78
548.67	58452.54
548.84	58602.33
549.01	58326.15
549.18	58387.00
549.34	58604.67
549.51	58450.20
549.68	58658.51
549.84	58571.91
550.01	58590.63
550.18	58461.90
550.34	58644.46
550.51	58646.80
550.68	58719.36
550.84	58639.78
551.01	58876.18
551.18	58852.77
551.34	58859.79
551.51	58836.39
551.68	58770.85
551.84	58780.21
552.01	58773.19
552.18	58822.34
552.34	58810.64
552.51	58918.31
552.68	58698.30
552.84	58834.05
553.01	59051.72
553.18	59082.14
553.34	59075.12
553.51	59068.10
553.67	59182.79
553.84	59288.11
554.01	59079.80
554.17	59290.45
554.34	59458.97
554.51	59054.06
554.67	59360.67
554.84	59126.61
555.00	59220.23
555.17	58983.84
555.33	59171.08
555.50	59208.53
555.67	59360.67
555.83	59288.11
556.00	59325.56
556.16	59451.95
556.33	59625.15
556.50	59412.16
556.66	59627.49
556.83	59370.03
556.99	59583.02
557.16	59711.75
557.32	59711.75
557.49	59805.37
557.65	59641.53
557.82	59615.79
557.98	59585.36
558.15	59662.60
558.32	59744.51
558.48	59643.87
558.65	59707.07
558.81	59660.26
558.98	59796.01
559.14	59906.01
559.31	59688.34
559.47	59894.31
559.64	59980.91
559.80	59819.41
559.97	59854.52
560.13	59985.59
560.30	60104.96
560.46	59952.82
560.63	59859.20
560.79	60133.04
560.96	60177.51
561.12	60121.34
561.29	60083.89
561.45	60046.44
561.61	60137.72
561.78	59861.54
561.94	60133.04
562.11	60170.49
562.27	60243.05
562.44	60336.67
562.60	60430.29
562.77	60154.11
562.93	59913.03
563.10	60179.85
563.26	60048.78
563.42	60383.48
563.59	60226.66
563.75	60161.13
563.92	60254.75
564.08	60111.98
564.24	60509.87
564.41	60514.55
564.57	60434.97
564.74	60402.21
564.90	60301.56
565.07	60095.60
565.23	60411.57
565.39	60339.01
565.56	60395.18
565.72	60353.05
565.88	60418.59
566.05	60273.48
566.21	60292.20
566.38	60647.96
566.54	60540.30
566.70	60488.80
566.87	60715.84
567.03	60425.61
567.19	60849.25
567.36	60654.98
567.52	60495.83
567.68	60804.78
567.85	60657.32
568.01	60654.98
568.17	60631.58
568.34	60645.62
568.50	60619.88
568.66	60537.96
568.83	60734.56
568.99	60596.47
569.15	60748.60
569.32	60713.50
569.48	60502.85
569.64	60692.43
569.81	60645.62
569.97	60884.36
570.13	60938.19
570.30	60666.69
570.46	60891.38
570.62	60669.03
570.78	60619.88
570.95	60746.26
571.11	61034.15
571.27	60645.62
571.43	60818.82
571.60	60856.27
571.76	60788.39
571.92	60860.95
572.09	60753.29
572.25	60720.52
572.41	60753.29
572.57	60772.01
572.74	61095.00
572.90	60912.44
573.06	60954.57
573.22	60828.18
573.38	61008.40
573.55	61048.19
573.71	61017.77
573.87	60699.45
574.03	60907.76
574.20	60987.34
574.36	60643.28
574.52	61029.47
574.68	61073.94
574.84	61078.62
575.01	61064.58
575.17	60917.12
575.33	60966.27
575.49	60844.57
575.65	60921.80
575.82	60863.29
575.98	61092.66
576.14	61120.75
576.30	61090.32
576.46	60853.93
576.62	60907.76
576.79	60830.52
576.95	60818.82
577.11	61092.66
577.27	61048.19
577.43	61080.96
577.59	60985.00
577.75	60903.08
577.92	60912.44
578.08	61041.17
578.24	60844.57
578.40	61197.99
578.56	61174.58
578.72	61125.43
578.88	61226.07
579.04	61371.19
579.21	61251.82
579.37	61167.56
579.53	61109.05
579.69	60814.14
579.85	61080.96
580.01	61027.13
580.17	61113.73
580.33	61205.01
580.49	61153.52
580.65	61087.98
580.82	60952.23
580.98	61073.94
581.14	60963.93
581.30	61066.92
581.46	61202.67
581.62	61076.28
581.78	61176.92
581.94	61151.18
582.10	61066.92
582.26	61099.68
582.42	61205.01
582.58	61162.88
582.74	61097.34
582.90	60985.00
583.06	61279.91
583.22	60931.17
583.38	61130.11
583.54	61228.41
583.70	61291.61
583.86	61279.91
584.02	61130.11
584.18	61123.09
584.34	61277.57
584.50	61095.00
584.66	60980.32
584.82	60980.32
584.98	61415.66
585.14	61116.07
585.30	61167.56
585.46	61078.62
585.62	61254.16
585.78	61406.30
585.94	61120.75
586.10	61181.60
586.26	61155.86
586.42	61190.97
586.58	61443.74
586.74	61366.51
586.90	61361.82
587.06	61354.80
587.22	61300.97
587.38	61312.67
587.54	61516.30
587.70	61553.75
587.86	61289.27
588.02	61202.67
588.18	61488.21
588.34	61247.14
588.49	61233.10
