SpectraSuite Data File
++++++++++++++++++++++++++++++++++++
Date: Fri Oct 25 11:25:56 EDT 2013
User: price-jones
Dark Spectrum Present: No
Reference Spectrum Present: No
Number of Sampled Component Spectra: 1
Spectrometers: USB2+H05261
Integration Time (usec): 100000 (USB2+H05261)
Spectra Averaged: 1 (USB2+H05261)
Boxcar Smoothing: 0 (USB2+H05261)
Correct for Electrical Dark: No (USB2+H05261)
Strobe/Lamp Enabled: No (USB2+H05261)
Correct for Detector Non-linearity: No (USB2+H05261)
Correct for Stray Light: No (USB2+H05261)
Number of Pixels in Processed Spectrum: 2048
>>>>>Begin Processed Spectral Data<<<<<
365.73	243.42
365.92	243.42
366.12	243.42
366.32	124.05
366.52	105.32
366.72	163.84
366.91	74.90
367.11	238.73
367.31	168.52
367.51	173.20
367.70	168.52
367.90	196.60
368.10	152.13
368.30	119.37
368.49	102.98
368.69	189.58
368.89	124.05
369.09	147.45
369.28	170.86
369.48	180.22
369.68	159.16
369.87	191.92
370.07	238.73
370.27	259.80
370.47	367.46
370.66	526.62
370.86	592.16
371.06	692.80
371.25	723.23
371.45	622.58
371.65	671.73
371.84	678.76
372.04	643.65
372.24	723.23
372.44	704.50
372.63	734.93
372.83	664.71
373.03	744.29
373.22	763.01
373.42	791.10
373.62	814.51
373.81	777.06
374.01	835.57
374.21	814.51
374.40	809.83
374.60	880.04
374.79	840.25
374.99	786.42
375.19	826.21
375.38	835.57
375.58	809.83
375.78	924.51
375.97	978.34
376.17	842.59
376.37	894.08
376.56	828.55
376.76	905.79
376.95	891.74
377.15	821.53
377.35	929.19
377.54	912.81
377.74	978.34
377.93	917.49
378.13	940.90
378.33	994.73
378.52	992.39
378.72	1053.24
378.91	978.34
379.11	1011.11
379.31	922.17
379.50	957.28
379.70	961.96
379.89	1020.47
380.09	940.90
380.28	983.02
380.48	1071.97
380.68	1039.20
380.87	1001.75
381.07	1050.90
381.26	1039.20
381.46	1039.20
381.65	1090.69
381.85	1109.41
382.04	1130.48
382.24	1069.62
382.43	1071.97
382.63	1102.39
382.83	1160.91
383.02	1158.57
383.22	1153.88
383.41	1027.50
383.61	1111.75
383.80	1179.63
384.00	1100.05
384.19	1151.54
384.39	1135.16
384.58	1116.44
384.78	1114.10
384.97	1179.63
385.17	1118.78
385.36	1196.01
385.56	1102.39
385.75	1179.63
385.95	1165.59
386.14	1102.39
386.34	1196.01
386.53	1146.86
386.72	1226.44
386.92	1266.23
387.11	1263.89
387.31	1268.57
387.50	1266.23
387.70	1261.55
387.89	1224.10
388.09	1256.87
388.28	1289.64
388.48	1212.40
388.67	1383.26
388.86	1348.15
389.06	1364.53
389.25	1301.34
389.45	1306.02
389.64	1310.70
389.84	1378.58
390.03	1488.58
390.22	1401.98
390.42	1451.13
390.61	1317.72
390.81	1352.83
391.00	1481.56
391.19	1411.34
391.39	1483.90
391.58	1455.81
391.78	1542.41
391.97	1568.16
392.16	1397.30
392.36	1486.24
392.55	1455.81
392.75	1619.65
392.94	1514.33
393.13	1561.14
393.33	1537.73
393.52	1502.62
393.71	1633.69
393.91	1629.01
394.10	1563.48
394.29	1549.43
394.49	1605.61
394.68	1624.33
394.88	1668.80
395.07	1652.42
395.26	1643.06
395.46	1643.06
395.65	1783.49
395.84	1668.80
396.04	1757.74
396.23	1769.44
396.42	1783.49
396.62	1788.17
396.81	1788.17
397.00	1753.06
397.19	1806.89
397.39	1708.59
397.58	1760.08
397.77	1774.13
397.97	1846.68
398.16	1919.24
398.35	1898.17
398.55	1898.17
398.74	1940.30
398.93	1886.47
399.12	1933.28
399.32	1923.92
399.51	1926.26
399.70	1902.86
399.90	2015.20
400.09	1926.26
400.28	2038.61
400.47	1977.75
400.67	2099.46
400.86	2073.71
401.05	2155.63
401.24	2101.80
401.44	2085.42
401.63	2190.74
401.82	2202.44
402.01	2132.23
402.21	2216.49
402.40	2293.72
402.59	2141.59
402.78	2179.04
402.97	2169.68
403.17	2286.70
403.36	2228.19
403.55	2258.62
403.74	2427.14
403.93	2354.58
404.13	2326.49
404.32	2326.49
404.51	2361.60
404.70	2504.37
404.89	2424.80
405.09	2459.90
405.28	2466.92
405.47	2619.06
405.66	2478.63
405.85	2513.74
406.05	2567.57
406.24	2605.02
406.43	2518.42
406.62	2710.34
406.81	2658.85
407.00	2483.31
407.20	2628.42
407.39	2764.17
407.58	2672.89
407.77	2689.28
407.96	2738.43
408.15	2822.69
408.34	2677.57
408.54	2761.83
408.73	2743.11
408.92	2743.11
409.11	2857.79
409.30	2979.50
409.49	2850.77
409.68	2836.73
409.87	2906.95
410.07	3033.33
410.26	3026.31
410.45	2960.78
410.64	3098.87
410.83	3056.74
411.02	3119.93
411.21	3164.40
411.40	3061.42
411.59	3187.81
411.78	3143.34
411.98	3164.40
412.17	3262.71
412.36	3307.18
412.55	3384.41
412.74	3503.78
412.93	3288.45
413.12	3356.33
413.31	3552.93
413.50	3541.23
413.69	3541.23
413.88	3534.21
414.07	3550.59
414.26	3475.70
414.45	3681.66
414.64	3705.07
414.83	3749.54
415.02	3719.11
415.22	3819.75
415.41	3735.50
415.60	3777.62
415.79	3838.48
415.98	3798.69
416.17	4002.32
416.36	3875.93
416.55	3953.16
416.74	4063.17
416.93	4028.06
417.12	3925.08
417.31	4196.58
417.50	4243.39
417.69	4236.37
417.88	4266.80
418.07	4187.22
418.26	4262.12
418.45	4393.19
418.64	4620.22
418.83	4475.10
419.02	4374.46
419.21	4610.86
419.39	4432.97
419.58	4568.73
419.77	4599.15
419.96	4620.22
420.15	4608.51
420.34	4517.23
420.53	4610.86
420.72	4634.26
420.91	4533.62
421.10	4643.62
421.29	4667.03
421.48	4535.96
421.67	4695.11
421.86	4683.41
422.05	4961.94
422.24	4727.88
422.43	4798.10
422.61	4898.74
422.80	5095.35
422.99	4931.51
423.18	4931.51
423.37	5039.17
423.56	4854.27
423.75	4889.38
423.94	4889.38
424.13	4573.41
424.32	4802.78
424.50	4968.96
424.69	5111.73
424.88	5123.43
425.07	4905.76
425.26	4830.87
425.45	4994.70
425.64	4828.53
425.83	5053.22
426.01	5053.22
426.20	4924.49
426.39	4908.10
426.58	5107.05
426.77	5006.41
426.96	5273.23
427.15	5252.16
427.33	5259.18
427.52	5116.41
427.71	5261.52
427.90	5247.48
428.09	5315.36
428.28	5516.64
428.46	5327.06
428.65	5261.52
428.84	5579.84
429.03	5575.16
429.22	5350.46
429.40	5521.32
429.59	5472.17
429.78	5275.57
429.97	5444.09
430.16	5460.47
430.34	5535.37
430.53	5511.96
430.72	5638.35
430.91	5579.84
431.10	5598.56
431.28	5687.50
431.47	5792.83
431.66	5827.93
431.85	5769.42
432.03	5879.43
432.22	5886.45
432.41	5919.21
432.60	5982.41
432.79	5867.72
432.97	5919.21
433.16	6001.13
433.35	5853.68
433.54	6171.99
433.72	6218.80
433.91	6033.90
434.10	6052.63
434.28	6019.86
434.47	6242.21
434.66	6274.98
434.85	6200.08
435.03	6164.97
435.22	6246.89
435.41	6469.24
435.59	6487.96
435.78	6366.26
435.97	6382.64
436.16	6392.00
436.34	6265.61
436.53	6630.74
436.72	6740.74
436.90	6396.68
437.09	6539.46
437.28	6401.37
437.46	6590.95
437.65	6633.08
437.84	6705.63
438.02	6588.61
438.21	6597.97
438.40	6576.91
438.58	7045.01
438.77	7070.76
438.96	7061.40
439.14	7061.40
439.33	7073.10
439.52	7068.42
439.70	7162.04
439.89	7372.69
440.08	7454.61
440.26	7365.67
440.45	7440.56
440.63	7445.24
440.82	7644.19
441.01	7581.00
441.19	7618.44
441.38	7627.81
441.57	7648.87
441.75	7798.66
441.94	7857.18
442.12	7850.16
442.31	8037.40
442.50	8170.81
442.68	7962.50
442.87	8095.91
443.05	8098.25
443.24	8126.34
443.43	8077.19
443.61	8037.40
443.80	8355.71
443.98	7997.61
444.17	7854.84
444.35	8241.03
444.54	8301.88
444.73	8238.69
444.91	8365.07
445.10	8421.25
445.28	8428.27
445.47	8245.71
445.65	8421.25
445.84	8578.06
446.02	8418.91
446.21	8353.37
446.39	8535.93
446.58	8496.14
446.77	8519.55
446.95	8238.69
447.14	8381.46
447.32	8503.17
447.51	8465.72
447.69	8484.44
447.88	8561.68
448.06	8463.38
448.25	8507.85
448.43	8369.76
448.62	8519.55
448.80	8524.23
448.99	8615.51
449.17	8716.16
449.36	8442.31
449.54	8723.18
449.73	8877.65
449.91	9069.58
450.10	8994.68
450.28	9069.58
450.46	9097.66
450.65	8868.29
450.83	8961.91
451.02	9036.81
451.20	8999.36
451.39	9057.87
451.57	9177.24
451.76	9062.55
451.94	9331.72
452.13	9207.67
452.31	9268.52
452.49	9149.15
452.68	9540.02
452.86	9563.43
453.05	9525.98
453.23	9404.27
453.42	9413.63
453.60	9423.00
453.78	9472.15
453.97	9434.70
454.15	9481.51
454.34	9710.88
454.52	9689.82
454.70	9614.92
454.89	9619.60
455.07	9755.35
455.26	9769.40
455.44	9975.36
455.62	9874.72
455.81	9998.77
455.99	9977.70
456.17	10183.67
456.36	10087.71
456.54	10413.04
456.73	10232.82
456.91	10565.18
457.09	10164.95
457.28	10476.24
457.46	10415.38
457.64	10527.73
457.83	10518.37
458.01	10312.40
458.19	10789.87
458.38	10501.98
458.56	10562.84
458.74	10509.01
458.93	10677.52
459.11	10661.14
459.29	10532.41
459.48	10848.38
459.66	10963.07
459.84	10806.25
460.03	10939.66
460.21	11192.44
460.39	11007.54
460.57	11091.80
460.76	10972.43
460.94	11145.63
461.12	11180.74
461.31	11180.74
461.49	11220.53
461.67	11091.80
461.85	11637.14
462.04	11061.37
462.22	11817.36
462.40	11489.69
462.59	11321.17
462.77	11300.11
462.95	11508.41
463.13	11414.79
463.32	11417.13
463.50	11609.06
463.68	11716.72
463.86	11857.15
464.05	11609.06
464.23	11742.47
464.41	11927.37
464.59	11789.28
464.78	12131.00
464.96	12025.67
465.14	11850.13
465.32	11850.13
465.50	12049.08
465.69	12278.45
465.87	12011.63
466.05	12175.47
466.23	12175.47
466.41	12098.23
466.60	12589.74
466.78	12329.94
466.96	12248.02
467.14	12446.97
467.32	12423.56
467.51	12561.66
467.69	12147.38
467.87	12046.74
468.05	12585.06
468.23	12561.66
468.41	12599.10
468.60	12444.63
468.78	12622.51
468.96	12374.41
469.14	12807.41
469.32	12809.75
469.50	12622.51
469.69	12774.64
469.87	13088.28
470.05	13233.39
470.23	13053.17
470.41	13018.06
470.59	13310.63
470.77	13252.11
470.95	13355.10
471.14	13401.91
471.32	13116.36
471.50	13657.03
471.68	13467.44
471.86	13568.09
472.04	13659.37
472.22	13928.53
472.40	13614.90
472.58	13851.29
472.77	14251.52
472.95	14310.04
473.13	14590.90
473.31	14178.97
473.49	14246.84
473.67	14413.02
473.85	14305.35
474.03	14530.05
474.21	14539.41
474.39	14628.35
474.57	14670.48
474.75	14843.68
474.93	14860.06
475.12	15028.58
475.30	15197.10
475.48	15056.67
475.66	15040.28
475.84	15147.95
476.02	15487.32
476.20	15302.42
476.38	15367.96
476.56	16175.44
476.74	15847.77
476.92	15693.29
477.10	15709.68
477.28	16173.10
477.46	16266.72
477.64	16152.04
477.82	16690.36
478.00	17106.98
478.18	16608.44
478.36	16837.81
478.54	16985.27
478.72	17235.70
478.90	17404.22
479.08	17671.04
479.26	17881.69
479.44	17645.30
479.62	17764.67
479.80	18047.87
479.98	18148.51
480.16	18422.36
480.34	18328.74
480.52	18176.60
480.70	18726.63
480.88	18459.81
481.06	19042.60
481.24	18686.84
481.41	19124.52
481.59	19108.13
481.77	19522.41
481.95	19447.51
482.13	19398.36
482.31	19520.07
482.49	20152.01
482.67	20126.27
482.85	20585.01
483.03	20161.37
483.21	20877.58
483.39	20767.57
483.57	20615.44
483.74	21284.83
483.92	21493.14
484.10	21369.09
484.28	21413.56
484.46	22235.09
484.64	22544.04
484.82	21881.67
485.00	22331.05
485.18	22977.04
485.35	23300.03
485.53	22885.76
485.71	22918.53
485.89	23365.57
486.07	23608.98
486.25	23302.37
486.43	23356.21
486.61	23810.27
486.78	24184.76
486.96	24166.03
487.14	24465.62
487.32	24437.53
487.50	24868.19
487.68	25046.07
487.85	25277.79
488.03	25523.54
488.21	25757.60
488.39	25813.77
488.57	26026.76
488.75	25788.02
488.92	26270.17
489.10	26651.68
489.28	26352.09
489.46	27089.36
489.64	26934.88
489.81	27466.19
489.99	27580.87
490.17	27889.82
490.35	28276.01
490.53	28180.05
490.70	27990.47
490.88	28524.11
491.06	28687.95
491.24	28723.05
491.41	28833.06
491.59	29266.06
491.77	28954.77
491.95	29696.72
492.13	29834.81
492.30	29771.61
492.48	30082.91
492.66	30127.38
492.84	30331.00
493.01	30300.58
493.19	30874.01
493.37	30892.73
493.54	31150.19
493.72	31374.88
493.90	31281.26
494.08	32016.19
494.25	32451.53
494.43	31800.86
494.61	32210.45
494.79	32114.49
494.96	32079.38
495.14	32173.00
495.32	33273.06
495.49	33132.62
495.67	33064.75
495.85	33495.41
496.02	33818.40
496.20	34052.45
496.38	33619.46
496.55	33378.38
496.73	34696.10
496.91	34719.51
497.09	34558.01
497.26	35154.85
497.44	34696.10
497.62	35187.61
497.79	35585.50
497.97	35665.08
498.14	35824.24
498.32	36474.91
498.50	36182.34
498.67	36498.31
498.85	36135.53
499.03	36673.85
499.20	36666.83
499.38	36765.14
499.56	37123.24
499.73	36708.96
499.91	37317.50
500.08	37354.95
500.26	37460.27
500.44	37727.10
500.61	37860.51
500.79	37247.29
500.97	38029.02
501.14	38923.11
501.32	38270.10
501.49	38499.47
501.67	38153.07
501.84	38766.29
502.02	38855.23
502.20	39091.63
502.37	39145.46
502.55	39079.92
502.72	39365.47
502.90	39412.28
503.07	39292.91
503.25	39768.04
503.43	39445.05
503.60	39791.45
503.78	40301.68
503.95	40325.09
504.13	40364.88
504.30	40392.97
504.48	39992.73
504.65	40210.40
504.83	41141.94
505.01	40858.73
505.18	41057.68
505.36	41469.61
505.53	41310.46
505.71	41549.19
505.88	41441.53
506.06	41359.61
506.23	41923.68
506.41	41916.65
506.58	42040.70
506.76	42043.04
506.93	42466.68
507.11	42267.73
507.28	42749.88
507.46	42590.73
507.63	42494.77
507.81	43056.50
507.98	42873.93
508.16	43117.35
508.33	43250.76
508.50	43189.91
508.68	43136.07
508.85	43665.03
509.03	43601.84
509.20	43971.64
509.38	44339.11
509.55	44215.06
509.73	44535.71
509.90	44458.48
510.08	44589.55
510.25	44060.58
510.42	44467.84
510.60	45198.09
510.77	45312.77
510.95	45516.40
511.12	44903.18
511.30	44949.99
511.47	44926.58
511.64	45375.97
511.82	45827.69
511.99	45579.59
512.17	45537.46
512.34	45460.23
512.51	46494.74
512.69	46340.27
512.86	46164.73
513.04	46183.45
513.21	46703.05
513.38	46644.54
513.56	46850.50
513.73	46518.15
513.90	46775.61
514.08	47285.84
514.25	47297.55
514.43	47152.43
514.60	47412.23
514.77	47627.56
514.95	47777.36
515.12	47124.35
515.29	47351.38
515.47	48217.38
515.64	47643.94
515.81	47964.60
515.99	48116.73
516.16	48435.05
516.33	48245.46
516.51	48465.47
516.68	48224.40
516.85	47973.96
517.03	49010.82
517.20	48659.74
517.37	48835.28
517.54	48725.27
517.72	48956.99
517.89	48968.69
518.06	48844.64
518.24	49085.72
518.41	49352.54
518.58	49193.38
518.75	48994.43
518.93	49539.78
519.10	49275.30
519.27	50038.31
519.45	49689.57
519.62	49954.05
519.79	50153.00
519.96	49668.51
520.14	50108.53
520.31	50389.39
520.48	49785.54
520.65	49841.71
520.83	50651.53
521.00	50796.65
521.17	50291.09
521.34	50951.12
521.52	50770.90
521.69	50578.98
521.86	50333.22
522.03	50976.87
522.20	50997.93
522.38	51384.12
522.55	51304.54
522.72	51281.14
522.89	51325.61
523.07	51690.73
523.24	51491.79
523.41	51948.19
523.58	51384.12
523.75	51901.38
523.92	51498.81
524.10	51852.23
524.27	51751.59
524.44	51845.21
524.61	51959.89
524.78	51868.61
524.96	51983.30
525.13	52449.06
525.30	52226.71
525.47	52474.81
525.64	52357.78
525.81	52603.54
525.98	52287.57
526.16	52465.45
526.33	52561.41
526.50	52896.11
526.67	52573.11
526.84	52870.36
527.01	52547.37
527.18	52825.89
527.36	52849.30
527.53	52982.71
527.70	53319.74
527.87	53497.62
528.04	53027.18
528.21	53464.86
528.38	53261.23
528.55	53626.35
528.72	53237.83
528.89	53242.51
529.07	53354.85
529.24	53450.81
529.41	53586.57
529.58	53722.32
529.75	53092.71
529.92	53343.15
530.09	53514.01
530.26	53804.24
530.43	54078.08
530.60	53837.00
530.77	53764.45
530.94	54052.33
531.11	53818.28
531.28	53998.50
531.46	53930.62
531.63	54136.59
531.80	54148.29
531.97	54113.19
532.14	54209.15
532.31	54468.95
532.48	54251.28
532.65	54747.47
532.82	54101.48
532.99	54798.96
533.16	54621.08
533.33	54574.27
533.50	54960.46
533.67	54827.05
533.84	54684.28
534.01	54614.06
534.18	54749.81
534.35	54976.84
534.52	54988.55
534.69	55138.34
534.86	55213.24
535.03	54740.45
535.20	55131.32
535.37	55105.57
535.54	55311.54
535.71	55157.06
535.88	55573.68
536.05	55709.43
536.22	55449.63
536.38	55442.61
536.55	55632.19
536.72	55318.56
536.89	55372.39
537.06	55458.99
537.23	55824.12
537.40	55421.55
537.57	55693.05
537.74	55821.78
537.91	55777.31
538.08	55908.38
538.25	55634.53
538.42	55835.82
538.59	56371.80
538.75	55700.07
538.92	55957.53
539.09	56102.64
539.26	55994.98
539.43	56088.60
539.60	56158.81
539.77	56095.62
539.94	56416.27
540.11	56404.57
540.28	56308.61
540.44	56296.91
540.61	56498.19
540.78	56076.90
540.95	56264.14
541.12	56264.14
541.29	56214.99
541.46	56495.85
541.62	56388.19
541.79	56542.66
541.96	56254.78
542.13	56605.86
542.30	56418.61
542.47	56704.16
542.63	56952.26
542.80	56741.61
542.97	56978.00
543.14	56987.36
543.31	57057.58
543.48	57045.88
543.64	57322.06
543.81	57364.19
543.98	57286.95
544.15	57223.76
544.32	57528.03
544.48	57436.75
544.65	57216.74
544.82	57322.06
544.99	57106.73
545.16	57464.83
545.32	57272.91
545.49	57544.41
545.66	57612.29
545.83	57661.44
546.00	57799.53
546.16	57729.31
546.33	57399.30
546.50	57539.73
546.67	57769.10
546.83	57190.99
547.00	57516.32
547.17	57722.29
547.34	57705.91
547.50	57806.55
547.67	57972.73
547.84	57925.92
548.00	57954.00
548.17	58003.16
548.34	57900.17
548.51	58021.88
548.67	58213.80
548.84	58094.44
549.01	58047.63
549.18	58279.34
549.34	58138.91
549.51	58169.33
549.68	58333.17
549.84	58253.59
550.01	58426.79
550.18	58099.12
550.34	58232.53
550.51	58616.38
550.68	58342.53
550.84	58045.29
551.01	58426.79
551.18	58382.32
551.34	58447.86
551.51	58492.33
551.68	58562.54
551.84	58478.28
552.01	58433.81
552.18	58480.63
552.34	58607.01
552.51	58810.64
552.68	58480.63
552.84	58452.54
553.01	58754.47
553.18	58784.90
553.34	58815.32
553.51	58644.46
553.67	58838.73
553.84	58953.41
554.01	58726.38
554.17	58894.90
554.34	59147.68
554.51	59049.38
554.67	59091.51
554.84	59051.72
555.00	58941.71
555.17	59117.25
555.33	59063.42
555.50	58883.20
555.67	59103.21
555.83	58974.48
556.00	59082.14
556.16	59320.88
556.33	59288.11
556.50	59194.49
556.66	59480.03
556.83	59030.65
556.99	59206.19
557.16	59456.63
557.32	59355.99
557.49	59714.09
557.65	59201.51
557.82	59353.65
557.98	59171.08
558.15	59587.70
558.32	59405.14
558.48	59468.33
558.65	59384.07
558.81	59215.55
558.98	59409.82
559.14	59409.82
559.31	59473.01
559.47	59753.88
559.64	59674.30
559.80	59402.80
559.97	59388.75
560.13	59552.59
560.30	59599.40
560.46	59917.71
560.63	59576.00
560.79	59742.17
560.96	59948.14
561.12	59784.30
561.29	59807.71
561.45	59824.09
561.61	59739.83
561.78	59758.56
561.94	59700.04
562.11	59718.77
562.27	59889.63
562.44	59812.39
562.60	59896.65
562.77	59966.87
562.93	59718.77
563.10	60137.72
563.26	60172.83
563.42	60044.10
563.59	59831.11
563.75	60060.49
563.92	60151.77
564.08	59934.10
564.24	60158.79
564.41	60004.31
564.57	59938.78
564.74	60009.00
564.90	59877.93
565.07	60013.68
565.23	60037.08
565.39	59987.93
565.56	60268.79
565.72	60039.42
565.88	60301.56
566.05	60207.94
566.21	59934.10
566.38	60060.49
566.54	60100.28
566.70	60313.26
566.87	60147.09
567.03	60121.34
567.19	60292.20
567.36	60285.18
567.52	60308.58
567.68	60430.29
567.85	60406.89
568.01	60418.59
568.17	60217.30
568.34	60317.95
568.50	60348.37
568.66	60224.32
568.83	60289.86
568.99	60168.15
569.15	60404.55
569.32	60271.14
569.48	60315.61
569.64	60643.28
569.81	60191.56
569.97	60207.94
570.13	60413.91
570.30	60205.60
570.46	60484.12
570.62	60500.51
570.78	60575.40
570.95	60250.07
571.11	60645.62
571.27	60362.42
571.43	60596.47
571.60	60519.23
571.76	60404.55
571.92	60460.72
572.09	60430.29
572.25	60493.49
572.41	60402.21
572.57	60395.18
572.74	60830.52
572.90	60561.36
573.06	60444.33
573.22	60519.23
573.38	60612.85
573.55	60769.67
573.71	60699.45
573.87	60624.56
574.03	60467.74
574.20	60697.11
574.36	60669.03
574.52	60659.66
574.68	60540.30
574.84	60907.76
575.01	60683.07
575.17	60673.71
575.33	60692.43
575.49	60725.20
575.65	60872.65
575.82	60802.44
575.98	60669.03
576.14	60809.46
576.30	60788.39
576.46	60690.09
576.62	60779.03
576.79	60814.14
576.95	60552.00
577.11	60919.46
577.27	60800.10
577.43	60821.16
577.59	60764.99
577.75	60680.73
577.92	60701.79
578.08	60748.60
578.24	60800.10
578.40	60994.36
578.56	60924.14
578.72	60821.16
578.88	60956.91
579.04	60903.08
579.21	60980.32
579.37	60968.61
579.53	60816.48
579.69	60830.52
579.85	60764.99
580.01	60736.90
580.17	60708.82
580.33	60935.85
580.49	60931.17
580.65	60910.10
580.82	60980.32
580.98	60678.39
581.14	60800.10
581.30	61083.30
581.46	60715.84
581.62	60912.44
581.78	60818.82
581.94	60940.53
582.10	60935.85
582.26	60821.16
582.42	60853.93
582.58	60914.78
582.74	60980.32
582.90	60793.07
583.06	61022.45
583.22	60807.12
583.38	60956.91
583.54	60835.20
583.70	60893.72
583.86	60896.06
584.02	60736.90
584.18	60924.14
584.34	60952.23
584.50	60762.65
584.66	60781.37
584.82	60685.41
584.98	61048.19
585.14	60975.64
585.30	60776.69
585.46	61095.00
585.62	61041.17
585.78	61083.30
585.94	60772.01
586.10	60907.76
586.26	60917.12
586.42	61113.73
586.58	61080.96
586.74	61010.74
586.90	60926.49
587.06	61109.05
587.22	61069.26
587.38	60832.86
587.54	61078.62
587.70	61062.24
587.86	61158.20
588.02	60851.59
588.18	61027.13
588.34	60961.59
