SpectraSuite Data File
++++++++++++++++++++++++++++++++++++
Date: Fri Oct 25 11:26:30 EDT 2013
User: price-jones
Dark Spectrum Present: No
Reference Spectrum Present: No
Number of Sampled Component Spectra: 1
Spectrometers: USB2+H05261
Integration Time (usec): 100000 (USB2+H05261)
Spectra Averaged: 1 (USB2+H05261)
Boxcar Smoothing: 0 (USB2+H05261)
Correct for Electrical Dark: No (USB2+H05261)
Strobe/Lamp Enabled: No (USB2+H05261)
Correct for Detector Non-linearity: No (USB2+H05261)
Correct for Stray Light: No (USB2+H05261)
Number of Pixels in Processed Spectrum: 2048
>>>>>Begin Processed Spectral Data<<<<<
365.73	257.46
365.92	257.46
366.12	257.46
366.32	163.84
366.52	95.96
366.72	161.50
366.91	198.95
367.11	114.69
367.31	168.52
367.51	182.56
367.70	81.92
367.90	156.82
368.10	86.60
368.30	107.66
368.49	128.73
368.69	191.92
368.89	145.11
369.09	145.11
369.28	84.26
369.48	145.11
369.68	154.48
369.87	194.26
370.07	173.20
370.27	231.71
370.47	330.02
370.66	660.03
370.86	674.07
371.06	697.48
371.25	704.50
371.45	716.20
371.65	688.12
371.84	711.52
372.04	662.37
372.24	753.65
372.44	741.95
372.63	732.59
372.83	772.38
373.03	770.04
373.22	732.59
373.42	770.04
373.62	788.76
373.81	835.57
374.01	767.70
374.21	791.10
374.40	856.64
374.60	875.36
374.79	788.76
374.99	772.38
375.19	840.25
375.38	905.79
375.58	833.23
375.78	858.98
375.97	915.15
376.17	894.08
376.37	863.66
376.56	898.77
376.76	763.01
376.95	856.64
377.15	912.81
377.35	868.34
377.54	858.98
377.74	898.77
377.93	952.60
378.13	880.04
378.33	987.71
378.52	966.64
378.72	964.30
378.91	954.94
379.11	936.21
379.31	943.24
379.50	929.19
379.70	968.98
379.89	1036.86
380.09	877.70
380.28	952.60
380.48	1013.45
380.68	997.07
380.87	997.07
381.07	961.96
381.26	1029.84
381.46	954.94
381.65	1050.90
381.85	1034.52
382.04	1029.84
382.24	1109.41
382.43	1083.67
382.63	1095.37
382.83	1029.84
383.02	1025.15
383.22	1074.31
383.41	1118.78
383.61	1086.01
383.80	1172.61
384.00	1139.84
384.19	1121.12
384.39	1170.27
384.58	1093.03
384.78	1144.52
384.97	1270.91
385.17	1273.25
385.36	1177.29
385.56	1125.80
385.75	1235.80
385.95	1186.65
386.14	1256.87
386.34	1198.35
386.53	1090.69
386.72	1179.63
386.92	1205.38
387.11	1270.91
387.31	1219.42
387.50	1317.72
387.70	1256.87
387.89	1299.00
388.09	1287.29
388.28	1282.61
388.48	1238.14
388.67	1280.27
388.86	1341.13
389.06	1338.79
389.25	1268.57
389.45	1373.89
389.64	1390.28
389.84	1350.49
390.03	1362.19
390.22	1427.73
390.42	1387.94
390.61	1446.45
390.81	1355.17
391.00	1533.05
391.19	1373.89
391.39	1511.99
391.58	1472.20
391.78	1373.89
391.97	1490.92
392.16	1591.56
392.36	1607.95
392.55	1504.96
392.75	1509.65
392.94	1526.03
393.13	1528.37
393.33	1582.20
393.52	1481.56
393.71	1593.90
393.91	1549.43
394.10	1533.05
394.29	1633.69
394.49	1645.40
394.68	1621.99
394.88	1584.54
395.07	1720.29
395.26	1582.20
395.46	1727.32
395.65	1666.46
395.84	1729.66
396.04	1858.39
396.23	1722.63
396.42	1771.79
396.62	1720.29
396.81	1764.76
397.00	1701.57
397.19	1748.38
397.39	1776.47
397.58	1743.70
397.77	1736.68
397.97	1849.02
398.16	1923.92
398.35	1818.60
398.55	1769.44
398.74	1858.39
398.93	1849.02
399.12	1975.41
399.32	1905.20
399.51	1933.28
399.70	1928.60
399.90	1987.11
400.09	2118.18
400.28	2094.78
400.47	2024.56
400.67	2054.99
400.86	1980.09
401.05	1940.30
401.24	2132.23
401.44	2214.15
401.63	2181.38
401.82	2136.91
402.01	2150.95
402.21	2113.50
402.40	2136.91
402.59	2232.87
402.78	2207.13
402.97	2228.19
403.17	2267.98
403.36	2200.10
403.55	2258.62
403.74	2354.58
403.93	2363.94
404.13	2321.81
404.32	2249.25
404.51	2340.54
404.70	2354.58
404.89	2298.41
405.09	2377.98
405.28	2370.96
405.47	2429.48
405.66	2464.58
405.85	2436.50
406.05	2579.27
406.24	2483.31
406.43	2466.92
406.62	2691.62
406.81	2614.38
407.00	2630.76
407.20	2656.51
407.39	2686.94
407.58	2764.17
407.77	2609.70
407.96	2684.59
408.15	2799.28
408.34	2726.72
408.54	2658.85
408.73	2836.73
408.92	2862.48
409.11	2810.98
409.30	2792.26
409.49	2963.12
409.68	2979.50
409.87	2895.24
410.07	2953.76
410.26	2843.75
410.45	2977.16
410.64	3033.33
410.83	3005.25
411.02	3070.78
411.21	3178.45
411.40	3157.38
411.59	3185.47
411.78	3290.79
411.98	3096.53
412.17	3218.24
412.36	3251.00
412.55	3328.24
412.74	3356.33
412.93	3353.99
413.12	3176.11
413.31	3524.85
413.50	3538.89
413.69	3417.18
413.88	3588.04
414.07	3562.30
414.26	3613.79
414.45	3646.55
414.64	3644.21
414.83	3791.67
415.02	3871.25
415.22	3684.00
415.41	3845.50
415.60	3779.97
415.79	3927.42
415.98	4018.70
416.17	3967.21
416.36	4023.38
416.55	3999.98
416.74	4184.88
416.93	4203.60
417.12	4212.96
417.31	4077.21
417.50	4191.90
417.69	4280.84
417.88	4437.66
418.07	4290.20
418.26	4280.84
418.45	4264.46
418.64	4622.56
418.83	4498.51
419.02	4397.87
419.21	4521.92
419.39	4547.66
419.58	4437.66
419.77	4540.64
419.96	4507.87
420.15	4582.77
420.34	4578.09
420.53	4585.11
420.72	4531.28
420.91	4812.14
421.10	4573.41
421.29	4788.74
421.48	4510.21
421.67	4868.31
421.86	4603.83
422.05	4788.74
422.24	4751.29
422.43	4814.48
422.61	4828.53
422.80	4926.83
422.99	4828.53
423.18	4966.62
423.37	5067.26
423.56	5034.49
423.75	5032.15
423.94	4868.31
424.13	4615.54
424.32	4795.76
424.50	4994.70
424.69	5149.18
424.88	5249.82
425.07	4954.91
425.26	4903.42
425.45	5062.58
425.64	5029.81
425.83	4896.40
426.01	5022.79
426.20	4908.10
426.39	5142.16
426.58	5121.09
426.77	5064.92
426.96	5018.11
427.15	5088.32
427.33	5301.31
427.52	5233.44
427.71	5298.97
427.90	5078.96
428.09	5263.86
428.28	5350.46
428.46	5320.04
428.65	5324.72
428.84	5586.86
429.03	5624.31
429.22	5397.28
429.40	5369.19
429.59	5441.75
429.78	5219.39
429.97	5198.33
430.16	5404.30
430.34	5568.13
430.53	5640.69
430.72	5558.77
430.91	5509.62
431.10	5717.93
431.28	5607.92
431.47	5778.78
431.66	5790.49
431.85	5661.76
432.03	5776.44
432.22	6097.10
432.41	5886.45
432.60	5907.51
432.79	5884.11
432.97	6073.69
433.16	5872.40
433.35	5970.71
433.54	6193.06
433.72	6246.89
433.91	5968.37
434.10	6001.13
434.28	5944.96
434.47	6043.26
434.66	6314.77
434.85	6459.88
435.03	6389.66
435.22	6389.66
435.41	6427.11
435.59	6438.81
435.78	6200.08
435.97	6296.04
436.16	6399.02
436.34	6349.87
436.53	6518.39
436.72	6544.14
436.90	6345.19
437.09	6441.15
437.28	6356.90
437.46	6429.45
437.65	6630.74
437.84	6782.87
438.02	6633.08
438.21	6609.67
438.40	6567.54
438.58	6874.15
438.77	7023.95
438.96	7033.31
439.14	6944.37
439.33	7236.94
439.52	7157.36
439.70	7293.11
439.89	7410.14
440.08	7215.87
440.26	7267.36
440.45	7248.64
440.63	7428.86
440.82	7564.61
441.01	7358.64
441.19	7592.70
441.38	7576.31
441.57	7775.26
441.75	7789.30
441.94	8088.89
442.12	7829.09
442.31	8049.10
442.50	7999.95
442.68	7964.84
442.87	8006.97
443.05	8135.70
443.24	8297.20
443.43	7988.25
443.61	8257.41
443.80	8367.42
443.98	8032.72
444.17	7997.61
444.35	8156.77
444.54	8278.47
444.73	8236.35
444.91	8351.03
445.10	8236.35
445.28	8266.77
445.47	8119.32
445.65	8479.76
445.84	8262.09
446.02	8608.49
446.21	8264.43
446.39	8479.76
446.58	8379.12
446.77	8407.20
446.95	8194.22
447.14	8411.89
447.32	8381.46
447.51	8423.59
447.69	8348.69
447.88	8475.08
448.06	8386.14
448.25	8404.86
448.43	8414.23
448.62	8446.99
448.80	8367.42
448.99	8418.91
449.17	8652.96
449.36	8472.74
449.54	9027.45
449.73	8863.61
449.91	8849.57
450.10	9064.89
450.28	8865.95
450.46	8952.55
450.65	9057.87
450.83	8915.10
451.02	8968.93
451.20	9291.93
451.39	9062.55
451.57	8959.57
451.76	9149.15
451.94	9100.00
452.13	9408.95
452.31	9217.03
452.49	9317.67
452.68	9371.50
452.86	9411.29
453.05	9657.05
453.23	9680.46
453.42	9357.46
453.60	9235.75
453.78	9446.40
453.97	9310.65
454.15	9441.72
454.34	9226.39
454.52	9495.55
454.70	9582.15
454.89	9757.69
455.07	9694.50
455.26	9586.83
455.44	9760.03
455.62	9893.44
455.81	9996.43
455.99	10033.88
456.17	9860.68
456.36	10150.90
456.54	10216.44
456.73	10281.97
456.91	10345.17
457.09	10380.28
457.28	10473.90
457.46	10277.29
457.64	10483.26
457.83	10469.22
458.01	10300.70
458.19	10604.97
458.38	10485.60
458.56	10689.23
458.74	10628.37
458.93	10560.50
459.11	10649.44
459.29	10752.42
459.48	10745.40
459.66	10780.51
459.84	11056.69
460.03	10824.98
460.21	10876.47
460.39	10768.80
460.57	10920.94
460.76	11147.97
460.94	11147.97
461.12	11316.49
461.31	10885.83
461.49	11052.01
461.67	11201.80
461.85	11346.92
462.04	11250.96
462.22	11576.29
462.40	11463.94
462.59	11515.44
462.77	11456.92
462.95	11634.80
463.13	11557.57
463.32	11548.20
463.50	11595.01
463.68	11775.24
463.86	11892.26
464.05	11730.76
464.23	11667.57
464.41	11700.34
464.59	11693.32
464.78	12161.42
464.96	11819.71
465.14	11763.53
465.32	12168.45
465.50	12091.21
465.69	12093.55
465.87	12058.44
466.05	11971.84
466.23	12093.55
466.41	12194.19
466.60	12587.40
466.78	12203.55
466.96	12145.04
467.14	12081.85
467.32	12257.39
467.51	12575.70
467.69	12343.99
467.87	12585.06
468.05	12769.96
468.23	12255.04
468.41	12379.09
468.60	12564.00
468.78	12676.34
468.96	12482.08
469.14	12891.67
469.32	12894.01
469.50	12624.85
469.69	12952.52
469.87	12996.99
470.05	12908.05
470.23	13226.37
470.41	13102.32
470.59	13280.20
470.77	13186.58
470.95	13151.47
471.14	13275.52
471.32	13085.94
471.50	13600.85
471.68	13465.10
471.86	13504.89
472.04	13788.10
472.22	13977.68
472.40	13593.83
472.58	13881.72
472.77	14047.90
472.95	14279.61
473.13	14593.24
473.31	14012.79
473.49	14146.20
473.67	14057.26
473.85	14375.57
474.03	14548.77
474.21	14513.66
474.39	14569.83
474.57	14560.47
474.75	14827.29
474.93	14850.70
475.12	14878.79
475.30	15068.37
475.48	15030.92
475.66	15234.55
475.84	15005.17
476.02	15424.13
476.20	15400.72
476.38	15756.49
476.56	15665.21
476.74	15936.71
476.92	15714.36
477.10	15709.68
477.28	16032.67
477.46	16280.77
477.64	16587.38
477.82	16372.05
478.00	16613.12
478.18	16779.30
478.36	16919.73
478.54	17345.71
478.72	17067.19
478.90	17252.09
479.08	17603.17
479.26	17633.60
479.44	17607.85
479.62	17577.42
479.80	17839.56
479.98	17954.25
480.16	18487.89
480.34	18106.38
480.52	18321.71
480.70	18682.16
480.88	18452.78
481.06	18562.79
481.24	18616.62
481.41	19098.77
481.59	19370.27
481.77	19506.02
481.95	19278.99
482.13	19290.70
482.31	19494.32
482.49	20149.67
482.67	20182.44
482.85	20264.36
483.03	20538.20
483.21	20748.85
483.39	20812.04
483.57	20762.89
483.74	20971.20
483.92	21266.11
484.10	21109.29
484.28	21715.49
484.46	21853.58
484.64	22118.06
484.82	21937.84
485.00	22106.36
485.18	22642.34
485.35	22972.36
485.53	22862.35
485.71	22852.99
485.89	23421.74
486.07	22981.72
486.25	23410.04
486.43	23381.95
486.61	23616.01
486.78	24091.13
486.96	24079.43
487.14	24287.74
487.32	24830.74
487.50	24627.12
487.68	24938.41
487.85	25432.26
488.03	25120.97
488.21	25626.53
488.39	25593.76
488.57	25907.39
488.75	26022.08
488.92	26089.95
489.10	26483.16
489.28	26534.65
489.46	26609.55
489.64	26986.38
489.81	27529.38
489.99	27419.38
490.17	27496.61
490.35	27934.29
490.53	28196.43
490.70	28613.05
490.88	27887.48
491.06	28575.60
491.24	28620.07
491.41	29039.03
491.59	29081.16
491.77	29074.13
491.95	29268.40
492.13	29696.72
492.30	30134.40
492.48	30122.69
492.66	30487.82
492.84	30274.83
493.01	30824.86
493.19	30611.87
493.37	30890.39
493.54	30967.63
493.72	31246.15
493.90	31243.81
494.08	31651.06
494.25	32123.85
494.43	32130.87
494.61	32149.60
494.79	32404.72
494.96	32383.65
495.14	32837.72
495.32	32779.20
495.49	32957.08
495.67	33268.37
495.85	33612.43
496.02	33450.94
496.20	34040.75
496.38	33624.14
496.55	33968.19
496.73	34700.78
496.91	34050.11
497.09	34820.15
497.26	34911.43
497.44	34866.96
497.62	35037.82
497.79	35662.74
497.97	35276.55
498.14	35571.46
498.32	35772.75
498.50	35564.44
498.67	36306.39
498.85	36350.86
499.03	36561.51
499.20	36402.35
499.38	36725.35
499.56	36966.42
499.73	37263.67
499.91	37120.90
500.08	37530.49
500.26	37490.70
500.44	37710.71
500.61	37500.06
500.79	37514.11
500.97	37727.10
501.14	38557.99
501.32	38396.49
501.49	38223.29
501.67	38298.19
501.84	38773.31
502.02	38455.00
502.20	39178.23
502.37	39000.35
502.55	38838.85
502.72	39203.97
502.90	39856.98
503.07	39435.69
503.25	39768.04
503.43	39342.06
503.60	39608.89
503.78	40105.08
503.95	40273.60
504.13	40519.35
504.30	40722.98
504.48	40392.97
504.65	40605.95
504.83	40914.90
505.01	41429.82
505.18	41048.32
505.36	41347.90
505.53	41207.47
505.71	40889.16
505.88	41773.88
506.06	41207.47
506.23	41612.38
506.41	41661.54
506.58	41991.55
506.76	42082.83
506.93	42234.97
507.11	42277.10
507.28	42609.45
507.46	42548.60
507.63	43063.52
507.81	43054.15
507.98	42930.11
508.16	42892.66
508.33	43562.05
508.50	43559.71
508.68	43290.55
508.85	43917.81
509.03	43337.36
509.20	44069.95
509.38	44100.37
509.55	44144.84
509.73	44112.08
509.90	44367.20
510.08	44343.79
510.25	44641.04
510.42	44699.55
510.60	44629.34
510.77	45064.67
510.95	45467.25
511.12	45289.37
511.30	44634.02
511.47	45483.63
511.64	45329.16
511.82	45996.21
511.99	45696.62
512.17	46188.13
512.34	45413.41
512.51	45872.16
512.69	46171.75
512.86	46234.94
513.04	46527.51
513.21	46848.16
513.38	46298.14
513.56	46576.66
513.73	46726.46
513.90	47351.38
514.08	46588.36
514.25	46981.57
514.43	47002.64
514.60	47222.65
514.77	47051.79
514.95	47569.05
515.12	47164.14
515.29	47679.05
515.47	47505.85
515.64	47498.83
515.81	47597.13
515.99	48343.77
516.16	48505.26
516.33	48006.73
516.51	48715.91
516.68	48271.21
516.85	48453.77
517.03	48444.41
517.20	48697.19
517.37	48783.79
517.54	48767.40
517.72	48769.74
517.89	48945.28
518.06	49200.40
518.24	48631.65
518.41	48982.73
518.58	48947.62
518.75	48935.92
518.93	49235.51
519.10	49127.84
519.27	49755.11
519.45	49502.33
519.62	49853.41
519.79	49724.68
519.96	49771.49
520.14	49806.60
520.31	50096.83
520.48	50085.12
520.65	50057.04
520.83	50490.04
521.00	50637.49
521.17	50529.83
521.34	50756.86
521.52	50705.37
521.69	50681.96
521.86	50995.59
522.03	50862.18
522.20	50852.82
522.38	51341.99
522.55	51203.90
522.72	51054.11
522.89	51051.76
523.07	51536.26
523.24	51051.76
523.41	51391.14
523.58	51164.11
523.75	51826.48
523.92	51428.59
524.10	51971.60
524.27	51943.51
524.44	51697.75
524.61	51856.91
524.78	51655.62
524.96	52362.46
525.13	52044.15
525.30	52463.11
525.47	52154.16
525.64	52317.99
525.81	52561.41
525.98	52547.37
526.16	52514.60
526.33	52502.90
526.50	52839.93
526.67	52928.87
526.84	52858.66
527.01	52624.60
527.18	52694.82
527.36	52657.37
527.53	52818.87
527.70	53123.14
527.87	53291.66
528.04	53207.40
528.21	53364.21
528.38	53256.55
528.55	53179.31
528.72	53308.04
528.89	53130.16
529.07	53176.97
529.24	53181.65
529.41	53759.76
529.58	53579.54
529.75	53724.66
529.92	53965.73
530.09	53827.64
530.26	53757.42
530.43	53734.02
530.60	53638.06
530.77	53633.38
530.94	54040.63
531.11	53993.82
531.28	53844.02
531.46	53968.07
531.63	53984.46
531.80	53979.78
531.97	54192.76
532.14	54068.72
532.31	54265.32
532.48	54443.20
532.65	54389.37
532.82	54436.18
532.99	54686.62
533.16	54731.09
533.33	54679.60
533.50	54710.02
533.67	54820.03
533.84	54363.62
534.01	54719.38
534.18	54869.18
534.35	55173.45
534.52	54997.91
534.69	55138.34
534.86	55206.22
535.03	55056.42
535.20	55210.90
535.37	55447.29
535.54	55384.10
535.71	55096.21
535.88	55323.24
536.05	55058.76
536.22	55625.17
536.38	55456.65
536.55	55311.54
536.72	55419.20
536.89	55423.89
537.06	55461.33
537.23	55536.23
537.40	55402.82
537.57	55519.85
537.74	55547.93
537.91	55793.69
538.08	55730.50
538.25	55679.00
538.42	55676.66
538.59	55758.58
538.75	55863.91
538.92	55805.39
539.09	56093.28
539.26	56037.11
539.43	55999.66
539.60	56222.01
539.77	55964.55
539.94	56364.78
540.11	56271.16
540.28	56472.45
540.44	56205.62
540.61	56374.14
540.78	56264.14
540.95	56329.67
541.12	56420.95
541.29	56245.41
541.46	56605.86
541.62	56224.35
541.79	56664.37
541.96	56362.44
542.13	56535.64
542.30	56636.28
542.47	56647.99
542.63	56851.61
542.80	56935.87
542.97	57043.54
543.14	57041.20
543.31	57059.92
543.48	57219.08
543.64	57394.62
543.81	57219.08
543.98	57125.46
544.15	57080.98
544.32	57532.71
544.48	57354.83
544.65	57350.15
544.82	57193.33
544.99	57216.74
545.16	57277.59
545.32	57368.87
545.49	57609.95
545.66	57532.71
545.83	57513.98
546.00	57595.90
546.16	57546.75
546.33	57336.10
546.50	57303.34
546.67	57588.88
546.83	57502.28
547.00	57455.47
547.17	57820.59
547.34	57832.30
547.50	57703.57
547.67	58066.35
547.84	57867.40
548.00	58108.48
548.17	58157.63
548.34	58003.16
548.51	58143.59
548.67	58108.48
548.84	57909.53
549.01	58110.82
549.18	58024.22
549.34	57998.48
549.51	58178.70
549.68	58209.12
549.84	58061.67
550.01	58340.19
550.18	58347.21
550.34	58262.96
550.51	58515.73
550.68	58199.76
550.84	58075.71
551.01	58382.32
551.18	58262.96
551.34	58454.88
551.51	58459.56
551.68	58468.92
551.84	58468.92
552.01	58246.57
552.18	58419.77
552.34	58447.86
552.51	58590.63
552.68	58319.13
552.84	58693.61
553.01	59007.25
553.18	58810.64
553.34	58733.40
553.51	58635.10
553.67	58721.70
553.84	58794.26
554.01	58721.70
554.17	59063.42
554.34	58857.45
554.51	58660.85
554.67	58782.55
554.84	58937.03
555.00	59138.32
555.17	58890.22
555.33	58864.47
555.50	58733.40
555.67	59037.67
555.83	58908.94
556.00	58913.62
556.16	59370.03
556.33	59253.00
556.50	59143.00
556.66	59105.55
556.83	59032.99
556.99	59164.06
557.16	59241.30
557.32	59372.37
557.49	59297.47
557.65	59210.87
557.82	59358.33
557.98	59215.55
558.15	59363.01
558.32	59367.69
558.48	59124.27
558.65	59292.79
558.81	59278.75
558.98	59304.49
559.14	59440.24
559.31	59566.63
559.47	59583.02
559.64	59622.81
559.80	59398.12
559.97	59744.51
560.13	59391.09
560.30	59800.69
560.46	59814.73
560.63	59767.92
560.79	59765.58
560.96	59561.95
561.12	59465.99
561.29	59517.48
561.45	59910.69
561.61	59634.51
561.78	59749.20
561.94	59742.17
562.11	59561.95
562.27	59819.41
562.44	59817.07
562.60	59931.76
562.77	59847.50
562.93	59576.00
563.10	60018.36
563.26	59791.33
563.42	59962.18
563.59	59786.64
563.75	59866.22
563.92	60020.70
564.08	59896.65
564.24	60175.17
564.41	59948.14
564.57	60065.17
564.74	59976.23
564.90	60226.66
565.07	59973.89
565.23	60121.34
565.39	59943.46
565.56	60107.30
565.72	59898.99
565.88	60074.53
566.05	60023.04
566.21	60236.03
566.38	60137.72
566.54	60109.64
566.70	60287.52
566.87	60313.26
567.03	60079.21
567.19	60282.84
567.36	60322.63
567.52	60044.10
567.68	60339.01
567.85	60207.94
568.01	60434.97
568.17	60147.09
568.34	60346.03
568.50	60196.24
568.66	60236.03
568.83	60217.30
568.99	60207.94
569.15	60331.99
569.32	60378.80
569.48	60317.95
569.64	60479.44
569.81	60364.76
569.97	60427.95
570.13	60214.96
570.30	60271.14
570.46	60402.21
570.62	60512.21
570.78	60336.67
570.95	60423.27
571.11	60533.28
571.27	60371.78
571.43	60374.12
571.60	60336.67
571.76	60392.84
571.92	60603.49
572.09	60523.91
572.25	60432.63
572.41	60350.71
572.57	60441.99
572.74	60837.54
572.90	60484.12
573.06	60406.89
573.22	60477.10
573.38	60559.02
573.55	60692.43
573.71	60814.14
573.87	60673.71
574.03	60596.47
574.20	60554.34
574.36	60395.18
574.52	60612.85
574.68	60624.56
574.84	60734.56
575.01	60598.81
575.17	60566.04
575.33	60542.64
575.49	60453.70
575.65	60615.19
575.82	60732.22
575.98	60687.75
576.14	60947.55
576.30	60598.81
576.46	60514.55
576.62	60554.34
576.79	60399.86
576.95	60549.66
577.11	60697.11
577.27	60612.85
577.43	60828.18
577.59	60657.32
577.75	60650.30
577.92	60519.23
578.08	60437.31
578.24	60624.56
578.40	60872.65
578.56	60882.02
578.72	60945.21
578.88	60844.57
579.04	60793.07
579.21	60786.05
579.37	60858.61
579.53	60755.63
579.69	60690.09
579.85	60769.67
580.01	60603.49
580.17	60673.71
580.33	60797.76
580.49	60739.24
580.65	60935.85
580.82	60732.22
580.98	60882.02
581.14	60727.54
581.30	60867.97
581.46	60856.27
581.62	60767.33
581.78	60760.31
581.94	60966.27
582.10	60568.38
582.26	60781.37
582.42	60818.82
582.58	60816.48
582.74	60874.99
582.90	60638.60
583.06	60788.39
583.22	60687.75
583.38	60893.72
583.54	60764.99
583.70	60973.30
583.86	61071.60
584.02	60750.94
584.18	60942.87
584.34	60994.36
584.50	60746.26
584.66	60966.27
584.82	60769.67
584.98	61134.79
585.14	61036.49
585.30	60832.86
585.46	60982.66
585.62	60776.69
585.78	61073.94
585.94	60727.54
586.10	60886.70
586.26	60912.44
586.42	61141.81
586.58	60994.36
586.74	60917.12
586.90	60739.24
587.06	60938.19
587.22	60959.25
587.38	60898.40
587.54	60940.53
587.70	61001.38
587.86	60980.32
588.02	60863.29
588.18	60942.87
588.34	61029.47
588.49	60910.10
