SpectraSuite Data File
++++++++++++++++++++++++++++++++++++
Date: Fri Oct 25 11:24:01 EDT 2013
User: price-jones
Dark Spectrum Present: No
Reference Spectrum Present: No
Number of Sampled Component Spectra: 1
Spectrometers: USB2+H05261
Integration Time (usec): 100000 (USB2+H05261)
Spectra Averaged: 1 (USB2+H05261)
Boxcar Smoothing: 0 (USB2+H05261)
Correct for Electrical Dark: No (USB2+H05261)
Strobe/Lamp Enabled: No (USB2+H05261)
Correct for Detector Non-linearity: No (USB2+H05261)
Correct for Stray Light: No (USB2+H05261)
Number of Pixels in Processed Spectrum: 2048
>>>>>Begin Processed Spectral Data<<<<<
365.73	180.22
365.92	180.22
366.12	180.22
366.32	168.52
366.52	128.73
366.72	175.54
366.91	121.71
367.11	173.20
367.31	124.05
367.51	133.41
367.70	163.84
367.90	126.39
368.10	138.09
368.30	102.98
368.49	112.35
368.69	107.66
368.89	152.13
369.09	180.22
369.28	147.45
369.48	161.50
369.68	140.43
369.87	105.32
370.07	156.82
370.27	241.08
370.47	325.33
370.66	615.56
370.86	594.50
371.06	615.56
371.25	697.48
371.45	655.35
371.65	662.37
371.84	683.44
372.04	667.05
372.24	753.65
372.44	816.85
372.63	767.70
372.83	681.10
373.03	744.29
373.22	866.00
373.42	699.82
373.62	802.80
373.81	767.70
374.01	819.19
374.21	788.76
374.40	784.08
374.60	863.66
374.79	784.08
374.99	798.12
375.19	798.12
375.38	828.55
375.58	830.89
375.78	837.91
375.97	830.89
376.17	968.98
376.37	734.93
376.56	901.11
376.76	908.13
376.95	873.02
377.15	842.59
377.35	938.55
377.54	880.04
377.74	814.51
377.93	851.96
378.13	894.08
378.33	931.53
378.52	889.40
378.72	959.62
378.91	929.19
379.11	950.26
379.31	870.68
379.50	903.45
379.70	1043.88
379.89	957.28
380.09	971.32
380.28	943.24
380.48	861.32
380.68	891.74
380.87	919.83
381.07	943.24
381.26	1032.18
381.46	1015.79
381.65	1029.84
381.85	1029.84
382.04	1041.54
382.24	1013.45
382.43	997.07
382.63	992.39
382.83	1008.77
383.02	1097.71
383.22	1104.73
383.41	1100.05
383.61	1135.16
383.80	1137.50
384.00	1139.84
384.19	1041.54
384.39	1088.35
384.58	1086.01
384.78	1102.39
384.97	1132.82
385.17	1184.31
385.36	1074.31
385.56	1149.20
385.75	1233.46
385.95	1181.97
386.14	1132.82
386.34	1188.99
386.53	1226.44
386.72	1146.86
386.92	1235.80
387.11	1259.21
387.31	1245.16
387.50	1273.25
387.70	1188.99
387.89	1198.35
388.09	1219.42
388.28	1306.02
388.48	1350.49
388.67	1343.47
388.86	1308.36
389.06	1313.04
389.25	1371.55
389.45	1345.81
389.64	1376.24
389.84	1334.11
390.03	1406.66
390.22	1378.58
390.42	1343.47
390.61	1355.17
390.81	1364.53
391.00	1324.74
391.19	1434.75
391.39	1380.92
391.58	1444.11
391.78	1385.60
391.97	1530.71
392.16	1565.82
392.36	1453.47
392.55	1575.18
392.75	1668.80
392.94	1568.16
393.13	1472.20
393.33	1483.90
393.52	1472.20
393.71	1591.56
393.91	1589.22
394.10	1561.14
394.29	1582.20
394.49	1652.42
394.68	1647.74
394.88	1610.29
395.07	1654.76
395.26	1645.40
395.46	1624.33
395.65	1750.72
395.84	1710.93
396.04	1760.08
396.23	1722.63
396.42	1797.53
396.62	1781.15
396.81	1732.00
397.00	1827.96
397.19	1806.89
397.39	1919.24
397.58	1769.44
397.77	1823.28
397.97	1816.26
398.16	1877.11
398.35	1870.09
398.55	1888.81
398.74	1968.39
398.93	1905.20
399.12	1907.54
399.32	2005.84
399.51	1975.41
399.70	1961.37
399.90	1914.56
400.09	2040.95
400.28	1980.09
400.47	2099.46
400.67	1980.09
400.86	2132.23
401.05	2087.76
401.24	2008.18
401.44	2038.61
401.63	2120.53
401.82	2076.06
402.01	2073.71
402.21	2139.25
402.40	2284.36
402.59	2181.38
402.78	2122.87
402.97	2282.02
403.17	2186.06
403.36	2125.21
403.55	2237.55
403.74	2328.83
403.93	2270.32
404.13	2396.71
404.32	2307.77
404.51	2328.83
404.70	2464.58
404.89	2520.76
405.09	2424.80
405.28	2593.31
405.47	2520.76
405.66	2581.61
405.85	2649.49
406.05	2504.37
406.24	2572.25
406.43	2597.99
406.62	2656.51
406.81	2733.75
407.00	2651.83
407.20	2569.91
407.39	2630.76
407.58	2787.58
407.77	2768.85
407.96	2644.81
408.15	2810.98
408.34	2738.43
408.54	2792.26
408.73	2857.79
408.92	2862.48
409.11	2829.71
409.30	2935.03
409.49	3038.02
409.68	2864.82
409.87	2960.78
410.07	3007.59
410.26	3145.68
410.45	3007.59
410.64	3052.06
410.83	3059.08
411.02	3105.89
411.21	3026.31
411.40	3192.49
411.59	3300.16
411.78	3199.51
411.98	3197.17
412.17	3204.19
412.36	3335.26
412.55	3218.24
412.74	3386.76
412.93	3379.73
413.12	3463.99
413.31	3524.85
413.50	3499.10
413.69	3349.31
413.88	3768.26
414.07	3562.30
414.26	3674.64
414.45	3658.26
414.64	3648.90
414.83	3775.28
415.02	3822.09
415.22	3887.63
415.41	3854.86
415.60	3999.98
415.79	3995.29
415.98	3957.85
416.17	4093.60
416.36	3936.78
416.55	3915.72
416.74	3997.64
416.93	4035.08
417.12	4133.39
417.31	4109.98
417.50	4135.73
417.69	4301.90
417.88	4353.40
418.07	4168.49
418.26	4276.16
418.45	4304.25
418.64	4496.17
418.83	4383.82
419.02	4395.53
419.21	4454.04
419.39	4512.55
419.58	4568.73
419.77	4458.72
419.96	4594.47
420.15	4603.83
420.34	4643.62
420.53	4669.37
420.72	4755.97
420.91	4631.92
421.10	4788.74
421.29	4788.74
421.48	4732.56
421.67	4812.14
421.86	4896.40
422.05	4683.41
422.24	4868.31
422.43	4770.01
422.61	4847.25
422.80	5153.86
422.99	4858.95
423.18	4968.96
423.37	4964.28
423.56	4903.42
423.75	4873.00
423.94	4856.61
424.13	4641.28
424.32	4734.90
424.50	5114.07
424.69	5273.23
424.88	5081.30
425.07	4985.34
425.26	5029.81
425.45	4842.57
425.64	4926.83
425.83	5008.75
426.01	5088.32
426.20	5132.79
426.39	5015.77
426.58	5057.90
426.77	4985.34
426.96	5085.98
427.15	5067.26
427.33	5289.61
427.52	5055.56
427.71	5275.57
427.90	5357.49
428.09	5247.48
428.28	5266.21
428.46	5427.70
428.65	5427.70
428.84	5483.88
429.03	5526.00
429.22	5270.89
429.40	5558.77
429.59	5549.41
429.78	5254.50
429.97	5268.55
430.16	5518.98
430.34	5504.94
430.53	5638.35
430.72	5788.14
430.91	5802.19
431.10	5736.65
431.28	5748.36
431.47	5706.23
431.66	5984.75
431.85	5802.19
432.03	5834.96
432.22	6083.05
432.41	5970.71
432.60	5909.85
432.79	6031.56
432.97	5909.85
433.16	5996.45
433.35	5947.30
433.54	6036.24
433.72	6274.98
433.91	6108.80
434.10	6094.76
434.28	6256.25
434.47	6223.48
434.66	6356.90
434.85	6303.06
435.03	6291.36
435.22	6267.95
435.41	6612.01
435.59	6450.52
435.78	6317.11
435.97	6518.39
436.16	6427.11
436.34	6403.71
436.53	6544.14
436.72	6513.71
436.90	6532.44
437.09	6729.04
437.28	6429.45
437.46	6431.79
437.65	6661.16
437.84	6839.05
438.02	6651.80
438.21	6883.52
438.40	6693.93
438.58	6960.75
438.77	7080.12
438.96	7068.42
439.14	6991.18
439.33	7119.91
439.52	7185.44
439.70	7236.94
439.89	7396.09
440.08	7349.28
440.26	7283.75
440.45	7363.33
440.63	7412.48
440.82	7662.91
441.01	7597.38
441.19	7515.46
441.38	7744.83
441.57	7981.23
441.75	7772.92
441.94	8138.04
442.12	7819.73
442.31	8222.30
442.50	8109.96
442.68	8018.68
442.87	8016.33
443.05	8168.47
443.24	8198.90
443.43	8318.26
443.61	8056.12
443.80	8613.17
443.98	8168.47
444.17	7777.60
444.35	8156.77
444.54	8493.80
444.73	8074.85
444.91	8294.86
445.10	8442.31
445.28	8262.09
445.47	8444.65
445.65	8409.54
445.84	8589.77
446.02	8594.45
446.21	8526.57
446.39	8430.61
446.58	8404.86
446.77	8491.46
446.95	8294.86
447.14	8573.38
447.32	8587.43
447.51	8418.91
447.69	8472.74
447.88	8596.79
448.06	8641.26
448.25	8648.28
448.43	8624.87
448.62	8505.51
448.80	8486.78
448.99	8535.93
449.17	8858.93
449.36	8575.72
449.54	8870.63
449.73	8730.20
449.91	9034.47
450.10	8889.35
450.28	9153.84
450.46	9170.22
450.65	9116.39
450.83	9146.81
451.02	9053.19
451.20	9078.94
451.39	9284.91
451.57	9298.95
451.76	8971.27
451.94	9378.53
452.13	9336.40
452.31	9277.88
452.49	9188.94
452.68	9324.69
452.86	9298.95
453.05	9371.50
453.23	9570.45
453.42	9362.14
453.60	9371.50
453.78	9614.92
453.97	9310.65
454.15	9717.90
454.34	9348.10
454.52	9671.09
454.70	9727.27
454.89	9696.84
455.07	9722.59
455.26	9825.57
455.44	9809.19
455.62	9902.81
455.81	9825.57
455.99	9958.98
456.17	10143.88
456.36	10083.03
456.54	10263.25
456.73	10171.97
456.91	10291.34
457.09	10509.01
457.28	10450.49
457.46	10366.23
457.64	10642.42
457.83	10595.61
458.01	10509.01
458.19	10778.17
458.38	10649.44
458.56	10731.36
458.74	10700.93
458.93	10719.65
459.11	10857.75
459.29	10787.53
459.48	10778.17
459.66	11066.05
459.84	11066.05
460.03	10932.64
460.21	11108.18
460.39	11157.33
460.57	10972.43
460.76	11304.79
460.94	11276.70
461.12	11286.06
461.31	10822.64
461.49	11309.47
461.67	11096.48
461.85	11674.59
462.04	11389.05
462.22	11747.15
462.40	11599.70
462.59	11580.97
462.77	11506.07
462.95	11587.99
463.13	11719.06
463.32	11604.38
463.50	11658.21
463.68	11915.67
463.86	12032.69
464.05	11571.61
464.23	11782.26
464.41	11850.13
464.59	11805.66
464.78	12081.85
464.96	11948.43
465.14	12020.99
465.32	12037.38
465.50	12374.41
465.69	12042.06
465.87	12329.94
466.05	12301.86
466.23	12248.02
466.41	12201.21
466.60	12589.74
466.78	12145.04
466.96	12334.62
467.14	12507.82
467.32	12336.96
467.51	12580.38
467.69	12278.45
467.87	12692.73
468.05	12400.16
468.23	12718.47
468.41	12348.67
468.60	12559.31
468.78	12744.22
468.96	12491.44
469.14	12767.62
469.32	12971.25
469.50	12730.17
469.69	12980.61
469.87	13114.02
470.05	13083.59
470.23	13469.78
470.41	13013.38
470.59	13231.05
470.77	13432.33
470.95	13441.70
471.14	13713.20
471.32	13254.45
471.50	13673.41
471.68	13645.32
471.86	13790.44
472.04	13722.56
472.22	14338.12
472.40	13907.46
472.58	13975.34
472.77	14185.99
472.95	14153.22
473.13	14747.72
473.31	13958.96
473.49	14195.35
473.67	14368.55
473.85	14258.54
474.03	14895.17
474.21	14431.74
474.39	14874.10
474.57	14717.29
474.75	15208.80
474.93	14965.39
475.12	15180.71
475.30	15199.44
475.48	15283.70
475.66	15398.38
475.84	15183.06
476.02	15410.09
476.20	15545.84
476.38	15587.97
476.56	16074.80
476.74	15807.98
476.92	16156.72
477.10	15843.09
477.28	16393.11
477.46	16191.83
477.64	16407.16
477.82	16610.78
478.00	17027.40
478.18	16599.08
478.36	16868.24
478.54	17146.76
478.72	17268.47
478.90	17521.25
479.08	17556.36
479.26	17750.62
479.44	17820.84
479.62	17877.01
479.80	18078.30
479.98	18090.00
480.16	18972.38
480.34	18391.93
480.52	18813.23
480.70	18817.91
480.88	18532.36
481.06	18829.61
481.24	18988.77
481.41	18906.85
481.59	19440.49
481.77	19559.86
481.95	19999.88
482.13	19812.63
482.31	19674.54
482.49	20393.09
482.67	20159.03
482.85	20465.64
483.03	20737.15
483.21	20900.98
483.39	20950.14
483.57	20807.36
483.74	21181.85
483.92	21387.82
484.10	21476.76
484.28	21724.85
484.46	22071.25
484.64	22618.94
484.82	22246.79
485.00	22387.22
485.18	22656.39
485.35	22871.72
485.53	23084.70
485.71	23234.50
485.89	23573.88
486.07	23435.78
486.25	23536.43
486.43	23407.70
486.61	23779.84
486.78	24177.73
486.96	24484.34
487.14	24592.01
487.32	24793.29
487.50	24809.68
487.68	25083.52
487.85	25701.42
488.03	25710.78
488.21	26040.80
488.39	25582.06
488.57	26419.97
488.75	26307.62
488.92	26527.63
489.10	27026.17
489.28	26801.47
489.46	27349.16
489.64	27234.47
489.81	27737.69
489.99	27845.35
490.17	27789.18
490.35	28215.16
490.53	28526.45
490.70	28713.69
490.88	28758.16
491.06	28861.15
491.24	28830.72
491.41	29083.50
491.59	29415.85
491.77	29308.19
491.95	29481.39
492.13	29603.10
492.30	29984.60
492.48	30188.23
492.66	30129.72
492.84	30717.19
493.01	31089.34
493.19	30778.04
493.37	31234.45
493.54	31325.73
493.72	31833.63
493.90	31632.34
494.08	31756.39
494.25	32353.23
494.43	32348.54
494.61	32367.27
494.79	32788.56
494.96	32734.73
495.14	32868.14
495.32	33212.20
495.49	33097.52
495.67	33649.88
495.85	33811.38
496.02	33684.99
496.20	34235.02
496.38	34082.88
496.55	34424.60
496.73	34916.11
496.91	34565.03
497.09	35255.49
497.26	34941.86
497.44	34815.47
497.62	35470.82
497.79	35915.52
497.97	35761.05
498.14	35943.61
498.32	36673.85
498.50	36201.07
498.67	36868.12
498.85	36584.91
499.03	36968.76
499.20	37254.31
499.38	37312.82
499.56	37078.77
499.73	37214.52
499.91	37366.65
500.08	37926.04
500.26	37743.48
500.44	37881.57
500.61	38129.67
500.79	38129.67
500.97	38204.56
501.14	38689.06
501.32	38712.46
501.49	38780.34
501.67	38590.75
501.84	39049.50
502.02	39136.10
502.20	38930.13
502.37	39400.58
502.55	39374.83
502.72	39360.79
502.90	39718.89
503.07	39639.31
503.25	40095.72
503.43	40044.23
503.60	40168.27
503.78	40521.69
503.95	40416.37
504.13	41249.60
504.30	40837.67
504.48	40989.80
504.65	41340.88
504.83	41298.75
505.01	41331.52
505.18	41223.86
505.36	41818.35
505.53	41268.33
505.71	42071.13
505.88	42169.43
506.06	41588.98
506.23	41996.23
506.41	42092.19
506.58	42256.03
506.76	42705.41
506.93	43000.32
507.11	42344.97
507.28	42887.98
507.46	43117.35
507.63	43370.13
507.81	43365.45
507.98	43255.44
508.16	43239.06
508.33	43798.44
508.50	43508.22
508.68	43943.56
508.85	44135.48
509.03	44147.18
509.20	44226.76
509.38	44423.37
509.55	44793.17
509.73	44528.69
509.90	45228.51
510.08	44664.44
510.25	44601.25
510.42	44715.93
510.60	45291.71
510.77	45556.19
510.95	45392.35
511.12	44931.26
511.30	45556.19
511.47	45937.69
511.64	45621.72
511.82	46073.45
511.99	45588.95
512.17	46036.00
512.34	46089.83
512.51	46703.05
512.69	46948.81
512.86	46628.15
513.04	46997.96
513.21	47325.63
513.38	46801.35
513.56	47271.80
513.73	47063.49
513.90	47426.28
514.08	46986.25
514.25	47246.05
514.43	47681.39
514.60	47669.69
514.77	47735.23
514.95	47915.45
515.12	47646.29
515.29	47538.62
515.47	47917.79
515.64	48308.66
515.81	47786.72
515.99	48662.08
516.16	48694.85
516.33	48678.46
516.51	48575.48
516.68	48748.68
516.85	48917.20
517.03	48633.99
517.20	48928.90
517.37	48676.12
517.54	48795.49
517.72	48868.05
517.89	49052.95
518.06	49188.70
518.24	49511.69
518.41	49191.04
518.58	49425.09
518.75	49462.54
518.93	49720.00
519.10	49507.01
519.27	49806.60
519.45	49975.12
519.62	49869.79
519.79	50169.38
519.96	50019.59
520.14	50263.00
520.31	50389.39
520.48	50354.29
520.65	50401.10
520.83	50878.57
521.00	50752.18
521.17	50281.73
521.34	50693.66
521.52	51049.42
521.69	51019.00
521.86	51016.66
522.03	51531.57
522.20	51557.32
522.38	51667.33
522.55	51213.26
522.72	51353.69
522.89	51512.85
523.07	51655.62
523.24	51728.18
523.41	51950.53
523.58	51416.89
523.75	52280.55
523.92	51753.93
524.10	52079.26
524.27	52287.57
524.44	52041.81
524.61	52388.21
524.78	52346.08
524.96	52397.57
525.13	52748.65
525.30	52699.50
525.47	52853.98
525.64	52926.53
525.81	52580.13
525.98	53024.84
526.16	52992.07
526.33	52989.73
526.50	52907.81
526.67	52935.90
526.84	53148.88
527.01	52758.02
527.18	53202.72
527.36	53249.53
527.53	52704.18
527.70	53684.87
527.87	53492.94
528.04	53237.83
528.21	53450.81
528.38	53677.85
528.55	53567.84
528.72	53495.28
528.89	53492.94
529.07	53694.23
529.24	53565.50
529.41	54117.87
529.58	53719.98
529.75	53851.05
529.92	54082.76
530.09	53939.99
530.26	54080.42
530.43	54227.87
530.60	53837.00
530.77	54082.76
530.94	53862.75
531.11	54265.32
531.28	54059.35
531.46	54274.68
531.63	54571.93
531.80	54497.03
531.97	54246.60
532.14	54663.21
532.31	54784.92
532.48	54705.34
532.65	54686.62
532.82	54625.76
532.99	54766.20
533.16	54698.32
533.33	55028.34
533.50	54946.42
533.67	54904.29
533.84	54887.90
534.01	55070.46
534.18	55133.66
534.35	55323.24
534.52	55302.18
534.69	55398.14
534.86	55299.84
535.03	55316.22
535.20	55365.37
535.37	55571.34
535.54	55580.70
535.71	55356.01
535.88	55526.87
536.05	55564.32
536.22	55564.32
536.38	55646.24
536.55	55880.29
536.72	55999.66
536.89	55489.42
537.06	55700.07
537.23	55910.72
537.40	55540.91
537.57	55831.14
537.74	55950.51
537.91	56317.97
538.08	56020.72
538.25	55758.58
538.42	55779.65
538.59	56245.41
538.75	55901.36
538.92	56163.50
539.09	56296.91
539.26	56172.86
539.43	56170.52
539.60	56540.32
539.77	56055.83
539.94	56769.69
540.11	56385.85
540.28	56718.20
540.44	56498.19
540.61	56416.27
540.78	56554.36
540.95	56383.51
541.12	56383.51
541.29	56608.20
541.46	56598.83
541.62	56563.73
541.79	56746.29
541.96	56626.92
542.13	56530.96
542.30	56811.82
542.47	57006.09
542.63	57162.90
542.80	57069.28
542.97	57179.29
543.14	57406.32
543.31	57148.86
543.48	57492.92
543.64	57593.56
543.81	57436.75
543.98	57495.26
544.15	57244.82
544.32	57867.40
544.48	57869.75
544.65	57228.44
544.82	57453.13
544.99	57811.23
545.16	57684.84
545.32	57694.21
545.49	57801.87
545.66	57703.57
545.83	57900.17
546.00	57893.15
546.16	57785.49
546.33	57776.12
546.50	57790.17
546.67	57787.83
546.83	57787.83
547.00	57675.48
547.17	57820.59
547.34	57705.91
547.50	58127.20
547.67	58108.48
547.84	58042.95
548.00	58159.97
548.17	58354.24
548.34	58120.18
548.51	58342.53
548.67	58316.79
548.84	58220.83
549.01	58127.20
549.18	58391.68
549.34	58461.90
549.51	58419.77
549.68	58494.67
549.84	58354.24
550.01	58796.60
550.18	58279.34
550.34	58562.54
550.51	58504.03
550.68	58592.97
550.84	58457.22
551.01	58702.98
551.18	58571.91
551.34	58578.93
551.51	58637.44
551.68	58726.38
551.84	58862.13
552.01	58805.96
552.18	58885.54
552.34	58686.59
552.51	58670.21
552.68	58618.72
552.84	58974.48
553.01	59023.63
553.18	58810.64
553.34	59089.16
553.51	58789.58
553.67	58927.67
553.84	59276.41
554.01	59049.38
554.17	59100.87
554.34	59117.25
554.51	58883.20
554.67	59241.30
554.84	59058.74
555.00	59206.19
555.17	59023.63
555.33	59283.43
555.50	59047.04
555.67	59203.85
555.83	58981.50
556.00	59281.09
556.16	59484.72
556.33	59327.90
556.50	59578.34
556.66	59505.78
556.83	59077.46
556.99	59566.63
557.16	59564.29
557.32	59503.44
557.49	59774.94
557.65	59503.44
557.82	59643.87
557.98	59505.78
558.15	59494.08
558.32	59821.75
558.48	59538.55
558.65	59463.65
558.81	59510.46
558.98	59751.54
559.14	59629.83
559.31	59566.63
559.47	59625.15
559.64	59826.43
559.80	59669.62
559.97	59781.96
560.13	59728.13
560.30	59917.71
560.46	59777.28
560.63	59849.84
560.79	59915.37
560.96	59824.09
561.12	60144.75
561.29	59870.90
561.45	60137.72
561.61	59877.93
561.78	59987.93
561.94	60016.02
562.11	60158.79
562.27	60114.32
562.44	60055.81
562.60	60154.11
562.77	59997.29
562.93	60086.23
563.10	60175.17
563.26	60074.53
563.42	60198.58
563.59	60018.36
563.75	60107.30
563.92	60236.03
564.08	60104.96
564.24	60425.61
564.41	60254.75
564.57	60339.01
564.74	60126.02
564.90	60193.90
565.07	60236.03
565.23	60240.71
565.39	60292.20
565.56	60294.54
565.72	60378.80
565.88	60219.64
566.05	60219.64
566.21	60247.73
566.38	60449.02
566.54	60530.93
566.70	60479.44
566.87	60533.28
567.03	60247.73
567.19	60516.89
567.36	60474.76
567.52	60343.69
567.68	60685.41
567.85	60509.87
568.01	60474.76
568.17	60346.03
568.34	60540.30
568.50	60388.16
568.66	60353.05
568.83	60617.53
568.99	60650.30
569.15	60472.42
569.32	60509.87
569.48	60561.36
569.64	60666.69
569.81	60444.33
569.97	60420.93
570.13	60456.04
570.30	60388.16
570.46	60715.84
570.62	60645.62
570.78	60549.66
570.95	60523.91
571.11	60764.99
571.27	60617.53
571.43	60540.30
571.60	60692.43
571.76	60783.71
571.92	60928.83
572.09	60858.61
572.25	60860.95
572.41	60449.02
572.57	60582.43
572.74	60797.76
572.90	60699.45
573.06	60905.42
573.22	60884.36
573.38	60797.76
573.55	60631.58
573.71	60825.84
573.87	60725.20
574.03	60603.49
574.20	60669.03
574.36	60671.37
574.52	60846.91
574.68	60811.80
574.84	60919.46
575.01	61095.00
575.17	60853.93
575.33	60779.03
575.49	60694.77
575.65	60802.44
575.82	61118.41
575.98	61041.17
576.14	61097.34
576.30	60952.23
576.46	60755.63
576.62	60954.57
576.79	60954.57
576.95	60718.18
577.11	60966.27
577.27	60954.57
577.43	60949.89
577.59	60921.80
577.75	60790.73
577.92	60851.59
578.08	60851.59
578.24	60961.59
578.40	60870.31
578.56	61015.43
578.72	60935.85
578.88	61111.39
579.04	61174.58
579.21	61193.31
579.37	61263.52
579.53	61205.01
579.69	60706.47
579.85	60907.76
580.01	61078.62
580.17	60872.65
580.33	61017.77
580.49	61268.20
580.65	61139.47
580.82	60877.33
580.98	60867.97
581.14	60818.82
581.30	61195.65
581.46	60945.21
581.62	61057.56
581.78	60942.87
581.94	61286.93
582.10	60860.95
582.26	61013.08
582.42	60818.82
582.58	61076.28
582.74	60877.33
582.90	61003.72
583.06	61066.92
583.22	60865.63
583.38	61090.32
583.54	60970.96
583.70	61092.66
583.86	61062.24
584.02	60865.63
584.18	61036.49
584.34	61076.28
584.50	61172.24
584.66	60992.02
584.82	61010.74
584.98	61336.08
585.14	61195.65
585.30	60992.02
585.46	61275.22
585.62	61090.32
585.78	61268.20
585.94	61022.45
586.10	61162.88
586.26	61165.22
586.42	61226.07
586.58	61226.07
586.74	61193.31
586.90	61048.19
587.06	60963.93
587.22	61137.13
587.38	61233.10
587.54	61300.97
587.70	61371.19
587.86	61174.58
588.02	61240.12
588.18	61310.33
588.34	61151.18
588.49	61244.80
