SpectraSuite Data File
++++++++++++++++++++++++++++++++++++
Date: Fri Oct 25 11:25:02 EDT 2013
User: price-jones
Dark Spectrum Present: No
Reference Spectrum Present: No
Number of Sampled Component Spectra: 1
Spectrometers: USB2+H05261
Integration Time (usec): 100000 (USB2+H05261)
Spectra Averaged: 1 (USB2+H05261)
Boxcar Smoothing: 0 (USB2+H05261)
Correct for Electrical Dark: No (USB2+H05261)
Strobe/Lamp Enabled: No (USB2+H05261)
Correct for Detector Non-linearity: No (USB2+H05261)
Correct for Stray Light: No (USB2+H05261)
Number of Pixels in Processed Spectrum: 2048
>>>>>Begin Processed Spectral Data<<<<<
365.73	194.26
365.92	194.26
366.12	194.26
366.32	131.07
366.52	145.11
366.72	170.86
366.91	201.29
367.11	63.19
367.31	131.07
367.51	112.35
367.70	147.45
367.90	154.48
368.10	74.90
368.30	91.28
368.49	100.64
368.69	133.41
368.89	159.16
369.09	163.84
369.28	191.92
369.48	128.73
369.68	173.20
369.87	170.86
370.07	140.43
370.27	264.48
370.47	355.76
370.66	564.07
370.86	620.24
371.06	566.41
371.25	601.52
371.45	645.99
371.65	645.99
371.84	643.65
372.04	671.73
372.24	688.12
372.44	734.93
372.63	685.78
372.83	725.57
373.03	786.42
373.22	849.61
373.42	823.87
373.62	795.78
373.81	772.38
374.01	873.02
374.21	704.50
374.40	770.04
374.60	807.48
374.79	828.55
374.99	875.36
375.19	809.83
375.38	791.10
375.58	894.08
375.78	889.40
375.97	947.92
376.17	828.55
376.37	861.32
376.56	849.61
376.76	866.00
376.95	957.28
377.15	896.43
377.35	849.61
377.54	851.96
377.74	898.77
377.93	929.19
378.13	851.96
378.33	943.24
378.52	908.13
378.72	980.68
378.91	992.39
379.11	968.98
379.31	987.71
379.50	983.02
379.70	943.24
379.89	947.92
380.09	999.41
380.28	922.17
380.48	908.13
380.68	945.58
380.87	915.15
381.07	940.90
381.26	971.32
381.46	1006.43
381.65	985.37
381.85	1046.22
382.04	1081.33
382.24	1081.33
382.43	983.02
382.63	1025.15
382.83	1043.88
383.02	1083.67
383.22	1114.10
383.41	1055.58
383.61	1071.97
383.80	1097.71
384.00	1095.37
384.19	1060.26
384.39	1130.48
384.58	1167.93
384.78	1111.75
384.97	1214.74
385.17	1198.35
385.36	1181.97
385.56	1158.57
385.75	1142.18
385.95	1144.52
386.14	1200.69
386.34	1158.57
386.53	1107.07
386.72	1212.40
386.92	1263.89
387.11	1270.91
387.31	1212.40
387.50	1299.00
387.70	1245.16
387.89	1149.20
388.09	1163.25
388.28	1212.40
388.48	1261.55
388.67	1289.64
388.86	1289.64
389.06	1317.72
389.25	1430.07
389.45	1373.89
389.64	1343.47
389.84	1324.74
390.03	1387.94
390.22	1404.32
390.42	1320.06
390.61	1355.17
390.81	1418.36
391.00	1418.36
391.19	1444.11
391.39	1439.43
391.58	1434.75
391.78	1488.58
391.97	1427.73
392.16	1430.07
392.36	1540.07
392.55	1603.27
392.75	1542.41
392.94	1502.62
393.13	1572.84
393.33	1540.07
393.52	1519.01
393.71	1540.07
393.91	1657.10
394.10	1481.56
394.29	1617.31
394.49	1493.26
394.68	1626.67
394.88	1696.89
395.07	1572.84
395.26	1708.59
395.46	1591.56
395.65	1769.44
395.84	1734.34
396.04	1837.32
396.23	1631.35
396.42	1804.55
396.62	1727.32
396.81	1727.32
397.00	1820.94
397.19	1741.36
397.39	1734.34
397.58	1753.06
397.77	1844.34
397.97	1776.47
398.16	1804.55
398.35	1895.83
398.55	1717.95
398.74	1771.79
398.93	1942.64
399.12	1944.99
399.32	1853.70
399.51	1909.88
399.70	2073.71
399.90	1863.07
400.09	2040.95
400.28	2047.97
400.47	1989.46
400.67	2054.99
400.86	2097.12
401.05	2092.44
401.24	2054.99
401.44	2167.34
401.63	2031.58
401.82	2094.78
402.01	2083.08
402.21	2141.59
402.40	2157.97
402.59	2157.97
402.78	2127.55
402.97	2265.64
403.17	2230.53
403.36	2239.89
403.55	2286.70
403.74	2286.70
403.93	2335.85
404.13	2251.60
404.32	2375.64
404.51	2445.86
404.70	2434.16
404.89	2427.14
405.09	2490.33
405.28	2366.28
405.47	2422.45
405.66	2588.63
405.85	2495.01
406.05	2520.76
406.24	2452.88
406.43	2436.50
406.62	2595.65
406.81	2686.94
407.00	2532.46
407.20	2551.18
407.39	2651.83
407.58	2588.63
407.77	2789.92
407.96	2684.59
408.15	2691.62
408.34	2665.87
408.54	2736.09
408.73	2736.09
408.92	2867.16
409.11	2967.80
409.30	2888.22
409.49	2874.18
409.68	2869.50
409.87	2888.22
410.07	3002.91
410.26	2963.12
410.45	3014.61
410.64	3042.70
410.83	3007.59
411.02	3056.74
411.21	3162.06
411.40	3098.87
411.59	3063.76
411.78	3187.81
411.98	3117.59
412.17	3419.52
412.36	3234.62
412.55	3391.44
412.74	3508.46
412.93	3332.92
413.12	3218.24
413.31	3454.63
413.50	3375.05
413.69	3534.21
413.88	3583.36
414.07	3454.63
414.26	3581.02
414.45	3676.98
414.64	3611.45
414.83	3651.24
415.02	3613.79
415.22	3726.13
415.41	3908.69
415.60	3885.29
415.79	3948.48
415.98	3859.54
416.17	3948.48
416.36	4009.34
416.55	3955.51
416.74	3936.78
416.93	4011.68
417.12	4002.32
417.31	4173.18
417.50	4257.43
417.69	4367.44
417.88	4337.01
418.07	4091.26
418.26	4355.74
418.45	4329.99
418.64	4489.15
418.83	4465.74
419.02	4355.74
419.21	4557.02
419.39	4456.38
419.58	4311.27
419.77	4451.70
419.96	4594.47
420.15	4601.49
420.34	4585.11
420.53	4596.81
420.72	4585.11
420.91	4631.92
421.10	4692.77
421.29	4945.55
421.48	4636.60
421.67	4667.03
421.86	4861.29
422.05	4671.71
422.24	4798.10
422.43	4924.49
422.61	4875.34
422.80	4891.72
422.99	4957.25
423.18	5055.56
423.37	4954.91
423.56	4947.89
423.75	4905.76
423.94	4774.69
424.13	4671.71
424.32	4741.93
424.50	5027.47
424.69	5025.13
424.88	5011.09
425.07	5013.43
425.26	4877.68
425.45	5064.92
425.64	4940.87
425.83	4854.27
426.01	4936.19
426.20	5123.43
426.39	4945.55
426.58	4917.47
426.77	4954.91
426.96	5123.43
427.15	5130.45
427.33	5041.51
427.52	5212.37
427.71	5336.42
427.90	5247.48
428.09	5214.71
428.28	5390.25
428.46	5270.89
428.65	5256.84
428.84	5551.75
429.03	5483.88
429.22	5303.65
429.40	5423.02
429.59	5357.49
429.78	5310.68
429.97	5240.46
430.16	5401.96
430.34	5600.90
430.53	5619.63
430.72	5535.37
430.91	5582.18
431.10	5717.93
431.28	5636.01
431.47	5867.72
431.66	5919.21
431.85	5661.76
432.03	5823.25
432.22	5809.21
432.41	5912.19
432.60	5764.74
432.79	5853.68
432.97	5893.47
433.16	6059.65
433.35	5998.79
433.54	6019.86
433.72	5942.62
433.91	6104.12
434.10	6071.35
434.28	6267.95
434.47	6101.78
434.66	6413.07
434.85	6150.93
435.03	6377.96
435.22	6284.34
435.41	6380.30
435.59	6537.12
435.78	6363.92
435.97	6356.90
436.16	6438.81
436.34	6569.88
436.53	6354.55
436.72	6766.49
436.90	6424.77
437.09	6581.59
437.28	6307.74
437.46	6635.42
437.65	6703.29
437.84	6822.66
438.02	6764.15
438.21	6712.66
438.40	6609.67
438.58	6899.90
438.77	7035.65
438.96	6850.75
439.14	6995.86
439.33	7356.30
439.52	7318.86
439.70	7126.93
439.89	7117.57
440.08	7332.90
440.26	7295.45
440.45	7372.69
440.63	7351.62
440.82	7520.14
441.01	7442.90
441.19	7552.91
441.38	7723.77
441.57	7857.18
441.75	7906.33
441.94	8039.74
442.12	7901.65
442.31	7946.12
442.50	7894.63
442.68	7995.27
442.87	7943.78
443.05	8116.98
443.24	8231.66
443.43	8198.90
443.61	8231.66
443.80	8564.02
443.98	8107.62
444.17	7784.62
444.35	8231.66
444.54	8351.03
444.73	8091.23
444.91	8273.79
445.10	8472.74
445.28	8325.29
445.47	8381.46
445.65	8332.31
445.84	8344.01
446.02	8444.65
446.21	8407.20
446.39	8299.54
446.58	8465.72
446.77	8463.38
446.95	8163.79
447.14	8526.57
447.32	8610.83
447.51	8475.08
447.69	8381.46
447.88	8383.80
448.06	8498.49
448.25	8369.76
448.43	8542.96
448.62	8631.90
448.80	8620.19
448.99	8784.03
449.17	8842.54
449.36	8589.77
449.54	8723.18
449.73	8819.14
449.91	8767.65
450.10	8952.55
450.28	9142.13
450.46	8915.10
450.65	9078.94
450.83	9153.84
451.02	9212.35
451.20	9104.68
451.39	9006.38
451.57	9303.63
451.76	8982.98
451.94	9055.53
452.13	9254.48
452.31	9249.80
452.49	9029.79
452.68	9235.75
452.86	9458.10
453.05	9357.46
453.23	9371.50
453.42	9270.86
453.60	9287.25
453.78	9465.13
453.97	9317.67
454.15	9467.47
454.34	9540.02
454.52	9720.24
454.70	9647.69
454.89	9633.64
455.07	10001.11
455.26	9884.08
455.44	10120.48
455.62	9916.85
455.81	9902.81
455.99	10111.11
456.17	10099.41
456.36	10143.88
456.54	10258.57
456.73	10052.60
456.91	10373.25
457.09	10375.59
457.28	10661.14
457.46	10300.70
457.64	10663.48
457.83	10438.79
458.01	10455.17
458.19	10759.44
458.38	10623.69
458.56	10707.95
458.74	10668.16
458.93	10501.98
459.11	10682.20
459.29	10815.62
459.48	10785.19
459.66	10808.59
459.84	10883.49
460.03	11035.63
460.21	10803.91
460.39	10874.13
460.57	11077.76
460.76	11169.04
460.94	11246.27
461.12	11262.66
461.31	11197.12
461.49	11171.38
461.67	11061.37
461.85	11459.26
462.04	11257.98
462.22	11929.71
462.40	11552.88
462.59	11342.24
462.77	11286.06
462.95	11693.32
463.13	11592.67
463.32	11527.14
463.50	11756.51
463.68	11592.67
463.86	11889.92
464.05	11822.05
464.23	11754.17
464.41	12037.38
464.59	11534.16
464.78	12231.64
464.96	11995.25
465.14	11946.09
465.32	12283.13
465.50	12187.17
465.69	12278.45
465.87	12170.79
466.05	12107.59
466.23	12109.93
466.41	12030.35
466.60	12470.37
466.78	12215.26
466.96	12149.72
467.14	12269.09
467.32	12238.66
467.51	12325.26
467.69	12318.24
467.87	12283.13
468.05	12594.42
468.23	12517.18
468.41	12360.37
468.60	12727.83
468.78	12795.71
468.96	12725.49
469.14	12823.80
469.32	12978.27
469.50	12772.30
469.69	12683.36
469.87	12915.08
470.05	13167.85
470.23	13076.57
470.41	13036.78
470.59	13568.09
470.77	12931.46
470.95	13043.81
471.14	13324.67
471.32	13359.78
471.50	13497.87
471.68	13612.56
471.86	13657.03
472.04	13694.47
472.22	14094.71
472.40	13647.66
472.58	13893.42
472.77	13970.66
472.95	14001.08
473.13	14310.04
473.31	14031.51
473.49	13984.70
473.67	13989.38
473.85	14401.32
474.03	14312.38
474.21	14539.41
474.39	14656.43
474.57	14717.29
474.75	14761.76
474.93	14850.70
475.12	15014.54
475.30	15056.67
475.48	15012.20
475.66	15075.39
475.84	15227.53
476.02	15513.07
476.20	15386.68
476.38	15611.37
476.56	16042.03
476.74	15887.56
476.92	15873.51
477.10	15962.45
477.28	16107.57
477.46	15983.52
477.64	16395.45
477.82	16404.81
478.00	16608.44
478.18	16442.26
478.36	16702.06
478.54	16943.14
478.72	16996.97
478.90	17240.39
479.08	17734.24
479.26	17434.65
479.44	17600.83
479.62	17818.50
479.80	17834.88
479.98	18150.85
480.16	18705.56
480.34	18518.32
480.52	18511.30
480.70	18523.00
480.88	18349.80
481.06	18665.77
481.24	18717.26
481.41	19033.24
481.59	19229.84
481.77	19536.45
481.95	19410.06
482.13	20016.26
482.31	19566.88
482.49	20130.95
482.67	20421.17
482.85	20416.49
483.03	20758.21
483.21	20514.80
483.39	20947.79
483.57	20716.08
483.74	20851.83
483.92	21343.35
484.10	21219.30
484.28	21715.49
484.46	22167.21
484.64	22354.46
484.82	22050.19
485.00	22068.91
485.18	22632.98
485.35	22885.76
485.53	22803.84
485.71	22881.08
485.89	23461.53
486.07	23260.24
486.25	23248.54
486.43	23510.68
486.61	23936.66
486.78	24004.53
486.96	23962.40
487.14	24531.15
487.32	24519.45
487.50	24699.67
487.68	25057.78
487.85	25020.33
488.03	25720.15
488.21	25855.90
488.39	25771.64
488.57	26031.44
488.75	26113.36
488.92	26363.79
489.10	26918.50
489.28	26632.96
489.46	27007.44
489.64	26897.44
489.81	27754.07
489.99	27456.82
490.17	27962.38
490.35	28203.46
490.53	27941.32
490.70	28271.33
490.88	27821.95
491.06	28835.40
491.24	28627.09
491.41	28779.23
491.59	29532.88
491.77	29291.80
491.95	29811.40
492.13	29699.06
492.30	29928.43
492.48	29710.76
492.66	30618.89
492.84	30169.51
493.01	30756.98
493.19	30579.10
493.37	30979.33
493.54	31152.53
493.72	31693.19
493.90	31316.37
494.08	31707.24
494.25	31821.92
494.43	32170.66
494.61	31969.38
494.79	32566.21
494.96	32570.90
495.14	32734.73
495.32	32582.60
495.49	33209.86
495.67	32797.93
495.85	33221.56
496.02	33736.48
496.20	34010.32
496.38	33949.47
496.55	34115.65
496.73	34670.36
496.91	34700.78
497.09	34335.66
497.26	34731.21
497.44	35140.80
497.62	35276.55
497.79	35337.41
497.97	35241.45
498.14	35819.56
498.32	36081.70
498.50	36425.76
498.67	36514.70
498.85	36842.37
499.03	36495.97
499.20	36818.97
499.38	36554.49
499.56	36711.30
499.73	37006.21
499.91	37120.90
500.08	37453.25
500.26	37605.39
500.44	37298.78
500.61	37958.81
500.79	37603.05
500.97	38401.17
501.14	38550.96
501.32	38492.45
501.49	37986.89
501.67	38550.96
501.84	38962.90
502.02	39021.41
502.20	38892.68
502.37	39218.02
502.55	38752.25
502.72	39260.15
502.90	39849.96
503.07	39393.56
503.25	39660.38
503.43	39491.86
503.60	40264.24
503.78	40591.91
503.95	40315.73
504.13	40334.45
504.30	40205.72
504.48	40205.72
504.65	40591.91
504.83	40961.72
505.01	41134.92
505.18	40793.20
505.36	41242.58
505.53	41123.21
505.71	41301.09
505.88	41675.58
506.06	41153.64
506.23	41823.03
506.41	41603.02
506.58	41895.59
506.76	42263.05
506.93	42342.63
507.11	42504.13
507.28	42572.00
507.46	42909.04
507.63	42906.70
507.81	43377.15
507.98	42792.01
508.16	43335.02
508.33	43629.93
508.50	43133.73
508.68	43407.58
508.85	44032.50
509.03	43800.79
509.20	43412.26
509.38	44254.85
509.55	44392.94
509.73	44336.77
509.90	44868.07
510.08	44547.42
510.25	44140.16
510.42	44032.50
510.60	44875.09
510.77	44935.95
510.95	45120.85
511.12	45242.56
511.30	45331.50
511.47	45455.54
511.64	45186.38
511.82	45764.49
511.99	45188.72
512.17	45998.55
512.34	45563.21
512.51	46326.22
512.69	46307.50
512.86	45825.35
513.04	46162.39
513.21	46260.69
513.38	46457.29
513.56	46454.95
513.73	46705.39
513.90	46990.94
514.08	46930.08
514.25	46955.83
514.43	47299.89
514.60	47152.43
514.77	47089.24
514.95	47356.06
515.12	47576.07
515.29	47419.25
515.47	47760.97
515.64	48055.88
515.81	47770.33
515.99	48467.81
516.16	48357.81
516.33	48659.74
516.51	48575.48
516.68	47929.49
516.85	48729.95
517.03	48633.99
517.20	48753.36
517.37	48678.46
517.54	48559.09
517.72	48786.13
517.89	48938.26
518.06	49034.22
518.24	49043.59
518.41	49270.62
518.58	49198.06
518.75	49411.05
518.93	49331.47
519.10	49083.37
519.27	49705.96
519.45	49853.41
519.62	49998.52
519.79	49954.05
519.96	49731.70
520.14	50054.70
520.31	49745.75
520.48	50195.13
520.65	50309.82
520.83	50581.32
521.00	50607.06
521.17	50639.83
521.34	50794.31
521.52	50923.04
521.69	50901.97
521.86	50972.19
522.03	51056.45
522.20	51159.43
522.38	51442.63
522.55	51590.09
522.72	51379.44
522.89	51339.65
523.07	51728.18
523.24	51484.76
523.41	51824.14
523.58	51564.34
523.75	51407.53
523.92	51606.47
524.10	51882.66
524.27	51756.27
524.44	51917.76
524.61	51901.38
524.78	52069.90
524.96	52222.03
525.13	52100.32
525.30	52074.58
525.47	52477.15
525.64	52502.90
525.81	52561.41
525.98	52493.54
526.16	52470.13
526.33	52456.09
526.50	53064.63
526.67	52580.13
526.84	53223.78
527.01	52968.66
527.18	52963.98
527.36	52631.63
527.53	52933.56
527.70	53237.83
527.87	53469.54
528.04	53146.54
528.21	53183.99
528.38	53282.30
528.55	53268.25
528.72	53034.20
528.89	53474.22
529.07	53251.87
529.24	53689.55
529.41	53485.92
529.58	53633.38
529.75	53563.16
529.92	53762.11
530.09	53607.63
530.26	53670.82
530.43	54031.27
530.60	53792.53
530.77	53970.41
530.94	53900.20
531.11	54010.20
531.28	54038.29
531.46	54237.23
531.63	54183.40
531.80	54094.46
531.97	54141.27
532.14	54436.18
532.31	54314.47
532.48	54433.84
532.65	54323.83
532.82	54295.75
532.99	54513.42
533.16	54609.38
533.33	54820.03
533.50	54817.69
533.67	54649.17
533.84	54525.12
534.01	54593.00
534.18	54780.24
534.35	54986.21
534.52	55023.65
534.69	55124.30
534.86	55344.31
535.03	54871.52
535.20	55065.78
535.37	55079.83
535.54	55344.31
535.71	55255.37
535.88	55210.90
536.05	55393.46
536.22	55578.36
536.38	55353.67
536.55	55669.64
536.72	55725.81
536.89	55498.78
537.06	55627.51
537.23	55828.80
537.40	55501.12
537.57	55756.24
537.74	55620.49
537.91	55732.84
538.08	55870.93
538.25	55779.65
538.42	55730.50
538.59	55891.99
538.75	55899.01
538.92	56186.90
539.09	56039.45
539.26	55744.54
539.43	56229.03
539.60	56114.34
539.77	56156.47
539.94	56479.47
540.11	56109.66
540.28	56233.71
540.44	56252.44
540.61	56278.18
540.78	56243.07
540.95	56353.08
541.12	56350.74
541.29	56427.98
541.46	56296.91
541.62	56350.74
541.79	56465.42
541.96	56294.56
542.13	56418.61
542.30	56633.94
542.47	56772.03
542.63	56917.15
542.80	56882.04
542.97	57151.20
543.14	57165.24
543.31	57062.26
543.48	56814.16
543.64	57329.08
543.81	57176.95
543.98	57284.61
544.15	57301.00
544.32	57396.96
544.48	57434.41
544.65	57123.11
544.82	57345.47
544.99	57230.78
545.16	57338.44
545.32	57436.75
545.49	57347.81
545.66	57539.73
545.83	57492.92
546.00	57680.16
546.16	57701.23
546.33	57322.06
546.50	57380.57
546.67	57708.25
546.83	57195.67
547.00	57832.30
547.17	57689.52
547.34	57691.86
547.50	57954.00
547.67	58019.54
547.84	57946.98
548.00	57928.26
548.17	58286.36
548.34	58024.22
548.51	58089.76
548.67	58120.18
548.84	58166.99
549.01	57984.43
549.18	58096.78
549.34	58174.02
549.51	58176.36
549.68	58049.97
549.84	58480.63
550.01	58466.58
550.18	58094.44
550.34	58248.91
550.51	58375.30
550.68	58403.39
550.84	58106.14
551.01	58595.31
551.18	58480.63
551.34	58426.79
551.51	58599.99
551.68	58548.50
551.84	58628.08
552.01	58443.18
552.18	58740.42
552.34	58557.86
552.51	58410.41
552.68	58497.01
552.84	58625.74
553.01	59119.59
553.18	58674.89
553.34	58820.00
553.51	58724.04
553.67	58754.47
553.84	58915.96
554.01	58674.89
554.17	58904.26
554.34	58841.07
554.51	59217.89
554.67	59068.10
554.84	58918.31
555.00	59016.61
555.17	58927.67
555.33	59133.63
555.50	58756.81
555.67	59044.69
555.83	58878.52
556.00	59121.93
556.16	59365.35
556.33	59267.05
556.50	59182.79
556.66	59370.03
556.83	58918.31
556.99	59437.90
557.16	59344.28
557.32	59398.12
557.49	59444.93
557.65	59049.38
557.82	59557.27
557.98	59260.02
558.15	59325.56
558.32	59299.81
558.48	59625.15
558.65	59428.54
558.81	59552.59
558.98	59721.11
559.14	59402.80
559.31	59735.15
559.47	59723.45
559.64	59592.38
559.80	59723.45
559.97	59756.22
560.13	59395.77
560.30	59894.31
560.46	59788.98
560.63	59641.53
560.79	59812.39
560.96	59814.73
561.12	59622.81
561.29	59648.55
561.45	59704.73
561.61	59711.75
561.78	59861.54
561.94	59704.73
562.11	59664.94
562.27	59877.93
562.44	59917.71
562.60	60009.00
562.77	59887.29
562.93	59835.80
563.10	60104.96
563.26	59704.73
563.42	60154.11
563.59	59875.58
563.75	59978.57
563.92	59938.78
564.08	60037.08
564.24	60147.09
564.41	60193.90
564.57	60048.78
564.74	59962.18
564.90	60179.85
565.07	60128.36
565.23	59929.42
565.39	60069.85
565.56	60104.96
565.72	60060.49
565.88	59915.37
566.05	59952.82
566.21	60161.13
566.38	60198.58
566.54	60257.09
566.70	60273.48
566.87	60303.90
567.03	60191.56
567.19	60339.01
567.36	60360.08
567.52	60507.53
567.68	60561.36
567.85	60245.39
568.01	60451.36
568.17	60133.04
568.34	60381.14
568.50	60364.76
568.66	60280.50
568.83	60371.78
568.99	60427.95
569.15	60364.76
569.32	60200.92
569.48	60395.18
569.64	60498.17
569.81	60385.82
569.97	60472.42
570.13	60589.45
570.30	60191.56
570.46	60568.38
570.62	60493.49
570.78	60603.49
570.95	60498.17
571.11	60692.43
571.27	60296.88
571.43	60212.62
571.60	60523.91
571.76	60383.48
571.92	60680.73
572.09	60605.83
572.25	60514.55
572.41	60385.82
572.57	60463.06
572.74	60809.46
572.90	60594.13
573.06	60554.34
573.22	60458.38
573.38	60631.58
573.55	60547.32
573.71	60842.23
573.87	60713.50
574.03	60502.85
574.20	60654.98
574.36	60619.88
574.52	60769.67
574.68	60755.63
574.84	60762.65
575.01	60647.96
575.17	60598.81
575.33	60622.22
575.49	60505.19
575.65	60814.14
575.82	60823.50
575.98	60912.44
576.14	60729.88
576.30	60528.59
576.46	60741.58
576.62	60514.55
576.79	60729.88
576.95	60692.43
577.11	60786.05
577.27	60727.54
577.43	60748.60
577.59	60636.26
577.75	60762.65
577.92	60582.43
578.08	60664.35
578.24	60725.20
578.40	60942.87
578.56	60807.12
578.72	60732.22
578.88	60865.63
579.04	60952.23
579.21	60767.33
579.37	60952.23
579.53	60945.21
579.69	60706.47
579.85	60858.61
580.01	60657.32
580.17	60521.57
580.33	61001.38
580.49	61064.58
580.65	60790.73
580.82	60893.72
580.98	60608.17
581.14	60720.52
581.30	61008.40
581.46	60748.60
581.62	61106.71
581.78	60772.01
581.94	60973.30
582.10	60750.94
582.26	60910.10
582.42	60680.73
582.58	60956.91
582.74	60598.81
582.90	60898.40
583.06	61024.79
583.22	60774.35
583.38	60947.55
583.54	60739.24
583.70	60851.59
583.86	60835.20
584.02	60786.05
584.18	61118.41
584.34	60856.27
584.50	60963.93
584.66	60654.98
584.82	60743.92
584.98	60931.17
585.14	61034.15
585.30	60692.43
585.46	61095.00
585.62	61041.17
585.78	61097.34
585.94	60940.53
586.10	60931.17
586.26	60933.51
586.42	61120.75
586.58	60903.08
586.74	61008.40
586.90	60954.57
587.06	60774.35
587.22	61226.07
587.38	60945.21
587.54	61071.60
587.70	61066.92
587.86	60940.53
588.02	61036.49
588.18	61095.00
588.34	60914.78
588.49	61043.51
