SpectraSuite Data File
++++++++++++++++++++++++++++++++++++
Date: Fri Oct 25 10:43:24 EDT 2013
User: price-jones
Dark Spectrum Present: No
Reference Spectrum Present: No
Number of Sampled Component Spectra: 1
Spectrometers: USB2+H05261
Integration Time (usec): 100000 (USB2+H05261)
Spectra Averaged: 1 (USB2+H05261)
Boxcar Smoothing: 0 (USB2+H05261)
Correct for Electrical Dark: No (USB2+H05261)
Strobe/Lamp Enabled: No (USB2+H05261)
Correct for Detector Non-linearity: No (USB2+H05261)
Correct for Stray Light: No (USB2+H05261)
Number of Pixels in Processed Spectrum: 2048
>>>>>Begin Processed Spectral Data<<<<<
365.73	95.96
365.92	95.96
366.12	95.96
366.32	23.41
366.52	11.70
366.72	30.43
366.91	110.01
367.11	18.72
367.31	0.00
367.51	0.00
367.70	0.00
367.90	0.00
368.10	0.00
368.30	114.69
368.49	0.00
368.69	63.19
368.89	46.81
369.09	0.00
369.28	58.51
369.48	28.09
369.68	117.03
369.87	0.00
370.07	81.92
370.27	133.41
370.47	128.73
370.66	360.44
370.86	379.17
371.06	440.02
371.25	587.47
371.45	442.36
371.65	449.38
371.84	362.78
372.04	425.98
372.24	482.15
372.44	454.06
372.63	521.94
372.83	524.28
373.03	528.96
373.22	505.56
373.42	510.24
373.62	559.39
373.81	547.69
374.01	613.22
374.21	545.34
374.40	545.34
374.60	568.75
374.79	587.47
374.99	594.50
375.19	566.41
375.38	512.58
375.58	620.24
375.78	582.79
375.97	620.24
376.17	603.86
376.37	580.45
376.56	671.73
376.76	554.71
376.95	648.33
377.15	688.12
377.35	674.07
377.54	657.69
377.74	535.98
377.93	580.45
378.13	667.05
378.33	641.31
378.52	641.31
378.72	655.35
378.91	631.94
379.11	599.18
379.31	629.60
379.50	641.31
379.70	744.29
379.89	716.20
380.09	587.47
380.28	669.39
380.48	678.76
380.68	653.01
380.87	770.04
381.07	716.20
381.26	744.29
381.46	704.50
381.65	678.76
381.85	767.70
382.04	711.52
382.24	786.42
382.43	669.39
382.63	681.10
382.83	664.71
383.02	765.36
383.22	732.59
383.41	629.60
383.61	692.80
383.80	725.57
384.00	791.10
384.19	802.80
384.39	770.04
384.58	847.27
384.78	791.10
384.97	772.38
385.17	786.42
385.36	786.42
385.56	765.36
385.75	758.33
385.95	753.65
386.14	786.42
386.34	870.68
386.53	851.96
386.72	786.42
386.92	924.51
387.11	919.83
387.31	842.59
387.50	863.66
387.70	870.68
387.89	826.21
388.09	919.83
388.28	830.89
388.48	837.91
388.67	943.24
388.86	929.19
389.06	910.47
389.25	884.72
389.45	973.66
389.64	983.02
389.84	976.00
390.03	936.21
390.22	1008.77
390.42	894.08
390.61	954.94
390.81	940.90
391.00	1121.12
391.19	1097.71
391.39	1004.09
391.58	1057.92
391.78	1078.99
391.97	1067.28
392.16	1025.15
392.36	1029.84
392.55	994.73
392.75	873.02
392.94	994.73
393.13	922.17
393.33	1022.81
393.52	1057.92
393.71	1125.80
393.91	1060.26
394.10	1029.84
394.29	1160.91
394.49	1111.75
394.68	1174.95
394.88	1151.54
395.07	1252.19
395.26	1247.51
395.46	1102.39
395.65	1200.69
395.84	1256.87
396.04	1221.76
396.23	1095.37
396.42	1214.74
396.62	1132.82
396.81	1203.04
397.00	1284.95
397.19	1228.78
397.39	1247.51
397.58	1411.34
397.77	1238.14
397.97	1331.76
398.16	1387.94
398.35	1483.90
398.55	1362.19
398.74	1535.39
398.93	1399.64
399.12	1469.86
399.32	1334.11
399.51	1383.26
399.70	1565.82
399.90	1497.94
400.09	1437.09
400.28	1519.01
400.47	1507.30
400.67	1593.90
400.86	1647.74
401.05	1668.80
401.24	1624.33
401.44	1638.38
401.63	1586.88
401.82	1680.50
402.01	1785.83
402.21	1678.16
402.40	1703.91
402.59	1760.08
402.78	1703.91
402.97	1799.87
403.17	1849.02
403.36	1755.40
403.55	1767.10
403.74	1844.34
403.93	1748.38
404.13	1741.36
404.32	1797.53
404.51	1975.41
404.70	2001.16
404.89	1952.01
405.09	1973.07
405.28	1961.37
405.47	1806.89
405.66	1998.82
405.85	1961.37
406.05	1921.58
406.24	1933.28
406.43	1937.96
406.62	2005.84
406.81	2047.97
407.00	1902.86
407.20	1982.43
407.39	2029.24
407.58	2050.31
407.77	2026.90
407.96	2118.18
408.15	2148.61
408.34	2204.78
408.54	2216.49
408.73	2340.54
408.92	2310.11
409.11	2296.07
409.30	2291.38
409.49	2352.24
409.68	2193.08
409.87	2289.04
410.07	2162.66
410.26	2335.85
410.45	2235.21
410.64	2284.36
410.83	2523.10
411.02	2427.14
411.21	2471.61
411.40	2487.99
411.59	2586.29
411.78	2588.63
411.98	2614.38
412.17	2583.95
412.36	2560.55
412.55	2595.65
412.74	2663.53
412.93	2771.19
413.12	2651.83
413.31	2750.13
413.50	2834.39
413.69	2785.24
413.88	2787.58
414.07	2773.53
414.26	2834.39
414.45	2860.13
414.64	2890.56
414.83	2885.88
415.02	3082.49
415.22	3068.44
415.41	3138.66
415.60	3014.61
415.79	3133.98
415.98	3192.49
416.17	3215.90
416.36	3262.71
416.55	3232.28
416.74	3241.64
416.93	3208.87
417.12	3293.13
417.31	3382.07
417.50	3239.30
417.69	3330.58
417.88	3297.81
418.07	3410.16
418.26	3403.14
418.45	3414.84
418.64	3564.64
418.83	3412.50
419.02	3463.99
419.21	3536.55
419.39	3454.63
419.58	3515.48
419.77	3440.59
419.96	3726.13
420.15	3536.55
420.34	3705.07
420.53	3728.47
420.72	3796.35
420.91	3794.01
421.10	3765.92
421.29	3784.65
421.48	3627.83
421.67	3756.56
421.86	3648.90
422.05	3775.28
422.24	3763.58
422.43	3728.47
422.61	3779.97
422.80	3824.44
422.99	3873.59
423.18	3801.03
423.37	4030.40
423.56	3892.31
423.75	4011.68
423.94	3782.31
424.13	3543.57
424.32	3789.33
424.50	3934.44
424.69	3866.56
424.88	3967.21
425.07	3911.04
425.26	3927.42
425.45	3908.69
425.64	3857.20
425.83	4011.68
426.01	3969.55
426.20	3901.67
426.39	3918.06
426.58	3894.65
426.77	3962.53
426.96	3913.38
427.15	3868.91
427.33	3955.51
427.52	3904.01
427.71	4105.30
427.90	4028.06
428.09	4067.85
428.28	4234.03
428.46	4177.86
428.65	4154.45
428.84	4198.92
429.03	4161.47
429.22	4016.36
429.40	3913.38
429.59	3964.87
429.78	3843.16
429.97	3913.38
430.16	3875.93
430.34	3981.25
430.53	4079.55
430.72	4074.87
430.91	4063.17
431.10	4313.61
431.28	4388.50
431.47	4489.15
431.66	4650.64
431.85	4414.25
432.03	4622.56
432.22	4615.54
432.41	4589.79
432.60	4559.36
432.79	4585.11
432.97	4535.96
433.16	4683.41
433.35	4645.96
433.54	4550.00
433.72	4550.00
433.91	4622.56
434.10	4676.39
434.28	4734.90
434.47	4873.00
434.66	4725.54
434.85	4755.97
435.03	4908.10
435.22	4882.36
435.41	5034.49
435.59	5020.45
435.78	4835.55
435.97	5085.98
436.16	5097.69
436.34	4915.12
436.53	5121.09
436.72	5238.12
436.90	5027.47
437.09	5062.58
437.28	4992.36
437.46	5095.35
437.65	5109.39
437.84	5036.83
438.02	4947.89
438.21	5219.39
438.40	5015.77
438.58	5195.99
438.77	5385.57
438.96	5275.57
439.14	5497.92
439.33	5675.80
439.52	5537.71
439.70	5469.83
439.89	5554.09
440.08	5640.69
440.26	5584.52
440.45	5720.27
440.63	5799.85
440.82	5879.43
441.01	5851.34
441.19	5837.30
441.38	5912.19
441.57	5879.43
441.75	5914.53
441.94	6326.47
442.12	6225.82
442.31	6176.67
442.50	6125.18
442.68	6349.87
442.87	6216.46
443.05	6293.70
443.24	6326.47
443.43	6459.88
443.61	6377.96
443.80	6422.43
443.98	6148.59
444.17	6347.53
444.35	6427.11
444.54	6487.96
444.73	6361.58
444.91	6399.02
445.10	6478.60
445.28	6183.70
445.47	6235.19
445.65	6256.25
445.84	6427.11
446.02	6497.33
446.21	6520.73
446.39	6417.75
446.58	6497.33
446.77	6572.22
446.95	6565.20
447.14	6604.99
447.32	6675.21
447.51	6579.25
447.69	6553.50
447.88	6518.39
448.06	6569.88
448.25	6558.18
448.43	6696.27
448.62	6663.51
448.80	6558.18
448.99	6766.49
449.17	6771.17
449.36	6523.07
449.54	6991.18
449.73	6927.99
449.91	7105.87
450.10	7021.61
450.28	7096.50
450.46	7173.74
450.65	7126.93
450.83	7077.78
451.02	7087.14
451.20	7136.29
451.39	7155.02
451.57	7253.32
451.76	7206.51
451.94	6906.92
452.13	7096.50
452.31	7014.59
452.49	7194.81
452.68	7159.70
452.86	7101.19
453.05	7255.66
453.23	7227.57
453.42	7140.97
453.60	7155.02
453.78	7295.45
453.97	7145.66
454.15	7412.48
454.34	7215.87
454.52	7506.10
454.70	7325.88
454.89	7307.15
455.07	7358.64
455.26	7520.14
455.44	7590.36
455.62	7557.59
455.81	7658.23
455.99	7763.56
456.17	7658.23
456.36	7761.22
456.54	7714.41
456.73	7730.79
456.91	8173.15
457.09	7971.86
457.28	8006.97
457.46	7967.18
457.64	8013.99
457.83	8067.83
458.01	7805.69
458.19	8112.30
458.38	8006.97
458.56	8086.55
458.74	8140.38
458.93	8145.06
459.11	8053.78
459.29	8161.45
459.48	8362.73
459.66	8177.83
459.84	8280.82
460.03	8493.80
460.21	8306.56
460.39	8489.12
460.57	8243.37
460.76	8571.04
460.94	8292.52
461.12	8423.59
461.31	8500.83
461.49	8425.93
461.67	8517.21
461.85	8547.64
462.04	8805.10
462.22	9111.71
462.40	8697.43
462.59	8655.30
462.77	8690.41
462.95	8709.13
463.13	8807.44
463.32	8674.03
463.50	8957.23
463.68	9097.66
463.86	8961.91
464.05	8732.54
464.23	8695.09
464.41	8706.79
464.59	8856.59
464.78	9015.74
464.96	8924.46
465.14	8903.40
465.32	8966.59
465.50	9085.96
465.69	9200.65
465.87	9083.62
466.05	9020.42
466.23	8870.63
466.41	9060.21
466.60	9146.81
466.78	8982.98
466.96	9202.99
467.14	9177.24
467.32	9334.06
467.51	9214.69
467.69	9240.44
467.87	9305.97
468.05	9390.23
468.23	9369.16
468.41	9069.58
468.60	9317.67
468.78	9535.34
468.96	9338.74
469.14	9638.33
469.32	9736.63
469.50	9341.08
469.69	9322.35
469.87	9745.99
470.05	9774.08
470.23	9839.61
470.41	9624.28
470.59	9884.08
470.77	9584.49
470.95	9987.07
471.14	10101.75
471.32	9668.75
471.50	10202.40
471.68	10167.29
471.86	10150.90
472.04	10078.35
472.22	10260.91
472.40	10296.02
472.58	10167.29
472.77	10242.18
472.95	10387.30
473.13	10792.21
473.31	10382.62
473.49	10246.87
473.67	10525.39
473.85	10527.73
474.03	10682.20
474.21	10621.35
474.39	10885.83
474.57	10761.78
474.75	11084.78
474.93	10909.24
475.12	10897.53
475.30	11150.31
475.48	10899.87
475.66	11164.36
475.84	11059.03
476.02	11215.85
476.20	11400.75
476.38	11634.80
476.56	11833.75
476.74	11569.27
476.92	11508.41
477.10	11761.19
477.28	11932.05
477.46	11955.46
477.64	12016.31
477.82	12126.32
478.00	12409.52
478.18	12360.37
478.36	12060.78
478.54	12222.28
478.72	12634.21
478.90	12884.65
479.08	12886.99
479.26	13149.13
479.44	12950.18
479.62	13158.49
479.80	13266.16
479.98	13289.56
480.16	13511.91
480.34	13151.47
480.52	13621.92
480.70	13820.86
480.88	13455.74
481.06	13947.25
481.24	13825.54
481.41	14075.98
481.59	14518.34
481.77	14167.26
481.95	14218.75
482.13	14197.69
482.31	14232.80
482.49	14867.08
482.67	14672.82
482.85	14668.14
483.03	14815.59
483.21	14934.96
483.39	15145.61
483.57	15136.24
483.74	15503.71
483.92	15325.83
484.10	15344.55
484.28	15922.66
484.46	15885.22
484.64	16287.79
484.82	15763.51
485.00	16088.84
485.18	16170.76
485.35	16208.21
485.53	15786.91
485.71	15763.51
485.89	16383.75
486.07	16304.17
486.25	16229.27
486.43	16613.12
486.61	16868.24
486.78	17109.32
486.96	17310.60
487.14	17434.65
487.32	17642.96
487.50	17820.84
487.68	18216.39
487.85	17827.86
488.03	18480.87
488.21	18249.16
488.39	18003.40
488.57	18506.62
488.75	18691.52
488.92	18738.33
489.10	19103.45
489.28	19115.16
489.46	19103.45
489.64	19190.05
489.81	20088.82
489.99	19988.18
490.17	19812.63
490.35	20084.14
490.53	20152.01
490.70	20091.16
490.88	20013.92
491.06	20484.37
491.24	20259.68
491.41	20290.10
491.59	20517.14
491.77	20341.60
491.95	20772.25
492.13	20542.88
492.30	21422.92
492.48	21336.32
492.66	21439.31
492.84	21216.96
493.01	21507.18
493.19	21701.45
493.37	21862.94
493.54	22249.13
493.72	22022.10
493.90	22377.86
494.08	22445.74
494.25	22738.30
494.43	22918.53
494.61	22700.86
494.79	23250.88
494.96	22916.19
495.14	23192.37
495.32	23208.75
495.49	23201.73
495.67	23718.99
495.85	23861.76
496.02	23908.57
496.20	24175.39
496.38	24034.96
496.55	23957.72
496.73	24929.05
496.91	23969.43
497.09	24863.51
497.26	24748.82
497.44	24547.54
497.62	24961.81
497.79	24835.42
497.97	24926.71
498.14	25041.39
498.32	25046.07
498.50	25432.26
498.67	25511.84
498.85	25563.33
499.03	25785.68
499.20	25694.40
499.38	26008.03
499.56	26050.16
499.73	25949.52
499.91	26178.89
500.08	26434.01
500.26	25769.30
500.44	26326.35
500.61	26148.46
500.79	26354.43
500.97	26583.80
501.14	26595.51
501.32	26972.33
501.49	26712.53
501.67	26775.73
501.84	26960.63
502.02	26885.73
502.20	27461.51
502.37	27442.78
502.55	27159.58
502.72	27761.09
502.90	27840.67
503.07	27648.75
503.25	27943.66
503.43	27728.33
503.60	27723.65
503.78	27882.80
503.95	27871.10
504.13	28004.51
504.30	28175.37
504.48	28126.22
504.65	28041.96
504.83	28694.97
505.01	28620.07
505.18	28563.90
505.36	28858.81
505.53	29116.26
505.71	29244.99
505.88	29097.54
506.06	28943.06
506.23	29427.56
506.41	29181.80
506.58	29474.37
506.76	29521.18
506.93	29490.75
507.11	29493.09
507.28	29663.95
507.46	29481.39
507.63	29809.06
507.81	30031.41
507.98	29876.94
508.16	29853.53
508.33	30593.14
508.50	30375.47
508.68	30492.50
508.85	30803.79
509.03	30632.93
509.20	30604.84
509.38	31227.43
509.55	30991.03
509.73	30850.60
509.90	30658.68
510.08	30897.41
510.25	30866.98
510.42	31335.09
510.60	31269.56
510.77	31379.56
510.95	31728.30
511.12	31346.79
511.30	31402.97
511.47	31960.02
511.64	31768.09
511.82	32098.11
511.99	31747.03
512.17	31711.92
512.34	31702.56
512.51	31772.77
512.69	32570.90
512.86	32393.01
513.04	32404.72
513.21	32507.70
513.38	32086.40
513.56	32767.50
513.73	32615.37
513.90	32926.66
514.08	32755.80
514.25	32741.75
514.43	32893.89
514.60	32835.38
514.77	33078.79
514.95	33369.02
515.12	32943.04
515.29	32973.47
515.47	33198.16
515.64	33593.71
515.81	33118.58
515.99	33757.55
516.16	33244.97
516.33	33113.90
516.51	33783.29
516.68	32973.47
516.85	33020.28
517.03	32980.49
517.20	33710.74
517.37	33792.65
517.54	33935.43
517.72	34089.90
517.89	33275.40
518.06	33525.83
518.24	33502.43
518.41	33738.82
518.58	33977.56
518.75	34405.88
518.93	34031.39
519.10	34581.42
519.27	34754.61
519.45	34202.25
519.62	34960.58
519.79	35068.25
519.96	34700.78
520.14	34878.66
520.31	35126.76
520.48	35049.52
520.65	34918.45
520.83	35545.72
521.00	35475.50
521.17	35335.07
521.34	35793.81
521.52	35737.64
521.69	35831.26
521.86	36051.27
522.03	35957.65
522.20	35477.84
522.38	35859.35
522.55	35978.72
522.72	36261.92
522.89	35817.22
523.07	36402.35
523.24	36264.26
523.41	36180.00
523.58	36631.72
523.75	36746.41
523.92	36840.03
524.10	36851.73
524.27	36842.37
524.44	36704.28
524.61	37043.66
524.78	36964.08
524.96	37460.27
525.13	36596.62
525.30	37677.94
525.47	37336.23
525.64	37266.01
525.81	37607.73
525.98	37233.24
526.16	36844.71
526.33	37095.15
526.50	37338.57
526.67	36931.31
526.84	36552.15
527.01	36753.43
527.18	37158.34
527.36	37635.81
527.53	37764.54
527.70	38305.21
527.87	37715.39
528.04	38078.18
528.21	37928.38
528.38	37823.06
528.55	38356.70
528.72	38508.83
528.89	38618.84
529.07	38462.02
529.24	38288.82
529.41	37792.63
529.58	38595.43
529.75	38457.34
529.92	38740.55
530.09	38848.21
530.26	38401.17
530.43	38827.15
530.60	38710.12
530.77	38651.61
530.94	39108.01
531.11	38806.08
531.28	38983.96
531.46	39173.55
531.63	39229.72
531.80	38698.42
531.97	39152.48
532.14	39505.90
532.31	38834.17
532.48	38974.60
532.65	39023.75
532.82	39372.49
532.99	39512.92
533.16	39171.21
533.33	39667.40
533.50	39772.72
533.67	39576.12
533.84	39414.62
534.01	39632.29
534.18	39665.06
534.35	39559.73
534.52	39683.78
534.69	39679.10
534.86	40034.86
535.03	39868.69
535.20	40208.06
535.37	40245.51
535.54	40634.04
535.71	39952.94
535.88	40678.51
536.05	40107.42
536.22	40348.50
536.38	40275.94
536.55	40004.44
536.72	40233.81
536.89	40023.16
537.06	40631.70
537.23	40287.64
537.40	40414.03
537.57	40463.18
537.74	40505.31
537.91	41090.44
538.08	40603.61
538.25	40615.32
538.42	40823.62
538.59	40954.69
538.75	40402.33
538.92	40676.17
539.09	41251.94
539.26	40816.60
539.43	40872.78
539.60	41015.55
539.77	40886.82
539.94	41020.23
540.11	40797.88
540.28	40589.57
540.44	40741.71
540.61	41518.76
540.78	40917.25
540.95	41324.50
541.12	40868.09
541.29	41771.54
541.46	41397.06
541.62	41703.67
541.79	41289.39
541.96	41277.69
542.13	41048.32
542.30	41741.11
542.47	41535.15
542.63	41645.15
542.80	41581.96
542.97	42066.45
543.14	42305.18
543.31	41734.09
543.48	42082.83
543.64	42445.62
543.81	42548.60
543.98	42155.39
544.15	42356.67
544.32	42169.43
544.48	42677.33
544.65	42705.41
544.82	42836.48
544.99	42103.90
545.16	42370.72
545.32	42506.47
545.49	42775.63
545.66	42965.21
545.83	42698.39
546.00	42820.10
546.16	42787.33
546.33	42316.89
546.50	42494.77
546.67	42742.86
546.83	42375.40
547.00	42969.90
547.17	42822.44
547.34	42939.47
547.50	42787.33
547.67	43283.53
547.84	43274.16
548.00	43175.86
548.17	43323.32
548.34	43091.60
548.51	43634.61
548.67	43433.32
548.84	43449.70
549.01	43489.49
549.18	43505.88
549.34	43241.40
549.51	43344.38
549.68	43557.37
549.84	43187.56
550.01	43470.77
550.18	43105.65
550.34	43185.22
550.51	43012.02
550.68	43559.71
550.84	43342.04
551.01	43435.66
551.18	43281.19
551.34	44030.16
551.51	43791.42
551.68	43903.77
551.84	43683.76
552.01	43215.65
552.18	43496.52
552.34	43543.33
552.51	43686.10
552.68	43653.33
552.84	43992.71
553.01	44144.84
553.18	43784.40
553.34	44076.97
553.51	44128.46
553.67	44257.19
553.84	44254.85
554.01	44610.61
554.17	44575.50
554.34	43952.92
554.51	44020.80
554.67	44137.82
554.84	43899.09
555.00	44088.67
555.17	44645.72
555.33	43969.30
555.50	44446.77
555.67	44271.23
555.83	44626.99
556.00	44584.86
556.16	44500.61
556.33	44334.43
556.50	44470.18
556.66	44341.45
556.83	44009.09
556.99	44774.45
557.16	44519.33
557.32	44919.56
557.49	44313.36
557.65	44369.54
557.82	44964.03
557.98	44549.76
558.15	44451.45
558.32	44631.68
558.48	44332.09
558.65	44514.65
558.81	44406.98
558.98	44439.75
559.14	44617.63
559.31	44769.77
559.47	44573.16
559.64	44959.35
559.80	44858.71
559.97	45195.74
560.13	44282.94
560.30	44893.82
560.46	45179.36
560.63	44987.44
560.79	45181.70
560.96	44889.13
561.12	45151.27
561.29	44687.85
561.45	44924.24
561.61	44854.03
561.78	44985.10
561.94	44952.33
562.11	44999.14
562.27	44870.41
562.44	45027.23
562.60	45317.45
562.77	45544.48
562.93	45219.15
563.10	45682.58
563.26	44673.81
563.42	45357.24
563.59	44910.20
563.75	45172.34
563.92	45406.39
564.08	45322.13
564.24	45511.72
564.41	45310.43
564.57	45291.71
564.74	45359.58
564.90	45146.59
565.07	45287.03
565.23	45443.84
565.39	45095.10
565.56	45090.42
565.72	44924.24
565.88	45404.05
566.05	44935.95
566.21	45289.37
566.38	45340.86
566.54	45429.80
566.70	45551.51
566.87	45240.21
567.03	45584.27
567.19	45443.84
567.36	45338.52
567.52	45268.30
567.68	45581.93
567.85	44872.75
568.01	45539.80
568.17	45322.13
568.34	45591.30
568.50	45235.53
568.66	45329.16
568.83	45478.95
568.99	44942.97
569.15	45172.34
569.32	45574.91
569.48	45242.56
569.64	45432.14
569.81	45778.54
569.97	45055.31
570.13	45354.90
570.30	45078.72
570.46	45333.84
570.62	44987.44
570.78	44861.05
570.95	44931.26
571.11	45406.39
571.27	45670.87
571.43	45490.65
571.60	45397.03
571.76	45162.98
571.92	45399.37
572.09	45312.77
572.25	45284.68
572.41	45532.78
572.57	45708.32
572.74	46078.13
572.90	45677.90
573.06	45291.71
573.22	45471.93
573.38	45483.63
573.55	45738.75
573.71	45485.97
573.87	45759.81
574.03	45525.76
574.20	45727.05
574.36	45734.07
574.52	45839.39
574.68	45598.32
574.84	45268.30
575.01	45881.52
575.17	44966.37
575.33	45275.32
575.49	45371.28
575.65	45673.21
575.82	45567.89
575.98	45591.30
576.14	45897.91
576.30	45600.66
576.46	45823.01
576.62	45310.43
576.79	45233.19
576.95	45436.82
577.11	45851.09
577.27	45656.83
577.43	45808.96
577.59	45422.78
577.75	45574.91
577.92	44947.65
578.08	45741.09
578.24	45177.02
578.40	45415.76
578.56	45591.30
578.72	45546.82
578.88	45530.44
579.04	45785.56
579.21	45808.96
579.37	45801.94
579.53	45890.88
579.69	45406.39
579.85	45603.00
580.01	45329.16
580.17	45443.84
580.33	45687.26
580.49	45858.12
580.65	45851.09
580.82	45507.04
580.98	45680.24
581.14	45378.31
581.30	45956.42
581.46	45640.45
581.62	45619.38
581.78	45670.87
581.94	46117.92
582.10	45998.55
582.26	45911.95
582.42	45771.52
582.58	45827.69
582.74	45619.38
582.90	46230.26
583.06	45780.88
583.22	45904.93
583.38	45942.38
583.54	45626.40
583.70	45780.88
583.86	45610.02
584.02	45368.94
584.18	45874.50
584.34	45368.94
584.50	45588.95
584.66	45823.01
584.82	45558.53
584.98	45621.72
585.14	45769.18
585.30	45687.26
585.46	45308.09
585.62	45317.45
585.78	45731.73
585.94	45574.91
586.10	45544.48
586.26	45457.88
586.42	46174.09
586.58	46094.51
586.74	45904.93
586.90	45418.10
587.06	45588.95
587.22	46050.04
587.38	45523.42
587.54	46071.10
587.70	46234.94
587.86	45603.00
588.02	45544.48
588.18	45886.20
588.34	45485.97
588.49	45254.26
588.65	45230.85
588.81	45099.78
588.97	45628.74
589.13	45006.16
589.29	45558.53
589.45	45392.35
589.61	45731.73
589.77	46045.36
589.93	45954.08
590.08	45598.32
