SpectraSuite Data File
++++++++++++++++++++++++++++++++++++
Date: Fri Oct 25 11:33:27 EDT 2013
User: price-jones
Dark Spectrum Present: No
Reference Spectrum Present: No
Number of Sampled Component Spectra: 1
Spectrometers: USB2+H05261
Integration Time (usec): 100000 (USB2+H05261)
Spectra Averaged: 1 (USB2+H05261)
Boxcar Smoothing: 0 (USB2+H05261)
Correct for Electrical Dark: No (USB2+H05261)
Strobe/Lamp Enabled: No (USB2+H05261)
Correct for Detector Non-linearity: No (USB2+H05261)
Correct for Stray Light: No (USB2+H05261)
Number of Pixels in Processed Spectrum: 2048
>>>>>Begin Processed Spectral Data<<<<<
365.73	325.33
365.92	325.33
366.12	325.33
366.32	161.50
366.52	159.16
366.72	255.12
366.91	187.24
367.11	189.58
367.31	131.07
367.51	159.16
367.70	224.69
367.90	227.03
368.10	224.69
368.30	245.76
368.49	112.35
368.69	149.79
368.89	156.82
369.09	198.95
369.28	168.52
369.48	98.30
369.68	278.52
369.87	234.05
370.07	236.39
370.27	290.23
370.47	348.74
370.66	433.00
370.86	491.51
371.06	407.25
371.25	552.37
371.45	538.32
371.65	582.79
371.84	615.56
372.04	561.73
372.24	554.71
372.44	578.11
372.63	688.12
372.83	655.35
373.03	657.69
373.22	589.82
373.42	573.43
373.62	676.41
373.81	608.54
374.01	657.69
374.21	620.24
374.40	653.01
374.60	725.57
374.79	664.71
374.99	645.99
375.19	631.94
375.38	704.50
375.58	554.71
375.78	718.54
375.97	657.69
376.17	704.50
376.37	627.26
376.56	648.33
376.76	592.16
376.95	692.80
377.15	716.20
377.35	720.88
377.54	690.46
377.74	730.25
377.93	720.88
378.13	676.41
378.33	688.12
378.52	690.46
378.72	781.74
378.91	732.59
379.11	739.61
379.31	681.10
379.50	716.20
379.70	758.33
379.89	779.40
380.09	788.76
380.28	788.76
380.48	727.91
380.68	683.44
380.87	730.25
381.07	795.78
381.26	798.12
381.46	744.29
381.65	812.17
381.85	716.20
382.04	753.65
382.24	774.72
382.43	777.06
382.63	732.59
382.83	751.31
383.02	788.76
383.22	795.78
383.41	809.83
383.61	880.04
383.80	837.91
384.00	758.33
384.19	737.27
384.39	835.57
384.58	826.21
384.78	800.46
384.97	858.98
385.17	828.55
385.36	882.38
385.56	866.00
385.75	781.74
385.95	957.28
386.14	830.89
386.34	779.40
386.53	866.00
386.72	809.83
386.92	915.15
387.11	828.55
387.31	901.11
387.50	873.02
387.70	840.25
387.89	882.38
388.09	999.41
388.28	898.77
388.48	884.72
388.67	884.72
388.86	922.17
389.06	961.96
389.25	894.08
389.45	903.45
389.64	980.68
389.84	973.66
390.03	1006.43
390.22	896.43
390.42	940.90
390.61	992.39
390.81	964.30
391.00	1093.03
391.19	968.98
391.39	1064.94
391.58	950.26
391.78	987.71
391.97	1043.88
392.16	1057.92
392.36	952.60
392.55	1074.31
392.75	968.98
392.94	980.68
393.13	1102.39
393.33	1057.92
393.52	1118.78
393.71	1149.20
393.91	1137.50
394.10	1100.05
394.29	1139.84
394.49	1100.05
394.68	1153.88
394.88	1139.84
395.07	1217.08
395.26	1130.48
395.46	1193.67
395.65	1174.95
395.84	1235.80
396.04	1212.40
396.23	1233.46
396.42	1212.40
396.62	1270.91
396.81	1231.12
397.00	1284.95
397.19	1259.21
397.39	1254.53
397.58	1210.06
397.77	1179.63
397.97	1294.32
398.16	1348.15
398.35	1284.95
398.55	1226.44
398.74	1308.36
398.93	1301.34
399.12	1315.38
399.32	1294.32
399.51	1317.72
399.70	1362.19
399.90	1263.89
400.09	1310.70
400.28	1460.49
400.47	1329.42
400.67	1394.96
400.86	1409.00
401.05	1425.39
401.24	1462.83
401.44	1355.17
401.63	1483.90
401.82	1483.90
402.01	1533.05
402.21	1420.71
402.40	1448.79
402.59	1474.54
402.78	1535.39
402.97	1479.22
403.17	1521.35
403.36	1502.62
403.55	1570.50
403.74	1607.95
403.93	1603.27
404.13	1563.48
404.32	1502.62
404.51	1689.87
404.70	1682.85
404.89	1708.59
405.09	1715.61
405.28	1685.19
405.47	1659.44
405.66	1652.42
405.85	1748.38
406.05	1729.66
406.24	1753.06
406.43	1734.34
406.62	1849.02
406.81	1809.23
407.00	1783.49
407.20	1842.00
407.39	1732.00
407.58	1870.09
407.77	1802.21
407.96	1872.43
408.15	2005.84
408.34	1919.24
408.54	1830.30
408.73	1834.98
408.92	1930.94
409.11	1949.67
409.30	2031.58
409.49	2012.86
409.68	1916.90
409.87	2062.01
410.07	2073.71
410.26	2029.24
410.45	2050.31
410.64	2059.67
410.83	2101.80
411.02	2176.70
411.21	2179.04
411.40	2101.80
411.59	2202.44
411.78	2195.42
411.98	2225.85
412.17	2195.42
412.36	2275.00
412.55	2333.51
412.74	2347.56
412.93	2361.60
413.12	2356.92
413.31	2415.43
413.50	2359.26
413.69	2452.88
413.88	2471.61
414.07	2530.12
414.26	2558.21
414.45	2644.81
414.64	2513.74
414.83	2581.61
415.02	2635.44
415.22	2668.21
415.41	2600.34
415.60	2595.65
415.79	2644.81
415.98	2682.25
416.17	2658.85
416.36	2691.62
416.55	2792.26
416.74	2857.79
416.93	2860.13
417.12	2881.20
417.31	2895.24
417.50	2899.92
417.69	3023.97
417.88	2906.95
418.07	2937.37
418.26	2883.54
418.45	3007.59
418.64	3110.57
418.83	3040.36
419.02	3218.24
419.21	3045.04
419.39	3016.95
419.58	3033.33
419.77	3049.72
419.96	3009.93
420.15	3236.96
420.34	3126.96
420.53	3164.40
420.72	3274.41
420.91	3304.84
421.10	3323.56
421.29	3339.94
421.48	3258.03
421.67	3323.56
421.86	3255.69
422.05	3290.79
422.24	3286.11
422.43	3300.16
422.61	3316.54
422.80	3396.12
422.99	3339.94
423.18	3393.78
423.37	3454.63
423.56	3396.12
423.75	3379.73
423.94	3288.45
424.13	3253.34
424.32	3375.05
424.50	3538.89
424.69	3501.44
424.88	3503.78
425.07	3384.41
425.26	3339.94
425.45	3428.88
425.64	3440.59
425.83	3452.29
426.01	3393.78
426.20	3602.08
426.39	3574.00
426.58	3407.82
426.77	3674.64
426.96	3527.19
427.15	3581.02
427.33	3574.00
427.52	3627.83
427.71	3655.92
427.90	3602.08
428.09	3728.47
428.28	3676.98
428.46	3801.03
428.65	3672.30
428.84	3801.03
429.03	3803.37
429.22	3805.71
429.40	3875.93
429.59	3798.69
429.78	3665.28
429.97	3566.98
430.16	3857.20
430.34	3815.07
430.53	3852.52
430.72	3873.59
430.91	3840.82
431.10	3808.05
431.28	3864.22
431.47	3927.42
431.66	3922.74
431.85	3962.53
432.03	4142.75
432.22	3929.76
432.41	3939.12
432.60	4070.19
432.79	3948.48
432.97	4166.15
433.16	4088.92
433.35	4107.64
433.54	4161.47
433.72	4414.25
433.91	4250.41
434.10	4170.83
434.28	4264.46
434.47	4283.18
434.66	4327.65
434.85	4301.90
435.03	4432.97
435.22	4322.97
435.41	4442.34
435.59	4365.10
435.78	4498.51
435.97	4348.72
436.16	4503.19
436.34	4290.20
436.53	4435.32
436.72	4559.36
436.90	4353.40
437.09	4524.26
437.28	4386.16
437.46	4475.10
437.65	4603.83
437.84	4484.47
438.02	4564.04
438.21	4458.72
438.40	4451.70
438.58	4676.39
438.77	4830.87
438.96	4781.71
439.14	4844.91
439.33	4734.90
439.52	4868.31
439.70	4884.70
439.89	4865.97
440.08	5083.64
440.26	4828.53
440.45	4919.81
440.63	5083.64
440.82	5345.78
441.01	5163.22
441.19	5083.64
441.38	5310.68
441.57	5200.67
441.75	5497.92
441.94	5352.81
442.12	5401.96
442.31	5577.50
442.50	5423.02
442.68	5486.22
442.87	5483.88
443.05	5488.56
443.24	5572.82
443.43	5528.35
443.61	5549.41
443.80	5729.63
443.98	5497.92
444.17	5397.28
444.35	5540.05
444.54	5654.73
444.73	5547.07
444.91	5640.69
445.10	5579.84
445.28	5621.97
445.47	5734.31
445.65	5577.50
445.84	5661.76
446.02	5680.48
446.21	5682.82
446.39	5757.72
446.58	5797.51
446.77	5762.40
446.95	5533.03
447.14	5643.03
447.32	5715.59
447.51	5923.90
447.69	5797.51
447.88	5877.09
448.06	5809.21
448.25	5863.04
448.43	5851.34
448.62	5776.44
448.80	5811.55
448.99	5818.57
449.17	5937.94
449.36	5881.77
449.54	6122.84
449.73	6167.31
449.91	6085.39
450.10	6078.37
450.28	5942.62
450.46	6132.20
450.65	6174.33
450.83	6085.39
451.02	6258.59
451.20	6265.61
451.39	6235.19
451.57	6319.45
451.76	6232.85
451.94	6057.31
452.13	6298.38
452.31	6244.55
452.49	6235.19
452.68	6389.66
452.86	6305.40
453.05	6303.06
453.23	6523.07
453.42	6305.40
453.60	6363.92
453.78	6410.73
453.97	6321.79
454.15	6422.43
454.34	6438.81
454.52	6576.91
454.70	6623.72
454.89	6523.07
455.07	6626.06
455.26	6743.08
455.44	6715.00
455.62	6574.56
455.81	6719.68
455.99	6689.25
456.17	6832.02
456.36	6696.27
456.54	6839.05
456.73	6801.60
456.91	7012.24
457.09	6906.92
457.28	7098.84
457.46	6972.46
457.64	7080.12
457.83	7012.24
458.01	6995.86
458.19	7309.49
458.38	7075.44
458.56	7108.21
458.74	7262.68
458.93	7283.75
459.11	7375.03
459.29	7215.87
459.48	7438.22
459.66	7342.26
459.84	7358.64
460.03	7541.21
460.21	7564.61
460.39	7274.38
460.57	7414.82
460.76	7569.29
460.94	7447.58
461.12	7421.84
461.31	7618.44
461.49	7641.85
461.67	7571.63
461.85	7585.68
462.04	7630.15
462.22	7786.96
462.40	7740.15
462.59	7735.47
462.77	7803.35
462.95	7758.88
463.13	7871.22
463.32	7655.89
463.50	7992.93
463.68	7960.16
463.86	7826.75
464.05	7789.30
464.23	7906.33
464.41	7953.14
464.59	7740.15
464.78	8004.63
464.96	8102.93
465.14	7934.42
465.32	8100.59
465.50	8058.46
465.69	8381.46
465.87	8124.00
466.05	8168.47
466.23	8212.94
466.41	8226.98
466.60	8304.22
466.78	8145.06
466.96	8280.82
467.14	8252.73
467.32	8362.73
467.51	8344.01
467.69	8255.07
467.87	8245.71
468.05	8393.16
468.23	8456.36
468.41	8344.01
468.60	8339.33
468.78	8517.21
468.96	8252.73
469.14	8587.43
469.32	8489.12
469.50	8444.65
469.69	8580.40
469.87	8814.46
470.05	8622.53
470.23	8915.10
470.41	8772.33
470.59	8947.87
470.77	9095.32
470.95	8985.32
471.14	9074.26
471.32	8954.89
471.50	9006.38
471.68	9074.26
471.86	9167.88
472.04	9174.90
472.22	9394.91
472.40	8959.57
472.58	9373.85
472.77	9406.61
472.95	9430.02
473.13	9717.90
473.31	9423.00
473.49	9495.55
473.67	9266.18
473.85	9439.38
474.03	9713.22
474.21	9694.50
474.39	9895.78
474.57	9891.10
474.75	9809.19
474.93	9898.13
475.12	9951.96
475.30	9692.16
475.48	9937.91
475.66	10104.09
475.84	10125.16
476.02	10242.18
476.20	10431.77
476.38	10492.62
476.56	10932.64
476.74	10656.46
476.92	10375.59
477.10	10530.07
477.28	10593.26
477.46	10771.15
477.64	10693.91
477.82	11000.52
478.00	11204.14
478.18	11096.48
478.36	11152.65
478.54	11339.90
478.72	11445.22
478.90	11337.56
479.08	11555.22
479.26	11538.84
479.44	11646.51
479.62	11639.48
479.80	12114.61
479.98	12149.72
480.16	12084.19
480.34	12116.95
480.52	12266.75
480.70	12294.83
480.88	12100.57
481.06	12500.80
481.24	12444.63
481.41	12683.36
481.59	13085.94
481.77	12961.89
481.95	12884.65
482.13	13242.75
482.31	13067.21
482.49	13366.80
482.67	13266.16
482.85	13724.90
483.03	13486.17
483.21	13841.93
483.39	13926.19
483.57	13626.60
483.74	14164.92
483.92	14263.22
484.10	14139.18
484.28	14597.92
484.46	14581.54
484.64	14869.42
484.82	14492.60
485.00	14672.82
485.18	14981.77
485.35	15066.03
485.53	14958.36
485.71	14974.75
485.89	15496.69
486.07	15257.95
486.25	15295.40
486.43	15548.18
486.61	15992.88
486.78	15789.25
486.96	15894.58
487.14	16355.66
487.32	16219.91
487.50	16290.13
487.68	16407.16
487.85	16748.87
488.03	16716.11
488.21	17095.27
488.39	17163.15
488.57	16992.29
488.75	17619.55
488.92	17591.47
489.10	17579.76
489.28	17439.33
489.46	17919.14
489.64	17703.81
489.81	18146.17
489.99	18097.02
490.17	18349.80
490.35	18312.35
490.53	18347.46
490.70	18831.95
490.88	18576.83
491.06	19002.81
491.24	19190.05
491.41	19124.52
491.59	19515.39
491.77	19220.48
491.95	19632.41
492.13	19571.56
492.30	19484.96
492.48	19690.93
492.66	20177.76
492.84	20044.35
493.01	20460.96
493.19	20135.63
493.37	20257.34
493.54	20294.79
493.72	20912.69
493.90	20662.25
494.08	20954.82
494.25	20938.43
494.43	21060.14
494.61	21238.02
494.79	21556.33
494.96	21383.13
495.14	21544.63
495.32	21640.59
495.49	21656.98
495.67	21921.46
495.85	22192.96
496.02	22319.35
496.20	22572.13
496.38	22459.78
496.55	22719.58
496.73	22951.29
496.91	22466.80
497.09	22813.20
497.26	22658.73
497.44	23295.35
497.62	22981.72
497.79	23587.92
497.97	23204.07
498.14	23583.24
498.32	23913.25
498.50	24079.43
498.67	24173.05
498.85	23941.34
499.03	24079.43
499.20	23997.51
499.38	24411.79
499.56	24915.00
499.73	24603.71
499.91	24547.54
500.08	24769.89
500.26	24540.52
500.44	24788.61
500.61	25041.39
500.79	24940.75
500.97	25076.50
501.14	25280.13
501.32	25701.42
501.49	24968.84
501.67	25343.32
501.84	25998.67
502.02	25422.90
502.20	25905.05
502.37	25792.70
502.55	26118.04
502.72	26068.89
502.90	26342.73
503.07	26223.36
503.25	26249.11
503.43	26136.76
503.60	26263.15
503.78	26848.29
503.95	26398.90
504.13	26749.98
504.30	26719.56
504.48	26899.78
504.65	26658.70
504.83	27124.47
505.01	27344.48
505.18	27129.15
505.36	27414.69
505.53	27332.78
505.71	27365.54
505.88	27573.85
506.06	27501.29
506.23	27758.75
506.41	27522.36
506.58	27885.14
506.76	28151.96
506.93	28266.65
507.11	28020.89
507.28	28109.83
507.46	28589.64
507.63	28149.62
507.81	28804.97
507.98	28683.27
508.16	28088.77
508.33	28210.48
508.50	28751.14
508.68	28769.86
508.85	29167.76
509.03	28922.00
509.20	29172.44
509.38	29486.07
509.55	29076.48
509.73	29338.62
509.90	29570.33
510.08	29160.73
510.25	29820.77
510.42	30066.52
510.60	29956.52
510.77	29851.19
510.95	29951.84
511.12	29998.65
511.30	30293.55
511.47	30228.02
511.64	30576.76
511.82	30497.18
511.99	30412.92
512.17	30792.09
512.34	30462.07
512.51	31166.57
512.69	30911.46
512.86	30972.31
513.04	31159.55
513.21	31370.20
513.38	31051.89
513.56	30923.16
513.73	31456.80
513.90	31562.12
514.08	31428.71
514.25	31566.81
514.43	31381.90
514.60	31519.99
514.77	31814.90
514.95	31971.72
515.12	31768.09
515.29	31782.13
515.47	32299.39
515.64	31974.06
515.81	31821.92
515.99	31950.65
516.16	32280.67
516.33	32603.66
516.51	32725.37
516.68	32641.11
516.85	32336.84
517.03	33097.52
517.20	32865.80
517.37	32680.90
517.54	32898.57
517.72	33048.36
517.89	33167.73
518.06	33130.28
518.24	33256.67
518.41	33221.56
518.58	32891.55
518.75	32947.72
518.93	33530.51
519.10	33502.43
519.27	33607.75
519.45	33804.36
519.62	33731.80
519.79	33551.58
519.96	33486.04
520.14	33923.72
520.31	33649.88
520.48	34621.20
520.65	33914.36
520.83	34291.19
521.00	34558.01
521.17	34134.37
521.34	34817.81
521.52	34548.65
521.69	34635.25
521.86	34752.27
522.03	34831.85
522.20	34820.15
522.38	35222.72
522.55	35182.93
522.72	35206.34
522.89	35304.64
523.07	35700.19
523.24	35206.34
523.41	35236.77
523.58	35143.14
523.75	35459.12
523.92	35534.01
524.10	35618.27
524.27	36067.66
524.44	35747.00
524.61	35754.02
524.78	35742.32
524.96	36058.29
525.13	36212.77
525.30	35857.01
525.47	36180.00
525.64	36582.57
525.81	36301.71
525.98	36715.98
526.16	36491.29
526.33	36348.52
526.50	36423.42
526.67	36610.66
526.84	36907.91
527.01	36266.60
527.18	36985.15
527.36	36737.05
527.53	37413.46
527.70	37371.33
527.87	37509.43
528.04	37071.75
528.21	37528.15
528.38	37228.56
528.55	37364.31
528.72	37301.12
528.89	37361.97
529.07	37240.26
529.24	37684.97
529.41	37673.26
529.58	37713.05
529.75	37399.42
529.92	38043.07
530.09	37624.11
530.26	37713.05
530.43	37546.87
530.60	37790.29
530.77	37909.66
530.94	37989.24
531.11	38286.48
531.28	37970.51
531.46	38515.86
531.63	38202.22
531.80	38169.46
531.97	38656.29
532.14	38497.13
532.31	38000.94
532.48	38464.36
532.65	38974.60
532.82	38204.56
532.99	38295.85
533.16	38345.00
533.33	38693.74
533.50	39136.10
533.67	39115.03
533.84	39367.81
534.01	39173.55
534.18	38876.30
534.35	39358.45
534.52	39274.19
534.69	39721.23
534.86	39533.99
535.03	39316.32
535.20	39571.44
535.37	39351.43
535.54	39721.23
535.71	39643.99
535.88	39768.04
536.05	39590.16
536.22	40062.95
536.38	39604.20
536.55	39807.83
536.72	39775.06
536.89	39592.50
537.06	39660.38
537.23	40297.00
537.40	39770.38
537.57	39791.45
537.74	39861.66
537.91	40676.17
538.08	40411.69
538.25	39929.54
538.42	40652.76
538.59	40744.05
538.75	40233.81
538.92	40821.28
539.09	40786.18
539.26	40589.57
539.43	40751.07
539.60	40910.22
539.77	40280.62
539.94	41027.25
540.11	41106.83
540.28	41338.54
540.44	40830.65
540.61	41024.91
540.78	40875.12
540.95	41127.89
541.12	40521.69
541.29	41214.49
541.46	40950.01
541.62	41137.26
541.79	41724.73
541.96	40964.06
542.13	41132.57
542.30	41434.50
542.47	41303.43
542.63	41511.74
542.80	41745.80
542.97	41963.46
543.14	42129.64
543.31	41478.97
543.48	41762.18
543.64	42717.12
543.81	42295.82
543.98	42052.41
544.15	41865.16
544.32	42199.86
544.48	42263.05
544.65	42401.14
544.82	42415.19
544.99	42462.00
545.16	42726.48
545.32	42602.43
545.49	42906.70
545.66	43107.99
545.83	42855.21
546.00	42796.70
546.16	42548.60
546.33	42777.97
546.50	42663.28
546.67	43072.88
546.83	42684.35
547.00	42586.05
547.17	42464.34
547.34	42674.99
547.50	43175.86
547.67	43517.58
547.84	43021.39
548.00	43246.08
548.17	43419.28
548.34	43885.04
548.51	43363.11
548.67	43414.60
548.84	43491.83
549.01	43093.94
549.18	43283.53
549.34	43723.55
549.51	43426.30
549.68	43445.02
549.84	43578.43
550.01	43871.00
550.18	43583.12
550.34	43847.60
550.51	43789.08
550.68	43611.20
550.84	43777.38
551.01	44418.69
551.18	44020.80
551.34	43920.15
551.51	44222.08
551.68	44163.57
551.84	44041.86
552.01	44039.52
552.18	44456.14
552.34	44240.81
552.51	43749.29
552.68	44039.52
552.84	44203.36
553.01	44112.08
553.18	44240.81
553.34	44823.60
553.51	44418.69
553.67	44502.95
553.84	44737.00
554.01	44844.66
554.17	44629.34
554.34	44563.80
554.51	44793.17
554.67	45120.85
554.84	44737.00
555.00	44561.46
555.17	44744.02
555.33	44924.24
555.50	44673.81
555.67	45034.25
555.83	44479.54
556.00	45123.19
556.16	45263.62
556.33	45394.69
556.50	44940.63
556.66	45317.45
556.83	45006.16
556.99	44959.35
557.16	45148.93
557.32	45385.33
557.49	45284.68
557.65	44715.93
557.82	44975.73
557.98	44877.43
558.15	45045.95
558.32	45399.37
558.48	45116.17
558.65	44949.99
558.81	45640.45
558.98	45574.91
559.14	45343.20
559.31	45132.55
559.47	45352.56
559.64	45542.14
559.80	45607.68
559.97	45666.19
560.13	45481.29
560.30	45537.46
560.46	45911.95
560.63	45916.63
560.79	45928.33
560.96	45879.18
561.12	46078.13
561.29	45911.95
561.45	45998.55
561.61	45804.28
561.78	45549.17
561.94	45794.92
562.11	45670.87
562.27	45464.91
562.44	45492.99
562.60	45801.94
562.77	45918.97
562.93	45584.27
563.10	46108.55
563.26	46230.26
563.42	46689.01
563.59	46026.63
563.75	46040.68
563.92	46134.30
564.08	46211.54
564.24	46319.20
564.41	46106.21
564.57	46206.86
564.74	46314.52
564.90	45841.73
565.07	46094.51
565.23	46300.48
565.39	46504.10
565.56	46426.87
565.72	46370.69
565.88	46244.30
566.05	46532.19
566.21	46218.56
566.38	46642.20
566.54	46155.36
566.70	46429.21
566.87	46258.35
567.03	46260.69
567.19	46639.86
567.36	46525.17
567.52	46178.77
567.68	46541.55
567.85	46384.74
568.01	46850.50
568.17	46506.44
568.34	46457.29
568.50	46485.38
568.66	46295.80
568.83	47082.22
568.99	46419.84
569.15	46483.04
569.32	46595.38
569.48	46546.23
569.64	47096.26
569.81	46913.70
569.97	47072.85
570.13	46799.01
570.30	46691.35
570.46	46834.12
570.62	46822.42
570.78	46885.61
570.95	46660.92
571.11	46773.27
571.27	46885.61
571.43	46876.25
571.60	47077.54
571.76	46784.97
571.92	47089.24
572.09	46691.35
572.25	47356.06
572.41	46595.38
572.57	46869.23
572.74	47203.92
572.90	47019.02
573.06	47077.54
573.22	47147.75
573.38	47250.74
573.55	46653.90
573.71	47299.89
573.87	47194.56
574.03	47349.04
574.20	47636.92
574.36	47030.72
574.52	47173.50
574.68	47192.22
574.84	47044.77
575.01	47072.85
575.17	47426.28
575.33	47079.88
575.49	46976.89
575.65	47426.28
575.82	47033.07
575.98	47299.89
576.14	47351.38
576.30	47707.14
576.46	47175.84
576.62	46983.91
576.79	47412.23
576.95	46733.48
577.11	47070.51
577.27	47154.77
577.43	47068.17
577.59	47049.45
577.75	46937.10
577.92	46763.90
578.08	47292.86
578.24	46796.67
578.40	47370.10
578.56	47484.79
578.72	47281.16
578.88	47594.79
579.04	47346.70
579.21	47334.99
579.37	47669.69
579.53	47327.97
579.69	47103.28
579.85	47119.66
580.01	47278.82
580.17	47573.73
580.33	47004.98
580.49	47440.32
580.65	47449.68
580.82	47557.35
580.98	47257.76
581.14	47185.20
581.30	47447.34
581.46	47325.63
581.62	47056.47
581.78	47126.69
581.94	47531.60
582.10	47421.59
582.26	47353.72
582.42	47564.37
582.58	47239.03
582.74	47922.47
582.90	47517.56
583.06	47540.96
583.22	47239.03
583.38	47437.98
583.54	47735.23
583.70	47246.05
583.86	47147.75
584.02	47496.49
584.18	47662.67
584.34	47770.33
584.50	47819.49
584.66	47597.13
584.82	47540.96
584.98	47749.27
585.14	47269.46
585.30	47632.24
585.46	47653.31
585.62	47461.38
585.78	47257.76
585.94	47058.81
586.10	47608.84
586.26	46990.94
586.42	47515.22
586.58	47910.77
586.74	47180.52
586.90	47281.16
587.06	47276.48
587.22	47557.35
587.38	47693.10
587.54	47550.32
587.70	47391.17
587.86	47725.86
588.02	47351.38
588.18	47281.16
588.34	47915.45
588.49	47641.60
588.65	47454.36
588.81	47295.21
588.97	47770.33
589.13	47564.37
589.29	48055.88
589.45	48318.02
589.61	47922.47
589.77	47866.30
589.93	47863.96
590.08	47992.68
