SpectraSuite Data File
++++++++++++++++++++++++++++++++++++
Date: Fri Oct 25 11:25:37 EDT 2013
User: price-jones
Dark Spectrum Present: No
Reference Spectrum Present: No
Number of Sampled Component Spectra: 1
Spectrometers: USB2+H05261
Integration Time (usec): 100000 (USB2+H05261)
Spectra Averaged: 1 (USB2+H05261)
Boxcar Smoothing: 0 (USB2+H05261)
Correct for Electrical Dark: No (USB2+H05261)
Strobe/Lamp Enabled: No (USB2+H05261)
Correct for Detector Non-linearity: No (USB2+H05261)
Correct for Stray Light: No (USB2+H05261)
Number of Pixels in Processed Spectrum: 2048
>>>>>Begin Processed Spectral Data<<<<<
365.73	229.37
365.92	229.37
366.12	229.37
366.32	152.13
366.52	121.71
366.72	189.58
366.91	112.35
367.11	154.48
367.31	138.09
367.51	184.90
367.70	119.37
367.90	161.50
368.10	196.60
368.30	177.88
368.49	124.05
368.69	163.84
368.89	166.18
369.09	154.48
369.28	168.52
369.48	138.09
369.68	175.54
369.87	170.86
370.07	208.31
370.27	191.92
370.47	325.33
370.66	564.07
370.86	631.94
371.06	650.67
371.25	676.41
371.45	594.50
371.65	683.44
371.84	739.61
372.04	669.39
372.24	655.35
372.44	720.88
372.63	732.59
372.83	692.80
373.03	800.46
373.22	772.38
373.42	744.29
373.62	765.36
373.81	823.87
374.01	774.72
374.21	828.55
374.40	798.12
374.60	805.14
374.79	760.67
374.99	842.59
375.19	798.12
375.38	772.38
375.58	800.46
375.78	851.96
375.97	861.32
376.17	938.55
376.37	868.34
376.56	830.89
376.76	866.00
376.95	847.27
377.15	922.17
377.35	936.21
377.54	947.92
377.74	875.36
377.93	851.96
378.13	919.83
378.33	901.11
378.52	889.40
378.72	903.45
378.91	999.41
379.11	973.66
379.31	968.98
379.50	992.39
379.70	954.94
379.89	933.87
380.09	1004.09
380.28	971.32
380.48	973.66
380.68	978.34
380.87	1046.22
381.07	1032.18
381.26	966.64
381.46	1053.24
381.65	1018.13
381.85	1039.20
382.04	1083.67
382.24	1071.97
382.43	1102.39
382.63	1097.71
382.83	1050.90
383.02	1046.22
383.22	1149.20
383.41	1102.39
383.61	1100.05
383.80	1041.54
384.00	1135.16
384.19	1104.73
384.39	1097.71
384.58	1130.48
384.78	1174.95
384.97	1196.01
385.17	1156.22
385.36	1118.78
385.56	1181.97
385.75	1132.82
385.95	1252.19
386.14	1266.23
386.34	1179.63
386.53	1167.93
386.72	1184.31
386.92	1245.16
387.11	1210.06
387.31	1224.10
387.50	1217.08
387.70	1186.65
387.89	1296.66
388.09	1315.38
388.28	1247.51
388.48	1263.89
388.67	1256.87
388.86	1320.06
389.06	1315.38
389.25	1366.87
389.45	1383.26
389.64	1413.68
389.84	1371.55
390.03	1451.13
390.22	1343.47
390.42	1345.81
390.61	1385.60
390.81	1357.51
391.00	1359.85
391.19	1409.00
391.39	1420.71
391.58	1469.86
391.78	1483.90
391.97	1397.30
392.16	1446.45
392.36	1439.43
392.55	1570.50
392.75	1453.47
392.94	1383.26
393.13	1511.99
393.33	1460.49
393.52	1640.72
393.71	1607.95
393.91	1612.63
394.10	1640.72
394.29	1563.48
394.49	1579.86
394.68	1671.14
394.88	1582.20
395.07	1624.33
395.26	1598.59
395.46	1636.03
395.65	1713.27
395.84	1701.57
396.04	1839.66
396.23	1701.57
396.42	1621.99
396.62	1788.17
396.81	1767.10
397.00	1675.82
397.19	1776.47
397.39	1816.26
397.58	1811.57
397.77	1790.51
397.97	1942.64
398.16	1834.98
398.35	1944.99
398.55	1816.26
398.74	1893.49
398.93	1867.75
399.12	1858.39
399.32	1926.26
399.51	1963.71
399.70	2015.20
399.90	1930.94
400.09	1909.88
400.28	1959.03
400.47	1984.77
400.67	1977.75
400.86	2087.76
401.05	2017.54
401.24	2125.21
401.44	2155.63
401.63	2106.48
401.82	2188.40
402.01	2115.84
402.21	2115.84
402.40	2118.18
402.59	2237.55
402.78	2183.72
402.97	2172.02
403.17	2340.54
403.36	2216.49
403.55	2331.17
403.74	2307.77
403.93	2326.49
404.13	2385.01
404.32	2375.64
404.51	2335.85
404.70	2361.60
404.89	2340.54
405.09	2436.50
405.28	2445.86
405.47	2483.31
405.66	2513.74
405.85	2647.15
406.05	2532.46
406.24	2506.71
406.43	2518.42
406.62	2530.12
406.81	2679.91
407.00	2539.48
407.20	2567.57
407.39	2588.63
407.58	2682.25
407.77	2712.68
407.96	2771.19
408.15	2574.59
408.34	2717.36
408.54	2785.24
408.73	2750.13
408.92	2850.77
409.11	2878.86
409.30	2771.19
409.49	2792.26
409.68	2923.33
409.87	2822.69
410.07	2848.43
410.26	2925.67
410.45	2935.03
410.64	3068.44
410.83	3033.33
411.02	3082.49
411.21	3150.36
411.40	3143.34
411.59	3178.45
411.78	3187.81
411.98	3295.47
412.17	3269.73
412.36	3276.75
412.55	3227.60
412.74	3527.19
412.93	3344.63
413.12	3471.01
413.31	3536.55
413.50	3503.78
413.69	3426.54
413.88	3613.79
414.07	3604.42
414.26	3524.85
414.45	3646.55
414.64	3641.87
414.83	3693.37
415.02	3758.90
415.22	3698.05
415.41	3852.52
415.60	3782.31
415.79	3815.07
415.98	3894.65
416.17	3847.84
416.36	3936.78
416.55	3967.21
416.74	4039.76
416.93	3939.12
417.12	4093.60
417.31	4182.54
417.50	4227.01
417.69	4135.73
417.88	4294.88
418.07	4189.56
418.26	4269.14
418.45	4299.56
418.64	4367.44
418.83	4334.67
419.02	4447.02
419.21	4449.36
419.39	4430.63
419.58	4521.92
419.77	4376.80
419.96	4594.47
420.15	4681.07
420.34	4402.55
420.53	4580.43
420.72	4662.35
420.91	4596.81
421.10	4739.58
421.29	4819.16
421.48	4741.93
421.67	4770.01
421.86	4695.11
422.05	4713.84
422.24	4676.39
422.43	4781.71
422.61	4968.96
422.80	4865.97
422.99	4915.12
423.18	4950.23
423.37	4990.02
423.56	4922.15
423.75	4770.01
423.94	4924.49
424.13	4683.41
424.32	4791.08
424.50	4950.23
424.69	4945.55
424.88	4802.78
425.07	4887.04
425.26	4968.96
425.45	4917.47
425.64	4973.64
425.83	4856.61
426.01	4952.57
426.20	5048.54
426.39	5144.50
426.58	5055.56
426.77	4940.87
426.96	5114.07
427.15	5172.58
427.33	5238.12
427.52	5128.11
427.71	5231.10
427.90	5181.95
428.09	5261.52
428.28	5203.01
428.46	5315.36
428.65	5252.16
428.84	5467.49
429.03	5453.45
429.22	5366.85
429.40	5556.43
429.59	5504.94
429.78	5408.98
429.97	5315.36
430.16	5497.92
430.34	5657.07
430.53	5483.88
430.72	5582.18
430.91	5647.71
431.10	5750.70
431.28	5694.52
431.47	5830.27
431.66	5863.04
431.85	5781.12
432.03	5872.40
432.22	5916.87
432.41	5767.08
432.60	5870.06
432.79	5820.91
432.97	5902.83
433.16	6012.84
433.35	5973.05
433.54	5902.83
433.72	6120.50
433.91	6029.22
434.10	6111.14
434.28	6052.63
434.47	6150.93
434.66	6270.30
434.85	6221.14
435.03	6347.53
435.22	6214.12
435.41	6604.99
435.59	6377.96
435.78	6338.17
435.97	6438.81
436.16	6401.37
436.34	6370.94
436.53	6562.86
436.72	6815.64
436.90	6422.43
437.09	6445.84
437.28	6464.56
437.46	6499.67
437.65	6764.15
437.84	6642.44
438.02	6799.26
438.21	6705.63
438.40	6623.72
438.58	6927.99
438.77	7002.88
438.96	6864.79
439.14	7028.63
439.33	6953.73
439.52	7133.95
439.70	7133.95
439.89	7330.56
440.08	7428.86
440.26	7279.07
440.45	7185.44
440.63	7239.28
440.82	7520.14
441.01	7400.77
441.19	7428.86
441.38	7676.96
441.57	7634.83
441.75	7613.76
441.94	7903.99
442.12	7742.49
442.31	7932.08
442.50	7887.61
442.68	7712.07
442.87	7978.89
443.05	8088.89
443.24	8173.15
443.43	8161.45
443.61	8060.80
443.80	8437.63
443.98	8056.12
444.17	7873.56
444.35	8035.06
444.54	8280.82
444.73	8374.44
444.91	8079.53
445.10	8290.18
445.28	8421.25
445.47	8292.52
445.65	8175.49
445.84	8439.97
446.02	8362.73
446.21	8327.63
446.39	8297.20
446.58	8493.80
446.77	8383.80
446.95	8262.09
447.14	8386.14
447.32	8442.31
447.51	8430.61
447.69	8432.95
447.88	8402.52
448.06	8360.39
448.25	8573.38
448.43	8521.89
448.62	8589.77
448.80	8638.92
448.99	8594.45
449.17	8470.40
449.36	8564.02
449.54	8791.05
449.73	8929.14
449.91	8987.66
450.10	8964.25
450.28	8997.02
450.46	8814.46
450.65	8807.44
450.83	8819.14
451.02	8865.95
451.20	9121.07
451.39	8966.59
451.57	9022.77
451.76	9097.66
451.94	9095.32
452.13	9146.81
452.31	9575.13
452.49	9221.71
452.68	9455.76
452.86	9130.43
453.05	9310.65
453.23	9394.91
453.42	9193.62
453.60	9259.16
453.78	9593.86
453.97	9348.10
454.15	9547.05
454.34	9584.49
454.52	9764.72
454.70	9668.75
454.89	9600.88
455.07	9774.08
455.26	9806.84
455.44	9895.78
455.62	9844.29
455.81	9818.55
455.99	9891.10
456.17	10097.07
456.36	9984.73
456.54	10216.44
456.73	10319.42
456.91	10345.17
457.09	10366.23
457.28	10420.06
457.46	10417.72
457.64	10520.71
457.83	10537.09
458.01	10417.72
458.19	10597.95
458.38	10466.88
458.56	10565.18
458.74	10654.12
458.93	10712.63
459.11	10525.39
459.29	10778.17
459.48	10752.42
459.66	10876.47
459.84	10768.80
460.03	10981.79
460.21	10780.51
460.39	10782.85
460.57	11030.94
460.76	11016.90
460.94	11150.31
461.12	11145.63
461.31	11044.99
461.49	11328.19
461.67	11122.23
461.85	11583.31
462.04	11225.21
462.22	11735.45
462.40	11435.86
462.59	11576.29
462.77	11576.29
462.95	11503.73
463.13	11571.61
463.32	11536.50
463.50	11712.04
463.68	11800.98
463.86	11784.60
464.05	11585.65
464.23	11644.17
464.41	11840.77
464.59	11599.70
464.78	11889.92
464.96	11957.80
465.14	11735.45
465.32	11740.13
465.50	11906.31
465.69	11941.41
465.87	12105.25
466.05	12004.61
466.23	12215.26
466.41	12241.00
466.60	12416.54
466.78	12051.42
466.96	12208.23
467.14	12278.45
467.32	12271.43
467.51	12290.15
467.69	12280.79
467.87	12400.16
468.05	12306.54
468.23	12238.66
468.41	12236.32
468.60	12662.30
468.78	12819.11
468.96	12671.66
469.14	12472.71
469.32	13008.70
469.50	12608.47
469.69	12690.38
469.87	12805.07
470.05	13107.00
470.23	13202.96
470.41	13128.06
470.59	13324.67
470.77	13467.44
470.95	13413.61
471.14	13474.46
471.32	12987.63
471.50	13472.12
471.68	13558.72
471.86	13465.10
472.04	13610.22
472.22	13907.46
472.40	13554.04
472.58	13675.75
472.77	14225.78
472.95	14075.98
473.13	14319.40
473.31	14064.28
473.49	13755.33
473.67	14029.17
473.85	14244.50
474.03	14300.67
474.21	14581.54
474.39	14628.35
474.57	14560.47
474.75	14745.38
474.93	14899.85
475.12	14829.63
475.30	15131.56
475.48	15021.56
475.66	15234.55
475.84	15187.74
476.02	15222.84
476.20	15166.67
476.38	15344.55
476.56	15948.41
476.74	15709.68
476.92	15817.34
477.10	15903.94
477.28	16095.86
477.46	15985.86
477.64	16334.60
477.82	16816.75
478.00	16950.16
478.18	16641.21
478.36	16842.50
478.54	17069.53
478.72	17011.01
478.90	17280.18
479.08	17287.20
479.26	17509.55
479.44	17621.89
479.62	17654.66
479.80	17823.18
479.98	18223.41
480.16	18183.62
480.34	18066.60
480.52	18590.88
480.70	18576.83
480.88	18321.71
481.06	18864.72
481.24	18878.76
481.41	18902.17
481.59	19288.35
481.77	19241.54
481.95	19398.36
482.13	19632.41
482.31	19386.66
482.49	20109.88
482.67	20123.93
482.85	20489.05
483.03	20226.91
483.21	20889.28
483.39	20922.05
483.57	20870.56
483.74	21071.84
483.92	21123.33
484.10	21252.06
484.28	21261.43
484.46	21916.78
484.64	22232.75
484.82	21839.54
485.00	22223.39
485.18	22581.49
485.35	22827.24
485.53	22733.62
485.71	22977.04
485.89	23330.46
486.07	23063.64
486.25	23346.84
486.43	23487.28
486.61	23777.50
486.78	24018.58
486.96	24077.09
487.14	24634.14
487.32	24374.34
487.50	24727.76
487.68	24837.76
487.85	25216.93
488.03	25153.74
488.21	25755.26
488.39	25682.70
488.57	25928.45
488.75	26153.15
488.92	26223.36
489.10	26632.96
489.28	26539.33
489.46	26857.65
489.64	26403.58
489.81	27395.97
489.99	27236.81
490.17	27365.54
490.35	28261.97
490.53	28128.56
490.70	28037.28
490.88	28121.54
491.06	28657.52
491.24	28613.05
491.41	28690.29
491.59	28933.70
491.77	29113.92
491.95	29404.15
492.13	29628.84
492.30	30307.60
492.48	30103.97
492.66	29769.27
492.84	30199.93
493.01	30562.72
493.19	30326.32
493.37	30768.68
493.54	30953.58
493.72	30752.30
493.90	31381.90
494.08	31426.37
494.25	31913.20
494.43	32004.49
494.61	31929.59
494.79	32367.27
494.96	32046.62
495.14	32484.30
495.32	32863.46
495.49	32842.40
495.67	32788.56
495.85	33364.34
496.02	33544.56
496.20	33572.64
496.38	33551.58
496.55	33963.51
496.73	34600.14
496.91	34082.88
497.09	34637.59
497.26	34506.52
497.44	35070.59
497.62	35402.94
497.79	35637.00
497.97	35391.24
498.14	35618.27
498.32	35955.31
498.50	35920.20
498.67	36638.75
498.85	36280.64
499.03	36320.43
499.20	36400.01
499.38	36404.69
499.56	36720.66
499.73	37046.00
499.91	37212.18
500.08	37027.28
500.26	37724.75
500.44	37474.32
500.61	37614.75
500.79	36968.76
500.97	38000.94
501.14	38249.03
501.32	38541.60
501.49	38464.36
501.67	38216.27
501.84	38773.31
502.02	38504.15
502.20	39166.52
502.37	39084.61
502.55	39061.20
502.72	39016.73
502.90	39438.03
503.07	39620.59
503.25	39559.73
503.43	39761.02
503.60	39924.86
503.78	39985.71
503.95	40095.72
504.13	40304.02
504.30	40627.02
504.48	40203.38
504.65	40463.18
504.83	40851.71
505.01	40739.36
505.18	40942.99
505.36	41354.93
505.53	40629.36
505.71	41397.06
505.88	41329.18
506.06	41069.38
506.23	41947.08
506.41	41902.61
506.58	41984.53
506.76	41720.05
506.93	42550.94
507.11	41900.27
507.28	42204.54
507.46	42218.58
507.63	42822.44
507.81	43077.56
507.98	42529.87
508.16	42909.04
508.33	42782.65
508.50	43461.41
508.68	43351.40
508.85	43650.99
509.03	43590.14
509.20	43896.75
509.38	44027.82
509.55	44069.95
509.73	44533.37
509.90	43894.41
510.08	44154.21
510.25	44158.89
510.42	44423.37
510.60	44559.12
510.77	44971.05
510.95	45549.17
511.12	44779.13
511.30	44648.06
511.47	45350.22
511.64	45083.40
511.82	45492.99
511.99	45460.23
512.17	45832.37
512.34	45731.73
512.51	46513.47
512.69	46181.11
512.86	46361.33
513.04	46593.04
513.21	46649.22
513.38	46328.56
513.56	46555.60
513.73	46637.51
513.90	46712.41
514.08	46705.39
514.25	46703.05
514.43	47058.81
514.60	47206.26
514.77	47196.90
514.95	47501.17
515.12	47515.22
515.29	47166.48
515.47	47599.47
515.64	47569.05
515.81	47650.97
515.99	48039.50
516.16	48156.52
516.33	48175.25
516.51	48090.99
516.68	47948.21
516.85	48549.73
517.03	48856.34
517.20	48701.87
517.37	48416.32
517.54	48655.06
517.72	48758.04
517.89	48837.62
518.06	49081.03
518.24	48797.83
518.41	49483.61
518.58	49083.37
518.75	48966.35
518.93	49392.33
519.10	49048.27
519.27	49621.70
519.45	49659.15
519.62	49785.54
519.79	49881.50
519.96	49474.24
520.14	49918.95
520.31	49937.67
520.48	49961.08
520.65	49989.16
520.83	50497.06
521.00	50291.09
521.17	50473.65
521.34	50412.80
521.52	50845.80
521.69	50866.86
521.86	50780.26
522.03	50756.86
522.20	51056.45
522.38	51231.99
522.55	50951.12
522.72	51068.15
522.89	51379.44
523.07	51667.33
523.24	51295.18
523.41	51505.83
523.58	51414.55
523.75	51821.80
523.92	51721.16
524.10	51821.80
524.27	51915.42
524.44	51847.55
524.61	51978.62
524.78	51964.57
524.96	51995.00
525.13	52048.83
525.30	52112.03
525.47	52435.02
525.64	52168.20
525.81	52416.30
525.98	52664.39
526.16	52327.36
526.33	52439.70
526.50	52699.50
526.67	52383.53
526.84	52774.40
527.01	52877.38
527.18	52692.48
527.36	52687.80
527.53	52842.27
527.70	53289.32
527.87	53120.80
528.04	52928.87
528.21	53359.53
528.38	53172.29
528.55	53062.29
528.72	53268.25
528.89	53502.31
529.07	53268.25
529.24	53616.99
529.41	53406.34
529.58	53612.31
529.75	53497.62
529.92	53813.60
530.09	53755.08
530.26	53701.25
530.43	53888.49
530.60	53446.13
530.77	53731.68
530.94	54134.25
531.11	53635.72
531.28	53874.45
531.46	53801.89
531.63	53895.52
531.80	53970.41
531.97	54204.47
532.14	54384.69
532.31	54438.52
532.48	54248.94
532.65	54326.17
532.82	54347.24
532.99	54630.44
533.16	54143.61
533.33	54738.11
533.50	54843.43
533.67	54663.21
533.84	54475.97
534.01	54791.94
534.18	54740.45
534.35	55023.65
534.52	54803.64
534.69	54829.39
534.86	55093.87
535.03	54939.39
535.20	55033.02
535.37	55395.80
535.54	55229.62
535.71	55199.19
535.88	55426.23
536.05	55407.50
536.22	55454.31
536.38	55501.12
536.55	55587.72
536.72	55285.79
536.89	55257.71
537.06	55604.11
537.23	55721.13
537.40	55482.40
537.57	55629.85
537.74	55653.26
537.91	55847.52
538.08	55583.04
538.25	55458.99
538.42	55819.44
538.59	55896.67
538.75	55772.63
538.92	55824.12
539.09	56088.60
539.26	56065.19
539.43	55814.76
539.60	56072.21
539.77	56030.08
539.94	56362.44
540.11	56140.09
540.28	56072.21
540.44	56236.05
540.61	56261.80
540.78	56076.90
540.95	56243.07
541.12	56252.44
541.29	56175.20
541.46	56409.25
541.62	56526.28
541.79	56404.57
541.96	56303.93
542.13	56474.79
542.30	56486.49
542.47	56521.60
542.63	56645.65
542.80	56811.82
542.97	56942.89
543.14	57261.21
543.31	56959.28
543.48	57104.39
543.64	57488.24
543.81	57183.97
543.98	57375.89
544.15	57179.29
544.32	57385.25
544.48	57453.13
544.65	57144.18
544.82	57031.83
544.99	57151.20
545.16	57354.83
545.32	57200.35
545.49	57443.77
545.66	57525.69
545.83	57111.41
546.00	57546.75
546.16	57668.46
546.33	57588.88
546.50	57141.84
546.67	57572.50
546.83	57446.11
547.00	57591.22
547.17	57785.49
547.34	57752.72
547.50	57946.98
547.67	57743.36
547.84	57670.80
548.00	57909.53
548.17	58012.52
548.34	57748.04
548.51	57975.07
548.67	58181.04
548.84	58017.20
549.01	57897.83
549.18	58211.46
549.34	58064.01
549.51	58108.48
549.68	58096.78
549.84	58122.52
550.01	58080.39
550.18	57970.39
550.34	58295.72
550.51	58286.36
550.68	58192.74
550.84	58162.31
551.01	58230.19
551.18	58417.43
551.34	58368.28
551.51	58319.13
551.68	58541.48
551.84	58569.57
552.01	58405.73
552.18	58499.35
552.34	58391.68
552.51	58487.65
552.68	58431.47
552.84	58564.88
553.01	58742.77
553.18	58578.93
553.34	58855.11
553.51	58688.93
553.67	58494.67
553.84	58817.66
554.01	58745.11
554.17	58731.06
554.34	58941.71
554.51	59068.10
554.67	59135.98
554.84	58770.85
555.00	58824.68
555.17	58960.44
555.33	59023.63
555.50	58780.21
555.67	58707.66
555.83	58904.26
556.00	58993.20
556.16	59421.52
556.33	59021.29
556.50	59180.45
556.66	59093.85
556.83	59065.76
556.99	59311.52
557.16	59377.05
557.32	59313.86
557.49	59480.03
557.65	59358.33
557.82	59372.37
557.98	59250.66
558.15	59320.88
558.32	59278.75
558.48	59269.39
558.65	59414.50
558.81	59522.16
558.98	59302.15
559.14	59552.59
559.31	59473.01
559.47	59531.53
559.64	59578.34
559.80	59503.44
559.97	59489.40
560.13	59421.52
560.30	59646.21
560.46	59744.51
560.63	59690.68
560.79	59671.96
560.96	59702.38
561.12	59772.60
561.29	59693.02
561.45	59597.06
561.61	59700.04
561.78	59800.69
561.94	59611.10
562.11	59962.18
562.27	59828.77
562.44	59861.54
562.60	60079.21
562.77	59924.74
562.93	59643.87
563.10	59959.84
563.26	59599.40
563.42	60072.19
563.59	59835.80
563.75	59969.21
563.92	59868.56
564.08	60102.62
564.24	59859.20
564.41	59913.03
564.57	59973.89
564.74	60214.96
564.90	59807.71
565.07	59966.87
565.23	59880.27
565.39	59880.27
565.56	60224.32
565.72	60219.64
565.88	60123.68
566.05	60135.38
566.21	60119.00
566.38	60154.11
566.54	60214.96
566.70	60350.71
566.87	60339.01
567.03	60090.91
567.19	60341.35
567.36	60327.31
567.52	60161.13
567.68	60416.25
567.85	60392.84
568.01	60441.99
568.17	60243.05
568.34	60324.97
568.50	60275.82
568.66	60360.08
568.83	60552.00
568.99	60158.79
569.15	60289.86
569.32	60011.34
569.48	60308.58
569.64	60425.61
569.81	60308.58
569.97	60214.96
570.13	60224.32
570.30	60203.26
570.46	60231.35
570.62	60273.48
570.78	60247.73
570.95	60189.22
571.11	60369.44
571.27	60404.55
571.43	60477.10
571.60	60657.32
571.76	60308.58
571.92	60444.33
572.09	60491.15
572.25	60409.23
572.41	60353.05
572.57	60371.78
572.74	60624.56
572.90	60427.95
573.06	60608.17
573.22	60406.89
573.38	60612.85
573.55	60598.81
573.71	60587.11
573.87	60514.55
574.03	60430.29
574.20	60610.51
574.36	60495.83
574.52	60755.63
574.68	60474.76
574.84	60643.28
575.01	60711.16
575.17	60669.03
575.33	60552.00
575.49	60376.46
575.65	60587.11
575.82	60666.69
575.98	60680.73
576.14	60790.73
576.30	60601.15
576.46	60610.51
576.62	60640.94
576.79	60495.83
576.95	60633.92
577.11	60584.77
577.27	60662.00
577.43	60687.75
577.59	60608.17
577.75	60528.59
577.92	60397.52
578.08	60519.23
578.24	60659.66
578.40	60952.23
578.56	60856.27
578.72	60736.90
578.88	60874.99
579.04	60736.90
579.21	60718.18
579.37	60776.69
579.53	60790.73
579.69	60697.11
579.85	60671.37
580.01	60671.37
580.17	60516.89
580.33	60961.59
580.49	60977.98
580.65	60910.10
580.82	60912.44
580.98	60669.03
581.14	60816.48
581.30	61043.51
581.46	60697.11
581.62	61031.81
581.78	60779.03
581.94	60666.69
582.10	60683.07
582.26	60788.39
582.42	60846.91
582.58	60774.35
582.74	60664.35
582.90	60743.92
583.06	60830.52
583.22	60603.49
583.38	60781.37
583.54	60804.78
583.70	60846.91
583.86	60781.37
584.02	60669.03
584.18	60996.70
584.34	60823.50
584.50	60835.20
584.66	60697.11
584.82	60549.66
584.98	61038.83
585.14	60977.98
585.30	60718.18
585.46	60919.46
585.62	60935.85
585.78	61202.67
585.94	60612.85
586.10	60863.29
586.26	60966.27
586.42	60898.40
586.58	60879.67
586.74	60865.63
586.90	60985.00
587.06	61031.81
587.22	60977.98
587.38	60919.46
587.54	61144.16
587.70	61183.94
587.86	61055.21
588.02	61001.38
588.18	61087.98
588.34	60898.40
588.49	60935.85
