SpectraSuite Data File
++++++++++++++++++++++++++++++++++++
Date: Fri Oct 25 11:22:30 EDT 2013
User: price-jones
Dark Spectrum Present: No
Reference Spectrum Present: No
Number of Sampled Component Spectra: 1
Spectrometers: USB2+H05261
Integration Time (usec): 100000 (USB2+H05261)
Spectra Averaged: 1 (USB2+H05261)
Boxcar Smoothing: 0 (USB2+H05261)
Correct for Electrical Dark: No (USB2+H05261)
Strobe/Lamp Enabled: No (USB2+H05261)
Correct for Detector Non-linearity: No (USB2+H05261)
Correct for Stray Light: No (USB2+H05261)
Number of Pixels in Processed Spectrum: 2048
>>>>>Begin Processed Spectral Data<<<<<
365.73	215.33
365.92	215.33
366.12	215.33
366.32	138.09
366.52	154.48
366.72	124.05
366.91	124.05
367.11	93.62
367.31	112.35
367.51	91.28
367.70	135.75
367.90	154.48
368.10	107.66
368.30	51.49
368.49	133.41
368.69	149.79
368.89	220.01
369.09	168.52
369.28	203.63
369.48	180.22
369.68	168.52
369.87	133.41
370.07	222.35
370.27	222.35
370.47	374.49
370.66	599.18
370.86	617.90
371.06	620.24
371.25	669.39
371.45	716.20
371.65	692.80
371.84	634.29
372.04	662.37
372.24	718.54
372.44	763.01
372.63	720.88
372.83	753.65
373.03	767.70
373.22	786.42
373.42	791.10
373.62	788.76
373.81	751.31
374.01	779.40
374.21	802.80
374.40	823.87
374.60	770.04
374.79	821.53
374.99	842.59
375.19	802.80
375.38	861.32
375.58	814.51
375.78	821.53
375.97	861.32
376.17	894.08
376.37	788.76
376.56	805.14
376.76	912.81
376.95	823.87
377.15	854.30
377.35	891.74
377.54	987.71
377.74	905.79
377.93	915.15
378.13	954.94
378.33	945.58
378.52	870.68
378.72	999.41
378.91	987.71
379.11	994.73
379.31	940.90
379.50	856.64
379.70	1039.20
379.89	987.71
380.09	1041.54
380.28	1020.47
380.48	1013.45
380.68	1053.24
380.87	997.07
381.07	983.02
381.26	987.71
381.46	1008.77
381.65	1050.90
381.85	1100.05
382.04	1090.69
382.24	1018.13
382.43	1008.77
382.63	1097.71
382.83	1046.22
383.02	1076.65
383.22	1121.12
383.41	1081.33
383.61	1102.39
383.80	1186.65
384.00	1090.69
384.19	1032.18
384.39	1179.63
384.58	1186.65
384.78	1114.10
384.97	1235.80
385.17	1184.31
385.36	1144.52
385.56	1137.50
385.75	1111.75
385.95	1207.72
386.14	1266.23
386.34	1198.35
386.53	1156.22
386.72	1170.27
386.92	1322.40
387.11	1153.88
387.31	1266.23
387.50	1188.99
387.70	1123.46
387.89	1284.95
388.09	1240.48
388.28	1287.29
388.48	1296.66
388.67	1277.93
388.86	1228.78
389.06	1294.32
389.25	1242.82
389.45	1317.72
389.64	1411.34
389.84	1495.60
390.03	1380.92
390.22	1345.81
390.42	1397.30
390.61	1387.94
390.81	1313.04
391.00	1439.43
391.19	1465.18
391.39	1427.73
391.58	1364.53
391.78	1425.39
391.97	1483.90
392.16	1476.88
392.36	1523.69
392.55	1563.48
392.75	1563.48
392.94	1507.30
393.13	1533.05
393.33	1554.12
393.52	1537.73
393.71	1572.84
393.91	1540.07
394.10	1558.80
394.29	1584.54
394.49	1638.38
394.68	1682.85
394.88	1629.01
395.07	1664.12
395.26	1715.61
395.46	1673.48
395.65	1696.89
395.84	1699.23
396.04	1799.87
396.23	1767.10
396.42	1813.92
396.62	1710.93
396.81	1715.61
397.00	1823.28
397.19	1813.92
397.39	1720.29
397.58	1797.53
397.77	1739.02
397.97	1930.94
398.16	1867.75
398.35	1856.04
398.55	1806.89
398.74	1952.01
398.93	1968.39
399.12	1935.62
399.32	2078.40
399.51	1898.17
399.70	2064.35
399.90	1989.46
400.09	2024.56
400.28	2017.54
400.47	2038.61
400.67	2143.93
400.86	2120.53
401.05	2052.65
401.24	2071.37
401.44	2085.42
401.63	2069.03
401.82	2118.18
402.01	2265.64
402.21	2172.02
402.40	2122.87
402.59	2218.83
402.78	2106.48
402.97	2169.68
403.17	2186.06
403.36	2157.97
403.55	2277.34
403.74	2328.83
403.93	2434.16
404.13	2574.59
404.32	2375.64
404.51	2441.18
404.70	2502.03
404.89	2396.71
405.09	2492.67
405.28	2495.01
405.47	2504.37
405.66	2478.63
405.85	2527.78
406.05	2518.42
406.24	2576.93
406.43	2602.68
406.62	2656.51
406.81	2745.45
407.00	2630.76
407.20	2560.55
407.39	2609.70
407.58	2647.15
407.77	2689.28
407.96	2672.89
408.15	2878.86
408.34	2738.43
408.54	2876.52
408.73	2820.35
408.92	2876.52
409.11	2869.50
409.30	2754.81
409.49	2951.42
409.68	2944.39
409.87	2928.01
410.07	3056.74
410.26	3009.93
410.45	3042.70
410.64	3028.65
410.83	3110.57
411.02	3126.96
411.21	3194.83
411.40	3185.47
411.59	3150.36
411.78	3166.74
411.98	3143.34
412.17	3255.69
412.36	3304.84
412.55	3314.20
412.74	3449.95
412.93	3431.23
413.12	3307.18
413.31	3503.78
413.50	3440.59
413.69	3562.30
413.88	3585.70
414.07	3592.72
414.26	3585.70
414.45	3707.41
414.64	3688.68
414.83	3747.20
415.02	3754.22
415.22	3918.06
415.41	3833.80
415.60	3918.06
415.79	3927.42
415.98	3969.55
416.17	4081.89
416.36	4088.92
416.55	3997.64
416.74	4147.43
416.93	4072.53
417.12	4152.11
417.31	4219.99
417.50	4138.07
417.69	4400.21
417.88	4278.50
418.07	4224.67
418.26	4390.84
418.45	4386.16
418.64	4498.51
418.83	4327.65
419.02	4491.49
419.21	4461.06
419.39	4601.49
419.58	4451.70
419.77	4395.53
419.96	4610.86
420.15	4641.28
420.34	4627.24
420.53	4737.24
420.72	4702.14
420.91	4695.11
421.10	4636.60
421.29	4812.14
421.48	4753.63
421.67	4905.76
421.86	4795.76
422.05	4784.06
422.24	4748.95
422.43	5032.15
422.61	4880.02
422.80	5093.01
422.99	4905.76
423.18	5027.47
423.37	5057.90
423.56	4978.32
423.75	4985.34
423.94	4896.40
424.13	4603.83
424.32	4772.35
424.50	5067.26
424.69	5100.03
424.88	5146.84
425.07	5060.24
425.26	5198.33
425.45	4975.98
425.64	4945.55
425.83	4975.98
426.01	4992.36
426.20	5004.07
426.39	5074.28
426.58	5022.79
426.77	5036.83
426.96	5231.10
427.15	5104.71
427.33	5193.65
427.52	5198.33
427.71	5364.51
427.90	5303.65
428.09	5219.39
428.28	5448.77
428.46	5540.05
428.65	5406.64
428.84	5500.26
429.03	5486.22
429.22	5535.37
429.40	5465.15
429.59	5493.24
429.78	5430.04
429.97	5530.69
430.16	5530.69
430.34	5685.16
430.53	5675.80
430.72	5696.86
430.91	5605.58
431.10	5661.76
431.28	5753.04
431.47	5820.91
431.66	5849.00
431.85	5959.00
432.03	5954.32
432.22	5914.53
432.41	6019.86
432.60	6050.28
432.79	6085.39
432.97	6024.54
433.16	6113.48
433.35	6207.10
433.54	6033.90
433.72	6127.52
433.91	6244.55
434.10	6296.04
434.28	6183.70
434.47	6298.38
434.66	6431.79
434.85	6349.87
435.03	6253.91
435.22	6293.70
435.41	6633.08
435.59	6473.92
435.78	6518.39
435.97	6558.18
436.16	6576.91
436.34	6504.35
436.53	6387.32
436.72	6808.62
436.90	6480.94
437.09	6778.19
437.28	6331.15
437.46	6635.42
437.65	6609.67
437.84	6864.79
438.02	6913.94
438.21	6841.39
438.40	6815.64
438.58	7009.90
438.77	7026.29
438.96	6958.41
439.14	7126.93
439.33	7255.66
439.52	7290.77
439.70	7272.04
439.89	7440.56
440.08	7389.07
440.26	7485.03
440.45	7356.30
440.63	7538.87
440.82	7679.30
441.01	7627.81
441.19	7784.62
441.38	7737.81
441.57	7765.90
441.75	7955.48
441.94	8149.75
442.12	8116.98
442.31	8070.17
442.50	8063.15
442.68	8065.49
442.87	8210.60
443.05	8245.71
443.24	8315.92
443.43	8245.71
443.61	8217.62
443.80	8524.23
443.98	8175.49
444.17	8037.40
444.35	8264.43
444.54	8390.82
444.73	8369.76
444.91	8557.00
445.10	8688.07
445.28	8519.55
445.47	8329.97
445.65	8407.20
445.84	8514.87
446.02	8358.05
446.21	8559.34
446.39	8599.13
446.58	8568.70
446.77	8617.85
446.95	8365.07
447.14	8538.27
447.32	8788.71
447.51	8688.07
447.69	8589.77
447.88	8561.68
448.06	8643.60
448.25	8652.96
448.43	8538.27
448.62	8524.23
448.80	8688.07
448.99	8875.31
449.17	8751.26
449.36	8856.59
449.54	9008.72
449.73	8828.50
449.91	9160.86
450.10	9268.52
450.28	9067.24
450.46	9092.98
450.65	9132.77
450.83	9076.60
451.02	9146.81
451.20	9214.69
451.39	9067.24
451.57	9123.41
451.76	9217.03
451.94	9488.53
452.13	9432.36
452.31	9453.42
452.49	9521.30
452.68	9511.94
452.86	9430.02
453.05	9551.73
453.23	9603.22
453.42	9446.40
453.60	9444.06
453.78	9514.28
453.97	9294.27
454.15	9467.47
454.34	9427.68
454.52	9921.53
454.70	9645.35
454.89	9774.08
455.07	9717.90
455.26	9914.51
455.44	10153.24
455.62	10080.69
455.81	10050.26
455.99	10232.82
456.17	10300.70
456.36	10221.12
456.54	10399.00
456.73	10272.61
456.91	10616.67
457.09	10710.29
457.28	10633.05
457.46	10523.05
457.64	10457.51
457.83	10700.93
458.01	10473.90
458.19	10939.66
458.38	10455.17
458.56	10911.58
458.74	10773.49
458.93	10651.78
459.11	10813.28
459.29	10871.79
459.48	10806.25
459.66	11063.71
459.84	10841.36
460.03	11213.51
460.21	11075.42
460.39	11152.65
460.57	11098.82
460.76	11314.15
460.94	11330.53
461.12	11279.04
461.31	11447.56
461.49	11297.77
461.67	11227.55
461.85	11297.77
462.04	11632.46
462.22	11585.65
462.40	11662.89
462.59	11625.44
462.77	11555.22
462.95	11796.30
463.13	11826.73
463.32	11625.44
463.50	12051.42
463.68	11957.80
463.86	11880.56
464.05	11681.61
464.23	11726.08
464.41	11910.99
464.59	11730.76
464.78	12229.30
464.96	11822.05
465.14	11824.39
465.32	12346.33
465.50	12217.60
465.69	12257.39
465.87	12255.04
466.05	12421.22
466.23	12098.23
466.41	12252.70
466.60	12755.92
466.78	12156.74
466.96	12308.88
467.14	12566.34
467.32	12355.69
467.51	12718.47
467.69	12123.98
467.87	12418.88
468.05	12854.22
468.23	12730.17
468.41	12423.56
468.60	12903.37
468.78	12821.45
468.96	12540.59
469.14	12968.91
469.32	13315.31
469.50	12994.65
469.69	13186.58
469.87	13343.39
470.05	13114.02
470.23	12996.99
470.41	13291.90
470.59	13394.89
470.77	13371.48
470.95	13270.84
471.14	13544.68
471.32	13242.75
471.50	13731.92
471.68	13614.90
471.86	13741.29
472.04	13678.09
472.22	14092.37
472.40	14029.17
472.58	13762.35
472.77	14090.02
472.95	14345.14
473.13	14728.99
473.31	14263.22
473.49	14504.30
473.67	14480.89
473.85	14586.22
474.03	14829.63
474.21	14881.13
474.39	14813.25
474.57	14846.02
474.75	15087.09
474.93	15318.81
475.12	15056.67
475.30	15236.89
475.48	15122.20
475.66	15365.62
475.84	15260.29
476.02	15627.76
476.20	15655.84
476.38	15620.74
476.56	16168.42
476.74	16107.57
476.92	16219.91
477.10	16100.55
477.28	16348.64
477.46	16514.82
477.64	16554.61
477.82	16617.80
478.00	17074.21
478.18	16889.31
478.36	17235.70
478.54	17095.27
478.72	17291.88
478.90	17591.47
479.08	17762.33
479.26	17928.50
479.44	17902.76
479.62	18188.30
479.80	18452.78
479.98	18665.77
480.16	18663.43
480.34	18394.27
480.52	18956.00
480.70	18801.52
480.88	18689.18
481.06	18871.74
481.24	19089.41
481.41	19288.35
481.59	19620.71
481.77	19782.21
481.95	19740.08
482.13	19908.60
482.31	19906.26
482.49	20524.16
482.67	20219.89
482.85	20678.63
483.03	20922.05
483.21	20952.48
483.39	21074.18
483.57	21418.24
483.74	21233.34
483.92	21664.00
484.10	21720.17
484.28	22057.21
484.46	22293.60
484.64	22267.86
484.82	22530.00
485.00	22375.52
485.18	23096.41
485.35	23288.33
485.53	23192.37
485.71	23002.78
485.89	23791.55
486.07	23641.75
486.25	23721.33
486.43	23824.31
486.61	24159.01
486.78	24285.40
486.96	24514.77
487.14	24987.56
487.32	24882.24
487.50	24889.26
487.68	25577.37
487.85	25549.29
488.03	25628.87
488.21	25792.70
488.39	25879.30
488.57	26539.33
488.75	26450.39
488.92	26382.52
489.10	26984.04
489.28	27173.62
489.46	27175.96
489.64	27658.11
489.81	28002.17
489.99	28158.99
490.17	27716.62
490.35	28376.66
490.53	28276.01
490.70	28922.00
490.88	28982.85
491.06	29319.89
491.24	29116.26
491.41	28952.43
491.59	29898.00
491.77	29841.83
491.95	29996.31
492.13	29996.31
492.30	30361.43
492.48	29933.11
492.66	30799.11
492.84	31257.85
493.01	30962.95
493.19	30682.08
493.37	31564.46
493.54	31419.35
493.72	31683.83
493.90	31693.19
494.08	31978.74
494.25	32278.33
494.43	32322.80
494.61	32811.97
494.79	32591.96
494.96	32774.52
495.14	33069.43
495.32	33455.62
495.49	33743.50
495.67	33947.13
495.85	33752.87
496.02	34300.55
496.20	34431.62
496.38	34586.10
496.55	34127.35
496.73	35129.10
496.91	34927.81
497.09	35126.76
497.26	35005.05
497.44	35426.35
497.62	35690.83
497.79	36114.47
497.97	36392.99
498.14	36418.74
498.32	36818.97
498.50	36659.81
498.67	36870.46
498.85	36971.10
499.03	36886.84
499.20	37251.97
499.38	37148.98
499.56	37530.49
499.73	37558.58
499.91	38057.11
500.08	38314.57
500.26	38000.94
500.44	38417.55
500.61	38148.39
500.79	38249.03
500.97	38899.70
501.14	39126.74
501.32	38925.45
501.49	39241.42
501.67	39194.61
501.84	39548.03
502.02	39122.05
502.20	39215.68
502.37	39548.03
502.55	39828.90
502.72	40348.50
502.90	40102.74
503.07	40289.98
503.25	40123.80
503.43	39901.45
503.60	40444.46
503.78	40699.58
503.95	41141.94
504.13	40996.82
504.30	41151.30
504.48	41165.34
504.65	40935.97
504.83	41638.13
505.01	41521.10
505.18	41666.22
505.36	41907.29
505.53	41596.00
505.71	42323.91
505.88	41862.82
506.06	41713.03
506.23	42335.61
506.41	42422.21
506.58	43037.77
506.76	42579.03
506.93	43154.80
507.11	42944.15
507.28	43356.08
507.46	42806.06
507.63	43585.46
507.81	43831.21
507.98	43533.96
508.16	43555.03
508.33	44327.41
508.50	43924.83
508.68	44196.34
508.85	44680.83
509.03	44311.02
509.20	44226.76
509.38	44818.92
509.55	44729.98
509.73	45043.61
509.90	44491.24
510.08	45235.53
510.25	44905.52
510.42	45116.17
510.60	45528.10
510.77	45535.12
510.95	45968.12
511.12	46059.40
511.30	45612.36
511.47	45879.18
511.64	46153.02
511.82	46543.89
511.99	46120.26
512.17	46248.99
512.34	46181.11
512.51	46857.52
512.69	46532.19
512.86	46801.35
513.04	47049.45
513.21	47112.64
513.38	47154.77
513.56	47246.05
513.73	47206.26
513.90	47501.17
514.08	47285.84
514.25	47559.69
514.43	47739.91
514.60	48093.33
514.77	47634.58
514.95	48055.88
515.12	48041.84
515.29	47739.91
515.47	48720.59
515.64	48381.21
515.81	48451.43
515.99	48748.68
516.16	48704.21
516.33	48729.95
516.51	49258.91
516.68	48652.72
516.85	48722.93
517.03	49586.59
517.20	49439.14
517.37	49397.01
517.54	49261.26
517.72	49565.52
517.89	49567.87
518.06	49766.81
518.24	49771.49
518.41	49834.69
518.58	49806.60
518.75	49673.19
518.93	49762.13
519.10	50085.12
519.27	50129.59
519.45	50255.98
519.62	50473.65
519.79	50260.66
519.96	50361.31
520.14	50562.59
520.31	50440.89
520.48	50827.07
520.65	50670.26
520.83	51033.04
521.00	51065.81
521.17	50784.94
521.34	51107.94
521.52	50892.61
521.69	51086.87
521.86	51552.64
522.03	51646.26
522.20	51711.80
522.38	51725.84
522.55	51636.90
522.72	51510.51
522.89	51557.32
523.07	52128.41
523.24	52205.65
523.41	52126.07
523.58	51814.78
523.75	52224.37
523.92	52109.69
524.10	52048.83
524.27	52446.72
524.44	52552.05
524.61	52505.24
524.78	52474.81
524.96	52814.19
525.13	52814.19
525.30	52952.28
525.47	52992.07
525.64	52926.53
525.81	53015.47
525.98	53286.98
526.16	53158.25
526.33	53209.74
526.50	53485.92
526.67	53118.46
526.84	53294.00
527.01	53120.80
527.18	53226.12
527.36	53230.80
527.53	53230.80
527.70	53542.10
527.87	53598.27
528.04	53556.14
528.21	53909.56
528.38	53811.26
528.55	53879.13
528.72	53764.45
528.89	53689.55
529.07	53635.72
529.24	53928.28
529.41	54092.12
529.58	53975.09
529.75	53876.79
529.92	54230.21
530.09	54302.77
530.26	54361.28
530.43	54417.46
530.60	54183.40
530.77	54445.54
530.94	54279.36
531.11	54260.64
531.28	54309.79
531.46	54623.42
531.63	54822.37
531.80	54691.30
531.97	54885.56
532.14	55117.28
532.31	54822.37
532.48	54553.21
532.65	55049.40
532.82	55070.46
532.99	54869.18
533.16	54953.44
533.33	55178.13
533.50	55042.38
533.67	55061.10
533.84	54887.90
534.01	55180.47
534.18	55002.59
534.35	55690.71
534.52	55501.12
534.69	55667.30
534.86	55571.34
535.03	55470.70
535.20	55339.63
535.37	55704.75
535.54	55842.84
535.71	55587.72
535.88	55891.99
536.05	55725.81
536.22	55803.05
536.38	55845.18
536.55	55973.91
536.72	56069.87
536.89	55852.20
537.06	55922.42
537.23	56292.22
537.40	56041.79
537.57	56088.60
537.74	55952.85
537.91	56182.22
538.08	55966.89
538.25	55908.38
538.42	56102.64
538.59	56432.66
538.75	56025.40
538.92	56320.31
539.09	56582.45
539.26	56416.27
539.43	56432.66
539.60	56577.77
539.77	56683.09
539.94	56727.56
540.11	56341.38
540.28	56685.43
540.44	56671.39
540.61	56685.43
540.78	56573.09
540.95	56612.88
541.12	56755.65
541.29	56762.67
541.46	56802.46
541.62	56793.10
541.79	57064.60
541.96	56846.93
542.13	56671.39
542.30	57125.46
542.47	56970.98
542.63	57080.98
542.80	57139.50
542.97	57385.25
543.14	57600.58
543.31	57593.56
543.48	57401.64
543.64	57682.50
543.81	57422.70
543.98	57719.95
544.15	57605.26
544.32	57776.12
544.48	57869.75
544.65	57731.65
544.82	57638.03
544.99	57518.67
545.16	57776.12
545.32	57801.87
545.49	57991.45
545.66	58089.76
545.83	58075.71
546.00	58078.05
546.16	57989.11
546.33	57954.00
546.50	57656.76
546.67	58024.22
546.83	57862.72
547.00	57942.30
547.17	58164.65
547.34	58038.26
547.50	58239.55
547.67	58333.17
547.84	58382.32
548.00	58447.86
548.17	58557.86
548.34	58398.71
548.51	58548.50
548.67	58599.99
548.84	58511.05
549.01	58487.65
549.18	58487.65
549.34	58635.10
549.51	58445.52
549.68	58693.61
549.84	58710.00
550.01	58667.87
550.18	58475.94
550.34	58827.02
550.51	58890.22
550.68	58913.62
550.84	58520.41
551.01	59018.95
551.18	58787.24
551.34	59023.63
551.51	58829.37
551.68	58869.15
551.84	58941.71
552.01	58768.51
552.18	59133.63
552.34	58815.32
552.51	58852.77
552.68	58766.17
552.84	58932.35
553.01	59290.45
553.18	59009.59
553.34	58981.50
553.51	58979.16
553.67	59253.00
553.84	59086.82
554.01	59238.96
554.17	59215.55
554.34	59400.46
554.51	59304.49
554.67	59372.37
554.84	59128.95
555.00	59304.49
555.17	59058.74
555.33	59515.14
555.50	59248.32
555.67	59337.26
555.83	59351.30
556.00	59360.67
556.16	59653.23
556.33	59704.73
556.50	59515.14
556.66	59524.50
556.83	59447.27
556.99	59735.15
557.16	59728.13
557.32	59777.28
557.49	60119.00
557.65	59695.36
557.82	59681.32
557.98	59636.85
558.15	59803.03
558.32	59873.24
558.48	59763.24
558.65	59702.38
558.81	59650.89
558.98	59700.04
559.14	59994.95
559.31	60170.49
559.47	59880.27
559.64	59922.40
559.80	60046.44
559.97	60016.02
560.13	59744.51
560.30	60069.85
560.46	60023.04
560.63	59978.57
560.79	60168.15
560.96	60086.23
561.12	60212.62
561.29	60200.92
561.45	60151.77
561.61	59952.82
561.78	60109.64
561.94	60102.62
562.11	59950.48
562.27	60165.81
562.44	60119.00
562.60	60212.62
562.77	60065.17
562.93	60048.78
563.10	60186.88
563.26	60217.30
563.42	60474.76
563.59	60418.59
563.75	60439.65
563.92	60289.86
564.08	60198.58
564.24	60346.03
564.41	60390.50
564.57	60207.94
564.74	60353.05
564.90	60385.82
565.07	60500.51
565.23	60505.19
565.39	60343.69
565.56	60444.33
565.72	60362.42
565.88	60406.89
566.05	60444.33
566.21	60427.95
566.38	60472.42
566.54	60566.04
566.70	60549.66
566.87	60530.93
567.03	60449.02
567.19	60692.43
567.36	60493.49
567.52	60615.19
567.68	60521.57
567.85	60430.29
568.01	60631.58
568.17	60697.11
568.34	60734.56
568.50	60610.51
568.66	60493.49
568.83	60858.61
568.99	60636.26
569.15	60774.35
569.32	60727.54
569.48	60556.68
569.64	60851.59
569.81	60736.90
569.97	60729.88
570.13	60800.10
570.30	60699.45
570.46	60720.52
570.62	60750.94
570.78	60877.33
570.95	60814.14
571.11	60814.14
571.27	60678.39
571.43	60823.50
571.60	60809.46
571.76	60776.69
571.92	60835.20
572.09	60851.59
572.25	60804.78
572.41	60924.14
572.57	60706.47
572.74	61013.08
572.90	61017.77
573.06	61059.90
573.22	61017.77
573.38	60804.78
573.55	60781.37
573.71	61092.66
573.87	60896.06
574.03	60725.20
574.20	60935.85
574.36	60867.97
574.52	61087.98
574.68	60891.38
574.84	61181.60
575.01	61113.73
575.17	60896.06
575.33	61092.66
575.49	60956.91
575.65	61043.51
575.82	60926.49
575.98	61024.79
576.14	61214.37
576.30	61228.41
576.46	61050.53
576.62	61162.88
576.79	60996.70
576.95	60919.46
577.11	60952.23
577.27	61141.81
577.43	61116.07
577.59	60959.25
577.75	61050.53
577.92	60994.36
578.08	60961.59
578.24	61200.33
578.40	61078.62
578.56	61132.45
578.72	61197.99
578.88	61169.90
579.04	61073.94
579.21	61188.63
579.37	61340.76
579.53	61357.14
579.69	61052.87
579.85	61134.79
580.01	61209.69
580.17	61104.37
580.33	61205.01
580.49	61338.42
580.65	61006.06
580.82	60999.04
580.98	61151.18
581.14	60952.23
581.30	61174.58
581.46	61141.81
581.62	61221.39
581.78	61165.22
581.94	61263.52
582.10	60882.02
582.26	61270.54
582.42	61127.77
582.58	61244.80
582.74	61214.37
582.90	61258.84
583.06	61310.33
583.22	61013.08
583.38	61331.40
583.54	61209.69
583.70	61076.28
583.86	61418.00
584.02	61104.37
584.18	61291.61
584.34	61190.97
584.50	61366.51
584.66	61153.52
584.82	60928.83
584.98	61331.40
585.14	61317.35
585.30	61148.84
585.46	61183.94
585.62	61396.93
585.78	61324.38
585.94	60963.93
586.10	61151.18
586.26	61490.55
586.42	61432.04
586.58	61513.96
586.74	61087.98
586.90	61113.73
587.06	61183.94
587.22	61504.60
587.38	61483.53
587.54	61600.56
587.70	61497.58
587.86	61399.27
588.02	61223.73
588.18	61506.94
588.34	61272.88
