SpectraSuite Data File
++++++++++++++++++++++++++++++++++++
Date: Fri Oct 25 11:26:12 EDT 2013
User: price-jones
Dark Spectrum Present: No
Reference Spectrum Present: No
Number of Sampled Component Spectra: 1
Spectrometers: USB2+H05261
Integration Time (usec): 100000 (USB2+H05261)
Spectra Averaged: 1 (USB2+H05261)
Boxcar Smoothing: 0 (USB2+H05261)
Correct for Electrical Dark: No (USB2+H05261)
Strobe/Lamp Enabled: No (USB2+H05261)
Correct for Detector Non-linearity: No (USB2+H05261)
Correct for Stray Light: No (USB2+H05261)
Number of Pixels in Processed Spectrum: 2048
>>>>>Begin Processed Spectral Data<<<<<
365.73	212.99
365.92	212.99
366.12	212.99
366.32	182.56
366.52	208.31
366.72	205.97
366.91	142.77
367.11	9.36
367.31	81.92
367.51	170.86
367.70	161.50
367.90	128.73
368.10	91.28
368.30	119.37
368.49	102.98
368.69	184.90
368.89	166.18
369.09	163.84
369.28	159.16
369.48	163.84
369.68	184.90
369.87	170.86
370.07	173.20
370.27	283.20
370.47	299.59
370.66	582.79
370.86	660.03
371.06	702.16
371.25	683.44
371.45	695.14
371.65	706.84
371.84	627.26
372.04	629.60
372.24	660.03
372.44	706.84
372.63	716.20
372.83	713.86
373.03	725.57
373.22	798.12
373.42	840.25
373.62	770.04
373.81	744.29
374.01	784.08
374.21	882.38
374.40	873.02
374.60	917.49
374.79	727.91
374.99	849.61
375.19	889.40
375.38	837.91
375.58	854.30
375.78	828.55
375.97	784.08
376.17	971.32
376.37	856.64
376.56	866.00
376.76	849.61
376.95	919.83
377.15	936.21
377.35	929.19
377.54	936.21
377.74	802.80
377.93	887.06
378.13	903.45
378.33	990.05
378.52	1032.18
378.72	959.62
378.91	976.00
379.11	929.19
379.31	931.53
379.50	933.87
379.70	1055.58
379.89	1074.31
380.09	964.30
380.28	940.90
380.48	999.41
380.68	1025.15
380.87	919.83
381.07	973.66
381.26	1057.92
381.46	1074.31
381.65	1057.92
381.85	987.71
382.04	1100.05
382.24	1078.99
382.43	1050.90
382.63	1090.69
382.83	1104.73
383.02	1146.86
383.22	1125.80
383.41	1090.69
383.61	1139.84
383.80	1160.91
384.00	1125.80
384.19	1088.35
384.39	1167.93
384.58	1086.01
384.78	1135.16
384.97	1153.88
385.17	1214.74
385.36	1221.76
385.56	1212.40
385.75	1163.25
385.95	1221.76
386.14	1242.82
386.34	1142.18
386.53	1277.93
386.72	1224.10
386.92	1116.44
387.11	1282.61
387.31	1287.29
387.50	1191.33
387.70	1210.06
387.89	1345.81
388.09	1294.32
388.28	1352.83
388.48	1369.21
388.67	1362.19
388.86	1317.72
389.06	1336.45
389.25	1387.94
389.45	1315.38
389.64	1289.64
389.84	1355.17
390.03	1310.70
390.22	1359.85
390.42	1376.24
390.61	1362.19
390.81	1336.45
391.00	1352.83
391.19	1409.00
391.39	1493.26
391.58	1488.58
391.78	1495.60
391.97	1523.69
392.16	1474.54
392.36	1593.90
392.55	1519.01
392.75	1598.59
392.94	1614.97
393.13	1657.10
393.33	1643.06
393.52	1600.93
393.71	1629.01
393.91	1668.80
394.10	1575.18
394.29	1643.06
394.49	1612.63
394.68	1619.65
394.88	1598.59
395.07	1666.46
395.26	1645.40
395.46	1694.55
395.65	1631.35
395.84	1795.19
396.04	1727.32
396.23	1706.25
396.42	1682.85
396.62	1685.19
396.81	1760.08
397.00	1659.44
397.19	1722.63
397.39	1748.38
397.58	1891.15
397.77	1802.21
397.97	1809.23
398.16	1788.17
398.35	1907.54
398.55	1881.79
398.74	1825.62
398.93	1977.75
399.12	1928.60
399.32	2012.86
399.51	1886.47
399.70	2017.54
399.90	2029.24
400.09	2005.84
400.28	2040.95
400.47	2031.58
400.67	2054.99
400.86	2078.40
401.05	2092.44
401.24	2052.65
401.44	2134.57
401.63	2101.80
401.82	2120.53
402.01	2157.97
402.21	2202.44
402.40	2160.31
402.59	2193.08
402.78	2207.13
402.97	2368.62
403.17	2188.40
403.36	2214.15
403.55	2265.64
403.74	2399.05
403.93	2335.85
404.13	2291.38
404.32	2289.04
404.51	2413.09
404.70	2375.64
404.89	2399.05
405.09	2518.42
405.28	2380.32
405.47	2429.48
405.66	2443.52
405.85	2523.10
406.05	2455.22
406.24	2684.59
406.43	2581.61
406.62	2576.93
406.81	2562.89
407.00	2635.44
407.20	2551.18
407.39	2647.15
407.58	2679.91
407.77	2672.89
407.96	2693.96
408.15	2827.37
408.34	2705.66
408.54	2724.38
408.73	2820.35
408.92	2860.13
409.11	2785.24
409.30	2951.42
409.49	2890.56
409.68	2951.42
409.87	2935.03
410.07	2986.52
410.26	3021.63
410.45	3021.63
410.64	2935.03
410.83	3075.46
411.02	3009.93
411.21	3215.90
411.40	3150.36
411.59	3098.87
411.78	3152.70
411.98	3178.45
412.17	3368.03
412.36	3337.60
412.55	3325.90
412.74	3295.47
412.93	3302.50
413.12	3463.99
413.31	3398.46
413.50	3475.70
413.69	3377.39
413.88	3637.19
414.07	3571.66
414.26	3571.66
414.45	3592.72
414.64	3674.64
414.83	3691.02
415.02	3667.62
415.22	3815.07
415.41	3901.67
415.60	3875.93
415.79	4091.26
415.98	3964.87
416.17	3960.19
416.36	4107.64
416.55	3906.35
416.74	4100.62
416.93	3967.21
417.12	4145.09
417.31	4198.92
417.50	4215.30
417.69	4383.82
417.88	4322.97
418.07	4241.05
418.26	4301.90
418.45	4219.99
418.64	4372.12
418.83	4292.54
419.02	4355.74
419.21	4397.87
419.39	4608.51
419.58	4505.53
419.77	4379.14
419.96	4678.73
420.15	4587.45
420.34	4430.63
420.53	4451.70
420.72	4851.93
420.91	4692.77
421.10	4786.40
421.29	4863.63
421.48	4660.01
421.67	4751.29
421.86	4648.30
422.05	4847.25
422.24	4739.58
422.43	4896.40
422.61	4966.62
422.80	4966.62
422.99	5022.79
423.18	4938.53
423.37	5013.43
423.56	4922.15
423.75	4814.48
423.94	4748.95
424.13	4582.77
424.32	4767.67
424.50	4980.66
424.69	5242.80
424.88	4868.31
425.07	5013.43
425.26	5034.49
425.45	4816.82
425.64	4912.78
425.83	5078.96
426.01	5083.64
426.20	5081.30
426.39	5090.67
426.58	5064.92
426.77	5022.79
426.96	5249.82
427.15	5107.05
427.33	5266.21
427.52	5083.64
427.71	5355.15
427.90	5097.69
428.09	5373.87
428.28	5305.99
428.46	5373.87
428.65	5427.70
428.84	5451.11
429.03	5488.56
429.22	5427.70
429.40	5530.69
429.59	5551.75
429.78	5249.82
429.97	5289.61
430.16	5479.19
430.34	5371.53
430.53	5626.65
430.72	5788.14
430.91	5596.22
431.10	5589.20
431.28	5727.29
431.47	5743.67
431.66	5666.44
431.85	5778.78
432.03	5942.62
432.22	5996.45
432.41	5914.53
432.60	5722.61
432.79	5886.45
432.97	6099.44
433.16	6120.50
433.35	5895.81
433.54	5928.58
433.72	6064.33
433.91	5949.64
434.10	6118.16
434.28	5959.00
434.47	6167.31
434.66	6160.29
434.85	6286.68
435.03	6368.60
435.22	6080.71
435.41	6506.69
435.59	6506.69
435.78	6539.46
435.97	6483.28
436.16	6562.86
436.34	6380.30
436.53	6366.26
436.72	6705.63
436.90	6473.92
437.09	6696.27
437.28	6609.67
437.46	6466.90
437.65	6553.50
437.84	6689.25
438.02	6729.04
438.21	6846.07
438.40	6747.76
438.58	6963.09
438.77	6766.49
438.96	7035.65
439.14	7047.35
439.33	7180.76
439.52	7117.57
439.70	7187.79
439.89	7382.05
440.08	7478.01
440.26	7478.01
440.45	7227.57
440.63	7421.84
440.82	7590.36
441.01	7473.33
441.19	7691.00
441.38	7627.81
441.57	7606.74
441.75	7775.26
441.94	7976.55
442.12	8021.02
442.31	7861.86
442.50	8156.77
442.68	7852.50
442.87	8013.99
443.05	8112.30
443.24	8194.22
443.43	8198.90
443.61	8142.72
443.80	8379.12
443.98	7960.16
444.17	7735.47
444.35	8198.90
444.54	8355.71
444.73	8231.66
444.91	8322.94
445.10	8386.14
445.28	8369.76
445.47	8196.56
445.65	8257.41
445.84	8554.66
446.02	8491.46
446.21	8395.50
446.39	8365.07
446.58	8622.53
446.77	8360.39
446.95	8177.83
447.14	8388.48
447.32	8402.52
447.51	8587.43
447.69	8454.02
447.88	8416.57
448.06	8421.25
448.25	8362.73
448.43	8617.85
448.62	8690.41
448.80	8400.18
448.99	8524.23
449.17	8596.79
449.36	8575.72
449.54	8762.97
449.73	8826.16
449.91	8894.04
450.10	8917.44
450.28	8990.00
450.46	9233.41
450.65	9032.13
450.83	9181.92
451.02	8940.85
451.20	9217.03
451.39	9001.70
451.57	9076.60
451.76	9109.36
451.94	9057.87
452.13	9163.20
452.31	9408.95
452.49	8985.32
452.68	9238.09
452.86	9345.76
453.05	9659.39
453.23	9116.39
453.42	9427.68
453.60	9289.59
453.78	9376.19
453.97	9392.57
454.15	9680.46
454.34	9383.21
454.52	9551.73
454.70	9561.09
454.89	9748.33
455.07	9858.34
455.26	9947.28
455.44	9666.41
455.62	9956.64
455.81	9804.50
455.99	9961.32
456.17	10054.94
456.36	9884.08
456.54	10160.27
456.73	10228.14
456.91	10368.57
457.09	10370.91
457.28	10539.43
457.46	10317.08
457.64	10651.78
457.83	10544.11
458.01	10494.96
458.19	10700.93
458.38	10579.22
458.56	10567.52
458.74	10853.06
458.93	10633.05
459.11	10724.33
459.29	10469.22
459.48	10832.00
459.66	10942.00
459.84	10930.30
460.03	11087.12
460.21	10846.04
460.39	10787.53
460.57	10913.92
460.76	11059.03
460.94	11236.91
461.12	10881.15
461.31	11267.34
461.49	10974.77
461.67	11194.78
461.85	11325.85
462.04	11176.06
462.22	11730.76
462.40	11548.20
462.59	11609.06
462.77	11407.77
462.95	11573.95
463.13	11482.67
463.32	11487.35
463.50	11728.42
463.68	11510.75
463.86	11693.32
464.05	11595.01
464.23	11779.92
464.41	12013.97
464.59	11616.08
464.78	12159.08
464.96	12079.50
465.14	11960.14
465.32	11988.22
465.50	12243.34
465.69	12154.40
465.87	11971.84
466.05	12145.04
466.23	11983.54
466.41	12013.97
466.60	12524.21
466.78	12189.51
466.96	12170.79
467.14	12250.36
467.32	12367.39
467.51	12510.16
467.69	12327.60
467.87	12360.37
468.05	12606.13
468.23	12313.56
468.41	12463.35
468.60	12526.55
468.78	12383.77
468.96	12528.89
469.14	12699.75
469.32	12877.63
469.50	12702.09
469.69	12758.26
469.87	13001.68
470.05	13193.60
470.23	13006.36
470.41	13025.08
470.59	13420.63
470.77	13146.79
470.95	12919.76
471.14	13455.74
471.32	13200.62
471.50	13343.39
471.68	13640.64
471.86	13511.91
472.04	13738.94
472.22	14038.53
472.40	13685.11
472.58	13996.40
472.77	14008.11
472.95	14001.08
473.13	14349.82
473.31	14054.92
473.49	14202.37
473.67	14141.52
473.85	14389.61
474.03	14516.00
474.21	14665.80
474.39	14810.91
474.57	14853.04
474.75	14892.83
474.93	14953.68
475.12	14881.13
475.30	15260.29
475.48	15000.49
475.66	15117.52
475.84	15042.62
476.02	15281.36
476.20	15293.06
476.38	15723.72
476.56	16095.86
476.74	15882.88
476.92	15763.51
477.10	15866.49
477.28	15946.07
477.46	16130.97
477.64	16215.23
477.82	16428.22
478.00	16849.52
478.18	16723.13
478.36	16961.86
478.54	17020.38
478.72	17001.65
478.90	17436.99
479.08	17500.19
479.26	17542.32
479.44	17703.81
479.62	17661.68
479.80	17851.27
479.98	18045.53
480.16	18298.31
480.34	18178.94
480.52	18480.87
480.70	18726.63
480.88	18405.97
481.06	18750.03
481.24	18831.95
481.41	18906.85
481.59	19021.53
481.77	19328.14
481.95	19644.12
482.13	19847.74
482.31	19728.38
482.49	20098.18
482.67	20067.75
482.85	20233.93
483.03	20709.06
483.21	20659.91
483.39	20861.19
483.57	20610.76
483.74	21109.29
483.92	21184.19
484.10	21109.29
484.28	21642.93
484.46	21820.81
484.64	22052.53
484.82	21895.71
485.00	22167.21
485.18	22668.09
485.35	23241.52
485.53	22581.49
485.71	23084.70
485.89	23604.30
486.07	23321.10
486.25	22988.74
486.43	23150.24
486.61	24072.41
486.78	24086.45
486.96	24102.84
487.14	24458.60
487.32	24620.10
487.50	24671.59
487.68	24863.51
487.85	25043.73
488.03	25790.36
488.21	25673.34
488.39	25743.55
488.57	25680.36
488.75	26073.57
488.92	26459.76
489.10	26618.91
489.28	26415.29
489.46	26920.84
489.64	26677.43
489.81	27843.01
489.99	27412.35
490.17	27812.59
490.35	27910.89
490.53	28100.47
490.70	27831.31
490.88	28276.01
491.06	28842.42
491.24	28858.81
491.41	28961.79
491.59	29010.94
491.77	28800.29
491.95	29537.56
492.13	29689.70
492.30	29802.04
492.48	30087.59
492.66	30274.83
492.84	30209.29
493.01	30511.22
493.19	30616.55
493.37	31168.91
493.54	31302.32
493.72	31346.79
493.90	31295.30
494.08	31576.17
494.25	31952.99
494.43	32133.21
494.61	32203.43
494.79	32343.86
494.96	32280.67
495.14	32341.52
495.32	32994.53
495.49	32889.21
495.67	33048.36
495.85	33514.13
496.02	33582.01
496.20	33916.70
496.38	33549.24
496.55	34148.42
496.73	34869.30
496.91	34150.76
497.09	34937.18
497.26	35014.41
497.44	34717.17
497.62	35309.32
497.79	35754.02
497.97	35402.94
498.14	36086.38
498.32	36236.17
498.50	36306.39
498.67	36294.69
498.85	36388.31
499.03	36187.02
499.20	36676.19
499.38	36711.30
499.56	37050.68
499.73	37036.64
499.91	37486.02
500.08	37453.25
500.26	37263.67
500.44	37242.60
500.61	37556.24
500.79	37462.61
500.97	38195.20
501.14	38419.89
501.32	38478.41
501.49	38382.45
501.67	38602.46
501.84	38667.99
502.02	38649.27
502.20	39049.50
502.37	38962.90
502.55	38878.64
502.72	39260.15
502.90	39737.62
503.07	39494.20
503.25	39395.90
503.43	39962.31
503.60	40051.25
503.78	40133.17
503.95	40123.80
504.13	40205.72
504.30	40201.04
504.48	40552.12
504.65	40671.49
504.83	40807.24
505.01	41303.43
505.18	40891.50
505.36	41092.79
505.53	40748.73
505.71	41635.79
505.88	41745.80
506.06	41181.73
506.23	41865.16
506.41	41593.66
506.58	41429.82
506.76	42129.64
506.93	42490.09
507.11	42253.69
507.28	42466.68
507.46	42497.11
507.63	42684.35
507.81	42721.80
507.98	43150.12
508.16	43196.93
508.33	43536.30
508.50	43239.06
508.68	43515.24
508.85	43896.75
509.03	43861.64
509.20	44062.93
509.38	44287.62
509.55	44128.46
509.73	44168.25
509.90	44336.77
510.08	44243.15
510.25	44231.44
510.42	44229.10
510.60	44870.41
510.77	45188.72
510.95	45427.46
511.12	44893.82
511.30	45102.12
511.47	45359.58
511.64	45207.45
511.82	46281.75
511.99	45535.12
512.17	46010.25
512.34	45874.50
512.51	46190.47
512.69	46248.99
512.86	46291.12
513.04	46373.03
513.21	46312.18
513.38	46703.05
513.56	46483.04
513.73	46328.56
513.90	47023.70
514.08	46925.40
514.25	47257.76
514.43	47138.39
514.60	47182.86
514.77	47519.90
514.95	47634.58
515.12	47346.70
515.29	47531.60
515.47	47274.14
515.64	48098.01
515.81	47927.15
515.99	48140.14
516.16	48481.86
516.33	47924.81
516.51	48477.18
516.68	48402.28
516.85	48596.54
517.03	48814.21
517.20	48456.11
517.37	48495.90
517.54	48395.26
517.72	48856.34
517.89	48821.23
518.06	49045.93
518.24	48999.12
518.41	49141.89
518.58	49272.96
518.75	48832.94
518.93	49139.55
519.10	49308.07
519.27	49532.76
519.45	49457.86
519.62	50042.99
519.79	49572.55
519.96	49567.87
520.14	49738.72
520.31	50075.76
520.48	50197.47
520.65	50218.53
520.83	50270.03
521.00	50405.78
521.17	49874.48
521.34	50560.25
521.52	50520.46
521.69	50976.87
521.86	51133.68
522.03	51114.96
522.20	51140.71
522.38	51290.50
522.55	51341.99
522.72	51145.39
522.89	51042.40
523.07	51510.51
523.24	51159.43
523.41	51676.69
523.58	51372.42
523.75	51618.17
523.92	51365.40
524.10	51906.06
524.27	51753.93
524.44	51826.48
524.61	51997.34
524.78	52158.84
524.96	52060.54
525.13	52224.37
525.30	51779.67
525.47	52418.64
525.64	52577.79
525.81	52706.52
525.98	52545.03
526.16	52299.27
526.33	52369.49
526.50	52790.78
526.67	52942.92
526.84	52790.78
527.01	52760.36
527.18	52765.04
527.36	52903.13
527.53	52650.35
527.70	53326.77
527.87	53436.77
528.04	52919.51
528.21	53301.02
528.38	53139.52
528.55	53380.60
528.72	53368.90
528.89	53308.04
529.07	53165.27
529.24	53535.07
529.41	53544.44
529.58	53748.06
529.75	53275.27
529.92	53638.06
530.09	53605.29
530.26	54103.82
530.43	53708.27
530.60	53525.71
530.77	53666.14
530.94	54082.76
531.11	53986.80
531.28	53972.75
531.46	54003.18
531.63	54223.19
531.80	54113.19
531.97	54396.39
532.14	53993.82
532.31	54298.09
532.48	54628.10
532.65	54618.74
532.82	54319.15
532.99	54560.23
533.16	54401.07
533.33	54637.47
533.50	54733.43
533.67	54686.62
533.84	54553.21
534.01	54600.02
534.18	54707.68
534.35	55238.98
534.52	54768.54
534.69	54880.88
534.86	55068.12
535.03	54777.90
535.20	55246.00
535.37	55260.05
535.54	55210.90
535.71	55112.59
535.88	55381.76
536.05	55180.47
536.22	55421.55
536.38	55341.97
536.55	55564.32
536.72	55386.44
536.89	55657.94
537.06	55470.70
537.23	55522.19
537.40	55196.85
537.57	55608.79
537.74	55845.18
537.91	55828.80
538.08	55908.38
538.25	55646.24
538.42	55910.72
538.59	55980.93
538.75	55859.23
538.92	56053.49
539.09	56243.07
539.26	55973.91
539.43	56093.28
539.60	56158.81
539.77	56119.02
539.94	56435.00
540.11	56378.82
540.28	56420.95
540.44	56231.37
540.61	56453.72
540.78	56055.83
540.95	56512.23
541.12	56385.85
541.29	56413.93
541.46	56357.76
541.62	56432.66
541.79	56533.30
541.96	56341.38
542.13	56589.47
542.30	56650.33
542.47	56725.22
542.63	56659.69
542.80	56835.23
542.97	56853.95
543.14	56999.07
543.31	57181.63
543.48	57270.57
543.64	57209.71
543.81	57188.65
543.98	57148.86
544.15	57333.76
544.32	57368.87
544.48	57579.52
544.65	57066.94
544.82	57359.51
544.99	57003.75
545.16	57408.66
545.32	57382.91
545.49	57523.35
545.66	57439.09
545.83	57518.67
546.00	57572.50
546.16	57228.44
546.33	57560.79
546.50	57446.11
546.67	57544.41
546.83	57443.77
547.00	57495.26
547.17	57511.64
547.34	57677.82
547.50	57865.06
547.67	58052.31
547.84	58061.67
548.00	58183.38
548.17	58277.00
548.34	57975.07
548.51	57986.77
548.67	58148.27
548.84	58068.69
549.01	58024.22
549.18	58138.91
549.34	58347.21
549.51	58176.36
549.68	58358.92
549.84	58255.93
550.01	58356.58
550.18	58035.92
550.34	58295.72
550.51	58365.94
550.68	58475.94
550.84	58269.98
551.01	58305.09
551.18	58335.51
551.34	58548.50
551.51	58499.35
551.68	58365.94
551.84	58443.18
552.01	58422.11
552.18	58581.27
552.34	58408.07
552.51	58602.33
552.68	58382.32
552.84	58780.21
553.01	58878.52
553.18	58925.33
553.34	58789.58
553.51	58663.19
553.67	58712.34
553.84	58944.05
554.01	58763.83
554.17	58852.77
554.34	59018.95
554.51	59030.65
554.67	58927.67
554.84	59000.22
555.00	58997.88
555.17	59210.87
555.33	59086.82
555.50	58913.62
555.67	58969.80
555.83	58831.71
556.00	59035.33
556.16	59379.39
556.33	59358.33
556.50	59166.40
556.66	59145.34
556.83	59234.28
556.99	59365.35
557.16	59421.52
557.32	59428.54
557.49	59604.08
557.65	59274.07
557.82	59348.96
557.98	59278.75
558.15	59365.35
558.32	59421.52
558.48	59299.81
558.65	59227.26
558.81	59449.61
558.98	59428.54
559.14	59444.93
559.31	59468.33
559.47	59524.50
559.64	59510.46
559.80	59529.19
559.97	59608.76
560.13	59655.57
560.30	59646.21
560.46	59730.47
560.63	59550.25
560.79	59690.68
560.96	59643.87
561.12	59803.03
561.29	59583.02
561.45	59849.84
561.61	59735.15
561.78	59627.49
561.94	59437.90
562.11	59753.88
562.27	59934.10
562.44	59791.33
562.60	59880.27
562.77	59915.37
562.93	59686.00
563.10	59999.63
563.26	59620.47
563.42	60107.30
563.59	60037.08
563.75	59770.26
563.92	59819.41
564.08	60011.34
564.24	60184.54
564.41	59959.84
564.57	60221.98
564.74	60116.66
564.90	60158.79
565.07	60004.31
565.23	60107.30
565.39	60100.28
565.56	60334.33
565.72	60004.31
565.88	60034.74
566.05	60065.17
566.21	60243.05
566.38	60065.17
566.54	60329.65
566.70	60123.68
566.87	60357.74
567.03	60273.48
567.19	60331.99
567.36	60182.19
567.52	60210.28
567.68	60587.11
567.85	60324.97
568.01	60261.77
568.17	60315.61
568.34	60439.65
568.50	60381.14
568.66	60247.73
568.83	60402.21
568.99	60275.82
569.15	60184.54
569.32	60294.54
569.48	60264.11
569.64	60537.96
569.81	60430.29
569.97	60210.28
570.13	60458.38
570.30	60343.69
570.46	60516.89
570.62	60313.26
570.78	60336.67
570.95	60322.63
571.11	60528.59
571.27	60299.22
571.43	60367.10
571.60	60636.26
571.76	60257.09
571.92	60477.10
572.09	60755.63
572.25	60275.82
572.41	60505.19
572.57	60446.68
572.74	60624.56
572.90	60575.40
573.06	60528.59
573.22	60629.24
573.38	60488.80
573.55	60498.17
573.71	60556.68
573.87	60673.71
574.03	60378.80
574.20	60835.20
574.36	60612.85
574.52	60781.37
574.68	60692.43
574.84	60654.98
575.01	60694.77
575.17	60659.66
575.33	60552.00
575.49	60491.15
575.65	60584.77
575.82	60729.88
575.98	60650.30
576.14	60811.80
576.30	60832.86
576.46	60654.98
576.62	60619.88
576.79	60577.75
576.95	60610.51
577.11	60657.32
577.27	60865.63
577.43	60912.44
577.59	60715.84
577.75	60704.13
577.92	60636.26
578.08	60741.58
578.24	60587.11
578.40	60800.10
578.56	60949.89
578.72	60683.07
578.88	60835.20
579.04	60924.14
579.21	60666.69
579.37	60945.21
579.53	60793.07
579.69	60711.16
579.85	60774.35
580.01	60594.13
580.17	60568.38
580.33	60802.44
580.49	60818.82
580.65	60849.25
580.82	60715.84
580.98	60807.12
581.14	60711.16
581.30	60956.91
581.46	60706.47
581.62	60804.78
581.78	60816.48
581.94	60910.10
582.10	60755.63
582.26	60673.71
582.42	60912.44
582.58	60949.89
582.74	61024.79
582.90	60755.63
583.06	60818.82
583.22	60884.36
583.38	60818.82
583.54	60867.97
583.70	60818.82
583.86	60938.19
584.02	60767.33
584.18	61160.54
584.34	60985.00
584.50	60844.57
584.66	60779.03
584.82	60846.91
584.98	61071.60
585.14	61048.19
585.30	60680.73
585.46	61001.38
585.62	60849.25
585.78	60844.57
585.94	61024.79
586.10	60992.02
586.26	61076.28
586.42	60961.59
586.58	60994.36
586.74	60996.70
586.90	60893.72
587.06	60959.25
587.22	61001.38
587.38	60982.66
587.54	61057.56
587.70	61073.94
587.86	61113.73
588.02	60924.14
588.18	61265.86
588.34	60912.44
588.49	60851.59
