SpectraSuite Data File
++++++++++++++++++++++++++++++++++++
Date: Fri Oct 25 11:25:15 EDT 2013
User: price-jones
Dark Spectrum Present: No
Reference Spectrum Present: No
Number of Sampled Component Spectra: 1
Spectrometers: USB2+H05261
Integration Time (usec): 100000 (USB2+H05261)
Spectra Averaged: 1 (USB2+H05261)
Boxcar Smoothing: 0 (USB2+H05261)
Correct for Electrical Dark: No (USB2+H05261)
Strobe/Lamp Enabled: No (USB2+H05261)
Correct for Detector Non-linearity: No (USB2+H05261)
Correct for Stray Light: No (USB2+H05261)
Number of Pixels in Processed Spectrum: 2048
>>>>>Begin Processed Spectral Data<<<<<
365.73	189.58
365.92	189.58
366.12	189.58
366.32	135.75
366.52	142.77
366.72	187.24
366.91	152.13
367.11	154.48
367.31	79.58
367.51	182.56
367.70	114.69
367.90	145.11
368.10	107.66
368.30	102.98
368.49	112.35
368.69	119.37
368.89	220.01
369.09	142.77
369.28	196.60
369.48	175.54
369.68	196.60
369.87	168.52
370.07	238.73
370.27	285.55
370.47	362.78
370.66	571.09
370.86	578.11
371.06	599.18
371.25	638.97
371.45	732.59
371.65	727.91
371.84	718.54
372.04	657.69
372.24	711.52
372.44	751.31
372.63	702.16
372.83	798.12
373.03	798.12
373.22	718.54
373.42	697.48
373.62	760.67
373.81	758.33
374.01	777.06
374.21	880.04
374.40	795.78
374.60	800.46
374.79	844.93
374.99	849.61
375.19	800.46
375.38	800.46
375.58	854.30
375.78	868.34
375.97	880.04
376.17	873.02
376.37	774.72
376.56	873.02
376.76	903.45
376.95	847.27
377.15	837.91
377.35	791.10
377.54	835.57
377.74	858.98
377.93	889.40
378.13	901.11
378.33	877.70
378.52	861.32
378.72	905.79
378.91	964.30
379.11	1029.84
379.31	938.55
379.50	873.02
379.70	924.51
379.89	880.04
380.09	1043.88
380.28	929.19
380.48	957.28
380.68	971.32
380.87	1081.33
381.07	1032.18
381.26	1090.69
381.46	992.39
381.65	1100.05
381.85	1027.50
382.04	1015.79
382.24	1090.69
382.43	1043.88
382.63	1064.94
382.83	1074.31
383.02	1104.73
383.22	1165.59
383.41	1156.22
383.61	1078.99
383.80	1203.04
384.00	1111.75
384.19	1104.73
384.39	1121.12
384.58	1198.35
384.78	1224.10
384.97	1174.95
385.17	1102.39
385.36	1217.08
385.56	1167.93
385.75	1299.00
385.95	1261.55
386.14	1198.35
386.34	1172.61
386.53	1172.61
386.72	1226.44
386.92	1210.06
387.11	1181.97
387.31	1247.51
387.50	1252.19
387.70	1343.47
387.89	1324.74
388.09	1263.89
388.28	1289.64
388.48	1240.48
388.67	1383.26
388.86	1310.70
389.06	1233.46
389.25	1486.24
389.45	1362.19
389.64	1338.79
389.84	1357.51
390.03	1376.24
390.22	1320.06
390.42	1467.52
390.61	1392.62
390.81	1366.87
391.00	1345.81
391.19	1444.11
391.39	1490.92
391.58	1411.34
391.78	1437.09
391.97	1451.13
392.16	1479.22
392.36	1516.67
392.55	1636.03
392.75	1462.83
392.94	1521.35
393.13	1535.39
393.33	1605.61
393.52	1544.75
393.71	1610.29
393.91	1600.93
394.10	1521.35
394.29	1593.90
394.49	1661.78
394.68	1593.90
394.88	1746.04
395.07	1659.44
395.26	1643.06
395.46	1724.97
395.65	1760.08
395.84	1673.48
396.04	1778.81
396.23	1652.42
396.42	1631.35
396.62	1678.16
396.81	1776.47
397.00	1694.55
397.19	1692.21
397.39	1790.51
397.58	1820.94
397.77	1734.34
397.97	1900.52
398.16	1891.15
398.35	1940.30
398.55	1818.60
398.74	1837.32
398.93	1914.56
399.12	1973.07
399.32	1940.30
399.51	1973.07
399.70	1956.69
399.90	2001.16
400.09	1914.56
400.28	2038.61
400.47	2033.93
400.67	2200.10
400.86	2092.44
401.05	2045.63
401.24	2190.74
401.44	2207.13
401.63	2139.25
401.82	2050.31
402.01	2197.76
402.21	2108.82
402.40	2139.25
402.59	2209.47
402.78	2059.67
402.97	2307.77
403.17	2195.42
403.36	2331.17
403.55	2246.91
403.74	2392.03
403.93	2387.35
404.13	2272.66
404.32	2401.39
404.51	2307.77
404.70	2377.98
404.89	2338.20
405.09	2492.67
405.28	2441.18
405.47	2410.75
405.66	2614.38
405.85	2459.90
406.05	2450.54
406.24	2504.37
406.43	2520.76
406.62	2572.25
406.81	2810.98
407.00	2651.83
407.20	2431.82
407.39	2504.37
407.58	2663.53
407.77	2761.83
407.96	2836.73
408.15	2754.81
408.34	2628.42
408.54	2764.17
408.73	2775.88
408.92	2855.45
409.11	2820.35
409.30	2939.71
409.49	2928.01
409.68	2970.14
409.87	2923.33
410.07	2916.31
410.26	2930.35
410.45	2916.31
410.64	3094.19
410.83	3014.61
411.02	3164.40
411.21	3183.13
411.40	3150.36
411.59	3311.86
411.78	3141.00
411.98	3180.79
412.17	3283.77
412.36	3206.53
412.55	3243.98
412.74	3293.13
412.93	3346.97
413.12	3372.71
413.31	3461.65
413.50	3536.55
413.69	3487.40
413.88	3688.68
414.07	3602.08
414.26	3630.17
414.45	3613.79
414.64	3714.43
414.83	3623.15
415.02	3728.47
415.22	3779.97
415.41	3918.06
415.60	3812.73
415.79	3915.72
415.98	4102.96
416.17	4081.89
416.36	4009.34
416.55	3962.53
416.74	3934.44
416.93	4042.11
417.12	4161.47
417.31	4187.22
417.50	4140.41
417.69	4250.41
417.88	4381.48
418.07	4266.80
418.26	4257.43
418.45	4360.42
418.64	4456.38
418.83	4367.44
419.02	4332.33
419.21	4440.00
419.39	4355.74
419.58	4477.44
419.77	4498.51
419.96	4613.20
420.15	4571.07
420.34	4645.96
420.53	4575.75
420.72	4568.73
420.91	4573.41
421.10	4798.10
421.29	4823.84
421.48	4517.23
421.67	4798.10
421.86	4599.15
422.05	4741.93
422.24	4788.74
422.43	4821.50
422.61	4840.23
422.80	5064.92
422.99	4901.08
423.18	4873.00
423.37	5006.41
423.56	4877.68
423.75	4887.04
423.94	4709.16
424.13	4568.73
424.32	4770.01
424.50	4905.76
424.69	5076.62
424.88	5135.14
425.07	4929.17
425.26	4877.68
425.45	4901.08
425.64	4973.64
425.83	4952.57
426.01	4947.89
426.20	4922.15
426.39	4957.25
426.58	4990.02
426.77	4994.70
426.96	5135.14
427.15	5107.05
427.33	5275.57
427.52	5032.15
427.71	5210.03
427.90	5125.77
428.09	5231.10
428.28	5439.40
428.46	5380.89
428.65	5277.91
428.84	5430.04
429.03	5488.56
429.22	5165.56
429.40	5530.69
429.59	5570.48
429.78	5352.81
429.97	5228.76
430.16	5542.39
430.34	5579.84
430.53	5556.43
430.72	5654.73
430.91	5689.84
431.10	5657.07
431.28	5895.81
431.47	5575.16
431.66	5771.76
431.85	5788.14
432.03	5902.83
432.22	5902.83
432.41	5811.55
432.60	5949.64
432.79	5834.96
432.97	6047.94
433.16	5963.68
433.35	6029.22
433.54	6143.91
433.72	6202.42
433.91	6017.52
434.10	6010.50
434.28	6066.67
434.47	6155.61
434.66	6242.21
434.85	6069.01
435.03	6312.42
435.22	6296.04
435.41	6511.37
435.59	6333.49
435.78	6408.39
435.97	6413.07
436.16	6373.28
436.34	6485.62
436.53	6445.84
436.72	6476.26
436.90	6490.31
437.09	6661.16
437.28	6356.90
437.46	6675.21
437.65	6658.82
437.84	6817.98
438.02	6588.61
438.21	6733.72
438.40	6555.84
438.58	7056.72
438.77	6836.70
438.96	7002.88
439.14	7180.76
439.33	7321.20
439.52	7082.46
439.70	7108.21
439.89	7337.58
440.08	7379.71
440.26	7274.38
440.45	7253.32
440.63	7227.57
440.82	7719.09
441.01	7335.24
441.19	7653.55
441.38	7599.72
441.57	7644.19
441.75	7831.43
441.94	8119.32
442.12	7936.76
442.31	8077.19
442.50	8021.02
442.68	7934.42
442.87	7861.86
443.05	7901.65
443.24	7990.59
443.43	8128.68
443.61	8098.25
443.80	8372.10
443.98	8056.12
444.17	7716.75
444.35	8182.51
444.54	8297.20
444.73	8201.24
444.91	8093.57
445.10	8205.92
445.28	8491.46
445.47	8278.47
445.65	8116.98
445.84	8519.55
446.02	8507.85
446.21	8479.76
446.39	8299.54
446.58	8549.98
446.77	8381.46
446.95	8241.03
447.14	8332.31
447.32	8341.67
447.51	8409.54
447.69	8236.35
447.88	8571.04
448.06	8587.43
448.25	8512.53
448.43	8540.61
448.62	8435.29
448.80	8379.12
448.99	8489.12
449.17	8723.18
449.36	8498.49
449.54	8959.57
449.73	9029.79
449.91	8973.61
450.10	9050.85
450.28	9011.06
450.46	9025.11
450.65	9095.32
450.83	9022.77
451.02	9020.42
451.20	9273.20
451.39	8978.30
451.57	9029.79
451.76	8968.93
451.94	9048.51
452.13	9303.63
452.31	9177.24
452.49	9064.89
452.68	9294.27
452.86	9135.11
453.05	9427.68
453.23	9305.97
453.42	9455.76
453.60	9202.99
453.78	9413.63
453.97	9430.02
454.15	9561.09
454.34	9451.08
454.52	9661.73
454.70	9666.41
454.89	9783.44
455.07	9673.43
455.26	9872.38
455.44	9919.19
455.62	9823.23
455.81	9680.46
455.99	10122.82
456.17	10054.94
456.36	9975.36
456.54	10090.05
456.73	10239.84
456.91	10511.35
457.09	10331.12
457.28	10499.64
457.46	10342.83
457.64	10391.98
457.83	10413.04
458.01	10221.12
458.19	10642.42
458.38	10532.41
458.56	10778.17
458.74	10434.11
458.93	10710.29
459.11	10817.96
459.29	10745.40
459.48	10799.23
459.66	10829.66
459.84	10998.18
460.03	11178.40
460.21	10946.69
460.39	10963.07
460.57	10925.62
460.76	11150.31
460.94	11206.48
461.12	11269.68
461.31	11386.71
461.49	11239.25
461.67	11089.46
461.85	11693.32
462.04	11337.56
462.22	11758.85
462.40	11480.33
462.59	11407.77
462.77	11620.76
462.95	11475.65
463.13	11566.93
463.32	11513.10
463.50	11861.84
463.68	11735.45
463.86	11435.86
464.05	11749.49
464.23	11700.34
464.41	12039.72
464.59	11599.70
464.78	12035.03
464.96	11826.73
465.14	11805.66
465.32	11948.43
465.50	12063.12
465.69	12367.39
465.87	12173.13
466.05	12161.42
466.23	12093.55
466.41	12037.38
466.60	12430.59
466.78	12119.29
466.96	12177.81
467.14	12418.88
467.32	12381.43
467.51	12533.57
467.69	11934.39
467.87	12538.25
468.05	12713.79
468.23	12383.77
468.41	12325.26
468.60	12753.58
468.78	12795.71
468.96	12470.37
469.14	12760.60
469.32	12816.77
469.50	12390.80
469.69	13013.38
469.87	13020.40
470.05	13025.08
470.23	13231.05
470.41	13123.38
470.59	13296.58
470.77	13001.68
470.95	13205.30
471.14	13399.57
471.32	13095.30
471.50	13654.69
471.68	13317.65
471.86	13483.83
472.04	13727.24
472.22	13865.33
472.40	13528.30
472.58	13731.92
472.77	13671.07
472.95	13991.72
473.13	14216.41
473.31	14129.81
473.49	13921.51
473.67	13954.27
473.85	14136.84
474.03	14572.18
474.21	14609.62
474.39	14469.19
474.57	14586.22
474.75	14700.90
474.93	14789.85
475.12	14941.98
475.30	15021.56
475.48	14998.15
475.66	14913.89
475.84	15000.49
476.02	15346.89
476.20	15349.23
476.38	15700.31
476.56	15995.22
476.74	15915.64
476.92	15791.59
477.10	15644.14
477.28	15878.19
477.46	15826.70
477.64	15969.48
477.82	16304.17
478.00	16739.51
478.18	16666.95
478.36	16833.13
478.54	17062.51
478.72	16893.99
478.90	17240.39
479.08	17434.65
479.26	17444.01
479.44	17596.15
479.62	17589.13
479.80	17685.09
479.98	18274.90
480.16	18410.65
480.34	17855.95
480.52	18520.66
480.70	18405.97
480.88	18565.13
481.06	18562.79
481.24	18558.11
481.41	19094.09
481.59	19168.99
481.77	19236.86
481.95	19625.39
482.13	19475.60
482.31	19634.75
482.49	19910.94
482.67	20191.80
482.85	20507.77
483.03	20456.28
483.21	20521.82
483.39	20891.62
483.57	21174.83
483.74	21324.62
483.92	21362.07
484.10	21062.48
484.28	21479.10
484.46	21706.13
484.64	22190.62
484.82	21860.60
485.00	22380.20
485.18	22698.52
485.35	22864.69
485.53	22375.52
485.71	22562.76
485.89	23339.82
486.07	23300.03
486.25	23285.99
486.43	23784.52
486.61	23653.45
486.78	23840.70
486.96	24074.75
487.14	24573.28
487.32	24463.28
487.50	24376.68
487.68	24702.01
487.85	25240.34
488.03	25179.48
488.21	25376.09
488.39	25621.84
488.57	25830.15
488.75	26010.37
488.92	26539.33
489.10	26354.43
489.28	26883.39
489.46	26967.65
489.64	26822.54
489.81	27517.68
489.99	27449.80
490.17	27730.67
490.35	27761.09
490.53	27747.05
490.70	28245.58
490.88	28144.94
491.06	28364.95
491.24	28655.18
491.41	28741.78
491.59	29415.85
491.77	28952.43
491.95	29106.90
492.13	29551.60
492.30	29549.26
492.48	29991.62
492.66	30068.86
492.84	29890.98
493.01	30476.12
493.19	30548.67
493.37	30787.41
493.54	30733.57
493.72	31470.84
493.90	31330.41
494.08	31985.76
494.25	31770.43
494.43	31894.48
494.61	32275.99
494.79	32336.84
494.96	32107.47
495.14	32723.03
495.32	32917.29
495.49	33170.07
495.67	32723.03
495.85	33221.56
496.02	33404.13
496.20	34024.37
496.38	33701.37
496.55	34387.15
496.73	34675.04
496.91	34426.94
497.09	34593.12
497.26	34335.66
497.44	34876.32
497.62	35264.85
497.79	35620.61
497.97	35285.92
498.14	35622.95
498.32	36292.35
498.50	36077.02
498.67	36348.52
498.85	36126.17
499.03	36430.44
499.20	36275.96
499.38	36510.02
499.56	37249.63
499.73	37038.98
499.91	37254.31
500.08	37483.68
500.26	37081.11
500.44	37460.27
500.61	37865.19
500.79	37696.67
500.97	37736.46
501.14	38625.86
501.32	38672.67
501.49	38698.42
501.67	38508.83
501.84	38525.22
502.02	38923.11
502.20	38862.26
502.37	39143.12
502.55	39091.63
502.72	39262.49
502.90	38794.38
503.07	39037.80
503.25	39643.99
503.43	39686.12
503.60	39936.56
503.78	40268.92
503.95	39751.66
504.13	40205.72
504.30	40416.37
504.48	40259.55
504.65	40645.74
504.83	40868.09
505.01	41125.55
505.18	40868.09
505.36	41471.95
505.53	40992.14
505.71	41422.80
505.88	41483.66
506.06	41165.34
506.23	41904.95
506.41	41914.31
506.58	41904.95
506.76	42061.77
506.93	42335.61
507.11	41977.51
507.28	42506.47
507.46	42623.50
507.63	42408.17
507.81	43091.60
507.98	42859.89
508.16	42871.59
508.33	43143.09
508.50	43227.35
508.68	43519.92
508.85	43756.32
509.03	43365.45
509.20	43913.13
509.38	44156.55
509.55	44322.72
509.73	44114.42
509.90	44652.74
510.08	44488.90
510.25	44797.85
510.42	44339.11
510.60	44685.51
510.77	45162.98
510.95	45495.33
511.12	44772.11
511.30	45305.75
511.47	45034.25
511.64	45095.10
511.82	45799.60
511.99	45233.19
512.17	45691.94
512.34	45492.99
512.51	46148.34
512.69	45701.30
512.86	46658.58
513.04	46796.67
513.21	46265.37
513.38	46354.31
513.56	46972.21
513.73	46719.43
513.90	46754.54
514.08	46763.90
514.25	46880.93
514.43	46990.94
514.60	47119.66
514.77	47166.48
514.95	47721.18
515.12	46979.23
515.29	47175.84
515.47	47819.49
515.64	47704.80
515.81	47571.39
515.99	48004.39
516.16	48320.36
516.33	48053.54
516.51	48339.08
516.68	48119.07
516.85	48100.35
517.03	48835.28
517.20	48664.42
517.37	48807.19
517.54	48624.63
517.72	48727.61
517.89	48865.70
518.06	49221.47
518.24	49020.18
518.41	48987.41
518.58	48938.26
518.75	49181.68
518.93	49361.90
519.10	49113.80
519.27	49680.21
519.45	49588.93
519.62	49705.96
519.79	49705.96
519.96	49612.34
520.14	49986.82
520.31	49865.11
520.48	50066.40
520.65	49958.73
520.83	50153.00
521.00	50522.80
521.17	50358.97
521.34	50604.72
521.52	50553.23
521.69	50483.01
521.86	50843.46
522.03	51047.08
522.20	50967.51
522.38	51210.92
522.55	50932.40
522.72	51077.51
522.89	51236.67
523.07	51213.26
523.24	51583.07
523.41	51826.48
523.58	51292.84
523.75	51517.53
523.92	51611.15
524.10	51929.47
524.27	51807.76
524.44	51943.51
524.61	52163.52
524.78	51985.64
524.96	52020.75
525.13	52509.92
525.30	52530.98
525.47	52413.96
525.64	52268.84
525.81	52308.63
525.98	52538.01
526.16	52500.56
526.33	52465.45
526.50	52692.48
526.67	52762.70
526.84	52842.27
527.01	52905.47
527.18	52500.56
527.36	52802.49
527.53	52966.32
527.70	53331.45
527.87	53179.31
528.04	53052.92
528.21	53212.08
528.38	53120.80
528.55	53464.86
528.72	53240.17
528.89	53214.42
529.07	53251.87
529.24	53483.58
529.41	53886.15
529.58	53385.28
529.75	53240.17
529.92	53544.44
530.09	53528.05
530.26	53790.19
530.43	53909.56
530.60	53577.20
530.77	53961.05
530.94	53951.69
531.11	53961.05
531.28	54010.20
531.46	54052.33
531.63	54394.05
531.80	54141.27
531.97	54145.95
532.14	54335.54
532.31	54195.10
532.48	54436.18
532.65	54468.95
532.82	54218.51
532.99	54506.40
533.16	54260.64
533.33	54595.34
533.50	54803.64
533.67	54588.31
533.84	54340.22
534.01	54515.76
534.18	54920.67
534.35	55140.68
534.52	55049.40
534.69	54962.80
534.86	55138.34
535.03	54845.77
535.20	55063.44
535.37	55058.76
535.54	55089.19
535.71	55133.66
535.88	55426.23
536.05	55290.48
536.22	55400.48
536.38	55185.15
536.55	55477.72
536.72	55683.69
536.89	55400.48
537.06	55627.51
537.23	55405.16
537.40	55313.88
537.57	55643.90
537.74	55681.34
537.91	56041.79
538.08	55704.75
538.25	55641.56
538.42	55781.99
538.59	55952.85
538.75	55889.65
538.92	55826.46
539.09	56189.24
539.26	56011.36
539.43	56004.34
539.60	55859.23
539.77	56226.69
539.94	56413.93
540.11	56041.79
540.28	56149.45
540.44	56315.63
540.61	56217.33
540.78	56013.70
540.95	56367.12
541.12	56549.68
541.29	56402.23
541.46	56523.94
541.62	56547.34
541.79	56376.48
541.96	56074.55
542.13	56479.47
542.30	56528.62
542.47	56638.62
542.63	56598.83
542.80	56645.65
542.97	56762.67
543.14	56999.07
543.31	56825.87
543.48	57308.02
543.64	57237.80
543.81	57214.40
543.98	57118.43
544.15	57141.84
544.32	57471.85
544.48	57340.78
544.65	57242.48
544.82	57277.59
544.99	57176.95
545.16	57602.92
545.32	57134.82
545.49	57626.33
545.66	57577.18
545.83	57371.21
546.00	57565.48
546.16	57483.56
546.33	57551.43
546.50	57106.73
546.67	57408.66
546.83	57272.91
547.00	57614.63
547.17	57558.45
547.34	57656.76
547.50	57668.46
547.67	58054.65
547.84	57979.75
548.00	57949.32
548.17	58136.57
548.34	57855.70
548.51	58148.27
548.67	58204.44
548.84	57853.36
549.01	57942.30
549.18	57989.11
549.34	58157.63
549.51	58033.58
549.68	58152.95
549.84	58244.23
550.01	58190.40
550.18	58148.27
550.34	58475.94
550.51	58277.00
550.68	58485.31
550.84	58089.76
551.01	58295.72
551.18	58401.05
551.34	58391.68
551.51	58447.86
551.68	58300.40
551.84	58443.18
552.01	58262.96
552.18	58581.27
552.34	58415.09
552.51	58555.52
552.68	58525.10
552.84	58513.39
553.01	58700.64
553.18	58576.59
553.34	58796.60
553.51	58489.99
553.67	58852.77
553.84	58801.28
554.01	58857.45
554.17	58911.28
554.34	58810.64
554.51	58983.84
554.67	58969.80
554.84	58698.30
555.00	58782.55
555.17	58719.36
555.33	58969.80
555.50	58820.00
555.67	58862.13
555.83	58979.16
556.00	58932.35
556.16	59421.52
556.33	59185.13
556.50	59128.95
556.66	59278.75
556.83	59028.31
556.99	59325.56
557.16	59292.79
557.32	59234.28
557.49	59611.10
557.65	59236.62
557.82	59245.98
557.98	59365.35
558.15	59327.90
558.32	59334.92
558.48	59330.24
558.65	59346.62
558.81	59526.84
558.98	59297.47
559.14	59615.79
559.31	59501.10
559.47	59494.08
559.64	59496.42
559.80	59522.16
559.97	59550.25
560.13	59227.26
560.30	59592.38
560.46	59807.71
560.63	59524.50
560.79	59634.51
560.96	59889.63
561.12	59508.12
561.29	59688.34
561.45	59718.77
561.61	59721.11
561.78	59454.29
561.94	59978.57
562.11	59678.98
562.27	59847.50
562.44	59819.41
562.60	60041.76
562.77	60025.38
562.93	59723.45
563.10	60090.91
563.26	59828.77
563.42	59994.95
563.59	59781.96
563.75	59788.98
563.92	59957.50
564.08	60006.65
564.24	60009.00
564.41	60069.85
564.57	59758.56
564.74	60100.28
564.90	59917.71
565.07	59973.89
565.23	60053.47
565.39	59938.78
565.56	59959.84
565.72	60135.38
565.88	60212.62
566.05	59702.38
566.21	60231.35
566.38	60177.51
566.54	60154.11
566.70	60273.48
566.87	60161.13
567.03	59969.21
567.19	60427.95
567.36	60182.19
567.52	60374.12
567.68	60350.71
567.85	60130.70
568.01	60231.35
568.17	60226.66
568.34	60416.25
568.50	60172.83
568.66	60067.51
568.83	60362.42
568.99	60327.31
569.15	60364.76
569.32	60214.96
569.48	60182.19
569.64	60465.40
569.81	60257.09
569.97	60196.24
570.13	60463.06
570.30	60041.76
570.46	60341.35
570.62	60374.12
570.78	60523.91
570.95	60378.80
571.11	60566.04
571.27	60264.11
571.43	60542.64
571.60	60589.45
571.76	60245.39
571.92	60594.13
572.09	60491.15
572.25	60392.84
572.41	60423.27
572.57	60463.06
572.74	60640.94
572.90	60264.11
573.06	60704.13
573.22	60453.70
573.38	60596.47
573.55	60514.55
573.71	60669.03
573.87	60568.38
574.03	60554.34
574.20	60470.08
574.36	60505.19
574.52	60598.81
574.68	60659.66
574.84	60708.82
575.01	60596.47
575.17	60584.77
575.33	60664.35
575.49	60601.15
575.65	60692.43
575.82	60727.54
575.98	60664.35
576.14	60818.82
576.30	60790.73
576.46	60596.47
576.62	60687.75
576.79	60615.19
576.95	60514.55
577.11	60587.11
577.27	60786.05
577.43	60800.10
577.59	60788.39
577.75	60526.25
577.92	60542.64
578.08	60839.89
578.24	60825.84
578.40	60678.39
578.56	60762.65
578.72	60884.36
578.88	60942.87
579.04	60938.19
579.21	60741.58
579.37	60935.85
579.53	60928.83
579.69	60463.06
579.85	60488.80
580.01	60741.58
580.17	60678.39
580.33	60828.18
580.49	60772.01
580.65	60757.97
580.82	60755.63
580.98	60589.45
581.14	60690.09
581.30	60884.36
581.46	60802.44
581.62	60849.25
581.78	60718.18
581.94	60809.46
582.10	60842.23
582.26	60662.00
582.42	60669.03
582.58	60725.20
582.74	60769.67
582.90	60790.73
583.06	60732.22
583.22	60900.74
583.38	60839.89
583.54	60816.48
583.70	60800.10
583.86	60853.93
584.02	60652.64
584.18	61034.15
584.34	60734.56
584.50	60757.97
584.66	60839.89
584.82	60678.39
584.98	60954.57
585.14	60811.80
585.30	60795.42
585.46	60987.34
585.62	60921.80
585.78	61013.08
585.94	60755.63
586.10	60907.76
586.26	60917.12
586.42	60921.80
586.58	61020.11
586.74	61036.49
586.90	60889.04
587.06	60844.57
587.22	60882.02
587.38	60954.57
587.54	61055.21
587.70	61087.98
587.86	60935.85
588.02	60828.18
588.18	61064.58
588.34	60921.80
588.49	60907.76
