SpectraSuite Data File
++++++++++++++++++++++++++++++++++++
Date: Fri Oct 25 11:23:37 EDT 2013
User: price-jones
Dark Spectrum Present: No
Reference Spectrum Present: No
Number of Sampled Component Spectra: 1
Spectrometers: USB2+H05261
Integration Time (usec): 100000 (USB2+H05261)
Spectra Averaged: 1 (USB2+H05261)
Boxcar Smoothing: 0 (USB2+H05261)
Correct for Electrical Dark: No (USB2+H05261)
Strobe/Lamp Enabled: No (USB2+H05261)
Correct for Detector Non-linearity: No (USB2+H05261)
Correct for Stray Light: No (USB2+H05261)
Number of Pixels in Processed Spectrum: 2048
>>>>>Begin Processed Spectral Data<<<<<
365.73	163.84
365.92	163.84
366.12	163.84
366.32	77.24
366.52	114.69
366.72	77.24
366.91	77.24
367.11	208.31
367.31	138.09
367.51	126.39
367.70	131.07
367.90	184.90
368.10	70.22
368.30	140.43
368.49	135.75
368.69	145.11
368.89	135.75
369.09	163.84
369.28	177.88
369.48	175.54
369.68	173.20
369.87	170.86
370.07	163.84
370.27	189.58
370.47	351.08
370.66	564.07
370.86	528.96
371.06	610.88
371.25	758.33
371.45	622.58
371.65	690.46
371.84	706.84
372.04	624.92
372.24	653.01
372.44	667.05
372.63	718.54
372.83	730.25
373.03	718.54
373.22	774.72
373.42	746.63
373.62	840.25
373.81	847.27
374.01	826.21
374.21	788.76
374.40	863.66
374.60	870.68
374.79	873.02
374.99	830.89
375.19	753.65
375.38	875.36
375.58	873.02
375.78	840.25
375.97	919.83
376.17	814.51
376.37	826.21
376.56	746.63
376.76	933.87
376.95	882.38
377.15	908.13
377.35	917.49
377.54	847.27
377.74	858.98
377.93	870.68
378.13	929.19
378.33	931.53
378.52	990.05
378.72	945.58
378.91	924.51
379.11	882.38
379.31	926.85
379.50	940.90
379.70	945.58
379.89	1036.86
380.09	887.06
380.28	999.41
380.48	1057.92
380.68	987.71
380.87	922.17
381.07	990.05
381.26	1022.81
381.46	1015.79
381.65	945.58
381.85	1067.28
382.04	1135.16
382.24	1055.58
382.43	1104.73
382.63	1069.62
382.83	1086.01
383.02	1114.10
383.22	1158.57
383.41	976.00
383.61	1167.93
383.80	1097.71
384.00	1128.14
384.19	1135.16
384.39	1064.94
384.58	1146.86
384.78	1153.88
384.97	1102.39
385.17	1191.33
385.36	1174.95
385.56	1142.18
385.75	1196.01
385.95	1177.29
386.14	1135.16
386.34	1188.99
386.53	1275.59
386.72	1203.04
386.92	1144.52
387.11	1254.53
387.31	1254.53
387.50	1221.76
387.70	1205.38
387.89	1327.08
388.09	1207.72
388.28	1273.25
388.48	1277.93
388.67	1364.53
388.86	1296.66
389.06	1336.45
389.25	1352.83
389.45	1345.81
389.64	1268.57
389.84	1397.30
390.03	1287.29
390.22	1380.92
390.42	1355.17
390.61	1291.98
390.81	1336.45
391.00	1430.07
391.19	1540.07
391.39	1420.71
391.58	1458.15
391.78	1469.86
391.97	1444.11
392.16	1460.49
392.36	1535.39
392.55	1479.22
392.75	1497.94
392.94	1453.47
393.13	1497.94
393.33	1528.37
393.52	1570.50
393.71	1547.09
393.91	1659.44
394.10	1561.14
394.29	1589.22
394.49	1633.69
394.68	1596.25
394.88	1619.65
395.07	1631.35
395.26	1605.61
395.46	1675.82
395.65	1757.74
395.84	1687.53
396.04	1778.81
396.23	1689.87
396.42	1678.16
396.62	1771.79
396.81	1755.40
397.00	1795.19
397.19	1877.11
397.39	1839.66
397.58	1874.77
397.77	1757.74
397.97	1888.81
398.16	1879.45
398.35	1893.49
398.55	1724.97
398.74	1996.48
398.93	1891.15
399.12	1820.94
399.32	1806.89
399.51	1933.28
399.70	1909.88
399.90	1966.05
400.09	1982.43
400.28	2010.52
400.47	1935.62
400.67	2069.03
400.86	2022.22
401.05	2092.44
401.24	2022.22
401.44	2019.88
401.63	2054.99
401.82	2115.84
402.01	2071.37
402.21	2167.34
402.40	2195.42
402.59	2324.15
402.78	2275.00
402.97	2225.85
403.17	2293.72
403.36	2265.64
403.55	2223.51
403.74	2303.09
403.93	2338.20
404.13	2370.96
404.32	2335.85
404.51	2399.05
404.70	2422.45
404.89	2326.49
405.09	2473.95
405.28	2562.89
405.47	2464.58
405.66	2530.12
405.85	2583.95
406.05	2382.67
406.24	2595.65
406.43	2511.39
406.62	2588.63
406.81	2670.55
407.00	2705.66
407.20	2588.63
407.39	2661.19
407.58	2750.13
407.77	2780.56
407.96	2740.77
408.15	2764.17
408.34	2621.40
408.54	2679.91
408.73	2848.43
408.92	2920.99
409.11	2876.52
409.30	2815.66
409.49	2867.16
409.68	2836.73
409.87	2916.31
410.07	2998.23
410.26	3014.61
410.45	3021.63
410.64	3035.67
410.83	3054.40
411.02	3087.17
411.21	3045.04
411.40	3204.19
411.59	3220.58
411.78	3246.32
411.98	3281.43
412.17	3300.16
412.36	3251.00
412.55	3386.76
412.74	3433.57
412.93	3426.54
413.12	3442.93
413.31	3599.74
413.50	3545.91
413.69	3466.33
413.88	3578.68
414.07	3585.70
414.26	3602.08
414.45	3611.45
414.64	3625.49
414.83	3623.15
415.02	3765.92
415.22	3880.61
415.41	3913.38
415.60	3859.54
415.79	3911.04
415.98	3925.08
416.17	3995.29
416.36	3805.71
416.55	3981.25
416.74	4086.58
416.93	4049.13
417.12	4030.40
417.31	4002.32
417.50	4079.55
417.69	4149.77
417.88	4320.63
418.07	4241.05
418.26	4325.31
418.45	4435.32
418.64	4486.81
418.83	4332.33
419.02	4383.82
419.21	4519.57
419.39	4428.29
419.58	4313.61
419.77	4533.62
419.96	4542.98
420.15	4566.39
420.34	4526.60
420.53	4631.92
420.72	4723.20
420.91	4889.38
421.10	4681.07
421.29	4814.48
421.48	4765.33
421.67	4844.91
421.86	4594.47
422.05	4844.91
422.24	4854.27
422.43	4997.04
422.61	4908.10
422.80	5008.75
422.99	4961.94
423.18	4751.29
423.37	4957.25
423.56	4882.36
423.75	4964.28
423.94	4819.16
424.13	4613.20
424.32	4720.86
424.50	5001.72
424.69	5165.56
424.88	5137.48
425.07	4971.30
425.26	5020.45
425.45	4887.04
425.64	4929.17
425.83	4945.55
426.01	5177.26
426.20	5015.77
426.39	5151.52
426.58	5013.43
426.77	5053.22
426.96	5184.29
427.15	5156.20
427.33	5259.18
427.52	5128.11
427.71	5191.31
427.90	5195.99
428.09	5298.97
428.28	5301.31
428.46	5362.17
428.65	5261.52
428.84	5584.52
429.03	5420.68
429.22	5252.16
429.40	5474.51
429.59	5640.69
429.78	5476.85
429.97	5146.84
430.16	5458.13
430.34	5724.95
430.53	5591.54
430.72	5568.13
430.91	5521.32
431.10	5586.86
431.28	5736.65
431.47	5746.02
431.66	5809.21
431.85	5746.02
432.03	5860.70
432.22	6031.56
432.41	5778.78
432.60	5949.64
432.79	5898.15
432.97	6225.82
433.16	6038.58
433.35	5778.78
433.54	6120.50
433.72	6256.25
433.91	6136.88
434.10	6150.93
434.28	6090.07
434.47	6228.17
434.66	6228.17
434.85	6251.57
435.03	6452.86
435.22	6321.79
435.41	6310.08
435.59	6270.30
435.78	6431.79
435.97	6466.90
436.16	6384.98
436.34	6719.68
436.53	6445.84
436.72	6729.04
436.90	6464.56
437.09	6558.18
437.28	6574.56
437.46	6541.80
437.65	6546.48
437.84	6829.68
438.02	6609.67
438.21	6707.98
438.40	6654.14
438.58	6883.52
438.77	6925.65
438.96	6850.75
439.14	7126.93
439.33	7239.28
439.52	7136.29
439.70	7171.40
439.89	7414.82
440.08	7274.38
440.26	7351.62
440.45	7262.68
440.63	7459.29
440.82	7625.47
441.01	7548.23
441.19	7676.96
441.38	7756.54
441.57	7810.37
441.75	7817.39
441.94	7943.78
442.12	7943.78
442.31	8086.55
442.50	8128.68
442.68	7927.39
442.87	8030.38
443.05	8105.28
443.24	8212.94
443.43	8095.91
443.61	8276.13
443.80	8503.17
443.98	8154.43
444.17	7901.65
444.35	8105.28
444.54	8360.39
444.73	8297.20
444.91	8437.63
445.10	8367.42
445.28	8542.96
445.47	8346.35
445.65	8257.41
445.84	8596.79
446.02	8379.12
446.21	8390.82
446.39	8613.17
446.58	8631.90
446.77	8568.70
446.95	8205.92
447.14	8402.52
447.32	8493.80
447.51	8468.06
447.69	8475.08
447.88	8542.96
448.06	8428.27
448.25	8521.89
448.43	8552.32
448.62	8779.35
448.80	8348.69
448.99	8594.45
449.17	8634.24
449.36	8676.37
449.54	8945.53
449.73	8973.61
449.91	9111.71
450.10	8929.14
450.28	8760.63
450.46	8982.98
450.65	8950.21
450.83	9057.87
451.02	9095.32
451.20	9202.99
451.39	9062.55
451.57	9114.05
451.76	9097.66
451.94	9231.07
452.13	9469.81
452.31	9210.01
452.49	9249.80
452.68	9469.81
452.86	9298.95
453.05	9563.43
453.23	9444.06
453.42	9207.67
453.60	9256.82
453.78	9614.92
453.97	9570.45
454.15	9598.54
454.34	9427.68
454.52	9600.88
454.70	9696.84
454.89	9853.66
455.07	9750.67
455.26	9659.39
455.44	9827.91
455.62	9870.04
455.81	9867.70
455.99	9888.76
456.17	10068.98
456.36	9860.68
456.54	10076.01
456.73	10260.91
456.91	10551.14
457.09	10274.95
457.28	10602.63
457.46	10289.00
457.64	10633.05
457.83	10310.06
458.01	10303.04
458.19	10862.43
458.38	10534.75
458.56	10771.15
458.74	10846.04
458.93	10609.65
459.11	10714.97
459.29	10848.38
459.48	10881.15
459.66	11089.46
459.84	10958.39
460.03	11063.71
460.21	10857.75
460.39	10642.42
460.57	11140.95
460.76	11115.20
460.94	11152.65
461.12	11089.46
461.31	11084.78
461.49	11061.37
461.67	11178.40
461.85	11272.02
462.04	11492.03
462.22	11824.39
462.40	11573.95
462.59	11616.08
462.77	11431.18
462.95	11396.07
463.13	11843.11
463.32	11550.54
463.50	11878.22
463.68	11775.24
463.86	11805.66
464.05	11800.98
464.23	11693.32
464.41	11939.07
464.59	11655.87
464.78	12039.72
464.96	11990.56
465.14	11758.85
465.32	12180.15
465.50	12210.57
465.69	12325.26
465.87	12255.04
466.05	12329.94
466.23	12037.38
466.41	12271.43
466.60	12313.56
466.78	12283.13
466.96	12100.57
467.14	12166.10
467.32	12489.10
467.51	12449.31
467.69	12369.73
467.87	12547.61
468.05	12620.17
468.23	12423.56
468.41	12652.94
468.60	12685.70
468.78	12814.43
468.96	12573.36
469.14	12915.08
469.32	12856.56
469.50	12521.87
469.69	13048.49
469.87	12999.34
470.05	12919.76
470.23	13097.64
470.41	13111.68
470.59	13336.37
470.77	13046.15
470.95	13153.81
471.14	13755.33
471.32	13317.65
471.50	13596.17
471.68	13673.41
471.86	13729.58
472.04	13867.67
472.22	13909.80
472.40	13577.45
472.58	13987.04
472.77	13802.14
472.95	13998.74
473.13	14731.33
473.31	14132.15
473.49	14253.86
473.67	14085.34
473.85	14574.52
474.03	14595.58
474.21	14508.98
474.39	14684.52
474.57	14604.94
474.75	14824.95
474.93	14967.73
475.12	15002.83
475.30	15222.84
475.48	15169.01
475.66	15028.58
475.84	15110.50
476.02	15204.12
476.20	15293.06
476.38	15674.57
476.56	15960.11
476.74	16011.60
476.92	15873.51
477.10	15899.26
477.28	16027.99
477.46	16020.97
477.64	16435.24
477.82	16592.06
478.00	16943.14
478.18	16826.11
478.36	16968.88
478.54	16952.50
478.72	17018.04
478.90	17238.05
479.08	17671.04
479.26	17479.12
479.44	17626.57
479.62	18005.74
479.80	17846.58
479.98	18057.23
480.16	18731.31
480.34	18324.05
480.52	18665.77
480.70	19012.17
480.88	18361.50
481.06	18876.42
481.24	18876.42
481.41	19225.16
481.59	19042.60
481.77	19468.58
481.95	19517.73
482.13	19871.15
482.31	19873.49
482.49	20793.32
482.67	20255.00
482.85	20460.96
483.03	20776.94
483.21	20769.91
483.39	20968.86
483.57	20896.30
483.74	21109.29
483.92	21488.46
484.10	21474.42
484.28	21762.30
484.46	22082.95
484.64	22373.18
484.82	22061.89
485.00	22389.56
485.18	22457.44
485.35	22995.76
485.53	23023.85
485.71	23063.64
485.89	23379.61
486.07	23482.59
486.25	23482.59
486.43	23917.93
486.61	23803.25
486.78	24109.86
486.96	24107.52
487.14	24725.42
487.32	24250.29
487.50	24748.82
487.68	25277.79
487.85	25481.41
488.03	25570.35
488.21	26127.40
488.39	25989.31
488.57	26520.61
488.75	26101.65
488.92	26419.97
489.10	26820.20
489.28	26803.82
489.46	27300.01
489.64	27070.64
489.81	27267.24
489.99	28034.94
490.17	27906.21
490.35	28212.82
490.53	28301.76
490.70	28381.34
490.88	28077.07
491.06	28545.17
491.24	28814.34
491.41	29050.73
491.59	29322.23
491.77	29296.49
491.95	29619.48
492.13	30246.74
492.30	30103.97
492.48	29905.02
492.66	30209.29
492.84	30513.56
493.01	30522.93
493.19	30654.00
493.37	30944.22
493.54	30794.43
493.72	31213.38
493.90	31702.56
494.08	31908.52
494.25	31772.77
494.43	32393.01
494.61	32479.61
494.79	32350.88
494.96	32283.01
495.14	32818.99
495.32	33099.86
495.49	33226.24
495.67	33326.89
495.85	33762.23
496.02	33965.85
496.20	34122.67
496.38	33977.56
496.55	34136.71
496.73	35044.84
496.91	34780.36
497.09	35079.95
497.26	34771.00
497.44	34897.39
497.62	35391.24
497.79	35761.05
497.97	35707.21
498.14	36196.38
498.32	35859.35
498.50	36243.20
498.67	36659.81
498.85	36369.58
499.03	37053.02
499.20	36851.73
499.38	37062.38
499.56	36814.29
499.73	37312.82
499.91	37713.05
500.08	38141.37
500.26	37331.54
500.44	37701.35
500.61	38026.68
500.79	37741.14
500.97	38183.50
501.14	38349.68
501.32	38831.83
501.49	38649.27
501.67	38314.57
501.84	39108.01
502.02	39136.10
502.20	38843.53
502.37	39166.52
502.55	39431.01
502.72	39466.11
502.90	39646.33
503.07	39672.08
503.25	39896.77
503.43	39814.85
503.60	39791.45
503.78	40432.75
503.95	40463.18
504.13	40568.51
504.30	40940.65
504.48	40563.82
504.65	40924.27
504.83	40847.03
505.01	41244.92
505.18	41282.37
505.36	41305.77
505.53	40861.07
505.71	41668.56
505.88	42232.63
506.06	41359.61
506.23	41998.57
506.41	41713.03
506.58	42611.79
506.76	42377.74
506.93	42670.31
507.11	41965.81
507.28	42665.63
507.46	42871.59
507.63	42934.79
507.81	43391.19
507.98	43037.77
508.16	43480.13
508.33	43377.15
508.50	43358.42
508.68	43526.94
508.85	44102.71
509.03	43503.54
509.20	43899.09
509.38	44065.27
509.55	44512.31
509.73	44673.81
509.90	44669.12
510.08	44610.61
510.25	44491.24
510.42	44847.00
510.60	45111.49
510.77	45170.00
510.95	45624.06
511.12	45256.60
511.30	45254.26
511.47	45460.23
511.64	46047.70
511.82	46057.06
511.99	45537.46
512.17	46054.72
512.34	45762.15
512.51	46291.12
512.69	46487.72
512.86	46274.73
513.04	47028.38
513.21	46571.98
513.38	46902.00
513.56	46810.71
513.73	47049.45
513.90	47114.98
514.08	46965.19
514.25	47508.19
514.43	47749.27
514.60	47718.84
514.77	47346.70
514.95	47749.27
515.12	47735.23
515.29	47873.32
515.47	47709.48
515.64	48196.31
515.81	48224.40
515.99	48282.91
516.16	48891.45
516.33	48608.25
516.51	48701.87
516.68	48268.87
516.85	48744.00
517.03	48701.87
517.20	49074.01
517.37	48814.21
517.54	49024.86
517.72	49221.47
517.89	49144.23
518.06	49305.73
518.24	49200.40
518.41	49118.48
518.58	49712.98
518.75	49247.21
518.93	49298.70
519.10	49577.23
519.27	49951.71
519.45	49815.96
519.62	49820.64
519.79	49991.50
519.96	49661.49
520.14	50124.91
520.31	50258.32
520.48	50520.46
520.65	50122.57
520.83	51023.68
521.00	50700.68
521.17	50869.20
521.34	50813.03
521.52	50934.74
521.69	50827.07
521.86	51152.41
522.03	51243.69
522.20	51318.59
522.38	51531.57
522.55	51491.79
522.72	51571.36
522.89	51323.27
523.07	51920.10
523.24	51477.74
523.41	51861.59
523.58	51313.90
523.75	51739.88
523.92	51791.37
524.10	52219.69
524.27	52278.21
524.44	52069.90
524.61	52325.02
524.78	52542.69
524.96	52170.54
525.13	52397.57
525.30	52327.36
525.47	52488.85
525.64	52554.39
525.81	52968.66
525.98	52636.31
526.16	52481.83
526.33	52561.41
526.50	52926.53
526.67	52966.32
526.84	53123.14
527.01	53048.24
527.18	53081.01
527.36	52898.45
527.53	53134.84
527.70	53160.59
527.87	53499.97
528.04	53490.60
528.21	53504.65
528.38	53286.98
528.55	53495.28
528.72	53560.82
528.89	53923.60
529.07	53558.48
529.24	53638.06
529.41	53769.13
529.58	53853.39
529.75	53654.44
529.92	53834.66
530.09	53799.55
530.26	54129.57
530.43	54298.09
530.60	54080.42
530.77	54061.69
530.94	54078.08
531.11	54071.06
531.28	54028.93
531.46	54288.73
531.63	54167.02
531.80	54438.52
531.97	54590.66
532.14	54822.37
532.31	54478.31
532.48	54724.07
532.65	55028.34
532.82	54712.36
532.99	54955.78
533.16	54511.08
533.33	55002.59
533.50	55018.97
533.67	54937.05
533.84	54590.66
534.01	54731.09
534.18	55009.61
534.35	55257.71
534.52	55206.22
534.69	55468.36
534.86	55360.69
535.03	55407.50
535.20	55033.02
535.37	55323.24
535.54	55332.60
535.71	55318.56
535.88	55721.13
536.05	55292.82
536.22	55590.06
536.38	55849.86
536.55	55791.35
536.72	55561.98
536.89	55421.55
537.06	55889.65
537.23	55903.70
537.40	55632.19
537.57	55714.11
537.74	55992.64
537.91	56142.43
538.08	55847.52
538.25	55929.44
538.42	56039.45
538.59	56053.49
538.75	55987.95
538.92	55854.54
539.09	56214.99
539.26	56086.26
539.43	56023.06
539.60	56306.27
539.77	56573.09
539.94	56371.80
540.11	56399.89
540.28	56470.11
540.44	56409.25
540.61	56495.85
540.78	56210.31
540.95	56610.54
541.12	56615.22
541.29	56570.75
541.46	56697.14
541.62	56643.30
541.79	56704.16
541.96	56411.59
542.13	56559.05
542.30	56715.86
542.47	56856.29
542.63	56954.60
542.80	56748.63
542.97	57169.93
543.14	57411.00
543.31	57043.54
543.48	57130.14
543.64	57460.15
543.81	57392.28
543.98	57396.96
544.15	57542.07
544.32	57549.09
544.48	57694.21
544.65	57420.36
544.82	57509.30
544.99	57282.27
545.16	57584.20
545.32	57336.10
545.49	57773.78
545.66	57715.27
545.83	57631.01
546.00	57975.07
546.16	57609.95
546.33	57694.21
546.50	57684.84
546.67	57886.13
546.83	57687.18
547.00	57801.87
547.17	57668.46
547.34	57731.65
547.50	58061.67
547.67	58164.65
547.84	58064.01
548.00	58110.82
548.17	58314.45
548.34	58096.78
548.51	58279.34
548.67	58337.85
548.84	58166.99
549.01	58124.86
549.18	58328.49
549.34	58204.44
549.51	58412.75
549.68	58464.24
549.84	58494.67
550.01	58513.39
550.18	58291.04
550.34	58520.41
550.51	58447.86
550.68	58344.87
550.84	58424.45
551.01	58550.84
551.18	58368.28
551.34	58567.23
551.51	58784.90
551.68	58761.49
551.84	58578.93
552.01	58492.33
552.18	58681.91
552.34	58660.85
552.51	58688.93
552.68	58567.23
552.84	58859.79
553.01	59128.95
553.18	58915.96
553.34	59054.06
553.51	58918.31
553.67	58955.75
553.84	58838.73
554.01	58901.92
554.17	58974.48
554.34	58756.81
554.51	58972.14
554.67	59187.47
554.84	59079.80
555.00	59047.04
555.17	58922.99
555.33	59260.02
555.50	59068.10
555.67	58988.52
555.83	58808.30
556.00	59107.89
556.16	59339.60
556.33	59458.97
556.50	59128.95
556.66	59522.16
556.83	59018.95
556.99	59515.14
557.16	59585.36
557.32	59554.93
557.49	59576.00
557.65	59456.63
557.82	59526.84
557.98	59442.59
558.15	59451.95
558.32	59475.35
558.48	59515.14
558.65	59646.21
558.81	59381.73
558.98	59456.63
559.14	59653.23
559.31	59655.57
559.47	59503.44
559.64	59627.49
559.80	59831.11
559.97	59599.40
560.13	59594.72
560.30	60013.68
560.46	59767.92
560.63	59826.43
560.79	59746.86
560.96	59891.97
561.12	59994.95
561.29	59866.22
561.45	59877.93
561.61	59826.43
561.78	59847.50
561.94	59945.80
562.11	60016.02
562.27	59915.37
562.44	59826.43
562.60	60154.11
562.77	60058.15
562.93	59891.97
563.10	60044.10
563.26	60074.53
563.42	60177.51
563.59	59943.46
563.75	60067.51
563.92	60161.13
564.08	60172.83
564.24	60104.96
564.41	60186.88
564.57	60011.34
564.74	60250.07
564.90	60182.19
565.07	60240.71
565.23	60287.52
565.39	60287.52
565.56	60308.58
565.72	60275.82
565.88	60238.37
566.05	60037.08
566.21	60210.28
566.38	60200.92
566.54	60378.80
566.70	60385.82
566.87	60425.61
567.03	60095.60
567.19	60563.70
567.36	60161.13
567.52	60441.99
567.68	60336.67
567.85	60617.53
568.01	60324.97
568.17	60467.74
568.34	60535.62
568.50	60456.04
568.66	60327.31
568.83	60463.06
568.99	60383.48
569.15	60533.28
569.32	60582.43
569.48	60561.36
569.64	60598.81
569.81	60587.11
569.97	60491.15
570.13	60395.18
570.30	60463.06
570.46	60355.39
570.62	60767.33
570.78	60617.53
570.95	60465.40
571.11	60673.71
571.27	60643.28
571.43	60449.02
571.60	60605.83
571.76	60678.39
571.92	60647.96
572.09	60467.74
572.25	60535.62
572.41	60566.04
572.57	60638.60
572.74	60673.71
572.90	60701.79
573.06	60762.65
573.22	60645.62
573.38	60498.17
573.55	60495.83
573.71	60947.55
573.87	60699.45
574.03	60507.53
574.20	60828.18
574.36	60624.56
574.52	60750.94
574.68	60739.24
574.84	61022.45
575.01	60884.36
575.17	60659.66
575.33	60636.26
575.49	60825.84
575.65	60882.02
575.82	60781.37
575.98	61031.81
576.14	61066.92
576.30	60924.14
576.46	60746.26
576.62	60774.35
576.79	60849.25
576.95	60640.94
577.11	60982.66
577.27	61020.11
577.43	60966.27
577.59	60760.31
577.75	60694.77
577.92	60594.13
578.08	60802.44
578.24	60781.37
578.40	61034.15
578.56	61113.73
578.72	60928.83
578.88	60954.57
579.04	61226.07
579.21	61024.79
579.37	60970.96
579.53	61045.85
579.69	60652.64
579.85	60919.46
580.01	60945.21
580.17	60666.69
580.33	60889.04
580.49	60860.95
580.65	60823.50
580.82	60914.78
580.98	60839.89
581.14	60692.43
581.30	61064.58
581.46	60879.67
581.62	60896.06
581.78	60872.65
581.94	60954.57
582.10	60963.93
582.26	61080.96
582.42	61059.90
582.58	61087.98
582.74	60935.85
582.90	60935.85
583.06	61034.15
583.22	60839.89
583.38	60853.93
583.54	60865.63
583.70	60996.70
583.86	61111.39
584.02	60886.70
584.18	61057.56
584.34	60980.32
584.50	60860.95
584.66	60949.89
584.82	60910.10
584.98	61095.00
585.14	61034.15
585.30	60999.04
585.46	61162.88
585.62	61120.75
585.78	61123.09
585.94	60851.59
586.10	60989.68
586.26	61073.94
586.42	61134.79
586.58	61158.20
586.74	61041.17
586.90	61022.45
587.06	60954.57
587.22	61043.51
587.38	61130.11
587.54	61230.75
587.70	61272.88
587.86	61052.87
588.02	60973.30
588.18	61160.54
588.34	61087.98
588.49	61146.50
