SpectraSuite Data File
++++++++++++++++++++++++++++++++++++
Date: Fri Oct 25 11:25:00 EDT 2013
User: price-jones
Dark Spectrum Present: No
Reference Spectrum Present: No
Number of Sampled Component Spectra: 1
Spectrometers: USB2+H05261
Integration Time (usec): 100000 (USB2+H05261)
Spectra Averaged: 1 (USB2+H05261)
Boxcar Smoothing: 0 (USB2+H05261)
Correct for Electrical Dark: No (USB2+H05261)
Strobe/Lamp Enabled: No (USB2+H05261)
Correct for Detector Non-linearity: No (USB2+H05261)
Correct for Stray Light: No (USB2+H05261)
Number of Pixels in Processed Spectrum: 2048
>>>>>Begin Processed Spectral Data<<<<<
365.73	255.12
365.92	255.12
366.12	255.12
366.32	142.77
366.52	161.50
366.72	161.50
366.91	110.01
367.11	173.20
367.31	142.77
367.51	72.56
367.70	212.99
367.90	105.32
368.10	180.22
368.30	163.84
368.49	114.69
368.69	187.24
368.89	140.43
369.09	149.79
369.28	163.84
369.48	154.48
369.68	166.18
369.87	196.60
370.07	147.45
370.27	166.18
370.47	339.38
370.66	667.05
370.86	629.60
371.06	669.39
371.25	662.37
371.45	589.82
371.65	699.82
371.84	739.61
372.04	706.84
372.24	779.40
372.44	660.03
372.63	784.08
372.83	793.44
373.03	690.46
373.22	711.52
373.42	847.27
373.62	781.74
373.81	835.57
374.01	910.47
374.21	788.76
374.40	734.93
374.60	767.70
374.79	880.04
374.99	912.81
375.19	851.96
375.38	826.21
375.58	809.83
375.78	901.11
375.97	833.23
376.17	828.55
376.37	840.25
376.56	858.98
376.76	842.59
376.95	936.21
377.15	901.11
377.35	898.77
377.54	936.21
377.74	901.11
377.93	812.17
378.13	896.43
378.33	896.43
378.52	959.62
378.72	940.90
378.91	945.58
379.11	905.79
379.31	844.93
379.50	905.79
379.70	954.94
379.89	1043.88
380.09	940.90
380.28	919.83
380.48	1027.50
380.68	1025.15
380.87	924.51
381.07	1013.45
381.26	940.90
381.46	985.37
381.65	1025.15
381.85	1064.94
382.04	1086.01
382.24	1069.62
382.43	1032.18
382.63	976.00
382.83	1076.65
383.02	1081.33
383.22	1144.52
383.41	1062.60
383.61	1095.37
383.80	1210.06
384.00	1114.10
384.19	1100.05
384.39	1144.52
384.58	1132.82
384.78	1179.63
384.97	1181.97
385.17	1139.84
385.36	1097.71
385.56	1142.18
385.75	1165.59
385.95	1179.63
386.14	1139.84
386.34	1135.16
386.53	1193.67
386.72	1233.46
386.92	1249.85
387.11	1224.10
387.31	1263.89
387.50	1280.27
387.70	1261.55
387.89	1188.99
388.09	1294.32
388.28	1308.36
388.48	1280.27
388.67	1289.64
388.86	1289.64
389.06	1355.17
389.25	1303.68
389.45	1378.58
389.64	1315.38
389.84	1406.66
390.03	1425.39
390.22	1366.87
390.42	1334.11
390.61	1277.93
390.81	1446.45
391.00	1441.77
391.19	1481.56
391.39	1479.22
391.58	1432.41
391.78	1500.28
391.97	1469.86
392.16	1467.52
392.36	1572.84
392.55	1502.62
392.75	1519.01
392.94	1481.56
393.13	1453.47
393.33	1554.12
393.52	1542.41
393.71	1626.67
393.91	1547.09
394.10	1540.07
394.29	1568.16
394.49	1603.27
394.68	1671.14
394.88	1682.85
395.07	1643.06
395.26	1685.19
395.46	1645.40
395.65	1687.53
395.84	1703.91
396.04	1785.83
396.23	1902.86
396.42	1825.62
396.62	1675.82
396.81	1757.74
397.00	1675.82
397.19	1853.70
397.39	1715.61
397.58	1774.13
397.77	1790.51
397.97	1785.83
398.16	1776.47
398.35	1877.11
398.55	1900.52
398.74	1940.30
398.93	2001.16
399.12	1898.17
399.32	1998.82
399.51	2010.52
399.70	2064.35
399.90	1898.17
400.09	2036.27
400.28	2134.57
400.47	2010.52
400.67	2132.23
400.86	2043.29
401.05	2047.97
401.24	1956.69
401.44	2143.93
401.63	2071.37
401.82	2174.36
402.01	2076.06
402.21	2076.06
402.40	2214.15
402.59	2062.01
402.78	2101.80
402.97	2214.15
403.17	2291.38
403.36	2284.36
403.55	2333.51
403.74	2359.26
403.93	2361.60
404.13	2296.07
404.32	2279.68
404.51	2342.88
404.70	2429.48
404.89	2389.69
405.09	2469.27
405.28	2469.27
405.47	2530.12
405.66	2558.21
405.85	2504.37
406.05	2523.10
406.24	2539.48
406.43	2572.25
406.62	2633.10
406.81	2565.23
407.00	2532.46
407.20	2534.80
407.39	2569.91
407.58	2747.79
407.77	2663.53
407.96	2698.64
408.15	2803.96
408.34	2712.68
408.54	2834.39
408.73	2836.73
408.92	2764.17
409.11	2871.84
409.30	2825.03
409.49	2745.45
409.68	2829.71
409.87	2878.86
410.07	3066.10
410.26	3019.29
410.45	2972.48
410.64	3056.74
410.83	3122.27
411.02	3164.40
411.21	3133.98
411.40	3005.25
411.59	3215.90
411.78	3133.98
411.98	3169.09
412.17	3293.13
412.36	3265.05
412.55	3375.05
412.74	3276.75
412.93	3346.97
413.12	3428.88
413.31	3681.66
413.50	3421.86
413.69	3379.73
413.88	3613.79
414.07	3571.66
414.26	3648.90
414.45	3667.62
414.64	3569.32
414.83	3838.48
415.02	3794.01
415.22	3882.95
415.41	3960.19
415.60	3833.80
415.79	3908.69
415.98	3906.35
416.17	3983.59
416.36	3974.23
416.55	3833.80
416.74	4044.45
416.93	4077.21
417.12	4065.51
417.31	4280.84
417.50	4212.96
417.69	4334.67
417.88	4308.93
418.07	4276.16
418.26	4308.93
418.45	4369.78
418.64	4486.81
418.83	4327.65
419.02	4409.57
419.21	4535.96
419.39	4362.76
419.58	4505.53
419.77	4442.34
419.96	4557.02
420.15	4603.83
420.34	4484.47
420.53	4568.73
420.72	4692.77
420.91	4610.86
421.10	4774.69
421.29	4807.46
421.48	4760.65
421.67	4706.82
421.86	4770.01
422.05	4765.33
422.24	4641.28
422.43	4760.65
422.61	4961.94
422.80	4887.04
422.99	4791.08
423.18	4966.62
423.37	5011.09
423.56	5029.81
423.75	4968.96
423.94	4753.63
424.13	4723.20
424.32	4603.83
424.50	4889.38
424.69	5076.62
424.88	4964.28
425.07	4938.53
425.26	4868.31
425.45	4952.57
425.64	4943.21
425.83	4875.34
426.01	5053.22
426.20	4999.38
426.39	5050.88
426.58	4865.97
426.77	5156.20
426.96	5144.50
427.15	5247.48
427.33	5139.82
427.52	5116.41
427.71	5177.26
427.90	5177.26
428.09	5177.26
428.28	5394.93
428.46	5327.06
428.65	5294.29
428.84	5441.75
429.03	5507.28
429.22	5350.46
429.40	5596.22
429.59	5416.00
429.78	5338.76
429.97	5217.05
430.16	5518.98
430.34	5563.45
430.53	5462.81
430.72	5598.56
430.91	5664.10
431.10	5696.86
431.28	5727.29
431.47	5741.33
431.66	5886.45
431.85	5849.00
432.03	5853.68
432.22	6024.54
432.41	5937.94
432.60	5984.75
432.79	5930.92
432.97	6057.31
433.16	6146.25
433.35	6017.52
433.54	6052.63
433.72	6122.84
433.91	6038.58
434.10	6239.87
434.28	6111.14
434.47	6125.18
434.66	6331.15
434.85	6214.12
435.03	6195.40
435.22	6174.33
435.41	6265.61
435.59	6324.13
435.78	6258.59
435.97	6422.43
436.16	6546.48
436.34	6583.93
436.53	6647.12
436.72	6717.34
436.90	6415.41
437.09	6607.33
437.28	6663.51
437.46	6619.04
437.65	6637.76
437.84	6895.22
438.02	6752.45
438.21	6836.70
438.40	6555.84
438.58	6974.80
438.77	6972.46
438.96	6932.67
439.14	7262.68
439.33	7056.72
439.52	7290.77
439.70	7094.16
439.89	7246.30
440.08	7164.38
440.26	7311.83
440.45	7419.50
440.63	7485.03
440.82	7555.25
441.01	7522.48
441.19	7637.17
441.38	7810.37
441.57	7749.51
441.75	7772.92
441.94	7927.39
442.12	7960.16
442.31	7929.74
442.50	7908.67
442.68	7974.21
442.87	7906.33
443.05	8100.59
443.24	8093.57
443.43	8053.78
443.61	8102.93
443.80	8339.33
443.98	8095.91
444.17	7744.83
444.35	8126.34
444.54	8351.03
444.73	8217.62
444.91	8196.56
445.10	8444.65
445.28	8402.52
445.47	8128.68
445.65	8341.67
445.84	8208.26
446.02	8517.21
446.21	8329.97
446.39	8290.18
446.58	8308.90
446.77	8475.08
446.95	8339.33
447.14	8355.71
447.32	8585.08
447.51	8374.44
447.69	8461.04
447.88	8512.53
448.06	8297.20
448.25	8372.10
448.43	8395.50
448.62	8690.41
448.80	8505.51
448.99	8671.68
449.17	8755.94
449.36	8498.49
449.54	8798.07
449.73	8816.80
449.91	8903.40
450.10	9027.45
450.28	8926.80
450.46	8952.55
450.65	8898.72
450.83	9137.45
451.02	9011.06
451.20	9303.63
451.39	9107.02
451.57	9125.75
451.76	9001.70
451.94	9298.95
452.13	9312.99
452.31	9413.63
452.49	9032.13
452.68	9266.18
452.86	9135.11
453.05	9462.79
453.23	9483.85
453.42	9341.08
453.60	9404.27
453.78	9561.09
453.97	9425.34
454.15	9554.07
454.34	9352.78
454.52	9598.54
454.70	9745.99
454.89	9603.22
455.07	9703.86
455.26	9734.29
455.44	9778.76
455.62	10003.45
455.81	9818.55
455.99	9853.66
456.17	9825.57
456.36	9968.34
456.54	9996.43
456.73	10253.89
456.91	10478.58
457.09	10427.09
457.28	10487.94
457.46	10237.50
457.64	10565.18
457.83	10396.66
458.01	10359.21
458.19	10745.40
458.38	10422.41
458.56	10534.75
458.74	10611.99
458.93	10588.58
459.11	10644.76
459.29	10839.02
459.48	10509.01
459.66	10696.25
459.84	10841.36
460.03	10953.71
460.21	10986.47
460.39	11016.90
460.57	10895.19
460.76	11023.92
460.94	11047.33
461.12	11073.07
461.31	11073.07
461.49	11150.31
461.67	11229.89
461.85	11583.31
462.04	11473.31
462.22	11850.13
462.40	11353.94
462.59	11396.07
462.77	11367.98
462.95	11800.98
463.13	11648.85
463.32	11606.72
463.50	11695.66
463.68	11836.09
463.86	11676.93
464.05	11470.97
464.23	11541.18
464.41	11836.09
464.59	11590.33
464.78	12177.81
464.96	11840.77
465.14	11698.00
465.32	12042.06
465.50	12044.40
465.69	12145.04
465.87	12131.00
466.05	11946.09
466.23	11929.71
466.41	12327.60
466.60	12500.80
466.78	12058.44
466.96	12154.40
467.14	12196.53
467.32	12451.65
467.51	12386.12
467.69	12119.29
467.87	12306.54
468.05	12503.14
468.23	12451.65
468.41	12566.34
468.60	12716.13
468.78	12678.68
468.96	12451.65
469.14	12655.28
469.32	12922.10
469.50	12566.34
469.69	12842.52
469.87	13132.75
470.05	13006.36
470.23	13050.83
470.41	13036.78
470.59	13429.99
470.77	12994.65
470.95	13163.17
471.14	13331.69
471.32	13130.41
471.50	13617.24
471.68	13673.41
471.86	13865.33
472.04	13657.03
472.22	13909.80
472.40	13776.39
472.58	13699.16
472.77	13743.63
472.95	14195.35
473.13	14553.45
473.31	13724.90
473.49	14185.99
473.67	14038.53
473.85	14373.23
474.03	14366.21
474.21	14534.73
474.39	14298.33
474.57	14721.97
474.75	14839.00
474.93	14927.94
475.12	14822.61
475.30	14930.28
475.48	15178.37
475.66	15143.27
475.84	15363.28
476.02	15342.21
476.20	15367.96
476.38	15899.26
476.56	15885.22
476.74	15899.26
476.92	15697.97
477.10	15971.82
477.28	15934.37
477.46	16086.50
477.64	16248.00
477.82	16629.51
478.00	16847.18
478.18	16652.91
478.36	16840.15
478.54	16730.15
478.72	16971.22
478.90	17291.88
479.08	17825.52
479.26	17736.58
479.44	17458.06
479.62	17949.57
479.80	17972.97
479.98	17900.42
480.16	18443.42
480.34	18178.94
480.52	18731.31
480.70	18618.96
480.88	18352.14
481.06	18581.51
481.24	18794.50
481.41	19094.09
481.59	19463.90
481.77	19391.34
481.95	19363.25
482.13	19688.59
482.31	19463.90
482.49	19929.66
482.67	20119.24
482.85	20177.76
483.03	20519.48
483.21	20898.64
483.39	20613.10
483.57	20954.82
483.74	21027.37
483.92	21074.18
484.10	20971.20
484.28	21647.61
484.46	21813.79
484.64	21900.39
484.82	21687.40
485.00	22174.24
485.18	22644.68
485.35	22794.48
485.53	22679.79
485.71	22972.36
485.89	23175.98
486.07	23175.98
486.25	23241.52
486.43	23501.32
486.61	23730.69
486.78	23974.11
486.96	24105.18
487.14	24173.05
487.32	24411.79
487.50	24615.41
487.68	24999.26
487.85	25125.65
488.03	25359.70
488.21	25635.89
488.39	25654.61
488.57	25734.19
488.75	26010.37
488.92	26040.80
489.10	26459.76
489.28	26560.40
489.46	27236.81
489.64	27016.80
489.81	27653.43
489.99	27686.20
490.17	27613.64
490.35	27838.33
490.53	27885.14
490.70	28407.08
490.88	27962.38
491.06	28261.97
491.24	28479.64
491.41	29333.93
491.59	28966.47
491.77	29696.72
491.95	29656.93
492.13	29820.77
492.30	29724.80
492.48	29544.58
492.66	30223.34
492.84	29933.11
493.01	30616.55
493.19	30565.06
493.37	31105.72
493.54	30946.56
493.72	31325.73
493.90	30920.82
494.08	31550.42
494.25	32238.54
494.43	31697.88
494.61	32163.64
494.79	32184.71
494.96	32439.82
495.14	32706.65
495.32	32933.68
495.49	33076.45
495.67	33125.60
495.85	33518.81
496.02	33186.46
496.20	33998.62
496.38	34223.31
496.55	34015.01
496.73	34658.65
496.91	34440.98
497.09	34845.90
497.26	34965.26
497.44	34719.51
497.62	34981.65
497.79	35730.62
497.97	35330.39
498.14	35470.82
498.32	35908.50
498.50	35903.82
498.67	36697.26
498.85	36236.17
499.03	36484.27
499.20	36488.95
499.38	37226.22
499.56	36842.37
499.73	36854.08
499.91	37095.15
500.08	37373.67
500.26	37376.01
500.44	37364.31
500.61	37783.27
500.79	37771.57
500.97	37663.90
501.14	38562.67
501.32	38452.66
501.49	38600.12
501.67	38611.82
501.84	38609.48
502.02	38766.29
502.20	38733.53
502.37	38885.66
502.55	39136.10
502.72	39398.24
502.90	39208.65
503.07	39789.11
503.25	39669.74
503.43	39817.19
503.60	39548.03
503.78	39852.30
503.95	39903.79
504.13	40575.53
504.30	40898.52
504.48	40458.50
504.65	40374.24
504.83	41013.21
505.01	41172.36
505.18	41254.28
505.36	41364.29
505.53	40795.54
505.71	41209.81
505.88	41642.81
506.06	41289.39
506.23	41926.02
506.41	41961.12
506.58	41696.64
506.76	42176.45
506.93	42136.66
507.11	42307.52
507.28	42433.91
507.46	42724.14
507.63	42981.60
507.81	43000.32
507.98	42684.35
508.16	42749.88
508.33	43168.84
508.50	43243.74
508.68	43203.95
508.85	44067.61
509.03	43585.46
509.20	43555.03
509.38	44268.89
509.55	44383.58
509.73	43910.79
509.90	44638.70
510.08	44196.34
510.25	44341.45
510.42	44348.47
510.60	44439.75
510.77	45071.70
510.95	45275.32
511.12	45193.40
511.30	45139.57
511.47	45294.05
511.64	45287.03
511.82	45804.28
511.99	45738.75
512.17	45888.54
512.34	45659.17
512.51	46181.11
512.69	46586.02
512.86	45883.86
513.04	46813.05
513.21	46143.66
513.38	46815.40
513.56	46539.21
513.73	46501.76
513.90	47122.01
514.08	46951.15
514.25	46925.40
514.43	47351.38
514.60	47269.46
514.77	47222.65
514.95	47590.11
515.12	47224.99
515.29	47437.98
515.47	47910.77
515.64	47969.28
515.81	48009.07
515.99	47976.30
516.16	48507.60
516.33	48292.27
516.51	48514.62
516.68	48067.58
516.85	48521.65
517.03	48486.54
517.20	48933.58
517.37	48362.49
517.54	48786.13
517.72	48854.00
517.89	48692.50
518.06	48917.20
518.24	49151.25
518.41	49057.63
518.58	49162.95
518.75	49102.10
518.93	49605.31
519.10	49223.81
519.27	49401.69
519.45	49427.43
519.62	49673.19
519.79	49708.30
519.96	49731.70
520.14	49600.63
520.31	49937.67
520.48	50274.71
520.65	50382.37
520.83	50251.30
521.00	50775.58
521.17	50422.16
521.34	50766.22
521.52	50787.28
521.69	50244.28
521.86	50784.94
522.03	50719.41
522.20	51192.20
522.38	50906.65
522.55	50944.10
522.72	51077.51
522.89	51033.04
523.07	51583.07
523.24	51222.62
523.41	51917.76
523.58	51227.31
523.75	51763.29
523.92	51807.76
524.10	51901.38
524.27	52032.45
524.44	51987.98
524.61	52041.81
524.78	52088.62
524.96	52102.67
525.13	52097.98
525.30	52224.37
525.47	52395.23
525.64	52133.09
525.81	52626.95
525.98	52514.60
526.16	52507.58
526.33	52486.51
526.50	52783.76
526.67	52739.29
526.84	52488.85
527.01	52912.49
527.18	52849.30
527.36	52999.09
527.53	52959.30
527.70	53183.99
527.87	53099.73
528.04	53048.24
528.21	53408.68
528.38	53165.27
528.55	53153.57
528.72	53254.21
528.89	53193.36
529.07	53294.00
529.24	53221.44
529.41	53703.59
529.58	53605.29
529.75	53638.06
529.92	53654.44
530.09	53609.97
530.26	53666.14
530.43	53923.60
530.60	53670.82
530.77	53937.65
530.94	53909.56
531.11	53907.22
531.28	53965.73
531.46	53914.24
531.63	53961.05
531.80	53977.43
531.97	54197.44
532.14	54309.79
532.31	54340.22
532.48	54302.77
532.65	54480.65
532.82	54199.79
532.99	54506.40
533.16	54616.40
533.33	54600.02
533.50	54845.77
533.67	54672.57
533.84	54611.72
534.01	54543.84
534.18	54747.47
534.35	55309.20
534.52	55070.46
534.69	54960.46
534.86	55276.43
535.03	55040.04
535.20	55082.17
535.37	55150.04
535.54	55208.56
535.71	55124.30
535.88	55388.78
536.05	55405.16
536.22	55655.60
536.38	55622.83
536.55	55395.80
536.72	55646.24
536.89	55629.85
537.06	55412.18
537.23	55538.57
537.40	55587.72
537.57	55461.33
537.74	55697.73
537.91	55805.39
538.08	56100.30
538.25	55561.98
538.42	55725.81
538.59	56184.56
538.75	55896.67
538.92	55695.39
539.09	56027.74
539.26	55994.98
539.43	56168.18
539.60	56088.60
539.77	56182.22
539.94	56507.55
540.11	56156.47
540.28	56460.74
540.44	56240.73
540.61	56322.65
540.78	56287.54
540.95	56336.69
541.12	55887.31
541.29	56360.10
541.46	56423.29
541.62	56575.43
541.79	56346.06
541.96	56107.32
542.13	56612.88
542.30	56549.68
542.47	56598.83
542.63	56734.59
542.80	56853.95
542.97	57066.94
543.14	57193.33
543.31	57043.54
543.48	57029.49
543.64	57574.84
543.81	57158.22
543.98	57193.33
544.15	56985.02
544.32	57357.17
544.48	57415.68
544.65	57347.81
544.82	57453.13
544.99	57207.37
545.16	57354.83
545.32	57293.97
545.49	57642.71
545.66	57581.86
545.83	57464.83
546.00	57647.39
546.16	57565.48
546.33	57382.91
546.50	57495.26
546.67	57565.48
546.83	57506.96
547.00	57619.31
547.17	57429.72
547.34	57535.05
547.50	57752.72
547.67	57975.07
547.84	57954.00
548.00	58064.01
548.17	58066.35
548.34	57801.87
548.51	58225.51
548.67	58110.82
548.84	57951.66
549.01	57851.02
549.18	57839.32
549.34	58190.40
549.51	58122.52
549.68	58333.17
549.84	58225.51
550.01	58454.88
550.18	58143.59
550.34	58281.68
550.51	58504.03
550.68	58368.28
550.84	58026.56
551.01	58389.34
551.18	58543.82
551.34	58450.20
551.51	58567.23
551.68	58562.54
551.84	58412.75
552.01	58387.00
552.18	58478.28
552.34	58300.40
552.51	58649.14
552.68	58475.94
552.84	58529.78
553.01	58578.93
553.18	58497.01
553.34	58812.98
553.51	58466.58
553.67	58801.28
553.84	58820.00
554.01	58747.45
554.17	58838.73
554.34	58843.41
554.51	58738.08
554.67	58843.41
554.84	58934.69
555.00	59030.65
555.17	59040.01
555.33	58946.39
555.50	58803.62
555.67	59068.10
555.83	59068.10
556.00	59035.33
556.16	59278.75
556.33	59082.14
556.50	59199.17
556.66	59262.36
556.83	58997.88
556.99	59491.74
557.16	59374.71
557.32	59365.35
557.49	59618.13
557.65	59201.51
557.82	59217.89
557.98	59299.81
558.15	59344.28
558.32	59498.76
558.48	59475.35
558.65	59540.89
558.81	59463.65
558.98	59334.92
559.14	59353.65
559.31	59547.91
559.47	59643.87
559.64	59540.89
559.80	59590.04
559.97	59568.97
560.13	59695.36
560.30	59611.10
560.46	59618.13
560.63	59597.06
560.79	59620.47
560.96	59817.07
561.12	59650.89
561.29	59597.06
561.45	59756.22
561.61	59716.43
561.78	59767.92
561.94	59920.05
562.11	59826.43
562.27	59814.73
562.44	59901.33
562.60	59739.83
562.77	59922.40
562.93	59716.43
563.10	59840.48
563.26	59650.89
563.42	60027.72
563.59	59863.88
563.75	59873.24
563.92	59868.56
564.08	59655.57
564.24	60074.53
564.41	60236.03
564.57	60200.92
564.74	60001.97
564.90	60081.55
565.07	60147.09
565.23	59929.42
565.39	60083.89
565.56	60238.37
565.72	60027.72
565.88	60055.81
566.05	60001.97
566.21	60004.31
566.38	60196.24
566.54	60046.44
566.70	60275.82
566.87	60135.38
567.03	60051.12
567.19	60360.08
567.36	60430.29
567.52	60247.73
567.68	60498.17
567.85	60261.77
568.01	60285.18
568.17	60264.11
568.34	60420.93
568.50	60299.22
568.66	60177.51
568.83	60360.08
568.99	60135.38
569.15	60191.56
569.32	60397.52
569.48	60243.05
569.64	60392.84
569.81	60456.04
569.97	60179.85
570.13	60399.86
570.30	60236.03
570.46	60425.61
570.62	60528.59
570.78	60189.22
570.95	60327.31
571.11	60427.95
571.27	60626.90
571.43	60519.23
571.60	60535.62
571.76	60376.46
571.92	60498.17
572.09	60498.17
572.25	60552.00
572.41	60509.87
572.57	60467.74
572.74	60767.33
572.90	60327.31
573.06	60481.78
573.22	60514.55
573.38	60399.86
573.55	60687.75
573.71	60722.86
573.87	60566.04
574.03	60463.06
574.20	60629.24
574.36	60533.28
574.52	60645.62
574.68	60734.56
574.84	60596.47
575.01	60662.00
575.17	60453.70
575.33	60566.04
575.49	60420.93
575.65	60683.07
575.82	60591.79
575.98	60832.86
576.14	60870.31
576.30	60790.73
576.46	60704.13
576.62	60645.62
576.79	60544.98
576.95	60645.62
577.11	60650.30
577.27	60839.89
577.43	60776.69
577.59	60760.31
577.75	60676.05
577.92	60537.96
578.08	60729.88
578.24	60640.94
578.40	60830.52
578.56	60917.12
578.72	60793.07
578.88	60921.80
579.04	61085.64
579.21	60617.53
579.37	60917.12
579.53	60842.23
579.69	60727.54
579.85	60608.17
580.01	60837.54
580.17	60793.07
580.33	60680.73
580.49	60786.05
580.65	60924.14
580.82	60678.39
580.98	60732.22
581.14	60636.26
581.30	60914.78
581.46	60772.01
581.62	60879.67
581.78	60652.64
581.94	60729.88
582.10	60912.44
582.26	60870.31
582.42	60786.05
582.58	60879.67
582.74	60849.25
582.90	60816.48
583.06	60919.46
583.22	60739.24
583.38	60800.10
583.54	60790.73
583.70	60910.10
583.86	60910.10
584.02	60938.19
584.18	60963.93
584.34	60912.44
584.50	60877.33
584.66	60673.71
584.82	60692.43
584.98	61003.72
585.14	60928.83
585.30	60837.54
585.46	60830.52
585.62	60872.65
585.78	60893.72
585.94	60959.25
586.10	61066.92
586.26	60889.04
586.42	60980.32
586.58	61006.06
586.74	60921.80
586.90	60910.10
587.06	60996.70
587.22	60917.12
587.38	60783.71
587.54	61099.68
587.70	61221.39
587.86	61085.64
588.02	60966.27
588.18	61092.66
588.34	60846.91
588.49	60917.12
