SpectraSuite Data File
++++++++++++++++++++++++++++++++++++
Date: Fri Oct 25 10:47:07 EDT 2013
User: price-jones
Dark Spectrum Present: No
Reference Spectrum Present: No
Number of Sampled Component Spectra: 1
Spectrometers: USB2+H05261
Integration Time (usec): 100000 (USB2+H05261)
Spectra Averaged: 1 (USB2+H05261)
Boxcar Smoothing: 0 (USB2+H05261)
Correct for Electrical Dark: No (USB2+H05261)
Strobe/Lamp Enabled: No (USB2+H05261)
Correct for Detector Non-linearity: No (USB2+H05261)
Correct for Stray Light: No (USB2+H05261)
Number of Pixels in Processed Spectrum: 2048
>>>>>Begin Processed Spectral Data<<<<<
365.73	138.09
365.92	138.09
366.12	138.09
366.32	14.04
366.52	46.81
366.72	79.58
366.91	23.41
367.11	16.38
367.31	0.00
367.51	110.01
367.70	0.00
367.90	105.32
368.10	39.79
368.30	16.38
368.49	32.77
368.69	0.00
368.89	9.36
369.09	44.47
369.28	135.75
369.48	74.90
369.68	161.50
369.87	0.00
370.07	72.56
370.27	140.43
370.47	173.20
370.66	344.06
370.86	353.42
371.06	505.56
371.25	498.53
371.45	435.34
371.65	425.98
371.84	449.38
372.04	493.85
372.24	519.60
372.44	472.79
372.63	444.70
372.83	547.69
373.03	475.13
373.22	454.06
373.42	463.43
373.62	566.41
373.81	594.50
374.01	596.84
374.21	571.09
374.40	533.64
374.60	566.41
374.79	554.71
374.99	538.32
375.19	540.66
375.38	535.98
375.58	489.17
375.78	507.90
375.97	512.58
376.17	634.29
376.37	559.39
376.56	613.22
376.76	557.05
376.95	592.16
377.15	669.39
377.35	589.82
377.54	620.24
377.74	510.24
377.93	667.05
378.13	566.41
378.33	706.84
378.52	531.30
378.72	608.54
378.91	662.37
379.11	575.77
379.31	671.73
379.50	589.82
379.70	653.01
379.89	718.54
380.09	596.84
380.28	629.60
380.48	608.54
380.68	629.60
380.87	641.31
381.07	594.50
381.26	636.63
381.46	634.29
381.65	681.10
381.85	748.97
382.04	697.48
382.24	671.73
382.43	690.46
382.63	606.20
382.83	622.58
383.02	662.37
383.22	718.54
383.41	718.54
383.61	748.97
383.80	655.35
384.00	821.53
384.19	819.19
384.39	692.80
384.58	812.17
384.78	711.52
384.97	692.80
385.17	695.14
385.36	758.33
385.56	763.01
385.75	734.93
385.95	779.40
386.14	774.72
386.34	812.17
386.53	781.74
386.72	730.25
386.92	830.89
387.11	770.04
387.31	816.85
387.50	751.31
387.70	755.99
387.89	882.38
388.09	889.40
388.28	781.74
388.48	823.87
388.67	854.30
388.86	830.89
389.06	936.21
389.25	947.92
389.45	823.87
389.64	915.15
389.84	945.58
390.03	875.36
390.22	957.28
390.42	844.93
390.61	933.87
390.81	873.02
391.00	926.85
391.19	1001.75
391.39	990.05
391.58	936.21
391.78	990.05
391.97	971.32
392.16	870.68
392.36	1025.15
392.55	924.51
392.75	940.90
392.94	971.32
393.13	936.21
393.33	882.38
393.52	985.37
393.71	1102.39
393.91	1057.92
394.10	992.39
394.29	1107.07
394.49	1083.67
394.68	1081.33
394.88	1118.78
395.07	1191.33
395.26	1081.33
395.46	1076.65
395.65	1170.27
395.84	1238.14
396.04	1200.69
396.23	1198.35
396.42	1170.27
396.62	1151.54
396.81	1144.52
397.00	1188.99
397.19	1151.54
397.39	1217.08
397.58	1301.34
397.77	1310.70
397.97	1341.13
398.16	1291.98
398.35	1291.98
398.55	1310.70
398.74	1280.27
398.93	1362.19
399.12	1277.93
399.32	1411.34
399.51	1392.62
399.70	1376.24
399.90	1439.43
400.09	1392.62
400.28	1441.77
400.47	1369.21
400.67	1425.39
400.86	1444.11
401.05	1467.52
401.24	1411.34
401.44	1380.92
401.63	1469.86
401.82	1460.49
402.01	1495.60
402.21	1509.65
402.40	1551.78
402.59	1488.58
402.78	1432.41
402.97	1596.25
403.17	1631.35
403.36	1476.88
403.55	1614.97
403.74	1617.31
403.93	1596.25
404.13	1668.80
404.32	1629.01
404.51	1589.22
404.70	1708.59
404.89	1713.27
405.09	1682.85
405.28	1750.72
405.47	1673.48
405.66	1692.21
405.85	1654.76
406.05	1757.74
406.24	1771.79
406.43	1839.66
406.62	1729.66
406.81	1902.86
407.00	1750.72
407.20	1774.13
407.39	1891.15
407.58	1891.15
407.77	1853.70
407.96	1942.64
408.15	1928.60
408.34	1926.26
408.54	2003.50
408.73	2054.99
408.92	1996.48
409.11	2064.35
409.30	2024.56
409.49	2012.86
409.68	1989.46
409.87	2003.50
410.07	2022.22
410.26	2054.99
410.45	2129.89
410.64	2040.95
410.83	2169.68
411.02	2087.76
411.21	2335.85
411.40	2157.97
411.59	2207.13
411.78	2263.30
411.98	2270.32
412.17	2251.60
412.36	2389.69
412.55	2420.11
412.74	2457.56
412.93	2492.67
413.12	2347.56
413.31	2415.43
413.50	2389.69
413.69	2436.50
413.88	2532.46
414.07	2462.24
414.26	2602.68
414.45	2551.18
414.64	2516.08
414.83	2642.46
415.02	2649.49
415.22	2612.04
415.41	2724.38
415.60	2803.96
415.79	2698.64
415.98	2869.50
416.17	2799.28
416.36	2733.75
416.55	2780.56
416.74	2715.02
416.93	2871.84
417.12	2928.01
417.31	2928.01
417.50	2890.56
417.69	3035.67
417.88	3077.80
418.07	3007.59
418.26	2991.20
418.45	3173.77
418.64	3248.66
418.83	3215.90
419.02	3089.51
419.21	3068.44
419.39	3190.15
419.58	2935.03
419.77	3234.62
419.96	3180.79
420.15	3187.81
420.34	3183.13
420.53	3286.11
420.72	3407.82
420.91	3386.76
421.10	3251.00
421.29	3428.88
421.48	3323.56
421.67	3351.65
421.86	3311.86
422.05	3346.97
422.24	3400.80
422.43	3370.37
422.61	3384.41
422.80	3440.59
422.99	3485.06
423.18	3463.99
423.37	3597.40
423.56	3398.46
423.75	3454.63
423.94	3438.25
424.13	3396.12
424.32	3379.73
424.50	3597.40
424.69	3630.17
424.88	3473.36
425.07	3506.12
425.26	3503.78
425.45	3517.83
425.64	3639.53
425.83	3492.08
426.01	3524.85
426.20	3595.06
426.39	3616.13
426.58	3515.48
426.77	3555.27
426.96	3396.12
427.15	3583.36
427.33	3592.72
427.52	3627.83
427.71	3747.20
427.90	3660.60
428.09	3712.09
428.28	3665.28
428.46	3478.04
428.65	3719.11
428.84	3777.62
429.03	3796.35
429.22	3702.73
429.40	3852.52
429.59	3840.82
429.78	3623.15
429.97	3599.74
430.16	3679.32
430.34	3836.14
430.53	3889.97
430.72	3852.52
430.91	3777.62
431.10	3915.72
431.28	3922.74
431.47	4114.66
431.66	4109.98
431.85	4079.55
432.03	4191.90
432.22	4107.64
432.41	4107.64
432.60	4133.39
432.79	4021.04
432.97	4262.12
433.16	4201.26
433.35	4177.86
433.54	4341.69
433.72	4327.65
433.91	4238.71
434.10	4341.69
434.28	4234.03
434.47	4264.46
434.66	4414.25
434.85	4435.32
435.03	4390.84
435.22	4409.57
435.41	4610.86
435.59	4578.09
435.78	4542.98
435.97	4578.09
436.16	4454.04
436.34	4578.09
436.53	4648.30
436.72	4648.30
436.90	4615.54
437.09	4643.62
437.28	4519.57
437.46	4774.69
437.65	4601.49
437.84	4741.93
438.02	4699.80
438.21	4664.69
438.40	4533.62
438.58	4755.97
438.77	4882.36
438.96	4816.82
439.14	4887.04
439.33	5015.77
439.52	4929.17
439.70	4903.42
439.89	4940.87
440.08	5301.31
440.26	5095.35
440.45	4980.66
440.63	5240.46
440.82	5341.10
441.01	5322.38
441.19	5359.83
441.38	5373.87
441.57	5413.66
441.75	5453.45
441.94	5516.64
442.12	5432.38
442.31	5652.39
442.50	5575.16
442.68	5453.45
442.87	5549.41
443.05	5778.78
443.24	5579.84
443.43	5762.40
443.61	5621.97
443.80	5783.46
443.98	5568.13
444.17	5528.35
444.35	5708.57
444.54	5867.72
444.73	5724.95
444.91	5755.38
445.10	5818.57
445.28	5729.63
445.47	5600.90
445.65	5654.73
445.84	5811.55
446.02	5888.79
446.21	5781.12
446.39	5685.16
446.58	5797.51
446.77	5916.87
446.95	5802.19
447.14	5827.93
447.32	5940.28
447.51	6071.35
447.69	5872.40
447.88	5760.06
448.06	6005.81
448.25	5767.08
448.43	6010.50
448.62	6101.78
448.80	5846.66
448.99	6054.97
449.17	6169.65
449.36	6019.86
449.54	6256.25
449.73	6216.46
449.91	6237.53
450.10	6195.40
450.28	6408.39
450.46	6356.90
450.65	6300.72
450.83	6415.41
451.02	6237.53
451.20	6541.80
451.39	6251.57
451.57	6342.85
451.76	6335.83
451.94	6321.79
452.13	6272.64
452.31	6523.07
452.49	6331.15
452.68	6649.46
452.86	6459.88
453.05	6406.05
453.23	6633.08
453.42	6448.18
453.60	6523.07
453.78	6581.59
453.97	6443.49
454.15	6457.54
454.34	6513.71
454.52	6635.42
454.70	6754.79
454.89	6775.85
455.07	6799.26
455.26	6780.53
455.44	6867.13
455.62	6869.47
455.81	6803.94
455.99	6803.94
456.17	6888.20
456.36	6813.30
456.54	6986.50
456.73	7248.64
456.91	7115.23
457.09	7281.41
457.28	7171.40
457.46	7077.78
457.64	7368.01
457.83	7192.47
458.01	7157.36
458.19	7325.88
458.38	7166.72
458.56	7246.30
458.74	7290.77
458.93	7396.09
459.11	7342.26
459.29	7321.20
459.48	7405.46
459.66	7435.88
459.84	7447.58
460.03	7557.59
460.21	7513.12
460.39	7517.80
460.57	7552.91
460.76	7726.11
460.94	7609.08
461.12	7695.68
461.31	7911.01
461.49	7866.54
461.67	7723.77
461.85	7765.90
462.04	7779.94
462.22	8292.52
462.40	7885.26
462.59	7915.69
462.77	7901.65
462.95	7950.80
463.13	8152.09
463.32	8063.15
463.50	8018.68
463.68	7920.37
463.86	8025.70
464.05	7892.29
464.23	7962.50
464.41	8060.80
464.59	8030.38
464.78	8198.90
464.96	8093.57
465.14	8088.89
465.32	8224.64
465.50	8285.50
465.69	8432.95
465.87	8187.19
466.05	8297.20
466.23	8224.64
466.41	8430.61
466.60	8428.27
466.78	8138.04
466.96	8355.71
467.14	8234.00
467.32	8379.12
467.51	8454.02
467.69	8236.35
467.87	8514.87
468.05	8636.58
468.23	8571.04
468.41	8615.51
468.60	8388.48
468.78	8746.58
468.96	8688.07
469.14	8667.00
469.32	8709.13
469.50	8465.72
469.69	8823.82
469.87	8784.03
470.05	8945.53
470.23	8872.97
470.41	8926.80
470.59	8910.42
470.77	8812.12
470.95	9018.08
471.14	8868.29
471.32	9092.98
471.50	9181.92
471.68	9160.86
471.86	9392.57
472.04	9210.01
472.22	9486.19
472.40	9273.20
472.58	9355.12
472.77	9312.99
472.95	9399.59
473.13	9781.10
473.31	9626.62
473.49	9439.38
473.67	9481.51
473.85	9584.49
474.03	9673.43
474.21	9844.29
474.39	9865.36
474.57	10054.94
474.75	9956.64
474.93	10120.48
475.12	10029.20
475.30	10232.82
475.48	10111.11
475.66	10260.91
475.84	10080.69
476.02	10324.10
476.20	10246.87
476.38	10506.66
476.56	10750.08
476.74	10635.39
476.92	10593.26
477.10	10642.42
477.28	10815.62
477.46	10895.19
477.64	10862.43
477.82	11012.22
478.00	11183.08
478.18	11339.90
478.36	11459.26
478.54	11503.73
478.72	11524.80
478.90	11761.19
479.08	11808.00
479.26	11922.69
479.44	11796.30
479.62	11925.03
479.80	11770.55
479.98	12016.31
480.16	12241.00
480.34	12346.33
480.52	12116.95
480.70	12549.95
480.88	12231.64
481.06	12374.41
481.24	12575.70
481.41	12599.10
481.59	13057.85
481.77	12968.91
481.95	12973.59
482.13	13261.48
482.31	13069.55
482.49	13614.90
482.67	13514.25
482.85	13551.70
483.03	13434.68
483.21	13460.42
483.39	13860.65
483.57	13734.26
483.74	13942.57
483.92	14167.26
484.10	14115.77
484.28	13954.27
484.46	14459.83
484.64	14618.99
484.82	14462.17
485.00	14714.95
485.18	14953.68
485.35	14902.19
485.53	15002.83
485.71	14834.32
485.89	15166.67
486.07	15173.69
486.25	15295.40
486.43	15234.55
486.61	15737.76
486.78	15840.75
486.96	15695.63
487.14	16353.32
487.32	16198.85
487.50	16388.43
487.68	16425.88
487.85	16851.86
488.03	16847.18
488.21	16828.45
488.39	16716.11
488.57	17186.55
488.75	17067.19
488.92	17261.45
489.10	17579.76
489.28	17668.70
489.46	17713.17
489.64	17687.43
489.81	18162.56
489.99	18317.03
490.17	18253.84
490.35	18731.31
490.53	18628.32
490.70	18595.56
490.88	18747.69
491.06	19248.57
491.24	18948.98
491.41	18972.38
491.59	18979.40
491.77	19161.97
491.95	19737.74
492.13	19480.28
492.30	19810.29
492.48	19796.25
492.66	19688.59
492.84	19620.71
493.01	20198.82
493.19	20006.90
493.37	20243.29
493.54	20456.28
493.72	20795.66
493.90	20676.29
494.08	20655.23
494.25	21106.95
494.43	21088.23
494.61	21188.87
494.79	21277.81
494.96	21043.76
495.14	21149.08
495.32	21556.33
495.49	21743.58
495.67	21778.68
495.85	21898.05
496.02	22029.12
496.20	21886.35
496.38	22377.86
496.55	22335.73
496.73	22799.16
496.91	22410.63
497.09	22635.32
497.26	23119.81
497.44	23023.85
497.62	23147.90
497.79	23410.04
497.97	23318.76
498.14	23147.90
498.32	23194.71
498.50	23576.22
498.67	23700.26
498.85	23562.17
499.03	23866.44
499.20	24041.98
499.38	24053.69
499.56	24009.22
499.73	24250.29
499.91	24528.81
500.08	24577.97
500.26	24283.06
500.44	24135.60
500.61	24599.03
500.79	24372.00
500.97	24837.76
501.14	25221.61
501.32	24865.85
501.49	25006.28
501.67	24964.15
501.84	25287.15
502.02	25261.40
502.20	25624.18
502.37	25544.61
502.55	25701.42
502.72	25668.66
502.90	25593.76
503.07	25628.87
503.25	25886.32
503.43	26003.35
503.60	26202.30
503.78	25968.24
503.95	26019.74
504.13	26106.34
504.30	26178.89
504.48	26132.08
504.65	26616.57
504.83	26843.60
505.01	26944.25
505.18	26958.29
505.36	27171.28
505.53	26958.29
505.71	27143.19
505.88	27126.81
506.06	27281.28
506.23	27094.04
506.41	27178.30
506.58	27096.38
506.76	27578.53
506.93	27562.15
507.11	27632.36
507.28	27587.89
507.46	27580.87
507.63	27587.89
507.81	27786.84
507.98	27857.06
508.16	28371.97
508.33	28271.33
508.50	28332.18
508.68	28292.40
508.85	28795.61
509.03	28524.11
509.20	28397.72
509.38	28835.40
509.55	28863.49
509.73	28823.70
509.90	28760.50
510.08	28929.02
510.25	28865.83
510.42	29404.15
510.60	29120.95
510.77	29223.93
510.95	29788.00
511.12	29338.62
511.30	29769.27
511.47	29802.04
511.64	29986.94
511.82	30110.99
511.99	30061.84
512.17	30064.18
512.34	29818.42
512.51	30345.05
512.69	30141.42
512.86	30237.38
513.04	30384.83
513.21	30462.07
513.38	30417.60
513.56	30361.43
513.73	30363.77
513.90	30738.26
514.08	30569.74
514.25	31026.14
514.43	30520.59
514.60	31042.53
514.77	30560.37
514.95	31262.54
515.12	31154.87
515.29	31168.91
515.47	31480.21
515.64	31395.95
515.81	31295.30
515.99	31395.95
516.16	31744.69
516.33	31365.52
516.51	31339.77
516.68	31798.52
516.85	31108.06
517.03	31562.12
517.20	31962.36
517.37	31690.85
517.54	31892.14
517.72	32278.33
517.89	32018.53
518.06	31845.33
518.24	32119.17
518.41	32280.67
518.58	32009.17
518.75	32315.78
518.93	32973.47
519.10	32563.87
519.27	32685.58
519.45	32606.00
519.62	33039.00
519.79	33055.39
519.96	32971.13
520.14	33291.78
520.31	33273.06
520.48	33172.41
520.65	33078.79
520.83	33347.95
521.00	33457.96
521.17	33567.96
521.34	33118.58
521.52	33804.36
521.69	33347.95
521.86	33748.18
522.03	33593.71
522.20	33923.72
522.38	33916.70
522.55	33926.07
522.72	33415.83
522.89	33989.26
523.07	34611.84
523.24	33830.10
523.41	34368.43
523.58	34022.03
523.75	34574.39
523.92	34466.73
524.10	35068.25
524.27	34895.05
524.44	34909.09
524.61	34483.11
524.78	35084.63
524.96	35079.95
525.13	34845.90
525.30	35515.29
525.47	35070.59
525.64	35498.91
525.81	35365.49
525.98	35152.51
526.16	34972.28
526.33	35093.99
526.50	35842.96
526.67	35234.42
526.84	35356.13
527.01	35510.61
527.18	35395.92
527.36	35821.90
527.53	35606.57
527.70	35866.37
527.87	35847.64
528.04	35648.70
528.21	36212.77
528.38	35585.50
528.55	36411.71
528.72	35658.06
528.89	36011.48
529.07	36030.21
529.24	35997.44
529.41	36591.94
529.58	36355.54
529.75	36531.08
529.92	36404.69
530.09	36627.04
530.26	36240.86
530.43	36676.19
530.60	36503.00
530.77	36678.54
530.94	37357.29
531.11	36566.19
531.28	36603.64
531.46	36900.89
531.63	37319.84
531.80	37469.64
531.97	36779.18
532.14	37053.02
532.31	36858.76
532.48	37090.47
532.65	37261.33
532.82	37514.11
532.99	37422.83
533.16	37141.96
533.33	37223.88
533.50	37722.41
533.67	37626.45
533.84	37783.27
534.01	37757.52
534.18	37497.72
534.35	38419.89
534.52	37954.13
534.69	37921.36
534.86	37766.88
535.03	38190.52
535.20	38330.95
535.37	38164.78
535.54	38590.75
535.71	38120.31
535.88	38010.30
536.05	38148.39
536.22	38115.62
536.38	38497.13
536.55	38665.65
536.72	38459.68
536.89	38455.00
537.06	38141.37
537.23	38277.12
537.40	38270.10
537.57	38667.99
537.74	38799.06
537.91	38717.14
538.08	39072.90
538.25	38440.96
538.42	38822.47
538.59	38990.98
538.75	38738.21
538.92	39049.50
539.09	38883.32
539.26	39185.25
539.43	39187.59
539.60	39002.69
539.77	39246.10
539.94	39145.46
540.11	39309.30
540.28	38965.24
540.44	39185.25
540.61	39232.06
540.78	39056.52
540.95	39440.37
541.12	39604.20
541.29	39344.41
541.46	39321.00
541.62	39440.37
541.79	39969.33
541.96	39236.74
542.13	39948.26
542.30	39400.58
542.47	39887.41
542.63	39910.82
542.80	39611.23
542.97	40498.29
543.14	39938.90
543.31	40790.86
543.48	40273.60
543.64	40776.81
543.81	40172.96
543.98	40685.53
544.15	39688.46
544.32	40432.75
544.48	41167.68
544.65	40629.36
544.82	40919.59
544.99	40144.87
545.16	40947.67
545.32	40428.07
545.49	41202.79
545.66	40680.85
545.83	41064.70
546.00	40903.20
546.16	41038.95
546.33	40802.56
546.50	40788.52
546.67	40996.82
546.83	40692.55
547.00	40629.36
547.17	40973.42
547.34	40863.41
547.50	41078.74
547.67	41050.66
547.84	40671.49
548.00	41521.10
548.17	41493.02
548.34	41579.62
548.51	42057.09
548.67	41340.88
548.84	41085.76
549.01	41467.27
549.18	41523.44
549.34	41212.15
549.51	41579.62
549.68	42078.15
549.84	41647.49
550.01	42073.47
550.18	41607.70
550.34	41813.67
550.51	41759.84
550.68	41858.14
550.84	41785.58
551.01	41586.64
551.18	41783.24
551.34	42003.25
551.51	41940.06
551.68	41867.50
551.84	42642.22
552.01	42185.82
552.18	42211.56
552.34	41773.88
552.51	42171.77
552.68	41918.99
552.84	42227.95
553.01	42703.07
553.18	42366.04
553.34	42354.33
553.51	42232.63
553.67	42230.29
553.84	42576.69
554.01	42199.86
554.17	42616.47
554.34	42871.59
554.51	42567.32
554.67	42454.98
554.84	42838.83
555.00	42663.28
555.17	42305.18
555.33	42637.54
555.50	42506.47
555.67	42534.56
555.83	42557.96
556.00	42918.40
556.16	43250.76
556.33	43047.13
556.50	42857.55
556.66	43166.50
556.83	42649.24
556.99	43175.86
557.16	43304.59
557.32	43330.34
557.49	42997.98
557.65	42817.76
557.82	42609.45
557.98	42595.41
558.15	42955.85
558.32	42831.80
558.48	43445.02
558.65	43166.50
558.81	42920.74
558.98	43524.60
559.14	42953.51
559.31	43594.82
559.47	42829.46
559.64	43182.88
559.80	43365.45
559.97	43466.09
560.13	43164.16
560.30	43552.69
560.46	43302.25
560.63	43526.94
560.79	43615.88
560.96	43990.37
561.12	43281.19
561.29	43353.74
561.45	43124.37
561.61	43232.04
561.78	43578.43
561.94	43250.76
562.11	43536.30
562.27	43435.66
562.44	43484.81
562.60	43765.68
562.77	43959.94
562.93	43328.00
563.10	43447.36
563.26	43215.65
563.42	44093.35
563.59	43318.64
563.75	43868.66
563.92	43711.84
564.08	43665.03
564.24	43601.84
564.41	43522.26
564.57	43814.83
564.74	43976.33
564.90	44245.49
565.07	43887.39
565.23	43337.36
565.39	44065.27
565.56	44046.54
565.72	43667.37
565.88	43716.53
566.05	44048.88
566.21	43679.08
566.38	43522.26
566.54	43613.54
566.70	44175.27
566.87	44149.53
567.03	44282.94
567.19	44350.81
567.36	44044.20
567.52	43702.48
567.68	44208.04
567.85	43992.71
568.01	43826.53
568.17	44219.74
568.34	44100.37
568.50	43988.03
568.66	43943.56
568.83	43913.13
568.99	43882.70
569.15	44091.01
569.32	44055.90
569.48	43988.03
569.64	44488.90
569.81	44346.13
569.97	43817.17
570.13	43922.49
570.30	43992.71
570.46	43962.28
570.62	44250.17
570.78	43742.27
570.95	43861.64
571.11	44339.11
571.27	44266.55
571.43	43931.86
571.60	44425.71
571.76	44105.06
571.92	43882.70
572.09	44046.54
572.25	44470.18
572.41	44058.24
572.57	44444.43
572.74	44601.25
572.90	44119.10
573.06	44392.94
573.22	44098.03
573.38	43873.34
573.55	44210.38
573.71	44273.57
573.87	44528.69
574.03	43936.54
574.20	44348.47
574.36	44098.03
574.52	44257.19
574.68	44493.58
574.84	44421.03
575.01	44456.14
575.17	44149.53
575.33	44217.40
575.49	43938.88
575.65	44561.46
575.82	44493.58
575.98	44477.20
576.14	45139.57
576.30	44837.64
576.46	44196.34
576.62	44299.32
576.79	44603.59
576.95	43803.13
577.11	44589.55
577.27	44177.61
577.43	44488.90
577.59	44617.63
577.75	44055.90
577.92	44229.10
578.08	44254.85
578.24	44432.73
578.40	43903.77
578.56	44158.89
578.72	44474.86
578.88	44612.95
579.04	44594.23
579.21	44390.60
579.37	44690.19
579.53	44334.43
579.69	43999.73
579.85	44339.11
580.01	44512.31
580.17	44577.84
580.33	44437.41
580.49	44615.29
580.65	44875.09
580.82	44720.62
580.98	44659.76
581.14	43894.41
581.30	44605.93
581.46	44402.30
581.62	44605.93
581.78	44542.74
581.94	44704.23
582.10	44158.89
582.26	44739.34
582.42	44811.90
582.58	44650.40
582.74	44488.90
582.90	44547.42
583.06	44432.73
583.22	44631.68
583.38	44821.26
583.54	44662.10
583.70	44416.35
583.86	44282.94
584.02	44254.85
584.18	44292.30
584.34	44449.11
584.50	44521.67
584.66	44594.23
584.82	44528.69
584.98	44875.09
585.14	44467.84
585.30	44458.48
585.46	44245.49
585.62	44783.81
585.78	44652.74
585.94	44098.03
586.10	44414.01
586.26	44390.60
586.42	44786.15
586.58	44769.77
586.74	44720.62
586.90	44102.71
587.06	44264.21
587.22	44807.22
587.38	44205.70
587.54	44769.77
587.70	44957.01
587.86	44683.17
588.02	44603.59
588.18	44762.75
588.34	44329.75
588.49	43922.49
588.65	44182.29
588.81	43985.69
588.97	44346.13
589.13	44378.90
589.29	44779.13
589.45	44664.44
589.61	44626.99
589.77	44966.37
589.93	44814.24
590.08	44947.65
590.24	44804.88
