SpectraSuite Data File
++++++++++++++++++++++++++++++++++++
Date: Fri Oct 25 11:25:29 EDT 2013
User: price-jones
Dark Spectrum Present: No
Reference Spectrum Present: No
Number of Sampled Component Spectra: 1
Spectrometers: USB2+H05261
Integration Time (usec): 100000 (USB2+H05261)
Spectra Averaged: 1 (USB2+H05261)
Boxcar Smoothing: 0 (USB2+H05261)
Correct for Electrical Dark: No (USB2+H05261)
Strobe/Lamp Enabled: No (USB2+H05261)
Correct for Detector Non-linearity: No (USB2+H05261)
Correct for Stray Light: No (USB2+H05261)
Number of Pixels in Processed Spectrum: 2048
>>>>>Begin Processed Spectral Data<<<<<
365.73	234.05
365.92	234.05
366.12	234.05
366.32	131.07
366.52	131.07
366.72	173.20
366.91	112.35
367.11	114.69
367.31	72.56
367.51	154.48
367.70	91.28
367.90	205.97
368.10	84.26
368.30	147.45
368.49	79.58
368.69	182.56
368.89	210.65
369.09	212.99
369.28	147.45
369.48	91.28
369.68	215.33
369.87	215.33
370.07	145.11
370.27	170.86
370.47	332.36
370.66	587.47
370.86	596.84
371.06	645.99
371.25	699.82
371.45	608.54
371.65	734.93
371.84	627.26
372.04	655.35
372.24	704.50
372.44	706.84
372.63	716.20
372.83	737.27
373.03	755.99
373.22	727.91
373.42	800.46
373.62	739.61
373.81	716.20
374.01	763.01
374.21	791.10
374.40	837.91
374.60	741.95
374.79	835.57
374.99	849.61
375.19	802.80
375.38	844.93
375.58	873.02
375.78	786.42
375.97	919.83
376.17	887.06
376.37	903.45
376.56	819.19
376.76	835.57
376.95	819.19
377.15	894.08
377.35	887.06
377.54	835.57
377.74	887.06
377.93	826.21
378.13	802.80
378.33	917.49
378.52	950.26
378.72	929.19
378.91	887.06
379.11	884.72
379.31	912.81
379.50	968.98
379.70	1001.75
379.89	938.55
380.09	938.55
380.28	1078.99
380.48	997.07
380.68	1053.24
380.87	990.05
381.07	1043.88
381.26	1001.75
381.46	1029.84
381.65	1018.13
381.85	1100.05
382.04	1142.18
382.24	1013.45
382.43	1034.52
382.63	1069.62
382.83	1139.84
383.02	1221.76
383.22	1149.20
383.41	964.30
383.61	1158.57
383.80	1114.10
384.00	1111.75
384.19	1078.99
384.39	1144.52
384.58	1132.82
384.78	1181.97
384.97	1139.84
385.17	1181.97
385.36	1090.69
385.56	1069.62
385.75	1167.93
385.95	1135.16
386.14	1261.55
386.34	1240.48
386.53	1242.82
386.72	1249.85
386.92	1167.93
387.11	1224.10
387.31	1266.23
387.50	1151.54
387.70	1224.10
387.89	1301.34
388.09	1289.64
388.28	1287.29
388.48	1240.48
388.67	1249.85
388.86	1277.93
389.06	1336.45
389.25	1376.24
389.45	1357.51
389.64	1277.93
389.84	1371.55
390.03	1376.24
390.22	1275.59
390.42	1390.28
390.61	1432.41
390.81	1390.28
391.00	1345.81
391.19	1434.75
391.39	1401.98
391.58	1439.43
391.78	1409.00
391.97	1418.36
392.16	1465.18
392.36	1514.33
392.55	1530.71
392.75	1521.35
392.94	1537.73
393.13	1486.24
393.33	1521.35
393.52	1624.33
393.71	1626.67
393.91	1643.06
394.10	1647.74
394.29	1584.54
394.49	1493.26
394.68	1619.65
394.88	1589.22
395.07	1687.53
395.26	1650.08
395.46	1713.27
395.65	1661.78
395.84	1743.70
396.04	1778.81
396.23	1722.63
396.42	1736.68
396.62	1732.00
396.81	1771.79
397.00	1778.81
397.19	1806.89
397.39	1743.70
397.58	1778.81
397.77	1743.70
397.97	1839.66
398.16	1881.79
398.35	1928.60
398.55	1853.70
398.74	1863.07
398.93	1942.64
399.12	1891.15
399.32	1870.09
399.51	2001.16
399.70	1975.41
399.90	1898.17
400.09	2064.35
400.28	1930.94
400.47	2005.84
400.67	2097.12
400.86	2120.53
401.05	2064.35
401.24	2026.90
401.44	2120.53
401.63	2223.51
401.82	2092.44
402.01	2052.65
402.21	2139.25
402.40	2155.63
402.59	2153.29
402.78	2165.00
402.97	2087.76
403.17	2190.74
403.36	2223.51
403.55	2321.81
403.74	2375.64
403.93	2277.34
404.13	2338.20
404.32	2431.82
404.51	2312.45
404.70	2462.24
404.89	2340.54
405.09	2413.09
405.28	2448.20
405.47	2359.26
405.66	2513.74
405.85	2509.05
406.05	2534.80
406.24	2490.33
406.43	2541.82
406.62	2686.94
406.81	2663.53
407.00	2593.31
407.20	2539.48
407.39	2576.93
407.58	2708.00
407.77	2593.31
407.96	2682.25
408.15	2729.06
408.34	2626.08
408.54	2754.81
408.73	2853.11
408.92	2799.28
409.11	2888.22
409.30	2944.39
409.49	2857.79
409.68	2846.09
409.87	3002.91
410.07	2890.56
410.26	3068.44
410.45	2822.69
410.64	2986.52
410.83	3119.93
411.02	3166.74
411.21	3197.17
411.40	3173.77
411.59	3157.38
411.78	3159.72
411.98	3206.53
412.17	3197.17
412.36	3260.37
412.55	3358.67
412.74	3281.43
412.93	3414.84
413.12	3361.01
413.31	3466.33
413.50	3342.28
413.69	3618.47
413.88	3508.46
414.07	3611.45
414.26	3583.36
414.45	3728.47
414.64	3538.89
414.83	3904.01
415.02	3728.47
415.22	3765.92
415.41	3887.63
415.60	3899.33
415.79	3908.69
415.98	3871.25
416.17	3892.31
416.36	3822.09
416.55	3925.08
416.74	4098.28
416.93	3859.54
417.12	4009.34
417.31	4067.85
417.50	4301.90
417.69	4278.50
417.88	4245.73
418.07	4360.42
418.26	4278.50
418.45	4379.14
418.64	4475.10
418.83	4510.21
419.02	4329.99
419.21	4430.63
419.39	4346.37
419.58	4458.72
419.77	4175.52
419.96	4435.32
420.15	4655.33
420.34	4685.75
420.53	4552.34
420.72	4650.64
420.91	4650.64
421.10	4765.33
421.29	4559.36
421.48	4615.54
421.67	4816.82
421.86	4770.01
422.05	4863.63
422.24	4770.01
422.43	4833.21
422.61	4898.74
422.80	5029.81
422.99	4922.15
423.18	4933.85
423.37	5064.92
423.56	4777.03
423.75	4905.76
423.94	4875.34
424.13	4727.88
424.32	4713.84
424.50	4844.91
424.69	5041.51
424.88	5013.43
425.07	4880.02
425.26	4830.87
425.45	5093.01
425.64	4966.62
425.83	5055.56
426.01	5107.05
426.20	4987.68
426.39	5172.58
426.58	5060.24
426.77	5020.45
426.96	5095.35
427.15	5046.20
427.33	5172.58
427.52	5226.42
427.71	5135.14
427.90	5097.69
428.09	5160.88
428.28	5195.99
428.46	5320.04
428.65	5280.25
428.84	5561.11
429.03	5387.91
429.22	5336.42
429.40	5266.21
429.59	5448.77
429.78	5156.20
429.97	5165.56
430.16	5432.38
430.34	5523.66
430.53	5607.92
430.72	5647.71
430.91	5572.82
431.10	5666.44
431.28	5900.49
431.47	5731.97
431.66	5762.40
431.85	5673.46
432.03	5771.76
432.22	6003.47
432.41	5879.43
432.60	5900.49
432.79	5933.26
432.97	6083.05
433.16	6010.50
433.35	5909.85
433.54	6045.60
433.72	6153.27
433.91	5991.77
434.10	6115.82
434.28	5963.68
434.47	6249.23
434.66	6108.80
434.85	6282.00
435.03	6225.82
435.22	6274.98
435.41	6438.81
435.59	6235.19
435.78	6506.69
435.97	6450.52
436.16	6340.51
436.34	6579.25
436.53	6314.77
436.72	6579.25
436.90	6626.06
437.09	6841.39
437.28	6431.79
437.46	6518.39
437.65	6572.22
437.84	6963.09
438.02	6642.44
438.21	6677.55
438.40	6698.61
438.58	6949.05
438.77	7033.31
438.96	6750.10
439.14	6956.07
439.33	7169.06
439.52	7246.30
439.70	7152.68
439.89	7372.69
440.08	7424.18
440.26	7323.54
440.45	7328.22
440.63	7510.78
440.82	7534.18
441.01	7529.50
441.19	7632.49
441.38	7779.94
441.57	7801.01
441.75	7543.55
441.94	7733.13
442.12	7857.18
442.31	7906.33
442.50	7976.55
442.68	7861.86
442.87	7831.43
443.05	8116.98
443.24	8119.32
443.43	8042.08
443.61	7981.23
443.80	8362.73
443.98	8021.02
444.17	7934.42
444.35	8053.78
444.54	8271.45
444.73	8311.24
444.91	8156.77
445.10	8280.82
445.28	8311.24
445.47	8327.63
445.65	8236.35
445.84	8304.22
446.02	8414.23
446.21	8243.37
446.39	8463.38
446.58	8355.71
446.77	8353.37
446.95	8409.54
447.14	8608.49
447.32	8531.25
447.51	8463.38
447.69	8402.52
447.88	8336.99
448.06	8489.12
448.25	8381.46
448.43	8739.56
448.62	8477.42
448.80	8503.17
448.99	8624.87
449.17	8552.32
449.36	8613.17
449.54	8952.55
449.73	8823.82
449.91	8877.65
450.10	8648.28
450.28	8997.02
450.46	8751.26
450.65	9123.41
450.83	9048.51
451.02	9064.89
451.20	9163.20
451.39	9027.45
451.57	9156.18
451.76	8987.66
451.94	9090.64
452.13	9177.24
452.31	9142.13
452.49	9254.48
452.68	9273.20
452.86	9291.93
453.05	9455.76
453.23	9418.32
453.42	9481.51
453.60	9261.50
453.78	9500.23
453.97	9324.69
454.15	9535.34
454.34	9544.70
454.52	9673.43
454.70	9652.37
454.89	9884.08
455.07	9795.14
455.26	9937.91
455.44	9860.68
455.62	9692.16
455.81	9797.48
455.99	9968.34
456.17	9935.57
456.36	10059.62
456.54	10188.35
456.73	10462.19
456.91	10478.58
457.09	10246.87
457.28	10658.80
457.46	10328.78
457.64	10384.96
457.83	10331.12
458.01	10349.85
458.19	10649.44
458.38	10427.09
458.56	10501.98
458.74	10677.52
458.93	10846.04
459.11	10733.70
459.29	10581.56
459.48	10855.40
459.66	10757.10
459.84	10878.81
460.03	10923.28
460.21	11037.97
460.39	10895.19
460.57	11070.73
460.76	10883.49
460.94	11044.99
461.12	10949.03
461.31	11176.06
461.49	11000.52
461.67	11126.91
461.85	11232.23
462.04	11283.72
462.22	11850.13
462.40	11552.88
462.59	11398.41
462.77	11375.00
462.95	11424.15
463.13	11473.31
463.32	11599.70
463.50	11698.00
463.68	11779.92
463.86	11595.01
464.05	11779.92
464.23	11730.76
464.41	11740.13
464.59	11613.74
464.78	11847.79
464.96	11927.37
465.14	11517.78
465.32	11913.33
465.50	11800.98
465.69	12142.70
465.87	12112.27
466.05	12004.61
466.23	12149.72
466.41	11943.75
466.60	12482.08
466.78	12049.08
466.96	11995.25
467.14	12226.96
467.32	12376.75
467.51	12442.29
467.69	12067.80
467.87	12341.64
468.05	12594.42
468.23	12346.33
468.41	12463.35
468.60	12432.93
468.78	12540.59
468.96	12306.54
469.14	12397.82
469.32	12989.97
469.50	12524.21
469.69	12844.86
469.87	12924.44
470.05	12994.65
470.23	13118.70
470.41	12905.71
470.59	13392.55
470.77	13263.82
470.95	13261.48
471.14	13626.60
471.32	13233.39
471.50	13376.16
471.68	13296.58
471.86	13760.01
472.04	13572.77
472.22	14022.15
472.40	13598.51
472.58	13645.32
472.77	13862.99
472.95	13820.86
473.13	14464.51
473.31	14047.90
473.49	14324.08
473.67	14075.98
473.85	14204.71
474.03	14516.00
474.21	14539.41
474.39	14810.91
474.57	14473.87
474.75	15140.93
474.93	15026.24
475.12	14623.67
475.30	14979.43
475.48	14967.73
475.66	15335.19
475.84	15187.74
476.02	15382.00
476.20	15440.51
476.38	15735.42
476.56	15985.86
476.74	15971.82
476.92	15740.10
477.10	15606.69
477.28	15969.48
477.46	16222.25
477.64	16248.00
477.82	16606.10
478.00	16865.90
478.18	16695.04
478.36	16760.58
478.54	16919.73
478.72	16795.68
478.90	17387.84
479.08	17254.43
479.26	17607.85
479.44	17455.72
479.62	17561.04
479.80	17790.41
479.98	18008.08
480.16	18445.76
480.34	18450.44
480.52	18508.96
480.70	18597.90
480.88	18483.21
481.06	18750.03
481.24	18991.11
481.41	18850.67
481.59	18874.08
481.77	18939.62
481.95	19365.59
482.13	19456.87
482.31	19566.88
482.49	20004.56
482.67	20236.27
482.85	20526.50
483.03	20783.96
483.21	20528.84
483.39	20924.39
483.57	20634.16
483.74	21158.44
483.92	21050.78
484.10	21207.59
484.28	21397.18
484.46	21977.63
484.64	22583.83
484.82	21914.44
485.00	22150.83
485.18	22569.79
485.35	22801.50
485.53	22970.02
485.71	22845.97
485.89	23030.87
486.07	23154.92
486.25	23124.49
486.43	23391.31
486.61	23592.60
486.78	24093.47
486.96	24184.76
487.14	24224.54
487.32	24568.60
487.50	24627.12
487.68	24943.09
487.85	25118.63
488.03	25350.34
488.21	25858.24
488.39	25720.15
488.57	25797.38
488.75	26052.50
488.92	26382.52
489.10	26539.33
489.28	26345.07
489.46	26806.16
489.64	26752.32
489.81	27871.10
489.99	27480.23
490.17	27466.19
490.35	28144.94
490.53	28140.26
490.70	28231.54
490.88	28006.85
491.06	28334.53
491.24	28744.12
491.41	28826.04
491.59	28755.82
491.77	28989.88
491.95	29586.71
492.13	29708.42
492.30	29834.81
492.48	29778.64
492.66	29734.17
492.84	30321.64
493.01	30450.37
493.19	30323.98
493.37	30733.57
493.54	31145.51
493.72	31882.78
493.90	31695.53
494.08	31695.53
494.25	32002.14
494.43	31740.00
494.61	32060.66
494.79	32322.80
494.96	32294.71
495.14	32428.12
495.32	32886.87
495.49	33062.41
495.67	33027.30
495.85	33724.78
496.02	33741.16
496.20	33741.16
496.38	33787.97
496.55	34071.18
496.73	35019.10
496.91	34415.24
497.09	34712.49
497.26	34302.89
497.44	34955.90
497.62	35311.66
497.79	35653.38
497.97	35119.74
498.14	35777.43
498.32	35754.02
498.50	36020.84
498.67	36507.68
498.85	36666.83
499.03	36364.90
499.20	36154.26
499.38	36783.86
499.56	36776.84
499.73	36875.14
499.91	37151.32
500.08	37441.55
500.26	37104.51
500.44	37626.45
500.61	37883.91
500.79	37589.00
500.97	38375.42
501.14	38342.66
501.32	38625.86
501.49	38490.11
501.67	38136.69
501.84	38593.09
502.02	38953.54
502.20	38787.36
502.37	39299.94
502.55	39056.52
502.72	39299.94
502.90	39213.34
503.07	39571.44
503.25	39344.41
503.43	39281.21
503.60	39398.24
503.78	39955.29
503.95	39873.37
504.13	40339.13
504.30	40552.12
504.48	40210.40
504.65	40835.33
504.83	40942.99
505.01	40828.30
505.18	41060.02
505.36	40844.69
505.53	41247.26
505.71	41572.60
505.88	41668.56
506.06	41537.49
506.23	41422.80
506.41	41717.71
506.58	42054.75
506.76	42078.15
506.93	42454.98
507.11	42160.07
507.28	42106.24
507.46	42553.28
507.63	42401.14
507.81	43189.91
507.98	43182.88
508.16	42696.05
508.33	43456.73
508.50	43393.53
508.68	43433.32
508.85	43873.34
509.03	43571.41
509.20	43908.45
509.38	44222.08
509.55	44439.75
509.73	44367.20
509.90	44521.67
510.08	44362.51
510.25	44655.08
510.42	44622.31
510.60	44863.39
510.77	45272.98
510.95	45436.82
511.12	44973.39
511.30	45097.44
511.47	45265.96
511.64	45478.95
511.82	45991.53
511.99	45127.87
512.17	46103.87
512.34	45574.91
512.51	46429.21
512.69	46204.52
512.86	46251.33
513.04	46756.88
513.21	46197.49
513.38	46305.16
513.56	46447.93
513.73	46600.07
513.90	46979.23
514.08	46691.35
514.25	47271.80
514.43	47274.14
514.60	47199.24
514.77	47234.35
514.95	47529.26
515.12	47498.83
515.29	47222.65
515.47	47700.12
515.64	48137.80
515.81	47594.79
515.99	47840.55
516.16	48385.89
516.33	48072.26
516.51	48409.30
516.68	48161.20
516.85	48062.90
517.03	48975.71
517.20	48673.78
517.37	48423.34
517.54	48701.87
517.72	48996.77
517.89	48814.21
518.06	49174.66
518.24	49036.56
518.41	48994.43
518.58	49113.80
518.75	49429.77
518.93	49638.08
519.10	49237.85
519.27	49268.28
519.45	49626.38
519.62	49853.41
519.79	49556.16
519.96	49886.18
520.14	49724.68
520.31	50000.86
520.48	50335.56
520.65	50293.43
520.83	50272.37
521.00	50284.07
521.17	50286.41
521.34	50251.30
521.52	50939.42
521.69	50501.74
521.86	50873.88
522.03	50913.67
522.20	51070.49
522.38	51313.90
522.55	51119.64
522.72	51164.11
522.89	51330.29
523.07	51323.27
523.24	51281.14
523.41	51447.32
523.58	51182.84
523.75	51463.70
523.92	51901.38
524.10	51866.27
524.27	51608.81
524.44	51772.65
524.61	52093.30
524.78	52067.56
524.96	51838.18
525.13	51995.00
525.30	52210.33
525.47	52198.63
525.64	51962.23
525.81	52261.82
525.98	52423.32
526.16	52170.54
526.33	52292.25
526.50	52594.18
526.67	52896.11
526.84	52907.81
527.01	52626.95
527.18	52767.38
527.36	52685.46
527.53	52877.38
527.70	53338.47
527.87	53277.61
528.04	52868.02
528.21	53205.06
528.38	53064.63
528.55	53249.53
528.72	53291.66
528.89	53495.28
529.07	53361.87
529.24	53216.76
529.41	53652.10
529.58	53408.68
529.75	53446.13
529.92	53748.06
530.09	53675.51
530.26	53595.93
530.43	53897.86
530.60	53497.62
530.77	53717.64
530.94	53766.79
531.11	53841.68
531.28	53909.56
531.46	54094.46
531.63	54167.02
531.80	54031.27
531.97	54401.07
532.14	54181.06
532.31	53996.16
532.48	54396.39
532.65	54756.83
532.82	54129.57
532.99	54422.14
533.16	54614.06
533.33	54672.57
533.50	54773.22
533.67	54597.68
533.84	54628.10
534.01	54553.21
534.18	54899.61
534.35	55267.07
534.52	54934.71
534.69	55075.15
534.86	55173.45
535.03	54688.96
535.20	55246.00
535.37	54899.61
535.54	55377.08
535.71	55002.59
535.88	55435.59
536.05	55367.71
536.22	55475.38
536.38	55676.66
536.55	55744.54
536.72	55377.08
536.89	55449.63
537.06	55461.33
537.23	55695.39
537.40	55576.02
537.57	55543.25
537.74	55777.31
537.91	56030.08
538.08	55847.52
538.25	55543.25
538.42	55800.71
538.59	55964.55
538.75	55730.50
538.92	55763.26
539.09	56184.56
539.26	55983.27
539.43	56229.03
539.60	56144.77
539.77	56058.17
539.94	56556.70
540.11	56449.04
540.28	56322.65
540.44	56214.99
540.61	56186.90
540.78	55938.80
540.95	56369.46
541.12	56332.01
541.29	56573.09
541.46	56507.55
541.62	56191.58
541.79	56729.90
541.96	56409.25
542.13	56341.38
542.30	56596.49
542.47	56725.22
542.63	56816.50
542.80	56765.01
542.97	56844.59
543.14	57221.42
543.31	56987.36
543.48	57066.94
543.64	57261.21
543.81	57268.23
543.98	57310.36
544.15	57317.38
544.32	57284.61
544.48	57228.44
544.65	57230.78
544.82	57209.71
544.99	57104.39
545.16	57432.07
545.32	57275.25
545.49	57738.68
545.66	57626.33
545.83	57518.67
546.00	57888.47
546.16	57551.43
546.33	57565.48
546.50	57317.38
546.67	57654.42
546.83	57315.04
547.00	57703.57
547.17	57666.12
547.34	57577.18
547.50	57605.26
547.67	57993.79
547.84	57916.56
548.00	57684.84
548.17	58211.46
548.34	57858.04
548.51	58012.52
548.67	58148.27
548.84	58120.18
549.01	58195.08
549.18	58122.52
549.34	58148.27
549.51	58073.37
549.68	58323.81
549.84	58138.91
550.01	58258.27
550.18	57954.00
550.34	58433.81
550.51	58424.45
550.68	58426.79
550.84	58021.88
551.01	58459.56
551.18	58258.27
551.34	58508.71
551.51	58457.22
551.68	58349.56
551.84	58571.91
552.01	58269.98
552.18	58492.33
552.34	58377.64
552.51	58562.54
552.68	58487.65
552.84	58487.65
553.01	58763.83
553.18	58440.84
553.34	58873.84
553.51	58508.71
553.67	58672.55
553.84	58890.22
554.01	58822.34
554.17	58960.44
554.34	58824.68
554.51	59018.95
554.67	59075.12
554.84	58831.71
555.00	58962.78
555.17	58878.52
555.33	58834.05
555.50	58815.32
555.67	58859.79
555.83	58798.94
556.00	59093.85
556.16	59421.52
556.33	59070.44
556.50	58841.07
556.66	59341.94
556.83	59047.04
556.99	59227.26
557.16	59257.68
557.32	59386.41
557.49	59461.31
557.65	59217.89
557.82	59302.15
557.98	59168.74
558.15	59407.48
558.32	59442.59
558.48	59348.96
558.65	59524.50
558.81	59271.73
558.98	59372.37
559.14	59571.32
559.31	59611.10
559.47	59627.49
559.64	59583.02
559.80	59650.89
559.97	59636.85
560.13	59388.75
560.30	59547.91
560.46	59526.84
560.63	59599.40
560.79	59496.42
560.96	59756.22
561.12	59697.70
561.29	59620.47
561.45	59641.53
561.61	59751.54
561.78	59716.43
561.94	59709.41
562.11	59849.84
562.27	59833.46
562.44	59798.35
562.60	59770.26
562.77	59887.29
562.93	59657.91
563.10	60051.12
563.26	59615.79
563.42	60069.85
563.59	59798.35
563.75	59758.56
563.92	59817.07
564.08	59915.37
564.24	60006.65
564.41	60163.47
564.57	59999.63
564.74	60062.83
564.90	60100.28
565.07	59924.74
565.23	60001.97
565.39	60142.41
565.56	60135.38
565.72	59882.61
565.88	60186.88
566.05	59971.55
566.21	59866.22
566.38	59983.25
566.54	60016.02
566.70	60165.81
566.87	60301.56
567.03	59969.21
567.19	60339.01
567.36	60285.18
567.52	60055.81
567.68	60271.14
567.85	60273.48
568.01	60149.43
568.17	60203.26
568.34	60240.71
568.50	60200.92
568.66	60135.38
568.83	60233.69
568.99	60109.64
569.15	60236.03
569.32	60411.57
569.48	60111.98
569.64	60289.86
569.81	60170.49
569.97	60280.50
570.13	60268.79
570.30	60130.70
570.46	60404.55
570.62	60573.06
570.78	60479.44
570.95	60402.21
571.11	60437.31
571.27	60357.74
571.43	60418.59
571.60	60378.80
571.76	60509.87
571.92	60444.33
572.09	60446.68
572.25	60350.71
572.41	60687.75
572.57	60350.71
572.74	60877.33
572.90	60287.52
573.06	60589.45
573.22	60638.60
573.38	60580.09
573.55	60650.30
573.71	60624.56
573.87	60741.58
574.03	60460.72
574.20	60746.26
574.36	60432.63
574.52	60638.60
574.68	60530.93
574.84	60629.24
575.01	60626.90
575.17	60729.88
575.33	60472.42
575.49	60563.70
575.65	60662.00
575.82	60704.13
575.98	60645.62
576.14	60809.46
576.30	60694.77
576.46	60654.98
576.62	60615.19
576.79	60526.25
576.95	60664.35
577.11	60748.60
577.27	60713.50
577.43	60816.48
577.59	60729.88
577.75	60650.30
577.92	60451.36
578.08	60587.11
578.24	60764.99
578.40	60846.91
578.56	60999.04
578.72	60603.49
578.88	60828.18
579.04	60907.76
579.21	60977.98
579.37	60774.35
579.53	60966.27
579.69	60664.35
579.85	60757.97
580.01	60706.47
580.17	60706.47
580.33	60753.29
580.49	60818.82
580.65	60870.31
580.82	60683.07
580.98	60793.07
581.14	60629.24
581.30	60917.12
581.46	60673.71
581.62	60692.43
581.78	60444.33
581.94	60949.89
582.10	60669.03
582.26	60830.52
582.42	60687.75
582.58	60910.10
582.74	60687.75
582.90	60856.27
583.06	60893.72
583.22	60725.20
583.38	60764.99
583.54	60900.74
583.70	60917.12
583.86	60898.40
584.02	60804.78
584.18	60893.72
584.34	61050.53
584.50	60996.70
584.66	60807.12
584.82	60701.79
584.98	60882.02
585.14	60938.19
585.30	60858.61
585.46	60919.46
585.62	61139.47
585.78	61080.96
585.94	60867.97
586.10	60739.24
586.26	60772.01
586.42	60879.67
586.58	60949.89
586.74	60795.42
586.90	60893.72
587.06	60924.14
587.22	61137.13
587.38	60697.11
587.54	61174.58
587.70	60874.99
587.86	60788.39
588.02	60708.82
588.18	61038.83
588.34	60942.87
588.49	60865.63
