SpectraSuite Data File
++++++++++++++++++++++++++++++++++++
Date: Fri Oct 25 11:22:55 EDT 2013
User: price-jones
Dark Spectrum Present: No
Reference Spectrum Present: No
Number of Sampled Component Spectra: 1
Spectrometers: USB2+H05261
Integration Time (usec): 100000 (USB2+H05261)
Spectra Averaged: 1 (USB2+H05261)
Boxcar Smoothing: 0 (USB2+H05261)
Correct for Electrical Dark: No (USB2+H05261)
Strobe/Lamp Enabled: No (USB2+H05261)
Correct for Detector Non-linearity: No (USB2+H05261)
Correct for Stray Light: No (USB2+H05261)
Number of Pixels in Processed Spectrum: 2048
>>>>>Begin Processed Spectral Data<<<<<
365.73	243.42
365.92	243.42
366.12	243.42
366.32	187.24
366.52	154.48
366.72	189.58
366.91	84.26
367.11	93.62
367.31	102.98
367.51	112.35
367.70	124.05
367.90	77.24
368.10	154.48
368.30	159.16
368.49	77.24
368.69	93.62
368.89	98.30
369.09	100.64
369.28	100.64
369.48	173.20
369.68	170.86
369.87	273.84
370.07	145.11
370.27	227.03
370.47	308.95
370.66	512.58
370.86	678.76
371.06	685.78
371.25	648.33
371.45	657.69
371.65	641.31
371.84	690.46
372.04	697.48
372.24	706.84
372.44	739.61
372.63	800.46
372.83	784.08
373.03	734.93
373.22	753.65
373.42	720.88
373.62	744.29
373.81	802.80
374.01	777.06
374.21	798.12
374.40	779.40
374.60	791.10
374.79	784.08
374.99	791.10
375.19	891.74
375.38	889.40
375.58	812.17
375.78	926.85
375.97	861.32
376.17	816.85
376.37	821.53
376.56	858.98
376.76	884.72
376.95	826.21
377.15	919.83
377.35	842.59
377.54	917.49
377.74	842.59
377.93	849.61
378.13	992.39
378.33	873.02
378.52	1004.09
378.72	987.71
378.91	971.32
379.11	877.70
379.31	858.98
379.50	908.13
379.70	1001.75
379.89	926.85
380.09	947.92
380.28	950.26
380.48	997.07
380.68	1025.15
380.87	945.58
381.07	1011.11
381.26	1006.43
381.46	1036.86
381.65	1020.47
381.85	1076.65
382.04	1123.46
382.24	1088.35
382.43	1043.88
382.63	1034.52
382.83	1078.99
383.02	1060.26
383.22	1158.57
383.41	1041.54
383.61	1088.35
383.80	1118.78
384.00	1107.07
384.19	1102.39
384.39	1076.65
384.58	1203.04
384.78	1158.57
384.97	1233.46
385.17	1156.22
385.36	1177.29
385.56	1104.73
385.75	1125.80
385.95	1074.31
386.14	1219.42
386.34	1174.95
386.53	1221.76
386.72	1165.59
386.92	1212.40
387.11	1224.10
387.31	1249.85
387.50	1186.65
387.70	1179.63
387.89	1327.08
388.09	1343.47
388.28	1324.74
388.48	1275.59
388.67	1352.83
388.86	1327.08
389.06	1301.34
389.25	1355.17
389.45	1369.21
389.64	1369.21
389.84	1284.95
390.03	1434.75
390.22	1352.83
390.42	1427.73
390.61	1270.91
390.81	1315.38
391.00	1352.83
391.19	1416.02
391.39	1362.19
391.58	1444.11
391.78	1483.90
391.97	1486.24
392.16	1448.79
392.36	1610.29
392.55	1519.01
392.75	1427.73
392.94	1614.97
393.13	1547.09
393.33	1556.46
393.52	1598.59
393.71	1629.01
393.91	1561.14
394.10	1591.56
394.29	1631.35
394.49	1621.99
394.68	1643.06
394.88	1638.38
395.07	1554.12
395.26	1741.36
395.46	1703.91
395.65	1680.50
395.84	1668.80
396.04	1799.87
396.23	1713.27
396.42	1727.32
396.62	1778.81
396.81	1781.15
397.00	1762.42
397.19	1792.85
397.39	1811.57
397.58	1856.04
397.77	1856.04
397.97	1818.60
398.16	1769.44
398.35	1947.33
398.55	1825.62
398.74	1959.03
398.93	1865.41
399.12	1923.92
399.32	1989.46
399.51	1860.73
399.70	2038.61
399.90	1914.56
400.09	1961.37
400.28	2017.54
400.47	2113.50
400.67	2043.29
400.86	2083.08
401.05	2104.14
401.24	2146.27
401.44	2125.21
401.63	2207.13
401.82	2148.61
402.01	2073.71
402.21	2333.51
402.40	2195.42
402.59	2340.54
402.78	2277.34
402.97	2314.79
403.17	2253.94
403.36	2167.34
403.55	2289.04
403.74	2324.15
403.93	2375.64
404.13	2380.32
404.32	2445.86
404.51	2471.61
404.70	2457.56
404.89	2347.56
405.09	2605.02
405.28	2553.52
405.47	2429.48
405.66	2574.59
405.85	2509.05
406.05	2471.61
406.24	2574.59
406.43	2513.74
406.62	2595.65
406.81	2745.45
407.00	2497.35
407.20	2696.30
407.39	2644.81
407.58	2642.46
407.77	2733.75
407.96	2649.49
408.15	2672.89
408.34	2696.30
408.54	2920.99
408.73	2848.43
408.92	2906.95
409.11	2836.73
409.30	2932.69
409.49	2953.76
409.68	2979.50
409.87	2918.65
410.07	2956.10
410.26	3056.74
410.45	3045.04
410.64	3047.38
410.83	3070.78
411.02	3105.89
411.21	3162.06
411.40	3143.34
411.59	3293.13
411.78	3176.11
411.98	3162.06
412.17	3243.98
412.36	3335.26
412.55	3309.52
412.74	3559.95
412.93	3309.52
413.12	3410.16
413.31	3471.01
413.50	3382.07
413.69	3304.84
413.88	3552.93
414.07	3513.14
414.26	3590.38
414.45	3763.58
414.64	3744.86
414.83	3913.38
415.02	3810.39
415.22	3812.73
415.41	3920.40
415.60	3859.54
415.79	3868.91
415.98	4131.05
416.17	4166.15
416.36	4091.26
416.55	4039.76
416.74	4035.08
416.93	4100.62
417.12	4149.77
417.31	4292.54
417.50	4311.27
417.69	4337.01
417.88	4369.78
418.07	4313.61
418.26	4355.74
418.45	4395.53
418.64	4547.66
418.83	4449.36
419.02	4472.76
419.21	4430.63
419.39	4688.09
419.58	4470.42
419.77	4224.67
419.96	4706.82
420.15	4610.86
420.34	4655.33
420.53	4545.32
420.72	4765.33
420.91	4662.35
421.10	4786.40
421.29	4994.70
421.48	4774.69
421.67	4884.70
421.86	4947.89
422.05	4945.55
422.24	4884.70
422.43	4910.44
422.61	4931.51
422.80	4912.78
422.99	4950.23
423.18	5050.88
423.37	5179.61
423.56	4957.25
423.75	4919.81
423.94	4894.06
424.13	4688.09
424.32	4596.81
424.50	5060.24
424.69	5294.29
424.88	5214.71
425.07	4933.85
425.26	4975.98
425.45	4994.70
425.64	4985.34
425.83	5104.71
426.01	5256.84
426.20	5170.24
426.39	5149.18
426.58	5181.95
426.77	5231.10
426.96	5284.93
427.15	5217.05
427.33	5238.12
427.52	5083.64
427.71	5341.10
427.90	5249.82
428.09	5561.11
428.28	5434.72
428.46	5404.30
428.65	5373.87
428.84	5481.53
429.03	5722.61
429.22	5432.38
429.40	5514.30
429.59	5481.53
429.78	5298.97
429.97	5322.38
430.16	5612.60
430.34	5554.09
430.53	5867.72
430.72	5776.44
430.91	5703.89
431.10	5696.86
431.28	5928.58
431.47	5905.17
431.66	5841.98
431.85	5884.11
432.03	5961.34
432.22	6073.69
432.41	6031.56
432.60	5959.00
432.79	6066.67
432.97	6026.88
433.16	6169.65
433.35	5956.66
433.54	6193.06
433.72	6141.57
433.91	6164.97
434.10	6136.88
434.28	6270.30
434.47	6216.46
434.66	6317.11
434.85	6291.36
435.03	6312.42
435.22	6305.40
435.41	6473.92
435.59	6544.14
435.78	6415.41
435.97	6562.86
436.16	6382.64
436.34	6504.35
436.53	6494.99
436.72	6794.58
436.90	6602.65
437.09	6619.04
437.28	6506.69
437.46	6686.91
437.65	6864.79
437.84	6876.49
438.02	6782.87
438.21	6860.11
438.40	6764.15
438.58	7213.53
438.77	6960.75
438.96	7033.31
439.14	7066.08
439.33	7171.40
439.52	7115.23
439.70	7241.62
439.89	7644.19
440.08	7368.01
440.26	7466.31
440.45	7328.22
440.63	7658.23
440.82	7604.40
441.01	7538.87
441.19	7751.85
441.38	7892.29
441.57	7819.73
441.75	7801.01
441.94	7911.01
442.12	8042.08
442.31	8224.64
442.50	8128.68
442.68	8077.19
442.87	8121.66
443.05	8245.71
443.24	8388.48
443.43	8196.56
443.61	8234.00
443.80	8484.44
443.98	8168.47
444.17	7866.54
444.35	8390.82
444.54	8613.17
444.73	8489.12
444.91	8358.05
445.10	8379.12
445.28	8486.78
445.47	8437.63
445.65	8477.42
445.84	8456.36
446.02	8580.40
446.21	8636.58
446.39	8458.70
446.58	8540.61
446.77	8613.17
446.95	8390.82
447.14	8528.91
447.32	8594.45
447.51	8582.74
447.69	8432.95
447.88	8599.13
448.06	8463.38
448.25	8416.57
448.43	8774.67
448.62	8751.26
448.80	8769.99
448.99	8744.24
449.17	8732.54
449.36	8887.01
449.54	9067.24
449.73	9071.92
449.91	9261.50
450.10	9081.28
450.28	9048.51
450.46	9149.15
450.65	9228.73
450.83	9074.26
451.02	9036.81
451.20	9448.74
451.39	9380.87
451.57	9202.99
451.76	9102.34
451.94	9434.70
452.13	9439.38
452.31	9371.50
452.49	9156.18
452.68	9497.89
452.86	9303.63
453.05	9643.01
453.23	9600.88
453.42	9198.31
453.60	9586.83
453.78	9743.65
453.97	9586.83
454.15	9626.62
454.34	9404.27
454.52	9713.22
454.70	9863.02
454.89	9792.80
455.07	9907.49
455.26	10127.50
455.44	10073.67
455.62	9886.42
455.81	9923.87
455.99	10129.84
456.17	10188.35
456.36	10258.57
456.54	10178.99
456.73	10572.20
456.91	10438.79
457.09	10546.45
457.28	10602.63
457.46	10373.25
457.64	10679.86
457.83	10644.76
458.01	10361.55
458.19	10888.17
458.38	10595.61
458.56	10656.46
458.74	10799.23
458.93	10766.46
459.11	10757.10
459.29	10857.75
459.48	10806.25
459.66	10923.28
459.84	10949.03
460.03	11295.43
460.21	10916.26
460.39	11325.85
460.57	10939.66
460.76	11503.73
460.94	11410.11
461.12	11400.75
461.31	11494.37
461.49	11241.59
461.67	11201.80
461.85	11576.29
462.04	11321.17
462.22	12011.63
462.40	11754.17
462.59	11489.69
462.77	11765.87
462.95	11817.36
463.13	11878.22
463.32	11964.82
463.50	11995.25
463.68	12035.03
463.86	11754.17
464.05	11800.98
464.23	11934.39
464.41	11885.24
464.59	11885.24
464.78	12409.52
464.96	12313.56
465.14	12077.16
465.32	12271.43
465.50	12255.04
465.69	12400.16
465.87	12114.61
466.05	12334.62
466.23	12587.40
466.41	12418.88
466.60	12634.21
466.78	12355.69
466.96	12519.53
467.14	12578.04
467.32	12704.43
467.51	12791.03
467.69	12266.75
467.87	12762.94
468.05	12676.34
468.23	12622.51
468.41	12458.67
468.60	12931.46
468.78	12922.10
468.96	12592.08
469.14	12849.54
469.32	13221.69
469.50	12645.91
469.69	13125.72
469.87	13179.56
470.05	13263.82
470.23	13291.90
470.41	13399.57
470.59	13429.99
470.77	13432.33
470.95	13348.08
471.14	13577.45
471.32	13296.58
471.50	13696.82
471.68	13760.01
471.86	13785.76
472.04	13542.34
472.22	14122.79
472.40	13940.23
472.58	14029.17
472.77	14195.35
472.95	14310.04
473.13	14717.29
473.31	14230.46
473.49	14176.62
473.67	13980.02
473.85	14511.32
474.03	15080.07
474.21	14864.74
474.39	14850.70
474.57	15110.50
474.75	15084.75
474.93	15082.41
475.12	15297.74
475.30	15452.22
475.48	15330.51
475.66	15534.14
475.84	15236.89
476.02	15459.24
476.20	15564.56
476.38	15763.51
476.56	16180.12
476.74	16123.95
476.92	16123.95
477.10	16063.10
477.28	16374.39
477.46	16486.73
477.64	16549.93
477.82	16723.13
478.00	17312.94
478.18	17015.69
478.36	17034.42
478.54	17287.20
478.72	17528.27
478.90	17717.86
479.08	17682.75
479.26	17715.51
479.44	17659.34
479.62	18279.58
479.80	18525.34
479.98	18328.74
480.16	18757.05
480.34	18490.23
480.52	19016.85
480.70	18845.99
480.88	18817.91
481.06	19267.29
481.24	19351.55
481.41	19145.58
481.59	19548.15
481.77	19723.69
481.95	19728.38
482.13	20006.90
482.31	19711.99
482.49	20514.80
482.67	20680.97
482.85	20868.22
483.03	21025.03
483.21	21076.52
483.39	21469.73
483.57	21266.11
483.74	21376.11
483.92	21825.50
484.10	21263.77
484.28	21933.16
484.46	22059.55
484.64	22897.46
484.82	22579.15
485.00	22775.75
485.18	22827.24
485.35	23206.41
485.53	23349.18
485.71	23330.46
485.89	23810.27
486.07	23702.61
486.25	23697.92
486.43	23836.02
486.61	24060.71
486.78	24540.52
486.96	24491.37
487.14	25146.72
487.32	25132.67
487.50	25270.76
487.68	25495.46
487.85	25460.35
488.03	25949.52
488.21	25986.97
488.39	26122.72
488.57	26466.78
488.75	26520.61
488.92	26909.14
489.10	27171.28
489.28	26998.08
489.46	27667.47
489.64	27395.97
489.81	27936.63
489.99	28161.33
490.17	27887.48
490.35	28465.60
490.53	28493.68
490.70	28603.69
490.88	28463.25
491.06	29287.12
491.24	29036.69
491.41	29406.49
491.59	29570.33
491.77	29890.98
491.95	30377.81
492.13	30101.63
492.30	30316.96
492.48	30302.92
492.66	30604.84
492.84	30747.62
493.01	31049.55
493.19	30981.67
493.37	31606.59
493.54	31559.78
493.72	31817.24
493.90	32315.78
494.08	32376.63
494.25	32591.96
494.43	32236.20
494.61	32322.80
494.79	32570.90
494.96	32636.43
495.14	33186.46
495.32	33139.65
495.49	33350.29
495.67	33507.11
495.85	33872.23
496.02	33930.75
496.20	33998.62
496.38	34356.72
496.55	34639.93
496.73	34979.31
496.91	34876.32
497.09	35068.25
497.26	35227.40
497.44	35143.14
497.62	35718.92
497.79	36208.09
497.97	35889.77
498.14	36250.22
498.32	36622.36
498.50	36856.42
498.67	36968.76
498.85	37212.18
499.03	37394.74
499.20	37301.12
499.38	37331.54
499.56	37181.75
499.73	37794.97
499.91	37584.32
500.08	38054.77
500.26	38127.33
500.44	38487.77
500.61	38384.79
500.79	38155.41
500.97	38380.10
501.14	38614.16
501.32	38960.56
501.49	38588.41
501.67	39299.94
501.84	39608.89
502.02	39159.50
502.20	39381.85
502.37	39290.57
502.55	39622.93
502.72	39995.07
502.90	40329.77
503.07	40046.57
503.25	40435.10
503.43	40168.27
503.60	40748.73
503.78	40711.28
503.95	40772.13
504.13	40968.74
504.30	41240.24
504.48	40978.10
504.65	41404.08
504.83	41567.91
505.01	41731.75
505.18	41432.16
505.36	41996.23
505.53	41593.66
505.71	42155.39
505.88	42349.65
506.06	41897.93
506.23	42227.95
506.41	42644.56
506.58	42607.11
506.76	42806.06
506.93	43267.14
507.11	42892.66
507.28	43021.39
507.46	43168.84
507.63	43569.07
507.81	43915.47
507.98	43154.80
508.16	43840.57
508.33	44189.31
508.50	44048.88
508.68	44149.53
508.85	44486.56
509.03	44374.22
509.20	44746.36
509.38	45099.78
509.55	45031.91
509.73	44776.79
509.90	45317.45
510.08	45017.86
510.25	45102.12
510.42	45331.50
510.60	45720.02
510.77	45729.39
510.95	45937.69
511.12	45694.28
511.30	45607.68
511.47	45701.30
511.64	45677.90
511.82	46560.28
511.99	46403.46
512.17	46696.03
512.34	46436.23
512.51	46913.70
512.69	47114.98
512.86	47370.10
513.04	47550.32
513.21	46902.00
513.38	47047.11
513.56	47751.61
513.73	46916.04
513.90	47206.26
514.08	47327.97
514.25	47948.21
514.43	47725.86
514.60	47779.70
514.77	48341.42
514.95	48397.60
515.12	48107.37
515.29	47894.38
515.47	48168.22
515.64	48643.35
515.81	48364.83
515.99	48563.78
516.16	48734.63
516.33	48795.49
516.51	49137.21
516.68	49085.72
516.85	49132.53
517.03	49272.96
517.20	49460.20
517.37	49387.64
517.54	49282.32
517.72	49635.74
517.89	49691.91
518.06	49808.94
518.24	49647.44
518.41	49514.03
518.58	50028.95
518.75	49991.50
518.93	50094.49
519.10	49574.89
519.27	50244.28
519.45	49921.29
519.62	50401.10
519.79	50485.36
519.96	50532.17
520.14	50686.64
520.31	50422.16
520.48	50892.61
520.65	50770.90
520.83	51416.89
521.00	51140.71
521.17	51056.45
521.34	50782.60
521.52	51086.87
521.69	51084.53
521.86	51517.53
522.03	51620.52
522.20	51791.37
522.38	51791.37
522.55	51758.61
522.72	51796.06
522.89	51840.53
523.07	52322.68
523.24	52158.84
523.41	52317.99
523.58	51894.36
523.75	52006.70
523.92	52334.38
524.10	52470.13
524.27	52512.26
524.44	52514.60
524.61	52325.02
524.78	52828.23
524.96	52793.12
525.13	53109.10
525.30	53038.88
525.47	53357.19
525.64	52809.51
525.81	53099.73
525.98	53188.67
526.16	52910.15
526.33	53104.41
526.50	53258.89
526.67	53116.12
526.84	53160.59
527.01	53375.92
527.18	53151.23
527.36	53228.46
527.53	53373.58
527.70	53631.04
527.87	53649.76
528.04	53418.05
528.21	53853.39
528.38	53696.57
528.55	53874.45
528.72	53883.81
528.89	53867.43
529.07	53682.53
529.24	53703.59
529.41	54232.55
529.58	53769.13
529.75	54059.35
529.92	54026.59
530.09	54227.87
530.26	54553.21
530.43	54372.99
530.60	54223.19
530.77	54267.66
530.94	54471.29
531.11	54351.92
531.28	54859.82
531.46	54604.70
531.63	54805.98
531.80	54562.57
531.97	54918.33
532.14	54983.86
532.31	54766.20
532.48	54892.58
532.65	55178.13
532.82	54632.78
532.99	55063.44
533.16	55086.85
533.33	55276.43
533.50	55199.19
533.67	55185.15
533.84	54871.52
534.01	55543.25
534.18	55348.99
534.35	55695.39
534.52	55543.25
534.69	55477.72
534.86	55955.19
535.03	55636.87
535.20	55753.90
535.37	55627.51
535.54	55805.39
535.71	55660.28
535.88	55683.69
536.05	55700.07
536.22	55927.10
536.38	55920.08
536.55	56074.55
536.72	56109.66
536.89	55833.48
537.06	56072.21
537.23	56034.77
537.40	55751.56
537.57	56072.21
537.74	56126.05
537.91	56392.87
538.08	56404.57
538.25	56076.90
538.42	56254.78
538.59	56439.68
538.75	56301.59
538.92	56327.33
539.09	56596.49
539.26	56500.53
539.43	56465.42
539.60	56577.77
539.77	56554.36
539.94	56753.31
540.11	56896.08
540.28	56647.99
540.44	56669.05
540.61	56741.61
540.78	56889.06
540.95	56868.00
541.12	56598.83
541.29	56910.13
541.46	57015.45
541.62	56926.51
541.79	57174.61
541.96	56795.44
542.13	56671.39
542.30	57144.18
542.47	57240.14
542.63	57324.40
542.80	57099.71
542.97	57298.65
543.14	57574.84
543.31	57556.11
543.48	57485.90
543.64	57745.70
543.81	57916.56
543.98	57460.15
544.15	57579.52
544.32	57921.24
544.48	58021.88
544.65	57453.13
544.82	57883.79
544.99	57460.15
545.16	57904.85
545.32	57652.08
545.49	57991.45
545.66	58101.46
545.83	57982.09
546.00	57935.28
546.16	57811.23
546.33	57836.98
546.50	57684.84
546.67	58134.23
546.83	57771.44
547.00	57993.79
547.17	58192.74
547.34	57991.45
547.50	58202.10
547.67	58344.87
547.84	58251.25
548.00	58375.30
548.17	58387.00
548.34	58501.69
548.51	58518.07
548.67	58473.60
548.84	58344.87
549.01	58499.35
549.18	58277.00
549.34	58670.21
549.51	58562.54
549.68	58831.71
549.84	58578.93
550.01	58679.57
550.18	58866.81
550.34	58782.55
550.51	59014.27
550.68	58805.96
550.84	58595.31
551.01	58925.33
551.18	58962.78
551.34	58841.07
551.51	58583.61
551.68	58932.35
551.84	59035.33
552.01	58906.60
552.18	59000.22
552.34	58946.39
552.51	59040.01
552.68	58981.50
552.84	59065.76
553.01	59405.14
553.18	59344.28
553.34	59135.98
553.51	58906.60
553.67	58934.69
553.84	59206.19
554.01	59089.16
554.17	59313.86
554.34	59283.43
554.51	59157.04
554.67	59339.60
554.84	59164.06
555.00	59236.62
555.17	59222.58
555.33	59203.85
555.50	59398.12
555.67	59400.46
555.83	59578.34
556.00	59531.53
556.16	59781.96
556.33	59585.36
556.50	59669.62
556.66	59831.11
556.83	59278.75
556.99	59796.01
557.16	59711.75
557.32	59693.02
557.49	59849.84
557.65	59742.17
557.82	59557.27
557.98	59491.74
558.15	59620.47
558.32	59852.18
558.48	59554.93
558.65	59760.90
558.81	59760.90
558.98	59774.94
559.14	59922.40
559.31	59887.29
559.47	59852.18
559.64	60016.02
559.80	59891.97
559.97	60062.83
560.13	60025.38
560.30	60264.11
560.46	60081.55
560.63	59870.90
560.79	59957.50
560.96	60264.11
561.12	60079.21
561.29	60144.75
561.45	60189.22
561.61	60107.30
561.78	60100.28
561.94	60200.92
562.11	60100.28
562.27	60273.48
562.44	60378.80
562.60	60273.48
562.77	60357.74
562.93	60301.56
563.10	60369.44
563.26	60189.22
563.42	60528.59
563.59	60317.95
563.75	60388.16
563.92	60294.54
564.08	60254.75
564.24	60367.10
564.41	60378.80
564.57	60460.72
564.74	60418.59
564.90	60397.52
565.07	60456.04
565.23	60530.93
565.39	60460.72
565.56	60519.23
565.72	60315.61
565.88	60458.38
566.05	60453.70
566.21	60636.26
566.38	60456.04
566.54	60495.83
566.70	60631.58
566.87	60692.43
567.03	60381.14
567.19	60718.18
567.36	60687.75
567.52	60413.91
567.68	60828.18
567.85	60622.22
568.01	60683.07
568.17	60680.73
568.34	60619.88
568.50	60711.16
568.66	60755.63
568.83	60795.42
568.99	60774.35
569.15	60636.26
569.32	60662.00
569.48	60673.71
569.64	60741.58
569.81	60582.43
569.97	60697.11
570.13	60807.12
570.30	60603.49
570.46	60867.97
570.62	60896.06
570.78	60825.84
570.95	60652.64
571.11	61027.13
571.27	60671.37
571.43	60729.88
571.60	60924.14
571.76	60982.66
571.92	60874.99
572.09	60905.42
572.25	60926.49
572.41	60685.41
572.57	60865.63
572.74	61132.45
572.90	61087.98
573.06	60760.31
573.22	60903.08
573.38	60856.27
573.55	60973.30
573.71	61188.63
573.87	60863.29
574.03	60839.89
574.20	60928.83
574.36	60961.59
574.52	60968.61
574.68	61132.45
574.84	61134.79
575.01	61069.26
575.17	61052.87
575.33	60800.10
575.49	60793.07
575.65	61207.35
575.82	61104.37
575.98	61036.49
576.14	61137.13
576.30	61102.03
576.46	61085.64
576.62	61055.21
576.79	61258.84
576.95	60825.84
577.11	61195.65
577.27	61162.88
577.43	61127.77
577.59	60846.91
577.75	61099.68
577.92	60828.18
578.08	60994.36
578.24	61017.77
578.40	61216.71
578.56	61205.01
578.72	60996.70
578.88	61462.47
579.04	61359.48
579.21	61141.81
579.37	61240.12
579.53	61118.41
579.69	61022.45
579.85	61043.51
580.01	61268.20
580.17	61064.58
580.33	61350.12
580.49	61343.10
580.65	61045.85
580.82	60989.68
580.98	61059.90
581.14	61111.39
581.30	61340.76
581.46	61322.04
581.62	61265.86
581.78	60973.30
581.94	61396.93
582.10	61155.86
582.26	61345.44
582.42	61242.46
582.58	61277.57
582.74	61254.16
582.90	61167.56
583.06	61235.44
583.22	61144.16
583.38	61380.55
583.54	61319.70
583.70	61230.75
583.86	61272.88
584.02	61216.71
584.18	61310.33
584.34	61256.50
584.50	61144.16
584.66	61062.24
584.82	61069.26
584.98	61506.94
585.14	61340.76
585.30	61324.38
585.46	61237.78
585.62	61235.44
585.78	61499.92
585.94	61319.70
586.10	61230.75
586.26	61123.09
586.42	61502.26
586.58	61324.38
586.74	61249.48
586.90	61282.25
587.06	61343.10
587.22	61268.20
587.38	61272.88
587.54	61467.15
587.70	61609.92
587.86	61043.51
588.02	61354.80
588.18	61436.72
588.34	61317.35
588.49	61261.18
