SpectraSuite Data File
++++++++++++++++++++++++++++++++++++
Date: Fri Oct 25 11:23:22 EDT 2013
User: price-jones
Dark Spectrum Present: No
Reference Spectrum Present: No
Number of Sampled Component Spectra: 1
Spectrometers: USB2+H05261
Integration Time (usec): 100000 (USB2+H05261)
Spectra Averaged: 1 (USB2+H05261)
Boxcar Smoothing: 0 (USB2+H05261)
Correct for Electrical Dark: No (USB2+H05261)
Strobe/Lamp Enabled: No (USB2+H05261)
Correct for Detector Non-linearity: No (USB2+H05261)
Correct for Stray Light: No (USB2+H05261)
Number of Pixels in Processed Spectrum: 2048
>>>>>Begin Processed Spectral Data<<<<<
365.73	217.67
365.92	217.67
366.12	217.67
366.32	117.03
366.52	156.82
366.72	107.66
366.91	98.30
367.11	133.41
367.31	121.71
367.51	72.56
367.70	100.64
367.90	145.11
368.10	79.58
368.30	110.01
368.49	74.90
368.69	170.86
368.89	114.69
369.09	100.64
369.28	135.75
369.48	154.48
369.68	191.92
369.87	212.99
370.07	166.18
370.27	191.92
370.47	241.08
370.66	547.69
370.86	627.26
371.06	645.99
371.25	645.99
371.45	599.18
371.65	690.46
371.84	667.05
372.04	613.22
372.24	723.23
372.44	784.08
372.63	674.07
372.83	688.12
373.03	674.07
373.22	737.27
373.42	737.27
373.62	681.10
373.81	753.65
374.01	821.53
374.21	781.74
374.40	744.29
374.60	720.88
374.79	828.55
374.99	777.06
375.19	849.61
375.38	821.53
375.58	868.34
375.78	816.85
375.97	837.91
376.17	922.17
376.37	784.08
376.56	915.15
376.76	833.23
376.95	863.66
377.15	873.02
377.35	809.83
377.54	882.38
377.74	863.66
377.93	854.30
378.13	919.83
378.33	882.38
378.52	940.90
378.72	915.15
378.91	943.24
379.11	873.02
379.31	910.47
379.50	959.62
379.70	938.55
379.89	933.87
380.09	980.68
380.28	924.51
380.48	868.34
380.68	903.45
380.87	961.96
381.07	1008.77
381.26	1067.28
381.46	966.64
381.65	1001.75
381.85	891.74
382.04	1055.58
382.24	1036.86
382.43	1020.47
382.63	1050.90
382.83	1022.81
383.02	1086.01
383.22	1027.50
383.41	1069.62
383.61	1060.26
383.80	1069.62
384.00	1008.77
384.19	1076.65
384.39	1102.39
384.58	1114.10
384.78	1125.80
384.97	1177.29
385.17	1114.10
385.36	1186.65
385.56	1186.65
385.75	1160.91
385.95	1174.95
386.14	1231.12
386.34	1111.75
386.53	1240.48
386.72	1280.27
386.92	1284.95
387.11	1179.63
387.31	1336.45
387.50	1266.23
387.70	1212.40
387.89	1231.12
388.09	1317.72
388.28	1181.97
388.48	1160.91
388.67	1277.93
388.86	1301.34
389.06	1275.59
389.25	1369.21
389.45	1280.27
389.64	1235.80
389.84	1352.83
390.03	1245.16
390.22	1263.89
390.42	1387.94
390.61	1369.21
390.81	1383.26
391.00	1404.32
391.19	1359.85
391.39	1411.34
391.58	1465.18
391.78	1350.49
391.97	1472.20
392.16	1497.94
392.36	1497.94
392.55	1593.90
392.75	1495.60
392.94	1521.35
393.13	1507.30
393.33	1446.45
393.52	1481.56
393.71	1570.50
393.91	1540.07
394.10	1568.16
394.29	1462.83
394.49	1476.88
394.68	1535.39
394.88	1476.88
395.07	1575.18
395.26	1619.65
395.46	1636.03
395.65	1636.03
395.84	1675.82
396.04	1722.63
396.23	1748.38
396.42	1694.55
396.62	1722.63
396.81	1706.25
397.00	1757.74
397.19	1760.08
397.39	1818.60
397.58	1675.82
397.77	1851.36
397.97	1795.19
398.16	1778.81
398.35	1832.64
398.55	1760.08
398.74	1837.32
398.93	1966.05
399.12	1902.86
399.32	1863.07
399.51	1902.86
399.70	1888.81
399.90	1954.35
400.09	1952.01
400.28	1994.14
400.47	1975.41
400.67	2066.69
400.86	2036.27
401.05	2174.36
401.24	2071.37
401.44	2141.59
401.63	2108.82
401.82	2108.82
402.01	2083.08
402.21	2211.81
402.40	2113.50
402.59	2232.87
402.78	2120.53
402.97	2054.99
403.17	2125.21
403.36	2256.28
403.55	2242.23
403.74	2293.72
403.93	2314.79
404.13	2314.79
404.32	2277.34
404.51	2340.54
404.70	2375.64
404.89	2349.90
405.09	2434.16
405.28	2387.35
405.47	2520.76
405.66	2443.52
405.85	2335.85
406.05	2310.11
406.24	2476.29
406.43	2480.97
406.62	2492.67
406.81	2626.08
407.00	2373.30
407.20	2537.14
407.39	2487.99
407.58	2609.70
407.77	2621.40
407.96	2675.23
408.15	2747.79
408.34	2778.22
408.54	2832.05
408.73	2778.22
408.92	2562.89
409.11	2764.17
409.30	2750.13
409.49	2832.05
409.68	2850.77
409.87	2942.05
410.07	2920.99
410.26	2965.46
410.45	2974.82
410.64	3002.91
410.83	3038.02
411.02	3073.12
411.21	3103.55
411.40	3183.13
411.59	3159.72
411.78	3117.59
411.98	2993.55
412.17	3218.24
412.36	3211.22
412.55	3260.37
412.74	3297.81
412.93	3407.82
413.12	3204.19
413.31	3515.48
413.50	3386.76
413.69	3449.95
413.88	3494.42
414.07	3508.46
414.26	3543.57
414.45	3557.61
414.64	3541.23
414.83	3627.83
415.02	3634.85
415.22	3810.39
415.41	3786.99
415.60	3824.44
415.79	3721.45
415.98	3840.82
416.17	3887.63
416.36	3847.84
416.55	4081.89
416.74	3911.04
416.93	3857.20
417.12	4084.23
417.31	3976.57
417.50	4035.08
417.69	4163.81
417.88	4175.52
418.07	4173.18
418.26	4236.37
418.45	4119.34
418.64	4463.40
418.83	4332.33
419.02	4285.52
419.21	4222.33
419.39	4552.34
419.58	4219.99
419.77	4287.86
419.96	4547.66
420.15	4397.87
420.34	4667.03
420.53	4603.83
420.72	4578.09
420.91	4519.57
421.10	4767.67
421.29	4641.28
421.48	4695.11
421.67	4697.46
421.86	4730.22
422.05	4842.57
422.24	4681.07
422.43	4880.02
422.61	4828.53
422.80	4678.73
422.99	4755.97
423.18	4837.89
423.37	4835.55
423.56	4924.49
423.75	4875.34
423.94	4683.41
424.13	4587.45
424.32	4697.46
424.50	4734.90
424.69	5053.22
424.88	5043.85
425.07	4858.95
425.26	4767.67
425.45	4868.31
425.64	4856.61
425.83	4952.57
426.01	4950.23
426.20	4943.21
426.39	4971.30
426.58	5043.85
426.77	5097.69
426.96	4971.30
427.15	5095.35
427.33	5130.45
427.52	5083.64
427.71	5268.55
427.90	5146.84
428.09	5261.52
428.28	5282.59
428.46	5301.31
428.65	5156.20
428.84	5282.59
429.03	5392.59
429.22	5460.47
429.40	5294.29
429.59	5313.02
429.78	5116.41
429.97	5195.99
430.16	5327.06
430.34	5514.30
430.53	5357.49
430.72	5689.84
430.91	5497.92
431.10	5387.91
431.28	5640.69
431.47	5584.52
431.66	5675.80
431.85	5790.49
432.03	5717.93
432.22	5764.74
432.41	5687.50
432.60	5734.31
432.79	5731.97
432.97	5874.74
433.16	5902.83
433.35	5951.98
433.54	5991.77
433.72	6040.92
433.91	5839.64
434.10	5942.62
434.28	5944.96
434.47	6209.44
434.66	6052.63
434.85	6136.88
435.03	6277.32
435.22	6054.97
435.41	6380.30
435.59	6342.85
435.78	6354.55
435.97	6466.90
436.16	6328.81
436.34	6204.76
436.53	6441.15
436.72	6471.58
436.90	6263.27
437.09	6450.52
437.28	6354.55
437.46	6406.05
437.65	6628.40
437.84	6626.06
438.02	6600.31
438.21	6534.78
438.40	6675.21
438.58	6904.58
438.77	6757.13
438.96	6731.38
439.14	7037.99
439.33	7037.99
439.52	7040.33
439.70	7059.06
439.89	7197.15
440.08	7077.78
440.26	7304.81
440.45	7215.87
440.63	7253.32
440.82	7592.70
441.01	7309.49
441.19	7377.37
441.38	7454.61
441.57	7630.15
441.75	7655.89
441.94	7665.25
442.12	7714.41
442.31	7833.77
442.50	7894.63
442.68	7819.73
442.87	7866.54
443.05	8077.19
443.24	8023.36
443.43	7805.69
443.61	8037.40
443.80	8292.52
443.98	7934.42
444.17	7868.88
444.35	8170.81
444.54	8344.01
444.73	8030.38
444.91	8198.90
445.10	8266.77
445.28	8159.11
445.47	8140.38
445.65	8285.50
445.84	8243.37
446.02	8367.42
446.21	8201.24
446.39	8018.68
446.58	8601.47
446.77	8259.75
446.95	8067.83
447.14	8276.13
447.32	8327.63
447.51	8571.04
447.69	8379.12
447.88	8409.54
448.06	8168.47
448.25	8292.52
448.43	8315.92
448.62	8372.10
448.80	8470.40
448.99	8566.36
449.17	8348.69
449.36	8390.82
449.54	8627.21
449.73	8662.32
449.91	8940.85
450.10	8950.21
450.28	8713.81
450.46	8812.12
450.65	8903.40
450.83	8877.65
451.02	8990.00
451.20	9142.13
451.39	8968.93
451.57	8805.10
451.76	9085.96
451.94	8856.59
452.13	9312.99
452.31	9018.08
452.49	8910.42
452.68	9100.00
452.86	9200.65
453.05	9074.26
453.23	9327.03
453.42	9184.26
453.60	9219.37
453.78	9135.11
453.97	9198.31
454.15	9266.18
454.34	9259.16
454.52	9521.30
454.70	9556.41
454.89	9654.71
455.07	9423.00
455.26	9753.01
455.44	9837.27
455.62	9682.80
455.81	9647.69
455.99	9811.53
456.17	9776.42
456.36	9884.08
456.54	9912.17
456.73	9846.63
456.91	10115.80
457.09	10150.90
457.28	10403.68
457.46	9994.09
457.64	10459.85
457.83	10312.40
458.01	10310.06
458.19	10455.17
458.38	10396.66
458.56	10457.51
458.74	10558.16
458.93	10504.32
459.11	10485.60
459.29	10551.14
459.48	10686.89
459.66	10700.93
459.84	10803.91
460.03	10686.89
460.21	10696.25
460.39	10541.77
460.57	10850.72
460.76	10960.73
460.94	11059.03
461.12	10855.40
461.31	10876.47
461.49	10822.64
461.67	11110.52
461.85	11398.41
462.04	11232.23
462.22	11159.67
462.40	11386.71
462.59	11101.16
462.77	11272.02
462.95	11435.86
463.13	11410.11
463.32	11543.52
463.50	11499.05
463.68	11351.60
463.86	11592.67
464.05	11517.78
464.23	11440.54
464.41	11580.97
464.59	11398.41
464.78	11765.87
464.96	11815.02
465.14	11805.66
465.32	12016.31
465.50	11974.18
465.69	12020.99
465.87	11908.65
466.05	11939.07
466.23	11899.28
466.41	12046.74
466.60	12163.76
466.78	12088.87
466.96	12032.69
467.14	12053.76
467.32	12145.04
467.51	12294.83
467.69	11985.88
467.87	12243.34
468.05	12301.86
468.23	12133.34
468.41	12233.98
468.60	12365.05
468.78	12505.48
468.96	12163.76
469.14	12484.42
469.32	12762.94
469.50	12475.06
469.69	12699.75
469.87	12849.54
470.05	12919.76
470.23	12936.14
470.41	12954.87
470.59	13158.49
470.77	12730.17
470.95	13013.38
471.14	13261.48
471.32	12699.75
471.50	13331.69
471.68	13266.16
471.86	13256.79
472.04	13446.38
472.22	13446.38
472.40	13268.50
472.58	13628.94
472.77	13994.06
472.95	13968.32
473.13	14221.10
473.31	13802.14
473.49	13881.72
473.67	13813.84
473.85	14317.06
474.03	14307.69
474.21	14513.66
474.39	14614.30
474.57	14122.79
474.75	14532.39
474.93	14717.29
475.12	14813.25
475.30	14925.60
475.48	14501.96
475.66	14984.11
475.84	15056.67
476.02	15044.96
476.20	15260.29
476.38	15447.54
476.56	15609.03
476.74	15770.53
476.92	15662.86
477.10	15503.71
477.28	15836.06
477.46	15880.53
477.64	16208.21
477.82	16184.80
478.00	16589.72
478.18	16627.17
478.36	16617.80
478.54	16840.15
478.72	16851.86
478.90	17015.69
479.08	17085.91
479.26	17619.55
479.44	17312.94
479.62	17523.59
479.80	17575.08
479.98	17631.26
480.16	18302.99
480.34	18029.15
480.52	18143.83
480.70	18494.91
480.88	18068.94
481.06	18001.06
481.24	18551.09
481.41	18792.16
481.59	19264.95
481.77	18981.74
481.95	19302.40
482.13	19487.30
482.31	19538.79
482.49	19833.70
482.67	20175.42
482.85	20137.97
483.03	20601.40
483.21	20334.57
483.39	20585.01
483.57	20467.98
483.74	20673.95
483.92	21060.14
484.10	20589.69
484.28	21451.01
484.46	21472.07
484.64	21977.63
484.82	21528.25
485.00	22075.93
485.18	22288.92
485.35	22354.46
485.53	22501.91
485.71	22731.28
485.89	23180.67
486.07	22747.67
486.25	22902.14
486.43	23183.01
486.61	23477.91
486.78	23707.29
486.96	23931.98
487.14	23875.80
487.32	24222.20
487.50	24561.58
487.68	24369.66
487.85	25020.33
488.03	24959.47
488.21	25392.47
488.39	25165.44
488.57	25649.93
488.75	25916.75
488.92	25991.65
489.10	26410.60
489.28	26185.91
489.46	26693.81
489.64	26478.48
489.81	27187.66
489.99	27349.16
490.17	26974.67
490.35	27438.10
490.53	27592.58
490.70	27744.71
490.88	27742.37
491.06	28336.87
491.24	28720.71
491.41	28456.23
491.59	28481.98
491.77	28989.88
491.95	29146.69
492.13	29130.31
492.30	29212.23
492.48	29242.65
492.66	29750.55
492.84	30015.03
493.01	30029.07
493.19	30066.52
493.37	30478.46
493.54	30345.05
493.72	30668.04
493.90	30890.39
494.08	30925.50
494.25	31454.46
494.43	31496.59
494.61	31922.57
494.79	31751.71
494.96	32414.08
495.14	32252.58
495.32	32292.37
495.49	32437.48
495.67	32730.05
495.85	32924.32
496.02	33303.48
496.20	33504.77
496.38	33263.69
496.55	33256.67
496.73	34433.96
496.91	33619.46
497.09	34047.77
497.26	34422.26
497.44	34672.70
497.62	35035.48
497.79	35157.19
497.97	34881.00
498.14	35274.21
498.32	35784.45
498.50	35660.40
498.67	36191.70
498.85	35683.81
499.03	35894.46
499.20	36367.24
499.38	36381.29
499.56	36533.42
499.73	36081.70
499.91	36568.53
500.08	37088.13
500.26	36992.17
500.44	37266.01
500.61	36975.78
500.79	37078.77
500.97	37303.46
501.14	38139.03
501.32	37956.47
501.49	37722.41
501.67	37879.23
501.84	38433.94
502.02	38366.06
502.20	38363.72
502.37	38866.94
502.55	38473.73
502.72	38513.52
502.90	38728.84
503.07	39075.24
503.25	39442.71
503.43	38990.98
503.60	39220.36
503.78	39592.50
503.95	39456.75
504.13	40081.67
504.30	40088.70
504.48	39426.32
504.65	40039.54
504.83	40105.08
505.01	40701.92
505.18	40519.35
505.36	40999.16
505.53	40830.65
505.71	41317.48
505.88	41387.69
506.06	40631.70
506.23	41474.29
506.41	41141.94
506.58	41305.77
506.76	41373.65
506.93	41490.68
507.11	41963.46
507.28	41727.07
507.46	41605.36
507.63	42417.53
507.81	42499.45
507.98	42080.49
508.16	42445.62
508.33	42728.82
508.50	42672.65
508.68	42843.51
508.85	43222.67
509.03	43033.09
509.20	43372.47
509.38	43529.28
509.55	43835.89
509.73	43456.73
509.90	44098.03
510.08	43662.69
510.25	43887.39
510.42	44168.25
510.60	44236.12
510.77	44013.77
510.95	44844.66
511.12	44626.99
511.30	44584.86
511.47	44739.34
511.64	45020.20
511.82	45261.28
511.99	45104.46
512.17	45380.65
512.34	45455.54
512.51	46066.42
512.69	45523.42
512.86	45612.36
513.04	46113.23
513.21	45652.15
513.38	46117.92
513.56	46323.88
513.73	46564.96
513.90	46429.21
514.08	46038.34
514.25	46569.64
514.43	47107.96
514.60	46822.42
514.77	46866.89
514.95	47047.11
515.12	47356.06
515.29	46513.47
515.47	47367.76
515.64	47636.92
515.81	47526.92
515.99	47503.51
516.16	47791.40
516.33	47821.83
516.51	47887.36
516.68	47627.56
516.85	47765.65
517.03	48535.69
517.20	48095.67
517.37	48163.54
517.54	48175.25
517.72	48165.88
517.89	48568.46
518.06	48505.26
518.24	48596.54
518.41	48580.16
518.58	48837.62
518.75	48641.01
518.93	48870.39
519.10	48701.87
519.27	49120.82
519.45	49137.21
519.62	49525.74
519.79	49340.83
519.96	49450.84
520.14	49516.37
520.31	49717.66
520.48	49982.14
520.65	49544.46
520.83	50145.98
521.00	50134.28
521.17	49808.94
521.34	50426.84
521.52	49874.48
521.69	50796.65
521.86	50845.80
522.03	50192.79
522.20	50384.71
522.38	51290.50
522.55	50431.52
522.72	50651.53
522.89	50775.58
523.07	51409.87
523.24	51033.04
523.41	51119.64
523.58	50927.72
523.75	51512.85
523.92	51033.04
524.10	51236.67
524.27	51365.40
524.44	51608.81
524.61	51210.92
524.78	51735.20
524.96	51583.07
525.13	51664.99
525.30	51786.69
525.47	51833.50
525.64	52016.07
525.81	51995.00
525.98	52203.31
526.16	51791.37
526.33	52177.56
526.50	52100.32
526.67	52278.21
526.84	52734.61
527.01	52261.82
527.18	52076.92
527.36	52542.69
527.53	52619.92
527.70	53029.52
527.87	52559.07
528.04	52725.25
528.21	52842.27
528.38	53083.35
528.55	53132.50
528.72	52832.91
528.89	53326.77
529.07	52963.98
529.24	53134.84
529.41	53319.74
529.58	53329.11
529.75	53216.76
529.92	53511.67
530.09	53298.68
530.26	53429.75
530.43	53418.05
530.60	53310.38
530.77	53336.13
530.94	53408.68
531.11	53633.38
531.28	53729.34
531.46	53776.15
531.63	53848.71
531.80	53715.29
531.97	53961.05
532.14	53925.94
532.31	54134.25
532.48	54265.32
532.65	54033.61
532.82	53909.56
532.99	54089.78
533.16	53991.48
533.33	54424.48
533.50	54600.02
533.67	54431.50
533.84	54293.41
534.01	54424.48
534.18	54536.82
534.35	54780.24
534.52	54700.66
534.69	54735.77
534.86	54632.78
535.03	54782.58
535.20	54628.10
535.37	54986.21
535.54	54838.75
535.71	54688.96
535.88	55030.68
536.05	54944.08
536.22	55199.19
536.38	55182.81
536.55	55100.89
536.72	55313.88
536.89	54927.69
537.06	54934.71
537.23	55487.08
537.40	55110.25
537.57	54953.44
537.74	55353.67
537.91	55377.08
538.08	55526.87
538.25	55435.59
538.42	55253.03
538.59	55611.13
538.75	55468.36
538.92	55718.79
539.09	55852.20
539.26	55739.86
539.43	55545.59
539.60	56004.34
539.77	55824.12
539.94	55880.29
540.11	55938.80
540.28	55847.52
540.44	56198.60
540.61	55784.33
540.78	55880.29
540.95	55992.64
541.12	55983.27
541.29	56322.65
541.46	56200.94
541.62	55997.32
541.79	56200.94
541.96	55962.21
542.13	56065.19
542.30	56442.02
542.47	56495.85
542.63	56280.52
542.80	56376.48
542.97	56519.26
543.14	56727.56
543.31	56772.03
543.48	56968.64
543.64	56999.07
543.81	57106.73
543.98	56849.27
544.15	57073.96
544.32	56907.79
544.48	57233.12
544.65	56942.89
544.82	56975.66
544.99	56720.54
545.16	57029.49
545.32	57066.94
545.49	57319.72
545.66	57483.56
545.83	57233.12
546.00	57174.61
546.16	57181.63
546.33	57158.22
546.50	56931.19
546.67	57476.54
546.83	57118.43
547.00	57312.70
547.17	57495.26
547.34	57420.36
547.50	57602.92
547.67	57579.52
547.84	57593.56
548.00	57736.34
548.17	57841.66
548.34	57858.04
548.51	57825.28
548.67	57935.28
548.84	57790.17
549.01	57574.84
549.18	57661.44
549.34	57825.28
549.51	57752.72
549.68	57939.96
549.84	57902.51
550.01	57820.59
550.18	57909.53
550.34	57839.32
550.51	58213.80
550.68	58056.99
550.84	58223.17
551.01	58061.67
551.18	58082.73
551.34	58007.84
551.51	58241.89
551.68	58340.19
551.84	58274.66
552.01	58204.44
552.18	58246.57
552.34	58099.12
552.51	58358.92
552.68	58291.04
552.84	58335.51
553.01	58447.86
553.18	58445.52
553.34	58398.71
553.51	58401.05
553.67	58436.16
553.84	58583.61
554.01	58726.38
554.17	58513.39
554.34	58651.48
554.51	58485.31
554.67	58859.79
554.84	58679.57
555.00	58562.54
555.17	58471.26
555.33	58560.20
555.50	58665.53
555.67	58684.25
555.83	58621.06
556.00	58836.39
556.16	58897.24
556.33	58913.62
556.50	58922.99
556.66	58951.07
556.83	58759.15
556.99	58918.31
557.16	59030.65
557.32	58899.58
557.49	59215.55
557.65	59009.59
557.82	58897.24
557.98	59009.59
558.15	59110.23
558.32	58962.78
558.48	58965.12
558.65	59157.04
558.81	59084.48
558.98	59224.92
559.14	59323.22
559.31	59384.07
559.47	59260.02
559.64	59339.60
559.80	59297.47
559.97	59185.13
560.13	59189.81
560.30	59393.43
560.46	59393.43
560.63	59395.77
560.79	59489.40
560.96	59482.37
561.12	59608.76
561.29	59381.73
561.45	59473.01
561.61	59529.19
561.78	59564.29
561.94	59580.68
562.11	59341.94
562.27	59611.10
562.44	59494.08
562.60	59587.70
562.77	59653.23
562.93	59358.33
563.10	59798.35
563.26	59522.16
563.42	59852.18
563.59	59536.21
563.75	59435.56
563.92	59690.68
564.08	59566.63
564.24	59913.03
564.41	59835.80
564.57	59765.58
564.74	59742.17
564.90	59695.36
565.07	59826.43
565.23	59671.96
565.39	59718.77
565.56	59898.99
565.72	59805.37
565.88	59725.79
566.05	59793.67
566.21	59896.65
566.38	59929.42
566.54	60037.08
566.70	59994.95
566.87	59962.18
567.03	59760.90
567.19	60058.15
567.36	59898.99
567.52	60048.78
567.68	60095.60
567.85	59938.78
568.01	60172.83
568.17	59903.67
568.34	59945.80
568.50	59831.11
568.66	59870.90
568.83	59948.14
568.99	59969.21
569.15	59964.52
569.32	59915.37
569.48	59955.16
569.64	60198.58
569.81	59929.42
569.97	59746.86
570.13	60172.83
570.30	60219.64
570.46	60137.72
570.62	59969.21
570.78	60020.70
570.95	60149.43
571.11	60170.49
571.27	60278.16
571.43	60107.30
571.60	60250.07
571.76	60257.09
571.92	60233.69
572.09	60357.74
572.25	60198.58
572.41	60104.96
572.57	60310.92
572.74	60397.52
572.90	60285.18
573.06	60472.42
573.22	60130.70
573.38	60161.13
573.55	60278.16
573.71	60552.00
573.87	60224.32
574.03	60144.75
574.20	60598.81
574.36	60062.83
574.52	60577.75
574.68	60296.88
574.84	60392.84
575.01	60477.10
575.17	60294.54
575.33	60430.29
575.49	60282.84
575.65	60427.95
575.82	60535.62
575.98	60385.82
576.14	60582.43
576.30	60610.51
576.46	60289.86
576.62	60376.46
576.79	60493.49
576.95	60341.35
577.11	60577.75
577.27	60500.51
577.43	60378.80
577.59	60289.86
577.75	60399.86
577.92	60526.25
578.08	60301.56
578.24	60322.63
578.40	60507.53
578.56	60530.93
578.72	60669.03
578.88	60582.43
579.04	60647.96
579.21	60465.40
579.37	60495.83
579.53	60711.16
579.69	60350.71
579.85	60589.45
580.01	60589.45
580.17	60397.52
580.33	60479.44
580.49	60664.35
580.65	60549.66
580.82	60589.45
580.98	60507.53
581.14	60514.55
581.30	60662.00
581.46	60416.25
581.62	60823.50
581.78	60390.50
581.94	60566.04
582.10	60580.09
582.26	60739.24
582.42	60406.89
582.58	60580.09
582.74	60636.26
582.90	60516.89
583.06	60486.46
583.22	60502.85
583.38	60741.58
583.54	60699.45
583.70	60753.29
583.86	60624.56
584.02	60385.82
584.18	60704.13
584.34	60692.43
584.50	60580.09
584.66	60715.84
584.82	60465.40
584.98	60610.51
585.14	60612.85
585.30	60474.76
585.46	60793.07
585.62	60537.96
585.78	60687.75
585.94	60392.84
586.10	60587.11
586.26	60624.56
586.42	60666.69
586.58	60690.09
586.74	60423.27
586.90	60727.54
587.06	60666.69
587.22	60903.08
587.38	60683.07
587.54	60825.84
587.70	60741.58
587.86	60706.47
588.02	60746.26
588.18	60896.06
588.34	60552.00
588.49	60678.39
