SpectraSuite Data File
++++++++++++++++++++++++++++++++++++
Date: Fri Oct 25 10:47:52 EDT 2013
User: price-jones
Dark Spectrum Present: No
Reference Spectrum Present: No
Number of Sampled Component Spectra: 1
Spectrometers: USB2+H05261
Integration Time (usec): 100000 (USB2+H05261)
Spectra Averaged: 1 (USB2+H05261)
Boxcar Smoothing: 0 (USB2+H05261)
Correct for Electrical Dark: No (USB2+H05261)
Strobe/Lamp Enabled: No (USB2+H05261)
Correct for Detector Non-linearity: No (USB2+H05261)
Correct for Stray Light: No (USB2+H05261)
Number of Pixels in Processed Spectrum: 2048
>>>>>Begin Processed Spectral Data<<<<<
365.73	77.24
365.92	77.24
366.12	77.24
366.32	0.00
366.52	84.26
366.72	39.79
366.91	37.45
367.11	58.51
367.31	0.00
367.51	91.28
367.70	25.75
367.90	95.96
368.10	63.19
368.30	133.41
368.49	37.45
368.69	65.54
368.89	53.83
369.09	51.49
369.28	18.72
369.48	44.47
369.68	70.22
369.87	100.64
370.07	124.05
370.27	180.22
370.47	147.45
370.66	327.68
370.86	383.85
371.06	451.72
371.25	472.79
371.45	425.98
371.65	470.45
371.84	500.87
372.04	482.15
372.24	461.09
372.44	517.26
372.63	528.96
372.83	557.05
373.03	463.43
373.22	524.28
373.42	461.09
373.62	507.90
373.81	507.90
374.01	564.07
374.21	507.90
374.40	559.39
374.60	554.71
374.79	484.49
374.99	540.66
375.19	643.65
375.38	636.63
375.58	645.99
375.78	580.45
375.97	540.66
376.17	610.88
376.37	561.73
376.56	660.03
376.76	540.66
376.95	540.66
377.15	676.41
377.35	608.54
377.54	578.11
377.74	571.09
377.93	603.86
378.13	648.33
378.33	641.31
378.52	638.97
378.72	653.01
378.91	566.41
379.11	641.31
379.31	692.80
379.50	662.37
379.70	645.99
379.89	732.59
380.09	620.24
380.28	641.31
380.48	608.54
380.68	575.77
380.87	657.69
381.07	699.82
381.26	638.97
381.46	636.63
381.65	655.35
381.85	631.94
382.04	697.48
382.24	713.86
382.43	704.50
382.63	638.97
382.83	734.93
383.02	758.33
383.22	758.33
383.41	617.90
383.61	706.84
383.80	730.25
384.00	802.80
384.19	716.20
384.39	723.23
384.58	819.19
384.78	688.12
384.97	795.78
385.17	681.10
385.36	765.36
385.56	805.14
385.75	781.74
385.95	772.38
386.14	779.40
386.34	786.42
386.53	826.21
386.72	814.51
386.92	823.87
387.11	798.12
387.31	791.10
387.50	716.20
387.70	809.83
387.89	844.93
388.09	809.83
388.28	847.27
388.48	833.23
388.67	931.53
388.86	863.66
389.06	915.15
389.25	896.43
389.45	884.72
389.64	870.68
389.84	861.32
390.03	919.83
390.22	908.13
390.42	912.81
390.61	889.40
390.81	882.38
391.00	985.37
391.19	1032.18
391.39	952.60
391.58	926.85
391.78	1004.09
391.97	945.58
392.16	966.64
392.36	924.51
392.55	1048.56
392.75	999.41
392.94	1015.79
393.13	1020.47
393.33	889.40
393.52	1008.77
393.71	1086.01
393.91	1104.73
394.10	999.41
394.29	1086.01
394.49	1060.26
394.68	1149.20
394.88	1078.99
395.07	1200.69
395.26	1114.10
395.46	1062.60
395.65	1153.88
395.84	1107.07
396.04	1156.22
396.23	1125.80
396.42	1107.07
396.62	1132.82
396.81	1200.69
397.00	1149.20
397.19	1146.86
397.39	1160.91
397.58	1228.78
397.77	1191.33
397.97	1193.67
398.16	1256.87
398.35	1284.95
398.55	1296.66
398.74	1308.36
398.93	1413.68
399.12	1322.40
399.32	1345.81
399.51	1434.75
399.70	1409.00
399.90	1320.06
400.09	1397.30
400.28	1493.26
400.47	1394.96
400.67	1448.79
400.86	1451.13
401.05	1397.30
401.24	1444.11
401.44	1439.43
401.63	1493.26
401.82	1540.07
402.01	1413.68
402.21	1516.67
402.40	1453.47
402.59	1584.54
402.78	1519.01
402.97	1535.39
403.17	1636.03
403.36	1554.12
403.55	1582.20
403.74	1600.93
403.93	1617.31
404.13	1675.82
404.32	1696.89
404.51	1699.23
404.70	1778.81
404.89	1530.71
405.09	1682.85
405.28	1715.61
405.47	1762.42
405.66	1729.66
405.85	1727.32
406.05	1764.76
406.24	1820.94
406.43	1736.68
406.62	1724.97
406.81	1888.81
407.00	1900.52
407.20	1818.60
407.39	1907.54
407.58	1863.07
407.77	1912.22
407.96	1923.92
408.15	1966.05
408.34	1952.01
408.54	1998.82
408.73	2036.27
408.92	2122.87
409.11	1996.48
409.30	2080.74
409.49	2031.58
409.68	1968.39
409.87	1947.33
410.07	2118.18
410.26	2143.93
410.45	2040.95
410.64	2113.50
410.83	2235.21
411.02	2087.76
411.21	2239.89
411.40	2235.21
411.59	2200.10
411.78	2270.32
411.98	2303.09
412.17	2218.83
412.36	2408.41
412.55	2352.24
412.74	2370.96
412.93	2497.35
413.12	2385.01
413.31	2520.76
413.50	2443.52
413.69	2560.55
413.88	2626.08
414.07	2635.44
414.26	2668.21
414.45	2595.65
414.64	2700.98
414.83	2621.40
415.02	2663.53
415.22	2752.47
415.41	2782.90
415.60	2771.19
415.79	2789.92
415.98	2857.79
416.17	2768.85
416.36	2768.85
416.55	2829.71
416.74	2843.75
416.93	2820.35
417.12	2939.71
417.31	2871.84
417.50	2871.84
417.69	3129.30
417.88	2951.42
418.07	3045.04
418.26	3014.61
418.45	3066.10
418.64	3157.38
418.83	3126.96
419.02	2986.52
419.21	3136.32
419.39	3157.38
419.58	3178.45
419.77	3082.49
419.96	3321.22
420.15	3225.26
420.34	3267.39
420.53	3314.20
420.72	3332.92
420.91	3321.22
421.10	3435.91
421.29	3382.07
421.48	3426.54
421.67	3412.50
421.86	3400.80
422.05	3513.14
422.24	3314.20
422.43	3398.46
422.61	3492.08
422.80	3438.25
422.99	3538.89
423.18	3644.21
423.37	3562.30
423.56	3545.91
423.75	3485.06
423.94	3391.44
424.13	3251.00
424.32	3349.31
424.50	3536.55
424.69	3456.97
424.88	3520.17
425.07	3517.83
425.26	3438.25
425.45	3590.38
425.64	3473.36
425.83	3569.32
426.01	3609.11
426.20	3662.94
426.39	3602.08
426.58	3548.25
426.77	3485.06
426.96	3623.15
427.15	3588.04
427.33	3641.87
427.52	3632.51
427.71	3660.60
427.90	3705.07
428.09	3728.47
428.28	3770.60
428.46	3705.07
428.65	3681.66
428.84	3915.72
429.03	3822.09
429.22	3728.47
429.40	3882.95
429.59	3911.04
429.78	3747.20
429.97	3665.28
430.16	3868.91
430.34	3798.69
430.53	3817.41
430.72	3943.80
430.91	3847.84
431.10	3955.51
431.28	3999.98
431.47	4056.15
431.66	4124.02
431.85	4053.81
432.03	3997.64
432.22	4301.90
432.41	4053.81
432.60	4191.90
432.79	4203.60
432.97	4341.69
433.16	4227.01
433.35	4290.20
433.54	4236.37
433.72	4255.09
433.91	4205.94
434.10	4367.44
434.28	4301.90
434.47	4248.07
434.66	4381.48
434.85	4388.50
435.03	4472.76
435.22	4432.97
435.41	4512.55
435.59	4428.29
435.78	4564.04
435.97	4681.07
436.16	4507.87
436.34	4456.38
436.53	4353.40
436.72	4720.86
436.90	4500.85
437.09	4648.30
437.28	4367.44
437.46	4648.30
437.65	4739.58
437.84	4767.67
438.02	4683.41
438.21	4638.94
438.40	4559.36
438.58	4662.35
438.77	4975.98
438.96	4861.29
439.14	4901.08
439.33	4973.64
439.52	5064.92
439.70	5088.32
439.89	5186.63
440.08	5210.03
440.26	5139.82
440.45	5081.30
440.63	5305.99
440.82	5327.06
441.01	5362.17
441.19	5226.42
441.38	5439.40
441.57	5207.69
441.75	5472.17
441.94	5584.52
442.12	5549.41
442.31	5741.33
442.50	5699.20
442.68	5600.90
442.87	5614.95
443.05	5589.20
443.24	5795.17
443.43	5790.49
443.61	5755.38
443.80	5865.38
443.98	5727.29
444.17	5673.46
444.35	5984.75
444.54	5844.32
444.73	5743.67
444.91	5762.40
445.10	5647.71
445.28	5757.72
445.47	5776.44
445.65	5753.04
445.84	5877.09
446.02	5919.21
446.21	5933.26
446.39	5996.45
446.58	5860.70
446.77	6022.20
446.95	5797.51
447.14	5900.49
447.32	5832.62
447.51	5895.81
447.69	5858.36
447.88	5818.57
448.06	5900.49
448.25	5916.87
448.43	5961.34
448.62	6024.54
448.80	5949.64
448.99	6120.50
449.17	5930.92
449.36	6106.46
449.54	6221.14
449.73	6396.68
449.91	6326.47
450.10	6176.67
450.28	6249.23
450.46	6392.00
450.65	6321.79
450.83	6314.77
451.02	6282.00
451.20	6483.28
451.39	6394.34
451.57	6424.77
451.76	6448.18
451.94	6478.60
452.13	6445.84
452.31	6333.49
452.49	6485.62
452.68	6560.52
452.86	6551.16
453.05	6567.54
453.23	6609.67
453.42	6506.69
453.60	6586.27
453.78	6441.15
453.97	6511.37
454.15	6647.12
454.34	6679.89
454.52	6740.74
454.70	6729.04
454.89	6710.32
455.07	6752.45
455.26	6754.79
455.44	6787.55
455.62	6911.60
455.81	6871.81
455.99	6946.71
456.17	6981.82
456.36	6984.16
456.54	7138.63
456.73	7258.00
456.91	7414.82
457.09	7211.19
457.28	7400.77
457.46	7178.42
457.64	7379.71
457.83	7290.77
458.01	7236.94
458.19	7311.83
458.38	7281.41
458.56	7531.84
458.74	7440.56
458.93	7363.33
459.11	7412.48
459.29	7428.86
459.48	7321.20
459.66	7559.93
459.84	7356.30
460.03	7595.04
460.21	7489.71
460.39	7709.72
460.57	7698.02
460.76	7581.00
460.94	7609.08
461.12	7709.72
461.31	7634.83
461.49	7880.58
461.67	7829.09
461.85	7960.16
462.04	7730.79
462.22	8526.57
462.40	8004.63
462.59	7911.01
462.77	7868.88
462.95	7964.84
463.13	7929.74
463.32	7873.56
463.50	8198.90
463.68	8018.68
463.86	8037.40
464.05	8060.80
464.23	7957.82
464.41	8266.77
464.59	8046.76
464.78	8107.62
464.96	8210.60
465.14	8135.70
465.32	8025.70
465.50	8332.31
465.69	8351.03
465.87	8215.28
466.05	8482.10
466.23	8154.43
466.41	8491.46
466.60	8500.83
466.78	8425.93
466.96	8280.82
467.14	8386.14
467.32	8587.43
467.51	8564.02
467.69	8449.33
467.87	8451.67
468.05	8549.98
468.23	8580.40
468.41	8456.36
468.60	8652.96
468.78	8580.40
468.96	8587.43
469.14	8809.78
469.32	8936.17
469.50	8608.49
469.69	8819.14
469.87	8966.59
470.05	8858.93
470.23	8889.35
470.41	9092.98
470.59	9078.94
470.77	9085.96
470.95	9186.60
471.14	9153.84
471.32	8894.04
471.50	9263.84
471.68	9181.92
471.86	9284.91
472.04	9334.06
472.22	9439.38
472.40	9198.31
472.58	9238.09
472.77	9481.51
472.95	9535.34
473.13	9865.36
473.31	9490.87
473.49	9373.85
473.67	9544.70
473.85	9465.13
474.03	9949.62
474.21	9963.66
474.39	9881.74
474.57	9937.91
474.75	9706.20
474.93	10090.05
475.12	10122.82
475.30	10307.72
475.48	9980.04
475.66	10284.31
475.84	10031.54
476.02	10232.82
476.20	10338.15
476.38	10422.41
476.56	10796.89
476.74	10604.97
476.92	10628.37
477.10	10597.95
477.28	10857.75
477.46	10841.36
477.64	10864.77
477.82	11384.37
478.00	11328.19
478.18	11367.98
478.36	11461.60
478.54	11463.94
478.72	11520.12
478.90	11698.00
479.08	11728.42
479.26	11929.71
479.44	11749.49
479.62	12098.23
479.80	11833.75
479.98	11988.22
480.16	12238.66
480.34	12245.68
480.52	12589.74
480.70	12020.99
480.88	12283.13
481.06	12622.51
481.24	12482.08
481.41	12505.48
481.59	13006.36
481.77	12877.63
481.95	13020.40
482.13	13331.69
482.31	13336.37
482.49	13362.12
482.67	13556.38
482.85	13568.09
483.03	13757.67
483.21	13778.73
483.39	13738.94
483.57	13954.27
483.74	14246.84
483.92	14200.03
484.10	13818.52
484.28	14303.01
484.46	14602.60
484.64	14934.96
484.82	14661.12
485.00	14602.60
485.18	14979.43
485.35	15260.29
485.53	14958.36
485.71	14949.00
485.89	15302.42
486.07	15250.93
486.25	15300.08
486.43	15499.03
486.61	15564.56
486.78	15899.26
486.96	16119.27
487.14	16311.19
487.32	16182.46
487.50	16262.04
487.68	16262.04
487.85	16861.22
488.03	16830.79
488.21	17202.94
488.39	16903.35
488.57	17114.00
488.75	17132.72
488.92	17366.78
489.10	17418.27
489.28	17628.92
489.46	17769.35
489.64	17778.71
489.81	18499.59
489.99	18209.37
490.17	18347.46
490.35	18668.11
490.53	18567.47
490.70	18558.11
490.88	18766.42
491.06	18939.62
491.24	18991.11
491.41	19370.27
491.59	18937.27
491.77	18925.57
491.95	19391.34
492.13	19620.71
492.30	19892.21
492.48	19742.42
492.66	19899.23
492.84	20144.99
493.01	20119.24
493.19	20065.41
493.37	20486.71
493.54	20493.73
493.72	20788.64
493.90	20954.82
494.08	21006.31
494.25	21247.38
494.43	21284.83
494.61	21238.02
494.79	21153.76
494.96	21296.53
495.14	21703.79
495.32	21654.64
495.49	21645.27
495.67	21633.57
495.85	21722.51
496.02	21979.97
496.20	22387.22
496.38	22387.22
496.55	22668.09
496.73	22696.17
496.91	22820.22
497.09	22909.16
497.26	23096.41
497.44	22878.74
497.62	23318.76
497.79	23150.24
497.97	23065.98
498.14	23538.77
498.32	23798.57
498.50	23843.04
498.67	23946.02
498.85	23854.74
499.03	24119.22
499.20	24173.05
499.38	23803.25
499.56	24538.18
499.73	24266.67
499.91	24063.05
500.08	24713.72
500.26	24599.03
500.44	24493.71
500.61	24479.66
500.79	24247.95
500.97	24968.84
501.14	25088.20
501.32	25022.67
501.49	25034.37
501.67	25240.34
501.84	25188.85
502.02	25095.22
502.20	25509.50
502.37	25577.37
502.55	25516.52
502.72	25956.54
502.90	25645.25
503.07	25785.68
503.25	26291.24
503.43	25900.37
503.60	26103.99
503.78	26155.49
503.95	26111.02
504.13	26359.11
504.30	26457.42
504.48	26534.65
504.65	26822.54
504.83	27000.42
505.01	27005.10
505.18	26874.03
505.36	27157.24
505.53	27002.76
505.71	27608.96
505.88	27276.60
506.06	26864.67
506.23	27461.51
506.41	27276.60
506.58	27494.27
506.76	27513.00
506.93	27527.04
507.11	27845.35
507.28	27765.78
507.46	27997.49
507.63	27962.38
507.81	28362.61
507.98	27938.97
508.16	28276.01
508.33	28149.62
508.50	27950.68
508.68	28573.26
508.85	28814.34
509.03	28659.86
509.20	28554.54
509.38	28929.02
509.55	28975.83
509.73	29207.55
509.90	29113.92
510.08	29109.24
510.25	29607.78
510.42	28774.55
510.60	29399.47
510.77	29745.87
510.95	29565.65
511.12	29294.14
511.30	29909.71
511.47	29804.38
511.64	30389.52
511.82	30005.67
511.99	29626.50
512.17	30085.25
512.34	29773.95
512.51	30127.38
512.69	30609.53
512.86	30380.15
513.04	30438.67
513.21	30457.39
513.38	30539.31
513.56	30579.10
513.73	30974.65
513.90	30654.00
514.08	30661.02
514.25	30775.70
514.43	31367.86
514.60	31262.54
514.77	31145.51
514.95	31360.84
515.12	31129.12
515.29	31115.08
515.47	31407.65
515.64	31740.00
515.81	31243.81
515.99	31435.74
516.16	31594.89
516.33	31512.97
516.51	31440.42
516.68	31658.09
516.85	31108.06
517.03	31311.69
517.20	31519.99
517.37	31442.76
517.54	32194.07
517.72	32170.66
517.89	31931.93
518.06	32156.62
518.24	31690.85
518.41	32353.23
518.58	32067.68
518.75	32332.16
518.93	32666.86
519.10	32521.74
519.27	33055.39
519.45	32823.67
519.62	32739.41
519.79	32917.29
519.96	33151.35
520.14	33020.28
520.31	33006.23
520.48	33600.73
520.65	33385.40
520.83	32818.99
521.00	33441.57
521.17	33486.04
521.34	33799.68
521.52	33244.97
521.69	33631.16
521.86	34040.75
522.03	33907.34
522.20	34073.52
522.38	33961.17
522.55	34335.66
522.72	34019.69
522.89	33865.21
523.07	33907.34
523.24	34169.48
523.41	34555.67
523.58	34127.35
523.75	34548.65
523.92	34422.26
524.10	34466.73
524.27	34483.11
524.44	34618.86
524.61	35084.63
524.78	34920.79
524.96	35063.57
525.13	35384.22
525.30	35620.61
525.47	35592.53
525.64	35206.34
525.81	35573.80
525.98	35199.32
526.16	35367.84
526.33	35117.40
526.50	35768.07
526.67	35227.40
526.84	35505.93
527.01	35311.66
527.18	35805.52
527.36	36030.21
527.53	35697.85
527.70	35828.92
527.87	35896.80
528.04	35697.85
528.21	35974.03
528.38	35857.01
528.55	36458.52
528.72	36243.20
528.89	36460.87
529.07	36575.55
529.24	36030.21
529.41	36479.59
529.58	36163.62
529.75	36594.28
529.92	36320.43
530.09	36961.74
530.26	37244.94
530.43	36863.44
530.60	36933.65
530.77	36718.32
530.94	36919.61
531.11	36938.33
531.28	37153.66
531.46	37125.58
531.63	37095.15
531.80	37095.15
531.97	37422.83
532.14	36856.42
532.31	37106.85
532.48	37509.43
532.65	37483.68
532.82	37207.50
532.99	37436.87
533.16	37558.58
533.33	37420.48
533.50	38174.14
533.67	37907.32
533.84	37383.04
534.01	37801.99
534.18	37579.64
534.35	38176.48
534.52	38122.65
534.69	38188.18
534.86	38183.50
535.03	37750.50
535.20	38099.24
535.37	38525.22
535.54	38637.56
535.71	38298.19
535.88	38265.42
536.05	38298.19
536.22	38377.76
536.38	38567.35
536.55	38745.23
536.72	38279.46
536.89	38204.56
537.06	37928.38
537.23	38600.12
537.40	38693.74
537.57	38506.49
537.74	38897.36
537.91	39199.29
538.08	38752.25
538.25	38557.99
538.42	38897.36
538.59	39210.99
538.75	38871.62
538.92	38632.88
539.09	39234.40
539.26	39033.11
539.43	38841.19
539.60	39431.01
539.77	39023.75
539.94	39428.66
540.11	38990.98
540.28	39250.78
540.44	39463.77
540.61	39423.98
540.78	39545.69
540.95	39304.62
541.12	39510.58
541.29	39299.94
541.46	39241.42
541.62	39480.16
541.79	39913.16
541.96	39356.11
542.13	39564.42
542.30	39754.00
542.47	40016.14
542.63	39908.47
542.80	39807.83
542.97	40561.48
543.14	40535.74
543.31	40378.92
543.48	40641.06
543.64	40720.64
543.81	41045.97
543.98	40601.27
544.15	40662.13
544.32	40762.77
544.48	40708.94
544.65	40463.18
544.82	40610.64
544.99	40126.14
545.16	40957.03
545.32	40495.95
545.49	41195.77
545.66	41280.03
545.83	40900.86
546.00	41006.19
546.16	40994.48
546.33	40706.60
546.50	40421.05
546.67	40954.69
546.83	40765.11
547.00	41097.47
547.17	40961.72
547.34	40914.90
547.50	41624.09
547.67	41247.26
547.84	41254.28
548.00	41469.61
548.17	41581.96
548.34	41876.86
548.51	41607.70
548.67	41457.91
548.84	41591.32
549.01	41226.20
549.18	41687.28
549.34	41621.75
549.51	41872.18
549.68	41940.06
549.84	41911.97
550.01	42052.41
550.18	41956.44
550.34	41926.02
550.51	42040.70
550.68	41455.57
550.84	41684.94
551.01	41837.08
551.18	41542.17
551.34	42031.34
551.51	41691.96
551.68	42204.54
551.84	42169.43
552.01	41921.34
552.18	42550.94
552.34	42106.24
552.51	42373.06
552.68	42443.27
552.84	42380.08
553.01	42333.27
553.18	42653.92
553.34	42260.71
553.51	41968.15
553.67	42740.52
553.84	42457.32
554.01	42443.27
554.17	42857.55
554.34	42920.74
554.51	42768.61
554.67	43054.15
554.84	42581.37
555.00	42216.24
555.17	42344.97
555.33	42340.29
555.50	42656.26
555.67	42288.80
555.83	42431.57
556.00	42913.72
556.16	43007.34
556.33	43012.02
556.50	42848.19
556.66	42897.34
556.83	42845.85
556.99	43005.00
557.16	43152.46
557.32	43110.33
557.49	42923.08
557.65	42836.48
557.82	43117.35
557.98	42761.59
558.15	42904.36
558.32	43452.05
558.48	43297.57
558.65	43253.10
558.81	42990.96
558.98	43482.47
559.14	43152.46
559.31	42951.17
559.47	42932.45
559.64	43873.34
559.80	43658.01
559.97	43627.59
560.13	43115.01
560.30	43386.51
560.46	43344.38
560.63	43119.69
560.79	43580.78
560.96	43508.22
561.12	43400.55
561.29	43154.80
561.45	43578.43
561.61	43566.73
561.78	43695.46
561.94	43342.04
562.11	43990.37
562.27	43732.91
562.44	43681.42
562.60	43842.92
562.77	44524.01
562.93	43761.00
563.10	43615.88
563.26	43606.52
563.42	43529.28
563.59	43768.02
563.75	43770.36
563.92	43711.84
564.08	44102.71
564.24	43650.99
564.41	43894.41
564.57	43983.35
564.74	43800.79
564.90	43896.75
565.07	43751.63
565.23	44119.10
565.39	43817.17
565.56	43835.89
565.72	43988.03
565.88	44027.82
566.05	43807.81
566.21	43716.53
566.38	43948.24
566.54	44030.16
566.70	44065.27
566.87	44175.27
567.03	43761.00
567.19	44154.21
567.36	44137.82
567.52	43938.88
567.68	44339.11
567.85	43775.04
568.01	44147.18
568.17	44184.63
568.34	44381.24
568.50	44158.89
568.66	44357.83
568.83	44020.80
568.99	44210.38
569.15	43735.25
569.32	43924.83
569.48	43924.83
569.64	44460.82
569.81	44158.89
569.97	44261.87
570.13	44170.59
570.30	43922.49
570.46	44055.90
570.62	43981.01
570.78	44236.12
570.95	43847.60
571.11	44538.05
571.27	44222.08
571.43	44020.80
571.60	44327.41
571.76	44486.56
571.92	44343.79
572.09	43899.09
572.25	44800.19
572.41	44240.81
572.57	44458.48
572.74	44765.09
572.90	44664.44
573.06	44404.64
573.22	44313.36
573.38	44327.41
573.55	44088.67
573.71	44631.68
573.87	44463.16
574.03	44112.08
574.20	44306.34
574.36	44479.54
574.52	44428.05
574.68	44219.74
574.84	44367.20
575.01	44196.34
575.17	43992.71
575.33	44264.21
575.49	44240.81
575.65	44704.23
575.82	44968.71
575.98	44374.22
576.14	44830.62
576.30	44285.28
576.46	44369.54
576.62	43901.43
576.79	44069.95
576.95	44002.07
577.11	44395.28
577.27	44711.25
577.43	44638.70
577.59	44299.32
577.75	44414.01
577.92	44385.92
578.08	44439.75
578.24	43704.82
578.40	44287.62
578.56	44912.54
578.72	44133.14
578.88	44519.33
579.04	44477.20
579.21	44467.84
579.37	44018.46
579.53	44725.30
579.69	44481.88
579.85	44404.64
580.01	44966.37
580.17	44765.09
580.33	44535.71
580.49	44580.18
580.65	44692.53
580.82	44577.84
580.98	44509.97
581.14	44079.31
581.30	44624.65
581.46	44479.54
581.62	44587.21
581.78	44243.15
581.94	44879.77
582.10	44409.32
582.26	45076.38
582.42	44430.39
582.58	44680.83
582.74	44451.45
582.90	44685.51
583.06	44584.86
583.22	44788.49
583.38	44744.02
583.54	44898.50
583.70	44648.06
583.86	44374.22
584.02	44683.17
584.18	44989.78
584.34	45106.80
584.50	44587.21
584.66	44453.79
584.82	44343.79
584.98	44603.59
585.14	44769.77
585.30	44886.79
585.46	44580.18
585.62	44641.04
585.78	44598.91
585.94	44098.03
586.10	44582.52
586.26	44615.29
586.42	44851.69
586.58	44938.29
586.74	45076.38
586.90	44383.58
587.06	44402.30
587.22	45057.65
587.38	44582.52
587.54	45263.62
587.70	45141.91
587.86	44949.99
588.02	44711.25
588.18	44891.48
588.34	44271.23
588.49	44690.19
588.65	44645.72
588.81	44467.84
588.97	44329.75
589.13	44577.84
589.29	44397.62
589.45	44755.72
589.61	45099.78
589.77	44634.02
589.93	44844.66
590.08	45202.77
590.24	44985.10
