SpectraSuite Data File
++++++++++++++++++++++++++++++++++++
Date: Fri Oct 25 11:25:12 EDT 2013
User: price-jones
Dark Spectrum Present: No
Reference Spectrum Present: No
Number of Sampled Component Spectra: 1
Spectrometers: USB2+H05261
Integration Time (usec): 100000 (USB2+H05261)
Spectra Averaged: 1 (USB2+H05261)
Boxcar Smoothing: 0 (USB2+H05261)
Correct for Electrical Dark: No (USB2+H05261)
Strobe/Lamp Enabled: No (USB2+H05261)
Correct for Detector Non-linearity: No (USB2+H05261)
Correct for Stray Light: No (USB2+H05261)
Number of Pixels in Processed Spectrum: 2048
>>>>>Begin Processed Spectral Data<<<<<
365.73	184.90
365.92	184.90
366.12	184.90
366.32	194.26
366.52	156.82
366.72	161.50
366.91	86.60
367.11	182.56
367.31	135.75
367.51	156.82
367.70	119.37
367.90	102.98
368.10	114.69
368.30	117.03
368.49	119.37
368.69	156.82
368.89	163.84
369.09	142.77
369.28	131.07
369.48	161.50
369.68	140.43
369.87	210.65
370.07	273.84
370.27	250.44
370.47	315.97
370.66	545.34
370.86	580.45
371.06	669.39
371.25	725.57
371.45	713.86
371.65	695.14
371.84	725.57
372.04	669.39
372.24	688.12
372.44	720.88
372.63	793.44
372.83	767.70
373.03	678.76
373.22	777.06
373.42	788.76
373.62	760.67
373.81	767.70
374.01	833.23
374.21	828.55
374.40	791.10
374.60	716.20
374.79	781.74
374.99	884.72
375.19	830.89
375.38	901.11
375.58	924.51
375.78	877.70
375.97	891.74
376.17	919.83
376.37	887.06
376.56	887.06
376.76	868.34
376.95	826.21
377.15	933.87
377.35	936.21
377.54	884.72
377.74	875.36
377.93	870.68
378.13	898.77
378.33	947.92
378.52	964.30
378.72	957.28
378.91	910.47
379.11	809.83
379.31	983.02
379.50	903.45
379.70	964.30
379.89	968.98
380.09	915.15
380.28	933.87
380.48	882.38
380.68	978.34
380.87	978.34
381.07	976.00
381.26	1097.71
381.46	1032.18
381.65	1088.35
381.85	1125.80
382.04	1036.86
382.24	1055.58
382.43	1015.79
382.63	943.24
382.83	1074.31
383.02	1097.71
383.22	1095.37
383.41	1053.24
383.61	1090.69
383.80	1114.10
384.00	1205.38
384.19	1116.44
384.39	1181.97
384.58	1177.29
384.78	1198.35
384.97	1181.97
385.17	1184.31
385.36	1095.37
385.56	1118.78
385.75	1221.76
385.95	1233.46
386.14	1163.25
386.34	1191.33
386.53	1125.80
386.72	1242.82
386.92	1263.89
387.11	1214.74
387.31	1135.16
387.50	1228.78
387.70	1181.97
387.89	1268.57
388.09	1306.02
388.28	1221.76
388.48	1306.02
388.67	1369.21
388.86	1341.13
389.06	1390.28
389.25	1334.11
389.45	1362.19
389.64	1303.68
389.84	1261.55
390.03	1390.28
390.22	1406.66
390.42	1329.42
390.61	1352.83
390.81	1341.13
391.00	1380.92
391.19	1434.75
391.39	1460.49
391.58	1481.56
391.78	1535.39
391.97	1430.07
392.16	1526.03
392.36	1598.59
392.55	1523.69
392.75	1533.05
392.94	1514.33
393.13	1469.86
393.33	1528.37
393.52	1481.56
393.71	1636.03
393.91	1584.54
394.10	1671.14
394.29	1631.35
394.49	1596.25
394.68	1617.31
394.88	1603.27
395.07	1675.82
395.26	1565.82
395.46	1675.82
395.65	1650.08
395.84	1647.74
396.04	1797.53
396.23	1762.42
396.42	1619.65
396.62	1717.95
396.81	1664.12
397.00	1736.68
397.19	1825.62
397.39	1783.49
397.58	1790.51
397.77	1823.28
397.97	1788.17
398.16	1884.13
398.35	1933.28
398.55	1767.10
398.74	1935.62
398.93	1916.90
399.12	2062.01
399.32	1895.83
399.51	1858.39
399.70	2019.88
399.90	1846.68
400.09	2003.50
400.28	2073.71
400.47	2045.63
400.67	2111.16
400.86	2101.80
401.05	2033.93
401.24	2062.01
401.44	2148.61
401.63	2052.65
401.82	2167.34
402.01	2113.50
402.21	2211.81
402.40	2244.57
402.59	2270.32
402.78	2197.76
402.97	2190.74
403.17	2115.84
403.36	2211.81
403.55	2202.44
403.74	2382.67
403.93	2244.57
404.13	2380.32
404.32	2363.94
404.51	2345.22
404.70	2478.63
404.89	2272.66
405.09	2476.29
405.28	2445.86
405.47	2457.56
405.66	2476.29
405.85	2492.67
406.05	2546.50
406.24	2509.05
406.43	2590.97
406.62	2654.17
406.81	2626.08
407.00	2614.38
407.20	2588.63
407.39	2682.25
407.58	2696.30
407.77	2553.52
407.96	2782.90
408.15	2691.62
408.34	2871.84
408.54	2913.97
408.73	2649.49
408.92	2839.07
409.11	2766.51
409.30	2904.60
409.49	2836.73
409.68	2972.48
409.87	2892.90
410.07	2885.88
410.26	2993.55
410.45	2906.95
410.64	2995.89
410.83	2970.14
411.02	3033.33
411.21	3091.85
411.40	3112.91
411.59	3157.38
411.78	3206.53
411.98	3145.68
412.17	3178.45
412.36	3356.33
412.55	3435.91
412.74	3349.31
412.93	3403.14
413.12	3241.64
413.31	3534.21
413.50	3414.84
413.69	3426.54
413.88	3574.00
414.07	3520.17
414.26	3653.58
414.45	3655.92
414.64	3655.92
414.83	3592.72
415.02	3765.92
415.22	3857.20
415.41	3878.27
415.60	3782.31
415.79	3857.20
415.98	3861.88
416.17	3934.44
416.36	3985.93
416.55	3854.86
416.74	4081.89
416.93	4084.23
417.12	4105.30
417.31	4081.89
417.50	4114.66
417.69	4287.86
417.88	4145.09
418.07	4138.07
418.26	4353.40
418.45	4255.09
418.64	4393.19
418.83	4346.37
419.02	4416.59
419.21	4465.74
419.39	4428.29
419.58	4510.21
419.77	4418.93
419.96	4566.39
420.15	4528.94
420.34	4493.83
420.53	4521.92
420.72	4540.64
420.91	4667.03
421.10	4578.09
421.29	4770.01
421.48	4650.64
421.67	4755.97
421.86	4678.73
422.05	4805.12
422.24	4793.42
422.43	4716.18
422.61	4861.29
422.80	4840.23
422.99	5015.77
423.18	4819.16
423.37	4961.94
423.56	4690.43
423.75	4861.29
423.94	4858.95
424.13	4596.81
424.32	4823.84
424.50	4903.42
424.69	5074.28
424.88	5191.31
425.07	4880.02
425.26	4802.78
425.45	4910.44
425.64	4887.04
425.83	4826.18
426.01	5004.07
426.20	4973.64
426.39	5193.65
426.58	4999.38
426.77	5034.49
426.96	5043.85
427.15	5074.28
427.33	5118.75
427.52	5095.35
427.71	5151.52
427.90	5039.17
428.09	5111.73
428.28	5273.23
428.46	5446.43
428.65	5165.56
428.84	5364.51
429.03	5565.79
429.22	5334.08
429.40	5245.14
429.59	5373.87
429.78	5214.71
429.97	5224.08
430.16	5397.28
430.34	5526.00
430.53	5500.26
430.72	5680.48
430.91	5619.63
431.10	5558.77
431.28	5959.00
431.47	5823.25
431.66	5813.89
431.85	5781.12
432.03	5788.14
432.22	5970.71
432.41	5851.34
432.60	5921.56
432.79	5797.51
432.97	5980.07
433.16	5921.56
433.35	6029.22
433.54	5987.09
433.72	6167.31
433.91	6015.18
434.10	6064.33
434.28	6017.52
434.47	6324.13
434.66	6289.02
434.85	6211.78
435.03	6396.68
435.22	6174.33
435.41	6504.35
435.59	6354.55
435.78	6326.47
435.97	6574.56
436.16	6469.24
436.34	6420.09
436.53	6441.15
436.72	6567.54
436.90	6415.41
437.09	6764.15
437.28	6352.21
437.46	6637.76
437.65	6555.84
437.84	6569.88
438.02	6483.28
438.21	6691.59
438.40	6581.59
438.58	6897.56
438.77	7080.12
438.96	7009.90
439.14	7082.46
439.33	7129.27
439.52	7258.00
439.70	7173.74
439.89	7258.00
440.08	7276.73
440.26	7129.27
440.45	7204.17
440.63	7452.27
440.82	7566.95
441.01	7503.76
441.19	7564.61
441.38	7620.78
441.57	7618.44
441.75	7534.18
441.94	7946.12
442.12	7953.14
442.31	8126.34
442.50	7971.86
442.68	7911.01
442.87	8056.12
443.05	8053.78
443.24	8402.52
443.43	8145.06
443.61	8070.17
443.80	8187.19
443.98	7999.95
444.17	7737.81
444.35	8210.60
444.54	8400.18
444.73	8290.18
444.91	8182.51
445.10	8138.04
445.28	8297.20
445.47	8175.49
445.65	8243.37
445.84	8318.26
446.02	8327.63
446.21	8531.25
446.39	8360.39
446.58	8388.48
446.77	8503.17
446.95	8175.49
447.14	8173.15
447.32	8557.00
447.51	8327.63
447.69	8306.56
447.88	8313.58
448.06	8444.65
448.25	8596.79
448.43	8468.06
448.62	8678.71
448.80	8643.60
448.99	8655.30
449.17	8571.04
449.36	8669.34
449.54	8737.22
449.73	8894.04
449.91	8777.01
450.10	8872.97
450.28	8917.44
450.46	9074.26
450.65	8865.95
450.83	8753.60
451.02	9036.81
451.20	9287.25
451.39	9055.53
451.57	9165.54
451.76	9050.85
451.94	9317.67
452.13	9263.84
452.31	9142.13
452.49	9036.81
452.68	9179.58
452.86	9240.44
453.05	9275.54
453.23	9472.15
453.42	9312.99
453.60	9202.99
453.78	9617.26
453.97	9401.93
454.15	9418.32
454.34	9474.49
454.52	9528.32
454.70	9830.25
454.89	9645.35
455.07	9727.27
455.26	9731.95
455.44	9760.03
455.62	9797.48
455.81	9806.84
455.99	9795.14
456.17	9809.19
456.36	10125.16
456.54	10059.62
456.73	10207.08
456.91	10504.32
457.09	10328.78
457.28	10604.97
457.46	10324.10
457.64	10583.90
457.83	10473.90
458.01	10190.69
458.19	10616.67
458.38	10443.47
458.56	10820.30
458.74	10537.09
458.93	10356.87
459.11	10696.25
459.29	10569.86
459.48	10906.90
459.66	10658.80
459.84	10965.41
460.03	11169.04
460.21	10876.47
460.39	10766.46
460.57	10862.43
460.76	11047.33
460.94	10972.43
461.12	11241.59
461.31	11044.99
461.49	11042.65
461.67	11243.93
461.85	11288.40
462.04	11190.10
462.22	11892.26
462.40	11400.75
462.59	11410.11
462.77	11592.67
462.95	11410.11
463.13	11683.95
463.32	11632.46
463.50	11714.38
463.68	11796.30
463.86	11894.60
464.05	11606.72
464.23	11489.69
464.41	11843.11
464.59	11536.50
464.78	12044.40
464.96	11899.28
465.14	11573.95
465.32	12046.74
465.50	12131.00
465.69	12067.80
465.87	12133.34
466.05	11983.54
466.23	12112.27
466.41	12114.61
466.60	12121.63
466.78	12004.61
466.96	12079.50
467.14	12095.89
467.32	12341.64
467.51	12400.16
467.69	12095.89
467.87	12416.54
468.05	12428.24
468.23	12339.30
468.41	12451.65
468.60	12217.60
468.78	12690.38
468.96	12510.16
469.14	12865.92
469.32	12702.09
469.50	12510.16
469.69	12807.41
469.87	13231.05
470.05	13036.78
470.23	13221.69
470.41	12945.50
470.59	13256.79
470.77	12929.12
470.95	13282.54
471.14	13607.87
471.32	13221.69
471.50	13516.59
471.68	13631.28
471.86	13380.84
472.04	13666.39
472.22	14146.20
472.40	13373.82
472.58	13626.60
472.77	13706.18
472.95	14075.98
473.13	14537.07
473.31	13790.44
473.49	14099.39
473.67	13898.10
473.85	14244.50
474.03	14478.55
474.21	14340.46
474.39	14949.00
474.57	14368.55
474.75	14642.39
474.93	14644.73
475.12	14923.26
475.30	14934.96
475.48	14792.19
475.66	15253.27
475.84	15019.22
476.02	15302.42
476.20	15517.75
476.38	15592.65
476.56	15943.73
476.74	15822.02
476.92	15957.77
477.10	15644.14
477.28	15948.41
477.46	16063.10
477.64	16184.80
477.82	16578.01
478.00	16755.90
478.18	16711.42
478.36	16566.31
478.54	16966.54
478.72	16987.61
478.90	17334.01
479.08	17371.46
479.26	17493.16
479.44	17598.49
479.62	17827.86
479.80	18059.57
479.98	18036.17
480.16	18567.47
480.34	17994.04
480.52	18415.34
480.70	18473.85
480.88	18258.52
481.06	18792.16
481.24	18593.22
481.41	18984.09
481.59	19084.73
481.77	19171.33
481.95	19126.86
482.13	19604.33
482.31	19538.79
482.49	19932.00
482.67	19908.60
482.85	19976.47
483.03	20526.50
483.21	20783.96
483.39	20849.49
483.57	20559.27
483.74	20688.00
483.92	21123.33
484.10	21139.72
484.28	21495.48
484.46	21635.91
484.64	22190.62
484.82	21827.84
485.00	22281.90
485.18	22537.02
485.35	22712.56
485.53	22822.56
485.71	22972.36
485.89	23040.23
486.07	23133.86
486.25	23377.27
486.43	23536.43
486.61	23454.51
486.78	23934.32
486.96	24329.87
487.14	24404.77
487.32	24500.73
487.50	25013.31
487.68	24694.99
487.85	25514.18
488.03	25179.48
488.21	25685.04
488.39	25446.30
488.57	25678.02
488.75	25921.43
488.92	25968.24
489.10	26518.27
489.28	26476.14
489.46	26951.27
489.64	27290.65
489.81	27365.54
489.99	27091.70
490.17	27419.38
490.35	27927.27
490.53	27922.59
490.70	28463.25
490.88	28437.51
491.06	28526.45
491.24	28404.74
491.41	28973.49
491.59	29462.66
491.77	29050.73
491.95	29476.71
492.13	29347.98
492.30	29570.33
492.48	29778.64
492.66	29823.11
492.84	30272.49
493.01	30136.74
493.19	30476.12
493.37	30698.47
493.54	31047.21
493.72	31454.46
493.90	30890.39
494.08	31552.76
494.25	31473.18
494.43	32009.17
494.61	31831.29
494.79	32163.64
494.96	32453.87
495.14	32538.13
495.32	33060.07
495.49	33401.79
495.67	32847.08
495.85	33305.82
496.02	33542.22
496.20	33427.53
496.38	33858.19
496.55	33858.19
496.73	34618.86
496.91	34398.85
497.09	34518.22
497.26	34955.90
497.44	34567.37
497.62	35065.91
497.79	35398.26
497.97	35314.00
498.14	36051.27
498.32	35814.88
498.50	36004.46
498.67	36514.70
498.85	36472.57
499.03	36865.78
499.20	36985.15
499.38	36982.80
499.56	37029.62
499.73	36999.19
499.91	36807.26
500.08	37280.05
500.26	37095.15
500.44	37890.93
500.61	37684.97
500.79	37443.89
500.97	37670.92
501.14	38052.43
501.32	38319.25
501.49	38103.92
501.67	38267.76
501.84	38749.91
502.02	38438.62
502.20	38415.21
502.37	38747.57
502.55	39049.50
502.72	39386.54
502.90	39150.14
503.07	39475.48
503.25	39484.84
503.43	39494.20
503.60	39950.60
503.78	39887.41
503.95	39695.49
504.13	40240.83
504.30	40140.19
504.48	39992.73
504.65	40577.87
504.83	40830.65
505.01	41113.85
505.18	41134.92
505.36	41228.54
505.53	40823.62
505.71	41748.14
505.88	41261.30
506.06	41280.03
506.23	41736.43
506.41	41518.76
506.58	42033.68
506.76	42162.41
506.93	42213.90
507.11	42024.32
507.28	42543.92
507.46	42555.62
507.63	42670.31
507.81	43096.28
507.98	42415.19
508.16	43084.58
508.33	42827.12
508.50	42841.17
508.68	42852.87
508.85	43700.14
509.03	43810.15
509.20	43796.10
509.38	44114.42
509.55	44114.42
509.73	44189.31
509.90	44343.79
510.08	44128.46
510.25	44222.08
510.42	44334.43
510.60	45041.27
510.77	44942.97
510.95	45216.81
511.12	45134.89
511.30	45127.87
511.47	44861.05
511.64	45235.53
511.82	45464.91
511.99	45511.72
512.17	46251.33
512.34	45343.20
512.51	45806.62
512.69	46494.74
512.86	46078.13
513.04	45949.40
513.21	46436.23
513.38	46361.33
513.56	46768.58
513.73	46586.02
513.90	46679.64
514.08	46539.21
514.25	47028.38
514.43	46941.78
514.60	47555.00
514.77	47089.24
514.95	47416.91
515.12	47229.67
515.29	47255.42
515.47	47625.22
515.64	47611.18
515.81	47496.49
515.99	47620.54
516.16	48018.43
516.33	48006.73
516.51	48505.26
516.68	48320.36
516.85	48364.83
517.03	48210.35
517.20	48626.97
517.37	48236.10
517.54	48467.81
517.72	48772.08
517.89	49141.89
518.06	49106.78
518.24	48804.85
518.41	48994.43
518.58	49397.01
518.75	49165.29
518.93	48839.96
519.10	49230.83
519.27	49460.20
519.45	49287.00
519.62	49385.30
519.79	49984.48
519.96	49862.77
520.14	49900.22
520.31	49914.26
520.48	50464.29
520.65	50138.96
520.83	50073.42
521.00	50333.22
521.17	50265.34
521.34	50319.18
521.52	50766.22
521.69	50260.66
521.86	50658.56
522.03	50857.50
522.20	51079.85
522.38	51334.97
522.55	51107.94
522.72	51096.24
522.89	51152.41
523.07	51501.15
523.24	51250.71
523.41	51276.46
523.58	51611.15
523.75	51751.59
523.92	51491.79
524.10	51798.40
524.27	52023.09
524.44	51753.93
524.61	51735.20
524.78	52172.88
524.96	51622.86
525.13	52191.61
525.30	52058.20
525.47	52306.29
525.64	52261.82
525.81	52552.05
525.98	52418.64
526.16	52413.96
526.33	52533.32
526.50	52793.12
526.67	52575.45
526.84	52851.64
527.01	52802.49
527.18	52762.70
527.36	52772.06
527.53	52973.34
527.70	53289.32
527.87	53186.33
528.04	52790.78
528.21	53151.23
528.38	53059.94
528.55	53221.44
528.72	52956.96
528.89	53506.99
529.07	53235.48
529.24	53083.35
529.41	53485.92
529.58	53656.78
529.75	53558.48
529.92	53511.67
530.09	53668.48
530.26	53544.44
530.43	53595.93
530.60	53530.39
530.77	53715.29
530.94	53895.52
531.11	53687.21
531.28	53787.85
531.46	53727.00
531.63	54087.44
531.80	54145.95
531.97	54087.44
532.14	54454.90
532.31	54396.39
532.48	54412.77
532.65	54499.37
532.82	54342.56
532.99	54368.30
533.16	54457.24
533.33	54728.75
533.50	54759.17
533.67	54857.48
533.84	54670.23
534.01	54777.90
534.18	54653.85
534.35	55068.12
534.52	54822.37
534.69	54880.88
534.86	54979.18
535.03	54621.08
535.20	54972.16
535.37	54871.52
535.54	55229.62
535.71	55025.99
535.88	55351.33
536.05	55402.82
536.22	55356.01
536.38	55398.14
536.55	55367.71
536.72	55503.46
536.89	55515.17
537.06	55454.31
537.23	55707.09
537.40	55332.60
537.57	55763.26
537.74	55531.55
537.91	55894.33
538.08	55679.00
538.25	55477.72
538.42	55779.65
538.59	56074.55
538.75	55735.18
538.92	55950.51
539.09	55873.27
539.26	55899.01
539.43	55828.80
539.60	56116.68
539.77	56058.17
539.94	56275.84
540.11	56261.80
540.28	56184.56
540.44	55859.23
540.61	56236.05
540.78	56151.79
540.95	56109.66
541.12	56371.80
541.29	56245.41
541.46	56505.21
541.62	56413.93
541.79	56519.26
541.96	56207.97
542.13	56245.41
542.30	56413.93
542.47	56860.97
542.63	56570.75
542.80	56753.31
542.97	56816.50
543.14	56942.89
543.31	57202.69
543.48	57237.80
543.64	57275.25
543.81	57286.95
543.98	57268.23
544.15	56956.94
544.32	57401.64
544.48	57310.36
544.65	57216.74
544.82	57216.74
544.99	57022.47
545.16	57556.11
545.32	57214.40
545.49	57499.94
545.66	57411.00
545.83	57169.93
546.00	57623.99
546.16	57558.45
546.33	57291.63
546.50	57275.25
546.67	57612.29
546.83	57382.91
547.00	57544.41
547.17	57743.36
547.34	57703.57
547.50	57762.08
547.67	57794.85
547.84	57853.36
548.00	57858.04
548.17	57895.49
548.34	57914.22
548.51	58108.48
548.67	58323.81
548.84	57935.28
549.01	57961.03
549.18	57811.23
549.34	58169.33
549.51	58089.76
549.68	58349.56
549.84	58166.99
550.01	58099.12
550.18	58136.57
550.34	58211.46
550.51	58232.53
550.68	58302.74
550.84	58244.23
551.01	58487.65
551.18	58202.10
551.34	58513.39
551.51	58429.13
551.68	58277.00
551.84	58354.24
552.01	58316.79
552.18	58436.16
552.34	58262.96
552.51	58616.38
552.68	58431.47
552.84	58501.69
553.01	59068.10
553.18	58784.90
553.34	58728.72
553.51	58670.21
553.67	58611.70
553.84	58717.02
554.01	58831.71
554.17	58927.67
554.34	58941.71
554.51	58719.36
554.67	59007.25
554.84	58866.81
555.00	58817.66
555.17	58770.85
555.33	58876.18
555.50	58745.11
555.67	58915.96
555.83	58562.54
556.00	58993.20
556.16	59178.10
556.33	58934.69
556.50	59119.59
556.66	59152.36
556.83	58845.75
556.99	59040.01
557.16	59386.41
557.32	59180.45
557.49	59398.12
557.65	59318.54
557.82	59238.96
557.98	59166.40
558.15	59491.74
558.32	59367.69
558.48	59344.28
558.65	59306.83
558.81	59348.96
558.98	59391.09
559.14	59360.67
559.31	59545.57
559.47	59576.00
559.64	59447.27
559.80	59536.21
559.97	59597.06
560.13	59363.01
560.30	59573.66
560.46	59522.16
560.63	59784.30
560.79	59634.51
560.96	59597.06
561.12	59590.04
561.29	59774.94
561.45	59578.34
561.61	59512.80
561.78	59646.21
561.94	59709.41
562.11	59578.34
562.27	59838.14
562.44	59779.62
562.60	59931.76
562.77	59849.84
562.93	59681.32
563.10	59805.37
563.26	59849.84
563.42	60119.00
563.59	59889.63
563.75	59767.92
563.92	59915.37
564.08	59852.18
564.24	60086.23
564.41	59786.64
564.57	59994.95
564.74	60119.00
564.90	59903.67
565.07	60062.83
565.23	59880.27
565.39	59894.31
565.56	60083.89
565.72	60067.51
565.88	59917.71
566.05	59943.46
566.21	60097.94
566.38	60025.38
566.54	60104.96
566.70	60243.05
566.87	60278.16
567.03	59964.52
567.19	60210.28
567.36	60163.47
567.52	60296.88
567.68	60605.83
567.85	60109.64
568.01	60128.36
568.17	60001.97
568.34	60310.92
568.50	60156.45
568.66	60299.22
568.83	60449.02
568.99	60114.32
569.15	60264.11
569.32	60273.48
569.48	60123.68
569.64	60395.18
569.81	60200.92
569.97	60233.69
570.13	60313.26
570.30	60341.35
570.46	60100.28
570.62	60271.14
570.78	60549.66
570.95	60289.86
571.11	60289.86
571.27	60257.09
571.43	60537.96
571.60	60481.78
571.76	60568.38
571.92	60423.27
572.09	60397.52
572.25	60481.78
572.41	60481.78
572.57	60582.43
572.74	60495.83
572.90	60381.14
573.06	60556.68
573.22	60605.83
573.38	60612.85
573.55	60437.31
573.71	60706.47
573.87	60477.10
574.03	60350.71
574.20	60404.55
574.36	60268.79
574.52	60645.62
574.68	60706.47
574.84	60725.20
575.01	60516.89
575.17	60514.55
575.33	60636.26
575.49	60343.69
575.65	60615.19
575.82	60683.07
575.98	60570.72
576.14	60769.67
576.30	60664.35
576.46	60587.11
576.62	60582.43
576.79	60547.32
576.95	60463.06
577.11	60619.88
577.27	60800.10
577.43	60554.34
577.59	60683.07
577.75	60591.79
577.92	60610.51
578.08	60537.96
578.24	60580.09
578.40	60800.10
578.56	60999.04
578.72	60835.20
578.88	60889.04
579.04	60900.74
579.21	60617.53
579.37	60949.89
579.53	61073.94
579.69	60662.00
579.85	60638.60
580.01	60692.43
580.17	60420.93
580.33	60863.29
580.49	60591.79
580.65	60800.10
580.82	60722.86
580.98	60727.54
581.14	60678.39
581.30	60657.32
581.46	60905.42
581.62	60669.03
581.78	60659.66
581.94	60800.10
582.10	60842.23
582.26	60640.94
582.42	60818.82
582.58	60739.24
582.74	60598.81
582.90	60872.65
583.06	60811.80
583.22	60687.75
583.38	60687.75
583.54	60779.03
583.70	60764.99
583.86	61041.17
584.02	60666.69
584.18	60903.08
584.34	60870.31
584.50	60825.84
584.66	60797.76
584.82	60704.13
584.98	61095.00
585.14	60697.11
585.30	60720.52
585.46	60769.67
585.62	60940.53
585.78	60867.97
585.94	60809.46
586.10	60591.79
586.26	61020.11
586.42	61003.72
586.58	60905.42
586.74	60905.42
586.90	60748.60
587.06	60821.16
587.22	61022.45
587.38	60823.50
587.54	61055.21
587.70	61045.85
587.86	61006.06
588.02	60905.42
588.18	61132.45
588.34	61073.94
588.49	60816.48
