SpectraSuite Data File
++++++++++++++++++++++++++++++++++++
Date: Fri Oct 25 11:33:42 EDT 2013
User: price-jones
Dark Spectrum Present: No
Reference Spectrum Present: No
Number of Sampled Component Spectra: 1
Spectrometers: USB2+H05261
Integration Time (usec): 100000 (USB2+H05261)
Spectra Averaged: 1 (USB2+H05261)
Boxcar Smoothing: 0 (USB2+H05261)
Correct for Electrical Dark: No (USB2+H05261)
Strobe/Lamp Enabled: No (USB2+H05261)
Correct for Detector Non-linearity: No (USB2+H05261)
Correct for Stray Light: No (USB2+H05261)
Number of Pixels in Processed Spectrum: 2048
>>>>>Begin Processed Spectral Data<<<<<
365.73	304.27
365.92	304.27
366.12	304.27
366.32	166.18
366.52	231.71
366.72	201.29
366.91	133.41
367.11	161.50
367.31	138.09
367.51	187.24
367.70	163.84
367.90	156.82
368.10	168.52
368.30	173.20
368.49	248.10
368.69	194.26
368.89	189.58
369.09	217.67
369.28	194.26
369.48	196.60
369.68	231.71
369.87	161.50
370.07	290.23
370.27	266.82
370.47	358.10
370.66	500.87
370.86	613.22
371.06	540.66
371.25	559.39
371.45	547.69
371.65	596.84
371.84	498.53
372.04	564.07
372.24	517.26
372.44	608.54
372.63	627.26
372.83	592.16
373.03	589.82
373.22	631.94
373.42	669.39
373.62	603.86
373.81	636.63
374.01	624.92
374.21	660.03
374.40	662.37
374.60	681.10
374.79	631.94
374.99	692.80
375.19	622.58
375.38	650.67
375.58	650.67
375.78	695.14
375.97	643.65
376.17	631.94
376.37	599.18
376.56	660.03
376.76	690.46
376.95	662.37
377.15	620.24
377.35	704.50
377.54	641.31
377.74	669.39
377.93	650.67
378.13	702.16
378.33	723.23
378.52	702.16
378.72	753.65
378.91	753.65
379.11	718.54
379.31	753.65
379.50	734.93
379.70	760.67
379.89	765.36
380.09	706.84
380.28	744.29
380.48	758.33
380.68	671.73
380.87	737.27
381.07	734.93
381.26	765.36
381.46	732.59
381.65	828.55
381.85	753.65
382.04	741.95
382.24	734.93
382.43	786.42
382.63	706.84
382.83	791.10
383.02	779.40
383.22	779.40
383.41	882.38
383.61	887.06
383.80	835.57
384.00	791.10
384.19	763.01
384.39	854.30
384.58	746.63
384.78	938.55
384.97	814.51
385.17	770.04
385.36	819.19
385.56	931.53
385.75	837.91
385.95	856.64
386.14	868.34
386.34	851.96
386.53	891.74
386.72	940.90
386.92	912.81
387.11	922.17
387.31	891.74
387.50	854.30
387.70	887.06
387.89	898.77
388.09	915.15
388.28	915.15
388.48	929.19
388.67	947.92
388.86	964.30
389.06	933.87
389.25	943.24
389.45	933.87
389.64	891.74
389.84	985.37
390.03	1008.77
390.22	983.02
390.42	992.39
390.61	961.96
390.81	882.38
391.00	987.71
391.19	1008.77
391.39	945.58
391.58	1001.75
391.78	1025.15
391.97	1046.22
392.16	976.00
392.36	1097.71
392.55	1102.39
392.75	1025.15
392.94	943.24
393.13	1074.31
393.33	1011.11
393.52	1029.84
393.71	1078.99
393.91	1013.45
394.10	1149.20
394.29	1102.39
394.49	1107.07
394.68	1111.75
394.88	1172.61
395.07	1111.75
395.26	1163.25
395.46	1151.54
395.65	1172.61
395.84	1076.65
396.04	1186.65
396.23	1174.95
396.42	1224.10
396.62	1254.53
396.81	1151.54
397.00	1172.61
397.19	1249.85
397.39	1179.63
397.58	1277.93
397.77	1275.59
397.97	1186.65
398.16	1226.44
398.35	1287.29
398.55	1270.91
398.74	1270.91
398.93	1296.66
399.12	1327.08
399.32	1313.04
399.51	1390.28
399.70	1355.17
399.90	1315.38
400.09	1327.08
400.28	1418.36
400.47	1383.26
400.67	1430.07
400.86	1399.64
401.05	1385.60
401.24	1465.18
401.44	1432.41
401.63	1376.24
401.82	1486.24
402.01	1462.83
402.21	1465.18
402.40	1413.68
402.59	1476.88
402.78	1502.62
402.97	1406.66
403.17	1455.81
403.36	1523.69
403.55	1495.60
403.74	1621.99
403.93	1657.10
404.13	1556.46
404.32	1619.65
404.51	1631.35
404.70	1699.23
404.89	1549.43
405.09	1748.38
405.28	1666.46
405.47	1610.29
405.66	1624.33
405.85	1767.10
406.05	1600.93
406.24	1715.61
406.43	1799.87
406.62	1849.02
406.81	1846.68
407.00	1783.49
407.20	1790.51
407.39	1877.11
407.58	1785.83
407.77	1802.21
407.96	1865.41
408.15	1944.99
408.34	1944.99
408.54	1959.03
408.73	1912.22
408.92	1949.67
409.11	2043.29
409.30	1919.24
409.49	1984.77
409.68	2003.50
409.87	2040.95
410.07	2066.69
410.26	2064.35
410.45	2010.52
410.64	2090.10
410.83	2101.80
411.02	2127.55
411.21	2204.78
411.40	2120.53
411.59	2258.62
411.78	2263.30
411.98	2167.34
412.17	2310.11
412.36	2366.28
412.55	2296.07
412.74	2340.54
412.93	2415.43
413.12	2296.07
413.31	2326.49
413.50	2438.84
413.69	2312.45
413.88	2466.92
414.07	2466.92
414.26	2544.16
414.45	2506.71
414.64	2619.06
414.83	2574.59
415.02	2511.39
415.22	2703.32
415.41	2743.11
415.60	2647.15
415.79	2616.72
415.98	2731.41
416.17	2771.19
416.36	2729.06
416.55	2787.58
416.74	2825.03
416.93	2871.84
417.12	2729.06
417.31	2998.23
417.50	2857.79
417.69	3047.38
417.88	2841.41
418.07	2979.50
418.26	3009.93
418.45	3012.27
418.64	3129.30
418.83	2984.18
419.02	3077.80
419.21	3159.72
419.39	3138.66
419.58	3131.64
419.77	3178.45
419.96	3148.02
420.15	3110.57
420.34	3056.74
420.53	3330.58
420.72	3234.62
420.91	3328.24
421.10	3211.22
421.29	3276.75
421.48	3253.34
421.67	3286.11
421.86	3241.64
422.05	3314.20
422.24	3293.13
422.43	3353.99
422.61	3419.52
422.80	3449.95
422.99	3375.05
423.18	3496.76
423.37	3417.18
423.56	3386.76
423.75	3440.59
423.94	3426.54
424.13	3286.11
424.32	3276.75
424.50	3463.99
424.69	3574.00
424.88	3503.78
425.07	3400.80
425.26	3325.90
425.45	3421.86
425.64	3435.91
425.83	3449.95
426.01	3597.40
426.20	3609.11
426.39	3478.04
426.58	3513.14
426.77	3482.72
426.96	3559.95
427.15	3534.21
427.33	3529.53
427.52	3555.27
427.71	3646.55
427.90	3623.15
428.09	3545.91
428.28	3719.11
428.46	3702.73
428.65	3695.71
428.84	3822.09
429.03	3805.71
429.22	3758.90
429.40	3822.09
429.59	3845.50
429.78	3751.88
429.97	3644.21
430.16	3688.68
430.34	3779.97
430.53	3920.40
430.72	3838.48
430.91	3957.85
431.10	3875.93
431.28	3927.42
431.47	3999.98
431.66	3962.53
431.85	3873.59
432.03	4140.41
432.22	4184.88
432.41	3925.08
432.60	4035.08
432.79	4135.73
432.97	4341.69
433.16	4049.13
433.35	4095.94
433.54	4060.83
433.72	4241.05
433.91	4182.54
434.10	4114.66
434.28	4229.35
434.47	4168.49
434.66	4320.63
434.85	4325.31
435.03	4283.18
435.22	4194.24
435.41	4519.57
435.59	4353.40
435.78	4465.74
435.97	4304.25
436.16	4252.75
436.34	4470.42
436.53	4435.32
436.72	4425.95
436.90	4383.82
437.09	4465.74
437.28	4337.01
437.46	4407.23
437.65	4482.13
437.84	4631.92
438.02	4468.08
438.21	4585.11
438.40	4592.13
438.58	4585.11
438.77	4788.74
438.96	4840.23
439.14	4835.55
439.33	4821.50
439.52	4842.57
439.70	4873.00
439.89	4905.76
440.08	5034.49
440.26	4997.04
440.45	5130.45
440.63	5111.73
440.82	5163.22
441.01	5301.31
441.19	5259.18
441.38	5121.09
441.57	5371.53
441.75	5268.55
441.94	5495.58
442.12	5495.58
442.31	5551.75
442.50	5434.72
442.68	5530.69
442.87	5483.88
443.05	5509.62
443.24	5533.03
443.43	5577.50
443.61	5427.70
443.80	5607.92
443.98	5523.66
444.17	5322.38
444.35	5504.94
444.54	5521.32
444.73	5865.38
444.91	5516.64
445.10	5612.60
445.28	5682.82
445.47	5516.64
445.65	5638.35
445.84	5734.31
446.02	5748.36
446.21	5647.71
446.39	5610.26
446.58	5797.51
446.77	5724.95
446.95	5673.46
447.14	5813.89
447.32	5671.12
447.51	5750.70
447.69	5626.65
447.88	5640.69
448.06	5790.49
448.25	5724.95
448.43	5820.91
448.62	5863.04
448.80	5703.89
448.99	5755.38
449.17	6010.50
449.36	5820.91
449.54	6090.07
449.73	6076.03
449.91	5959.00
450.10	6221.14
450.28	6209.44
450.46	6195.40
450.65	6193.06
450.83	6171.99
451.02	6101.78
451.20	6221.14
451.39	6326.47
451.57	6190.72
451.76	6120.50
451.94	6167.31
452.13	6286.68
452.31	6406.05
452.49	6246.89
452.68	6384.98
452.86	6303.06
453.05	6406.05
453.23	6389.66
453.42	6146.25
453.60	6305.40
453.78	6368.60
453.97	6431.79
454.15	6527.75
454.34	6462.22
454.52	6422.43
454.70	6593.29
454.89	6677.55
455.07	6621.38
455.26	6619.04
455.44	6724.36
455.62	6689.25
455.81	6712.66
455.99	6820.32
456.17	6815.64
456.36	6848.41
456.54	6944.37
456.73	6860.11
456.91	7054.37
457.09	7068.42
457.28	7159.70
457.46	6974.80
457.64	7220.55
457.83	7047.35
458.01	6946.71
458.19	7164.38
458.38	7084.80
458.56	7133.95
458.74	7101.19
458.93	7386.73
459.11	7353.96
459.29	7426.52
459.48	7356.30
459.66	7368.01
459.84	7241.62
460.03	7515.46
460.21	7389.07
460.39	7318.86
460.57	7513.12
460.76	7513.12
460.94	7644.19
461.12	7548.23
461.31	7463.97
461.49	7391.41
461.67	7473.33
461.85	7672.28
462.04	7566.95
462.22	8105.28
462.40	7903.99
462.59	7779.94
462.77	7772.92
462.95	7875.90
463.13	7709.72
463.32	7765.90
463.50	8063.15
463.68	7999.95
463.86	7906.33
464.05	8006.97
464.23	8016.33
464.41	7967.18
464.59	7859.52
464.78	8060.80
464.96	8016.33
465.14	7985.91
465.32	8159.11
465.50	8138.04
465.69	8269.11
465.87	8315.92
466.05	8177.83
466.23	8170.81
466.41	8149.75
466.60	8425.93
466.78	8133.36
466.96	8152.09
467.14	8294.86
467.32	8241.03
467.51	8477.42
467.69	8135.70
467.87	8336.99
468.05	8454.02
468.23	8231.66
468.41	8236.35
468.60	8381.46
468.78	8395.50
468.96	8336.99
469.14	8437.63
469.32	8812.12
469.50	8549.98
469.69	8641.26
469.87	8765.31
470.05	8624.87
470.23	8709.13
470.41	8936.17
470.59	8922.12
470.77	8842.54
470.95	8964.25
471.14	9158.52
471.32	8847.22
471.50	9060.21
471.68	9011.06
471.86	9067.24
472.04	9088.30
472.22	9256.82
472.40	8980.64
472.58	9221.71
472.77	9425.34
472.95	9441.72
473.13	9790.46
473.31	9570.45
473.49	9481.51
473.67	9348.10
473.85	9689.82
474.03	9853.66
474.21	9650.03
474.39	9731.95
474.57	9832.59
474.75	9933.23
474.93	10005.79
475.12	9954.30
475.30	10260.91
475.48	10171.97
475.66	10380.28
475.84	10003.45
476.02	10263.25
476.20	10113.45
476.38	10394.32
476.56	10579.22
476.74	10640.08
476.92	10614.33
477.10	10576.88
477.28	10846.04
477.46	10684.55
477.64	10731.36
477.82	10867.11
478.00	11204.14
478.18	11101.16
478.36	11461.60
478.54	11566.93
478.72	11435.86
478.90	11510.75
479.08	11475.65
479.26	11613.74
479.44	11882.90
479.62	11808.00
479.80	11864.18
479.98	11988.22
480.16	12271.43
480.34	12182.49
480.52	12285.47
480.70	12388.46
480.88	12128.66
481.06	12411.86
481.24	12496.12
481.41	12678.68
481.59	12905.71
481.77	13034.44
481.95	12695.07
482.13	13083.59
482.31	12765.28
482.49	13291.90
482.67	13256.79
482.85	13472.12
483.03	13568.09
483.21	13500.21
483.39	13879.38
483.57	13797.46
483.74	13806.82
483.92	14139.18
484.10	14118.11
484.28	14321.74
484.46	14647.07
484.64	14497.28
484.82	14387.27
485.00	14607.28
485.18	15115.18
485.35	15255.61
485.53	15176.03
485.71	15349.23
485.89	15646.48
486.07	15454.56
486.25	15433.49
486.43	15620.74
486.61	15658.18
486.78	15782.23
486.96	15882.88
487.14	16098.20
487.32	16032.67
487.50	16482.05
487.68	16458.65
487.85	16631.85
488.03	16957.18
488.21	17057.82
488.39	16809.73
488.57	17198.26
488.75	17130.38
488.92	17249.75
489.10	17591.47
489.28	17589.13
489.46	18050.21
489.64	17823.18
489.81	17895.74
489.99	18314.69
490.17	18288.95
490.35	18618.96
490.53	18572.15
490.70	18747.69
490.88	18738.33
491.06	19005.15
491.24	19101.11
491.41	19054.30
491.59	19227.50
491.77	19248.57
491.95	19356.23
492.13	19510.71
492.30	19702.63
492.48	19599.65
492.66	19885.19
492.84	19826.68
493.01	20404.79
493.19	20121.59
493.37	20472.67
493.54	20217.55
493.72	20762.89
493.90	20706.72
494.08	20858.85
494.25	20758.21
494.43	20978.22
494.61	21305.90
494.79	21399.52
494.96	21366.75
495.14	21617.19
495.32	21692.08
495.49	21827.84
495.67	21701.45
495.85	21804.43
496.02	22335.73
496.20	22263.18
496.38	22504.25
496.55	22181.26
496.73	22937.25
496.91	22740.64
497.09	22822.56
497.26	23147.90
497.44	22977.04
497.62	23285.99
497.79	23613.66
497.97	23606.64
498.14	23690.90
498.32	23962.40
498.50	24189.44
498.67	24376.68
498.85	23859.42
499.03	24100.50
499.20	24376.68
499.38	24355.61
499.56	24453.92
499.73	24325.19
499.91	24346.25
500.08	24800.32
500.26	24655.20
500.44	24437.53
500.61	24760.53
500.79	24795.64
500.97	25247.36
501.14	25542.27
501.32	25373.75
501.49	25317.57
501.67	25443.96
501.84	25640.57
502.02	25654.61
502.20	25500.14
502.37	25628.87
502.55	25621.84
502.72	25720.15
502.90	26078.25
503.07	25970.58
503.25	26258.47
503.43	25743.55
503.60	26490.18
503.78	26848.29
503.95	26677.43
504.13	26656.36
504.30	26822.54
504.48	26560.40
504.65	26794.45
504.83	27295.33
505.01	27241.50
505.18	27023.83
505.36	27805.56
505.53	27515.34
505.71	27679.18
505.88	27391.29
506.06	27353.84
506.23	27573.85
506.41	27550.45
506.58	27938.97
506.76	28025.57
506.93	28222.18
507.11	28044.30
507.28	28077.07
507.46	28128.56
507.63	28519.43
507.81	28364.95
507.98	28371.97
508.16	28446.87
508.33	28755.82
508.50	28610.71
508.68	28947.75
508.85	29027.32
509.03	28989.88
509.20	29071.79
509.38	29603.10
509.55	29497.77
509.73	29429.90
509.90	29413.51
510.08	29642.88
510.25	29923.75
510.42	29975.24
510.60	29930.77
510.77	29502.45
510.95	30572.08
511.12	29764.59
511.30	30270.15
511.47	30080.56
511.64	30171.85
511.82	30433.99
511.99	30146.10
512.17	30504.20
512.34	30553.35
512.51	30778.04
512.69	31199.34
512.86	30918.48
513.04	31035.50
513.21	31452.12
513.38	31302.32
513.56	31536.38
513.73	31087.00
513.90	30960.61
514.08	31592.55
514.25	31751.71
514.43	31896.82
514.60	31704.90
514.77	31747.03
514.95	31508.29
515.12	31838.31
515.29	31824.26
515.47	32503.02
515.64	32114.49
515.81	32294.71
515.99	32264.28
516.16	32617.71
516.33	32360.25
516.51	32524.08
516.68	32535.79
516.85	32704.31
517.03	32833.04
517.20	32643.45
517.37	32776.86
517.54	32725.37
517.72	32950.06
517.89	32971.13
518.06	33228.59
518.24	33181.77
518.41	33092.83
518.58	33315.19
518.75	33003.89
518.93	33656.90
519.10	32964.10
519.27	33656.90
519.45	33640.52
519.62	33996.28
519.79	33654.56
519.96	33830.10
520.14	34232.68
520.31	33928.41
520.48	33977.56
520.65	34167.14
520.83	34473.75
521.00	34511.20
521.17	34452.69
521.34	34110.97
521.52	34836.53
521.69	34792.06
521.86	34553.33
522.03	34885.68
522.20	35070.59
522.38	35342.09
522.55	35075.27
522.72	35023.78
522.89	35061.22
523.07	35590.19
523.24	35358.47
523.41	35777.43
523.58	35070.59
523.75	35896.80
523.92	35201.66
524.10	35805.52
524.27	35948.29
524.44	35747.00
524.61	35625.29
524.78	35964.67
524.96	35798.49
525.13	36233.83
525.30	36711.30
525.47	36292.35
525.64	36151.91
525.81	36306.39
525.98	36570.87
526.16	36524.06
526.33	36711.30
526.50	36774.50
526.67	36261.92
526.84	36790.88
527.01	36528.74
527.18	36463.21
527.36	36727.69
527.53	37284.73
527.70	37146.64
527.87	36814.29
528.04	37221.54
528.21	37350.27
528.38	37270.69
528.55	37593.68
528.72	37118.56
528.89	37251.97
529.07	37551.56
529.24	37343.25
529.41	37619.43
529.58	37486.02
529.75	37579.64
529.92	37404.10
530.09	37874.55
530.26	37743.48
530.43	37883.91
530.60	37619.43
530.77	37621.77
530.94	38078.18
531.11	37717.73
531.28	38005.62
531.46	38101.58
531.63	38321.59
531.80	37750.50
531.97	38211.59
532.14	38141.37
532.31	38719.48
532.48	38590.75
532.65	38574.37
532.82	38518.20
532.99	38426.92
533.16	38658.63
533.33	38939.49
533.50	38836.51
533.67	38850.55
533.84	38160.09
534.01	39335.04
534.18	39255.46
534.35	38890.34
534.52	39236.74
534.69	39636.97
534.86	39576.12
535.03	39321.00
535.20	39672.08
535.37	39707.19
535.54	39571.44
535.71	39367.81
535.88	39683.78
536.05	39768.04
536.22	39639.31
536.38	39714.21
536.55	39798.47
536.72	39861.66
536.89	39519.95
537.06	40009.12
537.23	39966.99
537.40	39988.05
537.57	40264.24
537.74	40123.80
537.91	40542.76
538.08	40334.45
538.25	40247.85
538.42	40456.16
538.59	40638.72
538.75	40215.08
538.92	40741.71
539.09	40725.32
539.26	40554.46
539.43	40521.69
539.60	40737.02
539.77	40648.08
539.94	41116.19
540.11	40655.11
540.28	40835.33
540.44	40975.76
540.61	40996.82
540.78	40687.87
540.95	40914.90
541.12	40980.44
541.29	40790.86
541.46	40999.16
541.62	41291.73
541.79	41661.54
541.96	40811.92
542.13	40868.09
542.30	41233.22
542.47	41703.67
542.63	41811.33
542.80	41886.23
542.97	41883.89
543.14	42014.96
543.31	42007.94
543.48	42000.91
543.64	42639.88
543.81	42403.49
543.98	41731.75
544.15	42047.72
544.32	42167.09
544.48	42691.37
544.65	42153.05
544.82	42204.54
544.99	42234.97
545.16	42160.07
545.32	42600.09
545.49	42799.04
545.66	42815.42
545.83	42689.03
546.00	42691.37
546.16	42644.56
546.33	42501.79
546.50	42630.52
546.67	42525.19
546.83	42401.14
547.00	43283.53
547.17	42581.37
547.34	42728.82
547.50	43173.52
547.67	43405.23
547.84	43309.27
548.00	43253.10
548.17	43564.39
548.34	43351.40
548.51	43578.43
548.67	43143.09
548.84	43255.44
549.01	43716.53
549.18	43459.07
549.34	43611.20
549.51	43559.71
549.68	43438.00
549.84	43655.67
550.01	43873.34
550.18	43643.97
550.34	43421.62
550.51	43555.03
550.68	44421.03
550.84	43391.19
551.01	43903.77
551.18	43847.60
551.34	43873.34
551.51	44170.59
551.68	43899.09
551.84	44126.12
552.01	43566.73
552.18	44161.23
552.34	44023.14
552.51	43892.07
552.68	43910.79
552.84	44184.63
553.01	44109.74
553.18	43917.81
553.34	44304.00
553.51	43716.53
553.67	44432.73
553.84	44505.29
554.01	44002.07
554.17	44444.43
554.34	44343.79
554.51	44516.99
554.67	44587.21
554.84	44603.59
555.00	44472.52
555.17	44591.89
555.33	44680.83
555.50	44903.18
555.67	45155.96
555.83	44875.09
556.00	44912.54
556.16	45296.39
556.33	44631.68
556.50	45305.75
556.66	45228.51
556.83	45106.80
556.99	45298.73
557.16	45406.39
557.32	45020.20
557.49	45600.66
557.65	44966.37
557.82	45184.04
557.98	45446.18
558.15	45450.86
558.32	45090.42
558.48	45167.66
558.65	45521.08
558.81	45291.71
558.98	45106.80
559.14	45240.21
559.31	45343.20
559.47	45397.03
559.64	45921.31
559.80	45509.38
559.97	45771.52
560.13	44987.44
560.30	45221.49
560.46	46174.09
560.63	45617.04
560.79	46461.97
560.96	45572.57
561.12	45893.22
561.29	45893.22
561.45	45476.61
561.61	46082.81
561.78	45794.92
561.94	46445.59
562.11	45703.64
562.27	45579.59
562.44	45698.96
562.60	46007.91
562.77	46160.05
562.93	45429.80
563.10	46284.09
563.26	45785.56
563.42	46546.23
563.59	46094.51
563.75	46466.66
563.92	45841.73
564.08	45937.69
564.24	46300.48
564.41	45869.82
564.57	46232.60
564.74	46452.61
564.90	45801.94
565.07	46438.57
565.23	46043.02
565.39	45968.12
565.56	46021.95
565.72	45940.04
565.88	46440.91
566.05	46426.87
566.21	46253.67
566.38	46518.15
566.54	46307.50
566.70	46574.32
566.87	46546.23
567.03	46464.32
567.19	46782.63
567.36	46330.90
567.52	46057.06
567.68	46330.90
567.85	46256.01
568.01	46705.39
568.17	46564.96
568.34	46934.76
568.50	46962.85
568.66	46131.96
568.83	46499.42
568.99	46415.16
569.15	46429.21
569.32	46527.51
569.48	46747.52
569.64	46981.57
569.81	46894.97
569.97	46759.22
570.13	46920.72
570.30	46511.13
570.46	46831.78
570.62	46635.17
570.78	46883.27
570.95	46902.00
571.11	47157.11
571.27	46487.72
571.43	46920.72
571.60	46754.54
571.76	46773.27
571.92	46679.64
572.09	46452.61
572.25	46541.55
572.41	46628.15
572.57	46754.54
572.74	47021.36
572.90	46838.80
573.06	47278.82
573.22	47012.00
573.38	47061.15
573.55	46630.49
573.71	47412.23
573.87	47379.46
574.03	47054.13
574.20	47283.50
574.36	47002.64
574.52	46958.17
574.68	46827.10
574.84	47098.60
575.01	46941.78
575.17	47049.45
575.33	47306.91
575.49	46990.94
575.65	47147.75
575.82	46766.24
575.98	46857.52
576.14	47187.54
576.30	46916.04
576.46	47281.16
576.62	47004.98
576.79	47173.50
576.95	46799.01
577.11	46653.90
577.27	47466.06
577.43	47180.52
577.59	47040.09
577.75	46962.85
577.92	46653.90
578.08	47105.62
578.24	47281.16
578.40	47566.71
578.56	47246.05
578.72	47171.16
578.88	47536.28
579.04	46674.96
579.21	47192.22
579.37	47419.25
579.53	47360.74
579.69	47098.60
579.85	46859.87
580.01	47093.92
580.17	47489.47
580.33	47323.29
580.49	46913.70
580.65	47477.77
580.82	47674.37
580.98	47154.77
581.14	46976.89
581.30	47026.04
581.46	47075.19
581.62	47426.28
581.78	46824.76
581.94	47288.18
582.10	47147.75
582.26	47583.09
582.42	47379.46
582.58	47381.80
582.74	47632.24
582.90	47065.83
583.06	47428.62
583.22	46892.63
583.38	47311.59
583.54	47421.59
583.70	47583.09
583.86	47807.78
584.02	47304.57
584.18	47449.68
584.34	47407.55
584.50	47753.95
584.66	47641.60
584.82	47751.61
584.98	48018.43
585.14	47777.36
585.30	47353.72
585.46	47679.05
585.62	47381.80
585.78	47934.17
585.94	47196.90
586.10	47239.03
586.26	47372.44
586.42	47302.23
586.58	47629.90
586.74	47117.32
586.90	47304.57
587.06	47522.24
587.22	47597.13
587.38	47786.72
587.54	47660.33
587.70	47657.99
587.86	47676.71
588.02	47515.22
588.18	47276.48
588.34	47669.69
588.49	47419.25
588.65	47522.24
588.81	47372.44
588.97	47697.78
589.13	47650.97
589.29	47374.78
589.45	47765.65
589.61	47845.23
589.77	47952.90
589.93	47555.00
590.08	47667.35
