SpectraSuite Data File
++++++++++++++++++++++++++++++++++++
Date: Fri Oct 25 11:26:11 EDT 2013
User: price-jones
Dark Spectrum Present: No
Reference Spectrum Present: No
Number of Sampled Component Spectra: 1
Spectrometers: USB2+H05261
Integration Time (usec): 100000 (USB2+H05261)
Spectra Averaged: 1 (USB2+H05261)
Boxcar Smoothing: 0 (USB2+H05261)
Correct for Electrical Dark: No (USB2+H05261)
Strobe/Lamp Enabled: No (USB2+H05261)
Correct for Detector Non-linearity: No (USB2+H05261)
Correct for Stray Light: No (USB2+H05261)
Number of Pixels in Processed Spectrum: 2048
>>>>>Begin Processed Spectral Data<<<<<
365.73	236.39
365.92	236.39
366.12	236.39
366.32	107.66
366.52	138.09
366.72	180.22
366.91	91.28
367.11	135.75
367.31	180.22
367.51	135.75
367.70	156.82
367.90	133.41
368.10	170.86
368.30	138.09
368.49	189.58
368.69	205.97
368.89	245.76
369.09	198.95
369.28	243.42
369.48	187.24
369.68	180.22
369.87	224.69
370.07	229.37
370.27	236.39
370.47	358.10
370.66	622.58
370.86	667.05
371.06	697.48
371.25	704.50
371.45	674.07
371.65	730.25
371.84	767.70
372.04	709.18
372.24	718.54
372.44	699.82
372.63	779.40
372.83	730.25
373.03	746.63
373.22	767.70
373.42	767.70
373.62	741.95
373.81	802.80
374.01	786.42
374.21	830.89
374.40	823.87
374.60	840.25
374.79	816.85
374.99	819.19
375.19	816.85
375.38	884.72
375.58	802.80
375.78	873.02
375.97	854.30
376.17	915.15
376.37	880.04
376.56	877.70
376.76	875.36
376.95	866.00
377.15	877.70
377.35	826.21
377.54	800.46
377.74	908.13
377.93	903.45
378.13	976.00
378.33	929.19
378.52	863.66
378.72	894.08
378.91	905.79
379.11	952.60
379.31	837.91
379.50	994.73
379.70	917.49
379.89	945.58
380.09	976.00
380.28	1018.13
380.48	924.51
380.68	945.58
380.87	915.15
381.07	1057.92
381.26	1062.60
381.46	1055.58
381.65	1027.50
381.85	1071.97
382.04	1041.54
382.24	1170.27
382.43	1088.35
382.63	1060.26
382.83	1093.03
383.02	1048.56
383.22	1198.35
383.41	1086.01
383.61	1109.41
383.80	1121.12
384.00	1097.71
384.19	1146.86
384.39	1069.62
384.58	1177.29
384.78	1196.01
384.97	1093.03
385.17	1114.10
385.36	1268.57
385.56	1231.12
385.75	1203.04
385.95	1214.74
386.14	1153.88
386.34	1153.88
386.53	1242.82
386.72	1320.06
386.92	1233.46
387.11	1270.91
387.31	1294.32
387.50	1214.74
387.70	1254.53
387.89	1249.85
388.09	1256.87
388.28	1294.32
388.48	1291.98
388.67	1270.91
388.86	1357.51
389.06	1291.98
389.25	1434.75
389.45	1322.40
389.64	1343.47
389.84	1343.47
390.03	1434.75
390.22	1366.87
390.42	1427.73
390.61	1334.11
390.81	1320.06
391.00	1425.39
391.19	1334.11
391.39	1411.34
391.58	1413.68
391.78	1479.22
391.97	1577.52
392.16	1366.87
392.36	1469.86
392.55	1511.99
392.75	1554.12
392.94	1570.50
393.13	1467.52
393.33	1416.02
393.52	1533.05
393.71	1558.80
393.91	1584.54
394.10	1514.33
394.29	1703.91
394.49	1621.99
394.68	1657.10
394.88	1706.25
395.07	1689.87
395.26	1703.91
395.46	1802.21
395.65	1825.62
395.84	1727.32
396.04	1813.92
396.23	1755.40
396.42	1722.63
396.62	1900.52
396.81	1926.26
397.00	1827.96
397.19	1750.72
397.39	1809.23
397.58	1788.17
397.77	1809.23
397.97	1930.94
398.16	1933.28
398.35	1968.39
398.55	1867.75
398.74	1881.79
398.93	2031.58
399.12	1909.88
399.32	1933.28
399.51	2022.22
399.70	2054.99
399.90	1952.01
400.09	1980.09
400.28	2052.65
400.47	2005.84
400.67	1949.67
400.86	2005.84
401.05	2127.55
401.24	2129.89
401.44	2232.87
401.63	2172.02
401.82	2122.87
402.01	2101.80
402.21	2111.16
402.40	2127.55
402.59	2282.02
402.78	2200.10
402.97	2167.34
403.17	2223.51
403.36	2214.15
403.55	2228.19
403.74	2275.00
403.93	2396.71
404.13	2366.28
404.32	2410.75
404.51	2368.62
404.70	2422.45
404.89	2352.24
405.09	2466.92
405.28	2415.43
405.47	2406.07
405.66	2342.88
405.85	2567.57
406.05	2499.69
406.24	2569.91
406.43	2534.80
406.62	2623.74
406.81	2647.15
407.00	2609.70
407.20	2504.37
407.39	2504.37
407.58	2726.72
407.77	2626.08
407.96	2780.56
408.15	2759.49
408.34	2724.38
408.54	2717.36
408.73	2825.03
408.92	2827.37
409.11	2810.98
409.30	2895.24
409.49	2986.52
409.68	2810.98
409.87	2944.39
410.07	3000.57
410.26	2993.55
410.45	2944.39
410.64	3066.10
410.83	2986.52
411.02	3000.57
411.21	3138.66
411.40	3143.34
411.59	3138.66
411.78	3145.68
411.98	3227.60
412.17	3183.13
412.36	3251.00
412.55	3213.56
412.74	3328.24
412.93	3339.94
413.12	3225.26
413.31	3604.42
413.50	3529.53
413.69	3499.10
413.88	3609.11
414.07	3538.89
414.26	3634.85
414.45	3655.92
414.64	3712.09
414.83	3777.62
415.02	3700.39
415.22	3894.65
415.41	3847.84
415.60	3805.71
415.79	3840.82
415.98	4011.68
416.17	4060.83
416.36	4021.04
416.55	4107.64
416.74	4079.55
416.93	4072.53
417.12	4219.99
417.31	4175.52
417.50	4084.23
417.69	4266.80
417.88	4374.46
418.07	4315.95
418.26	4320.63
418.45	4351.06
418.64	4496.17
418.83	4320.63
419.02	4299.56
419.21	4477.44
419.39	4678.73
419.58	4414.25
419.77	4479.79
419.96	4461.06
420.15	4531.28
420.34	4582.77
420.53	4641.28
420.72	4777.03
420.91	4643.62
421.10	4671.71
421.29	4821.50
421.48	4643.62
421.67	4751.29
421.86	4723.20
422.05	4781.71
422.24	4664.69
422.43	4786.40
422.61	4777.03
422.80	4880.02
422.99	4851.93
423.18	4762.99
423.37	4880.02
423.56	4961.94
423.75	4870.65
423.94	4905.76
424.13	4531.28
424.32	4594.47
424.50	4973.64
424.69	5128.11
424.88	5118.75
425.07	4985.34
425.26	4821.50
425.45	4959.60
425.64	4905.76
425.83	4908.10
426.01	4954.91
426.20	5050.88
426.39	4957.25
426.58	5032.15
426.77	4968.96
426.96	5139.82
427.15	5224.08
427.33	5291.95
427.52	5282.59
427.71	5294.29
427.90	5221.74
428.09	5289.61
428.28	5408.98
428.46	5338.76
428.65	5275.57
428.84	5628.99
429.03	5392.59
429.22	5465.15
429.40	5334.08
429.59	5600.90
429.78	5338.76
429.97	5296.63
430.16	5434.72
430.34	5479.19
430.53	5788.14
430.72	5879.43
430.91	5479.19
431.10	5511.96
431.28	5638.35
431.47	5706.23
431.66	5755.38
431.85	5762.40
432.03	5909.85
432.22	6038.58
432.41	5874.74
432.60	5748.36
432.79	5963.68
432.97	5984.75
433.16	6001.13
433.35	6052.63
433.54	5827.93
433.72	6155.61
433.91	6104.12
434.10	6167.31
434.28	6019.86
434.47	6015.18
434.66	6246.89
434.85	6225.82
435.03	6305.40
435.22	6249.23
435.41	6415.41
435.59	6382.64
435.78	6600.31
435.97	6403.71
436.16	6200.08
436.34	6380.30
436.53	6485.62
436.72	6604.99
436.90	6537.12
437.09	6555.84
437.28	6656.48
437.46	6686.91
437.65	6567.54
437.84	6729.04
438.02	6862.45
438.21	6871.81
438.40	6764.15
438.58	7040.33
438.77	6995.86
438.96	6902.24
439.14	7131.61
439.33	7201.83
439.52	7138.63
439.70	7253.32
439.89	7351.62
440.08	7321.20
440.26	7166.72
440.45	7346.94
440.63	7524.82
440.82	7573.97
441.01	7424.18
441.19	7641.85
441.38	7829.09
441.57	7705.04
441.75	7768.24
441.94	7847.82
442.12	7999.95
442.31	7857.18
442.50	8210.60
442.68	7943.78
442.87	7880.58
443.05	8266.77
443.24	8332.31
443.43	8032.72
443.61	8147.40
443.80	8542.96
443.98	7880.58
444.17	7836.11
444.35	8341.67
444.54	8198.90
444.73	8308.90
444.91	8301.88
445.10	8301.88
445.28	8166.13
445.47	8325.29
445.65	8339.33
445.84	8414.23
446.02	8554.66
446.21	8283.16
446.39	8428.27
446.58	8386.14
446.77	8416.57
446.95	8252.73
447.14	8404.86
447.32	8458.70
447.51	8442.31
447.69	8390.82
447.88	8365.07
448.06	8430.61
448.25	8493.80
448.43	8549.98
448.62	8568.70
448.80	8692.75
448.99	8648.28
449.17	8624.87
449.36	8603.81
449.54	8856.59
449.73	8975.95
449.91	8950.21
450.10	8732.54
450.28	9041.49
450.46	8964.25
450.65	8945.53
450.83	9172.56
451.02	8940.85
451.20	9177.24
451.39	9123.41
451.57	9064.89
451.76	8994.68
451.94	8954.89
452.13	9343.42
452.31	9371.50
452.49	9160.86
452.68	9362.14
452.86	9425.34
453.05	9380.87
453.23	9387.89
453.42	9490.87
453.60	9509.60
453.78	9626.62
453.97	9401.93
454.15	9586.83
454.34	9661.73
454.52	9734.29
454.70	9577.47
454.89	9727.27
455.07	9706.20
455.26	9757.69
455.44	10059.62
455.62	9891.10
455.81	9797.48
455.99	9940.26
456.17	10207.08
456.36	10036.22
456.54	10193.03
456.73	10317.08
456.91	10389.64
457.09	10504.32
457.28	10553.48
457.46	10396.66
457.64	10520.71
457.83	10579.22
458.01	10328.78
458.19	10614.33
458.38	10583.90
458.56	10717.31
458.74	10623.69
458.93	10656.46
459.11	10909.24
459.29	10707.95
459.48	10815.62
459.66	10644.76
459.84	10656.46
460.03	11059.03
460.21	10909.24
460.39	10885.83
460.57	11009.88
460.76	10932.64
460.94	11192.44
461.12	11318.83
461.31	11108.18
461.49	11000.52
461.67	11073.07
461.85	11545.86
462.04	11440.54
462.22	11768.21
462.40	11597.35
462.59	11559.91
462.77	11410.11
462.95	11405.43
463.13	11501.39
463.32	11473.31
463.50	11602.04
463.68	11698.00
463.86	12053.76
464.05	11489.69
464.23	11618.42
464.41	12039.72
464.59	11613.74
464.78	12044.40
464.96	11817.36
465.14	11885.24
465.32	12107.59
465.50	12086.53
465.69	12016.31
465.87	11988.22
466.05	11976.52
466.23	12161.42
466.41	12084.19
466.60	12432.93
466.78	12044.40
466.96	12198.87
467.14	12224.62
467.32	12042.06
467.51	12524.21
467.69	11960.14
467.87	12400.16
468.05	12601.44
468.23	12093.55
468.41	12325.26
468.60	12313.56
468.78	12819.11
468.96	12755.92
469.14	12945.50
469.32	12821.45
469.50	12556.97
469.69	12938.48
469.87	13212.32
470.05	12882.31
470.23	13060.19
470.41	12896.35
470.59	13469.78
470.77	13092.96
470.95	13298.92
471.14	13408.93
471.32	13067.21
471.50	13537.66
471.68	13769.37
471.86	13549.36
472.04	13855.97
472.22	13802.14
472.40	13706.18
472.58	13919.17
472.77	13928.53
472.95	14029.17
473.13	14508.98
473.31	14001.08
473.49	14338.12
473.67	14134.50
473.85	14424.72
474.03	14672.82
474.21	14714.95
474.39	14422.38
474.57	14623.67
474.75	14740.69
474.93	15040.28
475.12	14916.23
475.30	15115.18
475.48	15075.39
475.66	15059.01
475.84	15126.88
476.02	15267.31
476.20	15538.82
476.38	15538.82
476.56	15798.62
476.74	15941.39
476.92	15854.79
477.10	15630.10
477.28	16049.05
477.46	16187.14
477.64	15929.69
477.82	16358.00
478.00	16786.32
478.18	16613.12
478.36	16823.77
478.54	16994.63
478.72	17144.42
478.90	17584.44
479.08	17668.70
479.26	17619.55
479.44	17607.85
479.62	17944.89
479.80	17813.82
479.98	17972.97
480.16	18214.05
480.34	18370.86
480.52	18377.89
480.70	18483.21
480.88	18614.28
481.06	18773.44
481.24	18633.00
481.41	19117.50
481.59	19302.40
481.77	19428.79
481.95	19311.76
482.13	19517.73
482.31	19351.55
482.49	20418.83
482.67	20346.28
482.85	20545.22
483.03	20299.47
483.21	20826.09
483.39	21060.14
483.57	20683.31
483.74	20905.66
483.92	21362.07
484.10	20863.54
484.28	21612.51
484.46	22043.17
484.64	22419.99
484.82	21778.68
485.00	22340.41
485.18	23030.87
485.35	23246.20
485.53	22616.60
485.71	22434.03
485.89	23220.45
486.07	23173.64
486.25	23454.51
486.43	23304.71
486.61	23641.75
486.78	23765.80
486.96	24006.87
487.14	24542.86
487.32	24140.29
487.50	24898.62
487.68	25109.27
487.85	25003.94
488.03	25387.79
488.21	25837.17
488.39	25572.69
488.57	25933.14
488.75	25879.30
488.92	26450.39
489.10	26647.00
489.28	26679.77
489.46	26897.44
489.64	26995.74
489.81	27623.00
489.99	27501.29
490.17	28009.19
490.35	27651.09
490.53	27999.83
490.70	28198.77
490.88	27997.49
491.06	28765.18
491.24	28510.07
491.41	28811.99
491.59	29284.78
491.77	29090.52
491.95	29509.47
492.13	29558.63
492.30	29539.90
492.48	29825.45
492.66	30228.02
492.84	30213.98
493.01	30878.69
493.19	30211.64
493.37	31168.91
493.54	31070.61
493.72	31152.53
493.90	31269.56
494.08	31784.48
494.25	31803.20
494.43	31950.65
494.61	32336.84
494.79	32638.77
494.96	32704.31
495.14	32884.53
495.32	33118.58
495.49	32938.36
495.67	33284.76
495.85	33111.56
496.02	33886.28
496.20	33954.15
496.38	33963.51
496.55	34167.14
496.73	34522.90
496.91	34450.35
497.09	34642.27
497.26	34834.19
497.44	34803.77
497.62	35442.73
497.79	35817.22
497.97	35255.49
498.14	36266.60
498.32	35536.35
498.50	36299.37
498.67	36643.43
498.85	36491.29
499.03	36194.04
499.20	36577.89
499.38	36580.23
499.56	36627.04
499.73	37282.39
499.91	37387.72
500.08	37401.76
500.26	37368.99
500.44	37427.51
500.61	37677.94
500.79	37710.71
500.97	37996.26
501.14	38890.34
501.32	38586.07
501.49	38415.21
501.67	38827.15
501.84	38946.51
502.02	38679.69
502.20	38787.36
502.37	39276.53
502.55	39192.27
502.72	39381.85
502.90	39597.18
503.07	39358.45
503.25	39428.66
503.43	39541.01
503.60	39966.99
503.78	40098.06
503.95	39868.69
504.13	40264.24
504.30	40446.80
504.48	40486.59
504.65	40779.15
504.83	40795.54
505.01	40842.35
505.18	41013.21
505.36	41401.74
505.53	41031.93
505.71	41083.42
505.88	41883.89
506.06	41397.06
506.23	42050.06
506.41	42108.58
506.58	41801.97
506.76	41923.68
506.93	42089.85
507.11	42220.92
507.28	42183.48
507.46	42340.29
507.63	42656.26
507.81	43196.93
507.98	43253.10
508.16	43196.93
508.33	43264.80
508.50	43442.68
508.68	43147.78
508.85	43805.47
509.03	43384.17
509.20	44154.21
509.38	44245.49
509.55	44378.90
509.73	44313.36
509.90	44388.26
510.08	44949.99
510.25	44130.80
510.42	44332.09
510.60	44617.63
510.77	45141.91
510.95	45212.13
511.12	45067.02
511.30	45387.67
511.47	45235.53
511.64	45397.03
511.82	45497.67
511.99	45595.98
512.17	45977.48
512.34	45731.73
512.51	46424.53
512.69	46319.20
512.86	46000.89
513.04	46326.22
513.21	46204.52
513.38	45958.76
513.56	46529.85
513.73	46871.57
513.90	46681.98
514.08	46663.26
514.25	46983.91
514.43	47327.97
514.60	47168.82
514.77	47016.68
514.95	47182.86
515.12	47363.08
515.29	47122.01
515.47	48069.92
515.64	47732.89
515.81	47613.52
515.99	48149.50
516.16	47882.68
516.33	48196.31
516.51	48292.27
516.68	48282.91
516.85	48271.21
517.03	48889.11
517.20	48566.12
517.37	48633.99
517.54	48989.75
517.72	48893.79
517.89	49057.63
518.06	49078.69
518.24	49310.41
518.41	49041.24
518.58	49209.76
518.75	49317.43
518.93	48982.73
519.10	49364.24
519.27	49600.63
519.45	49450.84
519.62	50052.36
519.79	49649.78
519.96	49794.90
520.14	50157.68
520.31	49907.24
520.48	50305.13
520.65	50230.24
520.83	50405.78
521.00	50314.50
521.17	50433.86
521.34	50550.89
521.52	50487.70
521.69	50897.29
521.86	50681.96
522.03	51028.36
522.20	51545.62
522.38	51351.35
522.55	51061.13
522.72	51295.18
522.89	51253.05
523.07	51526.89
523.24	51051.76
523.41	51681.37
523.58	51189.86
523.75	51597.11
523.92	51737.54
524.10	52002.02
524.27	51615.83
524.44	51838.18
524.61	51833.50
524.78	51913.08
524.96	52067.56
525.13	52002.02
525.30	52238.42
525.47	52549.71
525.64	52509.92
525.81	52367.15
525.98	52750.99
526.16	52236.08
526.33	52481.83
526.50	52811.85
526.67	52736.95
526.84	52870.36
527.01	52549.71
527.18	52994.41
527.36	52676.10
527.53	52982.71
527.70	53034.20
527.87	53062.29
528.04	53073.99
528.21	53268.25
528.38	53160.59
528.55	53612.31
528.72	53233.14
528.89	53357.19
529.07	53191.01
529.24	53120.80
529.41	53544.44
529.58	53595.93
529.75	53528.05
529.92	53696.57
530.09	53783.17
530.26	53719.98
530.43	54129.57
530.60	53570.18
530.77	53750.40
530.94	54005.52
531.11	53797.21
531.28	53904.88
531.46	54087.44
531.63	54202.13
531.80	53993.82
531.97	54237.23
532.14	54424.48
532.31	54251.28
532.48	54387.03
532.65	54611.72
532.82	54281.70
532.99	54735.77
533.16	54396.39
533.33	55033.02
533.50	54820.03
533.67	54667.89
533.84	54459.58
534.01	54848.11
534.18	54871.52
534.35	55171.11
534.52	54930.03
534.69	54862.16
534.86	55332.60
535.03	54852.80
535.20	55178.13
535.37	55250.69
535.54	55285.79
535.71	55208.56
535.88	55402.82
536.05	55430.91
536.22	55583.04
536.38	55358.35
536.55	55400.48
536.72	55718.79
536.89	55171.11
537.06	55524.53
537.23	55786.67
537.40	55594.74
537.57	55463.67
537.74	55854.54
537.91	55990.30
538.08	55866.25
538.25	55693.05
538.42	55849.86
538.59	55798.37
538.75	55690.71
538.92	55847.52
539.09	56065.19
539.26	56006.68
539.43	55934.12
539.60	56224.35
539.77	55969.23
539.94	56388.19
540.11	56388.19
540.28	56257.12
540.44	56584.79
540.61	56388.19
540.78	56196.26
540.95	56357.76
541.12	56121.37
541.29	56399.89
541.46	56477.13
541.62	56222.01
541.79	56584.79
541.96	56322.65
542.13	56306.27
542.30	56432.66
542.47	56839.91
542.63	56865.66
542.80	56598.83
542.97	57027.15
543.14	57064.60
543.31	57059.92
543.48	57258.87
543.64	57558.45
543.81	57387.60
543.98	57116.09
544.15	57371.21
544.32	57457.81
544.48	57605.26
544.65	57249.50
544.82	57279.93
544.99	57329.08
545.16	57303.34
545.32	57361.85
545.49	57375.89
545.66	57558.45
545.83	57457.81
546.00	57785.49
546.16	57469.51
546.33	57357.17
546.50	57326.74
546.67	57865.06
546.83	57308.02
547.00	57448.45
547.17	57722.29
547.34	57586.54
547.50	57773.78
547.67	58059.33
547.84	57862.72
548.00	57989.11
548.17	58141.25
548.34	57921.24
548.51	58150.61
548.67	58003.16
548.84	58134.23
549.01	58047.63
549.18	58073.37
549.34	57982.09
549.51	58178.70
549.68	58365.94
549.84	58262.96
550.01	58312.11
550.18	58284.02
550.34	58377.64
550.51	58267.64
550.68	58405.73
550.84	58096.78
551.01	58440.84
551.18	58323.81
551.34	58443.18
551.51	58431.47
551.68	58356.58
551.84	58602.33
552.01	58464.24
552.18	58489.99
552.34	58520.41
552.51	58808.30
552.68	58520.41
552.84	58803.62
553.01	58808.30
553.18	58763.83
553.34	59065.76
553.51	58721.70
553.67	58674.89
553.84	58827.02
554.01	58908.94
554.17	58768.51
554.34	58922.99
554.51	58852.77
554.67	58892.56
554.84	59014.27
555.00	58763.83
555.17	58901.92
555.33	58890.22
555.50	58796.60
555.67	59016.61
555.83	58958.09
556.00	58892.56
556.16	59269.39
556.33	59194.49
556.50	59250.66
556.66	59304.49
556.83	59096.19
556.99	59346.62
557.16	59416.84
557.32	59365.35
557.49	59461.31
557.65	59271.73
557.82	59208.53
557.98	59348.96
558.15	59363.01
558.32	59365.35
558.48	59412.16
558.65	59510.46
558.81	59339.60
558.98	59531.53
559.14	59402.80
559.31	59510.46
559.47	59351.30
559.64	59517.48
559.80	59716.43
559.97	59723.45
560.13	59325.56
560.30	59625.15
560.46	59697.70
560.63	59650.89
560.79	59554.93
560.96	59845.16
561.12	59803.03
561.29	59931.76
561.45	59601.74
561.61	59578.34
561.78	59611.10
561.94	59536.21
562.11	59711.75
562.27	59840.48
562.44	59877.93
562.60	60196.24
562.77	59859.20
562.93	59798.35
563.10	59983.25
563.26	59898.99
563.42	60044.10
563.59	59943.46
563.75	59847.50
563.92	59978.57
564.08	59903.67
564.24	60154.11
564.41	60088.57
564.57	60001.97
564.74	59877.93
564.90	60034.74
565.07	60074.53
565.23	59744.51
565.39	59983.25
565.56	59980.91
565.72	59994.95
565.88	59992.61
566.05	60037.08
566.21	59847.50
566.38	60200.92
566.54	59957.50
566.70	60243.05
566.87	60322.63
567.03	59990.27
567.19	60519.23
567.36	60200.92
567.52	60273.48
567.68	60481.78
567.85	60170.49
568.01	60296.88
568.17	60261.77
568.34	60236.03
568.50	60205.60
568.66	60355.39
568.83	60409.23
568.99	60383.48
569.15	60376.46
569.32	60348.37
569.48	60193.90
569.64	60399.86
569.81	60402.21
569.97	60299.22
570.13	60320.29
570.30	60257.09
570.46	60432.63
570.62	60493.49
570.78	60441.99
570.95	60439.65
571.11	60413.91
571.27	60210.28
571.43	60467.74
571.60	60516.89
571.76	60556.68
571.92	60549.66
572.09	60257.09
572.25	60418.59
572.41	60544.98
572.57	60587.11
572.74	60732.22
572.90	60481.78
573.06	60657.32
573.22	60544.98
573.38	60413.91
573.55	60540.30
573.71	60797.76
573.87	60584.77
574.03	60516.89
574.20	60727.54
574.36	60575.40
574.52	60619.88
574.68	60587.11
574.84	60708.82
575.01	60488.80
575.17	60610.51
575.33	60444.33
575.49	60582.43
575.65	60633.92
575.82	60633.92
575.98	60809.46
576.14	61034.15
576.30	60582.43
576.46	60720.52
576.62	60687.75
576.79	60664.35
576.95	60502.85
577.11	60800.10
577.27	60734.56
577.43	60666.69
577.59	60563.70
577.75	60732.22
577.92	60633.92
578.08	60774.35
578.24	60762.65
578.40	61031.81
578.56	60722.86
578.72	60821.16
578.88	61027.13
579.04	60795.42
579.21	60697.11
579.37	61027.13
579.53	60903.08
579.69	60598.81
579.85	60764.99
580.01	60713.50
580.17	60720.52
580.33	60870.31
580.49	60898.40
580.65	60732.22
580.82	60554.34
580.98	60793.07
581.14	60732.22
581.30	60931.17
581.46	60793.07
581.62	60781.37
581.78	60891.38
581.94	60879.67
582.10	60807.12
582.26	60970.96
582.42	60970.96
582.58	60933.51
582.74	60980.32
582.90	60828.18
583.06	60994.36
583.22	60673.71
583.38	60818.82
583.54	60807.12
583.70	60807.12
583.86	61048.19
584.02	60772.01
584.18	61048.19
584.34	60814.14
584.50	60900.74
584.66	60790.73
584.82	60601.15
584.98	61102.03
585.14	61071.60
585.30	60823.50
585.46	60989.68
585.62	60968.61
585.78	60889.04
585.94	60772.01
586.10	61055.21
586.26	60926.49
586.42	61066.92
586.58	60903.08
586.74	60781.37
586.90	60961.59
587.06	60949.89
587.22	61190.97
587.38	60823.50
587.54	61095.00
587.70	61258.84
587.86	61167.56
588.02	60917.12
588.18	61258.84
588.34	60999.04
588.49	60746.26
