SpectraSuite Data File
++++++++++++++++++++++++++++++++++++
Date: Fri Oct 25 11:25:38 EDT 2013
User: price-jones
Dark Spectrum Present: No
Reference Spectrum Present: No
Number of Sampled Component Spectra: 1
Spectrometers: USB2+H05261
Integration Time (usec): 100000 (USB2+H05261)
Spectra Averaged: 1 (USB2+H05261)
Boxcar Smoothing: 0 (USB2+H05261)
Correct for Electrical Dark: No (USB2+H05261)
Strobe/Lamp Enabled: No (USB2+H05261)
Correct for Detector Non-linearity: No (USB2+H05261)
Correct for Stray Light: No (USB2+H05261)
Number of Pixels in Processed Spectrum: 2048
>>>>>Begin Processed Spectral Data<<<<<
365.73	161.50
365.92	161.50
366.12	161.50
366.32	182.56
366.52	147.45
366.72	131.07
366.91	63.19
367.11	159.16
367.31	124.05
367.51	110.01
367.70	201.29
367.90	142.77
368.10	166.18
368.30	149.79
368.49	114.69
368.69	217.67
368.89	128.73
369.09	140.43
369.28	147.45
369.48	156.82
369.68	175.54
369.87	168.52
370.07	154.48
370.27	194.26
370.47	348.74
370.66	510.24
370.86	608.54
371.06	636.63
371.25	578.11
371.45	685.78
371.65	727.91
371.84	697.48
372.04	657.69
372.24	685.78
372.44	662.37
372.63	702.16
372.83	772.38
373.03	716.20
373.22	772.38
373.42	753.65
373.62	767.70
373.81	812.17
374.01	716.20
374.21	812.17
374.40	856.64
374.60	819.19
374.79	849.61
374.99	854.30
375.19	814.51
375.38	861.32
375.58	823.87
375.78	877.70
375.97	805.14
376.17	938.55
376.37	842.59
376.56	833.23
376.76	903.45
376.95	826.21
377.15	856.64
377.35	884.72
377.54	858.98
377.74	891.74
377.93	917.49
378.13	976.00
378.33	950.26
378.52	882.38
378.72	908.13
378.91	901.11
379.11	856.64
379.31	940.90
379.50	936.21
379.70	957.28
379.89	961.96
380.09	983.02
380.28	1025.15
380.48	1011.11
380.68	945.58
380.87	938.55
381.07	966.64
381.26	1027.50
381.46	1039.20
381.65	978.34
381.85	1027.50
382.04	1029.84
382.24	1064.94
382.43	1074.31
382.63	1076.65
382.83	1081.33
383.02	1149.20
383.22	1158.57
383.41	1055.58
383.61	1137.50
383.80	1142.18
384.00	1029.84
384.19	1109.41
384.39	1191.33
384.58	1060.26
384.78	1153.88
384.97	1219.42
385.17	1086.01
385.36	1074.31
385.56	1107.07
385.75	1123.46
385.95	1067.28
386.14	1198.35
386.34	1235.80
386.53	1193.67
386.72	1198.35
386.92	1245.16
387.11	1273.25
387.31	1336.45
387.50	1296.66
387.70	1275.59
387.89	1214.74
388.09	1282.61
388.28	1196.01
388.48	1228.78
388.67	1268.57
388.86	1221.76
389.06	1378.58
389.25	1313.04
389.45	1252.19
389.64	1313.04
389.84	1425.39
390.03	1378.58
390.22	1324.74
390.42	1352.83
390.61	1413.68
390.81	1399.64
391.00	1277.93
391.19	1462.83
391.39	1467.52
391.58	1481.56
391.78	1425.39
391.97	1390.28
392.16	1413.68
392.36	1596.25
392.55	1586.88
392.75	1430.07
392.94	1490.92
393.13	1495.60
393.33	1453.47
393.52	1586.88
393.71	1535.39
393.91	1605.61
394.10	1528.37
394.29	1605.61
394.49	1474.54
394.68	1678.16
394.88	1619.65
395.07	1645.40
395.26	1650.08
395.46	1612.63
395.65	1710.93
395.84	1696.89
396.04	1809.23
396.23	1722.63
396.42	1713.27
396.62	1839.66
396.81	1657.10
397.00	1750.72
397.19	1757.74
397.39	1694.55
397.58	1860.73
397.77	1778.81
397.97	1767.10
398.16	1804.55
398.35	1926.26
398.55	1783.49
398.74	1888.81
398.93	1921.58
399.12	1921.58
399.32	1888.81
399.51	1860.73
399.70	1991.80
399.90	1827.96
400.09	2029.24
400.28	2057.33
400.47	2003.50
400.67	2064.35
400.86	2073.71
401.05	2033.93
401.24	1970.73
401.44	2101.80
401.63	2094.78
401.82	2129.89
402.01	2113.50
402.21	2115.84
402.40	2263.30
402.59	2136.91
402.78	2272.66
402.97	2221.17
403.17	2335.85
403.36	2239.89
403.55	2223.51
403.74	2298.41
403.93	2389.69
404.13	2380.32
404.32	2368.62
404.51	2422.45
404.70	2382.67
404.89	2436.50
405.09	2403.73
405.28	2476.29
405.47	2452.88
405.66	2471.61
405.85	2382.67
406.05	2502.03
406.24	2527.78
406.43	2612.04
406.62	2565.23
406.81	2677.57
407.00	2551.18
407.20	2504.37
407.39	2567.57
407.58	2719.70
407.77	2628.42
407.96	2785.24
408.15	2698.64
408.34	2654.17
408.54	2761.83
408.73	2649.49
408.92	2834.39
409.11	2799.28
409.30	2892.90
409.49	2998.23
409.68	2967.80
409.87	2925.67
410.07	2984.18
410.26	3047.38
410.45	2939.71
410.64	3026.31
410.83	2993.55
411.02	3049.72
411.21	3194.83
411.40	3133.98
411.59	3108.23
411.78	3199.51
411.98	3229.94
412.17	3213.56
412.36	3300.16
412.55	3407.82
412.74	3386.76
412.93	3372.71
413.12	3473.36
413.31	3566.98
413.50	3459.31
413.69	3412.50
413.88	3639.53
414.07	3562.30
414.26	3585.70
414.45	3648.90
414.64	3637.19
414.83	3782.31
415.02	3637.19
415.22	3775.28
415.41	3899.33
415.60	3829.12
415.79	3868.91
415.98	4044.45
416.17	3999.98
416.36	3899.33
416.55	3988.27
416.74	3971.89
416.93	4035.08
417.12	3971.89
417.31	4198.92
417.50	4203.60
417.69	4264.46
417.88	4241.05
418.07	4234.03
418.26	4231.69
418.45	4238.71
418.64	4456.38
418.83	4451.70
419.02	4285.52
419.21	4617.88
419.39	4428.29
419.58	4496.17
419.77	4393.19
419.96	4601.49
420.15	4484.47
420.34	4617.88
420.53	4685.75
420.72	4540.64
420.91	4617.88
421.10	4622.56
421.29	4798.10
421.48	4657.67
421.67	4753.63
421.86	4723.20
422.05	4873.00
422.24	4671.71
422.43	4823.84
422.61	4847.25
422.80	4833.21
422.99	5064.92
423.18	4915.12
423.37	5025.13
423.56	4884.70
423.75	4894.06
423.94	4732.56
424.13	4587.45
424.32	4807.46
424.50	5006.41
424.69	5008.75
424.88	4968.96
425.07	4840.23
425.26	4896.40
425.45	4889.38
425.64	4957.25
425.83	4933.85
426.01	5062.58
426.20	5074.28
426.39	5011.09
426.58	5146.84
426.77	5067.26
426.96	5104.71
427.15	4945.55
427.33	5294.29
427.52	5245.14
427.71	5322.38
427.90	5074.28
428.09	5177.26
428.28	5401.96
428.46	5303.65
428.65	5327.06
428.84	5551.75
429.03	5469.83
429.22	5352.81
429.40	5401.96
429.59	5495.58
429.78	5205.35
429.97	5252.16
430.16	5511.96
430.34	5530.69
430.53	5638.35
430.72	5699.20
430.91	5458.13
431.10	5645.37
431.28	5727.29
431.47	5788.14
431.66	5849.00
431.85	5884.11
432.03	5722.61
432.22	6017.52
432.41	5926.24
432.60	5942.62
432.79	5767.08
432.97	5975.39
433.16	6188.38
433.35	5898.15
433.54	6113.48
433.72	6204.76
433.91	6097.10
434.10	6221.14
434.28	5949.64
434.47	6069.01
434.66	6237.53
434.85	6148.59
435.03	6310.08
435.22	6431.79
435.41	6532.44
435.59	6218.80
435.78	6296.04
435.97	6497.33
436.16	6291.36
436.34	6272.64
436.53	6513.71
436.72	6600.31
436.90	6431.79
437.09	6722.02
437.28	6541.80
437.46	6590.95
437.65	6476.26
437.84	6775.85
438.02	6738.40
438.21	6876.49
438.40	6663.51
438.58	6944.37
438.77	7026.29
438.96	6792.23
439.14	7176.08
439.33	7122.25
439.52	7279.07
439.70	7028.63
439.89	7325.88
440.08	7382.05
440.26	7279.07
440.45	7302.47
440.63	7382.05
440.82	7698.02
441.01	7480.35
441.19	7499.08
441.38	7609.08
441.57	7562.27
441.75	7569.29
441.94	7831.43
442.12	7927.39
442.31	7950.80
442.50	7990.59
442.68	7967.18
442.87	8028.04
443.05	8238.69
443.24	8077.19
443.43	8128.68
443.61	8243.37
443.80	8400.18
443.98	8028.04
444.17	7976.55
444.35	7990.59
444.54	8229.32
444.73	8264.43
444.91	8051.44
445.10	8386.14
445.28	8182.51
445.47	8203.58
445.65	8187.19
445.84	8360.39
446.02	8374.44
446.21	8318.26
446.39	8477.42
446.58	8468.06
446.77	8489.12
446.95	8341.67
447.14	8327.63
447.32	8517.21
447.51	8465.72
447.69	8428.27
447.88	8393.16
448.06	8411.89
448.25	8486.78
448.43	8580.40
448.62	8531.25
448.80	8381.46
448.99	8617.85
449.17	8610.83
449.36	8552.32
449.54	8622.53
449.73	8957.23
449.91	8737.22
450.10	8940.85
450.28	9114.05
450.46	8950.21
450.65	8879.99
450.83	9015.74
451.02	9053.19
451.20	9212.35
451.39	9118.73
451.57	8922.12
451.76	8779.35
451.94	9097.66
452.13	9448.74
452.31	9497.89
452.49	9137.45
452.68	9406.61
452.86	9270.86
453.05	9259.16
453.23	9584.49
453.42	9343.42
453.60	9198.31
453.78	9537.68
453.97	9277.88
454.15	9408.95
454.34	9572.79
454.52	9619.60
454.70	9633.64
454.89	9528.32
455.07	9535.34
455.26	9652.37
455.44	9797.48
455.62	9865.36
455.81	9893.44
455.99	9762.37
456.17	9968.34
456.36	9827.91
456.54	10174.31
456.73	9994.09
456.91	10349.85
457.09	10422.41
457.28	10593.26
457.46	10178.99
457.64	10581.56
457.83	10286.65
458.01	10279.63
458.19	10862.43
458.38	10789.87
458.56	10534.75
458.74	10530.07
458.93	10705.61
459.11	10785.19
459.29	10647.10
459.48	10712.63
459.66	10752.42
459.84	10871.79
460.03	11049.67
460.21	10988.82
460.39	10871.79
460.57	10939.66
460.76	10993.50
460.94	11283.72
461.12	11227.55
461.31	11087.12
461.49	10995.84
461.67	11112.86
461.85	11360.96
462.04	11150.31
462.22	11859.49
462.40	11730.76
462.59	11365.64
462.77	11367.98
462.95	11323.51
463.13	11398.41
463.32	11679.27
463.50	11627.78
463.68	11707.36
463.86	11377.34
464.05	11487.35
464.23	11660.55
464.41	11690.98
464.59	11548.20
464.78	11995.25
464.96	11826.73
465.14	11529.48
465.32	11950.78
465.50	11985.88
465.69	11999.93
465.87	11946.09
466.05	12131.00
466.23	12091.21
466.41	12212.92
466.60	12343.99
466.78	12341.64
466.96	11974.18
467.14	12131.00
467.32	12152.06
467.51	12489.10
467.69	12037.38
467.87	12269.09
468.05	12423.56
468.23	12334.62
468.41	12231.64
468.60	12496.12
468.78	12760.60
468.96	12566.34
469.14	12793.37
469.32	12863.58
469.50	12346.33
469.69	12924.44
469.87	12905.71
470.05	13165.51
470.23	13116.36
470.41	13001.68
470.59	13130.41
470.77	12896.35
470.95	13472.12
471.14	13238.07
471.32	13114.02
471.50	13579.79
471.68	13582.13
471.86	13345.73
472.04	13743.63
472.22	13916.83
472.40	13895.76
472.58	13682.77
472.77	13956.61
472.95	13984.70
473.13	14743.03
473.31	14085.34
473.49	14064.28
473.67	14115.77
473.85	14317.06
474.03	14597.92
474.21	14626.01
474.39	14665.80
474.57	14642.39
474.75	14860.06
474.93	14834.32
475.12	14902.19
475.30	15194.76
475.48	14780.48
475.66	14885.81
475.84	14822.61
476.02	15159.65
476.20	15269.66
476.38	15709.68
476.56	15833.72
476.74	15768.19
476.92	15522.43
477.10	15775.21
477.28	16023.31
477.46	16283.11
477.64	16149.70
477.82	16435.24
478.00	16613.12
478.18	16713.77
478.36	16912.71
478.54	16924.41
478.72	17205.28
478.90	17256.77
479.08	17549.34
479.26	17888.71
479.44	17415.93
479.62	17869.99
479.80	17869.99
479.98	17954.25
480.16	18427.04
480.34	18038.51
480.52	18448.10
480.70	18284.26
480.88	18293.63
481.06	18558.11
481.24	18710.24
481.41	19033.24
481.59	19161.97
481.77	19381.98
481.95	19494.32
482.13	19847.74
482.31	19342.19
482.49	20020.94
482.67	20144.99
482.85	20051.37
483.03	20430.54
483.21	20617.78
483.39	20833.11
483.57	20786.30
483.74	20964.18
483.92	21223.98
484.10	21032.05
484.28	21369.09
484.46	21972.95
484.64	22087.64
484.82	22120.40
485.00	22338.07
485.18	22703.20
485.35	22995.76
485.53	23068.32
485.71	22829.59
485.89	23651.11
486.07	23063.64
486.25	23447.49
486.43	23410.04
486.61	23442.81
486.78	23777.50
486.96	24252.63
487.14	24285.40
487.32	24491.37
487.50	24662.22
487.68	24648.18
487.85	24893.94
488.03	25266.08
488.21	25572.69
488.39	25549.29
488.57	25792.70
488.75	26033.78
488.92	26129.74
489.10	26670.40
489.28	26225.70
489.46	27178.30
489.64	27012.12
489.81	27452.14
489.99	27592.58
490.17	27466.19
490.35	27976.42
490.53	28175.37
490.70	27920.25
490.88	27735.35
491.06	28582.62
491.24	28601.35
491.41	28690.29
491.59	29116.26
491.77	29146.69
491.95	29289.46
492.13	29589.05
492.30	29766.93
492.48	29729.48
492.66	30171.85
492.84	30150.78
493.01	30831.88
493.19	30548.67
493.37	30749.96
493.54	30726.55
493.72	31089.34
493.90	31171.25
494.08	31285.94
494.25	32065.34
494.43	31936.61
494.61	32444.51
494.79	32348.54
494.96	32404.72
495.14	32591.96
495.32	33006.23
495.49	33177.09
495.67	32954.74
495.85	33310.50
496.02	33488.38
496.20	33839.47
496.38	33968.19
496.55	33787.97
496.73	34639.93
496.91	34565.03
497.09	34801.43
497.26	34953.56
497.44	34761.64
497.62	35285.92
497.79	35442.73
497.97	35604.23
498.14	35424.01
498.32	36027.87
498.50	36137.87
498.67	36065.31
498.85	36397.67
499.03	36203.41
499.20	36481.93
499.38	36374.27
499.56	36631.72
499.73	36917.27
499.91	36999.19
500.08	37200.47
500.26	37544.53
500.44	37851.14
500.61	37654.54
500.79	37401.76
500.97	37584.32
501.14	38354.36
501.32	38457.34
501.49	38398.83
501.67	38476.07
501.84	39023.75
502.02	38876.30
502.20	38848.21
502.37	39405.26
502.55	39049.50
502.72	39175.89
502.90	39215.68
503.07	39330.36
503.25	39646.33
503.43	39405.26
503.60	39737.62
503.78	40280.62
503.95	39793.79
504.13	40259.55
504.30	40472.54
504.48	40704.26
504.65	40360.20
504.83	40772.13
505.01	41067.04
505.18	40847.03
505.36	41619.41
505.53	40935.97
505.71	41205.13
505.88	41291.73
506.06	41296.41
506.23	41727.07
506.41	41116.19
506.58	41691.96
506.76	41771.54
506.93	41785.58
507.11	42038.36
507.28	42431.57
507.46	42457.32
507.63	42335.61
507.81	42759.25
507.98	42323.91
508.16	42747.54
508.33	43304.59
508.50	43384.17
508.68	43285.87
508.85	43522.26
509.03	43793.76
509.20	43704.82
509.38	44020.80
509.55	44121.44
509.73	44184.63
509.90	44320.38
510.08	43674.40
510.25	44444.43
510.42	44542.74
510.60	45003.82
510.77	45350.22
510.95	45258.94
511.12	44900.84
511.30	45088.08
511.47	45090.42
511.64	45595.98
511.82	45418.10
511.99	45478.95
512.17	45830.03
512.34	45720.02
512.51	46302.82
512.69	46028.98
512.86	45745.77
513.04	46770.93
513.21	46129.62
513.38	46597.73
513.56	46562.62
513.73	46581.34
513.90	46944.12
514.08	46909.02
514.25	47309.25
514.43	47089.24
514.60	47433.30
514.77	46923.06
514.95	47646.29
515.12	47466.06
515.29	47737.57
515.47	47828.85
515.64	47875.66
515.81	47765.65
515.99	47863.96
516.16	48563.78
516.33	48208.01
516.51	48217.38
516.68	48360.15
516.85	48430.36
517.03	48444.41
517.20	48521.65
517.37	48273.55
517.54	48500.58
517.72	48870.39
517.89	48896.13
518.06	48947.62
518.24	48793.15
518.41	49041.24
518.58	48905.49
518.75	48751.02
518.93	49350.20
519.10	49499.99
519.27	49684.89
519.45	49471.90
519.62	49830.01
519.79	49773.83
519.96	49436.80
520.14	50014.91
520.31	49708.30
520.48	50106.19
520.65	50054.70
520.83	50211.51
521.00	50237.26
521.17	50124.91
521.34	50525.14
521.52	50653.87
521.69	50625.79
521.86	50754.52
522.03	50649.19
522.20	51288.16
522.38	51110.28
522.55	51138.36
522.72	51180.49
522.89	51086.87
523.07	51536.26
523.24	51508.17
523.41	51821.80
523.58	51447.32
523.75	51136.02
523.92	51648.60
524.10	51627.54
524.27	51735.20
524.44	51838.18
524.61	51976.28
524.78	51999.68
524.96	52076.92
525.13	52257.14
525.30	52196.29
525.47	52364.81
525.64	52060.54
525.81	52505.24
525.98	52413.96
526.16	52456.09
526.33	52423.32
526.50	52931.22
526.67	52514.60
526.84	52804.83
527.01	52760.36
527.18	52914.83
527.36	52589.50
527.53	52877.38
527.70	53071.65
527.87	53198.04
528.04	52893.77
528.21	53083.35
528.38	53219.10
528.55	53312.72
528.72	53076.33
528.89	53198.04
529.07	53432.09
529.24	53336.13
529.41	53441.45
529.58	53593.59
529.75	53284.64
529.92	53539.75
530.09	53401.66
530.26	53815.94
530.43	53867.43
530.60	53286.98
530.77	53755.08
530.94	53666.14
531.11	53886.15
531.28	54080.42
531.46	54094.46
531.63	54068.72
531.80	54000.84
531.97	54405.75
532.14	54485.33
532.31	54365.96
532.48	54347.24
532.65	54515.76
532.82	54534.48
532.99	54834.07
533.16	54581.29
533.33	54794.28
533.50	54656.19
533.67	54581.29
533.84	54625.76
534.01	54911.31
534.18	54607.04
534.35	54934.71
534.52	54798.96
534.69	55114.94
534.86	55100.89
535.03	54873.86
535.20	55007.27
535.37	55206.22
535.54	55264.73
535.71	54934.71
535.88	55215.58
536.05	55449.63
536.22	55477.72
536.38	55477.72
536.55	55213.24
536.72	55358.35
536.89	55150.04
537.06	55351.33
537.23	55524.53
537.40	55367.71
537.57	55374.73
537.74	55295.16
537.91	55938.80
538.08	55796.03
538.25	55679.00
538.42	55767.94
538.59	55915.40
538.75	55660.28
538.92	56004.34
539.09	56083.92
539.26	56116.68
539.43	55938.80
539.60	56200.94
539.77	55936.46
539.94	56275.84
540.11	56121.37
540.28	56360.10
540.44	56301.59
540.61	56229.03
540.78	56020.72
540.95	56226.69
541.12	56219.67
541.29	56104.98
541.46	56519.26
541.62	56416.27
541.79	56491.17
541.96	56044.13
542.13	56339.04
542.30	56488.83
542.47	56835.23
542.63	56537.98
542.80	56858.63
542.97	56793.10
543.14	56924.17
543.31	56924.17
543.48	57118.43
543.64	57214.40
543.81	57368.87
543.98	57167.58
544.15	57038.86
544.32	57230.78
544.48	57371.21
544.65	57078.64
544.82	57181.63
544.99	57141.84
545.16	57350.15
545.32	57279.93
545.49	57396.96
545.66	57528.03
545.83	57710.59
546.00	57530.37
546.16	57757.40
546.33	57190.99
546.50	57415.68
546.67	57553.77
546.83	57088.01
547.00	57691.86
547.17	57549.09
547.34	57668.46
547.50	57586.54
547.67	58082.73
547.84	57647.39
548.00	58026.56
548.17	58199.76
548.34	57853.36
548.51	58096.78
548.67	58085.07
548.84	58054.65
549.01	57776.12
549.18	57764.42
549.34	58085.07
549.51	57961.03
549.68	58204.44
549.84	58234.87
550.01	58211.46
550.18	58286.36
550.34	58326.15
550.51	58246.57
550.68	58300.40
550.84	58075.71
551.01	58499.35
551.18	58237.21
551.34	58288.70
551.51	58405.73
551.68	58440.84
551.84	58518.07
552.01	58457.22
552.18	58705.32
552.34	58543.82
552.51	58618.72
552.68	58497.01
552.84	58492.33
553.01	58866.81
553.18	58670.21
553.34	58841.07
553.51	58798.94
553.67	58585.95
553.84	58824.68
554.01	58642.12
554.17	58721.70
554.34	58862.13
554.51	58897.24
554.67	58864.47
554.84	58763.83
555.00	59119.59
555.17	58911.28
555.33	59044.69
555.50	58705.32
555.67	59032.99
555.83	58955.75
556.00	58934.69
556.16	59138.32
556.33	59164.06
556.50	59030.65
556.66	59051.72
556.83	58721.70
556.99	59182.79
557.16	59334.92
557.32	59449.61
557.49	59447.27
557.65	59206.19
557.82	59367.69
557.98	59201.51
558.15	59341.94
558.32	59173.42
558.48	59220.23
558.65	59147.68
558.81	59297.47
558.98	59208.53
559.14	59360.67
559.31	59332.58
559.47	59590.04
559.64	59290.45
559.80	59571.32
559.97	59594.72
560.13	59192.15
560.30	59597.06
560.46	59796.01
560.63	59711.75
560.79	59711.75
560.96	59664.94
561.12	59742.17
561.29	59744.51
561.45	59711.75
561.61	59604.08
561.78	59487.06
561.94	59664.94
562.11	59760.90
562.27	59657.91
562.44	59770.26
562.60	59842.82
562.77	59870.90
562.93	59693.02
563.10	59922.40
563.26	59800.69
563.42	60257.09
563.59	59723.45
563.75	59891.97
563.92	59765.58
564.08	59868.56
564.24	59957.50
564.41	60161.13
564.57	59955.16
564.74	60090.91
564.90	59952.82
565.07	59913.03
565.23	59891.97
565.39	60069.85
565.56	60088.57
565.72	59962.18
565.88	60060.49
566.05	59915.37
566.21	59901.33
566.38	60006.65
566.54	60058.15
566.70	60191.56
566.87	60406.89
567.03	59999.63
567.19	60385.82
567.36	60046.44
567.52	60107.30
567.68	60446.68
567.85	60268.79
568.01	60444.33
568.17	60177.51
568.34	60313.26
568.50	60453.70
568.66	60217.30
568.83	60292.20
568.99	60212.62
569.15	60285.18
569.32	60257.09
569.48	60186.88
569.64	60451.36
569.81	60285.18
569.97	60303.90
570.13	60229.01
570.30	60189.22
570.46	60350.71
570.62	60315.61
570.78	60439.65
570.95	60409.23
571.11	60411.57
571.27	60275.82
571.43	60348.37
571.60	60725.20
571.76	60495.83
571.92	60409.23
572.09	60381.14
572.25	60512.21
572.41	60425.61
572.57	60385.82
572.74	60427.95
572.90	60348.37
573.06	60526.25
573.22	60446.68
573.38	60430.29
573.55	60556.68
573.71	60647.96
573.87	60652.64
574.03	60296.88
574.20	60636.26
574.36	60612.85
574.52	60652.64
574.68	60587.11
574.84	60818.82
575.01	60516.89
575.17	60762.65
575.33	60367.10
575.49	60467.74
575.65	60835.20
575.82	60736.90
575.98	60633.92
576.14	60886.70
576.30	60739.24
576.46	60537.96
576.62	60692.43
576.79	60582.43
576.95	60264.11
577.11	60608.17
577.27	60652.64
577.43	60575.40
577.59	60860.95
577.75	60608.17
577.92	60456.04
578.08	60612.85
578.24	60626.90
578.40	60900.74
578.56	60764.99
578.72	60725.20
578.88	60945.21
579.04	60753.29
579.21	60746.26
579.37	61027.13
579.53	60701.79
579.69	60488.80
579.85	60657.32
580.01	60598.81
580.17	60619.88
580.33	60662.00
580.49	60821.16
580.65	60807.12
580.82	60577.75
580.98	60575.40
581.14	60594.13
581.30	60919.46
581.46	60692.43
581.62	60659.66
581.78	60568.38
581.94	60844.57
582.10	60776.69
582.26	60647.96
582.42	60598.81
582.58	60657.32
582.74	60669.03
582.90	60872.65
583.06	60896.06
583.22	60701.79
583.38	60764.99
583.54	60732.22
583.70	60741.58
583.86	60846.91
584.02	60949.89
584.18	60823.50
584.34	60910.10
584.50	60680.73
584.66	60662.00
584.82	60472.42
584.98	61001.38
585.14	60949.89
585.30	60767.33
585.46	60879.67
585.62	60863.29
585.78	60999.04
585.94	60680.73
586.10	60605.83
586.26	61043.51
586.42	60982.66
586.58	60935.85
586.74	60975.64
586.90	60800.10
587.06	60825.84
587.22	60877.33
587.38	60975.64
587.54	61090.32
587.70	61043.51
587.86	60985.00
588.02	61127.77
588.18	61034.15
588.34	60963.93
588.49	60734.56
