SpectraSuite Data File
++++++++++++++++++++++++++++++++++++
Date: Fri Oct 25 11:26:04 EDT 2013
User: price-jones
Dark Spectrum Present: No
Reference Spectrum Present: No
Number of Sampled Component Spectra: 1
Spectrometers: USB2+H05261
Integration Time (usec): 100000 (USB2+H05261)
Spectra Averaged: 1 (USB2+H05261)
Boxcar Smoothing: 0 (USB2+H05261)
Correct for Electrical Dark: No (USB2+H05261)
Strobe/Lamp Enabled: No (USB2+H05261)
Correct for Detector Non-linearity: No (USB2+H05261)
Correct for Stray Light: No (USB2+H05261)
Number of Pixels in Processed Spectrum: 2048
>>>>>Begin Processed Spectral Data<<<<<
365.73	229.37
365.92	229.37
366.12	229.37
366.32	187.24
366.52	159.16
366.72	138.09
366.91	110.01
367.11	154.48
367.31	93.62
367.51	67.88
367.70	149.79
367.90	149.79
368.10	159.16
368.30	156.82
368.49	114.69
368.69	173.20
368.89	166.18
369.09	131.07
369.28	173.20
369.48	182.56
369.68	166.18
369.87	222.35
370.07	196.60
370.27	222.35
370.47	344.06
370.66	610.88
370.86	676.41
371.06	678.76
371.25	702.16
371.45	671.73
371.65	760.67
371.84	688.12
372.04	734.93
372.24	744.29
372.44	763.01
372.63	763.01
372.83	753.65
373.03	718.54
373.22	847.27
373.42	758.33
373.62	758.33
373.81	816.85
374.01	828.55
374.21	772.38
374.40	793.44
374.60	755.99
374.79	823.87
374.99	854.30
375.19	826.21
375.38	863.66
375.58	910.47
375.78	858.98
375.97	926.85
376.17	889.40
376.37	931.53
376.56	858.98
376.76	912.81
376.95	980.68
377.15	943.24
377.35	875.36
377.54	863.66
377.74	887.06
377.93	868.34
378.13	849.61
378.33	922.17
378.52	915.15
378.72	938.55
378.91	976.00
379.11	1032.18
379.31	945.58
379.50	882.38
379.70	961.96
379.89	968.98
380.09	997.07
380.28	1034.52
380.48	999.41
380.68	952.60
380.87	983.02
381.07	1071.97
381.26	1100.05
381.46	1048.56
381.65	1032.18
381.85	1177.29
382.04	1022.81
382.24	1088.35
382.43	1060.26
382.63	1095.37
382.83	1093.03
383.02	1057.92
383.22	1130.48
383.41	1123.46
383.61	1081.33
383.80	1163.25
384.00	1088.35
384.19	1170.27
384.39	1163.25
384.58	1181.97
384.78	1231.12
384.97	1165.59
385.17	1151.54
385.36	1144.52
385.56	1196.01
385.75	1170.27
385.95	1128.14
386.14	1235.80
386.34	1287.29
386.53	1249.85
386.72	1158.57
386.92	1170.27
387.11	1242.82
387.31	1139.84
387.50	1240.48
387.70	1259.21
387.89	1256.87
388.09	1203.04
388.28	1291.98
388.48	1254.53
388.67	1212.40
388.86	1322.40
389.06	1273.25
389.25	1310.70
389.45	1406.66
389.64	1273.25
389.84	1364.53
390.03	1418.36
390.22	1387.94
390.42	1406.66
390.61	1359.85
390.81	1291.98
391.00	1448.79
391.19	1366.87
391.39	1479.22
391.58	1437.09
391.78	1409.00
391.97	1439.43
392.16	1448.79
392.36	1563.48
392.55	1486.24
392.75	1509.65
392.94	1486.24
393.13	1540.07
393.33	1514.33
393.52	1612.63
393.71	1643.06
393.91	1591.56
394.10	1547.09
394.29	1699.23
394.49	1666.46
394.68	1664.12
394.88	1671.14
395.07	1724.97
395.26	1624.33
395.46	1729.66
395.65	1626.67
395.84	1708.59
396.04	1834.98
396.23	1696.89
396.42	1687.53
396.62	1724.97
396.81	1785.83
397.00	1741.36
397.19	1802.21
397.39	1872.43
397.58	1816.26
397.77	1944.99
397.97	1980.09
398.16	1872.43
398.35	1905.20
398.55	1921.58
398.74	1923.92
398.93	1867.75
399.12	1944.99
399.32	1942.64
399.51	2005.84
399.70	1991.80
399.90	1980.09
400.09	2036.27
400.28	2146.27
400.47	1998.82
400.67	2054.99
400.86	1940.30
401.05	2146.27
401.24	2127.55
401.44	2106.48
401.63	2129.89
401.82	2120.53
402.01	2106.48
402.21	2193.08
402.40	2165.00
402.59	2188.40
402.78	2143.93
402.97	2291.38
403.17	2251.60
403.36	2230.53
403.55	2335.85
403.74	2345.22
403.93	2256.28
404.13	2310.11
404.32	2424.80
404.51	2476.29
404.70	2429.48
404.89	2377.98
405.09	2504.37
405.28	2324.15
405.47	2452.88
405.66	2614.38
405.85	2607.36
406.05	2637.78
406.24	2551.18
406.43	2658.85
406.62	2562.89
406.81	2661.19
407.00	2588.63
407.20	2527.78
407.39	2553.52
407.58	2609.70
407.77	2605.02
407.96	2825.03
408.15	2752.47
408.34	2794.60
408.54	2881.20
408.73	2850.77
408.92	2778.22
409.11	2918.65
409.30	2878.86
409.49	2881.20
409.68	2885.88
409.87	2930.35
410.07	3023.97
410.26	3014.61
410.45	3007.59
410.64	3098.87
410.83	3171.43
411.02	3197.17
411.21	3222.92
411.40	3169.09
411.59	3204.19
411.78	3089.51
411.98	3173.77
412.17	3206.53
412.36	3365.69
412.55	3393.78
412.74	3318.88
412.93	3480.38
413.12	3487.40
413.31	3550.59
413.50	3405.48
413.69	3487.40
413.88	3485.06
414.07	3695.71
414.26	3646.55
414.45	3555.27
414.64	3665.28
414.83	3737.84
415.02	3688.68
415.22	3838.48
415.41	3915.72
415.60	3815.07
415.79	3887.63
415.98	3960.19
416.17	3967.21
416.36	3843.16
416.55	4072.53
416.74	4079.55
416.93	4011.68
417.12	4140.41
417.31	4294.88
417.50	4173.18
417.69	4334.67
417.88	4360.42
418.07	4297.22
418.26	4259.78
418.45	4414.25
418.64	4575.75
418.83	4540.64
419.02	4355.74
419.21	4468.08
419.39	4510.21
419.58	4559.36
419.77	4531.28
419.96	4482.13
420.15	4571.07
420.34	4493.83
420.53	4587.45
420.72	4713.84
420.91	4678.73
421.10	4844.91
421.29	4835.55
421.48	4819.16
421.67	4791.08
421.86	4800.44
422.05	4784.06
422.24	4744.27
422.43	4802.78
422.61	4856.61
422.80	4901.08
422.99	4793.42
423.18	5008.75
423.37	5020.45
423.56	4905.76
423.75	4973.64
423.94	4891.72
424.13	4531.28
424.32	4690.43
424.50	5081.30
424.69	4992.36
424.88	5093.01
425.07	4940.87
425.26	5046.20
425.45	4856.61
425.64	5048.54
425.83	5011.09
426.01	5008.75
426.20	5013.43
426.39	5093.01
426.58	5060.24
426.77	5083.64
426.96	5181.95
427.15	5064.92
427.33	5266.21
427.52	5165.56
427.71	5378.55
427.90	5179.61
428.09	5308.34
428.28	5348.12
428.46	5406.64
428.65	5373.87
428.84	5596.22
429.03	5650.05
429.22	5345.78
429.40	5598.56
429.59	5423.02
429.78	5380.89
429.97	5006.41
430.16	5430.04
430.34	5687.50
430.53	5736.65
430.72	5729.63
430.91	5713.25
431.10	5671.12
431.28	5755.38
431.47	5755.38
431.66	5942.62
431.85	5654.73
432.03	5809.21
432.22	5846.66
432.41	5961.34
432.60	5928.58
432.79	5881.77
432.97	5851.34
433.16	6024.54
433.35	6040.92
433.54	6061.99
433.72	6129.86
433.91	6061.99
434.10	6150.93
434.28	6090.07
434.47	6122.84
434.66	6221.14
434.85	6368.60
435.03	6270.30
435.22	6387.32
435.41	6443.49
435.59	6368.60
435.78	6614.35
435.97	6389.66
436.16	6532.44
436.34	6483.28
436.53	6581.59
436.72	6670.53
436.90	6431.79
437.09	6658.82
437.28	6506.69
437.46	6729.04
437.65	6705.63
437.84	6705.63
438.02	6832.02
438.21	6906.92
438.40	6794.58
438.58	7054.37
438.77	7108.21
438.96	6904.58
439.14	7152.68
439.33	7023.95
439.52	7293.11
439.70	7201.83
439.89	7339.92
440.08	7590.36
440.26	7543.55
440.45	7321.20
440.63	7562.27
440.82	7536.52
441.01	7489.71
441.19	7618.44
441.38	7576.31
441.57	7693.34
441.75	7836.11
441.94	8058.46
442.12	7960.16
442.31	8102.93
442.50	8044.42
442.68	7957.82
442.87	8060.80
443.05	8128.68
443.24	8142.72
443.43	8138.04
443.61	8205.92
443.80	8346.35
443.98	7939.10
444.17	7995.27
444.35	8311.24
444.54	8238.69
444.73	8152.09
444.91	8198.90
445.10	8449.33
445.28	8301.88
445.47	8250.39
445.65	8212.94
445.84	8428.27
446.02	8557.00
446.21	8428.27
446.39	8468.06
446.58	8505.51
446.77	8362.73
446.95	8437.63
447.14	8505.51
447.32	8573.38
447.51	8322.94
447.69	8404.86
447.88	8547.64
448.06	8444.65
448.25	8381.46
448.43	8634.24
448.62	8540.61
448.80	8461.04
448.99	8475.08
449.17	8723.18
449.36	8512.53
449.54	8807.44
449.73	8903.40
449.91	9055.53
450.10	8887.01
450.28	9125.75
450.46	9022.77
450.65	9097.66
450.83	9032.13
451.02	9050.85
451.20	9252.14
451.39	9111.71
451.57	9235.75
451.76	9088.30
451.94	9249.80
452.13	9355.12
452.31	9411.29
452.49	9172.56
452.68	9308.31
452.86	9336.40
453.05	9652.37
453.23	9373.85
453.42	9364.48
453.60	9352.78
453.78	9511.94
453.97	9518.96
454.15	9514.28
454.34	9568.11
454.52	9659.39
454.70	9738.97
454.89	9987.07
455.07	9614.92
455.26	9694.50
455.44	10043.24
455.62	9987.07
455.81	9888.76
455.99	9994.09
456.17	9942.60
456.36	10061.96
456.54	10265.59
456.73	10363.89
456.91	10389.64
457.09	10492.62
457.28	10586.24
457.46	10204.74
457.64	10431.77
457.83	10616.67
458.01	10520.71
458.19	10670.50
458.38	10420.06
458.56	10693.91
458.74	10794.55
458.93	10757.10
459.11	10607.31
459.29	10647.10
459.48	10794.55
459.66	10726.68
459.84	10822.64
460.03	10923.28
460.21	10801.57
460.39	10813.28
460.57	10920.94
460.76	11159.67
460.94	11199.46
461.12	11070.73
461.31	11140.95
461.49	11068.39
461.67	11192.44
461.85	11470.97
462.04	11243.93
462.22	11770.55
462.40	11763.53
462.59	11573.95
462.77	11517.78
462.95	11566.93
463.13	11660.55
463.32	11625.44
463.50	11459.26
463.68	11845.45
463.86	11662.89
464.05	11634.80
464.23	11712.04
464.41	12023.33
464.59	11653.53
464.78	12058.44
464.96	11999.93
465.14	12053.76
465.32	12063.12
465.50	12142.70
465.69	12100.57
465.87	12163.76
466.05	12166.10
466.23	12196.53
466.41	12142.70
466.60	12643.57
466.78	12257.39
466.96	12222.28
467.14	12301.86
467.32	12306.54
467.51	12395.48
467.69	12266.75
467.87	12325.26
468.05	12610.81
468.23	12451.65
468.41	12425.90
468.60	12748.90
468.78	12915.08
468.96	12631.87
469.14	12744.22
469.32	12910.40
469.50	12498.46
469.69	12886.99
469.87	13071.89
470.05	13123.38
470.23	13025.08
470.41	13102.32
470.59	13390.20
470.77	13085.94
470.95	13184.24
471.14	13355.10
471.32	13296.58
471.50	13518.93
471.68	13572.77
471.86	13853.63
472.04	13837.25
472.22	14132.15
472.40	13809.16
472.58	13738.94
472.77	14097.05
472.95	14190.67
473.13	14478.55
473.31	14073.64
473.49	14157.90
473.67	14190.67
473.85	14408.34
474.03	14686.86
474.21	14508.98
474.39	14827.29
474.57	14663.46
474.75	15009.86
474.93	15117.52
475.12	14731.33
475.30	15073.05
475.48	14995.81
475.66	14944.32
475.84	15122.20
476.02	15545.84
476.20	15468.60
476.38	15728.40
476.56	15936.71
476.74	15943.73
476.92	15789.25
477.10	15747.12
477.28	16308.85
477.46	16102.89
477.64	16283.11
477.82	16315.87
478.00	16987.61
478.18	16783.98
478.36	16823.77
478.54	17179.53
478.72	17015.69
478.90	17458.06
479.08	17603.17
479.26	17600.83
479.44	17542.32
479.62	17661.68
479.80	18263.20
479.98	17972.97
480.16	18431.72
480.34	18246.82
480.52	18642.37
480.70	18764.07
480.88	18485.55
481.06	18853.02
481.24	18714.92
481.41	18867.06
481.59	19339.85
481.77	19503.68
481.95	19541.13
482.13	19674.54
482.31	19625.39
482.49	20266.70
482.67	20243.29
482.85	20341.60
483.03	20643.52
483.21	20491.39
483.39	20973.54
483.57	20608.42
483.74	21095.25
483.92	21345.69
484.10	20978.22
484.28	21612.51
484.46	22223.39
484.64	22368.50
484.82	21731.87
485.00	22225.73
485.18	22792.14
485.35	22857.67
485.53	23042.57
485.71	23192.37
485.89	23424.08
486.07	23398.34
486.25	23578.56
486.43	23669.84
486.61	23552.81
486.78	24121.56
486.96	24105.18
487.14	24477.32
487.32	24659.88
487.50	24739.46
487.68	25191.19
487.85	25319.92
488.03	25696.74
488.21	26111.02
488.39	25568.01
488.57	26038.46
488.75	26038.46
488.92	26253.79
489.10	26848.29
489.28	26579.12
489.46	26925.52
489.64	27084.68
489.81	27538.74
489.99	27292.99
490.17	27758.75
490.35	28222.18
490.53	28318.14
490.70	28170.69
490.88	28439.85
491.06	28634.11
491.24	28648.16
491.41	29317.55
491.59	29572.67
491.77	29305.85
491.95	29626.50
492.13	29675.65
492.30	29708.42
492.48	29968.22
492.66	30387.18
492.84	30251.42
493.01	30773.36
493.19	30501.86
493.37	30883.37
493.54	31056.57
493.72	31435.74
493.90	31318.71
494.08	31534.04
494.25	32416.42
494.43	31716.60
494.61	31960.02
494.79	32348.54
494.96	32474.93
495.14	32921.98
495.32	32971.13
495.49	33008.58
495.67	33046.02
495.85	33624.14
496.02	33694.35
496.20	34281.83
496.38	34181.18
496.55	34295.87
496.73	34813.13
496.91	34607.16
497.09	34993.35
497.26	35131.44
497.44	35110.38
497.62	35402.94
497.79	35531.67
497.97	35770.41
498.14	35824.24
498.32	35962.33
498.50	36032.55
498.67	36369.58
498.85	36231.49
499.03	36409.37
499.20	36786.20
499.38	36715.98
499.56	37003.87
499.73	36706.62
499.91	37872.21
500.08	37556.24
500.26	37427.51
500.44	37415.80
500.61	37951.79
500.79	37706.03
500.97	38075.84
501.14	38452.66
501.32	38660.97
501.49	37921.36
501.67	38885.66
501.84	39180.57
502.02	39082.27
502.20	38988.64
502.37	39033.11
502.55	39428.66
502.72	39653.36
502.90	39302.28
503.07	39548.03
503.25	39683.78
503.43	39695.49
503.60	39985.71
503.78	40308.71
503.95	40414.03
504.13	40381.26
504.30	40292.32
504.48	40601.27
504.65	41020.23
504.83	40973.42
505.01	41099.81
505.18	41354.93
505.36	41544.51
505.53	41647.49
505.71	41741.11
505.88	41748.14
506.06	41354.93
506.23	42003.25
506.41	42113.26
506.58	41841.76
506.76	42302.84
506.93	42700.73
507.11	42326.25
507.28	42604.77
507.46	42887.98
507.63	43117.35
507.81	42939.47
507.98	42679.67
508.16	43070.54
508.33	43299.91
508.50	43480.13
508.68	43672.06
508.85	44069.95
509.03	43503.54
509.20	44100.37
509.38	43995.05
509.55	44264.21
509.73	44114.42
509.90	44137.82
510.08	44549.76
510.25	44477.20
510.42	44519.33
510.60	44779.13
510.77	45574.91
510.95	45546.82
511.12	45029.57
511.30	45425.12
511.47	45282.34
511.64	45902.59
511.82	46061.74
511.99	45680.24
512.17	45738.75
512.34	45815.99
512.51	46546.23
512.69	46295.80
512.86	46204.52
513.04	46609.43
513.21	46705.39
513.38	46845.82
513.56	46649.22
513.73	46637.51
513.90	46983.91
514.08	47012.00
514.25	47210.95
514.43	47702.46
514.60	47526.92
514.77	47398.19
514.95	47629.90
515.12	47337.33
515.29	47346.70
515.47	47845.23
515.64	48128.44
515.81	47573.73
515.99	48215.04
516.16	48526.33
516.33	48133.12
516.51	48849.32
516.68	48311.00
516.85	48680.80
517.03	49188.70
517.20	48989.75
517.37	48828.26
517.54	48772.08
517.72	48968.69
517.89	49146.57
518.06	49408.71
518.24	49261.26
518.41	48889.11
518.58	49471.90
518.75	49191.04
518.93	49282.32
519.10	49670.85
519.27	49560.84
519.45	49830.01
519.62	49752.77
519.79	50050.02
519.96	49684.89
520.14	50340.24
520.31	50014.91
520.48	50351.94
520.65	50108.53
520.83	50817.71
521.00	50794.31
521.17	50752.18
521.34	50522.80
521.52	50581.32
521.69	50539.19
521.86	50937.08
522.03	50770.90
522.20	51374.76
522.38	51562.00
522.55	51269.43
522.72	51110.28
522.89	51372.42
523.07	51662.64
523.24	51732.86
523.41	51531.57
523.58	51468.38
523.75	52069.90
523.92	51622.86
524.10	51980.96
524.27	51849.89
524.44	51945.85
524.61	52069.90
524.78	52317.99
524.96	52222.03
525.13	52289.91
525.30	52299.27
525.47	52453.75
525.64	52184.58
525.81	52570.77
525.98	52802.49
526.16	52523.96
526.33	52774.40
526.50	52814.19
526.67	52727.59
526.84	52921.85
527.01	52800.15
527.18	53001.43
527.36	52942.92
527.53	52982.71
527.70	53265.91
527.87	53336.13
528.04	53146.54
528.21	53251.87
528.38	53361.87
528.55	53338.47
528.72	53539.75
528.89	53343.15
529.07	53434.43
529.24	53343.15
529.41	53525.71
529.58	53694.23
529.75	53616.99
529.92	53689.55
530.09	53729.34
530.26	53675.51
530.43	54234.89
530.60	53616.99
530.77	53970.41
530.94	54162.34
531.11	54157.66
531.28	54323.83
531.46	54281.70
531.63	54164.68
531.80	54227.87
531.97	54370.64
532.14	54375.33
532.31	54401.07
532.48	54293.41
532.65	54616.40
532.82	54513.42
532.99	54656.19
533.16	54391.71
533.33	54862.16
533.50	55023.65
533.67	55037.70
533.84	54637.47
534.01	54876.20
534.18	55065.78
534.35	55175.79
534.52	55180.47
534.69	55182.81
534.86	55311.54
535.03	55040.04
535.20	54986.21
535.37	55419.20
535.54	55257.71
535.71	55320.90
535.88	55426.23
536.05	55503.46
536.22	55753.90
536.38	55529.21
536.55	55674.32
536.72	55618.15
536.89	55327.92
537.06	55632.19
537.23	55765.60
537.40	55517.51
537.57	55781.99
537.74	55599.43
537.91	56156.47
538.08	55739.86
538.25	55842.84
538.42	55952.85
538.59	56093.28
538.75	55838.16
538.92	56191.58
539.09	56268.82
539.26	56116.68
539.43	56259.46
539.60	56044.13
539.77	56360.10
539.94	56388.19
540.11	56406.91
540.28	56530.96
540.44	56332.01
540.61	56470.11
540.78	56109.66
540.95	56261.80
541.12	56472.45
541.29	56231.37
541.46	56664.37
541.62	56554.36
541.79	56554.36
541.96	56322.65
542.13	56685.43
542.30	56708.84
542.47	56722.88
542.63	57052.90
542.80	56797.78
542.97	57214.40
543.14	57312.70
543.31	57256.53
543.48	57125.46
543.64	57481.22
543.81	57272.91
543.98	57237.80
544.15	57368.87
544.32	57099.71
544.48	57656.76
544.65	57198.01
544.82	57277.59
544.99	57301.00
545.16	57666.12
545.32	57429.72
545.49	57551.43
545.66	57741.02
545.83	57546.75
546.00	57846.34
546.16	57542.07
546.33	57743.36
546.50	57427.38
546.67	57860.38
546.83	57425.04
547.00	57801.87
547.17	57855.70
547.34	57813.57
547.50	57993.79
547.67	58134.23
547.84	58028.90
548.00	58145.93
548.17	58122.52
548.34	58066.35
548.51	58295.72
548.67	58066.35
548.84	58220.83
549.01	57911.88
549.18	58178.70
549.34	58284.02
549.51	58227.85
549.68	58330.83
549.84	58515.73
550.01	58508.71
550.18	58401.05
550.34	58461.90
550.51	58431.47
550.68	58293.38
550.84	58192.74
551.01	58471.26
551.18	58312.11
551.34	58284.02
551.51	58773.19
551.68	58583.61
551.84	58597.65
552.01	58466.58
552.18	58431.47
552.34	58354.24
552.51	58843.41
552.68	58714.68
552.84	58632.76
553.01	58967.46
553.18	58820.00
553.34	59000.22
553.51	58637.44
553.67	58890.22
553.84	58841.07
554.01	58843.41
554.17	58955.75
554.34	59145.34
554.51	59016.61
554.67	59159.38
554.84	59103.21
555.00	59135.98
555.17	58969.80
555.33	59105.55
555.50	58850.43
555.67	59143.00
555.83	59037.67
556.00	59248.32
556.16	59423.86
556.33	59178.10
556.50	59150.02
556.66	59236.62
556.83	59227.26
556.99	59227.26
557.16	59557.27
557.32	59510.46
557.49	59639.19
557.65	59306.83
557.82	59274.07
557.98	59325.56
558.15	59374.71
558.32	59515.14
558.48	59306.83
558.65	59503.44
558.81	59435.56
558.98	59386.41
559.14	59753.88
559.31	59498.76
559.47	59695.36
559.64	59695.36
559.80	59833.46
559.97	59639.19
560.13	59423.86
560.30	59613.44
560.46	59650.89
560.63	59971.55
560.79	59796.01
560.96	59987.93
561.12	59922.40
561.29	59840.48
561.45	59861.54
561.61	59770.26
561.78	59894.31
561.94	59723.45
562.11	59941.12
562.27	59826.43
562.44	59950.48
562.60	60044.10
562.77	60179.85
562.93	59896.65
563.10	60067.51
563.26	59997.29
563.42	60280.50
563.59	60069.85
563.75	59959.84
563.92	60151.77
564.08	59936.44
564.24	60053.47
564.41	60109.64
564.57	60219.64
564.74	60163.47
564.90	60116.66
565.07	60149.43
565.23	60111.98
565.39	60254.75
565.56	60140.07
565.72	60186.88
565.88	60203.26
566.05	60219.64
566.21	60191.56
566.38	60154.11
566.54	60385.82
566.70	60301.56
566.87	60406.89
567.03	60058.15
567.19	60397.52
567.36	60243.05
567.52	60381.14
567.68	60411.57
567.85	60383.48
568.01	60243.05
568.17	60191.56
568.34	60470.08
568.50	60402.21
568.66	60350.71
568.83	60563.70
568.99	60264.11
569.15	60533.28
569.32	60383.48
569.48	60399.86
569.64	60594.13
569.81	60381.14
569.97	60374.12
570.13	60392.84
570.30	60395.18
570.46	60467.74
570.62	60486.46
570.78	60514.55
570.95	60477.10
571.11	60610.51
571.27	60460.72
571.43	60200.92
571.60	60587.11
571.76	60409.23
571.92	60640.94
572.09	60664.35
572.25	60575.40
572.41	60626.90
572.57	60413.91
572.74	60638.60
572.90	60425.61
573.06	60694.77
573.22	60542.64
573.38	60734.56
573.55	60739.24
573.71	60977.98
573.87	60767.33
574.03	60467.74
574.20	60882.02
574.36	60619.88
574.52	60633.92
574.68	60772.01
574.84	60889.04
575.01	60687.75
575.17	60910.10
575.33	60678.39
575.49	60605.83
575.65	60772.01
575.82	60856.27
575.98	60790.73
576.14	60919.46
576.30	60804.78
576.46	60622.22
576.62	60676.05
576.79	60786.05
576.95	60596.47
577.11	60750.94
577.27	60729.88
577.43	60835.20
577.59	60664.35
577.75	60963.93
577.92	60500.51
578.08	60645.62
578.24	60874.99
578.40	60968.61
578.56	60977.98
578.72	60919.46
578.88	60982.66
579.04	61008.40
579.21	60790.73
579.37	60788.39
579.53	60989.68
579.69	60643.28
579.85	60704.13
580.01	60994.36
580.17	60687.75
580.33	60905.42
580.49	60933.51
580.65	60928.83
580.82	60701.79
580.98	60842.23
581.14	60919.46
581.30	61038.83
581.46	60931.17
581.62	60963.93
581.78	60741.58
581.94	60844.57
582.10	60912.44
582.26	60882.02
582.42	60753.29
582.58	60926.49
582.74	60903.08
582.90	60968.61
583.06	60963.93
583.22	60694.77
583.38	60961.59
583.54	60811.80
583.70	61041.17
583.86	60900.74
584.02	60746.26
584.18	60977.98
584.34	61010.74
584.50	61010.74
584.66	60863.29
584.82	60748.60
584.98	61270.54
585.14	60985.00
585.30	60835.20
585.46	61010.74
585.62	61031.81
585.78	61223.73
585.94	60947.55
586.10	61216.71
586.26	61090.32
586.42	61059.90
586.58	60996.70
586.74	60896.06
586.90	60947.55
587.06	61015.43
587.22	61230.75
587.38	60844.57
587.54	61062.24
587.70	61361.82
587.86	61123.09
588.02	61193.31
588.18	61247.14
588.34	61076.28
588.49	61036.49
