SpectraSuite Data File
++++++++++++++++++++++++++++++++++++
Date: Fri Oct 25 11:34:44 EDT 2013
User: price-jones
Dark Spectrum Present: No
Reference Spectrum Present: No
Number of Sampled Component Spectra: 1
Spectrometers: USB2+H05261
Integration Time (usec): 100000 (USB2+H05261)
Spectra Averaged: 1 (USB2+H05261)
Boxcar Smoothing: 0 (USB2+H05261)
Correct for Electrical Dark: No (USB2+H05261)
Strobe/Lamp Enabled: No (USB2+H05261)
Correct for Detector Non-linearity: No (USB2+H05261)
Correct for Stray Light: No (USB2+H05261)
Number of Pixels in Processed Spectrum: 2048
>>>>>Begin Processed Spectral Data<<<<<
365.73	269.16
365.92	269.16
366.12	269.16
366.32	217.67
366.52	102.98
366.72	161.50
366.91	250.44
367.11	145.11
367.31	191.92
367.51	189.58
367.70	173.20
367.90	191.92
368.10	196.60
368.30	191.92
368.49	168.52
368.69	170.86
368.89	243.42
369.09	189.58
369.28	220.01
369.48	278.52
369.68	248.10
369.87	276.18
370.07	294.91
370.27	346.40
370.47	311.29
370.66	484.49
370.86	568.75
371.06	582.79
371.25	489.17
371.45	545.34
371.65	561.73
371.84	500.87
372.04	528.96
372.24	547.69
372.44	561.73
372.63	559.39
372.83	655.35
373.03	641.31
373.22	610.88
373.42	514.92
373.62	653.01
373.81	664.71
374.01	692.80
374.21	662.37
374.40	699.82
374.60	596.84
374.79	641.31
374.99	641.31
375.19	582.79
375.38	587.47
375.58	643.65
375.78	608.54
375.97	716.20
376.17	648.33
376.37	638.97
376.56	564.07
376.76	634.29
376.95	711.52
377.15	685.78
377.35	688.12
377.54	709.18
377.74	606.20
377.93	706.84
378.13	613.22
378.33	664.71
378.52	662.37
378.72	692.80
378.91	704.50
379.11	636.63
379.31	697.48
379.50	653.01
379.70	704.50
379.89	753.65
380.09	784.08
380.28	720.88
380.48	688.12
380.68	765.36
380.87	662.37
381.07	755.99
381.26	718.54
381.46	734.93
381.65	828.55
381.85	770.04
382.04	716.20
382.24	770.04
382.43	751.31
382.63	723.23
382.83	760.67
383.02	779.40
383.22	795.78
383.41	704.50
383.61	805.14
383.80	875.36
384.00	758.33
384.19	765.36
384.39	837.91
384.58	823.87
384.78	772.38
384.97	788.76
385.17	835.57
385.36	826.21
385.56	774.72
385.75	863.66
385.95	931.53
386.14	840.25
386.34	891.74
386.53	777.06
386.72	875.36
386.92	915.15
387.11	856.64
387.31	835.57
387.50	812.17
387.70	856.64
387.89	840.25
388.09	952.60
388.28	910.47
388.48	849.61
388.67	947.92
388.86	866.00
389.06	833.23
389.25	940.90
389.45	887.06
389.64	943.24
389.84	926.85
390.03	905.79
390.22	891.74
390.42	884.72
390.61	873.02
390.81	957.28
391.00	1032.18
391.19	1015.79
391.39	980.68
391.58	983.02
391.78	1001.75
391.97	994.73
392.16	990.05
392.36	987.71
392.55	1015.79
392.75	1043.88
392.94	940.90
393.13	1036.86
393.33	980.68
393.52	1004.09
393.71	1088.35
393.91	1048.56
394.10	1076.65
394.29	1114.10
394.49	1036.86
394.68	1095.37
394.88	1097.71
395.07	1151.54
395.26	1128.14
395.46	1109.41
395.65	1207.72
395.84	1100.05
396.04	1210.06
396.23	1116.44
396.42	1233.46
396.62	1130.48
396.81	1130.48
397.00	1109.41
397.19	1177.29
397.39	1160.91
397.58	1254.53
397.77	1144.52
397.97	1231.12
398.16	1203.04
398.35	1245.16
398.55	1214.74
398.74	1233.46
398.93	1324.74
399.12	1320.06
399.32	1217.08
399.51	1245.16
399.70	1291.98
399.90	1188.99
400.09	1355.17
400.28	1348.15
400.47	1336.45
400.67	1383.26
400.86	1352.83
401.05	1371.55
401.24	1390.28
401.44	1362.19
401.63	1329.42
401.82	1425.39
402.01	1392.62
402.21	1371.55
402.40	1446.45
402.59	1437.09
402.78	1437.09
402.97	1423.05
403.17	1504.96
403.36	1481.56
403.55	1500.28
403.74	1504.96
403.93	1479.22
404.13	1514.33
404.32	1570.50
404.51	1521.35
404.70	1643.06
404.89	1568.16
405.09	1577.52
405.28	1624.33
405.47	1572.84
405.66	1554.12
405.85	1547.09
406.05	1636.03
406.24	1586.88
406.43	1743.70
406.62	1696.89
406.81	1710.93
407.00	1769.44
407.20	1708.59
407.39	1675.82
407.58	1755.40
407.77	1748.38
407.96	1842.00
408.15	1832.64
408.34	1834.98
408.54	1818.60
408.73	1851.36
408.92	1809.23
409.11	1853.70
409.30	1860.73
409.49	1905.20
409.68	1893.49
409.87	1919.24
410.07	1914.56
410.26	1940.30
410.45	1879.45
410.64	1944.99
410.83	2043.29
411.02	1919.24
411.21	2101.80
411.40	2148.61
411.59	2101.80
411.78	2064.35
411.98	2167.34
412.17	2186.06
412.36	2204.78
412.55	2239.89
412.74	2195.42
412.93	2204.78
413.12	2244.57
413.31	2382.67
413.50	2249.25
413.69	2258.62
413.88	2424.80
414.07	2253.94
414.26	2427.14
414.45	2375.64
414.64	2459.90
414.83	2399.05
415.02	2565.23
415.22	2607.36
415.41	2654.17
415.60	2471.61
415.79	2565.23
415.98	2597.99
416.17	2654.17
416.36	2574.59
416.55	2689.28
416.74	2630.76
416.93	2626.08
417.12	2682.25
417.31	2705.66
417.50	2761.83
417.69	2801.62
417.88	2883.54
418.07	2892.90
418.26	2836.73
418.45	2862.48
418.64	2974.82
418.83	2944.39
419.02	2881.20
419.21	2960.78
419.39	2871.84
419.58	2930.35
419.77	2897.58
419.96	2958.44
420.15	3063.76
420.34	2960.78
420.53	2972.48
420.72	3248.66
420.91	2988.86
421.10	3145.68
421.29	3145.68
421.48	3084.83
421.67	3232.28
421.86	3164.40
422.05	3239.30
422.24	3159.72
422.43	3094.19
422.61	3208.87
422.80	3283.77
422.99	3108.23
423.18	3283.77
423.37	3267.39
423.56	3119.93
423.75	3112.91
423.94	3131.64
424.13	3110.57
424.32	3222.92
424.50	3335.26
424.69	3323.56
424.88	3302.50
425.07	3199.51
425.26	3309.52
425.45	3222.92
425.64	3346.97
425.83	3288.45
426.01	3293.13
426.20	3311.86
426.39	3447.61
426.58	3304.84
426.77	3372.71
426.96	3272.07
427.15	3433.57
427.33	3290.79
427.52	3279.09
427.71	3508.46
427.90	3459.31
428.09	3403.14
428.28	3548.25
428.46	3466.33
428.65	3454.63
428.84	3658.26
429.03	3489.74
429.22	3578.68
429.40	3616.13
429.59	3637.19
429.78	3410.16
429.97	3468.67
430.16	3616.13
430.34	3695.71
430.53	3803.37
430.72	3599.74
430.91	3627.83
431.10	3733.15
431.28	3723.79
431.47	3805.71
431.66	3854.86
431.85	3672.30
432.03	3691.02
432.22	3836.14
432.41	3873.59
432.60	3882.95
432.79	3819.75
432.97	4009.34
433.16	3950.82
433.35	3939.12
433.54	3885.29
433.72	3864.22
433.91	4105.30
434.10	3904.01
434.28	4025.72
434.47	3971.89
434.66	4049.13
434.85	4117.00
435.03	4098.28
435.22	4231.69
435.41	4175.52
435.59	4133.39
435.78	4100.62
435.97	4105.30
436.16	4145.09
436.34	4280.84
436.53	4149.77
436.72	4386.16
436.90	4259.78
437.09	4250.41
437.28	4182.54
437.46	4198.92
437.65	4329.99
437.84	4287.86
438.02	4276.16
438.21	4358.08
438.40	4306.59
438.58	4587.45
438.77	4449.36
438.96	4369.78
439.14	4521.92
439.33	4552.34
439.52	4641.28
439.70	4695.11
439.89	4786.40
440.08	4774.69
440.26	4821.50
440.45	4758.31
440.63	4744.27
440.82	4898.74
441.01	4922.15
441.19	4968.96
441.38	4961.94
441.57	4915.12
441.75	5071.94
441.94	4936.19
442.12	5078.96
442.31	5107.05
442.50	5238.12
442.68	5238.12
442.87	5104.71
443.05	5345.78
443.24	5350.46
443.43	5338.76
443.61	5289.61
443.80	5329.40
443.98	5238.12
444.17	5130.45
444.35	5341.10
444.54	5373.87
444.73	5214.71
444.91	5310.68
445.10	5320.04
445.28	5191.31
445.47	5399.62
445.65	5394.93
445.84	5455.79
446.02	5416.00
446.21	5486.22
446.39	5455.79
446.58	5441.75
446.77	5408.98
446.95	5474.51
447.14	5441.75
447.32	5427.70
447.51	5619.63
447.69	5357.49
447.88	5547.07
448.06	5373.87
448.25	5472.17
448.43	5568.13
448.62	5664.10
448.80	5530.69
448.99	5404.30
449.17	5497.92
449.36	5432.38
449.54	5760.06
449.73	5748.36
449.91	5762.40
450.10	5753.04
450.28	5834.96
450.46	5715.59
450.65	5865.38
450.83	5795.17
451.02	5710.91
451.20	5790.49
451.39	5783.46
451.57	5898.15
451.76	5668.78
451.94	5951.98
452.13	6078.37
452.31	5947.30
452.49	5834.96
452.68	6015.18
452.86	5949.64
453.05	6069.01
453.23	6054.97
453.42	5984.75
453.60	6193.06
453.78	6050.28
453.97	6113.48
454.15	6064.33
454.34	5989.43
454.52	6300.72
454.70	6333.49
454.89	6265.61
455.07	6310.08
455.26	6321.79
455.44	6382.64
455.62	6403.71
455.81	6394.34
455.99	6462.22
456.17	6551.16
456.36	6464.56
456.54	6593.29
456.73	6448.18
456.91	6757.13
457.09	6724.36
457.28	6572.22
457.46	6677.55
457.64	6703.29
457.83	6626.06
458.01	6612.01
458.19	6874.15
458.38	6792.23
458.56	6757.13
458.74	6825.00
458.93	6890.54
459.11	6703.29
459.29	6878.83
459.48	6839.05
459.66	6920.96
459.84	7012.24
460.03	7220.55
460.21	7236.94
460.39	6984.16
460.57	6899.90
460.76	7094.16
460.94	7096.50
461.12	7089.48
461.31	7190.13
461.49	7138.63
461.67	7096.50
461.85	7342.26
462.04	7091.82
462.22	7452.27
462.40	7311.83
462.59	7365.67
462.77	7229.91
462.95	7377.37
463.13	7543.55
463.32	7260.34
463.50	7466.31
463.68	7534.18
463.86	7660.57
464.05	7527.16
464.23	7506.10
464.41	7412.48
464.59	7407.80
464.78	7658.23
464.96	7557.59
465.14	7550.57
465.32	7676.96
465.50	7616.10
465.69	7702.70
465.87	7726.11
466.05	7620.78
466.23	7784.62
466.41	7735.47
466.60	8044.42
466.78	7602.06
466.96	7747.17
467.14	7721.43
467.32	7857.18
467.51	7925.05
467.69	7772.92
467.87	7967.18
468.05	7976.55
468.23	7953.14
468.41	7871.22
468.60	7887.61
468.78	7946.12
468.96	8006.97
469.14	8252.73
469.32	8238.69
469.50	8025.70
469.69	8205.92
469.87	8325.29
470.05	8152.09
470.23	8311.24
470.41	8315.92
470.59	8421.25
470.77	8390.82
470.95	8421.25
471.14	8655.30
471.32	8402.52
471.50	8566.36
471.68	8503.17
471.86	8411.89
472.04	8568.70
472.22	8716.16
472.40	8620.19
472.58	8751.26
472.77	8821.48
472.95	8870.63
473.13	9219.37
473.31	8954.89
473.49	9114.05
473.67	9100.00
473.85	8994.68
474.03	8980.64
474.21	9095.32
474.39	9467.47
474.57	9308.31
474.75	9537.68
474.93	9291.93
475.12	9397.25
475.30	9350.44
475.48	9355.12
475.66	9509.60
475.84	9460.45
476.02	9661.73
476.20	9692.16
476.38	9771.74
476.56	9958.98
476.74	10167.29
476.92	9991.75
477.10	9837.27
477.28	10239.84
477.46	10434.11
477.64	10326.44
477.82	10391.98
478.00	10647.10
478.18	10443.47
478.36	10691.57
478.54	10551.14
478.72	10551.14
478.90	10654.12
479.08	10939.66
479.26	10953.71
479.44	11229.89
479.62	11012.22
479.80	11311.81
479.98	11424.15
480.16	11566.93
480.34	11272.02
480.52	11538.84
480.70	11763.53
480.88	11543.52
481.06	11658.21
481.24	11726.08
481.41	11866.52
481.59	11995.25
481.77	12114.61
481.95	12449.31
482.13	12166.10
482.31	12222.28
482.49	12730.17
482.67	12629.53
482.85	12463.35
483.03	12947.84
483.21	12938.48
483.39	12865.92
483.57	12917.42
483.74	13312.97
483.92	13247.43
484.10	13186.58
484.28	13617.24
484.46	13710.86
484.64	13916.83
484.82	13757.67
485.00	13940.23
485.18	14195.35
485.35	14164.92
485.53	14008.11
485.71	14169.60
485.89	14436.42
486.07	14361.53
486.25	14560.47
486.43	14588.56
486.61	14796.87
486.78	15122.20
486.96	14956.02
487.14	15541.16
487.32	15159.65
487.50	15206.46
487.68	15585.63
487.85	15639.46
488.03	15702.65
488.21	16159.06
488.39	16233.96
488.57	15838.41
488.75	16318.22
488.92	16292.47
489.10	16322.90
489.28	16570.99
489.46	16762.92
489.64	16727.81
489.81	17137.40
489.99	17071.87
490.17	17296.56
490.35	17612.53
490.53	17294.22
490.70	17603.17
490.88	17633.60
491.06	17699.13
491.24	17935.53
491.41	18118.09
491.59	18111.07
491.77	18104.04
491.95	18373.21
492.13	18520.66
492.30	18679.82
492.48	18354.48
492.66	18654.07
492.84	18991.11
493.01	18948.98
493.19	18923.23
493.37	18953.66
493.54	19236.86
493.72	19501.34
493.90	19419.42
494.08	19625.39
494.25	19616.03
494.43	19618.37
494.61	20063.07
494.79	19995.20
494.96	19910.94
495.14	20072.43
495.32	20690.34
495.49	20610.76
495.67	20624.80
495.85	20975.88
496.02	20751.19
496.20	20982.90
496.38	21095.25
496.55	21022.69
496.73	21521.23
496.91	21582.08
497.09	21523.57
497.26	21652.30
497.44	21909.75
497.62	21806.77
497.79	22075.93
497.97	21886.35
498.14	22431.69
498.32	22228.07
498.50	22504.25
498.67	22897.46
498.85	22607.23
499.03	22735.96
499.20	22902.14
499.38	22948.95
499.56	22670.43
499.73	22698.52
499.91	22829.59
500.08	23491.96
500.26	23321.10
500.44	23246.20
500.61	23215.77
500.79	23157.26
500.97	23686.22
501.14	24102.84
501.32	24058.37
501.49	24224.54
501.67	23489.62
501.84	24041.98
502.02	23974.11
502.20	24123.90
502.37	24460.94
502.55	23941.34
502.72	24151.99
502.90	24641.16
503.07	24320.51
503.25	24617.75
503.43	24329.87
503.60	25043.73
503.78	24847.13
503.95	24676.27
504.13	25289.49
504.30	24959.47
504.48	25050.75
504.65	25376.09
504.83	25668.66
505.01	25895.69
505.18	25404.17
505.36	25769.30
505.53	25556.31
505.71	25738.87
505.88	25956.54
506.06	25914.41
506.23	26057.18
506.41	26204.64
506.58	26263.15
506.76	26185.91
506.93	26508.91
507.11	26370.82
507.28	26738.28
507.46	26639.98
507.63	26647.00
507.81	26780.41
507.98	26356.77
508.16	26845.94
508.33	27119.79
508.50	27080.00
508.68	27131.49
508.85	27332.78
509.03	27199.37
509.20	27428.74
509.38	27491.93
509.55	27367.88
509.73	27587.89
509.90	27660.45
510.08	27873.44
510.25	27665.13
510.42	27817.27
510.60	27800.88
510.77	28175.37
510.95	28491.34
511.12	28002.17
511.30	28280.69
511.47	28329.84
511.64	28240.90
511.82	28690.29
511.99	28940.72
512.17	28793.27
512.34	28687.95
512.51	29013.28
512.69	28739.44
512.86	29109.24
513.04	29256.70
513.21	29607.78
513.38	29340.96
513.56	29762.25
513.73	29408.83
513.90	29277.76
514.08	29364.36
514.25	29553.94
514.43	29633.52
514.60	29668.63
514.77	30089.93
514.95	30033.75
515.12	29900.34
515.29	29841.83
515.47	30267.81
515.64	30331.00
515.81	30223.34
515.99	30464.41
516.16	30684.42
516.33	30684.42
516.51	30586.12
516.68	30733.57
516.85	30670.38
517.03	31072.95
517.20	30988.69
517.37	30574.42
517.54	31260.20
517.72	31030.82
517.89	31583.19
518.06	31138.49
518.24	31079.97
518.41	30995.71
518.58	31288.28
518.75	30745.28
518.93	31768.09
519.10	31426.37
519.27	31454.46
519.45	31438.08
519.62	32034.91
519.79	31981.08
519.96	31566.81
520.14	32009.17
520.31	32119.17
520.48	31990.44
520.65	32163.64
520.83	32598.98
521.00	32587.28
521.17	32650.47
521.34	32383.65
521.52	32751.12
521.69	32903.25
521.86	32900.91
522.03	33001.55
522.20	32767.50
522.38	33188.80
522.55	32823.67
522.72	33270.72
522.89	33083.47
523.07	33472.00
523.24	33219.22
523.41	33060.07
523.58	33006.23
523.75	33240.29
523.92	33301.14
524.10	33556.26
524.27	33626.48
524.44	33668.61
524.61	33886.28
524.78	33851.17
524.96	33961.17
525.13	34314.59
525.30	34010.32
525.47	34099.26
525.64	34230.33
525.81	34370.77
525.98	34511.20
526.16	34225.65
526.33	34040.75
526.50	34476.09
526.67	34501.84
526.84	34590.78
527.01	34586.10
527.18	35084.63
527.36	34941.86
527.53	34665.67
527.70	35335.07
527.87	35253.15
528.04	34892.71
528.21	35033.14
528.38	34820.15
528.55	35058.88
528.72	35154.85
528.89	34960.58
529.07	34988.67
529.24	35044.84
529.41	35299.96
529.58	35646.36
529.75	35304.64
529.92	35456.78
530.09	35545.72
530.26	35519.97
530.43	35407.62
530.60	35620.61
530.77	35613.59
530.94	35772.75
531.11	35564.44
531.28	35775.09
531.46	35875.73
531.63	36137.87
531.80	36128.51
531.97	35931.90
532.14	36409.37
532.31	36212.77
532.48	36348.52
532.65	36552.15
532.82	36453.84
532.99	36783.86
533.16	36304.05
533.33	36524.06
533.50	36629.38
533.67	36725.35
533.84	36327.45
534.01	36629.38
534.18	36760.45
534.35	37141.96
534.52	36992.17
534.69	37457.93
534.86	36971.10
535.03	36919.61
535.20	37104.51
535.37	37457.93
535.54	37130.26
535.71	37071.75
535.88	37394.74
536.05	37354.95
536.22	37469.64
536.38	37514.11
536.55	37237.92
536.72	37525.81
536.89	37397.08
537.06	37572.62
537.23	38075.84
537.40	37624.11
537.57	37408.78
537.74	37483.68
537.91	37937.74
538.08	37670.92
538.25	37708.37
538.42	38057.11
538.59	38307.55
538.75	37893.27
538.92	37860.51
539.09	38443.30
539.26	38499.47
539.43	38160.09
539.60	38103.92
539.77	38419.89
539.94	38459.68
540.11	38581.39
540.28	38471.39
540.44	38232.65
540.61	39005.03
540.78	38340.32
540.95	38513.52
541.12	38780.34
541.29	38295.85
541.46	38675.01
541.62	38705.44
541.79	39192.27
541.96	38778.00
542.13	39117.37
542.30	38995.67
542.47	38740.55
542.63	38995.67
542.80	39065.88
542.97	39636.97
543.14	40245.51
543.31	39477.82
543.48	39189.93
543.64	39948.26
543.81	39564.42
543.98	39618.25
544.15	40067.63
544.32	39906.13
544.48	40170.61
544.65	40135.51
544.82	39934.22
544.99	39583.14
545.16	39831.24
545.32	39793.79
545.49	40357.86
545.66	40399.99
545.83	40114.44
546.00	40264.24
546.16	39995.07
546.33	40343.81
546.50	40147.21
546.67	40266.58
546.83	39966.99
547.00	40006.78
547.17	40201.04
547.34	40320.41
547.50	40734.68
547.67	40994.48
547.84	40556.80
548.00	40297.00
548.17	41352.58
548.34	40655.11
548.51	41078.74
548.67	40814.26
548.84	40617.66
549.01	40582.55
549.18	40570.85
549.34	40828.30
549.51	41228.54
549.68	41130.23
549.84	40774.47
550.01	41207.47
550.18	40392.97
550.34	41219.17
550.51	41710.69
550.68	41521.10
550.84	41095.13
551.01	41429.82
551.18	41832.39
551.34	41446.21
551.51	41563.23
551.68	41507.06
551.84	41268.33
552.01	41441.53
552.18	41469.61
552.34	41567.91
552.51	41706.01
552.68	41521.10
552.84	41757.50
553.01	42375.40
553.18	41984.53
553.34	41923.68
553.51	41724.73
553.67	41930.70
553.84	42108.58
554.01	41649.83
554.17	41546.85
554.34	42274.76
554.51	42143.69
554.67	42604.77
554.84	42225.60
555.00	42260.71
555.17	41841.76
555.33	42265.39
555.50	42237.31
555.67	42260.71
555.83	42146.03
556.00	42499.45
556.16	42686.69
556.33	42658.60
556.50	42614.13
556.66	42267.73
556.83	42052.41
556.99	42550.94
557.16	42405.83
557.32	42897.34
557.49	42548.60
557.65	42597.75
557.82	42876.27
557.98	42560.30
558.15	42431.57
558.32	42770.95
558.48	42632.86
558.65	42789.67
558.81	42759.25
558.98	42494.77
559.14	42616.47
559.31	42679.67
559.47	42752.23
559.64	42789.67
559.80	42986.28
559.97	43072.88
560.13	42946.49
560.30	42845.85
560.46	43313.95
560.63	43646.31
560.79	43140.75
560.96	43470.77
561.12	43210.97
561.29	43964.62
561.45	43217.99
561.61	43461.41
561.78	43208.63
561.94	42878.61
562.11	43290.55
562.27	43079.90
562.44	43096.28
562.60	43487.15
562.77	43320.98
562.93	43496.52
563.10	43320.98
563.26	43047.13
563.42	43892.07
563.59	43136.07
563.75	43608.86
563.92	43531.62
564.08	43838.23
564.24	43847.60
564.41	43512.90
564.57	43625.25
564.74	43711.84
564.90	43552.69
565.07	43845.26
565.23	43620.56
565.39	43688.44
565.56	43531.62
565.72	43917.81
565.88	43737.59
566.05	43482.47
566.21	43477.79
566.38	43920.15
566.54	43847.60
566.70	44095.69
566.87	43915.47
567.03	43489.49
567.19	43831.21
567.36	43604.18
567.52	43828.87
567.68	44404.64
567.85	43952.92
568.01	44364.85
568.17	43709.50
568.34	43636.95
568.50	44011.43
568.66	43538.65
568.83	44156.55
568.99	43751.63
569.15	43688.44
569.32	43995.05
569.48	43842.92
569.64	44292.30
569.81	44163.57
569.97	44364.85
570.13	44074.63
570.30	43831.21
570.46	44083.99
570.62	44463.16
570.78	44006.75
570.95	44289.96
571.11	44608.27
571.27	44074.63
571.43	44254.85
571.60	44123.78
571.76	44158.89
571.92	44016.11
572.09	44027.82
572.25	44044.20
572.41	44282.94
572.57	44325.07
572.74	44509.97
572.90	44259.53
573.06	44694.87
573.22	44294.64
573.38	44474.86
573.55	44449.11
573.71	44776.79
573.87	44364.85
574.03	44137.82
574.20	44362.51
574.36	44397.62
574.52	44985.10
574.68	44676.15
574.84	44566.14
575.01	44521.67
575.17	44811.90
575.33	44507.63
575.49	44500.61
575.65	44493.58
575.82	44669.12
575.98	44692.53
576.14	44631.68
576.30	44722.96
576.46	44924.24
576.62	44744.02
576.79	44538.05
576.95	44268.89
577.11	44477.20
577.27	44215.06
577.43	44252.51
577.59	44683.17
577.75	44669.12
577.92	44357.83
578.08	44463.16
578.24	44376.56
578.40	44687.85
578.56	44989.78
578.72	44961.69
578.88	44512.31
579.04	44825.94
579.21	44910.20
579.37	44610.61
579.53	44954.67
579.69	44596.57
579.85	44722.96
580.01	44821.26
580.17	44275.91
580.33	44638.70
580.49	44823.60
580.65	44561.46
580.82	44729.98
580.98	44442.09
581.14	43941.22
581.30	44868.07
581.46	44802.53
581.62	44561.46
581.78	44428.05
581.94	44837.64
582.10	45013.18
582.26	44907.86
582.42	45298.73
582.58	44563.80
582.74	45090.42
582.90	45015.52
583.06	45155.96
583.22	44652.74
583.38	45017.86
583.54	44505.29
583.70	45057.65
583.86	45027.23
584.02	44671.46
584.18	44687.85
584.34	45022.54
584.50	45027.23
584.66	44802.53
584.82	44659.76
584.98	45347.88
585.14	45254.26
585.30	44432.73
585.46	45095.10
585.62	44844.66
585.78	44879.77
585.94	44732.32
586.10	44968.71
586.26	44706.57
586.42	44715.93
586.58	44755.72
586.74	45165.32
586.90	44329.75
587.06	44919.56
587.22	45235.53
587.38	45249.58
587.54	45205.11
587.70	45420.44
587.86	45001.48
588.02	44655.08
588.18	44629.34
588.34	44870.41
588.49	45057.65
588.65	44638.70
588.81	45027.23
588.97	44732.32
589.13	44652.74
589.29	45036.59
589.45	45202.77
589.61	44957.01
589.77	45563.21
589.93	44863.39
590.08	45340.86
