SpectraSuite Data File
++++++++++++++++++++++++++++++++++++
Date: Fri Oct 25 10:46:58 EDT 2013
User: price-jones
Dark Spectrum Present: No
Reference Spectrum Present: No
Number of Sampled Component Spectra: 1
Spectrometers: USB2+H05261
Integration Time (usec): 100000 (USB2+H05261)
Spectra Averaged: 1 (USB2+H05261)
Boxcar Smoothing: 0 (USB2+H05261)
Correct for Electrical Dark: No (USB2+H05261)
Strobe/Lamp Enabled: No (USB2+H05261)
Correct for Detector Non-linearity: No (USB2+H05261)
Correct for Stray Light: No (USB2+H05261)
Number of Pixels in Processed Spectrum: 2048
>>>>>Begin Processed Spectral Data<<<<<
365.73	95.96
365.92	95.96
366.12	95.96
366.32	84.26
366.52	21.06
366.72	58.51
366.91	53.83
367.11	4.68
367.31	0.00
367.51	53.83
367.70	14.04
367.90	42.13
368.10	30.43
368.30	30.43
368.49	25.75
368.69	105.32
368.89	42.13
369.09	84.26
369.28	110.01
369.48	72.56
369.68	86.60
369.87	177.88
370.07	35.11
370.27	107.66
370.47	217.67
370.66	313.63
370.86	449.38
371.06	477.47
371.25	468.11
371.45	543.00
371.65	444.70
371.84	463.43
372.04	468.11
372.24	491.51
372.44	447.04
372.63	454.06
372.83	507.90
373.03	543.00
373.22	463.43
373.42	550.03
373.62	521.94
373.81	547.69
374.01	568.75
374.21	566.41
374.40	608.54
374.60	561.73
374.79	540.66
374.99	514.92
375.19	589.82
375.38	634.29
375.58	617.90
375.78	648.33
375.97	582.79
376.17	688.12
376.37	589.82
376.56	594.50
376.76	627.26
376.95	636.63
377.15	587.47
377.35	617.90
377.54	585.13
377.74	648.33
377.93	634.29
378.13	704.50
378.33	636.63
378.52	664.71
378.72	643.65
378.91	674.07
379.11	671.73
379.31	650.67
379.50	655.35
379.70	702.16
379.89	706.84
380.09	702.16
380.28	690.46
380.48	709.18
380.68	648.33
380.87	641.31
381.07	711.52
381.26	716.20
381.46	638.97
381.65	730.25
381.85	734.93
382.04	734.93
382.24	716.20
382.43	840.25
382.63	777.06
382.83	699.82
383.02	667.05
383.22	678.76
383.41	727.91
383.61	744.29
383.80	844.93
384.00	727.91
384.19	777.06
384.39	777.06
384.58	713.86
384.78	758.33
384.97	814.51
385.17	800.46
385.36	634.29
385.56	901.11
385.75	828.55
385.95	826.21
386.14	840.25
386.34	798.12
386.53	777.06
386.72	823.87
386.92	802.80
387.11	856.64
387.31	863.66
387.50	889.40
387.70	887.06
387.89	863.66
388.09	835.57
388.28	898.77
388.48	835.57
388.67	973.66
388.86	877.70
389.06	922.17
389.25	961.96
389.45	990.05
389.64	880.04
389.84	924.51
390.03	1022.81
390.22	1004.09
390.42	947.92
390.61	910.47
390.81	1032.18
391.00	1015.79
391.19	1142.18
391.39	1071.97
391.58	973.66
391.78	980.68
391.97	1018.13
392.16	1032.18
392.36	1125.80
392.55	1064.94
392.75	1001.75
392.94	1015.79
393.13	961.96
393.33	912.81
393.52	1050.90
393.71	1081.33
393.91	1116.44
394.10	1156.22
394.29	1027.50
394.49	1100.05
394.68	1226.44
394.88	1231.12
395.07	1207.72
395.26	1109.41
395.46	1210.06
395.65	1205.38
395.84	1184.31
396.04	1266.23
396.23	1137.50
396.42	1198.35
396.62	1242.82
396.81	1254.53
397.00	1203.04
397.19	1306.02
397.39	1315.38
397.58	1371.55
397.77	1420.71
397.97	1369.21
398.16	1348.15
398.35	1394.96
398.55	1313.04
398.74	1394.96
398.93	1483.90
399.12	1413.68
399.32	1451.13
399.51	1488.58
399.70	1502.62
399.90	1488.58
400.09	1528.37
400.28	1565.82
400.47	1570.50
400.67	1575.18
400.86	1523.69
401.05	1561.14
401.24	1596.25
401.44	1612.63
401.63	1664.12
401.82	1633.69
402.01	1680.50
402.21	1762.42
402.40	1689.87
402.59	1647.74
402.78	1617.31
402.97	1668.80
403.17	1795.19
403.36	1757.74
403.55	1762.42
403.74	1771.79
403.93	1788.17
404.13	1750.72
404.32	1849.02
404.51	1884.13
404.70	1863.07
404.89	1790.51
405.09	1832.64
405.28	1872.43
405.47	1764.76
405.66	1776.47
405.85	1872.43
406.05	1867.75
406.24	1923.92
406.43	1863.07
406.62	2003.50
406.81	2085.42
407.00	2050.31
407.20	1977.75
407.39	2012.86
407.58	2150.95
407.77	2122.87
407.96	2179.04
408.15	2153.29
408.34	2172.02
408.54	2141.59
408.73	2080.74
408.92	2223.51
409.11	2333.51
409.30	2258.62
409.49	2148.61
409.68	2141.59
409.87	2172.02
410.07	2270.32
410.26	2331.17
410.45	2251.60
410.64	2303.09
410.83	2452.88
411.02	2263.30
411.21	2424.80
411.40	2445.86
411.59	2497.35
411.78	2569.91
411.98	2499.69
412.17	2530.12
412.36	2583.95
412.55	2654.17
412.74	2497.35
412.93	2614.38
413.12	2530.12
413.31	2792.26
413.50	2775.88
413.69	2768.85
413.88	2745.45
414.07	2740.77
414.26	2834.39
414.45	2834.39
414.64	2967.80
414.83	2843.75
415.02	2906.95
415.22	3005.25
415.41	3038.02
415.60	3087.17
415.79	3007.59
415.98	3054.40
416.17	3012.27
416.36	3176.11
416.55	3002.91
416.74	3068.44
416.93	3243.98
417.12	3171.43
417.31	3171.43
417.50	3255.69
417.69	3335.26
417.88	3379.73
418.07	3307.18
418.26	3382.07
418.45	3262.71
418.64	3468.67
418.83	3405.48
419.02	3545.91
419.21	3419.52
419.39	3393.78
419.58	3426.54
419.77	3485.06
419.96	3426.54
420.15	3597.40
420.34	3630.17
420.53	3536.55
420.72	3705.07
420.91	3620.81
421.10	3548.25
421.29	3742.52
421.48	3667.62
421.67	3611.45
421.86	3669.96
422.05	3728.47
422.24	3644.21
422.43	3620.81
422.61	3709.75
422.80	3721.45
422.99	3733.15
423.18	3721.45
423.37	3878.27
423.56	3681.66
423.75	3761.24
423.94	3782.31
424.13	3620.81
424.32	3618.47
424.50	3854.86
424.69	3932.10
424.88	3829.12
425.07	3705.07
425.26	3854.86
425.45	3908.69
425.64	3688.68
425.83	3630.17
426.01	3906.35
426.20	3817.41
426.39	3880.61
426.58	3756.56
426.77	3829.12
426.96	3768.26
427.15	3857.20
427.33	3915.72
427.52	3892.31
427.71	3868.91
427.90	3969.55
428.09	3918.06
428.28	4042.11
428.46	4091.26
428.65	3939.12
428.84	4014.02
429.03	4067.85
429.22	4044.45
429.40	4044.45
429.59	3999.98
429.78	3885.29
429.97	3693.37
430.16	3866.56
430.34	3997.64
430.53	4079.55
430.72	4098.28
430.91	4102.96
431.10	4208.28
431.28	4353.40
431.47	4386.16
431.66	4458.72
431.85	4451.70
432.03	4337.01
432.22	4507.87
432.41	4629.58
432.60	4449.36
432.79	4451.70
432.97	4538.30
433.16	4484.47
433.35	4531.28
433.54	4484.47
433.72	4418.93
433.91	4524.26
434.10	4723.20
434.28	4634.26
434.47	4669.37
434.66	4645.96
434.85	4744.27
435.03	4823.84
435.22	4833.21
435.41	4870.65
435.59	4863.63
435.78	4861.29
435.97	4847.25
436.16	5074.28
436.34	4978.32
436.53	4945.55
436.72	5109.39
436.90	5004.07
437.09	4994.70
437.28	4856.61
437.46	4983.00
437.65	4975.98
437.84	4908.10
438.02	5102.37
438.21	4964.28
438.40	4830.87
438.58	5280.25
438.77	5408.98
438.96	5247.48
439.14	5500.26
439.33	5434.72
439.52	5427.70
439.70	5497.92
439.89	5401.96
440.08	5362.17
440.26	5514.30
440.45	5533.03
440.63	5411.32
440.82	5701.54
441.01	5757.72
441.19	5753.04
441.38	5856.02
441.57	5664.10
441.75	5863.04
441.94	5977.73
442.12	5806.87
442.31	6242.21
442.50	6134.54
442.68	6106.46
442.87	6066.67
443.05	6099.44
443.24	6157.95
443.43	6209.44
443.61	6200.08
443.80	6502.01
443.98	5996.45
444.17	5935.60
444.35	6239.87
444.54	6387.32
444.73	6396.68
444.91	6312.42
445.10	6352.21
445.28	6207.10
445.47	5966.03
445.65	6232.85
445.84	6359.24
446.02	6300.72
446.21	6249.23
446.39	6368.60
446.58	6551.16
446.77	6457.54
446.95	6347.53
447.14	6485.62
447.32	6480.94
447.51	6492.65
447.69	6345.19
447.88	6492.65
448.06	6359.24
448.25	6464.56
448.43	6443.49
448.62	6324.13
448.80	6431.79
448.99	6555.84
449.17	6628.40
449.36	6623.72
449.54	6703.29
449.73	6864.79
449.91	6857.77
450.10	6855.43
450.28	7054.37
450.46	6946.71
450.65	6857.77
450.83	6953.73
451.02	6911.60
451.20	7023.95
451.39	6979.48
451.57	6832.02
451.76	6825.00
451.94	6956.07
452.13	6960.75
452.31	6902.24
452.49	7030.97
452.68	7049.69
452.86	6946.71
453.05	7059.06
453.23	7070.76
453.42	6988.84
453.60	6897.56
453.78	7229.91
453.97	7276.73
454.15	7190.13
454.34	6970.12
454.52	7330.56
454.70	7183.10
454.89	7304.81
455.07	7185.44
455.26	7325.88
455.44	7494.40
455.62	7412.48
455.81	7566.95
455.99	7606.74
456.17	7564.61
456.36	7515.46
456.54	7335.24
456.73	7592.70
456.91	7733.13
457.09	7831.43
457.28	7967.18
457.46	7716.75
457.64	8009.31
457.83	7721.43
458.01	7552.91
458.19	7969.52
458.38	7831.43
458.56	8051.44
458.74	8126.34
458.93	7995.27
459.11	7927.39
459.29	8056.12
459.48	8142.72
459.66	7852.50
459.84	8109.96
460.03	8271.45
460.21	8231.66
460.39	8189.53
460.57	8156.77
460.76	8203.58
460.94	8285.50
461.12	8287.84
461.31	8589.77
461.49	8245.71
461.67	8341.67
461.85	8655.30
462.04	8634.24
462.22	8912.76
462.40	8613.17
462.59	8582.74
462.77	8505.51
462.95	8655.30
463.13	8535.93
463.32	8428.27
463.50	8599.13
463.68	8692.75
463.86	8662.32
464.05	8566.36
464.23	8727.86
464.41	8744.24
464.59	8671.68
464.78	8915.10
464.96	8858.93
465.14	8741.90
465.32	8833.18
465.50	8966.59
465.69	9018.08
465.87	8678.71
466.05	9090.64
466.23	8833.18
466.41	8917.44
466.60	9055.53
466.78	8912.76
466.96	8826.16
467.14	8791.05
467.32	9345.76
467.51	9448.74
467.69	8877.65
467.87	9261.50
468.05	9217.03
468.23	8905.74
468.41	9177.24
468.60	9067.24
468.78	9149.15
468.96	9050.85
469.14	9224.05
469.32	9338.74
469.50	9320.01
469.69	9528.32
469.87	9376.19
470.05	9495.55
470.23	9247.46
470.41	9497.89
470.59	9575.13
470.77	9500.23
470.95	9558.75
471.14	9820.89
471.32	9650.03
471.50	10061.96
471.68	9771.74
471.86	10162.61
472.04	10087.71
472.22	10143.88
472.40	9741.31
472.58	9884.08
472.77	10125.16
472.95	10167.29
473.13	10368.57
473.31	10366.23
473.49	10204.74
473.67	10298.36
473.85	10380.28
474.03	10689.23
474.21	10689.23
474.39	10621.35
474.57	10768.80
474.75	10693.91
474.93	10885.83
475.12	10649.44
475.30	10731.36
475.48	10801.57
475.66	10939.66
475.84	10775.83
476.02	10970.09
476.20	11159.67
476.38	11075.42
476.56	11346.92
476.74	11674.59
476.92	11503.73
477.10	11332.87
477.28	11609.06
477.46	11702.68
477.64	11714.38
477.82	12016.31
478.00	11936.73
478.18	12271.43
478.36	12159.08
478.54	12418.88
478.72	12526.55
478.90	12524.21
479.08	12484.42
479.26	12833.16
479.44	12666.98
479.62	12903.37
479.80	12706.77
479.98	13029.76
480.16	13128.06
480.34	13085.94
480.52	13408.93
480.70	13434.68
480.88	13170.19
481.06	13343.39
481.24	13448.72
481.41	13785.76
481.59	13877.04
481.77	13778.73
481.95	14052.58
482.13	13764.69
482.31	13797.46
482.49	14462.17
482.67	14256.20
482.85	14647.07
483.03	14462.17
483.21	14958.36
483.39	14949.00
483.57	14991.13
483.74	15030.92
483.92	15176.03
484.10	15283.70
484.28	15176.03
484.46	15688.61
484.64	15995.22
484.82	15616.05
485.00	15920.32
485.18	15967.13
485.35	15969.48
485.53	15903.94
485.71	15847.77
485.89	16039.69
486.07	16161.40
486.25	16042.03
486.43	16336.94
486.61	16428.22
486.78	16912.71
486.96	16760.58
487.14	17364.43
487.32	17231.02
487.50	17453.37
487.68	17500.19
487.85	17858.29
488.03	17809.14
488.21	18197.67
488.39	18298.31
488.57	18054.89
488.75	18192.98
488.92	18434.06
489.10	18625.98
489.28	18883.44
489.46	19197.07
489.64	19342.19
489.81	19639.44
489.99	19550.49
490.17	19831.36
490.35	19735.40
490.53	19770.51
490.70	19894.55
490.88	19981.15
491.06	20229.25
491.24	19999.88
491.41	20173.08
491.59	20079.46
491.77	20217.55
491.95	20638.84
492.13	21020.35
492.30	21010.99
492.48	21256.75
492.66	21095.25
492.84	21497.82
493.01	21310.58
493.19	21333.98
493.37	21654.64
493.54	21687.40
493.72	21748.26
493.90	21774.00
494.08	22300.62
494.25	22419.99
494.43	22696.17
494.61	22731.28
494.79	22822.56
494.96	22771.07
495.14	23047.26
495.32	23115.13
495.49	22946.61
495.67	23166.62
495.85	23517.70
496.02	23564.51
496.20	23616.01
496.38	23758.78
496.55	23931.98
496.73	24231.57
496.91	24217.52
497.09	24409.45
497.26	24311.14
497.44	24170.71
497.62	24479.66
497.79	24685.63
497.97	24467.96
498.14	24657.54
498.32	25081.18
498.50	24896.28
498.67	25427.58
498.85	25383.11
499.03	25415.88
499.20	25593.76
499.38	25556.31
499.56	26078.25
499.73	25626.53
499.91	25872.28
500.08	25979.95
500.26	25418.22
500.44	25993.99
500.61	25883.98
500.79	25933.14
500.97	26349.75
501.14	26661.04
501.32	26471.46
501.49	26417.63
501.67	26721.90
501.84	26628.27
502.02	26644.66
502.20	26960.63
502.37	27000.42
502.55	27164.26
502.72	27707.26
502.90	27517.68
503.07	27625.34
503.25	27552.79
503.43	27058.93
503.60	27524.70
503.78	27660.45
503.95	27803.22
504.13	28144.94
504.30	27810.25
504.48	27878.12
504.65	28428.15
504.83	28287.71
505.01	28334.53
505.18	28423.47
505.36	28877.53
505.53	28947.75
505.71	28659.86
505.88	29120.95
506.06	28800.29
506.23	29071.79
506.41	28627.09
506.58	29184.14
506.76	29549.26
506.93	29708.42
507.11	28938.38
507.28	29532.88
507.46	29048.39
507.63	29296.49
507.81	30029.07
507.98	29605.44
508.16	29654.59
508.33	30216.32
508.50	30239.72
508.68	30164.82
508.85	30644.63
509.03	30071.20
509.20	30637.61
509.38	30679.74
509.55	30714.85
509.73	30391.86
509.90	30609.53
510.08	30604.84
510.25	30654.00
510.42	30927.84
510.60	31101.04
510.77	31150.19
510.95	31648.72
511.12	31129.12
511.30	31208.70
511.47	31395.95
511.64	32070.02
511.82	31646.38
511.99	32074.70
512.17	31667.45
512.34	31468.50
512.51	31988.10
512.69	32283.01
512.86	31924.91
513.04	32322.80
513.21	32123.85
513.38	32231.52
513.56	32327.48
513.73	31964.70
513.90	32425.78
514.08	32203.43
514.25	32488.98
514.43	32467.91
514.60	32868.14
514.77	32830.69
514.95	32938.36
515.12	32807.29
515.29	32994.53
515.47	33415.83
515.64	33055.39
515.81	33060.07
515.99	33062.41
516.16	33015.60
516.33	33319.87
516.51	33380.72
516.68	32975.81
516.85	32650.47
517.03	33172.41
517.20	33738.82
517.37	33467.32
517.54	34185.86
517.72	33970.54
517.89	33460.30
518.06	33315.19
518.24	33897.98
518.41	33926.07
518.58	34040.75
518.75	33951.81
518.93	34330.98
519.10	34338.00
519.27	34359.06
519.45	34426.94
519.62	34459.71
519.79	34483.11
519.96	34951.22
520.14	35075.27
520.31	34749.93
520.48	34995.69
520.65	34998.03
520.83	34754.61
521.00	35147.82
521.17	35187.61
521.34	35204.00
521.52	35386.56
521.69	35615.93
521.86	35725.94
522.03	35524.65
522.20	35386.56
522.38	35805.52
522.55	36009.14
522.72	35651.04
522.89	35545.72
523.07	36313.41
523.24	35585.50
523.41	35997.44
523.58	36147.23
523.75	37048.34
523.92	36690.24
524.10	36708.96
524.27	36617.68
524.44	36652.79
524.61	36790.88
524.78	36641.09
524.96	36985.15
525.13	37186.43
525.30	37411.12
525.47	37221.54
525.64	37092.81
525.81	37137.28
525.98	37118.56
526.16	37102.17
526.33	36905.57
526.50	37535.17
526.67	36676.19
526.84	36687.90
527.01	37053.02
527.18	37338.57
527.36	37694.33
527.53	37799.65
527.70	37425.17
527.87	37717.73
528.04	37734.12
528.21	37715.39
528.38	38101.58
528.55	37956.47
528.72	38061.79
528.89	38314.57
529.07	38408.19
529.24	37731.78
529.41	38141.37
529.58	37991.58
529.75	38216.27
529.92	38323.93
530.09	38707.78
530.26	38534.58
530.43	38398.83
530.60	38658.63
530.77	38778.00
530.94	38862.26
531.11	38443.30
531.28	38618.84
531.46	38834.17
531.63	39124.40
531.80	39363.13
531.97	39370.15
532.14	39075.24
532.31	38792.04
532.48	39007.37
532.65	39454.41
532.82	38836.51
532.99	39269.51
533.16	38911.41
533.33	39351.43
533.50	39409.94
533.67	39592.50
533.84	39210.99
534.01	39468.45
534.18	39484.84
534.35	39597.18
534.52	39526.97
534.69	40112.10
534.86	39910.82
535.03	39761.02
535.20	40027.84
535.37	40072.31
535.54	40245.51
535.71	40156.57
535.88	40107.42
536.05	39995.07
536.22	40130.83
536.38	39938.90
536.55	40383.60
536.72	40144.87
536.89	40308.71
537.06	40079.33
537.23	40231.47
537.40	40149.55
537.57	40259.55
537.74	40584.89
537.91	41062.36
538.08	40762.77
538.25	40409.35
538.42	40140.19
538.59	40774.47
538.75	40753.41
538.92	40517.01
539.09	41333.86
539.26	40325.09
539.43	40676.17
539.60	40811.92
539.77	40678.51
539.94	41160.66
540.11	40842.35
540.28	40774.47
540.44	40999.16
540.61	41081.08
540.78	40765.11
540.95	41202.79
541.12	41151.30
541.29	40748.73
541.46	41200.45
541.62	41263.64
541.79	41588.98
541.96	40875.12
542.13	41556.21
542.30	41509.40
542.47	41558.55
542.63	41366.63
542.80	41677.92
542.97	41944.74
543.14	42274.76
543.31	42256.03
543.48	42050.06
543.64	42644.56
543.81	42784.99
543.98	41923.68
544.15	42389.44
544.32	42323.91
544.48	42632.86
544.65	42696.05
544.82	42632.86
544.99	42321.57
545.16	42426.89
545.32	42148.37
545.49	42508.81
545.66	42410.51
545.83	42815.42
546.00	43129.05
546.16	42995.64
546.33	42796.70
546.50	42429.23
546.67	43084.58
546.83	42382.42
547.00	43098.62
547.17	42052.41
547.34	42759.25
547.50	42792.01
547.67	43168.84
547.84	43086.92
548.00	42747.54
548.17	43370.13
548.34	43154.80
548.51	43650.99
548.67	43533.96
548.84	43665.03
549.01	43276.51
549.18	43463.75
549.34	43173.52
549.51	43267.14
549.68	43519.92
549.84	43835.89
550.01	44023.14
550.18	43290.55
550.34	43548.01
550.51	43512.90
550.68	43267.14
550.84	43257.78
551.01	43571.41
551.18	43213.31
551.34	43559.71
551.51	43768.02
551.68	43615.88
551.84	43796.10
552.01	43976.33
552.18	43646.31
552.34	43695.46
552.51	44334.43
552.68	43353.74
552.84	44058.24
553.01	44362.51
553.18	43936.54
553.34	43817.17
553.51	43955.26
553.67	44472.52
553.84	44079.31
554.01	44240.81
554.17	44404.64
554.34	44311.02
554.51	43915.47
554.67	44210.38
554.84	44165.91
555.00	44287.62
555.17	44165.91
555.33	44575.50
555.50	44069.95
555.67	44596.57
555.83	44409.32
556.00	44610.61
556.16	44975.73
556.33	44643.38
556.50	44374.22
556.66	44502.95
556.83	44355.49
556.99	44797.85
557.16	44849.35
557.32	44673.81
557.49	44594.23
557.65	44404.64
557.82	44402.30
557.98	44406.98
558.15	44378.90
558.32	44676.15
558.48	44856.37
558.65	44605.93
558.81	44924.24
558.98	44591.89
559.14	44889.13
559.31	44528.69
559.47	45036.59
559.64	45368.94
559.80	45170.00
559.97	44739.34
560.13	44870.41
560.30	44868.07
560.46	44865.73
560.63	44772.11
560.79	45109.14
560.96	45237.87
561.12	45074.04
561.29	45160.64
561.45	44940.63
561.61	45024.89
561.78	44994.46
561.94	44692.53
562.11	44884.45
562.27	44863.39
562.44	44800.19
562.60	45312.77
562.77	45436.82
562.93	45684.92
563.10	45170.00
563.26	44959.35
563.42	45263.62
563.59	45104.46
563.75	45034.25
563.92	45567.89
564.08	45357.24
564.24	45371.28
564.41	45350.22
564.57	45621.72
564.74	45570.23
564.90	45507.04
565.07	45441.50
565.23	45441.50
565.39	45301.07
565.56	45731.73
565.72	45125.53
565.88	45373.63
566.05	45085.74
566.21	45631.08
566.38	45635.77
566.54	45221.49
566.70	45741.09
566.87	45801.94
567.03	45289.37
567.19	46174.09
567.36	45947.06
567.52	45794.92
567.68	45684.92
567.85	45612.36
568.01	45544.48
568.17	45354.90
568.34	46195.15
568.50	45570.23
568.66	45787.90
568.83	45565.55
568.99	45069.36
569.15	45558.53
569.32	45766.84
569.48	45029.57
569.64	45858.12
569.81	45874.50
569.97	45291.71
570.13	45755.13
570.30	45265.96
570.46	44994.46
570.62	45392.35
570.78	45298.73
570.95	45148.93
571.11	45375.97
571.27	45642.79
571.43	45715.34
571.60	45549.17
571.76	45514.06
571.92	45504.70
572.09	45647.47
572.25	45661.51
572.41	45345.54
572.57	45769.18
572.74	46307.50
572.90	45731.73
573.06	45942.38
573.22	45813.65
573.38	45830.03
573.55	45890.88
573.71	45787.90
573.87	45755.13
574.03	45474.27
574.20	45837.05
574.36	45635.77
574.52	45801.94
574.68	45483.63
574.84	45694.28
575.01	45977.48
575.17	45689.60
575.33	45579.59
575.49	45581.93
575.65	46110.89
575.82	46043.02
575.98	45780.88
576.14	45904.93
576.30	45663.85
576.46	45961.10
576.62	45617.04
576.79	45546.82
576.95	45441.50
577.11	45982.16
577.27	45511.72
577.43	45635.77
577.59	45612.36
577.75	46155.36
577.92	45745.77
578.08	45331.50
578.24	46033.66
578.40	45883.86
578.56	45794.92
578.72	46218.56
578.88	45888.54
579.04	45874.50
579.21	45909.61
579.37	45834.71
579.53	46120.26
579.69	45715.34
579.85	45909.61
580.01	45881.52
580.17	45837.05
580.33	46366.01
580.49	46220.90
580.65	46033.66
580.82	46141.32
580.98	46288.77
581.14	45904.93
581.30	46012.59
581.46	46115.58
581.62	45972.80
581.78	45492.99
581.94	45921.31
582.10	46260.69
582.26	45771.52
582.42	46471.34
582.58	45731.73
582.74	45923.65
582.90	46195.15
583.06	46237.28
583.22	46080.47
583.38	46356.65
583.54	46326.22
583.70	46021.95
583.86	45825.35
584.02	45799.60
584.18	46239.62
584.34	45940.04
584.50	46113.23
584.66	46157.70
584.82	45930.67
584.98	46103.87
585.14	46291.12
585.30	46019.61
585.46	45975.14
585.62	45940.04
585.78	45830.03
585.94	45453.20
586.10	45448.52
586.26	45825.35
586.42	46232.60
586.58	46209.20
586.74	45928.33
586.90	45872.16
587.06	45757.47
587.22	45600.66
587.38	46143.66
587.54	46263.03
587.70	45909.61
587.86	46452.61
588.02	46117.92
588.18	46253.67
588.34	46003.23
588.49	46061.74
588.65	45591.30
588.81	45993.87
588.97	45886.20
589.13	45715.34
589.29	46284.09
589.45	46279.41
589.61	45996.21
589.77	46075.79
589.93	46298.14
590.08	46213.88
