SpectraSuite Data File
++++++++++++++++++++++++++++++++++++
Date: Fri Oct 25 11:25:25 EDT 2013
User: price-jones
Dark Spectrum Present: No
Reference Spectrum Present: No
Number of Sampled Component Spectra: 1
Spectrometers: USB2+H05261
Integration Time (usec): 100000 (USB2+H05261)
Spectra Averaged: 1 (USB2+H05261)
Boxcar Smoothing: 0 (USB2+H05261)
Correct for Electrical Dark: No (USB2+H05261)
Strobe/Lamp Enabled: No (USB2+H05261)
Correct for Detector Non-linearity: No (USB2+H05261)
Correct for Stray Light: No (USB2+H05261)
Number of Pixels in Processed Spectrum: 2048
>>>>>Begin Processed Spectral Data<<<<<
365.73	203.63
365.92	203.63
366.12	203.63
366.32	177.88
366.52	142.77
366.72	147.45
366.91	93.62
367.11	159.16
367.31	149.79
367.51	163.84
367.70	145.11
367.90	175.54
368.10	140.43
368.30	149.79
368.49	168.52
368.69	110.01
368.89	187.24
369.09	191.92
369.28	175.54
369.48	201.29
369.68	215.33
369.87	252.78
370.07	145.11
370.27	220.01
370.47	304.27
370.66	608.54
370.86	613.22
371.06	627.26
371.25	706.84
371.45	585.13
371.65	777.06
371.84	667.05
372.04	751.31
372.24	678.76
372.44	718.54
372.63	720.88
372.83	725.57
373.03	774.72
373.22	739.61
373.42	711.52
373.62	727.91
373.81	784.08
374.01	842.59
374.21	861.32
374.40	791.10
374.60	863.66
374.79	901.11
374.99	809.83
375.19	835.57
375.38	842.59
375.58	856.64
375.78	866.00
375.97	851.96
376.17	947.92
376.37	898.77
376.56	861.32
376.76	966.64
376.95	863.66
377.15	896.43
377.35	961.96
377.54	882.38
377.74	898.77
377.93	814.51
378.13	826.21
378.33	868.34
378.52	887.06
378.72	908.13
378.91	910.47
379.11	936.21
379.31	901.11
379.50	973.66
379.70	926.85
379.89	966.64
380.09	1062.60
380.28	901.11
380.48	931.53
380.68	971.32
380.87	976.00
381.07	987.71
381.26	873.02
381.46	894.08
381.65	1053.24
381.85	1029.84
382.04	1001.75
382.24	1060.26
382.43	1083.67
382.63	1027.50
382.83	1078.99
383.02	1100.05
383.22	1151.54
383.41	1116.44
383.61	1069.62
383.80	1139.84
384.00	1160.91
384.19	1151.54
384.39	1203.04
384.58	1121.12
384.78	1069.62
384.97	1235.80
385.17	1167.93
385.36	1210.06
385.56	1153.88
385.75	1198.35
385.95	1151.54
386.14	1165.59
386.34	1196.01
386.53	1172.61
386.72	1254.53
386.92	1259.21
387.11	1331.76
387.31	1320.06
387.50	1277.93
387.70	1160.91
387.89	1270.91
388.09	1200.69
388.28	1247.51
388.48	1207.72
388.67	1291.98
388.86	1284.95
389.06	1329.42
389.25	1282.61
389.45	1287.29
389.64	1343.47
389.84	1451.13
390.03	1401.98
390.22	1331.76
390.42	1313.04
390.61	1331.76
390.81	1322.40
391.00	1439.43
391.19	1397.30
391.39	1364.53
391.58	1378.58
391.78	1383.26
391.97	1434.75
392.16	1469.86
392.36	1535.39
392.55	1509.65
392.75	1645.40
392.94	1467.52
393.13	1577.52
393.33	1502.62
393.52	1540.07
393.71	1570.50
393.91	1565.82
394.10	1540.07
394.29	1544.75
394.49	1565.82
394.68	1650.08
394.88	1614.97
395.07	1673.48
395.26	1689.87
395.46	1612.63
395.65	1741.36
395.84	1760.08
396.04	1856.04
396.23	1764.76
396.42	1706.25
396.62	1804.55
396.81	1783.49
397.00	1781.15
397.19	1741.36
397.39	1809.23
397.58	1888.81
397.77	1748.38
397.97	1846.68
398.16	1830.30
398.35	1944.99
398.55	1902.86
398.74	1806.89
398.93	1996.48
399.12	1827.96
399.32	1802.21
399.51	1928.60
399.70	1991.80
399.90	1907.54
400.09	2036.27
400.28	2099.46
400.47	1996.48
400.67	1926.26
400.86	2087.76
401.05	2010.52
401.24	2118.18
401.44	2008.18
401.63	2003.50
401.82	2293.72
402.01	2108.82
402.21	2214.15
402.40	2181.38
402.59	2071.37
402.78	2211.81
402.97	2258.62
403.17	2204.78
403.36	2244.57
403.55	2312.45
403.74	2415.43
403.93	2305.43
404.13	2368.62
404.32	2319.47
404.51	2321.81
404.70	2392.03
404.89	2443.52
405.09	2415.43
405.28	2478.63
405.47	2445.86
405.66	2495.01
405.85	2569.91
406.05	2485.65
406.24	2558.21
406.43	2565.23
406.62	2569.91
406.81	2668.21
407.00	2506.71
407.20	2565.23
407.39	2546.50
407.58	2644.81
407.77	2672.89
407.96	2693.96
408.15	2752.47
408.34	2684.59
408.54	2745.45
408.73	2808.64
408.92	2745.45
409.11	2813.32
409.30	2794.60
409.49	2799.28
409.68	2925.67
409.87	2888.22
410.07	2984.18
410.26	2911.63
410.45	3030.99
410.64	3005.25
410.83	3112.91
411.02	3030.99
411.21	3108.23
411.40	3197.17
411.59	3180.79
411.78	3152.70
411.98	3117.59
412.17	3241.64
412.36	3260.37
412.55	3297.81
412.74	3332.92
412.93	3283.77
413.12	3274.41
413.31	3393.78
413.50	3346.97
413.69	3463.99
413.88	3538.89
414.07	3555.27
414.26	3595.06
414.45	3583.36
414.64	3641.87
414.83	3599.74
415.02	3758.90
415.22	3719.11
415.41	3824.44
415.60	3801.03
415.79	3866.56
415.98	3894.65
416.17	3892.31
416.36	3904.01
416.55	4016.36
416.74	4053.81
416.93	3934.44
417.12	4018.70
417.31	4067.85
417.50	4201.26
417.69	4283.18
417.88	4283.18
418.07	4292.54
418.26	4259.78
418.45	4351.06
418.64	4486.81
418.83	4484.47
419.02	4442.34
419.21	4454.04
419.39	4528.94
419.58	4376.80
419.77	4358.08
419.96	4568.73
420.15	4470.42
420.34	4547.66
420.53	4475.10
420.72	4594.47
420.91	4533.62
421.10	4692.77
421.29	4720.86
421.48	4631.92
421.67	4732.56
421.86	4795.76
422.05	4692.77
422.24	4652.98
422.43	4739.58
422.61	4826.18
422.80	4973.64
422.99	4858.95
423.18	4830.87
423.37	4929.17
423.56	4975.98
423.75	4891.72
423.94	4793.42
424.13	4629.58
424.32	4774.69
424.50	4922.15
424.69	4959.60
424.88	4947.89
425.07	4910.44
425.26	4720.86
425.45	4987.68
425.64	4889.38
425.83	4990.02
426.01	5107.05
426.20	4994.70
426.39	4954.91
426.58	5011.09
426.77	4980.66
426.96	5273.23
427.15	5163.22
427.33	5352.81
427.52	5160.88
427.71	5287.27
427.90	5226.42
428.09	5259.18
428.28	5322.38
428.46	5259.18
428.65	5259.18
428.84	5458.13
429.03	5526.00
429.22	5296.63
429.40	5366.85
429.59	5434.72
429.78	5298.97
429.97	5247.48
430.16	5322.38
430.34	5497.92
430.53	5579.84
430.72	5661.76
430.91	5624.31
431.10	5640.69
431.28	5774.10
431.47	5844.32
431.66	5771.76
431.85	5589.20
432.03	5811.55
432.22	5863.04
432.41	5853.68
432.60	5891.13
432.79	5888.79
432.97	5928.58
433.16	5984.75
433.35	5977.73
433.54	6085.39
433.72	6148.59
433.91	6054.97
434.10	6139.23
434.28	5970.71
434.47	6188.38
434.66	6277.32
434.85	6335.83
435.03	6218.80
435.22	6216.46
435.41	6370.94
435.59	6324.13
435.78	6225.82
435.97	6387.32
436.16	6370.94
436.34	6310.08
436.53	6408.39
436.72	6715.00
436.90	6289.02
437.09	6675.21
437.28	6406.05
437.46	6520.73
437.65	6726.70
437.84	6745.42
438.02	6670.53
438.21	6675.21
438.40	6693.93
438.58	6958.41
438.77	6916.28
438.96	6862.45
439.14	6942.03
439.33	7103.53
439.52	7042.67
439.70	7162.04
439.89	7321.20
440.08	7316.51
440.26	7456.95
440.45	7412.48
440.63	7576.31
440.82	7452.27
441.01	7440.56
441.19	7543.55
441.38	7768.24
441.57	7585.68
441.75	7686.32
441.94	7639.51
442.12	7918.03
442.31	7875.90
442.50	8011.65
442.68	8016.33
442.87	7927.39
443.05	8131.02
443.24	8173.15
443.43	7964.84
443.61	8133.36
443.80	8226.98
443.98	8138.04
444.17	7761.22
444.35	8231.66
444.54	8353.37
444.73	8135.70
444.91	8238.69
445.10	8231.66
445.28	8238.69
445.47	8241.03
445.65	8393.16
445.84	8290.18
446.02	8542.96
446.21	8395.50
446.39	8468.06
446.58	8400.18
446.77	8535.93
446.95	8198.90
447.14	8292.52
447.32	8578.06
447.51	8477.42
447.69	8416.57
447.88	8510.19
448.06	8299.54
448.25	8589.77
448.43	8594.45
448.62	8346.35
448.80	8634.24
448.99	8573.38
449.17	8587.43
449.36	8482.10
449.54	8823.82
449.73	8849.57
449.91	9050.85
450.10	8856.59
450.28	8868.29
450.46	8837.86
450.65	8990.00
450.83	8952.55
451.02	8812.12
451.20	9011.06
451.39	9036.81
451.57	9188.94
451.76	9114.05
451.94	9186.60
452.13	9207.67
452.31	9432.36
452.49	9081.28
452.68	9212.35
452.86	9219.37
453.05	9460.45
453.23	9586.83
453.42	9041.49
453.60	9195.96
453.78	9261.50
453.97	9415.98
454.15	9500.23
454.34	9537.68
454.52	9427.68
454.70	9612.58
454.89	9743.65
455.07	9731.95
455.26	9767.06
455.44	9856.00
455.62	9652.37
455.81	9755.35
455.99	9923.87
456.17	9951.96
456.36	10019.83
456.54	10209.42
456.73	10319.42
456.91	10340.49
457.09	10513.69
457.28	10424.75
457.46	10157.92
457.64	10413.04
457.83	10415.38
458.01	10174.31
458.19	10485.60
458.38	10459.85
458.56	10707.95
458.74	10607.31
458.93	10490.28
459.11	10712.63
459.29	10644.76
459.48	10689.23
459.66	10714.97
459.84	10916.26
460.03	10836.68
460.21	10789.87
460.39	10771.15
460.57	10958.39
460.76	11136.27
460.94	11103.50
461.12	10979.45
461.31	10967.75
461.49	11040.31
461.67	11358.62
461.85	11150.31
462.04	11227.55
462.22	11808.00
462.40	11527.14
462.59	11356.28
462.77	11468.62
462.95	11377.34
463.13	11583.31
463.32	11578.63
463.50	11754.17
463.68	11698.00
463.86	11712.04
464.05	11517.78
464.23	11578.63
464.41	11866.52
464.59	11485.01
464.78	12046.74
464.96	12037.38
465.14	11866.52
465.32	11742.47
465.50	12074.82
465.69	12006.95
465.87	12100.57
466.05	11918.01
466.23	11925.03
466.41	12018.65
466.60	12374.41
466.78	11960.14
466.96	11953.12
467.14	12161.42
467.32	12294.83
467.51	12196.53
467.69	12112.27
467.87	12304.20
468.05	12496.12
468.23	12505.48
468.41	12486.76
468.60	12657.62
468.78	12674.00
468.96	12540.59
469.14	12762.94
469.32	12842.52
469.50	12765.28
469.69	12807.41
469.87	13092.96
470.05	13025.08
470.23	12908.05
470.41	13090.62
470.59	13055.51
470.77	12947.84
470.95	13186.58
471.14	13179.56
471.32	13095.30
471.50	13338.71
471.68	13481.49
471.86	13565.74
472.04	13614.90
472.22	13881.72
472.40	13486.17
472.58	13727.24
472.77	14047.90
472.95	14108.75
473.13	14368.55
473.31	13963.64
473.49	14104.07
473.67	14047.90
473.85	14012.79
474.03	14396.64
474.21	14576.86
474.39	14630.69
474.57	14630.69
474.75	14869.42
474.93	14541.75
475.12	15098.80
475.30	15054.33
475.48	15119.86
475.66	15201.78
475.84	15061.35
476.02	15293.06
476.20	15061.35
476.38	15590.31
476.56	15885.22
476.74	16161.40
476.92	15934.37
477.10	15658.18
477.28	16060.76
477.46	15782.23
477.64	16617.80
477.82	16259.70
478.00	16919.73
478.18	16552.27
478.36	16599.08
478.54	16727.81
478.72	16973.56
478.90	17348.05
479.08	17530.61
479.26	17507.21
479.44	17788.07
479.62	17659.34
479.80	18272.56
479.98	18019.78
480.16	18223.41
480.34	18260.86
480.52	18611.94
480.70	18438.74
480.88	18347.46
481.06	18560.45
481.24	18696.20
481.41	19047.28
481.59	19253.25
481.77	19225.16
481.95	19452.19
482.13	19798.59
482.31	19599.65
482.49	20013.92
482.67	19852.42
482.85	20182.44
483.03	20547.56
483.21	20547.56
483.39	20685.65
483.57	20575.65
483.74	20641.18
483.92	20985.24
484.10	20954.82
484.28	21523.57
484.46	21914.44
484.64	22202.32
484.82	22015.08
485.00	22097.00
485.18	22628.30
485.35	22499.57
485.53	22431.69
485.71	22871.72
485.89	23194.71
486.07	23183.01
486.25	23339.82
486.43	23199.39
486.61	23503.66
486.78	23433.44
486.96	23896.87
487.14	24379.02
487.32	24049.00
487.50	24959.47
487.68	24699.67
487.85	25060.12
488.03	24982.88
488.21	25263.74
488.39	25362.04
488.57	26359.11
488.75	25710.78
488.92	26237.41
489.10	26628.27
489.28	26345.07
489.46	27166.60
489.64	26742.96
489.81	27152.55
489.99	27658.11
490.17	27332.78
490.35	28046.64
490.53	27910.89
490.70	28547.51
490.88	27983.44
491.06	28463.25
491.24	28535.81
491.41	28987.53
491.59	28989.88
491.77	28996.90
491.95	29289.46
492.13	29301.17
492.30	29523.52
492.48	29483.73
492.66	29441.60
492.84	30061.84
493.01	30693.79
493.19	30506.54
493.37	30866.98
493.54	30773.36
493.72	31187.64
493.90	30885.71
494.08	31295.30
494.25	31470.84
494.43	31761.07
494.61	31452.12
494.79	31997.46
494.96	32388.33
495.14	32388.33
495.32	32730.05
495.49	32865.80
495.67	32840.06
495.85	33266.03
496.02	33771.59
496.20	33764.57
496.38	33844.15
496.55	33940.11
496.73	34508.86
496.91	34658.65
497.09	34553.33
497.26	34866.96
497.44	34398.85
497.62	35285.92
497.79	35585.50
497.97	35281.24
498.14	35356.13
498.32	35882.75
498.50	35730.62
498.67	36282.98
498.85	35997.44
499.03	36048.93
499.20	36229.15
499.38	36528.74
499.56	36921.95
499.73	36898.55
499.91	36896.20
500.08	37266.01
500.26	37062.38
500.44	37202.82
500.61	37600.71
500.79	37331.54
500.97	37865.19
501.14	38529.90
501.32	38160.09
501.49	38103.92
501.67	38490.11
501.84	38981.62
502.02	38728.84
502.20	38649.27
502.37	39288.23
502.55	38754.59
502.72	39431.01
502.90	38705.44
503.07	38965.24
503.25	39604.20
503.43	39189.93
503.60	39651.02
503.78	39833.58
503.95	39861.66
504.13	40172.96
504.30	40194.02
504.48	39938.90
504.65	40725.32
504.83	40444.46
505.01	41123.21
505.18	41069.38
505.36	41174.70
505.53	41048.32
505.71	41155.98
505.88	41085.76
506.06	41375.99
506.23	41570.25
506.41	41212.15
506.58	41584.30
506.76	42291.14
506.93	42223.26
507.11	41642.81
507.28	42080.49
507.46	42625.84
507.63	42651.58
507.81	42906.70
507.98	42742.86
508.16	42768.61
508.33	43058.84
508.50	43000.32
508.68	42930.11
508.85	43707.16
509.03	43201.61
509.20	43569.07
509.38	44053.56
509.55	43742.27
509.73	44079.31
509.90	44275.91
510.08	43819.51
510.25	44526.35
510.42	44561.46
510.60	44636.36
510.77	44917.22
510.95	45249.58
511.12	44673.81
511.30	44809.56
511.47	44781.47
511.64	45315.11
511.82	45549.17
511.99	45303.41
512.17	45516.40
512.34	45469.59
512.51	46167.07
512.69	45778.54
512.86	46059.40
513.04	46223.24
513.21	46426.87
513.38	46494.74
513.56	46326.22
513.73	46047.70
513.90	46663.26
514.08	46483.04
514.25	46831.78
514.43	47063.49
514.60	47030.72
514.77	47332.65
514.95	47344.36
515.12	46944.12
515.29	47496.49
515.47	47760.97
515.64	47873.32
515.81	47576.07
515.99	47833.53
516.16	48041.84
516.33	48189.29
516.51	48158.86
516.68	48072.26
516.85	47885.02
517.03	48559.09
517.20	48671.44
517.37	48322.70
517.54	48186.95
517.72	48619.95
517.89	48500.58
518.06	48381.21
518.24	48823.58
518.41	48626.97
518.58	49474.24
518.75	49120.82
518.93	49326.79
519.10	49137.21
519.27	49537.44
519.45	49542.12
519.62	49879.16
519.79	49340.83
519.96	49741.06
520.14	49883.84
520.31	49909.58
520.48	49982.14
520.65	49834.69
520.83	50562.59
521.00	50475.99
521.17	50150.66
521.34	50387.05
521.52	50396.42
521.69	50541.53
521.86	50834.10
522.03	50335.56
522.20	50927.72
522.38	50983.89
522.55	50866.86
522.72	50883.25
522.89	50876.22
523.07	51318.59
523.24	51276.46
523.41	51304.54
523.58	51320.93
523.75	51299.86
523.92	51660.30
524.10	51655.62
524.27	51849.89
524.44	51758.61
524.61	51767.97
524.78	51826.48
524.96	51765.63
525.13	52074.58
525.30	52165.86
525.47	52226.71
525.64	51950.53
525.81	52355.44
525.98	52095.64
526.16	52102.67
526.33	52364.81
526.50	52825.89
526.67	52591.84
526.84	52615.24
527.01	52680.78
527.18	52659.71
527.36	52739.29
527.53	52921.85
527.70	53176.97
527.87	53195.70
528.04	52797.80
528.21	53294.00
528.38	53265.91
528.55	53404.00
528.72	53073.99
528.89	53139.52
529.07	53078.67
529.24	53247.19
529.41	53551.46
529.58	53413.37
529.75	53366.55
529.92	53535.07
530.09	53544.44
530.26	53801.89
530.43	53722.32
530.60	53382.94
530.77	53932.96
530.94	53656.78
531.11	53595.93
531.28	53797.21
531.46	54059.35
531.63	53764.45
531.80	54209.15
531.97	54181.06
532.14	54120.21
532.31	54251.28
532.48	54368.30
532.65	54419.80
532.82	54167.02
532.99	54557.89
533.16	54185.74
533.33	54738.11
533.50	54644.49
533.67	54574.27
533.84	54358.94
534.01	54344.90
534.18	54628.10
534.35	54899.61
534.52	54871.52
534.69	54899.61
534.86	55323.24
535.03	54747.47
535.20	55018.97
535.37	55093.87
535.54	55271.75
535.71	54855.14
535.88	55353.67
536.05	55341.97
536.22	55302.18
536.38	55316.22
536.55	55075.15
536.72	55356.01
536.89	55215.58
537.06	55227.28
537.23	55604.11
537.40	55292.82
537.57	55466.02
537.74	55526.87
537.91	55767.94
538.08	55550.27
538.25	55451.97
538.42	55831.14
538.59	56086.26
538.75	55613.47
538.92	55906.04
539.09	56011.36
539.26	55826.46
539.43	55840.50
539.60	56027.74
539.77	56023.06
539.94	56109.66
540.11	56149.45
540.28	56109.66
540.44	56065.19
540.61	56287.54
540.78	56074.55
540.95	56072.21
541.12	56163.50
541.29	56355.42
541.46	56381.16
541.62	56226.69
541.79	56240.73
541.96	56165.84
542.13	56170.52
542.30	56392.87
542.47	56776.72
542.63	56690.12
542.80	56767.35
542.97	56959.28
543.14	56900.76
543.31	56807.14
543.48	56828.21
543.64	57282.27
543.81	57048.22
543.98	57146.52
544.15	57261.21
544.32	57111.41
544.48	57380.57
544.65	57249.50
544.82	57254.18
544.99	57293.97
545.16	57237.80
545.32	57186.31
545.49	57425.04
545.66	57474.20
545.83	57289.29
546.00	57593.56
546.16	57467.17
546.33	57167.58
546.50	57368.87
546.67	57228.44
546.83	57148.86
547.00	57490.58
547.17	57546.75
547.34	57598.24
547.50	57696.55
547.67	57752.72
547.84	57832.30
548.00	57895.49
548.17	58056.99
548.34	57741.02
548.51	58014.86
548.67	58056.99
548.84	57862.72
549.01	57785.49
549.18	57832.30
549.34	58054.65
549.51	57829.96
549.68	58340.19
549.84	58056.99
550.01	58005.50
550.18	58085.07
550.34	58284.02
550.51	58300.40
550.68	58038.26
550.84	58035.92
551.01	58181.04
551.18	58239.55
551.34	58422.11
551.51	58319.13
551.68	58522.76
551.84	58302.74
552.01	58330.83
552.18	58363.60
552.34	58066.35
552.51	58639.78
552.68	58309.77
552.84	58480.63
553.01	58770.85
553.18	58607.01
553.34	58714.68
553.51	58454.88
553.67	58508.71
553.84	58656.17
554.01	58742.77
554.17	58855.11
554.34	58749.79
554.51	58665.53
554.67	58967.46
554.84	58972.14
555.00	58742.77
555.17	58958.09
555.33	58677.23
555.50	58679.57
555.67	58915.96
555.83	58908.94
556.00	59011.93
556.16	59189.81
556.33	58887.88
556.50	58930.01
556.66	59145.34
556.83	59014.27
556.99	58990.86
557.16	59367.69
557.32	59157.04
557.49	59292.79
557.65	59194.49
557.82	59201.51
557.98	59021.29
558.15	59243.64
558.32	59355.99
558.48	59388.75
558.65	59299.81
558.81	59196.83
558.98	59318.54
559.14	59524.50
559.31	59435.56
559.47	59330.24
559.64	59583.02
559.80	59627.49
559.97	59512.80
560.13	59456.63
560.30	59566.63
560.46	59456.63
560.63	59447.27
560.79	59683.66
560.96	59695.36
561.12	59615.79
561.29	59681.32
561.45	59618.13
561.61	59693.02
561.78	59714.09
561.94	59564.29
562.11	59568.97
562.27	59515.14
562.44	59756.22
562.60	59723.45
562.77	59608.76
562.93	59395.77
563.10	59896.65
563.26	59653.23
563.42	60018.36
563.59	59758.56
563.75	59622.81
563.92	59840.48
564.08	59664.94
564.24	59812.39
564.41	60065.17
564.57	59868.56
564.74	59828.77
564.90	59908.35
565.07	59896.65
565.23	60009.00
565.39	59962.18
565.56	60114.32
565.72	59774.94
565.88	60079.21
566.05	60051.12
566.21	59962.18
566.38	59997.29
566.54	60095.60
566.70	60306.24
566.87	60287.52
567.03	59870.90
567.19	60200.92
567.36	60107.30
567.52	60104.96
567.68	60409.23
567.85	60179.85
568.01	60151.77
568.17	60193.90
568.34	60163.47
568.50	60144.75
568.66	60158.79
568.83	60245.39
568.99	60278.16
569.15	60205.60
569.32	60205.60
569.48	60250.07
569.64	60346.03
569.81	60259.43
569.97	60116.66
570.13	60161.13
570.30	60214.96
570.46	60420.93
570.62	60247.73
570.78	60416.25
570.95	60350.71
571.11	60423.27
571.27	60383.48
571.43	60453.70
571.60	60303.90
571.76	60317.95
571.92	60317.95
572.09	60528.59
572.25	60390.50
572.41	60292.20
572.57	60252.41
572.74	60568.38
572.90	60369.44
573.06	60254.75
573.22	60032.40
573.38	60348.37
573.55	60362.42
573.71	60704.13
573.87	60434.97
574.03	60451.36
574.20	60561.36
574.36	60355.39
574.52	60683.07
574.68	60582.43
574.84	60310.92
575.01	60537.96
575.17	60484.12
575.33	60453.70
575.49	60446.68
575.65	60467.74
575.82	60589.45
575.98	60502.85
576.14	60860.95
576.30	60568.38
576.46	60594.13
576.62	60512.21
576.79	60498.17
576.95	60453.70
577.11	60507.53
577.27	60720.52
577.43	60568.38
577.59	60498.17
577.75	60596.47
577.92	60542.64
578.08	60465.40
578.24	60676.05
578.40	60657.32
578.56	60725.20
578.72	60746.26
578.88	60928.83
579.04	60769.67
579.21	60598.81
579.37	60905.42
579.53	60762.65
579.69	60619.88
579.85	60547.32
580.01	60645.62
580.17	60495.83
580.33	60879.67
580.49	60610.51
580.65	60692.43
580.82	60713.50
580.98	60727.54
581.14	60701.79
581.30	60788.39
581.46	60603.49
581.62	60786.05
581.78	60596.47
581.94	60690.09
582.10	60739.24
582.26	60687.75
582.42	60720.52
582.58	60615.19
582.74	60535.62
582.90	60903.08
583.06	60900.74
583.22	60451.36
583.38	60743.92
583.54	60828.18
583.70	60807.12
583.86	60814.14
584.02	60715.84
584.18	60842.23
584.34	60846.91
584.50	60535.62
584.66	60652.64
584.82	60725.20
584.98	60961.59
585.14	60797.76
585.30	60664.35
585.46	60949.89
585.62	60884.36
585.78	60999.04
585.94	60739.24
586.10	60797.76
586.26	60795.42
586.42	60900.74
586.58	60940.53
586.74	60837.54
586.90	60849.25
587.06	60800.10
587.22	60772.01
587.38	60898.40
587.54	61020.11
587.70	61127.77
587.86	60804.78
588.02	60818.82
588.18	60853.93
588.34	60830.52
588.49	60797.76
