SpectraSuite Data File
++++++++++++++++++++++++++++++++++++
Date: Fri Oct 25 10:48:20 EDT 2013
User: price-jones
Dark Spectrum Present: No
Reference Spectrum Present: No
Number of Sampled Component Spectra: 1
Spectrometers: USB2+H05261
Integration Time (usec): 100000 (USB2+H05261)
Spectra Averaged: 1 (USB2+H05261)
Boxcar Smoothing: 0 (USB2+H05261)
Correct for Electrical Dark: No (USB2+H05261)
Strobe/Lamp Enabled: No (USB2+H05261)
Correct for Detector Non-linearity: No (USB2+H05261)
Correct for Stray Light: No (USB2+H05261)
Number of Pixels in Processed Spectrum: 2048
>>>>>Begin Processed Spectral Data<<<<<
365.73	121.71
365.92	121.71
366.12	121.71
366.32	16.38
366.52	60.85
366.72	74.90
366.91	25.75
367.11	0.00
367.31	32.77
367.51	63.19
367.70	46.81
367.90	39.79
368.10	14.04
368.30	9.36
368.49	4.68
368.69	16.38
368.89	35.11
369.09	28.09
369.28	37.45
369.48	152.13
369.68	74.90
369.87	79.58
370.07	119.37
370.27	173.20
370.47	194.26
370.66	362.78
370.86	484.49
371.06	503.22
371.25	622.58
371.45	463.43
371.65	484.49
371.84	442.36
372.04	526.62
372.24	566.41
372.44	512.58
372.63	568.75
372.83	484.49
373.03	554.71
373.22	524.28
373.42	545.34
373.62	500.87
373.81	571.09
374.01	561.73
374.21	596.84
374.40	566.41
374.60	671.73
374.79	571.09
374.99	603.86
375.19	634.29
375.38	629.60
375.58	662.37
375.78	674.07
375.97	559.39
376.17	657.69
376.37	662.37
376.56	699.82
376.76	643.65
376.95	674.07
377.15	695.14
377.35	615.56
377.54	648.33
377.74	676.41
377.93	685.78
378.13	734.93
378.33	786.42
378.52	784.08
378.72	713.86
378.91	781.74
379.11	718.54
379.31	690.46
379.50	657.69
379.70	727.91
379.89	681.10
380.09	765.36
380.28	718.54
380.48	770.04
380.68	739.61
380.87	720.88
381.07	746.63
381.26	781.74
381.46	716.20
381.65	777.06
381.85	760.67
382.04	798.12
382.24	739.61
382.43	819.19
382.63	732.59
382.83	807.48
383.02	793.44
383.22	837.91
383.41	814.51
383.61	744.29
383.80	767.70
384.00	823.87
384.19	795.78
384.39	854.30
384.58	786.42
384.78	917.49
384.97	847.27
385.17	812.17
385.36	765.36
385.56	842.59
385.75	828.55
385.95	847.27
386.14	858.98
386.34	823.87
386.53	891.74
386.72	805.14
386.92	950.26
387.11	908.13
387.31	938.55
387.50	866.00
387.70	1048.56
387.89	933.87
388.09	983.02
388.28	954.94
388.48	940.90
388.67	997.07
388.86	1090.69
389.06	961.96
389.25	1086.01
389.45	1018.13
389.64	1062.60
389.84	999.41
390.03	964.30
390.22	1050.90
390.42	1057.92
390.61	1050.90
390.81	1125.80
391.00	1090.69
391.19	1022.81
391.39	1093.03
391.58	1104.73
391.78	1053.24
391.97	1090.69
392.16	997.07
392.36	1055.58
392.55	1151.54
392.75	1088.35
392.94	1008.77
393.13	1151.54
393.33	924.51
393.52	1116.44
393.71	1137.50
393.91	1177.29
394.10	1156.22
394.29	1203.04
394.49	1252.19
394.68	1366.87
394.88	1359.85
395.07	1303.68
395.26	1371.55
395.46	1329.42
395.65	1306.02
395.84	1320.06
396.04	1401.98
396.23	1210.06
396.42	1188.99
396.62	1252.19
396.81	1275.59
397.00	1249.85
397.19	1291.98
397.39	1397.30
397.58	1479.22
397.77	1472.20
397.97	1509.65
398.16	1465.18
398.35	1565.82
398.55	1554.12
398.74	1584.54
398.93	1668.80
399.12	1537.73
399.32	1511.99
399.51	1657.10
399.70	1584.54
399.90	1675.82
400.09	1603.27
400.28	1610.29
400.47	1657.10
400.67	1680.50
400.86	1785.83
401.05	1813.92
401.24	1781.15
401.44	1776.47
401.63	1839.66
401.82	1746.04
402.01	1811.57
402.21	1753.06
402.40	1827.96
402.59	1762.42
402.78	1802.21
402.97	1832.64
403.17	1895.83
403.36	1891.15
403.55	1968.39
403.74	2003.50
403.93	1912.22
404.13	2015.20
404.32	2003.50
404.51	2026.90
404.70	2033.93
404.89	1961.37
405.09	2005.84
405.28	2143.93
405.47	2155.63
405.66	2083.08
405.85	2069.03
406.05	2162.66
406.24	2162.66
406.43	2150.95
406.62	2083.08
406.81	2186.06
407.00	2087.76
407.20	2080.74
407.39	2214.15
407.58	2195.42
407.77	2230.53
407.96	2282.02
408.15	2289.04
408.34	2286.70
408.54	2314.79
408.73	2413.09
408.92	2455.22
409.11	2490.33
409.30	2417.77
409.49	2338.20
409.68	2399.05
409.87	2359.26
410.07	2443.52
410.26	2478.63
410.45	2558.21
410.64	2558.21
410.83	2605.02
411.02	2665.87
411.21	2616.72
411.40	2677.57
411.59	2820.35
411.78	2789.92
411.98	2731.41
412.17	2630.76
412.36	2766.51
412.55	2672.89
412.74	2722.04
412.93	2850.77
413.12	2827.37
413.31	2913.97
413.50	2986.52
413.69	3005.25
413.88	3157.38
414.07	3019.29
414.26	2956.10
414.45	3045.04
414.64	2974.82
414.83	3063.76
415.02	3173.77
415.22	3248.66
415.41	3368.03
415.60	3243.98
415.79	3300.16
415.98	3328.24
416.17	3384.41
416.36	3428.88
416.55	3365.69
416.74	3396.12
416.93	3307.18
417.12	3492.08
417.31	3471.01
417.50	3517.83
417.69	3569.32
417.88	3524.85
418.07	3618.47
418.26	3588.04
418.45	3632.51
418.64	3728.47
418.83	3702.73
419.02	3691.02
419.21	3845.50
419.39	3744.86
419.58	3700.39
419.77	3707.41
419.96	3850.18
420.15	3756.56
420.34	3911.04
420.53	3875.93
420.72	4112.32
420.91	3915.72
421.10	3990.61
421.29	3927.42
421.48	3878.27
421.67	4044.45
421.86	3871.25
422.05	4044.45
422.24	3983.59
422.43	4070.19
422.61	3999.98
422.80	4161.47
422.99	3997.64
423.18	4021.04
423.37	4149.77
423.56	3999.98
423.75	4166.15
423.94	3976.57
424.13	3824.44
424.32	3946.14
424.50	4182.54
424.69	4107.64
424.88	4203.60
425.07	4177.86
425.26	4107.64
425.45	4067.85
425.64	4112.32
425.83	4135.73
426.01	4049.13
426.20	4051.47
426.39	4131.05
426.58	4023.38
426.77	4079.55
426.96	4201.26
427.15	4112.32
427.33	4124.02
427.52	4259.78
427.71	4365.10
427.90	4236.37
428.09	4196.58
428.28	4313.61
428.46	4292.54
428.65	4205.94
428.84	4411.91
429.03	4535.96
429.22	4229.35
429.40	4252.75
429.59	4269.14
429.78	4060.83
429.97	3922.74
430.16	4077.21
430.34	4327.65
430.53	4231.69
430.72	4243.39
430.91	4458.72
431.10	4582.77
431.28	4732.56
431.47	4795.76
431.66	4854.27
431.85	4669.37
432.03	4746.61
432.22	4931.51
432.41	4781.71
432.60	4957.25
432.79	4978.32
432.97	4814.48
433.16	4814.48
433.35	4802.78
433.54	4877.68
433.72	4748.95
433.91	4819.16
434.10	4950.23
434.28	5085.98
434.47	5123.43
434.66	5093.01
434.85	5015.77
435.03	5219.39
435.22	5238.12
435.41	5338.76
435.59	5371.53
435.78	5327.06
435.97	5233.44
436.16	5364.51
436.34	5350.46
436.53	5418.34
436.72	5472.17
436.90	5280.25
437.09	5329.40
437.28	5245.14
437.46	5390.25
437.65	5214.71
437.84	5327.06
438.02	5364.51
438.21	5369.19
438.40	5394.93
438.58	5486.22
438.77	5570.48
438.96	5621.97
439.14	5715.59
439.33	5738.99
439.52	5825.59
439.70	5799.85
439.89	5912.19
440.08	5877.09
440.26	5916.87
440.45	5954.32
440.63	6001.13
440.82	6078.37
441.01	6204.76
441.19	6186.04
441.38	6289.02
441.57	6265.61
441.75	6490.31
441.94	6443.49
442.12	6452.86
442.31	6630.74
442.50	6640.10
442.68	6504.35
442.87	6471.58
443.05	6658.82
443.24	6731.38
443.43	6658.82
443.61	6689.25
443.80	6902.24
443.98	6640.10
444.17	6485.62
444.35	6836.70
444.54	7042.67
444.73	6684.57
444.91	6679.89
445.10	6656.48
445.28	6799.26
445.47	6663.51
445.65	6729.04
445.84	6738.40
446.02	6703.29
446.21	6654.14
446.39	6881.18
446.58	6705.63
446.77	6799.26
446.95	6960.75
447.14	6925.65
447.32	7143.32
447.51	6932.67
447.69	6848.41
447.88	6848.41
448.06	6810.96
448.25	7047.35
448.43	6890.54
448.62	6820.32
448.80	6942.03
448.99	7021.61
449.17	7077.78
449.36	7019.27
449.54	7370.35
449.73	7379.71
449.91	7435.88
450.10	7398.43
450.28	7492.05
450.46	7503.76
450.65	7389.07
450.83	7480.35
451.02	7559.93
451.20	7545.89
451.39	7426.52
451.57	7470.99
451.76	7459.29
451.94	7529.50
452.13	7445.24
452.31	7325.88
452.49	7272.04
452.68	7435.88
452.86	7419.50
453.05	7571.63
453.23	7599.72
453.42	7438.22
453.60	7564.61
453.78	7705.04
453.97	7669.94
454.15	7735.47
454.34	7669.94
454.52	7669.94
454.70	7847.82
454.89	7826.75
455.07	7658.23
455.26	7892.29
455.44	8023.36
455.62	7934.42
455.81	8161.45
455.99	8203.58
456.17	8002.29
456.36	8145.06
456.54	8365.07
456.73	8222.30
456.91	8482.10
457.09	8292.52
457.28	8648.28
457.46	8339.33
457.64	8446.99
457.83	8432.95
458.01	8283.16
458.19	8645.94
458.38	8526.57
458.56	8461.04
458.74	8542.96
458.93	8650.62
459.11	8662.32
459.29	8615.51
459.48	8636.58
459.66	8624.87
459.84	8526.57
460.03	8814.46
460.21	8765.31
460.39	8898.72
460.57	8793.39
460.76	9132.77
460.94	9095.32
461.12	9022.77
461.31	9081.28
461.49	9088.30
461.67	8903.40
461.85	8898.72
462.04	9034.47
462.22	9628.96
462.40	9137.45
462.59	9334.06
462.77	9142.13
462.95	9121.07
463.13	9146.81
463.32	9224.05
463.50	9408.95
463.68	9233.41
463.86	9198.31
464.05	9132.77
464.23	9004.04
464.41	9355.12
464.59	9135.11
464.78	9483.85
464.96	9605.56
465.14	9221.71
465.32	9392.57
465.50	9453.42
465.69	9724.93
465.87	9509.60
466.05	9495.55
466.23	9408.95
466.41	9582.15
466.60	9795.14
466.78	9561.09
466.96	9584.49
467.14	9731.95
467.32	9722.59
467.51	9785.78
467.69	9465.13
467.87	9603.22
468.05	9998.77
468.23	9778.76
468.41	9738.97
468.60	9891.10
468.78	9963.66
468.96	9802.16
469.14	9872.38
469.32	9977.70
469.50	9579.81
469.69	10036.22
469.87	10106.43
470.05	10045.58
470.23	10120.48
470.41	10050.26
470.59	10354.53
470.77	10239.84
470.95	10284.31
471.14	10586.24
471.32	10244.52
471.50	10609.65
471.68	10672.84
471.86	10736.04
472.04	10698.59
472.22	10817.96
472.40	10647.10
472.58	10951.37
472.77	10789.87
472.95	10958.39
473.13	11208.83
473.31	10977.11
473.49	10771.15
473.67	10916.26
473.85	11220.53
474.03	11346.92
474.21	11456.92
474.39	11379.68
474.57	11236.91
474.75	11379.68
474.93	11515.44
475.12	11489.69
475.30	11534.16
475.48	11606.72
475.66	11667.57
475.84	11903.96
476.02	11992.90
476.20	11667.57
476.38	12222.28
476.56	12269.09
476.74	12367.39
476.92	12131.00
477.10	12311.22
477.28	12549.95
477.46	12430.59
477.64	12659.96
477.82	12809.75
478.00	12964.23
478.18	12971.25
478.36	12863.58
478.54	13277.86
478.72	13041.46
478.90	13425.31
479.08	13734.26
479.26	13523.62
479.44	13647.66
479.62	13792.78
479.80	13671.07
479.98	13734.26
480.16	14223.44
480.34	14078.32
480.52	14403.66
480.70	14200.03
480.88	14188.33
481.06	14246.84
481.24	14216.41
481.41	14796.87
481.59	14548.77
481.77	14958.36
481.95	14895.17
482.13	15122.20
482.31	15012.20
482.49	15213.48
482.67	15447.54
482.85	15946.07
483.03	15499.03
483.21	15838.41
483.39	15899.26
483.57	16187.14
483.74	16149.70
483.92	16231.62
484.10	16053.73
484.28	16664.61
484.46	16514.82
484.64	16837.81
484.82	16589.72
485.00	16594.40
485.18	16898.67
485.35	16844.84
485.53	16891.65
485.71	16692.70
485.89	16809.73
486.07	16973.56
486.25	17387.84
486.43	17226.34
486.61	17341.03
486.78	18040.85
486.96	17996.38
487.14	18469.17
487.32	18321.71
487.50	18340.44
487.68	18909.19
487.85	18904.51
488.03	18853.02
488.21	18991.11
488.39	19105.79
488.57	19499.00
488.75	19775.19
488.92	19880.51
489.10	20156.69
489.28	19960.09
489.46	20311.17
489.64	20505.43
489.81	21015.67
489.99	20746.51
490.17	20695.02
490.35	20805.02
490.53	20975.88
490.70	21319.94
490.88	21254.40
491.06	21415.90
491.24	21223.98
491.41	21357.39
491.59	21163.12
491.77	21743.58
491.95	21926.14
492.13	21975.29
492.30	22324.03
492.48	22354.46
492.66	22508.93
492.84	22630.64
493.01	22691.49
493.19	22726.60
493.37	22785.12
493.54	22963.00
493.72	23110.45
493.90	23651.11
494.08	23220.45
494.25	23669.84
494.43	24088.79
494.61	24032.62
494.79	24060.71
494.96	24357.96
495.14	24276.04
495.32	24517.11
495.49	24601.37
495.67	24510.09
495.85	24692.65
496.02	25179.48
496.20	25099.90
496.38	25338.64
496.55	25579.71
496.73	25671.00
496.91	25268.42
497.09	25762.28
497.26	25556.31
497.44	25872.28
497.62	26038.46
497.79	26295.92
497.97	25832.49
498.14	26073.57
498.32	26363.79
498.50	26497.20
498.67	26766.37
498.85	26824.88
499.03	26969.99
499.20	27208.73
499.38	27110.43
499.56	27370.22
499.73	27435.76
499.91	27358.52
500.08	27653.43
500.26	27344.48
500.44	27786.84
500.61	27447.46
500.79	27508.32
500.97	27938.97
501.14	27946.00
501.32	27805.56
501.49	28123.88
501.67	28283.03
501.84	28135.58
502.02	28201.11
502.20	28130.90
502.37	28975.83
502.55	28662.20
502.72	28713.69
502.90	28938.38
503.07	28907.96
503.25	28833.06
503.43	28933.70
503.60	28884.55
503.78	29113.92
503.95	29490.75
504.13	29443.94
504.30	29518.84
504.48	29565.65
504.65	29879.28
504.83	29593.73
505.01	30433.99
505.18	30417.60
505.36	30331.00
505.53	30363.77
505.71	31058.91
505.88	30747.62
506.06	30410.58
506.23	30661.02
506.41	30735.92
506.58	30476.12
506.76	30829.54
506.93	31072.95
507.11	30862.30
507.28	30925.50
507.46	30789.75
507.63	31042.53
507.81	31161.89
507.98	31199.34
508.16	31374.88
508.33	31653.40
508.50	31641.70
508.68	31861.71
508.85	32210.45
509.03	31704.90
509.20	32360.25
509.38	32198.75
509.55	32620.05
509.73	32158.96
509.90	32156.62
510.08	32320.46
510.25	32421.10
510.42	32390.67
510.60	32659.84
510.77	32807.29
510.95	33008.58
511.12	32634.09
511.30	32716.01
511.47	33369.02
511.64	33244.97
511.82	33701.37
511.99	33123.26
512.17	33464.98
512.34	33057.73
512.51	33472.00
512.69	33570.30
512.86	33633.50
513.04	34546.31
513.21	34183.52
513.38	33743.50
513.56	33951.81
513.73	33958.83
513.90	33706.05
514.08	33881.60
514.25	34632.91
514.43	34239.70
514.60	34108.63
514.77	34450.35
514.95	34543.97
515.12	34476.09
515.29	34946.54
515.47	35058.88
515.64	35227.40
515.81	35119.74
515.99	35049.52
516.16	34958.24
516.33	34242.04
516.51	34749.93
516.68	34169.48
516.85	34417.58
517.03	34270.12
517.20	34920.79
517.37	35101.01
517.54	35426.35
517.72	35452.09
517.89	35580.82
518.06	35103.35
518.24	35222.72
518.41	35503.59
518.58	35199.32
518.75	35349.11
518.93	36046.59
519.10	35983.40
519.27	36217.45
519.45	35646.36
519.62	36196.38
519.79	36444.48
519.96	36311.07
520.14	36704.28
520.31	36711.30
520.48	36809.61
520.65	36697.26
520.83	36842.37
521.00	37029.62
521.17	37001.53
521.34	36882.16
521.52	37273.03
521.69	37221.54
521.86	37811.35
522.03	37329.20
522.20	37727.10
522.38	37301.12
522.55	37722.41
522.72	37736.46
522.89	37350.27
523.07	37734.12
523.24	37610.07
523.41	37860.51
523.58	37790.29
523.75	38384.79
523.92	38029.02
524.10	38045.41
524.27	38597.77
524.44	38204.56
524.61	38625.86
524.78	38548.62
524.96	38684.37
525.13	38747.57
525.30	38960.56
525.47	39110.35
525.64	39213.34
525.81	38593.09
525.98	38899.70
526.16	38829.49
526.33	38211.59
526.50	38780.34
526.67	38422.23
526.84	38698.42
527.01	38490.11
527.18	38909.07
527.36	39545.69
527.53	38937.15
527.70	40013.80
527.87	40055.93
528.04	39505.90
528.21	39601.86
528.38	39618.25
528.55	39765.70
528.72	40032.52
528.89	40060.61
529.07	40229.13
529.24	39618.25
529.41	40123.80
529.58	39452.07
529.75	39915.50
529.92	40091.04
530.09	40257.21
530.26	40332.11
530.43	40568.51
530.60	39871.03
530.77	40189.34
530.94	41053.00
531.11	40493.61
531.28	40481.91
531.46	40863.41
531.63	40772.13
531.80	40456.16
531.97	40734.68
532.14	40662.13
532.31	40325.09
532.48	40854.05
532.65	41212.15
532.82	41001.50
532.99	40765.11
533.16	41008.53
533.33	41003.85
533.50	41134.92
533.67	41383.01
533.84	41191.09
534.01	41193.43
534.18	41282.37
534.35	41392.37
534.52	41235.56
534.69	41368.97
534.86	41287.05
535.03	41462.59
535.20	41500.04
535.37	42061.77
535.54	42038.36
535.71	42036.02
535.88	42204.54
536.05	41532.81
536.22	41837.08
536.38	42110.92
536.55	42234.97
536.72	41872.18
536.89	41387.69
537.06	41881.55
537.23	42316.89
537.40	42164.75
537.57	42052.41
537.74	41930.70
537.91	42459.66
538.08	42408.17
538.25	42223.26
538.42	42333.27
538.59	42843.51
538.75	42520.51
538.92	42501.79
539.09	42476.04
539.26	42749.88
539.43	42543.92
539.60	42469.02
539.77	42412.85
539.94	42515.83
540.11	42246.67
540.28	42557.96
540.44	42951.17
540.61	42520.51
540.78	42555.62
540.95	42841.17
541.12	42567.32
541.29	42651.58
541.46	42859.89
541.62	43227.35
541.79	43540.99
541.96	43040.11
542.13	42649.24
542.30	43122.03
542.47	43365.45
542.63	42913.72
542.80	43531.62
542.97	43807.81
543.14	43812.49
543.31	43440.34
543.48	43833.55
543.64	44453.79
543.81	44076.97
543.98	43959.94
544.15	43859.30
544.32	44327.41
544.48	44561.46
544.65	44154.21
544.82	44287.62
544.99	44271.23
545.16	44069.95
545.32	44011.43
545.49	44126.12
545.66	44542.74
545.83	44549.76
546.00	44638.70
546.16	44282.94
546.33	44304.00
546.50	44381.24
546.67	44502.95
546.83	44041.86
547.00	44217.40
547.17	44254.85
547.34	44594.23
547.50	44589.55
547.67	44362.51
547.84	44624.65
548.00	44961.69
548.17	45006.16
548.34	44610.61
548.51	45001.48
548.67	45076.38
548.84	45542.14
549.01	44671.46
549.18	45045.95
549.34	44914.88
549.51	44921.90
549.68	45104.46
549.84	45331.50
550.01	45242.56
550.18	44645.72
550.34	45158.30
550.51	44793.17
550.68	45081.06
550.84	44912.54
551.01	45076.38
551.18	44830.62
551.34	45244.90
551.51	45464.91
551.68	45607.68
551.84	45488.31
552.01	45352.56
552.18	45104.46
552.34	45212.13
552.51	45282.34
552.68	45361.92
552.84	45212.13
553.01	45790.24
553.18	45724.71
553.34	45427.46
553.51	45640.45
553.67	45624.06
553.84	45778.54
554.01	46005.57
554.17	46096.85
554.34	45862.80
554.51	45661.51
554.67	45787.90
554.84	46052.38
555.00	45890.88
555.17	46064.08
555.33	46225.58
555.50	45827.69
555.67	45923.65
555.83	45979.82
556.00	46148.34
556.16	46305.16
556.33	46131.96
556.50	46548.57
556.66	45907.27
556.83	45961.10
556.99	46274.73
557.16	46337.93
557.32	46476.02
557.49	46447.93
557.65	46241.96
557.82	46408.14
557.98	46309.84
558.15	46272.39
558.32	46588.36
558.48	45907.27
558.65	46115.58
558.81	45933.01
558.98	46440.91
559.14	46000.89
559.31	46078.13
559.47	46260.69
559.64	46630.49
559.80	46789.65
559.97	46347.29
560.13	46192.81
560.30	46930.08
560.46	46438.57
560.63	46401.12
560.79	46843.48
560.96	46770.93
561.12	46373.03
561.29	46822.42
561.45	46155.36
561.61	46597.73
561.78	46513.47
561.94	46799.01
562.11	46293.46
562.27	46408.14
562.44	46789.65
562.60	47129.03
562.77	46988.60
562.93	47126.69
563.10	46913.70
563.26	46803.69
563.42	47004.98
563.59	46763.90
563.75	46588.36
563.92	47065.83
564.08	46820.08
564.24	46972.21
564.41	46726.46
564.57	46855.18
564.74	46932.42
564.90	46948.81
565.07	46660.92
565.23	46618.79
565.39	46644.54
565.56	47210.95
565.72	46593.04
565.88	46918.38
566.05	46616.45
566.21	46586.02
566.38	46906.68
566.54	46902.00
566.70	47468.40
566.87	47152.43
567.03	47054.13
567.19	47442.66
567.36	47253.08
567.52	46768.58
567.68	47061.15
567.85	46822.42
568.01	47138.39
568.17	47000.30
568.34	47044.77
568.50	46820.08
568.66	46740.50
568.83	46869.23
568.99	46782.63
569.15	47388.83
569.32	46923.06
569.48	46810.71
569.64	47253.08
569.81	47217.97
569.97	47157.11
570.13	46782.63
570.30	46775.61
570.46	47484.79
570.62	46773.27
570.78	46616.45
570.95	46967.53
571.11	47110.30
571.27	46834.12
571.43	47079.88
571.60	47475.43
571.76	47606.50
571.92	47110.30
572.09	46934.76
572.25	47004.98
572.41	47145.41
572.57	47538.62
572.74	47526.92
572.90	47363.08
573.06	47313.93
573.22	47253.08
573.38	47260.10
573.55	46838.80
573.71	47239.03
573.87	47419.25
574.03	46993.28
574.20	47030.72
574.36	46967.53
574.52	47505.85
574.68	47304.57
574.84	47454.36
575.01	47203.92
575.17	47386.49
575.33	47014.34
575.49	47185.20
575.65	47423.93
575.82	47075.19
575.98	47063.49
576.14	47430.96
576.30	47290.52
576.46	47056.47
576.62	47180.52
576.79	47180.52
576.95	46529.85
577.11	47246.05
577.27	47178.18
577.43	47566.71
577.59	47206.26
577.75	47349.04
577.92	46930.08
578.08	47004.98
578.24	46761.56
578.40	47098.60
578.56	46962.85
578.72	46965.19
578.88	47723.52
579.04	47028.38
579.21	47185.20
579.37	47143.07
579.53	47360.74
579.69	47250.74
579.85	47084.56
580.01	47124.35
580.17	47643.94
580.33	47526.92
580.49	47325.63
580.65	47529.26
580.82	47531.60
580.98	47346.70
581.14	47100.94
581.30	47000.30
581.46	47737.57
581.62	47433.30
581.78	47306.91
581.94	47814.80
582.10	47306.91
582.26	47433.30
582.42	47552.66
582.58	47274.14
582.74	46995.62
582.90	47515.22
583.06	47723.52
583.22	47599.47
583.38	47576.07
583.54	47978.64
583.70	47543.30
583.86	47393.51
584.02	47103.28
584.18	47669.69
584.34	47484.79
584.50	47604.16
584.66	47276.48
584.82	47388.83
584.98	47828.85
585.14	47435.64
585.30	47435.64
585.46	47325.63
585.62	47243.71
585.78	47152.43
585.94	47325.63
586.10	47346.70
586.26	47267.12
586.42	47297.55
586.58	47697.78
586.74	47526.92
586.90	47405.21
587.06	47098.60
587.22	47487.13
587.38	47114.98
587.54	47154.77
587.70	47716.50
587.86	47377.12
588.02	47068.17
588.18	47622.88
588.34	47051.79
588.49	46909.02
588.65	46850.50
588.81	46934.76
588.97	46696.03
589.13	46724.11
589.29	46557.94
589.45	46916.04
589.61	47426.28
589.77	47856.93
