SpectraSuite Data File
++++++++++++++++++++++++++++++++++++
Date: Fri Oct 25 11:34:27 EDT 2013
User: price-jones
Dark Spectrum Present: No
Reference Spectrum Present: No
Number of Sampled Component Spectra: 1
Spectrometers: USB2+H05261
Integration Time (usec): 100000 (USB2+H05261)
Spectra Averaged: 1 (USB2+H05261)
Boxcar Smoothing: 0 (USB2+H05261)
Correct for Electrical Dark: No (USB2+H05261)
Strobe/Lamp Enabled: No (USB2+H05261)
Correct for Detector Non-linearity: No (USB2+H05261)
Correct for Stray Light: No (USB2+H05261)
Number of Pixels in Processed Spectrum: 2048
>>>>>Begin Processed Spectral Data<<<<<
365.73	212.99
365.92	212.99
366.12	212.99
366.32	149.79
366.52	196.60
366.72	161.50
366.91	79.58
367.11	196.60
367.31	180.22
367.51	182.56
367.70	234.05
367.90	205.97
368.10	231.71
368.30	196.60
368.49	196.60
368.69	163.84
368.89	194.26
369.09	170.86
369.28	194.26
369.48	147.45
369.68	278.52
369.87	234.05
370.07	222.35
370.27	257.46
370.47	383.85
370.66	475.13
370.86	482.15
371.06	507.90
371.25	566.41
371.45	550.03
371.65	482.15
371.84	519.60
372.04	606.20
372.24	528.96
372.44	589.82
372.63	568.75
372.83	596.84
373.03	573.43
373.22	547.69
373.42	662.37
373.62	580.45
373.81	608.54
374.01	631.94
374.21	676.41
374.40	674.07
374.60	622.58
374.79	517.26
374.99	688.12
375.19	629.60
375.38	748.97
375.58	631.94
375.78	667.05
375.97	643.65
376.17	657.69
376.37	676.41
376.56	718.54
376.76	578.11
376.95	676.41
377.15	723.23
377.35	709.18
377.54	660.03
377.74	620.24
377.93	671.73
378.13	629.60
378.33	641.31
378.52	753.65
378.72	645.99
378.91	662.37
379.11	760.67
379.31	746.63
379.50	706.84
379.70	641.31
379.89	699.82
380.09	671.73
380.28	706.84
380.48	638.97
380.68	739.61
380.87	641.31
381.07	751.31
381.26	716.20
381.46	765.36
381.65	786.42
381.85	746.63
382.04	772.38
382.24	816.85
382.43	727.91
382.63	770.04
382.83	784.08
383.02	753.65
383.22	779.40
383.41	788.76
383.61	746.63
383.80	748.97
384.00	784.08
384.19	863.66
384.39	835.57
384.58	793.44
384.78	807.48
384.97	826.21
385.17	814.51
385.36	772.38
385.56	772.38
385.75	844.93
385.95	814.51
386.14	884.72
386.34	877.70
386.53	861.32
386.72	767.70
386.92	854.30
387.11	793.44
387.31	830.89
387.50	896.43
387.70	880.04
387.89	910.47
388.09	772.38
388.28	894.08
388.48	851.96
388.67	915.15
388.86	940.90
389.06	908.13
389.25	884.72
389.45	943.24
389.64	901.11
389.84	915.15
390.03	947.92
390.22	1011.11
390.42	968.98
390.61	894.08
390.81	931.53
391.00	957.28
391.19	1039.20
391.39	968.98
391.58	1008.77
391.78	997.07
391.97	1057.92
392.16	978.34
392.36	994.73
392.55	936.21
392.75	968.98
392.94	1001.75
393.13	1083.67
393.33	1046.22
393.52	1050.90
393.71	1090.69
393.91	1032.18
394.10	1139.84
394.29	1179.63
394.49	1057.92
394.68	1071.97
394.88	1041.54
395.07	1081.33
395.26	1069.62
395.46	1118.78
395.65	1184.31
395.84	1142.18
396.04	1224.10
396.23	1093.03
396.42	1137.50
396.62	1174.95
396.81	1174.95
397.00	1228.78
397.19	1156.22
397.39	1174.95
397.58	1238.14
397.77	1263.89
397.97	1210.06
398.16	1268.57
398.35	1240.48
398.55	1111.75
398.74	1217.08
398.93	1214.74
399.12	1219.42
399.32	1355.17
399.51	1256.87
399.70	1308.36
399.90	1362.19
400.09	1331.76
400.28	1465.18
400.47	1315.38
400.67	1390.28
400.86	1296.66
401.05	1273.25
401.24	1383.26
401.44	1495.60
401.63	1420.71
401.82	1432.41
402.01	1280.27
402.21	1369.21
402.40	1425.39
402.59	1413.68
402.78	1488.58
402.97	1493.26
403.17	1420.71
403.36	1516.67
403.55	1528.37
403.74	1514.33
403.93	1451.13
404.13	1544.75
404.32	1540.07
404.51	1593.90
404.70	1561.14
404.89	1526.03
405.09	1586.88
405.28	1540.07
405.47	1549.43
405.66	1645.40
405.85	1746.04
406.05	1610.29
406.24	1675.82
406.43	1696.89
406.62	1769.44
406.81	1732.00
407.00	1722.63
407.20	1689.87
407.39	1713.27
407.58	1781.15
407.77	1757.74
407.96	1776.47
408.15	1753.06
408.34	1755.40
408.54	1839.66
408.73	1839.66
408.92	1825.62
409.11	1902.86
409.30	1788.17
409.49	1851.36
409.68	1977.75
409.87	1980.09
410.07	2033.93
410.26	1966.05
410.45	2005.84
410.64	2012.86
410.83	1914.56
411.02	2026.90
411.21	1966.05
411.40	2008.18
411.59	2139.25
411.78	2108.82
411.98	2134.57
412.17	2186.06
412.36	2188.40
412.55	2345.22
412.74	2251.60
412.93	2244.57
413.12	2155.63
413.31	2340.54
413.50	2279.68
413.69	2359.26
413.88	2349.90
414.07	2377.98
414.26	2314.79
414.45	2338.20
414.64	2471.61
414.83	2534.80
415.02	2513.74
415.22	2609.70
415.41	2560.55
415.60	2595.65
415.79	2656.51
415.98	2672.89
416.17	2574.59
416.36	2705.66
416.55	2633.10
416.74	2644.81
416.93	2775.88
417.12	2715.02
417.31	2785.24
417.50	2747.79
417.69	2911.63
417.88	2920.99
418.07	2822.69
418.26	2806.30
418.45	2867.16
418.64	3082.49
418.83	3052.06
419.02	3030.99
419.21	2995.89
419.39	2963.12
419.58	2944.39
419.77	2986.52
419.96	3028.65
420.15	3042.70
420.34	3133.98
420.53	3038.02
420.72	3049.72
420.91	3061.42
421.10	3115.25
421.29	3236.96
421.48	3026.31
421.67	3059.08
421.86	3112.91
422.05	3185.47
422.24	3096.53
422.43	3157.38
422.61	3225.26
422.80	3290.79
422.99	3335.26
423.18	3311.86
423.37	3325.90
423.56	3251.00
423.75	3321.22
423.94	3288.45
424.13	3131.64
424.32	3016.95
424.50	3239.30
424.69	3482.72
424.88	3375.05
425.07	3112.91
425.26	3269.73
425.45	3365.69
425.64	3213.56
425.83	3279.09
426.01	3400.80
426.20	3295.47
426.39	3248.66
426.58	3351.65
426.77	3459.31
426.96	3375.05
427.15	3335.26
427.33	3342.28
427.52	3417.18
427.71	3555.27
427.90	3559.95
428.09	3536.55
428.28	3627.83
428.46	3501.44
428.65	3548.25
428.84	3566.98
429.03	3632.51
429.22	3588.04
429.40	3571.66
429.59	3585.70
429.78	3510.80
429.97	3501.44
430.16	3733.15
430.34	3686.34
430.53	3768.26
430.72	3810.39
430.91	3808.05
431.10	3606.77
431.28	3786.99
431.47	3969.55
431.66	3873.59
431.85	3925.08
432.03	3981.25
432.22	4063.17
432.41	3751.88
432.60	3873.59
432.79	3946.14
432.97	3974.23
433.16	3927.42
433.35	3969.55
433.54	4086.58
433.72	4049.13
433.91	4088.92
434.10	4088.92
434.28	3999.98
434.47	4119.34
434.66	4156.79
434.85	4245.73
435.03	4154.45
435.22	4227.01
435.41	4381.48
435.59	4372.12
435.78	4297.22
435.97	4395.53
436.16	4236.37
436.34	4227.01
436.53	4285.52
436.72	4351.06
436.90	4404.89
437.09	4430.63
437.28	4329.99
437.46	4287.86
437.65	4313.61
437.84	4388.50
438.02	4458.72
438.21	4449.36
438.40	4451.70
438.58	4423.61
438.77	4561.70
438.96	4482.13
439.14	4791.08
439.33	4566.39
439.52	4648.30
439.70	4767.67
439.89	4767.67
440.08	4924.49
440.26	4943.21
440.45	4713.84
440.63	4933.85
440.82	5071.94
441.01	4877.68
441.19	4910.44
441.38	5025.13
441.57	5088.32
441.75	5153.86
441.94	5081.30
442.12	5212.37
442.31	5205.35
442.50	5132.79
442.68	5090.67
442.87	5100.03
443.05	5146.84
443.24	5254.50
443.43	5331.74
443.61	5369.19
443.80	5486.22
443.98	5231.10
444.17	5149.18
444.35	5399.62
444.54	5327.06
444.73	5170.24
444.91	5364.51
445.10	5439.40
445.28	5523.66
445.47	5355.15
445.65	5467.49
445.84	5427.70
446.02	5558.77
446.21	5329.40
446.39	5523.66
446.58	5584.52
446.77	5416.00
446.95	5526.00
447.14	5327.06
447.32	5467.49
447.51	5448.77
447.69	5533.03
447.88	5645.37
448.06	5636.01
448.25	5624.31
448.43	5598.56
448.62	5584.52
448.80	5481.53
448.99	5617.29
449.17	5565.79
449.36	5446.43
449.54	5633.67
449.73	5921.56
449.91	5937.94
450.10	5820.91
450.28	5937.94
450.46	5851.34
450.65	5839.64
450.83	5860.70
451.02	5776.44
451.20	6129.86
451.39	6015.18
451.57	6019.86
451.76	5844.32
451.94	5839.64
452.13	6031.56
452.31	6029.22
452.49	5891.13
452.68	6085.39
452.86	6024.54
453.05	6040.92
453.23	6153.27
453.42	6040.92
453.60	6218.80
453.78	6193.06
453.97	6057.31
454.15	6113.48
454.34	6115.82
454.52	6272.64
454.70	6190.72
454.89	6359.24
455.07	6328.81
455.26	6317.11
455.44	6420.09
455.62	6420.09
455.81	6471.58
455.99	6530.09
456.17	6485.62
456.36	6541.80
456.54	6565.20
456.73	6600.31
456.91	6703.29
457.09	6693.93
457.28	6792.23
457.46	6502.01
457.64	6853.09
457.83	6803.94
458.01	6724.36
458.19	6775.85
458.38	6719.68
458.56	6864.79
458.74	6836.70
458.93	6918.62
459.11	6942.03
459.29	6899.90
459.48	7007.56
459.66	6885.86
459.84	6897.56
460.03	7164.38
460.21	6986.50
460.39	7056.72
460.57	6895.22
460.76	7162.04
460.94	7213.53
461.12	7169.06
461.31	7173.74
461.49	7023.95
461.67	7007.56
461.85	7470.99
462.04	7246.30
462.22	7712.07
462.40	7227.57
462.59	7288.43
462.77	7452.27
462.95	7492.05
463.13	7396.09
463.32	7407.80
463.50	7639.51
463.68	7573.97
463.86	7372.69
464.05	7634.83
464.23	7522.48
464.41	7681.64
464.59	7524.82
464.78	7831.43
464.96	7630.15
465.14	7606.74
465.32	7721.43
465.50	7822.07
465.69	7786.96
465.87	7908.67
466.05	7730.79
466.23	7737.81
466.41	8030.38
466.60	7946.12
466.78	7695.68
466.96	7971.86
467.14	7737.81
467.32	7903.99
467.51	8039.74
467.69	7768.24
467.87	7932.08
468.05	8126.34
468.23	8074.85
468.41	7836.11
468.60	8170.81
468.78	8128.68
468.96	8088.89
469.14	8175.49
469.32	8107.62
469.50	8219.96
469.69	8329.97
469.87	8383.80
470.05	8432.95
470.23	8252.73
470.41	8451.67
470.59	8538.27
470.77	8355.71
470.95	8479.76
471.14	8517.21
471.32	8479.76
471.50	8613.17
471.68	8739.56
471.86	8652.96
472.04	8636.58
472.22	9015.74
472.40	8636.58
472.58	8762.97
472.77	9036.81
472.95	8865.95
473.13	9263.84
473.31	9071.92
473.49	8919.78
473.67	9008.72
473.85	9224.05
474.03	9451.08
474.21	9451.08
474.39	9270.86
474.57	9448.74
474.75	9451.08
474.93	9561.09
475.12	9525.98
475.30	9586.83
475.48	9518.96
475.66	9668.75
475.84	9348.10
476.02	9603.22
476.20	9762.37
476.38	9916.85
476.56	10221.12
476.74	10003.45
476.92	10113.45
477.10	10097.07
477.28	10071.33
477.46	10083.03
477.64	10242.18
477.82	10420.06
478.00	10611.99
478.18	10600.29
478.36	10785.19
478.54	10981.79
478.72	10970.09
478.90	11070.73
479.08	11087.12
479.26	11220.53
479.44	11187.76
479.62	11253.30
479.80	11267.34
479.98	11487.35
480.16	11875.88
480.34	11702.68
480.52	11831.41
480.70	11772.89
480.88	11714.38
481.06	11969.50
481.24	11992.90
481.41	12025.67
481.59	12276.11
481.77	12362.71
481.95	12369.73
482.13	12465.69
482.31	12341.64
482.49	12699.75
482.67	12603.78
482.85	12959.55
483.03	13123.38
483.21	13163.17
483.39	13036.78
483.57	13184.24
483.74	13284.88
483.92	13441.70
484.10	13488.51
484.28	13837.25
484.46	13977.68
484.64	13827.88
484.82	13729.58
485.00	13813.84
485.18	14295.99
485.35	14413.02
485.53	14441.11
485.71	14373.23
485.89	14864.74
486.07	14457.49
486.25	14920.92
486.43	15028.58
486.61	14911.55
486.78	15176.03
486.96	15119.86
487.14	15639.46
487.32	15133.90
487.50	15463.92
487.68	15798.62
487.85	15960.11
488.03	16042.03
488.21	15943.73
488.39	16446.94
488.57	16673.98
488.75	16582.70
488.92	16521.84
489.10	16688.02
489.28	16847.18
489.46	16673.98
489.64	17095.27
489.81	17415.93
489.99	17394.86
490.17	17224.00
490.35	17434.65
490.53	17451.03
490.70	17762.33
490.88	17767.01
491.06	18111.07
491.24	17980.00
491.41	18207.03
491.59	18178.94
491.77	18310.01
491.95	18679.82
492.13	18728.97
492.30	18787.48
492.48	18766.42
492.66	19009.83
492.84	19171.33
493.01	19227.50
493.19	19213.46
493.37	19522.41
493.54	19307.08
493.72	19859.45
493.90	19559.86
494.08	20039.67
494.25	19924.98
494.43	20053.71
494.61	20247.97
494.79	20404.79
494.96	20430.54
495.14	20563.95
495.32	20697.36
495.49	20451.60
495.67	20814.38
495.85	20844.81
496.02	21076.52
496.20	21198.23
496.38	21380.79
496.55	21521.23
496.73	21699.11
496.91	21619.53
497.09	21947.20
497.26	21781.03
497.44	21970.61
497.62	21832.52
497.79	22707.88
497.97	22284.24
498.14	22530.00
498.32	22670.43
498.50	22244.45
498.67	22815.54
498.85	22728.94
499.03	22733.62
499.20	22939.59
499.38	22972.36
499.56	23227.48
499.73	23215.77
499.91	23473.23
500.08	23791.55
500.26	23384.29
500.44	23541.11
500.61	23910.91
500.79	23524.72
500.97	23917.93
501.14	24304.12
501.32	24257.31
501.49	24142.63
501.67	24095.82
501.84	24507.75
502.02	24407.11
502.20	24599.03
502.37	24664.57
502.55	24493.71
502.72	24699.67
502.90	24474.98
503.07	24575.62
503.25	25055.43
503.43	24699.67
503.60	25394.81
503.78	25228.63
503.95	25385.45
504.13	25308.21
504.30	25528.22
504.48	25593.76
504.65	25427.58
504.83	25769.30
505.01	26162.51
505.18	25607.80
505.36	26031.44
505.53	26087.61
505.71	25979.95
505.88	26377.84
506.06	25797.38
506.23	26157.83
506.41	26703.17
506.58	26654.02
506.76	26597.85
506.93	26923.18
507.11	26656.36
507.28	27171.28
507.46	26911.48
507.63	27314.05
507.81	27513.00
507.98	26960.63
508.16	27248.52
508.33	27805.56
508.50	27473.21
508.68	27477.89
508.85	27639.39
509.03	27992.81
509.20	27433.42
509.38	28091.11
509.55	27903.87
509.73	28030.26
509.90	28591.98
510.08	28002.17
510.25	28379.00
510.42	27999.83
510.60	28088.77
510.77	28510.07
510.95	28779.23
511.12	28545.17
511.30	28968.81
511.47	28559.22
511.64	28755.82
511.82	29371.38
511.99	28652.84
512.17	29338.62
512.34	29216.91
512.51	29277.76
512.69	29575.01
512.86	29418.19
513.04	29968.22
513.21	29373.72
513.38	29673.31
513.56	29729.48
513.73	29284.78
513.90	29525.86
514.08	29830.13
514.25	30471.43
514.43	30106.31
514.60	30204.61
514.77	29989.28
514.95	30216.32
515.12	30401.22
515.29	30202.27
515.47	30761.66
515.64	30939.54
515.81	30492.50
515.99	30836.56
516.16	31182.96
516.33	30984.01
516.51	30749.96
516.68	30972.31
516.85	30836.56
517.03	31365.52
517.20	31129.12
517.37	31023.80
517.54	31091.68
517.72	31744.69
517.89	31201.68
518.06	31487.23
518.24	31700.22
518.41	31435.74
518.58	31562.12
518.75	31527.02
518.93	31903.84
519.10	31709.58
519.27	32182.37
519.45	31749.37
519.62	32081.72
519.79	32283.01
519.96	32072.36
520.14	32264.28
520.31	32180.03
520.48	32400.04
520.65	32716.01
520.83	32985.17
521.00	32706.65
521.17	32641.11
521.34	33130.28
521.52	33031.98
521.69	33003.89
521.86	33336.25
522.03	32982.83
522.20	33331.57
522.38	33411.15
522.55	33792.65
522.72	33310.50
522.89	33200.50
523.07	33804.36
523.24	33584.35
523.41	33921.38
523.58	33446.26
523.75	33776.27
523.92	34033.73
524.10	33762.23
524.27	33895.64
524.44	34012.66
524.61	34445.66
524.78	34206.93
524.96	34525.24
525.13	34375.45
525.30	34387.15
525.47	34595.46
525.64	34342.68
525.81	34763.98
525.98	34651.63
526.16	34962.92
526.33	34930.16
526.50	35138.46
526.67	34939.52
526.84	34934.84
527.01	34902.07
527.18	34752.27
527.36	34852.92
527.53	35257.83
527.70	35358.47
527.87	35543.38
528.04	34642.27
528.21	35475.50
528.38	35482.52
528.55	35758.70
528.72	35414.65
528.89	35749.34
529.07	35491.88
529.24	35501.25
529.41	36243.20
529.58	35739.98
529.75	35707.21
529.92	36072.34
530.09	35859.35
530.26	36123.83
530.43	36385.97
530.60	36093.40
530.77	35910.84
530.94	35978.72
531.11	35784.45
531.28	36320.43
531.46	36350.86
531.63	36603.64
531.80	36463.21
531.97	36818.97
532.14	36189.36
532.31	36369.58
532.48	37104.51
532.65	36816.63
532.82	36584.91
532.99	36964.08
533.16	36809.61
533.33	36828.33
533.50	36954.72
533.67	37064.72
533.84	36975.78
534.01	37254.31
534.18	36994.51
534.35	37682.62
534.52	37277.71
534.69	37593.68
534.86	37659.22
535.03	37078.77
535.20	37530.49
535.37	38356.70
535.54	37904.98
535.71	37823.06
535.88	37652.20
536.05	37731.78
536.22	37914.34
536.38	37979.87
536.55	37872.21
536.72	37904.98
536.89	37958.81
537.06	37780.93
537.23	38628.20
537.40	38022.00
537.57	38068.81
537.74	38132.01
537.91	38487.77
538.08	38127.33
538.25	37839.44
538.42	38529.90
538.59	38667.99
538.75	38522.88
538.92	38967.58
539.09	38972.26
539.26	38623.52
539.43	38363.72
539.60	38726.50
539.77	38637.56
539.94	38658.63
540.11	39157.16
540.28	38955.88
540.44	39072.90
540.61	38675.01
540.78	38670.33
540.95	39297.59
541.12	38976.94
541.29	39058.86
541.46	39227.38
541.62	39388.88
541.79	39683.78
541.96	39068.22
542.13	39344.41
542.30	39269.51
542.47	39271.85
542.63	39683.78
542.80	39665.06
542.97	40086.36
543.14	40273.60
543.31	39555.05
543.48	40275.94
543.64	40662.13
543.81	40168.27
543.98	40170.61
544.15	39936.56
544.32	40313.39
544.48	40741.71
544.65	40390.62
544.82	40697.24
544.99	40065.29
545.16	40355.52
545.32	40414.03
545.49	40603.61
545.66	41022.57
545.83	40751.07
546.00	40854.05
546.16	40924.27
546.33	40914.90
546.50	40512.33
546.67	40907.88
546.83	40271.26
547.00	40884.48
547.17	40952.35
547.34	40837.67
547.50	40870.43
547.67	41324.50
547.84	40919.59
548.00	41034.27
548.17	41401.74
548.34	41352.58
548.51	41268.33
548.67	41212.15
548.84	41453.23
549.01	41635.79
549.18	41099.81
549.34	41703.67
549.51	41794.95
549.68	41869.84
549.84	41544.51
550.01	41687.28
550.18	41528.13
550.34	41696.64
550.51	41680.26
550.68	42225.60
550.84	41305.77
551.01	42258.37
551.18	41677.92
551.34	42164.75
551.51	42031.34
551.68	42106.24
551.84	42115.60
552.01	41848.78
552.18	42272.42
552.34	41860.48
552.51	42417.53
552.68	41614.72
552.84	41949.42
553.01	42241.99
553.18	42117.94
553.34	42593.07
553.51	41984.53
553.67	42335.61
553.84	42644.56
554.01	42604.77
554.17	42445.62
554.34	42976.92
554.51	42239.65
554.67	42995.64
554.84	42443.27
555.00	42513.49
555.17	42660.94
555.33	43065.86
555.50	42859.89
555.67	42731.16
555.83	42686.69
556.00	42581.37
556.16	43295.23
556.33	43229.69
556.50	43220.33
556.66	43005.00
556.83	42815.42
556.99	43512.90
557.16	43173.52
557.32	43058.84
557.49	43746.95
557.65	43021.39
557.82	43189.91
557.98	43110.33
558.15	42995.64
558.32	43489.49
558.48	42557.96
558.65	43557.37
558.81	42979.26
558.98	43676.74
559.14	43503.54
559.31	43412.26
559.47	42958.19
559.64	43749.29
559.80	43269.48
559.97	43742.27
560.13	42995.64
560.30	43578.43
560.46	43789.08
560.63	43941.22
560.79	43559.71
560.96	44009.09
561.12	43571.41
561.29	43398.21
561.45	44126.12
561.61	43540.99
561.78	43978.67
561.94	43391.19
562.11	43840.57
562.27	43922.49
562.44	43786.74
562.60	43920.15
562.77	43973.98
562.93	43770.36
563.10	44280.60
563.26	43571.41
563.42	44432.73
563.59	43782.06
563.75	43786.74
563.92	43643.97
564.08	44186.97
564.24	44083.99
564.41	44172.93
564.57	43828.87
564.74	44453.79
564.90	44198.68
565.07	43686.10
565.23	44327.41
565.39	44112.08
565.56	44313.36
565.72	44074.63
565.88	44062.93
566.05	44355.49
566.21	43875.68
566.38	44580.18
566.54	44411.67
566.70	44325.07
566.87	44128.46
567.03	44390.60
567.19	44577.84
567.36	44470.18
567.52	44292.30
567.68	44418.69
567.85	44299.32
568.01	44304.00
568.17	43803.13
568.34	44741.68
568.50	44409.32
568.66	44669.12
568.83	44828.28
568.99	44598.91
569.15	44507.63
569.32	44662.10
569.48	44322.72
569.64	44875.09
569.81	44617.63
569.97	44528.69
570.13	44697.21
570.30	44514.65
570.46	44854.03
570.62	44641.04
570.78	44875.09
570.95	44875.09
571.11	45148.93
571.27	44753.38
571.43	44577.84
571.60	45071.70
571.76	44847.00
571.92	44563.80
572.09	44882.11
572.25	44559.12
572.41	44868.07
572.57	45015.52
572.74	45184.04
572.90	44774.45
573.06	44879.77
573.22	45179.36
573.38	45326.81
573.55	45315.11
573.71	45179.36
573.87	45455.54
574.03	44933.60
574.20	44491.24
574.36	44563.80
574.52	45003.82
574.68	45282.34
574.84	45216.81
575.01	45069.36
575.17	45198.09
575.33	45219.15
575.49	44924.24
575.65	45537.46
575.82	45343.20
575.98	44837.64
576.14	45612.36
576.30	45635.77
576.46	45120.85
576.62	44921.90
576.79	44797.85
576.95	44591.89
577.11	45347.88
577.27	44837.64
577.43	45097.44
577.59	45162.98
577.75	44966.37
577.92	45097.44
578.08	45235.53
578.24	45195.74
578.40	45158.30
578.56	45649.81
578.72	45448.52
578.88	45263.62
579.04	45310.43
579.21	44795.51
579.37	45521.08
579.53	45478.95
579.69	45179.36
579.85	45525.76
580.01	45301.07
580.17	45095.10
580.33	45198.09
580.49	45443.84
580.65	45338.52
580.82	45287.03
580.98	45132.55
581.14	44755.72
581.30	45055.31
581.46	45069.36
581.62	44926.58
581.78	45284.68
581.94	45242.56
582.10	45354.90
582.26	45530.44
582.42	44968.71
582.58	45462.57
582.74	45322.13
582.90	45420.44
583.06	45471.93
583.22	45628.74
583.38	45298.73
583.54	45375.97
583.70	45481.29
583.86	45703.64
584.02	45200.43
584.18	45944.72
584.34	45071.70
584.50	45481.29
584.66	45617.04
584.82	45584.27
584.98	45553.85
585.14	45308.09
585.30	45214.47
585.46	45263.62
585.62	45191.06
585.78	45457.88
585.94	44903.18
586.10	45364.26
586.26	45289.37
586.42	45181.70
586.58	45055.31
586.74	45469.59
586.90	45270.64
587.06	45371.28
587.22	45600.66
587.38	45125.53
587.54	45647.47
587.70	45876.84
587.86	45556.19
588.02	45326.81
588.18	45661.51
588.34	45687.26
588.49	45570.23
588.65	44982.76
588.81	45397.03
588.97	45478.95
589.13	45394.69
589.29	45312.77
589.45	45574.91
589.61	45464.91
589.77	45748.11
589.93	45865.14
590.08	45972.80
