SpectraSuite Data File
++++++++++++++++++++++++++++++++++++
Date: Fri Oct 25 11:34:43 EDT 2013
User: price-jones
Dark Spectrum Present: No
Reference Spectrum Present: No
Number of Sampled Component Spectra: 1
Spectrometers: USB2+H05261
Integration Time (usec): 100000 (USB2+H05261)
Spectra Averaged: 1 (USB2+H05261)
Boxcar Smoothing: 0 (USB2+H05261)
Correct for Electrical Dark: No (USB2+H05261)
Strobe/Lamp Enabled: No (USB2+H05261)
Correct for Detector Non-linearity: No (USB2+H05261)
Correct for Stray Light: No (USB2+H05261)
Number of Pixels in Processed Spectrum: 2048
>>>>>Begin Processed Spectral Data<<<<<
365.73	234.05
365.92	234.05
366.12	234.05
366.32	173.20
366.52	208.31
366.72	220.01
366.91	196.60
367.11	238.73
367.31	140.43
367.51	163.84
367.70	173.20
367.90	212.99
368.10	208.31
368.30	194.26
368.49	149.79
368.69	154.48
368.89	168.52
369.09	187.24
369.28	215.33
369.48	184.90
369.68	250.44
369.87	241.08
370.07	224.69
370.27	341.72
370.47	271.50
370.66	418.96
370.86	486.83
371.06	554.71
371.25	571.09
371.45	519.60
371.65	603.86
371.84	484.49
372.04	535.98
372.24	620.24
372.44	613.22
372.63	582.79
372.83	589.82
373.03	521.94
373.22	552.37
373.42	578.11
373.62	603.86
373.81	624.92
374.01	606.20
374.21	596.84
374.40	589.82
374.60	566.41
374.79	653.01
374.99	631.94
375.19	664.71
375.38	688.12
375.58	589.82
375.78	660.03
375.97	624.92
376.17	615.56
376.37	671.73
376.56	629.60
376.76	711.52
376.95	636.63
377.15	667.05
377.35	711.52
377.54	697.48
377.74	690.46
377.93	695.14
378.13	641.31
378.33	634.29
378.52	676.41
378.72	709.18
378.91	674.07
379.11	753.65
379.31	734.93
379.50	725.57
379.70	678.76
379.89	657.69
380.09	662.37
380.28	716.20
380.48	774.72
380.68	734.93
380.87	704.50
381.07	692.80
381.26	681.10
381.46	734.93
381.65	795.78
381.85	744.29
382.04	828.55
382.24	795.78
382.43	734.93
382.63	711.52
382.83	713.86
383.02	734.93
383.22	755.99
383.41	716.20
383.61	856.64
383.80	858.98
384.00	767.70
384.19	737.27
384.39	772.38
384.58	695.14
384.78	788.76
384.97	781.74
385.17	791.10
385.36	770.04
385.56	744.29
385.75	741.95
385.95	781.74
386.14	896.43
386.34	819.19
386.53	833.23
386.72	802.80
386.92	873.02
387.11	851.96
387.31	828.55
387.50	788.76
387.70	802.80
387.89	931.53
388.09	891.74
388.28	858.98
388.48	861.32
388.67	936.21
388.86	861.32
389.06	889.40
389.25	877.70
389.45	924.51
389.64	959.62
389.84	891.74
390.03	971.32
390.22	896.43
390.42	847.27
390.61	903.45
390.81	882.38
391.00	973.66
391.19	894.08
391.39	1011.11
391.58	1015.79
391.78	1020.47
391.97	990.05
392.16	933.87
392.36	1025.15
392.55	1025.15
392.75	1011.11
392.94	992.39
393.13	1034.52
393.33	980.68
393.52	1125.80
393.71	1076.65
393.91	1069.62
394.10	1050.90
394.29	1057.92
394.49	924.51
394.68	1114.10
394.88	1015.79
395.07	1069.62
395.26	1142.18
395.46	1078.99
395.65	1107.07
395.84	1146.86
396.04	1137.50
396.23	1226.44
396.42	1179.63
396.62	1156.22
396.81	1259.21
397.00	1210.06
397.19	1160.91
397.39	1139.84
397.58	1191.33
397.77	1128.14
397.97	1203.04
398.16	1228.78
398.35	1247.51
398.55	1181.97
398.74	1282.61
398.93	1247.51
399.12	1329.42
399.32	1308.36
399.51	1287.29
399.70	1458.15
399.90	1345.81
400.09	1287.29
400.28	1329.42
400.47	1296.66
400.67	1301.34
400.86	1362.19
401.05	1373.89
401.24	1357.51
401.44	1317.72
401.63	1317.72
401.82	1411.34
402.01	1341.13
402.21	1401.98
402.40	1352.83
402.59	1392.62
402.78	1418.36
402.97	1284.95
403.17	1465.18
403.36	1432.41
403.55	1441.77
403.74	1425.39
403.93	1554.12
404.13	1469.86
404.32	1568.16
404.51	1570.50
404.70	1610.29
404.89	1511.99
405.09	1572.84
405.28	1591.56
405.47	1612.63
405.66	1717.95
405.85	1561.14
406.05	1621.99
406.24	1722.63
406.43	1701.57
406.62	1710.93
406.81	1753.06
407.00	1624.33
407.20	1748.38
407.39	1717.95
407.58	1799.87
407.77	1781.15
407.96	1813.92
408.15	1816.26
408.34	1788.17
408.54	1757.74
408.73	1905.20
408.92	1834.98
409.11	1874.77
409.30	1912.22
409.49	1926.26
409.68	1813.92
409.87	1870.09
410.07	1900.52
410.26	1980.09
410.45	1980.09
410.64	2008.18
410.83	2062.01
411.02	2029.24
411.21	2148.61
411.40	2108.82
411.59	2090.10
411.78	2078.40
411.98	2059.67
412.17	2235.21
412.36	2160.31
412.55	2221.17
412.74	2251.60
412.93	2256.28
413.12	2256.28
413.31	2244.57
413.50	2347.56
413.69	2312.45
413.88	2342.88
414.07	2338.20
414.26	2385.01
414.45	2356.92
414.64	2436.50
414.83	2443.52
415.02	2478.63
415.22	2492.67
415.41	2544.16
415.60	2513.74
415.79	2480.97
415.98	2616.72
416.17	2541.82
416.36	2621.40
416.55	2623.74
416.74	2700.98
416.93	2710.34
417.12	2682.25
417.31	2733.75
417.50	2665.87
417.69	2867.16
417.88	2752.47
418.07	2738.43
418.26	2806.30
418.45	2839.07
418.64	2913.97
418.83	2871.84
419.02	2902.26
419.21	2920.99
419.39	3019.29
419.58	2944.39
419.77	2995.89
419.96	2956.10
420.15	2956.10
420.34	3014.61
420.53	2988.86
420.72	3023.97
420.91	3075.46
421.10	3089.51
421.29	3049.72
421.48	2949.08
421.67	3129.30
421.86	2995.89
422.05	3241.64
422.24	3124.62
422.43	3150.36
422.61	3269.73
422.80	3267.39
422.99	3173.77
423.18	3119.93
423.37	3199.51
423.56	3187.81
423.75	3269.73
423.94	3143.34
424.13	2977.16
424.32	3098.87
424.50	3318.88
424.69	3325.90
424.88	3241.64
425.07	3251.00
425.26	3260.37
425.45	3274.41
425.64	3290.79
425.83	3265.05
426.01	3232.28
426.20	3169.09
426.39	3276.75
426.58	3255.69
426.77	3297.81
426.96	3407.82
427.15	3337.60
427.33	3454.63
427.52	3417.18
427.71	3466.33
427.90	3426.54
428.09	3487.40
428.28	3534.21
428.46	3473.36
428.65	3602.08
428.84	3637.19
429.03	3630.17
429.22	3534.21
429.40	3478.04
429.59	3475.70
429.78	3405.48
429.97	3475.70
430.16	3517.83
430.34	3616.13
430.53	3669.96
430.72	3623.15
430.91	3684.00
431.10	3639.53
431.28	3791.67
431.47	3599.74
431.66	3845.50
431.85	3819.75
432.03	3786.99
432.22	3868.91
432.41	3934.44
432.60	3854.86
432.79	3969.55
432.97	3864.22
433.16	3936.78
433.35	3833.80
433.54	3932.10
433.72	3796.35
433.91	3948.48
434.10	4039.76
434.28	3953.16
434.47	4009.34
434.66	4168.49
434.85	4091.26
435.03	4072.53
435.22	4198.92
435.41	4236.37
435.59	4187.22
435.78	4212.96
435.97	4299.56
436.16	4175.52
436.34	4297.22
436.53	4271.48
436.72	4395.53
436.90	4212.96
437.09	4374.46
437.28	4224.67
437.46	4348.72
437.65	4407.23
437.84	4601.49
438.02	4297.22
438.21	4390.84
438.40	4212.96
438.58	4477.44
438.77	4498.51
438.96	4465.74
439.14	4505.53
439.33	4723.20
439.52	4552.34
439.70	4517.23
439.89	4805.12
440.08	4887.04
440.26	4643.62
440.45	4695.11
440.63	4751.29
440.82	4933.85
441.01	4896.40
441.19	4922.15
441.38	5018.11
441.57	4990.02
441.75	4973.64
441.94	5036.83
442.12	5041.51
442.31	5146.84
442.50	5142.16
442.68	5114.07
442.87	5001.72
443.05	5210.03
443.24	5320.04
443.43	5350.46
443.61	5282.59
443.80	5338.76
443.98	5191.31
444.17	4894.06
444.35	5376.21
444.54	5313.02
444.73	5263.86
444.91	5296.63
445.10	5334.08
445.28	5259.18
445.47	5406.64
445.65	5331.74
445.84	5317.70
446.02	5399.62
446.21	5259.18
446.39	5362.17
446.58	5390.25
446.77	5469.83
446.95	5179.61
447.14	5465.15
447.32	5423.02
447.51	5488.56
447.69	5385.57
447.88	5530.69
448.06	5518.98
448.25	5465.15
448.43	5453.45
448.62	5434.72
448.80	5558.77
448.99	5570.48
449.17	5746.02
449.36	5570.48
449.54	5657.07
449.73	5748.36
449.91	5640.69
450.10	5788.14
450.28	5834.96
450.46	5832.62
450.65	5923.90
450.83	5874.74
451.02	5790.49
451.20	5825.59
451.39	5696.86
451.57	6019.86
451.76	5713.25
451.94	5872.40
452.13	5902.83
452.31	6010.50
452.49	5877.09
452.68	5905.17
452.86	5916.87
453.05	6181.35
453.23	6141.57
453.42	6080.71
453.60	6094.76
453.78	6073.69
453.97	6139.23
454.15	6010.50
454.34	5975.39
454.52	6431.79
454.70	6211.78
454.89	6204.76
455.07	6200.08
455.26	6265.61
455.44	6384.98
455.62	6162.63
455.81	6321.79
455.99	6225.82
456.17	6382.64
456.36	6457.54
456.54	6389.66
456.73	6754.79
456.91	6771.17
457.09	6654.14
457.28	6944.37
457.46	6565.20
457.64	6562.86
457.83	6752.45
458.01	6710.32
458.19	6719.68
458.38	6825.00
458.56	6834.36
458.74	6703.29
458.93	6993.52
459.11	7002.88
459.29	6829.68
459.48	6796.92
459.66	6848.41
459.84	6981.82
460.03	7105.87
460.21	6874.15
460.39	6883.52
460.57	6864.79
460.76	7049.69
460.94	6977.14
461.12	7211.19
461.31	7037.99
461.49	6949.05
461.67	6986.50
461.85	7162.04
462.04	7166.72
462.22	7222.89
462.40	7309.49
462.59	7171.40
462.77	7302.47
462.95	7454.61
463.13	7272.04
463.32	7534.18
463.50	7531.84
463.68	7496.74
463.86	7606.74
464.05	7342.26
464.23	7377.37
464.41	7485.03
464.59	7414.82
464.78	7742.49
464.96	7485.03
465.14	7405.46
465.32	7578.65
465.50	7728.45
465.69	7721.43
465.87	7470.99
466.05	7658.23
466.23	7744.83
466.41	7831.43
466.60	7866.54
466.78	7674.62
466.96	7768.24
467.14	7705.04
467.32	7660.57
467.51	8039.74
467.69	7648.87
467.87	7756.54
468.05	7875.90
468.23	8009.31
468.41	7901.65
468.60	7943.78
468.78	8023.36
468.96	7882.92
469.14	7929.74
469.32	8241.03
469.50	7953.14
469.69	8264.43
469.87	8161.45
470.05	8257.41
470.23	8215.28
470.41	8416.57
470.59	8456.36
470.77	8439.97
470.95	8482.10
471.14	8592.11
471.32	8306.56
471.50	8589.77
471.68	8678.71
471.86	8798.07
472.04	8802.75
472.22	8678.71
472.40	8470.40
472.58	8528.91
472.77	8879.99
472.95	8779.35
473.13	9097.66
473.31	8994.68
473.49	8894.04
473.67	8919.78
473.85	8990.00
474.03	9144.47
474.21	9200.65
474.39	9221.71
474.57	9195.96
474.75	9296.61
474.93	9334.06
475.12	9530.66
475.30	9430.02
475.48	9371.50
475.66	9390.23
475.84	9481.51
476.02	9610.24
476.20	9699.18
476.38	9720.24
476.56	10003.45
476.74	10132.18
476.92	9797.48
477.10	9898.13
477.28	9914.51
477.46	10029.20
477.64	10200.05
477.82	10289.00
478.00	10745.40
478.18	10485.60
478.36	10548.79
478.54	10771.15
478.72	10609.65
478.90	10731.36
479.08	11260.32
479.26	10956.05
479.44	10775.83
479.62	11136.27
479.80	11370.32
479.98	11321.17
480.16	11552.88
480.34	11435.86
480.52	11857.15
480.70	11501.39
480.88	11473.31
481.06	11822.05
481.24	11892.26
481.41	11770.55
481.59	12074.82
481.77	12063.12
481.95	12329.94
482.13	12203.55
482.31	12109.93
482.49	12545.27
482.67	12538.25
482.85	12681.02
483.03	12767.62
483.21	12959.55
483.39	12933.80
483.57	12772.30
483.74	13205.30
483.92	13046.15
484.10	13004.02
484.28	13446.38
484.46	13642.98
484.64	13760.01
484.82	13610.22
485.00	13783.41
485.18	14059.60
485.35	14162.58
485.53	14265.57
485.71	14073.64
485.89	14562.81
486.07	14389.61
486.25	14162.58
486.43	14492.60
486.61	14696.22
486.78	15147.95
486.96	14977.09
487.14	15077.73
487.32	15253.27
487.50	15309.44
487.68	15393.70
487.85	15506.05
488.03	15845.43
488.21	16013.95
488.39	15822.02
488.57	16236.30
488.75	16177.78
488.92	16374.39
489.10	16390.77
489.28	16627.17
489.46	16690.36
489.64	16622.48
489.81	17163.15
489.99	17001.65
490.17	17317.62
490.35	17322.30
490.53	17448.69
490.70	17476.78
490.88	17408.90
491.06	17703.81
491.24	18087.66
491.41	18113.41
491.59	18068.94
491.77	17844.24
491.95	18003.40
492.13	18310.01
492.30	18609.60
492.48	18476.19
492.66	18946.64
492.84	18822.59
493.01	18951.32
493.19	18745.35
493.37	19452.19
493.54	19569.22
493.72	19396.02
493.90	19370.27
494.08	19501.34
494.25	19716.67
494.43	19625.39
494.61	19967.11
494.79	19639.44
494.96	20133.29
495.14	20240.95
495.32	20304.15
495.49	20177.76
495.67	20414.15
495.85	20601.40
496.02	21018.01
496.20	20802.68
496.38	21153.76
496.55	21170.15
496.73	21392.50
496.91	21394.84
497.09	21432.29
497.26	21628.89
497.44	21415.90
497.62	21593.78
497.79	21954.22
497.97	22085.30
498.14	22237.43
498.32	22281.90
498.50	22396.59
498.67	22532.34
498.85	22548.72
499.03	22665.75
499.20	22852.99
499.38	22991.08
499.56	22724.26
499.73	22955.97
499.91	23164.28
500.08	23220.45
500.26	23147.90
500.44	23278.97
500.61	23232.16
500.79	23239.18
500.97	23772.82
501.14	23819.63
501.32	24168.37
501.49	24011.56
501.67	23740.05
501.84	23915.59
502.02	23887.51
502.20	24133.26
502.37	24266.67
502.55	23927.30
502.72	24407.11
502.90	24467.96
503.07	24489.03
503.25	24786.27
503.43	24650.52
503.60	24840.11
503.78	25106.93
503.95	25083.52
504.13	25003.94
504.30	24655.20
504.48	24725.42
504.65	25172.46
504.83	25441.62
505.01	25390.13
505.18	25404.17
505.36	25963.56
505.53	25678.02
505.71	26059.52
505.88	25982.29
506.06	25848.88
506.23	25933.14
506.41	25743.55
506.58	26228.04
506.76	26115.70
506.93	26593.17
507.11	26249.11
507.28	26513.59
507.46	26300.60
507.63	26394.22
507.81	26684.45
507.98	26593.17
508.16	26632.96
508.33	26864.67
508.50	27300.01
508.68	26948.93
508.85	27428.74
509.03	27030.85
509.20	27309.37
509.38	27475.55
509.55	27683.86
509.73	27735.35
509.90	27613.64
510.08	27662.79
510.25	27775.14
510.42	27779.82
510.60	28114.52
510.77	28238.56
510.95	28318.14
511.12	28130.90
511.30	28278.35
511.47	28465.60
511.64	28229.20
511.82	28056.00
511.99	28341.55
512.17	28341.55
512.34	28559.22
512.51	29055.41
512.69	29275.42
512.86	29179.46
513.04	29158.39
513.21	29172.44
513.38	29223.93
513.56	29076.48
513.73	29259.04
513.90	29565.65
514.08	29673.31
514.25	29560.97
514.43	29659.27
514.60	29720.12
514.77	30045.46
514.95	29914.39
515.12	29680.33
515.29	29853.53
515.47	29762.25
515.64	30209.29
515.81	29977.58
515.99	30022.05
516.16	30389.52
516.33	30569.74
516.51	30628.25
516.68	30663.36
516.85	30368.45
517.03	30822.51
517.20	30897.41
517.37	30546.33
517.54	31065.93
517.72	31299.98
517.89	30775.70
518.06	31129.12
518.24	31014.44
518.41	30909.11
518.58	30735.92
518.75	30686.76
518.93	31646.38
519.10	31220.41
519.27	31775.11
519.45	31208.70
519.62	31213.38
519.79	31519.99
519.96	32025.55
520.14	31866.39
520.31	32247.90
520.48	31779.79
520.65	31768.09
520.83	32470.25
521.00	32294.71
521.17	32084.06
521.34	32203.43
521.52	32718.35
521.69	32430.46
521.86	32655.15
522.03	32573.24
522.20	32854.10
522.38	33102.20
522.55	33251.99
522.72	33111.56
522.89	33050.70
523.07	32947.72
523.24	33289.44
523.41	33228.59
523.58	32680.90
523.75	33745.84
523.92	33364.34
524.10	33670.95
524.27	33635.84
524.44	33312.84
524.61	33670.95
524.78	33582.01
524.96	34015.01
525.13	33895.64
525.30	34244.38
525.47	34235.02
525.64	33947.13
525.81	34183.52
525.98	34204.59
526.16	33837.12
526.33	34284.17
526.50	34457.37
526.67	34101.61
526.84	34064.16
527.01	34693.76
527.18	34700.78
527.36	34628.23
527.53	34230.33
527.70	35337.41
527.87	34803.77
528.04	34787.38
528.21	34923.13
528.38	35192.30
528.55	35086.97
528.72	35040.16
528.89	35290.60
529.07	35225.06
529.24	35101.01
529.41	35168.89
529.58	35044.84
529.75	35136.12
529.92	35508.27
530.09	35140.80
530.26	35480.18
530.43	35936.59
530.60	35157.19
530.77	35768.07
530.94	35271.87
531.11	35634.66
531.28	35629.98
531.46	35571.46
531.63	35590.19
531.80	35768.07
531.97	36563.85
532.14	35826.58
532.31	35805.52
532.48	36538.10
532.65	36254.90
532.82	36259.58
532.99	36605.98
533.16	36051.27
533.33	36692.58
533.50	36786.20
533.67	36690.24
533.84	36622.36
534.01	36355.54
534.18	36678.54
534.35	37048.34
534.52	37474.32
534.69	36889.18
534.86	37158.34
535.03	36657.47
535.20	37013.23
535.37	36891.52
535.54	37249.63
535.71	37226.22
535.88	37186.43
536.05	37249.63
536.22	37521.13
536.38	37125.58
536.55	37631.13
536.72	37427.51
536.89	37436.87
537.06	37577.30
537.23	37448.57
537.40	37331.54
537.57	37593.68
537.74	37268.35
537.91	37970.51
538.08	37940.08
538.25	37834.76
538.42	37666.24
538.59	38204.56
538.75	37811.35
538.92	38298.19
539.09	38010.30
539.26	38017.32
539.43	37886.25
539.60	38099.24
539.77	38155.41
539.94	38588.41
540.11	38703.10
540.28	38672.67
540.44	38265.42
540.61	38251.38
540.78	38424.57
540.95	38543.94
541.12	38031.36
541.29	38459.68
541.46	38574.37
541.62	38843.53
541.79	39009.71
541.96	38466.70
542.13	38286.48
542.30	38188.18
542.47	39157.16
542.63	39384.19
542.80	39091.63
542.97	39363.13
543.14	39456.75
543.31	39288.23
543.48	39536.33
543.64	39718.89
543.81	39878.05
543.98	39683.78
544.15	39981.03
544.32	39543.35
544.48	39894.43
544.65	39831.24
544.82	39992.73
544.99	39592.50
545.16	39669.74
545.32	40046.57
545.49	40397.65
545.66	40158.91
545.83	39997.41
546.00	40254.87
546.16	40006.78
546.33	40421.05
546.50	39636.97
546.67	40430.41
546.83	39770.38
547.00	40376.58
547.17	39864.00
547.34	40243.17
547.50	40627.02
547.67	40744.05
547.84	40837.67
548.00	40620.00
548.17	40950.01
548.34	40374.24
548.51	40730.00
548.67	40641.06
548.84	41153.64
549.01	40526.38
549.18	40896.18
549.34	40746.39
549.51	40884.48
549.68	40968.74
549.84	40891.50
550.01	41109.17
550.18	40748.73
550.34	41254.28
550.51	41619.41
550.68	41212.15
550.84	41003.85
551.01	41095.13
551.18	41535.15
551.34	40732.34
551.51	41287.05
551.68	41471.95
551.84	41233.22
552.01	41598.34
552.18	41612.38
552.34	41193.43
552.51	41546.85
552.68	41141.94
552.84	41404.08
553.01	41855.80
553.18	41537.49
553.34	41450.89
553.51	41317.48
553.67	42141.35
553.84	41525.78
554.01	41972.83
554.17	41773.88
554.34	41837.08
554.51	42012.62
554.67	42595.41
554.84	42087.51
555.00	41581.96
555.17	42019.64
555.33	42660.94
555.50	42511.15
555.67	42281.78
555.83	41872.18
556.00	42555.62
556.16	42733.50
556.33	41982.19
556.50	42649.24
556.66	42405.83
556.83	42405.83
556.99	42649.24
557.16	42424.55
557.32	42623.50
557.49	41975.17
557.65	42586.05
557.82	42363.70
557.98	42593.07
558.15	42157.73
558.32	42990.96
558.48	42382.42
558.65	42787.33
558.81	42841.17
558.98	42913.72
559.14	42766.27
559.31	42782.65
559.47	42473.70
559.64	42155.39
559.80	42806.06
559.97	43005.00
560.13	42445.62
560.30	42705.41
560.46	43342.04
560.63	43461.41
560.79	43150.12
560.96	43381.83
561.12	43201.61
561.29	42834.14
561.45	43180.54
561.61	43182.88
561.78	42979.26
561.94	43285.87
562.11	43026.07
562.27	43416.94
562.44	43075.22
562.60	43241.40
562.77	43480.13
562.93	42885.64
563.10	43880.36
563.26	43047.13
563.42	43681.42
563.59	43477.79
563.75	42895.00
563.92	43309.27
564.08	43543.33
564.24	43564.39
564.41	43768.02
564.57	43615.88
564.74	43063.52
564.90	42997.98
565.07	43304.59
565.23	43412.26
565.39	43407.58
565.56	43894.41
565.72	43580.78
565.88	43564.39
566.05	43423.96
566.21	43819.51
566.38	43770.36
566.54	43878.02
566.70	43728.23
566.87	44161.23
567.03	43473.11
567.19	43416.94
567.36	43803.13
567.52	43590.14
567.68	43742.27
567.85	43789.08
568.01	44037.18
568.17	43625.25
568.34	44098.03
568.50	44053.56
568.66	43969.30
568.83	43981.01
568.99	44107.40
569.15	44133.14
569.32	44067.61
569.48	43730.57
569.64	44397.62
569.81	44261.87
569.97	44304.00
570.13	44350.81
570.30	43552.69
570.46	43842.92
570.62	43934.20
570.78	43878.02
570.95	44004.41
571.11	44397.62
571.27	44065.27
571.43	44083.99
571.60	44114.42
571.76	43969.30
571.92	44222.08
572.09	43995.05
572.25	43730.57
572.41	43892.07
572.57	44233.78
572.74	44538.05
572.90	43854.62
573.06	44282.94
573.22	44531.03
573.38	44629.34
573.55	44308.68
573.71	44287.62
573.87	44067.61
574.03	44105.06
574.20	44610.61
574.36	44612.95
574.52	44325.07
574.68	44287.62
574.84	44671.46
575.01	44741.68
575.17	44484.22
575.33	44584.86
575.49	44271.23
575.65	44767.43
575.82	44348.47
575.98	44304.00
576.14	44856.37
576.30	44406.98
576.46	44648.06
576.62	44374.22
576.79	44755.72
576.95	44521.67
577.11	44566.14
577.27	44147.18
577.43	44348.47
577.59	43931.86
577.75	44278.25
577.92	44481.88
578.08	44416.35
578.24	44322.72
578.40	44839.98
578.56	44465.50
578.72	44643.38
578.88	44451.45
579.04	44467.84
579.21	44535.71
579.37	44921.90
579.53	44910.20
579.69	44671.46
579.85	44343.79
580.01	44467.84
580.17	44341.45
580.33	44664.44
580.49	44573.16
580.65	44650.40
580.82	44624.65
580.98	44175.27
581.14	44397.62
581.30	44823.60
581.46	44184.63
581.62	44584.86
581.78	44463.16
581.94	44788.49
582.10	44680.83
582.26	45315.11
582.42	44755.72
582.58	45064.67
582.74	44657.42
582.90	45024.89
583.06	45006.16
583.22	44275.91
583.38	44399.96
583.54	44748.70
583.70	44589.55
583.86	44793.17
584.02	44575.50
584.18	44666.78
584.34	44683.17
584.50	44985.10
584.66	45137.23
584.82	44720.62
584.98	45043.61
585.14	45177.02
585.30	44994.46
585.46	44746.36
585.62	44484.22
585.78	44762.75
585.94	44259.53
586.10	44554.44
586.26	44659.76
586.42	44767.43
586.58	44971.05
586.74	45076.38
586.90	44570.82
587.06	44566.14
587.22	45282.34
587.38	44758.06
587.54	45001.48
587.70	45001.48
587.86	45151.27
588.02	44514.65
588.18	44715.93
588.34	44629.34
588.49	45097.44
588.65	44313.36
588.81	45151.27
588.97	44676.15
589.13	44584.86
589.29	44353.15
589.45	44975.73
589.61	44921.90
589.77	45427.46
589.93	44912.54
590.08	45141.91
