SpectraSuite Data File
++++++++++++++++++++++++++++++++++++
Date: Fri Oct 25 11:25:47 EDT 2013
User: price-jones
Dark Spectrum Present: No
Reference Spectrum Present: No
Number of Sampled Component Spectra: 1
Spectrometers: USB2+H05261
Integration Time (usec): 100000 (USB2+H05261)
Spectra Averaged: 1 (USB2+H05261)
Boxcar Smoothing: 0 (USB2+H05261)
Correct for Electrical Dark: No (USB2+H05261)
Strobe/Lamp Enabled: No (USB2+H05261)
Correct for Detector Non-linearity: No (USB2+H05261)
Correct for Stray Light: No (USB2+H05261)
Number of Pixels in Processed Spectrum: 2048
>>>>>Begin Processed Spectral Data<<<<<
365.73	222.35
365.92	222.35
366.12	222.35
366.32	154.48
366.52	72.56
366.72	93.62
366.91	112.35
367.11	135.75
367.31	84.26
367.51	182.56
367.70	110.01
367.90	121.71
368.10	177.88
368.30	205.97
368.49	140.43
368.69	152.13
368.89	191.92
369.09	140.43
369.28	250.44
369.48	112.35
369.68	234.05
369.87	212.99
370.07	182.56
370.27	290.23
370.47	308.95
370.66	664.71
370.86	622.58
371.06	610.88
371.25	671.73
371.45	629.60
371.65	690.46
371.84	664.71
372.04	664.71
372.24	690.46
372.44	744.29
372.63	753.65
372.83	716.20
373.03	741.95
373.22	655.35
373.42	802.80
373.62	786.42
373.81	753.65
374.01	802.80
374.21	777.06
374.40	737.27
374.60	835.57
374.79	809.83
374.99	819.19
375.19	866.00
375.38	896.43
375.58	894.08
375.78	856.64
375.97	791.10
376.17	837.91
376.37	837.91
376.56	828.55
376.76	798.12
376.95	844.93
377.15	866.00
377.35	929.19
377.54	931.53
377.74	901.11
377.93	933.87
378.13	837.91
378.33	938.55
378.52	896.43
378.72	943.24
378.91	936.21
379.11	940.90
379.31	945.58
379.50	908.13
379.70	933.87
379.89	952.60
380.09	964.30
380.28	1027.50
380.48	964.30
380.68	936.21
380.87	987.71
381.07	1048.56
381.26	976.00
381.46	971.32
381.65	1011.11
381.85	1078.99
382.04	1071.97
382.24	1039.20
382.43	1097.71
382.63	1107.07
382.83	1027.50
383.02	1135.16
383.22	1111.75
383.41	1048.56
383.61	1025.15
383.80	1048.56
384.00	1093.03
384.19	1078.99
384.39	1064.94
384.58	1064.94
384.78	1142.18
384.97	1149.20
385.17	1064.94
385.36	1118.78
385.56	1163.25
385.75	1135.16
385.95	1163.25
386.14	1212.40
386.34	1167.93
386.53	1203.04
386.72	1200.69
386.92	1294.32
387.11	1273.25
387.31	1212.40
387.50	1153.88
387.70	1174.95
387.89	1291.98
388.09	1273.25
388.28	1341.13
388.48	1334.11
388.67	1254.53
388.86	1327.08
389.06	1289.64
389.25	1275.59
389.45	1303.68
389.64	1355.17
389.84	1394.96
390.03	1348.15
390.22	1376.24
390.42	1317.72
390.61	1392.62
390.81	1439.43
391.00	1399.64
391.19	1474.54
391.39	1423.05
391.58	1458.15
391.78	1500.28
391.97	1418.36
392.16	1526.03
392.36	1481.56
392.55	1430.07
392.75	1483.90
392.94	1561.14
393.13	1551.78
393.33	1437.09
393.52	1519.01
393.71	1591.56
393.91	1596.25
394.10	1549.43
394.29	1612.63
394.49	1509.65
394.68	1572.84
394.88	1530.71
395.07	1629.01
395.26	1764.76
395.46	1633.69
395.65	1713.27
395.84	1706.25
396.04	1863.07
396.23	1724.97
396.42	1680.50
396.62	1755.40
396.81	1797.53
397.00	1682.85
397.19	1696.89
397.39	1767.10
397.58	1832.64
397.77	1926.26
397.97	1818.60
398.16	1811.57
398.35	1802.21
398.55	1879.45
398.74	1954.35
398.93	1921.58
399.12	1933.28
399.32	1809.23
399.51	1853.70
399.70	1968.39
399.90	1813.92
400.09	1966.05
400.28	2038.61
400.47	1959.03
400.67	2047.97
400.86	2090.10
401.05	2193.08
401.24	2136.91
401.44	2150.95
401.63	2029.24
401.82	2099.46
402.01	2069.03
402.21	2122.87
402.40	2155.63
402.59	2122.87
402.78	2134.57
402.97	2249.25
403.17	2275.00
403.36	2284.36
403.55	2242.23
403.74	2321.81
403.93	2436.50
404.13	2368.62
404.32	2340.54
404.51	2284.36
404.70	2478.63
404.89	2385.01
405.09	2448.20
405.28	2422.45
405.47	2354.58
405.66	2436.50
405.85	2506.71
406.05	2450.54
406.24	2525.44
406.43	2516.08
406.62	2729.06
406.81	2588.63
407.00	2466.92
407.20	2485.65
407.39	2586.29
407.58	2729.06
407.77	2815.66
407.96	2752.47
408.15	2733.75
408.34	2745.45
408.54	2705.66
408.73	2813.32
408.92	2752.47
409.11	2885.88
409.30	2874.18
409.49	2942.05
409.68	2860.13
409.87	2825.03
410.07	2998.23
410.26	2956.10
410.45	2848.43
410.64	3002.91
410.83	2988.86
411.02	2977.16
411.21	3049.72
411.40	3091.85
411.59	3119.93
411.78	3206.53
411.98	3318.88
412.17	3248.66
412.36	3314.20
412.55	3386.76
412.74	3332.92
412.93	3353.99
413.12	3318.88
413.31	3588.04
413.50	3499.10
413.69	3431.23
413.88	3569.32
414.07	3496.76
414.26	3569.32
414.45	3585.70
414.64	3609.11
414.83	3625.49
415.02	3789.33
415.22	3866.56
415.41	3794.01
415.60	3882.95
415.79	3969.55
415.98	3957.85
416.17	3850.18
416.36	4044.45
416.55	4011.68
416.74	4194.24
416.93	4070.19
417.12	3932.10
417.31	4212.96
417.50	4320.63
417.69	4332.33
417.88	4219.99
418.07	4227.01
418.26	4234.03
418.45	4337.01
418.64	4379.14
418.83	4491.49
419.02	4383.82
419.21	4440.00
419.39	4479.79
419.58	4358.08
419.77	4301.90
419.96	4482.13
420.15	4533.62
420.34	4531.28
420.53	4447.02
420.72	4718.52
420.91	4755.97
421.10	4667.03
421.29	4727.88
421.48	4695.11
421.67	4777.03
421.86	4629.58
422.05	4678.73
422.24	4784.06
422.43	4870.65
422.61	4805.12
422.80	5001.72
422.99	4856.61
423.18	4819.16
423.37	5025.13
423.56	4840.23
423.75	4884.70
423.94	4884.70
424.13	4489.15
424.32	4594.47
424.50	4999.38
424.69	4933.85
424.88	5097.69
425.07	4910.44
425.26	4894.06
425.45	4901.08
425.64	4898.74
425.83	4915.12
426.01	5085.98
426.20	5107.05
426.39	5184.29
426.58	4983.00
426.77	5174.92
426.96	5144.50
427.15	5095.35
427.33	5200.67
427.52	4992.36
427.71	5273.23
427.90	5111.73
428.09	5343.44
428.28	5100.03
428.46	5446.43
428.65	5373.87
428.84	5528.35
429.03	5474.51
429.22	5074.28
429.40	5383.23
429.59	5329.40
429.78	5210.03
429.97	5280.25
430.16	5348.12
430.34	5547.07
430.53	5671.12
430.72	5621.97
430.91	5603.24
431.10	5500.26
431.28	5636.01
431.47	5694.52
431.66	5771.76
431.85	5699.20
432.03	5926.24
432.22	5893.47
432.41	5729.63
432.60	5959.00
432.79	5933.26
432.97	6087.73
433.16	5968.37
433.35	5975.39
433.54	6141.57
433.72	6061.99
433.91	6115.82
434.10	6090.07
434.28	6045.60
434.47	6073.69
434.66	6118.16
434.85	6120.50
435.03	6333.49
435.22	6396.68
435.41	6317.11
435.59	6382.64
435.78	6342.85
435.97	6445.84
436.16	6478.60
436.34	6401.37
436.53	6314.77
436.72	6637.76
436.90	6424.77
437.09	6574.56
437.28	6399.02
437.46	6647.12
437.65	6406.05
437.84	6579.25
438.02	6649.46
438.21	6663.51
438.40	6885.86
438.58	6885.86
438.77	7019.27
438.96	7033.31
439.14	7009.90
439.33	7068.42
439.52	7075.44
439.70	7232.26
439.89	7267.36
440.08	7372.69
440.26	7215.87
440.45	7410.14
440.63	7370.35
440.82	7475.67
441.01	7384.39
441.19	7564.61
441.38	7784.62
441.57	7824.41
441.75	7843.14
441.94	7859.52
442.12	7889.95
442.31	7889.95
442.50	8070.17
442.68	7971.86
442.87	8013.99
443.05	8011.65
443.24	8269.11
443.43	8119.32
443.61	8030.38
443.80	8212.94
443.98	8006.97
444.17	7819.73
444.35	8208.26
444.54	8388.48
444.73	8161.45
444.91	8226.98
445.10	8292.52
445.28	8320.60
445.47	8142.72
445.65	8138.04
445.84	8315.92
446.02	8458.70
446.21	8439.97
446.39	8234.00
446.58	8315.92
446.77	8463.38
446.95	8269.11
447.14	8201.24
447.32	8538.27
447.51	8475.08
447.69	8320.60
447.88	8514.87
448.06	8425.93
448.25	8685.73
448.43	8461.04
448.62	8425.93
448.80	8414.23
448.99	8557.00
449.17	8833.18
449.36	8542.96
449.54	8891.70
449.73	8753.60
449.91	8954.89
450.10	9004.04
450.28	8971.27
450.46	8985.32
450.65	9032.13
450.83	8849.57
451.02	9114.05
451.20	8966.59
451.39	9034.47
451.57	9036.81
451.76	9048.51
451.94	9132.77
452.13	9149.15
452.31	9179.58
452.49	9177.24
452.68	9242.78
452.86	9095.32
453.05	9219.37
453.23	9233.41
453.42	9329.38
453.60	9242.78
453.78	9530.66
453.97	9406.61
454.15	9495.55
454.34	9373.85
454.52	9525.98
454.70	9577.47
454.89	9448.74
455.07	9764.72
455.26	9760.03
455.44	9858.34
455.62	9626.62
455.81	9823.23
455.99	9949.62
456.17	10022.17
456.36	9764.72
456.54	10284.31
456.73	10176.65
456.91	10377.94
457.09	10242.18
457.28	10312.40
457.46	10312.40
457.64	10464.54
457.83	10204.74
458.01	10225.80
458.19	10609.65
458.38	10427.09
458.56	10457.51
458.74	10684.55
458.93	10480.92
459.11	10581.56
459.29	10656.46
459.48	10757.10
459.66	10717.31
459.84	10827.32
460.03	11063.71
460.21	10832.00
460.39	10883.49
460.57	10927.96
460.76	10920.94
460.94	11124.57
461.12	11059.03
461.31	11009.88
461.49	10942.00
461.67	10981.79
461.85	11375.00
462.04	11262.66
462.22	11728.42
462.40	11459.26
462.59	11552.88
462.77	11611.40
462.95	11473.31
463.13	11265.00
463.32	11705.02
463.50	11719.06
463.68	11831.41
463.86	11634.80
464.05	11559.91
464.23	11707.36
464.41	11920.35
464.59	11693.32
464.78	11992.90
464.96	11990.56
465.14	11660.55
465.32	11990.56
465.50	11974.18
465.69	12229.30
465.87	12191.85
466.05	12311.22
466.23	11995.25
466.41	12369.73
466.60	12470.37
466.78	12116.95
466.96	12250.36
467.14	12154.40
467.32	12074.82
467.51	12432.93
467.69	11927.37
467.87	12355.69
468.05	12510.16
468.23	12388.46
468.41	12341.64
468.60	12383.77
468.78	12807.41
468.96	12622.51
469.14	12716.13
469.32	12940.82
469.50	12510.16
469.69	12929.12
469.87	12886.99
470.05	12823.80
470.23	12975.93
470.41	13036.78
470.59	13151.47
470.77	13177.22
470.95	13291.90
471.14	13268.50
471.32	13277.86
471.50	13401.91
471.68	13301.26
471.86	13451.06
472.04	13619.58
472.22	13848.95
472.40	13572.77
472.58	13804.48
472.77	13778.73
472.95	14052.58
473.13	14712.61
473.31	13963.64
473.49	14043.21
473.67	14228.12
473.85	14183.65
474.03	14567.49
474.21	14738.35
474.39	14541.75
474.57	14431.74
474.75	14803.89
474.93	14810.91
475.12	15023.90
475.30	14871.76
475.48	14897.51
475.66	14967.73
475.84	15019.22
476.02	15241.57
476.20	15372.64
476.38	15859.47
476.56	15824.36
476.74	15655.84
476.92	15721.38
477.10	15714.36
477.28	15953.09
477.46	16067.78
477.64	16203.53
477.82	16255.02
478.00	16950.16
478.18	16615.46
478.36	16910.37
478.54	16954.84
478.72	16982.93
478.90	17439.33
479.08	17301.24
479.26	17387.84
479.44	17460.40
479.62	17919.14
479.80	18080.64
479.98	18092.34
480.16	18448.10
480.34	18155.54
480.52	18307.67
480.70	18609.60
480.88	18431.72
481.06	18558.11
481.24	18689.18
481.41	19047.28
481.59	19187.71
481.77	19220.48
481.95	19243.88
482.13	19721.35
482.31	19594.96
482.49	20121.59
482.67	20039.67
482.85	20236.27
483.03	20484.37
483.21	20456.28
483.39	20870.56
483.57	20655.23
483.74	20823.75
483.92	21240.36
484.10	21329.30
484.28	21270.79
484.46	21687.40
484.64	21926.14
484.82	21820.81
485.00	22178.92
485.18	22780.43
485.35	22860.01
485.53	22541.70
485.71	22843.63
485.89	23386.63
486.07	23241.52
486.25	23307.05
486.43	23405.36
486.61	23391.31
486.78	24032.62
486.96	24144.97
487.14	24304.12
487.32	24812.02
487.50	24601.37
487.68	24842.45
487.85	25144.38
488.03	25081.18
488.21	25610.14
488.39	25553.97
488.57	25628.87
488.75	25785.68
488.92	26260.81
489.10	26263.15
489.28	26513.59
489.46	27178.30
489.64	26885.73
489.81	27480.23
489.99	27461.51
490.17	27522.36
490.35	27817.27
490.53	28046.64
490.70	28266.65
490.88	28121.54
491.06	28608.37
491.24	28872.85
491.41	29069.45
491.59	28971.15
491.77	28891.57
491.95	29776.30
492.13	29401.81
492.30	30141.42
492.48	29727.14
492.66	29947.15
492.84	30075.88
493.01	30260.79
493.19	30724.21
493.37	30747.62
493.54	30698.47
493.72	31243.81
493.90	31077.63
494.08	31529.36
494.25	31503.61
494.43	32112.15
494.61	32109.81
494.79	31784.48
494.96	32744.09
495.14	32535.79
495.32	33167.73
495.49	33113.90
495.67	32816.65
495.85	33638.18
496.02	33354.97
496.20	33780.95
496.38	33830.10
496.55	33993.94
496.73	34410.56
496.91	34443.32
497.09	34366.09
497.26	34618.86
497.44	34742.91
497.62	34862.28
497.79	35400.60
497.97	35215.70
498.14	35786.79
498.32	35964.67
498.50	35962.33
498.67	36100.42
498.85	36222.13
499.03	36552.15
499.20	36690.24
499.38	36774.50
499.56	36699.60
499.73	36933.65
499.91	36891.52
500.08	37525.81
500.26	36912.59
500.44	37532.83
500.61	37607.73
500.79	37584.32
500.97	37411.12
501.14	38139.03
501.32	38316.91
501.49	38197.54
501.67	38352.02
501.84	38616.50
502.02	38604.80
502.20	38768.63
502.37	39044.82
502.55	38850.55
502.72	38906.73
502.90	39267.17
503.07	39304.62
503.25	39393.56
503.43	39744.64
503.60	39555.05
503.78	39871.03
503.95	40154.23
504.13	40472.54
504.30	40282.96
504.48	40318.07
504.65	40229.13
504.83	40816.60
505.01	41109.17
505.18	40818.94
505.36	41144.28
505.53	40863.41
505.71	41277.69
505.88	41640.47
506.06	41352.58
506.23	41633.45
506.41	41600.68
506.58	41759.84
506.76	41738.77
506.93	42223.26
507.11	41961.12
507.28	42391.78
507.46	42103.90
507.63	42569.66
507.81	42738.18
507.98	42480.72
508.16	42717.12
508.33	43000.32
508.50	43536.30
508.68	43290.55
508.85	43325.66
509.03	43253.10
509.20	43599.50
509.38	44004.41
509.55	44107.40
509.73	44222.08
509.90	44701.89
510.08	44460.82
510.25	44226.76
510.42	44509.97
510.60	44797.85
510.77	44811.90
510.95	45116.17
511.12	44917.22
511.30	44823.60
511.47	45343.20
511.64	45102.12
511.82	45682.58
511.99	45212.13
512.17	45354.90
512.34	45088.08
512.51	46206.86
512.69	46005.57
512.86	46143.66
513.04	46543.89
513.21	46113.23
513.38	46344.95
513.56	46431.55
513.73	46520.49
513.90	46834.12
514.08	46897.31
514.25	46799.01
514.43	47089.24
514.60	46967.53
514.77	47021.36
514.95	47810.12
515.12	47227.33
515.29	47061.15
515.47	47461.38
515.64	47625.22
515.81	47814.80
515.99	48154.18
516.16	48502.92
516.33	47913.11
516.51	48472.49
516.68	48182.27
516.85	48179.93
517.03	48498.24
517.20	48959.33
517.37	48706.55
517.54	48652.72
517.72	49195.72
517.89	48818.89
518.06	49013.16
518.24	49050.61
518.41	49024.86
518.58	48985.07
518.75	48879.75
518.93	49364.24
519.10	48774.42
519.27	49481.27
519.45	49357.22
519.62	49668.51
519.79	49352.54
519.96	49935.33
520.14	49595.95
520.31	49502.33
520.48	49771.49
520.65	50024.27
520.83	50064.06
521.00	50567.27
521.17	50007.89
521.34	50408.12
521.52	50625.79
521.69	50813.03
521.86	50770.90
522.03	50604.72
522.20	50684.30
522.38	51290.50
522.55	51199.22
522.72	51253.05
522.89	51107.94
523.07	51154.75
523.24	51171.13
523.41	51367.74
523.58	51084.53
523.75	51751.59
523.92	51578.39
524.10	51985.64
524.27	51774.99
524.44	51796.06
524.61	51737.54
524.78	51959.89
524.96	51877.97
525.13	51913.08
525.30	51749.24
525.47	52072.24
525.64	52271.18
525.81	52467.79
525.98	52423.32
526.16	52486.51
526.33	52200.97
526.50	52624.60
526.67	52795.46
526.84	52678.44
527.01	52708.86
527.18	52629.29
527.36	52671.42
527.53	53020.16
527.70	53003.77
527.87	53221.44
528.04	52987.39
528.21	53415.71
528.38	53050.58
528.55	53347.83
528.72	53125.48
528.89	52949.94
529.07	53198.04
529.24	53305.70
529.41	53373.58
529.58	53488.26
529.75	53558.48
529.92	53340.81
530.09	53717.64
530.26	53947.01
530.43	53963.39
530.60	53518.69
530.77	53542.10
530.94	54040.63
531.11	54073.40
531.28	53815.94
531.46	53773.81
531.63	53928.28
531.80	53605.29
531.97	54085.10
532.14	54372.99
532.31	54291.07
532.48	54160.00
532.65	54412.77
532.82	54447.88
532.99	54578.95
533.16	54260.64
533.33	54562.57
533.50	54607.04
533.67	54607.04
533.84	54508.74
534.01	54789.60
534.18	54721.72
534.35	54752.15
534.52	55112.59
534.69	55182.81
534.86	55203.88
535.03	54712.36
535.20	55056.42
535.37	55098.55
535.54	55018.97
535.71	55107.91
535.88	55384.10
536.05	55515.17
536.22	55456.65
536.38	55278.77
536.55	55304.52
536.72	55257.71
536.89	55201.53
537.06	55468.36
537.23	55377.08
537.40	55543.25
537.57	55267.07
537.74	55475.38
537.91	55650.92
538.08	55714.11
538.25	55428.57
538.42	55744.54
538.59	56093.28
538.75	55679.00
538.92	55908.38
539.09	55934.12
539.26	56051.15
539.43	55868.59
539.60	55978.59
539.77	55929.44
539.94	56507.55
540.11	56182.22
540.28	56233.71
540.44	56044.13
540.61	55992.64
540.78	56247.75
540.95	56406.91
541.12	56165.84
541.29	56294.56
541.46	56189.24
541.62	56591.81
541.79	56430.32
541.96	56355.42
542.13	56442.02
542.30	56610.54
542.47	56647.99
542.63	56596.49
542.80	56701.82
542.97	56591.81
543.14	57282.27
543.31	56956.94
543.48	57195.67
543.64	57371.21
543.81	57270.57
543.98	57137.16
544.15	57127.80
544.32	57322.06
544.48	57279.93
544.65	57429.72
544.82	57006.09
544.99	57109.07
545.16	57284.61
545.32	57205.03
545.49	57495.26
545.66	57560.79
545.83	57380.57
546.00	57413.34
546.16	57432.07
546.33	57354.83
546.50	57116.09
546.67	57563.14
546.83	57411.00
547.00	57401.64
547.17	57504.62
547.34	57689.52
547.50	57808.89
547.67	57874.43
547.84	57682.50
548.00	57799.53
548.17	57762.08
548.34	57968.05
548.51	57900.17
548.67	58061.67
548.84	57989.11
549.01	57904.85
549.18	57776.12
549.34	57846.34
549.51	58059.33
549.68	58244.23
549.84	58262.96
550.01	58178.70
550.18	58227.85
550.34	58183.38
550.51	58138.91
550.68	58429.13
550.84	58145.93
551.01	58436.16
551.18	58300.40
551.34	58216.14
551.51	58361.26
551.68	58396.37
551.84	58384.66
552.01	58361.26
552.18	58539.14
552.34	58169.33
552.51	58590.63
552.68	58452.54
552.84	58485.31
553.01	58754.47
553.18	58745.11
553.34	58789.58
553.51	58632.76
553.67	58578.93
553.84	58838.73
554.01	58749.79
554.17	58986.18
554.34	58812.98
554.51	58738.08
554.67	58817.66
554.84	58812.98
555.00	58562.54
555.17	58731.06
555.33	59023.63
555.50	58745.11
555.67	58667.87
555.83	58777.87
556.00	58887.88
556.16	59206.19
556.33	59131.29
556.50	58951.07
556.66	59100.87
556.83	59114.91
556.99	59269.39
557.16	59278.75
557.32	59363.01
557.49	59501.10
557.65	59236.62
557.82	59274.07
557.98	59227.26
558.15	59339.60
558.32	59208.53
558.48	59161.72
558.65	59475.35
558.81	59274.07
558.98	59339.60
559.14	59580.68
559.31	59405.14
559.47	59477.69
559.64	59688.34
559.80	59578.34
559.97	59618.13
560.13	59566.63
560.30	59334.92
560.46	59686.00
560.63	59606.42
560.79	59526.84
560.96	59636.85
561.12	59629.83
561.29	59587.70
561.45	59758.56
561.61	59676.64
561.78	59576.00
561.94	59543.23
562.11	59693.02
562.27	59760.90
562.44	59674.30
562.60	60018.36
562.77	59870.90
562.93	59711.75
563.10	59870.90
563.26	59676.64
563.42	59920.05
563.59	59992.61
563.75	59709.41
563.92	59847.50
564.08	59718.77
564.24	60025.38
564.41	59931.76
564.57	59840.48
564.74	59973.89
564.90	59777.28
565.07	59964.52
565.23	59875.58
565.39	59887.29
565.56	60030.06
565.72	59868.56
565.88	60072.19
566.05	60116.66
566.21	59891.97
566.38	60076.87
566.54	60142.41
566.70	60095.60
566.87	60229.01
567.03	60044.10
567.19	60229.01
567.36	60238.37
567.52	60322.63
567.68	60320.29
567.85	60200.92
568.01	60331.99
568.17	60186.88
568.34	60231.35
568.50	60111.98
568.66	60041.76
568.83	60210.28
568.99	60023.04
569.15	60275.82
569.32	60233.69
569.48	60076.87
569.64	60346.03
569.81	60385.82
569.97	60130.70
570.13	60388.16
570.30	60369.44
570.46	60203.26
570.62	60385.82
570.78	60285.18
570.95	60189.22
571.11	60446.68
571.27	60453.70
571.43	60484.12
571.60	60523.91
571.76	60411.57
571.92	60514.55
572.09	60341.35
572.25	60446.68
572.41	60331.99
572.57	60308.58
572.74	60666.69
572.90	60420.93
573.06	60336.67
573.22	60481.78
573.38	60444.33
573.55	60486.46
573.71	60757.97
573.87	60502.85
574.03	60423.27
574.20	60519.23
574.36	60610.51
574.52	60678.39
574.68	60537.96
574.84	60659.66
575.01	60514.55
575.17	60727.54
575.33	60540.30
575.49	60512.21
575.65	60540.30
575.82	60804.78
575.98	60624.56
576.14	60552.00
576.30	60734.56
576.46	60577.75
576.62	60528.59
576.79	60781.37
576.95	60514.55
577.11	60666.69
577.27	60598.81
577.43	60582.43
577.59	60423.27
577.75	60474.76
577.92	60505.19
578.08	60657.32
578.24	60757.97
578.40	60647.96
578.56	61020.11
578.72	60718.18
578.88	60718.18
579.04	60636.26
579.21	60718.18
579.37	60903.08
579.53	61015.43
579.69	60528.59
579.85	60591.79
580.01	60575.40
580.17	60474.76
580.33	60755.63
580.49	60954.57
580.65	60708.82
580.82	60739.24
580.98	60601.15
581.14	60582.43
581.30	60739.24
581.46	60676.05
581.62	60797.76
581.78	60544.98
581.94	60762.65
582.10	60673.71
582.26	60631.58
582.42	60652.64
582.58	60718.18
582.74	60647.96
582.90	60734.56
583.06	60734.56
583.22	60697.11
583.38	60671.37
583.54	60743.92
583.70	60690.09
583.86	60959.25
584.02	60521.57
584.18	60711.16
584.34	60853.93
584.50	60734.56
584.66	60900.74
584.82	60444.33
584.98	61034.15
585.14	60783.71
585.30	60853.93
585.46	60884.36
585.62	60853.93
585.78	60849.25
585.94	60622.22
586.10	60874.99
586.26	60917.12
586.42	60825.84
586.58	61034.15
586.74	60884.36
586.90	60872.65
587.06	60748.60
587.22	60942.87
587.38	60739.24
587.54	60874.99
587.70	61158.20
587.86	61048.19
588.02	60863.29
588.18	61001.38
588.34	60769.67
588.49	60867.97
