SpectraSuite Data File
++++++++++++++++++++++++++++++++++++
Date: Fri Oct 25 10:44:28 EDT 2013
User: price-jones
Dark Spectrum Present: No
Reference Spectrum Present: No
Number of Sampled Component Spectra: 1
Spectrometers: USB2+H05261
Integration Time (usec): 100000 (USB2+H05261)
Spectra Averaged: 1 (USB2+H05261)
Boxcar Smoothing: 0 (USB2+H05261)
Correct for Electrical Dark: No (USB2+H05261)
Strobe/Lamp Enabled: No (USB2+H05261)
Correct for Detector Non-linearity: No (USB2+H05261)
Correct for Stray Light: No (USB2+H05261)
Number of Pixels in Processed Spectrum: 2048
>>>>>Begin Processed Spectral Data<<<<<
365.73	161.50
365.92	161.50
366.12	161.50
366.32	53.83
366.52	37.45
366.72	0.00
366.91	16.38
367.11	51.49
367.31	39.79
367.51	67.88
367.70	28.09
367.90	72.56
368.10	0.00
368.30	58.51
368.49	14.04
368.69	51.49
368.89	32.77
369.09	16.38
369.28	84.26
369.48	72.56
369.68	67.88
369.87	91.28
370.07	44.47
370.27	107.66
370.47	248.10
370.66	369.80
370.86	407.25
371.06	470.45
371.25	451.72
371.45	435.34
371.65	393.21
371.84	430.66
372.04	449.38
372.24	505.56
372.44	575.77
372.63	557.05
372.83	531.30
373.03	484.49
373.22	550.03
373.42	500.87
373.62	531.30
373.81	538.32
374.01	589.82
374.21	613.22
374.40	543.00
374.60	545.34
374.79	486.83
374.99	636.63
375.19	622.58
375.38	617.90
375.58	582.79
375.78	578.11
375.97	622.58
376.17	641.31
376.37	547.69
376.56	550.03
376.76	599.18
376.95	566.41
377.15	697.48
377.35	613.22
377.54	737.27
377.74	592.16
377.93	596.84
378.13	685.78
378.33	711.52
378.52	636.63
378.72	624.92
378.91	662.37
379.11	667.05
379.31	718.54
379.50	641.31
379.70	704.50
379.89	760.67
380.09	702.16
380.28	650.67
380.48	725.57
380.68	664.71
380.87	653.01
381.07	596.84
381.26	779.40
381.46	650.67
381.65	699.82
381.85	697.48
382.04	664.71
382.24	718.54
382.43	667.05
382.63	748.97
382.83	732.59
383.02	732.59
383.22	795.78
383.41	713.86
383.61	779.40
383.80	795.78
384.00	713.86
384.19	779.40
384.39	833.23
384.58	777.06
384.78	816.85
384.97	926.85
385.17	821.53
385.36	821.53
385.56	802.80
385.75	858.98
385.95	854.30
386.14	823.87
386.34	800.46
386.53	823.87
386.72	786.42
386.92	842.59
387.11	849.61
387.31	875.36
387.50	856.64
387.70	870.68
387.89	882.38
388.09	905.79
388.28	854.30
388.48	940.90
388.67	908.13
388.86	964.30
389.06	894.08
389.25	915.15
389.45	978.34
389.64	873.02
389.84	992.39
390.03	1004.09
390.22	1062.60
390.42	1039.20
390.61	926.85
390.81	1057.92
391.00	994.73
391.19	1090.69
391.39	1128.14
391.58	1022.81
391.78	1125.80
391.97	1020.47
392.16	1020.47
392.36	1043.88
392.55	1067.28
392.75	1034.52
392.94	985.37
393.13	1160.91
393.33	1071.97
393.52	1074.31
393.71	1032.18
393.91	1081.33
394.10	1090.69
394.29	1142.18
394.49	1186.65
394.68	1184.31
394.88	1158.57
395.07	1357.51
395.26	1242.82
395.46	1210.06
395.65	1310.70
395.84	1149.20
396.04	1228.78
396.23	1184.31
396.42	1198.35
396.62	1179.63
396.81	1205.38
397.00	1249.85
397.19	1266.23
397.39	1294.32
397.58	1390.28
397.77	1303.68
397.97	1469.86
398.16	1418.36
398.35	1495.60
398.55	1476.88
398.74	1488.58
398.93	1504.96
399.12	1418.36
399.32	1565.82
399.51	1563.48
399.70	1504.96
399.90	1600.93
400.09	1696.89
400.28	1668.80
400.47	1654.76
400.67	1680.50
400.86	1654.76
401.05	1673.48
401.24	1734.34
401.44	1790.51
401.63	1696.89
401.82	1696.89
402.01	1743.70
402.21	1771.79
402.40	1783.49
402.59	1715.61
402.78	1764.76
402.97	1776.47
403.17	1753.06
403.36	1832.64
403.55	1912.22
403.74	1877.11
403.93	1874.77
404.13	1916.90
404.32	1930.94
404.51	1806.89
404.70	1888.81
404.89	1851.36
405.09	2003.50
405.28	1984.77
405.47	1919.24
405.66	2017.54
405.85	2062.01
406.05	1994.14
406.24	1975.41
406.43	1947.33
406.62	2106.48
406.81	2190.74
407.00	2050.31
407.20	2125.21
407.39	2106.48
407.58	2186.06
407.77	2256.28
407.96	2202.44
408.15	2331.17
408.34	2223.51
408.54	2321.81
408.73	2427.14
408.92	2361.60
409.11	2385.01
409.30	2399.05
409.49	2270.32
409.68	2277.34
409.87	2186.06
410.07	2305.43
410.26	2424.80
410.45	2431.82
410.64	2495.01
410.83	2504.37
411.02	2562.89
411.21	2654.17
411.40	2495.01
411.59	2590.97
411.78	2656.51
411.98	2679.91
412.17	2726.72
412.36	2700.98
412.55	2818.00
412.74	2829.71
412.93	2796.94
413.12	2803.96
413.31	2949.08
413.50	2848.43
413.69	2878.86
413.88	3007.59
414.07	2944.39
414.26	2881.20
414.45	2970.14
414.64	3023.97
414.83	3136.32
415.02	3143.34
415.22	3183.13
415.41	3159.72
415.60	3206.53
415.79	3297.81
415.98	3379.73
416.17	3349.31
416.36	3279.09
416.55	3243.98
416.74	3421.86
416.93	3302.50
417.12	3243.98
417.31	3435.91
417.50	3405.48
417.69	3454.63
417.88	3410.16
418.07	3412.50
418.26	3445.27
418.45	3449.95
418.64	3669.96
418.83	3552.93
419.02	3501.44
419.21	3592.72
419.39	3590.38
419.58	3555.27
419.77	3623.15
419.96	3761.24
420.15	3737.84
420.34	3840.82
420.53	3803.37
420.72	3913.38
420.91	3782.31
421.10	3761.24
421.29	3978.91
421.48	3899.33
421.67	3892.31
421.86	3836.14
422.05	3850.18
422.24	3742.52
422.43	3822.09
422.61	3868.91
422.80	4044.45
422.99	3934.44
423.18	4053.81
423.37	4011.68
423.56	3967.21
423.75	3974.23
423.94	3927.42
424.13	3723.79
424.32	3859.54
424.50	4131.05
424.69	4032.74
424.88	4009.34
425.07	3995.29
425.26	3974.23
425.45	3999.98
425.64	4065.51
425.83	4002.32
426.01	4079.55
426.20	4053.81
426.39	4014.02
426.58	4023.38
426.77	3920.40
426.96	4028.06
427.15	4067.85
427.33	4098.28
427.52	4067.85
427.71	4168.49
427.90	4229.35
428.09	4318.29
428.28	4142.75
428.46	4205.94
428.65	4145.09
428.84	4365.10
429.03	4255.09
429.22	4248.07
429.40	4177.86
429.59	4245.73
429.78	3896.99
429.97	3974.23
430.16	4156.79
430.34	4177.86
430.53	4081.89
430.72	4318.29
430.91	4355.74
431.10	4346.37
431.28	4533.62
431.47	4671.71
431.66	4711.50
431.85	4582.77
432.03	4730.22
432.22	4753.63
432.41	4730.22
432.60	4711.50
432.79	4835.55
432.97	4798.10
433.16	4828.53
433.35	4655.33
433.54	4636.60
433.72	4765.33
433.91	4683.41
434.10	4816.82
434.28	4767.67
434.47	4830.87
434.66	5041.51
434.85	4994.70
435.03	5050.88
435.22	5022.79
435.41	5097.69
435.59	5064.92
435.78	5060.24
435.97	5181.95
436.16	5158.54
436.34	5203.01
436.53	5121.09
436.72	5303.65
436.90	5055.56
437.09	5296.63
437.28	5095.35
437.46	5188.97
437.65	5313.02
437.84	5172.58
438.02	5217.05
438.21	5348.12
438.40	5095.35
438.58	5362.17
438.77	5614.95
438.96	5547.07
439.14	5509.62
439.33	5582.18
439.52	5724.95
439.70	5717.93
439.89	5788.14
440.08	5738.99
440.26	5797.51
440.45	5746.02
440.63	5895.81
440.82	5912.19
441.01	6090.07
441.19	5968.37
441.38	6132.20
441.57	6087.73
441.75	6237.53
441.94	6438.81
442.12	6478.60
442.31	6511.37
442.50	6445.84
442.68	6291.36
442.87	6530.09
443.05	6469.24
443.24	6719.68
443.43	6518.39
443.61	6427.11
443.80	6665.85
443.98	6394.34
444.17	6221.14
444.35	6649.46
444.54	6785.21
444.73	6607.33
444.91	6569.88
445.10	6443.49
445.28	6560.52
445.47	6544.14
445.65	6420.09
445.84	6546.48
446.02	6640.10
446.21	6677.55
446.39	6424.77
446.58	6698.61
446.77	6965.43
446.95	6490.31
447.14	6738.40
447.32	6665.85
447.51	6806.28
447.69	6750.10
447.88	6698.61
448.06	6626.06
448.25	6663.51
448.43	6963.09
448.62	6532.44
448.80	6705.63
448.99	6979.48
449.17	6881.18
449.36	6888.20
449.54	6913.94
449.73	7068.42
449.91	7180.76
450.10	7026.29
450.28	7314.17
450.46	7199.49
450.65	7405.46
450.83	7382.05
451.02	7143.32
451.20	7405.46
451.39	7344.60
451.57	7372.69
451.76	7157.36
451.94	7243.96
452.13	7332.90
452.31	7169.06
452.49	7089.48
452.68	7178.42
452.86	7204.17
453.05	7377.37
453.23	7330.56
453.42	7267.36
453.60	7506.10
453.78	7499.08
453.97	7576.31
454.15	7391.41
454.34	7555.25
454.52	7646.53
454.70	7719.09
454.89	7714.41
455.07	7627.81
455.26	7751.85
455.44	7903.99
455.62	7644.19
455.81	7906.33
455.99	7880.58
456.17	7836.11
456.36	8049.10
456.54	7857.18
456.73	7896.97
456.91	8203.58
457.09	8098.25
457.28	8168.47
457.46	8058.46
457.64	8191.88
457.83	8329.97
458.01	8126.34
458.19	8290.18
458.38	8049.10
458.56	8290.18
458.74	8229.32
458.93	8475.08
459.11	8283.16
459.29	8365.07
459.48	8568.70
459.66	8468.06
459.84	8683.39
460.03	8695.09
460.21	8503.17
460.39	8517.21
460.57	8601.47
460.76	8500.83
460.94	8706.79
461.12	8734.88
461.31	8753.60
461.49	8638.92
461.67	8931.48
461.85	8821.48
462.04	8870.63
462.22	8847.22
462.40	9137.45
462.59	8971.27
462.77	9053.19
462.95	9043.83
463.13	8814.46
463.32	9046.17
463.50	8842.54
463.68	9121.07
463.86	9074.26
464.05	8992.34
464.23	8975.95
464.41	9123.41
464.59	8854.25
464.78	9390.23
464.96	9130.43
465.14	9076.60
465.32	9207.67
465.50	9399.59
465.69	9334.06
465.87	9125.75
466.05	9139.79
466.23	9308.31
466.41	9282.56
466.60	9413.63
466.78	9139.79
466.96	9231.07
467.14	9495.55
467.32	9439.38
467.51	9378.53
467.69	9331.72
467.87	9401.93
468.05	9596.20
468.23	9689.82
468.41	9687.48
468.60	9680.46
468.78	9764.72
468.96	9568.11
469.14	9907.49
469.32	9811.53
469.50	9486.19
469.69	9895.78
469.87	10019.83
470.05	9944.94
470.23	9902.81
470.41	10101.75
470.59	10136.86
470.77	9921.53
470.95	10017.49
471.14	10045.58
471.32	9809.19
471.50	10415.38
471.68	10312.40
471.86	10520.71
472.04	10338.15
472.22	10810.93
472.40	10544.11
472.58	10307.72
472.77	10677.52
472.95	10499.64
473.13	10937.32
473.31	10579.22
473.49	10523.05
473.67	10719.65
473.85	10883.49
474.03	11089.46
474.21	10946.69
474.39	11068.39
474.57	11098.82
474.75	11260.32
474.93	11325.85
475.12	11384.37
475.30	11171.38
475.48	11166.70
475.66	11447.56
475.84	11372.66
476.02	11515.44
476.20	11548.20
476.38	11632.46
476.56	12070.14
476.74	12046.74
476.92	11974.18
477.10	11723.74
477.28	12149.72
477.46	12081.85
477.64	12379.09
477.82	12552.29
478.00	12657.62
478.18	12704.43
478.36	12681.02
478.54	12802.73
478.72	12847.20
478.90	12870.61
479.08	13125.72
479.26	13343.39
479.44	13170.19
479.62	13287.22
479.80	13441.70
479.98	13380.84
480.16	13947.25
480.34	13799.80
480.52	13909.80
480.70	14054.92
480.88	13792.78
481.06	13998.74
481.24	14185.99
481.41	14305.35
481.59	14530.05
481.77	14525.36
481.95	14586.22
482.13	14586.22
482.31	14663.46
482.49	14958.36
482.67	14949.00
482.85	15215.82
483.03	15281.36
483.21	15314.13
483.39	15599.67
483.57	15358.60
483.74	15421.79
483.92	15868.83
484.10	15758.83
484.28	16166.08
484.46	16278.43
484.64	16444.60
484.82	16004.58
485.00	16545.25
485.18	16613.12
485.35	16868.24
485.53	16322.90
485.71	16301.83
485.89	16947.82
486.07	16475.03
486.25	16879.94
486.43	17003.99
486.61	17231.02
486.78	17497.84
486.96	17500.19
487.14	18082.98
487.32	18073.62
487.50	18024.47
487.68	18263.20
487.85	18668.11
488.03	18764.07
488.21	18796.84
488.39	18883.44
488.57	18801.52
488.75	18862.38
488.92	19597.31
489.10	19833.70
489.28	19419.42
489.46	19819.66
489.64	19950.73
489.81	20519.48
489.99	20269.04
490.17	20472.67
490.35	20601.40
490.53	20521.82
490.70	20615.44
490.88	20851.83
491.06	20872.90
491.24	20912.69
491.41	21064.82
491.59	20805.02
491.77	20863.54
491.95	21443.99
492.13	21137.38
492.30	21687.40
492.48	21919.12
492.66	22005.72
492.84	22033.80
493.01	22335.73
493.19	22169.55
493.37	22298.28
493.54	22530.00
493.72	22845.97
493.90	23035.55
494.08	22862.35
494.25	23311.74
494.43	23255.56
494.61	23903.89
494.79	23882.83
494.96	23608.98
495.14	23522.38
495.32	23917.93
495.49	23868.78
495.67	24156.67
495.85	24507.75
496.02	24367.32
496.20	24922.02
496.38	24465.62
496.55	25006.28
496.73	25329.28
496.91	24538.18
497.09	24985.22
497.26	25172.46
497.44	25350.34
497.62	25713.13
497.79	25535.24
497.97	25476.73
498.14	25528.22
498.32	26061.87
498.50	25797.38
498.67	26434.01
498.85	26450.39
499.03	26515.93
499.20	26742.96
499.38	26771.05
499.56	26541.68
499.73	26967.65
499.91	26967.65
500.08	26965.31
500.26	26721.90
500.44	27049.57
500.61	26888.07
500.79	27049.57
500.97	27075.32
501.14	27421.72
501.32	27192.34
501.49	27417.04
501.67	27384.27
501.84	27878.12
502.02	27578.53
502.20	27955.36
502.37	28039.62
502.55	27707.26
502.72	28205.80
502.90	28290.06
503.07	28318.14
503.25	28556.88
503.43	28257.29
503.60	28397.72
503.78	28404.74
503.95	28390.70
504.13	28819.02
504.30	28779.23
504.48	29177.12
504.65	29118.60
504.83	29521.18
505.01	29247.33
505.18	29200.52
505.36	29944.81
505.53	29593.73
505.71	29937.79
505.88	30022.05
506.06	29310.53
506.23	29909.71
506.41	29483.73
506.58	29998.65
506.76	30038.44
506.93	30094.61
507.11	30225.68
507.28	30511.22
507.46	29862.90
507.63	30284.19
507.81	30679.74
507.98	30139.08
508.16	30822.51
508.33	30560.37
508.50	30623.57
508.68	31386.58
508.85	31817.24
509.03	31407.65
509.20	31206.36
509.38	31569.15
509.55	31491.91
509.73	31665.11
509.90	31737.66
510.08	31599.57
510.25	31681.49
510.42	31906.18
510.60	32091.09
510.77	32137.90
510.95	32327.48
511.12	32163.64
511.30	32432.80
511.47	32858.78
511.64	32547.49
511.82	32767.50
511.99	32549.83
512.17	32687.92
512.34	32395.35
512.51	33179.43
512.69	32765.16
512.86	32870.48
513.04	33539.88
513.21	33123.26
513.38	32872.82
513.56	33120.92
513.73	32638.77
513.90	33017.94
514.08	33127.94
514.25	33209.86
514.43	33659.24
514.60	33640.52
514.77	33635.84
514.95	33593.71
515.12	33998.62
515.29	33839.47
515.47	34171.82
515.64	34361.40
515.81	34115.65
515.99	34117.99
516.16	33881.60
516.33	33797.34
516.51	33680.31
516.68	33666.27
516.85	33596.05
517.03	33956.49
517.20	34286.51
517.37	34588.44
517.54	34899.73
517.72	34855.26
517.89	34146.08
518.06	34429.28
518.24	34178.84
518.41	35150.17
518.58	35026.12
518.75	34864.62
518.93	35136.12
519.10	35140.80
519.27	35599.55
519.45	35424.01
519.62	35239.11
519.79	35988.08
519.96	36018.50
520.14	36084.04
520.31	35786.79
520.48	35541.03
520.65	36002.12
520.83	36058.29
521.00	36474.91
521.17	36339.16
521.34	36023.19
521.52	36292.35
521.69	36374.27
521.86	36751.09
522.03	36210.43
522.20	36449.16
522.38	36746.41
522.55	36847.05
522.72	36931.31
522.89	36278.30
523.07	37097.49
523.24	36727.69
523.41	37207.50
523.58	37340.91
523.75	37493.04
523.92	37521.13
524.10	37839.44
524.27	37607.73
524.44	37675.60
524.61	37663.90
524.78	37682.62
524.96	37996.26
525.13	38136.69
525.30	38234.99
525.47	38455.00
525.64	37968.17
525.81	38178.82
525.98	37715.39
526.16	37497.72
526.33	37368.99
526.50	38073.49
526.67	37345.59
526.84	37612.41
527.01	37691.99
527.18	37738.80
527.36	38422.23
527.53	38356.70
527.70	39063.54
527.87	38967.58
528.04	38712.46
528.21	38700.76
528.38	38707.78
528.55	39538.67
528.72	39178.23
528.89	39323.34
529.07	39463.77
529.24	39210.99
529.41	39426.32
529.58	39007.37
529.75	38951.20
529.92	39047.16
530.09	39086.95
530.26	39218.02
530.43	39461.43
530.60	39728.25
530.77	39814.85
530.94	39674.42
531.11	40137.85
531.28	40074.65
531.46	40203.38
531.63	39854.64
531.80	39119.71
531.97	39971.67
532.14	39606.55
532.31	39466.11
532.48	40119.12
532.65	40016.14
532.82	39910.82
532.99	40081.67
533.16	39992.73
533.33	40350.84
533.50	40404.67
533.67	40357.86
533.84	39988.05
534.01	40793.20
534.18	40364.88
534.35	40762.77
534.52	40512.33
534.69	40751.07
534.86	40554.46
535.03	40552.12
535.20	41446.21
535.37	41174.70
535.54	41099.81
535.71	41375.99
535.88	41228.54
536.05	40924.27
536.22	41378.33
536.38	40931.29
536.55	40971.08
536.72	41134.92
536.89	40968.74
537.06	41907.29
537.23	41193.43
537.40	41666.22
537.57	41787.92
537.74	41256.62
537.91	41542.17
538.08	41598.34
538.25	41502.38
538.42	42012.62
538.59	42110.92
538.75	41123.21
538.92	41727.07
539.09	41930.70
539.26	41944.74
539.43	41521.10
539.60	41621.75
539.77	41621.75
539.94	41710.69
540.11	41446.21
540.28	41745.80
540.44	41418.12
540.61	41816.01
540.78	41766.86
540.95	42029.00
541.12	41713.03
541.29	42354.33
541.46	42141.35
541.62	42232.63
541.79	42593.07
541.96	41577.28
542.13	42171.77
542.30	42178.79
542.47	42663.28
542.63	42148.37
542.80	42644.56
542.97	42789.67
543.14	43016.71
543.31	42880.95
543.48	43082.24
543.64	43625.25
543.81	43133.73
543.98	42990.96
544.15	42899.68
544.32	43131.39
544.48	43393.53
544.65	43419.28
544.82	43283.53
544.99	43089.26
545.16	43505.88
545.32	43290.55
545.49	43749.29
545.66	43653.33
545.83	43873.34
546.00	44105.06
546.16	43702.48
546.33	43330.34
546.50	43274.16
546.67	43566.73
546.83	43903.77
547.00	43519.92
547.17	43679.08
547.34	43480.13
547.50	43934.20
547.67	43515.24
547.84	43814.83
548.00	44114.42
548.17	44144.84
548.34	43889.73
548.51	44282.94
548.67	44626.99
548.84	44179.95
549.01	44025.48
549.18	43887.39
549.34	44697.21
549.51	44421.03
549.68	44528.69
549.84	44376.56
550.01	44657.42
550.18	44243.15
550.34	44404.64
550.51	44399.96
550.68	44535.71
550.84	44072.29
551.01	44289.96
551.18	43868.66
551.34	44409.32
551.51	44402.30
551.68	44648.06
551.84	44996.80
552.01	44477.20
552.18	44758.06
552.34	44561.46
552.51	44769.77
552.68	44533.37
552.84	44811.90
553.01	45038.93
553.18	44568.48
553.34	45088.08
553.51	44467.84
553.67	44961.69
553.84	45375.97
554.01	45099.78
554.17	45092.76
554.34	45413.41
554.51	45221.49
554.67	45305.75
554.84	45130.21
555.00	45188.72
555.17	45200.43
555.33	45277.66
555.50	45083.40
555.67	45043.61
555.83	45144.25
556.00	45373.63
556.16	45134.89
556.33	45432.14
556.50	45397.03
556.66	45661.51
556.83	45092.76
556.99	45455.54
557.16	45799.60
557.32	45600.66
557.49	45649.81
557.65	45052.97
557.82	45230.85
557.98	45897.91
558.15	45116.17
558.32	45745.77
558.48	45502.35
558.65	45270.64
558.81	45074.04
558.98	45413.41
559.14	45439.16
559.31	45390.01
559.47	45546.82
559.64	45652.15
559.80	45579.59
559.97	45921.31
560.13	45607.68
560.30	45682.58
560.46	45764.49
560.63	46330.90
560.79	46080.47
560.96	46220.90
561.12	45923.65
561.29	45752.79
561.45	45886.20
561.61	45771.52
561.78	45954.08
561.94	45558.53
562.11	45830.03
562.27	45680.24
562.44	45565.55
562.60	45848.75
562.77	46415.16
562.93	45680.24
563.10	46543.89
563.26	45677.90
563.42	46099.19
563.59	45937.69
563.75	46028.98
563.92	45794.92
564.08	46188.13
564.24	45972.80
564.41	45769.18
564.57	45841.73
564.74	45991.53
564.90	45949.40
565.07	45909.61
565.23	46270.05
565.39	45762.15
565.56	45626.40
565.72	45993.87
565.88	46183.45
566.05	45937.69
566.21	45848.75
566.38	46164.73
566.54	46309.84
566.70	46019.61
566.87	46337.93
567.03	46281.75
567.19	46211.54
567.36	46241.96
567.52	46092.17
567.68	46162.39
567.85	46185.79
568.01	46344.95
568.17	46078.13
568.34	46431.55
568.50	46300.48
568.66	45977.48
568.83	46550.91
568.99	46054.72
569.15	46024.29
569.32	46213.88
569.48	46167.07
569.64	45956.42
569.81	46185.79
569.97	46227.92
570.13	46689.01
570.30	45900.25
570.46	46436.23
570.62	46260.69
570.78	46153.02
570.95	46089.83
571.11	46122.60
571.27	45823.01
571.43	46316.86
571.60	46344.95
571.76	45961.10
571.92	46206.86
572.09	46754.54
572.25	46082.81
572.41	46354.31
572.57	46319.20
572.74	46312.18
572.90	46258.35
573.06	46672.62
573.22	46270.05
573.38	46326.22
573.55	45904.93
573.71	46684.33
573.87	46431.55
574.03	46323.88
574.20	46319.20
574.36	46408.14
574.52	45970.46
574.68	46354.31
574.84	46553.26
575.01	46579.00
575.17	46382.40
575.33	46300.48
575.49	46305.16
575.65	46370.69
575.82	46429.21
575.98	46043.02
576.14	46946.47
576.30	46691.35
576.46	46705.39
576.62	46342.61
576.79	46745.18
576.95	46178.77
577.11	46387.08
577.27	46677.30
577.43	46164.73
577.59	46253.67
577.75	46401.12
577.92	45951.74
578.08	45993.87
578.24	46052.38
578.40	45741.09
578.56	46541.55
578.72	46581.34
578.88	46689.01
579.04	46674.96
579.21	46199.83
579.37	46958.17
579.53	46080.47
579.69	46052.38
579.85	46990.94
580.01	46396.44
580.17	46649.22
580.33	46504.10
580.49	46373.03
580.65	46534.53
580.82	46553.26
580.98	46403.46
581.14	46216.22
581.30	46649.22
581.46	46445.59
581.62	46518.15
581.78	46457.29
581.94	46885.61
582.10	46274.73
582.26	46454.95
582.42	46403.46
582.58	46185.79
582.74	46391.76
582.90	46831.78
583.06	47122.01
583.22	46539.21
583.38	46880.93
583.54	47114.98
583.70	46504.10
583.86	46398.78
584.02	46246.65
584.18	46588.36
584.34	46490.06
584.50	46492.40
584.66	46492.40
584.82	46192.81
584.98	46763.90
585.14	46628.15
585.30	45970.46
585.46	46916.04
585.62	46061.74
585.78	46461.97
585.94	46080.47
586.10	46335.59
586.26	46735.82
586.42	46698.37
586.58	47000.30
586.74	46499.42
586.90	46153.02
587.06	46162.39
587.22	46822.42
587.38	46167.07
587.54	46461.97
587.70	46368.35
587.86	46946.47
588.02	47002.64
588.18	46684.33
588.34	46504.10
588.49	45778.54
588.65	45911.95
588.81	45991.53
588.97	46148.34
589.13	46096.85
589.29	46284.09
589.45	46281.75
589.61	46433.89
589.77	46724.11
589.93	46628.15
