SpectraSuite Data File
++++++++++++++++++++++++++++++++++++
Date: Fri Oct 25 11:25:46 EDT 2013
User: price-jones
Dark Spectrum Present: No
Reference Spectrum Present: No
Number of Sampled Component Spectra: 1
Spectrometers: USB2+H05261
Integration Time (usec): 100000 (USB2+H05261)
Spectra Averaged: 1 (USB2+H05261)
Boxcar Smoothing: 0 (USB2+H05261)
Correct for Electrical Dark: No (USB2+H05261)
Strobe/Lamp Enabled: No (USB2+H05261)
Correct for Detector Non-linearity: No (USB2+H05261)
Correct for Stray Light: No (USB2+H05261)
Number of Pixels in Processed Spectrum: 2048
>>>>>Begin Processed Spectral Data<<<<<
365.73	205.97
365.92	205.97
366.12	205.97
366.32	182.56
366.52	95.96
366.72	145.11
366.91	107.66
367.11	145.11
367.31	147.45
367.51	121.71
367.70	126.39
367.90	208.31
368.10	210.65
368.30	161.50
368.49	149.79
368.69	217.67
368.89	128.73
369.09	124.05
369.28	203.63
369.48	177.88
369.68	271.50
369.87	259.80
370.07	180.22
370.27	187.24
370.47	367.46
370.66	594.50
370.86	657.69
371.06	669.39
371.25	676.41
371.45	645.99
371.65	676.41
371.84	608.54
372.04	669.39
372.24	676.41
372.44	697.48
372.63	758.33
372.83	784.08
373.03	669.39
373.22	688.12
373.42	779.40
373.62	779.40
373.81	807.48
374.01	788.76
374.21	835.57
374.40	791.10
374.60	875.36
374.79	800.46
374.99	765.36
375.19	866.00
375.38	889.40
375.58	840.25
375.78	807.48
375.97	830.89
376.17	1025.15
376.37	791.10
376.56	858.98
376.76	837.91
376.95	896.43
377.15	929.19
377.35	830.89
377.54	866.00
377.74	882.38
377.93	915.15
378.13	957.28
378.33	966.64
378.52	866.00
378.72	868.34
378.91	961.96
379.11	968.98
379.31	968.98
379.50	915.15
379.70	1081.33
379.89	976.00
380.09	894.08
380.28	978.34
380.48	964.30
380.68	990.05
380.87	1034.52
381.07	919.83
381.26	968.98
381.46	985.37
381.65	1104.73
381.85	971.32
382.04	1022.81
382.24	1104.73
382.43	1001.75
382.63	976.00
382.83	999.41
383.02	1057.92
383.22	1149.20
383.41	1088.35
383.61	1083.67
383.80	1149.20
384.00	1093.03
384.19	1123.46
384.39	1116.44
384.58	1144.52
384.78	1172.61
384.97	1128.14
385.17	1088.35
385.36	1142.18
385.56	1196.01
385.75	1132.82
385.95	1086.01
386.14	1174.95
386.34	1191.33
386.53	1060.26
386.72	1135.16
386.92	1235.80
387.11	1294.32
387.31	1259.21
387.50	1198.35
387.70	1270.91
387.89	1294.32
388.09	1320.06
388.28	1282.61
388.48	1327.08
388.67	1301.34
388.86	1317.72
389.06	1282.61
389.25	1348.15
389.45	1324.74
389.64	1380.92
389.84	1479.22
390.03	1359.85
390.22	1373.89
390.42	1399.64
390.61	1350.49
390.81	1378.58
391.00	1446.45
391.19	1476.88
391.39	1467.52
391.58	1465.18
391.78	1401.98
391.97	1519.01
392.16	1423.05
392.36	1511.99
392.55	1507.30
392.75	1502.62
392.94	1502.62
393.13	1561.14
393.33	1488.58
393.52	1626.67
393.71	1607.95
393.91	1584.54
394.10	1689.87
394.29	1521.35
394.49	1603.27
394.68	1621.99
394.88	1605.61
395.07	1668.80
395.26	1729.66
395.46	1687.53
395.65	1675.82
395.84	1753.06
396.04	1703.91
396.23	1755.40
396.42	1760.08
396.62	1874.77
396.81	1842.00
397.00	1764.76
397.19	1748.38
397.39	1863.07
397.58	1811.57
397.77	1839.66
397.97	1863.07
398.16	1832.64
398.35	1944.99
398.55	1879.45
398.74	1858.39
398.93	1944.99
399.12	1863.07
399.32	1856.04
399.51	1916.90
399.70	2026.90
399.90	2001.16
400.09	1982.43
400.28	1944.99
400.47	2008.18
400.67	2050.31
400.86	2066.69
401.05	2111.16
401.24	2122.87
401.44	2143.93
401.63	2076.06
401.82	2186.06
402.01	2092.44
402.21	2150.95
402.40	2207.13
402.59	2218.83
402.78	2251.60
402.97	2150.95
403.17	2209.47
403.36	2176.70
403.55	2218.83
403.74	2324.15
403.93	2333.51
404.13	2389.69
404.32	2314.79
404.51	2324.15
404.70	2335.85
404.89	2415.43
405.09	2532.46
405.28	2476.29
405.47	2534.80
405.66	2520.76
405.85	2483.31
406.05	2513.74
406.24	2523.10
406.43	2523.10
406.62	2555.86
406.81	2630.76
407.00	2476.29
407.20	2567.57
407.39	2590.97
407.58	2588.63
407.77	2670.55
407.96	2738.43
408.15	2785.24
408.34	2729.06
408.54	2843.75
408.73	2771.19
408.92	2745.45
409.11	2848.43
409.30	2960.78
409.49	2803.96
409.68	2918.65
409.87	2991.20
410.07	3007.59
410.26	2963.12
410.45	2918.65
410.64	2904.60
410.83	2970.14
411.02	3129.30
411.21	3049.72
411.40	3075.46
411.59	3185.47
411.78	3141.00
411.98	3117.59
412.17	3194.83
412.36	3358.67
412.55	3187.81
412.74	3269.73
412.93	3407.82
413.12	3466.33
413.31	3419.52
413.50	3417.18
413.69	3515.48
413.88	3609.11
414.07	3590.38
414.26	3660.60
414.45	3618.47
414.64	3583.36
414.83	3714.43
415.02	3770.60
415.22	3882.95
415.41	3941.46
415.60	3920.40
415.79	4018.70
415.98	3929.76
416.17	3990.61
416.36	3887.63
416.55	3906.35
416.74	4053.81
416.93	3929.76
417.12	4100.62
417.31	4203.60
417.50	4065.51
417.69	4341.69
417.88	4337.01
418.07	4168.49
418.26	4222.33
418.45	4269.14
418.64	4463.40
418.83	4414.25
419.02	4512.55
419.21	4461.06
419.39	4636.60
419.58	4404.89
419.77	4456.38
419.96	4526.60
420.15	4475.10
420.34	4615.54
420.53	4531.28
420.72	4692.77
420.91	4533.62
421.10	4667.03
421.29	4690.43
421.48	4713.84
421.67	4730.22
421.86	4631.92
422.05	4809.80
422.24	4791.08
422.43	4765.33
422.61	4807.46
422.80	4903.42
422.99	4943.21
423.18	4929.17
423.37	5036.83
423.56	4833.21
423.75	4765.33
423.94	4917.47
424.13	4592.13
424.32	4669.37
424.50	4990.02
424.69	4997.04
424.88	5191.31
425.07	4840.23
425.26	4814.48
425.45	4865.97
425.64	4912.78
425.83	4924.49
426.01	5163.22
426.20	5020.45
426.39	4954.91
426.58	5090.67
426.77	5184.29
426.96	5048.54
427.15	5135.14
427.33	5034.49
427.52	5034.49
427.71	5224.08
427.90	5366.85
428.09	5294.29
428.28	5385.57
428.46	5327.06
428.65	5313.02
428.84	5296.63
429.03	5481.53
429.22	5350.46
429.40	5401.96
429.59	5362.17
429.78	5205.35
429.97	5348.12
430.16	5507.28
430.34	5502.60
430.53	5614.95
430.72	5603.24
430.91	5479.19
431.10	5392.59
431.28	5750.70
431.47	5717.93
431.66	5776.44
431.85	5666.44
432.03	5888.79
432.22	6017.52
432.41	5856.02
432.60	5902.83
432.79	6026.88
432.97	5905.17
433.16	5947.30
433.35	5973.05
433.54	6045.60
433.72	5987.09
433.91	6043.26
434.10	6195.40
434.28	6200.08
434.47	6200.08
434.66	6211.78
434.85	6307.74
435.03	6179.01
435.22	6120.50
435.41	6354.55
435.59	6303.06
435.78	6415.41
435.97	6354.55
436.16	6349.87
436.34	6277.32
436.53	6597.97
436.72	6511.37
436.90	6539.46
437.09	6572.22
437.28	6361.58
437.46	6609.67
437.65	6651.80
437.84	6616.69
438.02	6722.02
438.21	6703.29
438.40	6733.72
438.58	7059.06
438.77	6965.43
438.96	6867.13
439.14	7091.82
439.33	7232.26
439.52	7124.59
439.70	7162.04
439.89	7307.15
440.08	7456.95
440.26	7379.71
440.45	7290.77
440.63	7311.83
440.82	7543.55
441.01	7475.67
441.19	7522.48
441.38	7578.65
441.57	7728.45
441.75	7791.64
441.94	8126.34
442.12	7817.39
442.31	7974.21
442.50	7936.76
442.68	7779.94
442.87	8018.68
443.05	8091.23
443.24	8072.51
443.43	8168.47
443.61	8163.79
443.80	8308.90
443.98	8044.42
444.17	7784.62
444.35	8257.41
444.54	8229.32
444.73	8393.16
444.91	8205.92
445.10	8386.14
445.28	8135.70
445.47	8285.50
445.65	8091.23
445.84	8421.25
446.02	8599.13
446.21	8351.03
446.39	8280.82
446.58	8454.02
446.77	8463.38
446.95	8245.71
447.14	8353.37
447.32	8463.38
447.51	8549.98
447.69	8533.59
447.88	8652.96
448.06	8500.83
448.25	8472.74
448.43	8568.70
448.62	8512.53
448.80	8568.70
448.99	8645.94
449.17	8599.13
449.36	8674.03
449.54	8917.44
449.73	8926.80
449.91	8992.34
450.10	9006.38
450.28	9011.06
450.46	9041.49
450.65	9036.81
450.83	9008.72
451.02	9071.92
451.20	9053.19
451.39	9034.47
451.57	9041.49
451.76	8929.14
451.94	9179.58
452.13	9254.48
452.31	9174.90
452.49	8879.99
452.68	9441.72
452.86	9177.24
453.05	9497.89
453.23	9305.97
453.42	9430.02
453.60	9296.61
453.78	9575.13
453.97	9303.63
454.15	9362.14
454.34	9399.59
454.52	9631.30
454.70	9654.71
454.89	9816.21
455.07	9701.52
455.26	9769.40
455.44	9832.59
455.62	9966.00
455.81	9750.67
455.99	9879.40
456.17	9877.06
456.36	10043.24
456.54	10155.58
456.73	10293.68
456.91	10274.95
457.09	10286.65
457.28	10375.59
457.46	10518.37
457.64	10380.28
457.83	10335.81
458.01	10387.30
458.19	10436.45
458.38	10607.31
458.56	10731.36
458.74	10654.12
458.93	10789.87
459.11	10881.15
459.29	10806.25
459.48	10438.79
459.66	10684.55
459.84	10953.71
460.03	11138.61
460.21	10932.64
460.39	11009.88
460.57	11021.58
460.76	11061.37
460.94	11199.46
461.12	11323.51
461.31	11173.72
461.49	11037.97
461.67	11265.00
461.85	11344.58
462.04	11206.48
462.22	11644.17
462.40	11391.39
462.59	11522.46
462.77	11389.05
462.95	11522.46
463.13	11414.79
463.32	11300.11
463.50	11669.91
463.68	11700.34
463.86	11543.52
464.05	11557.57
464.23	11637.14
464.41	11866.52
464.59	11719.06
464.78	11829.07
464.96	12074.82
465.14	11779.92
465.32	11922.69
465.50	12105.25
465.69	12105.25
465.87	11962.48
466.05	12191.85
466.23	12074.82
466.41	12203.55
466.60	12372.07
466.78	12056.10
466.96	12016.31
467.14	12365.05
467.32	12126.32
467.51	12393.14
467.69	12058.44
467.87	12400.16
468.05	12547.61
468.23	12507.82
468.41	12262.07
468.60	12517.18
468.78	12826.14
468.96	12465.69
469.14	12884.65
469.32	12933.80
469.50	12613.15
469.69	13104.66
469.87	13116.36
470.05	13069.55
470.23	13209.98
470.41	13060.19
470.59	13013.38
470.77	13186.58
470.95	13437.02
471.14	13254.45
471.32	13135.09
471.50	13371.48
471.68	13570.43
471.86	13338.71
472.04	13919.17
472.22	13916.83
472.40	13500.21
472.58	13689.79
472.77	13657.03
472.95	14319.40
473.13	14558.13
473.31	14015.13
473.49	14057.26
473.67	14160.24
473.85	14176.62
474.03	14263.22
474.21	14403.66
474.39	14513.66
474.57	14546.43
474.75	14855.38
474.93	14768.78
475.12	14906.87
475.30	14892.83
475.48	15126.88
475.66	15206.46
475.84	15124.54
476.02	15384.34
476.20	15344.55
476.38	15428.81
476.56	16046.71
476.74	15576.27
476.92	15669.89
477.10	15714.36
477.28	16023.31
477.46	16135.65
477.64	16170.76
477.82	16505.46
478.00	16926.75
478.18	16617.80
478.36	16844.84
478.54	16975.91
478.72	17207.62
478.90	17357.41
479.08	17621.89
479.26	17563.38
479.44	17593.81
479.62	17640.62
479.80	17912.12
479.98	18162.56
480.16	18436.40
480.34	18183.62
480.52	18293.63
480.70	18459.81
480.88	18345.12
481.06	18689.18
481.24	18656.41
481.41	18909.19
481.59	19143.24
481.77	19218.14
481.95	19543.47
482.13	19342.19
482.31	19648.80
482.49	20255.00
482.67	20011.58
482.85	20121.59
483.03	20264.36
483.21	20561.61
483.39	21001.63
483.57	20577.99
483.74	21036.74
483.92	21195.89
484.10	20926.73
484.28	21553.99
484.46	22251.47
484.64	22520.63
484.82	21912.10
485.00	22029.12
485.18	22595.53
485.35	22654.05
485.53	22539.36
485.71	22726.60
485.89	23407.70
486.07	23061.30
486.25	23295.35
486.43	23508.34
486.61	23487.28
486.78	23953.04
486.96	23861.76
487.14	24402.43
487.32	24350.93
487.50	24587.33
487.68	24884.58
487.85	25247.36
488.03	25191.19
488.21	25537.59
488.39	25378.43
488.57	26073.57
488.75	25984.63
488.92	25998.67
489.10	26342.73
489.28	26710.19
489.46	27087.02
489.64	26700.83
489.81	27494.27
489.99	27477.89
490.17	27386.61
490.35	27618.32
490.53	27812.59
490.70	28074.73
490.88	27552.79
491.06	28767.52
491.24	28800.29
491.41	28954.77
491.59	29282.44
491.77	28828.38
491.95	29097.54
492.13	29720.12
492.30	29656.93
492.48	29647.57
492.66	30134.40
492.84	29979.92
493.01	30597.82
493.19	30738.26
493.37	30492.50
493.54	30920.82
493.72	31084.65
493.90	31246.15
494.08	31084.65
494.25	31702.56
494.43	31924.91
494.61	32006.83
494.79	32079.38
494.96	32432.80
495.14	32694.94
495.32	32828.35
495.49	33078.79
495.67	33010.92
495.85	33537.54
496.02	33289.44
496.20	33567.96
496.38	34043.09
496.55	33715.42
496.73	34726.53
496.91	34227.99
497.09	34628.23
497.26	34859.94
497.44	34841.21
497.62	35136.12
497.79	35463.80
497.97	35370.18
498.14	36027.87
498.32	36065.31
498.50	35777.43
498.67	36306.39
498.85	36285.33
499.03	37013.23
499.20	36444.48
499.38	36617.68
499.56	36521.72
499.73	36856.42
499.91	37158.34
500.08	37298.78
500.26	37378.36
500.44	37425.17
500.61	37708.37
500.79	37532.83
500.97	38162.43
501.14	38326.27
501.32	38286.48
501.49	38438.62
501.67	38885.66
501.84	39072.90
502.02	38646.93
502.20	39005.03
502.37	39084.61
502.55	39194.61
502.72	39285.89
502.90	39379.51
503.07	39210.99
503.25	39821.87
503.43	39524.63
503.60	39814.85
503.78	40175.30
503.95	40151.89
504.13	40158.91
504.30	40278.28
504.48	40102.74
504.65	40325.09
504.83	40327.43
505.01	41202.79
505.18	41216.83
505.36	41500.04
505.53	41212.15
505.71	41588.98
505.88	41127.89
506.06	41691.96
506.23	41647.49
506.41	41525.78
506.58	41436.84
506.76	41942.40
506.93	42108.58
507.11	41785.58
507.28	42436.25
507.46	42707.76
507.63	42824.78
507.81	42864.57
507.98	42719.46
508.16	42754.57
508.33	43407.58
508.50	43379.49
508.68	43466.09
508.85	43576.09
509.03	43569.07
509.20	43660.35
509.38	43878.02
509.55	44334.43
509.73	44168.25
509.90	44596.57
510.08	44486.56
510.25	44486.56
510.42	44741.68
510.60	44718.28
510.77	44959.35
510.95	45010.84
511.12	44996.80
511.30	44898.50
511.47	45062.33
511.64	45247.24
511.82	45560.87
511.99	45249.58
512.17	46078.13
512.34	45205.11
512.51	46260.69
512.69	45979.82
512.86	46305.16
513.04	46457.29
513.21	46120.26
513.38	46433.89
513.56	46639.86
513.73	46543.89
513.90	46604.75
514.08	46358.99
514.25	47054.13
514.43	47100.94
514.60	47372.44
514.77	47042.43
514.95	47746.93
515.12	47262.44
515.29	47669.69
515.47	47852.25
515.64	47931.83
515.81	47433.30
515.99	47821.83
516.16	48383.55
516.33	47969.28
516.51	48559.09
516.68	48067.58
516.85	47901.40
517.03	48662.08
517.20	48624.63
517.37	48299.30
517.54	48547.39
517.72	48786.13
517.89	48964.01
518.06	49048.27
518.24	48741.66
518.41	49123.16
518.58	48968.69
518.75	48942.94
518.93	49492.97
519.10	49071.67
519.27	49624.04
519.45	49382.96
519.62	49521.05
519.79	49808.94
519.96	49970.44
520.14	49806.60
520.31	49993.84
520.48	50115.55
520.65	50052.36
520.83	50286.41
521.00	50255.98
521.17	50433.86
521.34	50033.63
521.52	50773.24
521.69	50436.20
521.86	50478.33
522.03	50937.08
522.20	50969.85
522.38	51337.31
522.55	50901.97
522.72	51281.14
522.89	50831.75
523.07	51592.43
523.24	51473.06
523.41	51437.95
523.58	51129.00
523.75	51613.49
523.92	51559.66
524.10	51585.41
524.27	51920.10
524.44	51704.77
524.61	52105.01
524.78	51702.43
524.96	52137.77
525.13	51882.66
525.30	52460.77
525.47	52425.66
525.64	52456.09
525.81	52222.03
525.98	52200.97
526.16	52350.76
526.33	52479.49
526.50	53013.13
526.67	52699.50
526.84	52694.82
527.01	52928.87
527.18	52797.80
527.36	52753.33
527.53	52870.36
527.70	53162.93
527.87	53069.31
528.04	52861.00
528.21	53113.78
528.38	53104.41
528.55	53523.37
528.72	53172.29
528.89	53439.11
529.07	53310.38
529.24	53097.39
529.41	53249.53
529.58	53544.44
529.75	53357.19
529.92	53633.38
530.09	53399.32
530.26	53621.67
530.43	53551.46
530.60	53584.22
530.77	53586.57
530.94	53799.55
531.11	54005.52
531.28	53944.67
531.46	53916.58
531.63	54129.57
531.80	54328.52
531.97	54321.49
532.14	54152.97
532.31	54380.01
532.48	54312.13
532.65	54333.20
532.82	54216.17
532.99	54370.64
533.16	54330.86
533.33	54880.88
533.50	54796.62
533.67	54574.27
533.84	54656.19
534.01	54983.86
534.18	54632.78
534.35	54958.12
534.52	54623.42
534.69	55124.30
534.86	54852.80
535.03	55072.81
535.20	55086.85
535.37	55196.85
535.54	55236.64
535.71	54885.56
535.88	55140.68
536.05	55140.68
536.22	55461.33
536.38	55519.85
536.55	55402.82
536.72	55510.49
536.89	55224.94
537.06	55578.36
537.23	55835.82
537.40	55299.84
537.57	55433.25
537.74	55583.04
537.91	55812.41
538.08	55870.93
538.25	55344.31
538.42	55777.31
538.59	55863.91
538.75	55615.81
538.92	56039.45
539.09	56119.02
539.26	55936.46
539.43	55978.59
539.60	55934.12
539.77	56172.86
539.94	56229.03
540.11	56165.84
540.28	56186.90
540.44	56229.03
540.61	56334.35
540.78	56301.59
540.95	56329.67
541.12	56442.02
541.29	56334.35
541.46	56610.54
541.62	56306.27
541.79	56741.61
541.96	56378.82
542.13	56348.40
542.30	56451.38
542.47	56594.15
542.63	56610.54
542.80	56589.47
542.97	56849.27
543.14	57076.30
543.31	56860.97
543.48	57036.51
543.64	57326.74
543.81	57244.82
543.98	57022.47
544.15	57200.35
544.32	57462.49
544.48	57504.62
544.65	57118.43
544.82	57097.37
544.99	57102.05
545.16	57207.37
545.32	57111.41
545.49	57513.98
545.66	57668.46
545.83	57394.62
546.00	57715.27
546.16	57329.08
546.33	57364.19
546.50	57324.40
546.67	57513.98
546.83	57240.14
547.00	57553.77
547.17	57602.92
547.34	57628.67
547.50	57666.12
547.67	57961.03
547.84	57851.02
548.00	57918.90
548.17	58103.80
548.34	58064.01
548.51	58035.92
548.67	58035.92
548.84	57902.51
549.01	57841.66
549.18	58197.42
549.34	58220.83
549.51	58092.10
549.68	58178.70
549.84	58085.07
550.01	58159.97
550.18	58082.73
550.34	58347.21
550.51	58354.24
550.68	58368.28
550.84	57897.83
551.01	58365.94
551.18	58288.70
551.34	58291.04
551.51	58188.06
551.68	58045.29
551.84	58482.97
552.01	58319.13
552.18	58646.80
552.34	58419.77
552.51	58515.73
552.68	58398.71
552.84	58511.05
553.01	58625.74
553.18	58499.35
553.34	58705.32
553.51	58656.17
553.67	58571.91
553.84	58932.35
554.01	58897.24
554.17	58665.53
554.34	58951.07
554.51	58677.23
554.67	58812.98
554.84	58695.95
555.00	59061.08
555.17	58930.01
555.33	58759.15
555.50	58857.45
555.67	58850.43
555.83	58838.73
556.00	58948.73
556.16	59175.76
556.33	59091.51
556.50	59164.06
556.66	59299.81
556.83	59028.31
556.99	59082.14
557.16	59421.52
557.32	59260.02
557.49	59409.82
557.65	59304.49
557.82	59346.62
557.98	59030.65
558.15	59180.45
558.32	59344.28
558.48	59124.27
558.65	59346.62
558.81	59341.94
558.98	59283.43
559.14	59400.46
559.31	59325.56
559.47	59409.82
559.64	59531.53
559.80	59690.68
559.97	59433.22
560.13	59632.17
560.30	59545.57
560.46	59552.59
560.63	59498.76
560.79	59473.01
560.96	59805.37
561.12	59849.84
561.29	59512.80
561.45	59487.06
561.61	59751.54
561.78	59634.51
561.94	59625.15
562.11	59788.98
562.27	59650.89
562.44	59803.03
562.60	59845.16
562.77	59828.77
562.93	59744.51
563.10	60163.47
563.26	59522.16
563.42	59945.80
563.59	59985.59
563.75	60058.15
563.92	59803.03
564.08	59835.80
564.24	59884.95
564.41	59917.71
564.57	59973.89
564.74	59845.16
564.90	59763.24
565.07	59983.25
565.23	59807.71
565.39	60060.49
565.56	60032.40
565.72	60001.97
565.88	59952.82
566.05	59842.82
566.21	60310.92
566.38	59906.01
566.54	60186.88
566.70	60095.60
566.87	60116.66
567.03	60030.06
567.19	60214.96
567.36	59962.18
567.52	59957.50
567.68	60580.09
567.85	60168.15
568.01	60186.88
568.17	60245.39
568.34	60474.76
568.50	60390.50
568.66	60294.54
568.83	60303.90
568.99	60191.56
569.15	60423.27
569.32	60278.16
569.48	60135.38
569.64	60411.57
569.81	60322.63
569.97	60362.42
570.13	60184.54
570.30	60203.26
570.46	60418.59
570.62	60268.79
570.78	60392.84
570.95	60261.77
571.11	60530.93
571.27	60294.54
571.43	60472.42
571.60	60519.23
571.76	60502.85
571.92	60444.33
572.09	60331.99
572.25	60341.35
572.41	60589.45
572.57	60392.84
572.74	60610.51
572.90	60385.82
573.06	60395.18
573.22	60353.05
573.38	60610.51
573.55	60537.96
573.71	60568.38
573.87	60446.68
574.03	60420.93
574.20	60441.99
574.36	60615.19
574.52	60575.40
574.68	60472.42
574.84	60601.15
575.01	60617.53
575.17	60619.88
575.33	60523.91
575.49	60289.86
575.65	60636.26
575.82	60666.69
575.98	60619.88
576.14	60669.03
576.30	60947.55
576.46	60343.69
576.62	60865.63
576.79	60458.38
576.95	60434.97
577.11	60746.26
577.27	60580.09
577.43	60652.64
577.59	60526.25
577.75	60715.84
577.92	60619.88
578.08	60617.53
578.24	60650.30
578.40	60886.70
578.56	60912.44
578.72	60683.07
578.88	60762.65
579.04	60711.16
579.21	60591.79
579.37	60907.76
579.53	60931.17
579.69	60570.72
579.85	60680.73
580.01	60540.30
580.17	60680.73
580.33	60720.52
580.49	60652.64
580.65	60837.54
580.82	60678.39
580.98	60776.69
581.14	60786.05
581.30	60945.21
581.46	60654.98
581.62	60683.07
581.78	60685.41
581.94	60755.63
582.10	60715.84
582.26	60867.97
582.42	60577.75
582.58	60898.40
582.74	60835.20
582.90	60830.52
583.06	60867.97
583.22	60830.52
583.38	60863.29
583.54	60683.07
583.70	60823.50
583.86	60786.05
584.02	60654.98
584.18	60924.14
584.34	60743.92
584.50	60935.85
584.66	60825.84
584.82	60722.86
584.98	61090.32
585.14	60928.83
585.30	60968.61
585.46	60938.19
585.62	60786.05
585.78	60914.78
585.94	60683.07
586.10	60746.26
586.26	60676.05
586.42	60867.97
586.58	60788.39
586.74	60905.42
586.90	60889.04
587.06	60879.67
587.22	60992.02
587.38	60970.96
587.54	60800.10
587.70	61083.30
587.86	60956.91
588.02	60800.10
588.18	60945.21
588.34	60809.46
588.49	60977.98
