SpectraSuite Data File
++++++++++++++++++++++++++++++++++++
Date: Fri Oct 25 10:43:57 EDT 2013
User: price-jones
Dark Spectrum Present: No
Reference Spectrum Present: No
Number of Sampled Component Spectra: 1
Spectrometers: USB2+H05261
Integration Time (usec): 100000 (USB2+H05261)
Spectra Averaged: 1 (USB2+H05261)
Boxcar Smoothing: 0 (USB2+H05261)
Correct for Electrical Dark: No (USB2+H05261)
Strobe/Lamp Enabled: No (USB2+H05261)
Correct for Detector Non-linearity: No (USB2+H05261)
Correct for Stray Light: No (USB2+H05261)
Number of Pixels in Processed Spectrum: 2048
>>>>>Begin Processed Spectral Data<<<<<
365.73	72.56
365.92	72.56
366.12	72.56
366.32	18.72
366.52	0.00
366.72	0.00
366.91	70.22
367.11	0.00
367.31	0.00
367.51	9.36
367.70	18.72
367.90	0.00
368.10	0.00
368.30	28.09
368.49	21.06
368.69	84.26
368.89	25.75
369.09	67.88
369.28	126.39
369.48	65.54
369.68	77.24
369.87	142.77
370.07	105.32
370.27	180.22
370.47	149.79
370.66	393.21
370.86	423.64
371.06	465.77
371.25	479.81
371.45	458.74
371.65	461.09
371.84	423.64
372.04	491.51
372.24	458.74
372.44	428.32
372.63	418.96
372.83	503.22
373.03	514.92
373.22	573.43
373.42	496.19
373.62	524.28
373.81	564.07
374.01	599.18
374.21	589.82
374.40	587.47
374.60	580.45
374.79	491.51
374.99	559.39
375.19	535.98
375.38	580.45
375.58	627.26
375.78	720.88
375.97	655.35
376.17	671.73
376.37	589.82
376.56	594.50
376.76	676.41
376.95	585.13
377.15	648.33
377.35	655.35
377.54	631.94
377.74	601.52
377.93	699.82
378.13	674.07
378.33	669.39
378.52	718.54
378.72	688.12
378.91	662.37
379.11	704.50
379.31	606.20
379.50	669.39
379.70	744.29
379.89	767.70
380.09	720.88
380.28	638.97
380.48	720.88
380.68	713.86
380.87	685.78
381.07	713.86
381.26	629.60
381.46	702.16
381.65	739.61
381.85	732.59
382.04	662.37
382.24	718.54
382.43	697.48
382.63	648.33
382.83	662.37
383.02	704.50
383.22	835.57
383.41	753.65
383.61	814.51
383.80	873.02
384.00	781.74
384.19	755.99
384.39	910.47
384.58	828.55
384.78	774.72
384.97	826.21
385.17	912.81
385.36	894.08
385.56	861.32
385.75	760.67
385.95	910.47
386.14	863.66
386.34	849.61
386.53	858.98
386.72	826.21
386.92	889.40
387.11	891.74
387.31	908.13
387.50	903.45
387.70	994.73
387.89	905.79
388.09	856.64
388.28	875.36
388.48	940.90
388.67	954.94
388.86	943.24
389.06	898.77
389.25	1025.15
389.45	938.55
389.64	987.71
389.84	1039.20
390.03	1071.97
390.22	987.71
390.42	1008.77
390.61	1048.56
390.81	1078.99
391.00	1086.01
391.19	1078.99
391.39	999.41
391.58	1039.20
391.78	1123.46
391.97	1027.50
392.16	976.00
392.36	1083.67
392.55	1050.90
392.75	999.41
392.94	1060.26
393.13	1125.80
393.33	1006.43
393.52	1039.20
393.71	1181.97
393.91	1172.61
394.10	1121.12
394.29	1067.28
394.49	1210.06
394.68	1207.72
394.88	1362.19
395.07	1270.91
395.26	1287.29
395.46	1268.57
395.65	1277.93
395.84	1219.42
396.04	1263.89
396.23	1247.51
396.42	1203.04
396.62	1196.01
396.81	1240.48
397.00	1233.46
397.19	1345.81
397.39	1341.13
397.58	1416.02
397.77	1418.36
397.97	1462.83
398.16	1432.41
398.35	1481.56
398.55	1516.67
398.74	1521.35
398.93	1605.61
399.12	1568.16
399.32	1528.37
399.51	1551.78
399.70	1624.33
399.90	1614.97
400.09	1584.54
400.28	1689.87
400.47	1666.46
400.67	1724.97
400.86	1668.80
401.05	1746.04
401.24	1830.30
401.44	1727.32
401.63	1778.81
401.82	1753.06
402.01	1834.98
402.21	1781.15
402.40	1867.75
402.59	1771.79
402.78	1708.59
402.97	1795.19
403.17	1837.32
403.36	1973.07
403.55	1891.15
403.74	1907.54
403.93	1959.03
404.13	1834.98
404.32	1937.96
404.51	1919.24
404.70	1926.26
404.89	1963.71
405.09	2099.46
405.28	2024.56
405.47	1980.09
405.66	2104.14
405.85	1991.80
406.05	2024.56
406.24	2083.08
406.43	2059.67
406.62	2197.76
406.81	2172.02
407.00	2099.46
407.20	1994.14
407.39	2080.74
407.58	2188.40
407.77	2183.72
407.96	2399.05
408.15	2253.94
408.34	2303.09
408.54	2324.15
408.73	2305.43
408.92	2338.20
409.11	2335.85
409.30	2394.37
409.49	2349.90
409.68	2263.30
409.87	2366.28
410.07	2394.37
410.26	2450.54
410.45	2462.24
410.64	2471.61
410.83	2551.18
411.02	2518.42
411.21	2759.49
411.40	2558.21
411.59	2738.43
411.78	2708.00
411.98	2750.13
412.17	2743.11
412.36	2806.30
412.55	2818.00
412.74	2832.05
412.93	2846.09
413.12	2715.02
413.31	3133.98
413.50	2909.29
413.69	2974.82
413.88	2923.33
414.07	2897.58
414.26	2911.63
414.45	2937.37
414.64	3040.36
414.83	3038.02
415.02	3171.43
415.22	3206.53
415.41	3178.45
415.60	3293.13
415.79	3248.66
415.98	3258.03
416.17	3346.97
416.36	3311.86
416.55	3318.88
416.74	3358.67
416.93	3473.36
417.12	3438.25
417.31	3407.82
417.50	3393.78
417.69	3531.87
417.88	3456.97
418.07	3447.61
418.26	3330.58
418.45	3559.95
418.64	3679.32
418.83	3634.85
419.02	3712.09
419.21	3805.71
419.39	3691.02
419.58	3604.42
419.77	3510.80
419.96	3815.07
420.15	3812.73
420.34	3882.95
420.53	3920.40
420.72	3908.69
420.91	3948.48
421.10	3967.21
421.29	4007.00
421.48	3908.69
421.67	4023.38
421.86	3754.22
422.05	3908.69
422.24	3992.95
422.43	4032.74
422.61	3885.29
422.80	4016.36
422.99	3946.14
423.18	4021.04
423.37	4011.68
423.56	3948.48
423.75	3990.61
423.94	4042.11
424.13	3843.16
424.32	3761.24
424.50	4112.32
424.69	4241.05
424.88	4173.18
425.07	4086.58
425.26	4007.00
425.45	4004.66
425.64	4187.22
425.83	4205.94
426.01	4170.83
426.20	4107.64
426.39	4091.26
426.58	4025.72
426.77	3999.98
426.96	4121.68
427.15	4159.13
427.33	4060.83
427.52	4257.43
427.71	4337.01
427.90	4290.20
428.09	4250.41
428.28	4117.00
428.46	4369.78
428.65	4414.25
428.84	4416.59
429.03	4358.08
429.22	4173.18
429.40	4374.46
429.59	4182.54
429.78	4079.55
429.97	3962.53
430.16	4100.62
430.34	4243.39
430.53	4259.78
430.72	4334.67
430.91	4271.48
431.10	4388.50
431.28	4484.47
431.47	4699.80
431.66	4737.24
431.85	4678.73
432.03	4753.63
432.22	4781.71
432.41	4739.58
432.60	4788.74
432.79	4889.38
432.97	5053.22
433.16	4830.87
433.35	4645.96
433.54	4791.08
433.72	4823.84
433.91	4723.20
434.10	4851.93
434.28	4917.47
434.47	4917.47
434.66	4931.51
434.85	5043.85
435.03	5205.35
435.22	5078.96
435.41	5214.71
435.59	5200.67
435.78	5179.61
435.97	5298.97
436.16	5334.08
436.34	5268.55
436.53	5420.68
436.72	5308.34
436.90	5034.49
437.09	5212.37
437.28	5137.48
437.46	5343.44
437.65	5385.57
437.84	5238.12
438.02	5179.61
438.21	5385.57
438.40	5184.29
438.58	5554.09
438.77	5493.24
438.96	5481.53
439.14	5724.95
439.33	5731.97
439.52	5858.36
439.70	5788.14
439.89	5785.80
440.08	5907.51
440.26	5776.44
440.45	5785.80
440.63	6069.01
440.82	6225.82
441.01	6050.28
441.19	6090.07
441.38	6232.85
441.57	6399.02
441.75	6286.68
441.94	6469.24
442.12	6375.62
442.31	6651.80
442.50	6581.59
442.68	6298.38
442.87	6492.65
443.05	6523.07
443.24	6619.04
443.43	6581.59
443.61	6511.37
443.80	6857.77
443.98	6626.06
444.17	6389.66
444.35	6743.08
444.54	6731.38
444.73	6761.81
444.91	6607.33
445.10	6544.14
445.28	6504.35
445.47	6537.12
445.65	6504.35
445.84	6544.14
446.02	6794.58
446.21	6614.35
446.39	6675.21
446.58	6731.38
446.77	6946.71
446.95	6630.74
447.14	6864.79
447.32	7005.22
447.51	6869.47
447.69	6953.73
447.88	6836.70
448.06	7096.50
448.25	6949.05
448.43	6841.39
448.62	6916.28
448.80	6911.60
448.99	6892.88
449.17	7059.06
449.36	6993.52
449.54	7117.57
449.73	7281.41
449.91	7180.76
450.10	7293.11
450.28	7447.58
450.46	7442.90
450.65	7332.90
450.83	7353.96
451.02	7337.58
451.20	7545.89
451.39	7470.99
451.57	7473.33
451.76	7370.35
451.94	7414.82
452.13	7623.12
452.31	7461.63
452.49	7199.49
452.68	7447.58
452.86	7297.79
453.05	7508.44
453.23	7463.97
453.42	7442.90
453.60	7419.50
453.78	7513.12
453.97	7424.18
454.15	7358.64
454.34	7569.29
454.52	7726.11
454.70	7665.25
454.89	7618.44
455.07	7536.52
455.26	7815.05
455.44	7985.91
455.62	8006.97
455.81	7929.74
455.99	7985.91
456.17	8032.72
456.36	8079.53
456.54	8067.83
456.73	8112.30
456.91	8234.00
457.09	8145.06
457.28	8482.10
457.46	8306.56
457.64	8180.17
457.83	8395.50
458.01	8348.69
458.19	8461.04
458.38	8437.63
458.56	8580.40
458.74	8400.18
458.93	8540.61
459.11	8526.57
459.29	8491.46
459.48	8332.31
459.66	8547.64
459.84	8624.87
460.03	8805.10
460.21	8709.13
460.39	8734.88
460.57	8842.54
460.76	8758.28
460.94	8978.30
461.12	9088.30
461.31	8734.88
461.49	8840.20
461.67	8950.21
461.85	8968.93
462.04	9015.74
462.22	9270.86
462.40	9015.74
462.59	9029.79
462.77	9022.77
462.95	9179.58
463.13	9006.38
463.32	9149.15
463.50	9371.50
463.68	9327.03
463.86	9261.50
464.05	9158.52
464.23	9242.78
464.41	9228.73
464.59	9345.76
464.78	9364.48
464.96	9521.30
465.14	9188.94
465.32	9486.19
465.50	9528.32
465.69	9570.45
465.87	9420.66
466.05	9380.87
466.23	9369.16
466.41	9537.68
466.60	9727.27
466.78	9542.36
466.96	9507.26
467.14	9448.74
467.32	9741.31
467.51	9853.66
467.69	9502.58
467.87	9577.47
468.05	9926.21
468.23	9671.09
468.41	9657.05
468.60	9783.44
468.78	9706.20
468.96	9659.39
469.14	10010.47
469.32	10052.60
469.50	9607.90
469.69	10043.24
469.87	10118.14
470.05	10232.82
470.23	9951.96
470.41	10127.50
470.59	10202.40
470.77	9980.04
470.95	10527.73
471.14	10413.04
471.32	10260.91
471.50	10579.22
471.68	10640.08
471.86	10366.23
472.04	10623.69
472.22	10834.34
472.40	10705.61
472.58	10736.04
472.77	10799.23
472.95	10995.84
473.13	11047.33
473.31	10494.96
473.49	10883.49
473.67	11042.65
473.85	10965.41
474.03	11147.97
474.21	11309.47
474.39	11192.44
474.57	11321.17
474.75	11332.87
474.93	11318.83
475.12	11283.72
475.30	11573.95
475.48	11274.36
475.66	11531.82
475.84	11276.70
476.02	11878.22
476.20	11882.90
476.38	11964.82
476.56	12074.82
476.74	12035.03
476.92	12018.65
477.10	12175.47
477.28	12615.49
477.46	12280.79
477.64	12484.42
477.82	12601.44
478.00	12926.78
478.18	12800.39
478.36	12910.40
478.54	12828.48
478.72	13022.74
478.90	13181.90
479.08	13366.80
479.26	13514.25
479.44	13460.42
479.62	13518.93
479.80	13617.24
479.98	13659.37
480.16	13965.98
480.34	13886.40
480.52	14031.51
480.70	14195.35
480.88	14015.13
481.06	14223.44
481.24	14476.21
481.41	14532.39
481.59	14782.82
481.77	14892.83
481.95	14736.01
482.13	14815.59
482.31	15119.86
482.49	15246.25
482.67	15152.63
482.85	15468.60
483.03	15819.68
483.21	15700.31
483.39	15747.12
483.57	15791.59
483.74	16011.60
483.92	16081.82
484.10	15875.85
484.28	16245.66
484.46	16788.66
484.64	16772.28
484.82	16573.33
485.00	16554.61
485.18	16826.11
485.35	16908.03
485.53	16449.28
485.71	16376.73
485.89	16854.20
486.07	16704.40
486.25	17385.50
486.43	17324.65
486.61	17336.35
486.78	17507.21
486.96	17659.34
487.14	17970.63
487.32	18197.67
487.50	18066.60
487.68	18590.88
487.85	18979.40
488.03	18883.44
488.21	19033.24
488.39	18860.04
488.57	18995.79
488.75	19339.85
488.92	19426.45
489.10	19569.22
489.28	19754.12
489.46	20126.27
489.64	20201.16
489.81	20634.16
489.99	20664.59
490.17	20606.08
490.35	20580.33
490.53	20720.76
490.70	20898.64
490.88	20842.47
491.06	21502.50
491.24	21092.91
491.41	21284.83
491.59	21326.96
491.77	21303.56
491.95	21565.70
492.13	21900.39
492.30	22160.19
492.48	22071.25
492.66	22312.33
492.84	22211.68
493.01	22398.93
493.19	22569.79
493.37	22857.67
493.54	23157.26
493.72	23056.62
493.90	23583.24
494.08	23388.97
494.25	23435.78
494.43	24147.31
494.61	23887.51
494.79	24285.40
494.96	24266.67
495.14	23859.42
495.32	24306.46
495.49	24533.50
495.67	24545.20
495.85	24327.53
496.02	24926.71
496.20	24830.74
496.38	25102.25
496.55	25053.09
496.73	25528.22
496.91	25448.64
497.09	25886.32
497.26	25958.88
497.44	25876.96
497.62	25652.27
497.79	25989.31
497.97	25898.03
498.14	26265.49
498.32	26150.81
498.50	25977.61
498.67	26700.83
498.85	26511.25
499.03	26881.05
499.20	26565.08
499.38	27166.60
499.56	27140.85
499.73	27234.47
499.91	27124.47
500.08	27033.19
500.26	26899.78
500.44	27257.88
500.61	27578.53
500.79	26946.59
500.97	27410.01
501.14	27639.39
501.32	27821.95
501.49	27850.03
501.67	27789.18
501.84	27826.63
502.02	28591.98
502.20	28397.72
502.37	28388.36
502.55	28446.87
502.72	28599.01
502.90	28540.49
503.07	28467.94
503.25	28858.81
503.43	28760.50
503.60	28643.48
503.78	28545.17
503.95	28690.29
504.13	29172.44
504.30	29291.80
504.48	29453.30
504.65	29502.45
504.83	29439.26
505.01	29909.71
505.18	29745.87
505.36	30190.57
505.53	29935.45
505.71	30780.39
505.88	30834.22
506.06	29998.65
506.23	30511.22
506.41	30410.58
506.58	30419.94
506.76	30490.16
506.93	30635.27
507.11	30373.13
507.28	30513.56
507.46	30705.49
507.63	31220.41
507.81	30841.24
507.98	31051.89
508.16	31063.59
508.33	31295.30
508.50	31421.69
508.68	31931.93
508.85	31805.54
509.03	31770.43
509.20	31782.13
509.38	32084.06
509.55	32158.96
509.73	32620.05
509.90	32334.50
510.08	32119.17
510.25	32236.20
510.42	32119.17
510.60	32306.41
510.77	32453.87
510.95	32680.90
511.12	32889.21
511.30	32708.99
511.47	33427.53
511.64	32856.44
511.82	33404.13
511.99	32919.63
512.17	33158.37
512.34	32800.27
512.51	33394.76
512.69	33603.07
512.86	33230.93
513.04	33684.99
513.21	33542.22
513.38	33493.07
513.56	33432.21
513.73	33422.85
513.90	33628.82
514.08	33628.82
514.25	33895.64
514.43	34258.42
514.60	33865.21
514.77	33930.75
514.95	34352.04
515.12	34487.79
515.29	34347.36
515.47	34550.99
515.64	34625.89
515.81	34192.89
515.99	34534.60
516.16	34637.59
516.33	34263.10
516.51	34473.75
516.68	33956.49
516.85	34183.52
517.03	34047.77
517.20	34127.35
517.37	34752.27
517.54	35028.46
517.72	35222.72
517.89	34345.02
518.06	34675.04
518.24	34562.69
518.41	35075.27
518.58	34979.31
518.75	34960.58
518.93	35370.18
519.10	35803.17
519.27	35569.12
519.45	36004.46
519.62	35880.41
519.79	35910.84
519.96	36074.68
520.14	36002.12
520.31	35655.72
520.48	36156.60
520.65	36292.35
520.83	36170.64
521.00	36779.18
521.17	36304.05
521.34	36945.36
521.52	36542.78
521.69	36402.35
521.86	37146.64
522.03	37085.79
522.20	37163.03
522.38	37048.34
522.55	36966.42
522.72	37275.37
522.89	37214.52
523.07	37207.50
523.24	37450.91
523.41	37633.47
523.58	37979.87
523.75	38183.50
523.92	38054.77
524.10	38143.71
524.27	38117.96
524.44	37944.76
524.61	38190.52
524.78	38050.09
524.96	38206.90
525.13	38555.64
525.30	38349.68
525.47	38167.12
525.64	38082.86
525.81	38408.19
525.98	38162.43
526.16	37687.31
526.33	37860.51
526.50	38047.75
526.67	38132.01
526.84	38312.23
527.01	38422.23
527.18	38469.04
527.36	38700.76
527.53	38944.17
527.70	39012.05
527.87	39166.52
528.04	38740.55
528.21	39594.84
528.38	39042.48
528.55	39299.94
528.72	39772.72
528.89	39875.71
529.07	39323.34
529.24	39421.64
529.41	39910.82
529.58	39482.50
529.75	39636.97
529.92	39700.17
530.09	40215.08
530.26	39854.64
530.43	40123.80
530.60	39924.86
530.77	40135.51
530.94	40388.28
531.11	39908.47
531.28	39950.60
531.46	40371.90
531.63	40727.66
531.80	40130.83
531.97	40313.39
532.14	40322.75
532.31	39845.28
532.48	40037.20
532.65	40231.47
532.82	40268.92
532.99	40662.13
533.16	40280.62
533.33	41123.21
533.50	40708.94
533.67	40844.69
533.84	40617.66
534.01	41282.37
534.18	40847.03
534.35	41160.66
534.52	40622.34
534.69	40973.42
534.86	41134.92
535.03	41523.44
535.20	41680.26
535.37	41762.18
535.54	41429.82
535.71	41265.99
535.88	41429.82
536.05	41502.38
536.22	41450.89
536.38	41420.46
536.55	41509.40
536.72	41532.81
536.89	41160.66
537.06	41289.39
537.23	41722.39
537.40	41691.96
537.57	41652.17
537.74	41982.19
537.91	41804.31
538.08	41741.11
538.25	41921.34
538.42	41797.29
538.59	42206.88
538.75	41993.89
538.92	41610.04
539.09	42251.35
539.26	41914.31
539.43	42036.02
539.60	42073.47
539.77	42150.71
539.94	42094.53
540.11	42099.22
540.28	42129.64
540.44	42511.15
540.61	42356.67
540.78	41841.76
540.95	42443.27
541.12	42354.33
541.29	41883.89
541.46	42525.19
541.62	42740.52
541.79	42939.47
541.96	42085.17
542.13	42464.34
542.30	42373.06
542.47	42752.23
542.63	42937.13
542.80	42810.74
542.97	43009.68
543.14	43438.00
543.31	43587.80
543.48	43473.11
543.64	43852.28
543.81	43669.72
543.98	43604.18
544.15	43660.35
544.32	43611.20
544.48	43461.41
544.65	43828.87
544.82	43901.43
544.99	43299.91
545.16	43461.41
545.32	43519.92
545.49	43835.89
545.66	43814.83
545.83	44095.69
546.00	44058.24
546.16	43920.15
546.33	43335.02
546.50	43782.06
546.67	43978.67
546.83	43672.06
547.00	43569.07
547.17	43964.62
547.34	44051.22
547.50	43913.13
547.67	44666.78
547.84	44140.16
548.00	44378.90
548.17	44369.54
548.34	44144.84
548.51	44809.56
548.67	44964.03
548.84	44566.14
549.01	44868.07
549.18	44095.69
549.34	44418.69
549.51	44582.52
549.68	44914.88
549.84	44797.85
550.01	44776.79
550.18	44313.36
550.34	44603.59
550.51	44964.03
550.68	44673.81
550.84	44112.08
551.01	44486.56
551.18	45015.52
551.34	44432.73
551.51	44615.29
551.68	44982.76
551.84	45041.27
552.01	45038.93
552.18	44935.95
552.34	44634.02
552.51	45024.89
552.68	44900.84
552.84	45460.23
553.01	44973.39
553.18	45385.33
553.34	45015.52
553.51	45361.92
553.67	45172.34
553.84	45619.38
554.01	45483.63
554.17	45134.89
554.34	45518.74
554.51	45713.00
554.67	45368.94
554.84	45441.50
555.00	45350.22
555.17	45537.46
555.33	45624.06
555.50	45186.38
555.67	45886.20
555.83	45872.16
556.00	45722.37
556.16	45839.39
556.33	45422.78
556.50	45530.44
556.66	45614.70
556.83	45476.61
556.99	45820.67
557.16	45553.85
557.32	45914.29
557.49	45928.33
557.65	45146.59
557.82	45633.42
557.98	45862.80
558.15	45813.65
558.32	45724.71
558.48	45684.92
558.65	45640.45
558.81	45677.90
558.98	46036.00
559.14	46174.09
559.31	45900.25
559.47	46036.00
559.64	45895.56
559.80	46218.56
559.97	45801.94
560.13	46073.45
560.30	45813.65
560.46	46380.06
560.63	45771.52
560.79	46108.55
560.96	46417.50
561.12	45787.90
561.29	45741.09
561.45	45825.35
561.61	46157.70
561.78	45942.38
561.94	46110.89
562.11	45933.01
562.27	46000.89
562.44	46349.63
562.60	46536.87
562.77	46101.53
562.93	46169.41
563.10	46932.42
563.26	46019.61
563.42	46096.85
563.59	46000.89
563.75	46075.79
563.92	46438.57
564.08	46007.91
564.24	46021.95
564.41	46759.22
564.57	46265.37
564.74	46284.09
564.90	46286.43
565.07	46209.20
565.23	46525.17
565.39	45918.97
565.56	46454.95
565.72	46178.77
565.88	45979.82
566.05	46234.94
566.21	46302.82
566.38	46422.19
566.54	46216.22
566.70	46799.01
566.87	47210.95
567.03	46167.07
567.19	47070.51
567.36	46564.96
567.52	46487.72
567.68	46948.81
567.85	46375.37
568.01	46663.26
568.17	46230.26
568.34	46557.94
568.50	46326.22
568.66	46267.71
568.83	46431.55
568.99	46340.27
569.15	46227.92
569.32	46237.28
569.48	46291.12
569.64	46590.70
569.81	46483.04
569.97	46347.29
570.13	46656.24
570.30	45853.44
570.46	46469.00
570.62	45705.98
570.78	46260.69
570.95	46256.01
571.11	46548.57
571.27	46735.82
571.43	46405.80
571.60	46902.00
571.76	46604.75
571.92	46281.75
572.09	46490.06
572.25	46408.14
572.41	46665.60
572.57	46806.03
572.74	46705.39
572.90	46831.78
573.06	46698.37
573.22	47105.62
573.38	46457.29
573.55	46712.41
573.71	46712.41
573.87	47145.41
574.03	46784.97
574.20	46791.99
574.36	46412.82
574.52	46546.23
574.68	46749.86
574.84	46447.93
575.01	46564.96
575.17	46515.81
575.33	46595.38
575.49	46630.49
575.65	46784.97
575.82	46930.08
575.98	46658.58
576.14	46834.12
576.30	46932.42
576.46	46672.62
576.62	46909.02
576.79	46850.50
576.95	46244.30
577.11	46789.65
577.27	46777.95
577.43	47173.50
577.59	46417.50
577.75	46459.63
577.92	46209.20
578.08	46436.23
578.24	46466.66
578.40	46363.67
578.56	46623.47
578.72	46354.31
578.88	46906.68
579.04	46986.25
579.21	46316.86
579.37	46784.97
579.53	46873.91
579.69	46375.37
579.85	47173.50
580.01	47082.22
580.17	46663.26
580.33	46436.23
580.49	46728.80
580.65	46876.25
580.82	46639.86
580.98	46691.35
581.14	46611.77
581.30	46918.38
581.46	46864.55
581.62	46981.57
581.78	46777.95
581.94	46476.02
582.10	47028.38
582.26	47124.35
582.42	46979.23
582.58	47339.68
582.74	47028.38
582.90	46796.67
583.06	46946.47
583.22	46934.76
583.38	47229.67
583.54	46831.78
583.70	46937.10
583.86	46923.06
584.02	46707.73
584.18	46909.02
584.34	46876.25
584.50	46815.40
584.66	46916.04
584.82	46426.87
584.98	46913.70
585.14	46880.93
585.30	47117.32
585.46	46581.34
585.62	46401.12
585.78	46461.97
585.94	46717.09
586.10	46536.87
586.26	46717.09
586.42	46576.66
586.58	47402.87
586.74	46726.46
586.90	46780.29
587.06	46691.35
587.22	47173.50
587.38	46347.29
587.54	46932.42
587.70	47217.97
587.86	46703.05
588.02	46478.36
588.18	47124.35
588.34	46366.01
588.49	46415.16
588.65	46511.13
588.81	45979.82
588.97	46351.97
589.13	45996.21
589.29	46396.44
589.45	46696.03
589.61	46562.62
589.77	46806.03
589.93	46946.47
