SpectraSuite Data File
++++++++++++++++++++++++++++++++++++
Date: Fri Oct 25 11:26:03 EDT 2013
User: price-jones
Dark Spectrum Present: No
Reference Spectrum Present: No
Number of Sampled Component Spectra: 1
Spectrometers: USB2+H05261
Integration Time (usec): 100000 (USB2+H05261)
Spectra Averaged: 1 (USB2+H05261)
Boxcar Smoothing: 0 (USB2+H05261)
Correct for Electrical Dark: No (USB2+H05261)
Strobe/Lamp Enabled: No (USB2+H05261)
Correct for Detector Non-linearity: No (USB2+H05261)
Correct for Stray Light: No (USB2+H05261)
Number of Pixels in Processed Spectrum: 2048
>>>>>Begin Processed Spectral Data<<<<<
365.73	220.01
365.92	220.01
366.12	220.01
366.32	159.16
366.52	149.79
366.72	201.29
366.91	81.92
367.11	173.20
367.31	114.69
367.51	142.77
367.70	121.71
367.90	159.16
368.10	128.73
368.30	142.77
368.49	168.52
368.69	203.63
368.89	126.39
369.09	152.13
369.28	149.79
369.48	161.50
369.68	187.24
369.87	250.44
370.07	217.67
370.27	222.35
370.47	294.91
370.66	543.00
370.86	660.03
371.06	636.63
371.25	734.93
371.45	674.07
371.65	706.84
371.84	653.01
372.04	613.22
372.24	688.12
372.44	774.72
372.63	669.39
372.83	753.65
373.03	748.97
373.22	739.61
373.42	767.70
373.62	695.14
373.81	828.55
374.01	809.83
374.21	805.14
374.40	821.53
374.60	858.98
374.79	837.91
374.99	758.33
375.19	791.10
375.38	840.25
375.58	812.17
375.78	898.77
375.97	791.10
376.17	908.13
376.37	842.59
376.56	866.00
376.76	880.04
376.95	884.72
377.15	809.83
377.35	940.90
377.54	912.81
377.74	887.06
377.93	866.00
378.13	887.06
378.33	968.98
378.52	908.13
378.72	936.21
378.91	1025.15
379.11	901.11
379.31	940.90
379.50	987.71
379.70	1008.77
379.89	987.71
380.09	917.49
380.28	940.90
380.48	959.62
380.68	938.55
380.87	1046.22
381.07	910.47
381.26	1025.15
381.46	1041.54
381.65	1008.77
381.85	999.41
382.04	1093.03
382.24	1053.24
382.43	1102.39
382.63	1125.80
382.83	1090.69
383.02	1083.67
383.22	1163.25
383.41	1107.07
383.61	1086.01
383.80	1226.44
384.00	1055.58
384.19	1093.03
384.39	1172.61
384.58	1149.20
384.78	1233.46
384.97	1184.31
385.17	1083.67
385.36	1102.39
385.56	1139.84
385.75	1188.99
385.95	1203.04
386.14	1301.34
386.34	1142.18
386.53	1151.54
386.72	1210.06
386.92	1275.59
387.11	1196.01
387.31	1249.85
387.50	1308.36
387.70	1196.01
387.89	1329.42
388.09	1320.06
388.28	1273.25
388.48	1256.87
388.67	1263.89
388.86	1282.61
389.06	1284.95
389.25	1357.51
389.45	1383.26
389.64	1320.06
389.84	1467.52
390.03	1378.58
390.22	1376.24
390.42	1385.60
390.61	1434.75
390.81	1313.04
391.00	1451.13
391.19	1446.45
391.39	1476.88
391.58	1488.58
391.78	1404.32
391.97	1355.17
392.16	1439.43
392.36	1554.12
392.55	1497.94
392.75	1514.33
392.94	1544.75
393.13	1596.25
393.33	1542.41
393.52	1444.11
393.71	1664.12
393.91	1584.54
394.10	1563.48
394.29	1582.20
394.49	1565.82
394.68	1636.03
394.88	1661.78
395.07	1589.22
395.26	1708.59
395.46	1647.74
395.65	1708.59
395.84	1605.61
396.04	1710.93
396.23	1696.89
396.42	1743.70
396.62	1792.85
396.81	1839.66
397.00	1732.00
397.19	1856.04
397.39	1849.02
397.58	1846.68
397.77	1872.43
397.97	1823.28
398.16	1856.04
398.35	1872.43
398.55	1877.11
398.74	1891.15
398.93	1952.01
399.12	1907.54
399.32	1984.77
399.51	2047.97
399.70	2008.18
399.90	1937.96
400.09	2059.67
400.28	2066.69
400.47	1987.11
400.67	2148.61
400.86	2078.40
401.05	2045.63
401.24	2066.69
401.44	2059.67
401.63	2073.71
401.82	2113.50
402.01	2136.91
402.21	2113.50
402.40	2195.42
402.59	2160.31
402.78	2216.49
402.97	2228.19
403.17	2249.25
403.36	2256.28
403.55	2267.98
403.74	2307.77
403.93	2321.81
404.13	2438.84
404.32	2335.85
404.51	2361.60
404.70	2462.24
404.89	2394.37
405.09	2396.71
405.28	2455.22
405.47	2483.31
405.66	2462.24
405.85	2588.63
406.05	2490.33
406.24	2567.57
406.43	2626.08
406.62	2757.15
406.81	2633.10
407.00	2576.93
407.20	2607.36
407.39	2635.44
407.58	2700.98
407.77	2691.62
407.96	2686.94
408.15	2768.85
408.34	2743.11
408.54	2874.18
408.73	2766.51
408.92	2803.96
409.11	2895.24
409.30	2848.43
409.49	2949.08
409.68	2820.35
409.87	2906.95
410.07	2944.39
410.26	2956.10
410.45	3035.67
410.64	3080.14
410.83	3110.57
411.02	3049.72
411.21	3038.02
411.40	3126.96
411.59	3201.85
411.78	3225.26
411.98	3236.96
412.17	3260.37
412.36	3311.86
412.55	3258.03
412.74	3503.78
412.93	3393.78
413.12	3447.61
413.31	3524.85
413.50	3527.19
413.69	3375.05
413.88	3531.87
414.07	3672.30
414.26	3595.06
414.45	3576.34
414.64	3749.54
414.83	3634.85
415.02	3772.94
415.22	3822.09
415.41	3948.48
415.60	3756.56
415.79	3801.03
415.98	4018.70
416.17	3953.16
416.36	3936.78
416.55	3925.08
416.74	4070.19
416.93	4149.77
417.12	4208.28
417.31	4189.56
417.50	4074.87
417.69	4423.61
417.88	4255.09
418.07	4198.92
418.26	4414.25
418.45	4355.74
418.64	4592.13
418.83	4390.84
419.02	4578.09
419.21	4451.70
419.39	4451.70
419.58	4407.23
419.77	4437.66
419.96	4622.56
420.15	4622.56
420.34	4601.49
420.53	4578.09
420.72	4645.96
420.91	4610.86
421.10	4823.84
421.29	4816.82
421.48	4648.30
421.67	4709.16
421.86	4674.05
422.05	4734.90
422.24	4851.93
422.43	4727.88
422.61	5041.51
422.80	4922.15
422.99	5046.20
423.18	4990.02
423.37	4994.70
423.56	4966.62
423.75	4952.57
423.94	4812.14
424.13	4571.07
424.32	4830.87
424.50	5074.28
424.69	5083.64
424.88	5116.41
425.07	4821.50
425.26	4854.27
425.45	4929.17
425.64	4884.70
425.83	4968.96
426.01	4994.70
426.20	5100.03
426.39	4964.28
426.58	5067.26
426.77	5022.79
426.96	5123.43
427.15	5116.41
427.33	5301.31
427.52	5226.42
427.71	5184.29
427.90	5252.16
428.09	5275.57
428.28	5296.63
428.46	5357.49
428.65	5425.36
428.84	5486.22
429.03	5366.85
429.22	5275.57
429.40	5453.45
429.59	5378.55
429.78	5355.15
429.97	5287.27
430.16	5355.15
430.34	5579.84
430.53	5626.65
430.72	5636.01
430.91	5556.43
431.10	5540.05
431.28	5851.34
431.47	5750.70
431.66	5858.36
431.85	5774.10
432.03	5731.97
432.22	5839.64
432.41	5715.59
432.60	5895.81
432.79	5926.24
432.97	5820.91
433.16	5975.39
433.35	5900.49
433.54	6040.92
433.72	6059.65
433.91	5947.30
434.10	6085.39
434.28	6069.01
434.47	6104.12
434.66	6097.10
434.85	6008.16
435.03	6305.40
435.22	6162.63
435.41	6480.94
435.59	6382.64
435.78	6511.37
435.97	6511.37
436.16	6274.98
436.34	6415.41
436.53	6567.54
436.72	6431.79
436.90	6352.21
437.09	6656.48
437.28	6375.62
437.46	6553.50
437.65	6569.88
437.84	6689.25
438.02	6686.91
438.21	6778.19
438.40	6656.48
438.58	6869.47
438.77	7056.72
438.96	6890.54
439.14	7148.00
439.33	7075.44
439.52	7143.32
439.70	7211.19
439.89	7281.41
440.08	7342.26
440.26	7307.15
440.45	7375.03
440.63	7391.41
440.82	7667.60
441.01	7719.09
441.19	7515.46
441.38	7583.34
441.57	7964.84
441.75	7831.43
441.94	7850.16
442.12	7943.78
442.31	7941.44
442.50	8028.04
442.68	7843.14
442.87	7943.78
443.05	8131.02
443.24	8154.43
443.43	8231.66
443.61	8262.09
443.80	8255.07
443.98	8079.53
444.17	7915.69
444.35	8226.98
444.54	8241.03
444.73	8339.33
444.91	8271.45
445.10	8348.69
445.28	8243.37
445.47	8121.66
445.65	8339.33
445.84	8353.37
446.02	8514.87
446.21	8292.52
446.39	8404.86
446.58	8418.91
446.77	8437.63
446.95	8217.62
447.14	8446.99
447.32	8514.87
447.51	8528.91
447.69	8507.85
447.88	8358.05
448.06	8514.87
448.25	8475.08
448.43	8519.55
448.62	8526.57
448.80	8533.59
448.99	8805.10
449.17	8554.66
449.36	8599.13
449.54	8798.07
449.73	8727.86
449.91	8912.76
450.10	9006.38
450.28	9100.00
450.46	8833.18
450.65	9083.62
450.83	8961.91
451.02	9076.60
451.20	9053.19
451.39	9050.85
451.57	8990.00
451.76	9008.72
451.94	9128.09
452.13	9350.44
452.31	9336.40
452.49	8940.85
452.68	9210.01
452.86	9305.97
453.05	9235.75
453.23	9284.91
453.42	9298.95
453.60	9186.60
453.78	9502.58
453.97	9549.39
454.15	9465.13
454.34	9469.81
454.52	9699.18
454.70	9516.62
454.89	9596.20
455.07	9813.87
455.26	9928.55
455.44	9788.12
455.62	9996.43
455.81	9888.76
455.99	10068.98
456.17	10146.22
456.36	10031.54
456.54	10139.20
456.73	10415.38
456.91	10473.90
457.09	10513.69
457.28	10532.41
457.46	10324.10
457.64	10551.14
457.83	10471.56
458.01	10317.08
458.19	10480.92
458.38	10427.09
458.56	10471.56
458.74	10759.44
458.93	10504.32
459.11	10518.37
459.29	10813.28
459.48	10874.13
459.66	10691.57
459.84	10860.09
460.03	10918.60
460.21	10902.22
460.39	11054.35
460.57	10974.77
460.76	10998.18
460.94	11150.31
461.12	11152.65
461.31	11035.63
461.49	11147.97
461.67	10995.84
461.85	11342.24
462.04	11187.76
462.22	11749.49
462.40	11665.23
462.59	11342.24
462.77	11211.17
462.95	11597.35
463.13	11609.06
463.32	11770.55
463.50	11611.40
463.68	11791.62
463.86	11616.08
464.05	11529.48
464.23	11822.05
464.41	11882.90
464.59	11648.85
464.78	11908.65
464.96	12063.12
465.14	11698.00
465.32	11833.75
465.50	11964.82
465.69	12102.91
465.87	11969.50
466.05	12049.08
466.23	12140.36
466.41	12175.47
466.60	12329.94
466.78	12095.89
466.96	12245.68
467.14	12271.43
467.32	12470.37
467.51	12643.57
467.69	12233.98
467.87	12259.73
468.05	12556.97
468.23	12341.64
468.41	12479.74
468.60	12329.94
468.78	12662.30
468.96	12671.66
469.14	12620.17
469.32	12802.73
469.50	12582.72
469.69	12842.52
469.87	13195.94
470.05	12922.10
470.23	13193.60
470.41	13111.68
470.59	13359.78
470.77	12847.20
470.95	13177.22
471.14	13682.77
471.32	12999.34
471.50	13338.71
471.68	13427.65
471.86	13671.07
472.04	13624.26
472.22	14218.75
472.40	13696.82
472.58	13734.26
472.77	14031.51
472.95	13940.23
473.13	14267.91
473.31	14087.68
473.49	14174.28
473.67	13855.97
473.85	14183.65
474.03	14544.09
474.21	14595.58
474.39	14710.27
474.57	14696.22
474.75	14714.95
474.93	14817.93
475.12	14747.72
475.30	15131.56
475.48	14930.28
475.66	15094.11
475.84	15185.40
476.02	15243.91
476.20	15272.00
476.38	15709.68
476.56	15889.90
476.74	16102.89
476.92	15920.32
477.10	15957.77
477.28	16304.17
477.46	16126.29
477.64	16360.34
477.82	16350.98
478.00	16723.13
478.18	16725.47
478.36	16592.06
478.54	16924.41
478.72	17181.87
478.90	17357.41
479.08	17490.82
479.26	17575.08
479.44	17626.57
479.62	17750.62
479.80	17989.36
479.98	18256.18
480.16	18417.68
480.34	18139.15
480.52	18331.08
480.70	18661.09
480.88	18515.98
481.06	18630.66
481.24	18527.68
481.41	18845.99
481.59	18963.02
481.77	19335.17
481.95	19517.73
482.13	19690.93
482.31	19775.19
482.49	20383.73
482.67	20100.52
482.85	20180.10
483.03	20297.13
483.21	20673.95
483.39	20952.48
483.57	20779.28
483.74	20893.96
483.92	21270.79
484.10	21149.08
484.28	21736.56
484.46	22211.68
484.64	22188.28
484.82	21600.80
485.00	22139.13
485.18	22555.74
485.35	23164.28
485.53	22899.80
485.71	22799.16
485.89	23435.78
486.07	23346.84
486.25	23208.75
486.43	23438.12
486.61	23997.51
486.78	23878.15
486.96	23838.36
487.14	24411.79
487.32	24524.13
487.50	24648.18
487.68	24844.79
487.85	25188.85
488.03	25352.68
488.21	25631.21
488.39	25675.68
488.57	25722.49
488.75	26316.98
488.92	26118.04
489.10	26752.32
489.28	26373.16
489.46	26876.37
489.64	26909.14
489.81	27648.75
489.99	27398.31
490.17	27782.16
490.35	27662.79
490.53	28098.13
490.70	27962.38
490.88	28105.15
491.06	28547.51
491.24	28800.29
491.41	28669.22
491.59	29022.64
491.77	29177.12
491.95	29378.40
492.13	29783.32
492.30	29790.34
492.48	30045.46
492.66	30298.23
492.84	30017.37
493.01	30307.60
493.19	30462.07
493.37	30635.27
493.54	31012.10
493.72	31278.92
493.90	31337.43
494.08	31639.36
494.25	32079.38
494.43	31842.99
494.61	32128.53
494.79	32184.71
494.96	32320.46
495.14	32598.98
495.32	32886.87
495.49	33081.13
495.67	33490.73
495.85	33207.52
496.02	33481.36
496.20	33869.89
496.38	33895.64
496.55	33708.40
496.73	34345.02
496.91	34616.52
497.09	34438.64
497.26	34742.91
497.44	34951.22
497.62	35108.04
497.79	35765.73
497.97	35306.98
498.14	36060.63
498.32	36215.11
498.50	35878.07
498.67	36259.58
498.85	36100.42
499.03	36156.60
499.20	36493.63
499.38	37104.51
499.56	36907.91
499.73	36882.16
499.91	37167.71
500.08	37752.84
500.26	37471.98
500.44	37916.68
500.61	37766.88
500.79	37921.36
500.97	37930.72
501.14	38431.60
501.32	38342.66
501.49	38153.07
501.67	38253.72
501.84	38607.14
502.02	39054.18
502.20	38913.75
502.37	39229.72
502.55	39278.87
502.72	39489.52
502.90	39330.36
503.07	39206.31
503.25	39517.60
503.43	39531.65
503.60	39777.40
503.78	40418.71
503.95	40238.49
504.13	40250.19
504.30	40456.16
504.48	40062.95
504.65	40301.68
504.83	40751.07
505.01	41853.46
505.18	41013.21
505.36	41593.66
505.53	41191.09
505.71	41717.71
505.88	41769.20
506.06	41003.85
506.23	41933.04
506.41	41535.15
506.58	41593.66
506.76	41530.47
506.93	42150.71
507.11	42167.09
507.28	42398.80
507.46	42539.24
507.63	42574.34
507.81	43187.56
507.98	42696.05
508.16	43105.65
508.33	43540.99
508.50	43302.25
508.68	43236.72
508.85	43737.59
509.03	43761.00
509.20	43793.76
509.38	44341.45
509.55	44102.71
509.73	44259.53
509.90	44446.77
510.08	44353.15
510.25	44172.93
510.42	44528.69
510.60	44753.38
510.77	44985.10
510.95	45333.84
511.12	45390.01
511.30	45361.92
511.47	45207.45
511.64	46061.74
511.82	45453.20
511.99	45720.02
512.17	45628.74
512.34	45322.13
512.51	45897.91
512.69	45979.82
512.86	46061.74
513.04	46490.06
513.21	46230.26
513.38	46344.95
513.56	46471.34
513.73	46714.75
513.90	46749.86
514.08	46873.91
514.25	47267.12
514.43	47292.86
514.60	47138.39
514.77	47175.84
514.95	47739.91
515.12	47318.61
515.29	47693.10
515.47	47634.58
515.64	47964.60
515.81	48219.72
515.99	48055.88
516.16	48065.24
516.33	48315.68
516.51	48512.28
516.68	48271.21
516.85	48580.16
517.03	48584.84
517.20	48376.53
517.37	48505.26
517.54	48406.96
517.72	48844.64
517.89	48708.89
518.06	48935.92
518.24	49308.07
518.41	49415.73
518.58	49076.35
518.75	48992.09
518.93	49228.49
519.10	49579.57
519.27	49680.21
519.45	49193.38
519.62	49691.91
519.79	49902.56
519.96	49635.74
520.14	49621.70
520.31	49654.47
520.48	49907.24
520.65	49907.24
520.83	50382.37
521.00	50270.03
521.17	50120.23
521.34	50373.01
521.52	50848.14
521.69	50595.36
521.86	50775.58
522.03	50745.15
522.20	51037.72
522.38	51320.93
522.55	50995.59
522.72	51210.92
522.89	50955.80
523.07	51704.77
523.24	51346.67
523.41	51798.40
523.58	51400.50
523.75	51819.46
523.92	51774.99
524.10	51683.71
524.27	51667.33
524.44	51578.39
524.61	51877.97
524.78	52055.85
524.96	52294.59
525.13	51870.95
525.30	52219.69
525.47	52566.09
525.64	52179.90
525.81	52612.90
525.98	52568.43
526.16	52280.55
526.33	52671.42
526.50	52339.06
526.67	52809.51
526.84	52622.26
527.01	52706.52
527.18	53010.79
527.36	52781.42
527.53	53081.01
527.70	53095.05
527.87	53127.82
528.04	53045.90
528.21	53064.63
528.38	53289.32
528.55	53244.85
528.72	53127.82
528.89	53387.62
529.07	53420.39
529.24	53244.85
529.41	53553.80
529.58	53631.04
529.75	53354.85
529.92	53542.10
530.09	53719.98
530.26	53736.36
530.43	53909.56
530.60	53595.93
530.77	53790.19
530.94	53715.29
531.11	53968.07
531.28	53759.76
531.46	54120.21
531.63	54284.04
531.80	53958.71
531.97	54160.00
532.14	54251.28
532.31	54298.09
532.48	54600.02
532.65	54333.20
532.82	54433.84
532.99	54443.20
533.16	54436.18
533.33	54653.85
533.50	54827.05
533.67	54508.74
533.84	54600.02
534.01	54878.54
534.18	54665.55
534.35	54885.56
534.52	54937.05
534.69	54838.75
534.86	55332.60
535.03	54852.80
535.20	55105.57
535.37	55281.11
535.54	55199.19
535.71	55098.55
535.88	55323.24
536.05	55402.82
536.22	55332.60
536.38	55208.56
536.55	55557.30
536.72	55524.53
536.89	55391.12
537.06	55428.57
537.23	55526.87
537.40	55437.93
537.57	55636.87
537.74	55501.12
537.91	55889.65
538.08	55662.62
538.25	55739.86
538.42	55573.68
538.59	56023.06
538.75	55721.13
538.92	56081.58
539.09	56224.35
539.26	55978.59
539.43	55973.91
539.60	56041.79
539.77	56399.89
539.94	56343.72
540.11	56156.47
540.28	56320.31
540.44	56299.25
540.61	56034.77
540.78	56430.32
540.95	56346.06
541.12	56310.95
541.29	56196.26
541.46	56332.01
541.62	56514.58
541.79	56582.45
541.96	56444.36
542.13	56481.81
542.30	56603.52
542.47	56624.58
542.63	56479.47
542.80	56701.82
542.97	57017.79
543.14	56914.81
543.31	57228.44
543.48	57181.63
543.64	57275.25
543.81	57097.37
543.98	57258.87
544.15	57146.52
544.32	57249.50
544.48	57593.56
544.65	57169.93
544.82	57436.75
544.99	57036.51
545.16	57441.43
545.32	57329.08
545.49	57499.94
545.66	57598.24
545.83	57525.69
546.00	57698.89
546.16	57373.55
546.33	57305.68
546.50	57425.04
546.67	57691.86
546.83	57373.55
547.00	57703.57
547.17	57382.91
547.34	57715.27
547.50	57757.40
547.67	57897.83
547.84	57783.15
548.00	57982.09
548.17	58075.71
548.34	57834.64
548.51	58047.63
548.67	57975.07
548.84	57893.15
549.01	57984.43
549.18	58052.31
549.34	58295.72
549.51	58342.53
549.68	58251.25
549.84	58192.74
550.01	58440.84
550.18	58164.65
550.34	58532.12
550.51	58501.69
550.68	58080.39
550.84	57944.64
551.01	58541.48
551.18	58410.41
551.34	58309.77
551.51	58623.40
551.68	58466.58
551.84	58431.47
552.01	58485.31
552.18	58546.16
552.34	58405.73
552.51	58417.43
552.68	58410.41
552.84	58595.31
553.01	58862.13
553.18	58766.17
553.34	58862.13
553.51	58679.57
553.67	58906.60
553.84	58789.58
554.01	58794.26
554.17	59065.76
554.34	58915.96
554.51	58953.41
554.67	58817.66
554.84	58960.44
555.00	58850.43
555.17	58988.52
555.33	59004.91
555.50	59004.91
555.67	58679.57
555.83	58754.47
556.00	58920.65
556.16	59245.98
556.33	59128.95
556.50	58958.09
556.66	59323.22
556.83	59121.93
556.99	59454.29
557.16	59501.10
557.32	59316.20
557.49	59412.16
557.65	59203.85
557.82	59192.15
557.98	59161.72
558.15	59271.73
558.32	59398.12
558.48	59344.28
558.65	59386.41
558.81	59388.75
558.98	59501.10
559.14	59367.69
559.31	59306.83
559.47	59629.83
559.64	59657.91
559.80	59676.64
559.97	59765.58
560.13	59283.43
560.30	59629.83
560.46	59788.98
560.63	59583.02
560.79	59625.15
560.96	59770.26
561.12	59723.45
561.29	59653.23
561.45	59835.80
561.61	59650.89
561.78	59559.61
561.94	59576.00
562.11	59796.01
562.27	59894.31
562.44	59854.52
562.60	59781.96
562.77	59856.86
562.93	59950.48
563.10	59891.97
563.26	59788.98
563.42	59990.27
563.59	60086.23
563.75	59941.12
563.92	59999.63
564.08	59863.88
564.24	59934.10
564.41	59856.86
564.57	60067.51
564.74	59920.05
564.90	59859.20
565.07	59971.55
565.23	60072.19
565.39	59765.58
565.56	60177.51
565.72	60051.12
565.88	60058.15
566.05	60156.45
566.21	59941.12
566.38	60170.49
566.54	60062.83
566.70	60303.90
566.87	60147.09
567.03	60133.04
567.19	60371.78
567.36	60254.75
567.52	60133.04
567.68	60460.72
567.85	60261.77
568.01	60252.41
568.17	60226.66
568.34	60357.74
568.50	60306.24
568.66	60315.61
568.83	60463.06
568.99	60090.91
569.15	60165.81
569.32	60163.47
569.48	60200.92
569.64	60427.95
569.81	60353.05
569.97	60107.30
570.13	60423.27
570.30	60336.67
570.46	60313.26
570.62	60374.12
570.78	60437.31
570.95	60186.88
571.11	60488.80
571.27	60210.28
571.43	60603.49
571.60	60633.92
571.76	60540.30
571.92	60479.44
572.09	60306.24
572.25	60474.76
572.41	60509.87
572.57	60640.94
572.74	60767.33
572.90	60479.44
573.06	60374.12
573.22	60451.36
573.38	60357.74
573.55	60313.26
573.71	60821.16
573.87	60465.40
574.03	60378.80
574.20	60542.64
574.36	60640.94
574.52	60708.82
574.68	60566.04
574.84	60608.17
575.01	60549.66
575.17	60542.64
575.33	60760.31
575.49	60575.40
575.65	60662.00
575.82	60523.91
575.98	60657.32
576.14	60926.49
576.30	60671.37
576.46	60540.30
576.62	60561.36
576.79	60542.64
576.95	60652.64
577.11	60647.96
577.27	60589.45
577.43	60931.17
577.59	60736.90
577.75	60697.11
577.92	60456.04
578.08	60615.19
578.24	60928.83
578.40	60790.73
578.56	60867.97
578.72	60884.36
578.88	61095.00
579.04	60931.17
579.21	60818.82
579.37	60823.50
579.53	60828.18
579.69	60573.06
579.85	60676.05
580.01	60678.39
580.17	60636.26
580.33	60753.29
580.49	60956.91
580.65	60669.03
580.82	60853.93
580.98	60825.84
581.14	60741.58
581.30	60912.44
581.46	60767.33
581.62	60980.32
581.78	60734.56
581.94	60783.71
582.10	60814.14
582.26	60800.10
582.42	60750.94
582.58	60917.12
582.74	60685.41
582.90	60722.86
583.06	60804.78
583.22	60629.24
583.38	60736.90
583.54	60933.51
583.70	61008.40
583.86	60985.00
584.02	60631.58
584.18	60987.34
584.34	60879.67
584.50	60919.46
584.66	60739.24
584.82	60879.67
584.98	61020.11
585.14	60926.49
585.30	60678.39
585.46	60963.93
585.62	60764.99
585.78	61036.49
585.94	60706.47
586.10	60896.06
586.26	60844.57
586.42	60999.04
586.58	60963.93
586.74	60938.19
586.90	60945.21
587.06	60879.67
587.22	61038.83
587.38	60814.14
587.54	60938.19
587.70	61123.09
587.86	60933.51
588.02	60933.51
588.18	61006.06
588.34	60846.91
588.49	60776.69
