SpectraSuite Data File
++++++++++++++++++++++++++++++++++++
Date: Fri Oct 25 11:22:55 EDT 2013
User: price-jones
Dark Spectrum Present: No
Reference Spectrum Present: No
Number of Sampled Component Spectra: 1
Spectrometers: USB2+H05261
Integration Time (usec): 100000 (USB2+H05261)
Spectra Averaged: 1 (USB2+H05261)
Boxcar Smoothing: 0 (USB2+H05261)
Correct for Electrical Dark: No (USB2+H05261)
Strobe/Lamp Enabled: No (USB2+H05261)
Correct for Detector Non-linearity: No (USB2+H05261)
Correct for Stray Light: No (USB2+H05261)
Number of Pixels in Processed Spectrum: 2048
>>>>>Begin Processed Spectral Data<<<<<
365.73	198.95
365.92	198.95
366.12	198.95
366.32	124.05
366.52	124.05
366.72	166.18
366.91	131.07
367.11	126.39
367.31	84.26
367.51	170.86
367.70	110.01
367.90	131.07
368.10	133.41
368.30	145.11
368.49	140.43
368.69	110.01
368.89	131.07
369.09	121.71
369.28	217.67
369.48	140.43
369.68	135.75
369.87	145.11
370.07	142.77
370.27	269.16
370.47	322.99
370.66	540.66
370.86	669.39
371.06	636.63
371.25	716.20
371.45	634.29
371.65	678.76
371.84	653.01
372.04	678.76
372.24	781.74
372.44	664.71
372.63	784.08
372.83	727.91
373.03	727.91
373.22	671.73
373.42	695.14
373.62	758.33
373.81	713.86
374.01	814.51
374.21	828.55
374.40	844.93
374.60	851.96
374.79	716.20
374.99	816.85
375.19	828.55
375.38	870.68
375.58	933.87
375.78	821.53
375.97	868.34
376.17	901.11
376.37	877.70
376.56	812.17
376.76	866.00
376.95	922.17
377.15	863.66
377.35	894.08
377.54	887.06
377.74	945.58
377.93	863.66
378.13	917.49
378.33	919.83
378.52	968.98
378.72	919.83
378.91	959.62
379.11	973.66
379.31	917.49
379.50	929.19
379.70	915.15
379.89	950.26
380.09	961.96
380.28	966.64
380.48	938.55
380.68	1020.47
380.87	987.71
381.07	978.34
381.26	1020.47
381.46	1025.15
381.65	1048.56
381.85	973.66
382.04	997.07
382.24	945.58
382.43	1036.86
382.63	1116.44
382.83	1163.25
383.02	1128.14
383.22	1074.31
383.41	1123.46
383.61	1132.82
383.80	1179.63
384.00	1193.67
384.19	1086.01
384.39	1165.59
384.58	1139.84
384.78	1128.14
384.97	1153.88
385.17	1121.12
385.36	1097.71
385.56	1088.35
385.75	1179.63
385.95	1228.78
386.14	1233.46
386.34	1160.91
386.53	1231.12
386.72	1186.65
386.92	1210.06
387.11	1217.08
387.31	1280.27
387.50	1277.93
387.70	1301.34
387.89	1226.44
388.09	1282.61
388.28	1350.49
388.48	1331.76
388.67	1324.74
388.86	1362.19
389.06	1322.40
389.25	1378.58
389.45	1352.83
389.64	1371.55
389.84	1406.66
390.03	1310.70
390.22	1394.96
390.42	1301.34
390.61	1327.08
390.81	1366.87
391.00	1371.55
391.19	1446.45
391.39	1390.28
391.58	1413.68
391.78	1462.83
391.97	1551.78
392.16	1556.46
392.36	1614.97
392.55	1493.26
392.75	1504.96
392.94	1453.47
393.13	1570.50
393.33	1540.07
393.52	1638.38
393.71	1598.59
393.91	1565.82
394.10	1537.73
394.29	1586.88
394.49	1619.65
394.68	1598.59
394.88	1673.48
395.07	1619.65
395.26	1645.40
395.46	1692.21
395.65	1680.50
395.84	1736.68
396.04	1750.72
396.23	1699.23
396.42	1811.57
396.62	1727.32
396.81	1792.85
397.00	1858.39
397.19	1771.79
397.39	1792.85
397.58	1827.96
397.77	1874.77
397.97	1748.38
398.16	1879.45
398.35	1797.53
398.55	1865.41
398.74	1921.58
398.93	2003.50
399.12	1888.81
399.32	1912.22
399.51	2003.50
399.70	2036.27
399.90	2031.58
400.09	2045.63
400.28	2087.76
400.47	1970.73
400.67	2153.29
400.86	2064.35
401.05	2181.38
401.24	2064.35
401.44	2036.27
401.63	2249.25
401.82	2174.36
402.01	2146.27
402.21	2134.57
402.40	2202.44
402.59	2176.70
402.78	2120.53
402.97	2209.47
403.17	2359.26
403.36	2207.13
403.55	2310.11
403.74	2331.17
403.93	2406.07
404.13	2392.03
404.32	2352.24
404.51	2331.17
404.70	2385.01
404.89	2382.67
405.09	2499.69
405.28	2370.96
405.47	2513.74
405.66	2392.03
405.85	2497.35
406.05	2612.04
406.24	2633.10
406.43	2621.40
406.62	2551.18
406.81	2752.47
407.00	2649.49
407.20	2609.70
407.39	2712.68
407.58	2733.75
407.77	2698.64
407.96	2656.51
408.15	2904.60
408.34	2789.92
408.54	2808.64
408.73	2796.94
408.92	2909.29
409.11	2953.76
409.30	2876.52
409.49	2876.52
409.68	2789.92
409.87	2960.78
410.07	3059.08
410.26	2949.08
410.45	3063.76
410.64	3126.96
410.83	3040.36
411.02	3108.23
411.21	3201.85
411.40	3215.90
411.59	3297.81
411.78	3318.88
411.98	3227.60
412.17	3206.53
412.36	3370.37
412.55	3466.33
412.74	3475.70
412.93	3426.54
413.12	3393.78
413.31	3632.51
413.50	3452.29
413.69	3625.49
413.88	3665.28
414.07	3674.64
414.26	3705.07
414.45	3688.68
414.64	3674.64
414.83	3765.92
415.02	3838.48
415.22	3840.82
415.41	3812.73
415.60	4046.79
415.79	3957.85
415.98	3941.46
416.17	3964.87
416.36	3992.95
416.55	4081.89
416.74	4032.74
416.93	4065.51
417.12	4184.88
417.31	4175.52
417.50	4280.84
417.69	4381.48
417.88	4301.90
418.07	4234.03
418.26	4346.37
418.45	4386.16
418.64	4418.93
418.83	4461.06
419.02	4428.29
419.21	4505.53
419.39	4505.53
419.58	4571.07
419.77	4486.81
419.96	4517.23
420.15	4599.15
420.34	4517.23
420.53	4650.64
420.72	4788.74
420.91	4657.67
421.10	4983.00
421.29	4770.01
421.48	4697.46
421.67	4767.67
421.86	4777.03
422.05	4919.81
422.24	4868.31
422.43	4837.89
422.61	4828.53
422.80	5125.77
422.99	4994.70
423.18	5067.26
423.37	5142.16
423.56	4990.02
423.75	4990.02
423.94	4917.47
424.13	4770.01
424.32	4875.34
424.50	5043.85
424.69	5081.30
424.88	5097.69
425.07	4943.21
425.26	4994.70
425.45	4975.98
425.64	5008.75
425.83	4938.53
426.01	5135.14
426.20	5018.11
426.39	5083.64
426.58	5149.18
426.77	5060.24
426.96	5233.44
427.15	5170.24
427.33	5313.02
427.52	5212.37
427.71	5408.98
427.90	5254.50
428.09	5305.99
428.28	5331.74
428.46	5411.32
428.65	5390.25
428.84	5678.14
429.03	5619.63
429.22	5399.62
429.40	5476.85
429.59	5621.97
429.78	5413.66
429.97	5242.80
430.16	5598.56
430.34	5673.46
430.53	5589.20
430.72	5673.46
430.91	5755.38
431.10	5797.51
431.28	5727.29
431.47	5881.77
431.66	5870.06
431.85	5738.99
432.03	5935.60
432.22	6104.12
432.41	5853.68
432.60	5966.03
432.79	5884.11
432.97	6071.35
433.16	5905.17
433.35	6019.86
433.54	6179.01
433.72	6265.61
433.91	6181.35
434.10	6338.17
434.28	6085.39
434.47	6186.04
434.66	6239.87
434.85	6640.10
435.03	6356.90
435.22	6286.68
435.41	6377.96
435.59	6483.28
435.78	6574.56
435.97	6509.03
436.16	6352.21
436.34	6457.54
436.53	6670.53
436.72	6885.86
436.90	6504.35
437.09	6719.68
437.28	6436.47
437.46	6684.57
437.65	6787.55
437.84	6881.18
438.02	6825.00
438.21	6881.18
438.40	6810.96
438.58	6953.73
438.77	7061.40
438.96	7201.83
439.14	7019.27
439.33	7152.68
439.52	7328.22
439.70	7382.05
439.89	7461.63
440.08	7616.10
440.26	7417.16
440.45	7545.89
440.63	7482.69
440.82	7737.81
441.01	7503.76
441.19	7637.17
441.38	7604.40
441.57	7861.86
441.75	7847.82
441.94	8081.87
442.12	8002.29
442.31	8128.68
442.50	8093.57
442.68	8056.12
442.87	8105.28
443.05	8116.98
443.24	8344.01
443.43	8273.79
443.61	8215.28
443.80	8397.84
443.98	8056.12
444.17	8018.68
444.35	8271.45
444.54	8311.24
444.73	8468.06
444.91	8329.97
445.10	8362.73
445.28	8367.42
445.47	8376.78
445.65	8458.70
445.84	8521.89
446.02	8510.19
446.21	8568.70
446.39	8535.93
446.58	8355.71
446.77	8634.24
446.95	8250.39
447.14	8400.18
447.32	8713.81
447.51	8669.34
447.69	8681.05
447.88	8510.19
448.06	8587.43
448.25	8575.72
448.43	8664.66
448.62	8596.79
448.80	8781.69
448.99	8692.75
449.17	8774.67
449.36	8793.39
449.54	8769.99
449.73	9029.79
449.91	8971.27
450.10	9076.60
450.28	9172.56
450.46	9233.41
450.65	9231.07
450.83	9076.60
451.02	8999.36
451.20	9284.91
451.39	9177.24
451.57	9095.32
451.76	9022.77
451.94	9029.79
452.13	9298.95
452.31	9394.91
452.49	9364.48
452.68	9441.72
452.86	9287.25
453.05	9465.13
453.23	9760.03
453.42	9451.08
453.60	9502.58
453.78	9537.68
453.97	9434.70
454.15	9593.86
454.34	9446.40
454.52	9825.57
454.70	9631.30
454.89	9846.63
455.07	9837.27
455.26	9963.66
455.44	10174.31
455.62	9837.27
455.81	9687.48
455.99	10092.39
456.17	10176.65
456.36	10171.97
456.54	10176.65
456.73	10352.19
456.91	10434.11
457.09	10569.86
457.28	10647.10
457.46	10406.02
457.64	10501.98
457.83	10490.28
458.01	10553.48
458.19	10672.84
458.38	10600.29
458.56	11019.24
458.74	10714.97
458.93	10661.14
459.11	10794.55
459.29	10712.63
459.48	10850.72
459.66	10839.02
459.84	10977.11
460.03	11042.65
460.21	11159.67
460.39	11300.11
460.57	11084.78
460.76	11262.66
460.94	11171.38
461.12	11325.85
461.31	11370.32
461.49	11339.90
461.67	11304.79
461.85	11822.05
462.04	11424.15
462.22	11866.52
462.40	11442.88
462.59	11543.52
462.77	11349.26
462.95	11805.66
463.13	11599.70
463.32	11709.70
463.50	11962.48
463.68	11756.51
463.86	12201.21
464.05	11665.23
464.23	11875.88
464.41	12063.12
464.59	11824.39
464.78	12390.80
464.96	12025.67
465.14	12039.72
465.32	12100.57
465.50	12252.70
465.69	12229.30
465.87	12037.38
466.05	12360.37
466.23	12191.85
466.41	12531.23
466.60	12475.06
466.78	12367.39
466.96	12301.86
467.14	12482.08
467.32	12475.06
467.51	12751.24
467.69	12334.62
467.87	12578.04
468.05	12793.37
468.23	12535.91
468.41	12343.99
468.60	12779.32
468.78	12847.20
468.96	12973.59
469.14	12772.30
469.32	13341.05
469.50	12912.74
469.69	13041.46
469.87	13202.96
470.05	13144.45
470.23	13429.99
470.41	13612.56
470.59	13327.01
470.77	13460.42
470.95	13518.93
471.14	13692.13
471.32	13184.24
471.50	13598.51
471.68	13797.46
471.86	13888.74
472.04	13820.86
472.22	14518.34
472.40	14068.96
472.58	14167.26
472.77	14310.04
472.95	14387.27
473.13	14853.04
473.31	13996.40
473.49	14373.23
473.67	14434.08
473.85	14340.46
474.03	14633.03
474.21	14607.28
474.39	14951.34
474.57	15033.26
474.75	14960.70
474.93	15103.48
475.12	15110.50
475.30	15349.23
475.48	15487.32
475.66	15229.87
475.84	15541.16
476.02	15566.90
476.20	15744.78
476.38	15946.07
476.56	16250.34
476.74	16091.18
476.92	16053.73
477.10	15974.16
477.28	16269.06
477.46	16449.28
477.64	16601.42
477.82	16685.68
478.00	16879.94
478.18	16877.60
478.36	16854.20
478.54	17144.42
478.72	17376.14
478.90	17523.59
479.08	17678.07
479.26	17769.35
479.44	17944.89
479.62	17884.03
479.80	18380.23
479.98	18281.92
480.16	18537.04
480.34	18391.93
480.52	18480.87
480.70	19183.03
480.88	18705.56
481.06	18860.04
481.24	19316.44
481.41	19417.08
481.59	19730.72
481.77	19559.86
481.95	19688.59
482.13	20105.20
482.31	19810.29
482.49	20421.17
482.67	20540.54
482.85	20444.58
483.03	20854.17
483.21	21263.77
483.39	21355.05
483.57	21266.11
483.74	21472.07
483.92	21589.10
484.10	21542.29
484.28	21905.07
484.46	22157.85
484.64	22686.81
484.82	22309.99
485.00	22602.55
485.18	22986.40
485.35	23311.74
485.53	22948.95
485.71	23398.34
485.89	23747.08
486.07	23896.87
486.25	23517.70
486.43	24142.63
486.61	24060.71
486.78	24606.05
486.96	24322.85
487.14	24521.79
487.32	24945.43
487.50	25191.19
487.68	25399.49
487.85	25408.86
488.03	25575.03
488.21	25818.45
488.39	25928.45
488.57	26202.30
488.75	26448.05
488.92	26754.66
489.10	26806.16
489.28	26892.76
489.46	27578.53
489.64	27288.31
489.81	28367.29
489.99	27864.08
490.17	28381.34
490.35	28428.15
490.53	28496.02
490.70	28985.19
490.88	28613.05
491.06	29450.96
491.24	29055.41
491.41	29069.45
491.59	29481.39
491.77	29710.76
491.95	29628.84
492.13	30005.67
492.30	30326.32
492.48	30719.53
492.66	30419.94
492.84	30436.33
493.01	30761.66
493.19	31009.76
493.37	31307.01
493.54	31585.53
493.72	32219.81
493.90	31690.85
494.08	32222.16
494.25	32411.74
494.43	32425.78
494.61	32704.31
494.79	32732.39
494.96	32886.87
495.14	33317.53
495.32	33401.79
495.49	33656.90
495.67	33488.38
495.85	34045.43
496.02	33783.29
496.20	34115.65
496.38	34342.68
496.55	34466.73
496.73	35234.42
496.91	35117.40
497.09	35332.73
497.26	35737.64
497.44	35421.67
497.62	35826.58
497.79	35777.43
497.97	35992.76
498.14	36233.83
498.32	36584.91
498.50	36676.19
498.67	37097.49
498.85	36781.52
499.03	36931.31
499.20	36996.85
499.38	37429.85
499.56	37471.98
499.73	37556.24
499.91	37708.37
500.08	37972.85
500.26	37605.39
500.44	37984.55
500.61	38462.02
500.79	38345.00
500.97	38258.40
501.14	38864.60
501.32	39108.01
501.49	39318.66
501.67	39037.80
501.84	39456.75
502.02	39316.32
502.20	39611.23
502.37	39861.66
502.55	40130.83
502.72	39718.89
502.90	39746.98
503.07	39536.33
503.25	40568.51
503.43	40069.97
503.60	40627.02
503.78	40446.80
503.95	41006.19
504.13	41120.87
504.30	41486.00
504.48	40713.62
504.65	41247.26
504.83	41783.24
505.01	41839.42
505.18	41682.60
505.36	41949.42
505.53	41593.66
505.71	41600.68
505.88	42415.19
506.06	41806.65
506.23	42674.99
506.41	42363.70
506.58	42391.78
506.76	42810.74
506.93	42911.38
507.11	42712.44
507.28	43384.17
507.46	43358.42
507.63	43271.82
507.81	43796.10
507.98	43323.32
508.16	43344.38
508.33	43812.49
508.50	43746.95
508.68	43927.17
508.85	44364.85
509.03	43896.75
509.20	44360.17
509.38	44957.01
509.55	45160.64
509.73	44795.51
509.90	45261.28
510.08	45078.72
510.25	45118.51
510.42	45514.06
510.60	45434.48
510.77	45464.91
510.95	46248.99
511.12	45783.22
511.30	45605.34
511.47	45705.98
511.64	45963.44
511.82	46440.91
511.99	45991.53
512.17	46504.10
512.34	46326.22
512.51	46866.89
512.69	47035.41
512.86	46777.95
513.04	47009.66
513.21	47257.76
513.38	47168.82
513.56	47473.09
513.73	47253.08
513.90	47632.24
514.08	47709.48
514.25	47611.18
514.43	48098.01
514.60	47725.86
514.77	47971.62
514.95	48086.31
515.12	48119.07
515.29	47662.67
515.47	48149.50
515.64	48807.19
515.81	48296.95
515.99	48542.71
516.16	48870.39
516.33	48673.78
516.51	48949.96
516.68	48795.49
516.85	49003.80
517.03	49010.82
517.20	49275.30
517.37	49184.02
517.54	49092.74
517.72	49085.72
517.89	49523.40
518.06	49528.08
518.24	49663.83
518.41	49387.64
518.58	49720.00
518.75	49584.25
518.93	50066.40
519.10	49883.84
519.27	49628.72
519.45	49698.94
519.62	50349.60
519.79	50052.36
519.96	50401.10
520.14	50754.52
520.31	50450.25
520.48	50864.52
520.65	50960.48
520.83	51140.71
521.00	51196.88
521.17	51070.49
521.34	51068.15
521.52	50962.82
521.69	51316.25
521.86	51241.35
522.03	51405.19
522.20	51700.09
522.38	51686.05
522.55	51782.01
522.72	51562.00
522.89	51735.20
523.07	52109.69
523.24	51566.68
523.41	51760.95
523.58	51971.60
523.75	52376.51
523.92	52348.42
524.10	52514.60
524.27	52708.86
524.44	52303.95
524.61	52760.36
524.78	52406.94
524.96	52582.48
525.13	52701.84
525.30	52549.71
525.47	52952.28
525.64	52683.12
525.81	53055.26
525.98	53191.01
526.16	53144.20
526.33	52994.41
526.50	53521.03
526.67	53233.14
526.84	53258.89
527.01	52996.75
527.18	53041.22
527.36	53298.68
527.53	53469.54
527.70	53558.48
527.87	53656.78
528.04	53434.43
528.21	53792.53
528.38	53911.90
528.55	54024.25
528.72	53790.19
528.89	54101.48
529.07	53446.13
529.24	53818.28
529.41	53944.67
529.58	53815.94
529.75	53776.15
529.92	54120.21
530.09	54246.60
530.26	54405.75
530.43	54384.69
530.60	54174.04
530.77	53916.58
530.94	54501.71
531.11	54335.54
531.28	54539.16
531.46	54513.42
531.63	54438.52
531.80	54419.80
531.97	54424.48
532.14	54864.50
532.31	54801.30
532.48	54616.40
532.65	54920.67
532.82	54876.20
532.99	55023.65
533.16	54897.27
533.33	55222.60
533.50	55325.58
533.67	55236.64
533.84	55082.17
534.01	55215.58
534.18	55405.16
534.35	55599.43
534.52	55367.71
534.69	55440.27
534.86	55655.60
535.03	55442.61
535.20	55576.02
535.37	55756.24
535.54	55632.19
535.71	55484.74
535.88	55849.86
536.05	55702.41
536.22	55877.95
536.38	55814.76
536.55	55943.48
536.72	55901.36
536.89	55529.21
537.06	55796.03
537.23	56149.45
537.40	55948.17
537.57	56034.77
537.74	56081.58
537.91	56324.99
538.08	56140.09
538.25	55882.63
538.42	56198.60
538.59	56491.17
538.75	56240.73
538.92	56399.89
539.09	56477.13
539.26	56264.14
539.43	56449.04
539.60	56435.00
539.77	56484.15
539.94	56750.97
540.11	56306.27
540.28	56793.10
540.44	56776.72
540.61	56662.03
540.78	56502.87
540.95	56907.79
541.12	56481.81
541.29	56713.52
541.46	57078.64
541.62	56853.95
541.79	56978.00
541.96	56610.54
542.13	56736.93
542.30	57085.67
542.47	57034.17
542.63	57202.69
542.80	57174.61
542.97	57411.00
543.14	57502.28
543.31	57485.90
543.48	57446.11
543.64	57593.56
543.81	57626.33
543.98	57626.33
544.15	57638.03
544.32	57710.59
544.48	57963.37
544.65	57563.14
544.82	57481.22
544.99	57738.68
545.16	57979.75
545.32	57923.58
545.49	57813.57
545.66	58110.82
545.83	57954.00
546.00	58174.02
546.16	58021.88
546.33	57834.64
546.50	57972.73
546.67	57949.32
546.83	57682.50
547.00	58157.63
547.17	58071.03
547.34	57930.60
547.50	58066.35
547.67	58298.06
547.84	58279.34
548.00	58300.40
548.17	58499.35
548.34	58389.34
548.51	58632.76
548.67	58588.29
548.84	58534.46
549.01	58415.09
549.18	58333.17
549.34	58637.44
549.51	58623.40
549.68	58714.68
549.84	58609.35
550.01	58773.19
550.18	58604.67
550.34	58883.20
550.51	58695.95
550.68	58506.37
550.84	58595.31
551.01	58726.38
551.18	58794.26
551.34	58897.24
551.51	58918.31
551.68	58869.15
551.84	58908.94
552.01	58702.98
552.18	58866.81
552.34	58958.09
552.51	58981.50
552.68	59121.93
552.84	58803.62
553.01	59243.64
553.18	59028.31
553.34	59171.08
553.51	58820.00
553.67	59199.17
553.84	59171.08
554.01	59323.22
554.17	59159.38
554.34	59355.99
554.51	59023.63
554.67	59386.41
554.84	59243.64
555.00	59271.73
555.17	59288.11
555.33	59355.99
555.50	59384.07
555.67	59161.72
555.83	59292.79
556.00	59510.46
556.16	59770.26
556.33	59578.34
556.50	59526.84
556.66	59611.10
556.83	59318.54
556.99	59512.80
557.16	59817.07
557.32	59824.09
557.49	59964.52
557.65	59686.00
557.82	59458.97
557.98	59730.47
558.15	59805.37
558.32	59674.30
558.48	59767.92
558.65	59671.96
558.81	59686.00
558.98	59774.94
559.14	59870.90
559.31	59945.80
559.47	59941.12
559.64	59966.87
559.80	59894.31
559.97	60123.68
560.13	59793.67
560.30	60060.49
560.46	59980.91
560.63	59861.54
560.79	60257.09
560.96	60196.24
561.12	59990.27
561.29	60023.04
561.45	60016.02
561.61	60156.45
561.78	60074.53
561.94	60191.56
562.11	60175.17
562.27	60114.32
562.44	60367.10
562.60	60207.94
562.77	60184.54
562.93	60081.55
563.10	60168.15
563.26	60004.31
563.42	60528.59
563.59	60259.43
563.75	60346.03
563.92	60343.69
564.08	60306.24
564.24	60341.35
564.41	60353.05
564.57	60320.29
564.74	60385.82
564.90	60650.30
565.07	60472.42
565.23	60266.45
565.39	60460.72
565.56	60229.01
565.72	60425.61
565.88	60327.31
566.05	60432.63
566.21	60198.58
566.38	60662.00
566.54	60350.71
566.70	60699.45
566.87	60729.88
567.03	60308.58
567.19	60790.73
567.36	60458.38
567.52	60556.68
567.68	60566.04
567.85	60376.46
568.01	60633.92
568.17	60666.69
568.34	60832.86
568.50	60568.38
568.66	60570.72
568.83	60704.13
568.99	60645.62
569.15	60788.39
569.32	60603.49
569.48	60568.38
569.64	60853.93
569.81	60566.04
569.97	60657.32
570.13	60601.15
570.30	60509.87
570.46	60711.16
570.62	60910.10
570.78	60729.88
570.95	60732.22
571.11	60858.61
571.27	60722.86
571.43	60846.91
571.60	60893.72
571.76	60788.39
571.92	60945.21
572.09	60867.97
572.25	60945.21
572.41	60846.91
572.57	60713.50
572.74	61085.64
572.90	60992.02
573.06	61034.15
573.22	60938.19
573.38	60842.23
573.55	60809.46
573.71	61083.30
573.87	60889.04
574.03	60788.39
574.20	61116.07
574.36	60966.27
574.52	61073.94
574.68	60985.00
574.84	61148.84
575.01	61059.90
575.17	60987.34
575.33	60961.59
575.49	60727.54
575.65	60977.98
575.82	61251.82
575.98	61015.43
576.14	61116.07
576.30	61254.16
576.46	60966.27
576.62	60914.78
576.79	61104.37
576.95	60750.94
577.11	60956.91
577.27	61219.05
577.43	60999.04
577.59	60835.20
577.75	60952.23
577.92	60874.99
578.08	61146.50
578.24	61118.41
578.40	61212.03
578.56	61268.20
578.72	60961.59
578.88	61310.33
579.04	61434.38
579.21	61125.43
579.37	61352.46
579.53	61298.63
579.69	61006.06
579.85	60928.83
580.01	61249.48
580.17	60874.99
580.33	61073.94
580.49	61226.07
580.65	61095.00
580.82	61202.67
580.98	61214.37
581.14	61076.28
581.30	61380.55
581.46	61190.97
581.62	61006.06
581.78	61045.85
581.94	61371.19
582.10	61305.65
582.26	60977.98
582.42	61008.40
582.58	61176.92
582.74	61226.07
582.90	61125.43
583.06	61181.60
583.22	61144.16
583.38	61261.18
583.54	61310.33
583.70	61179.26
583.86	61396.93
584.02	61137.13
584.18	61230.75
584.34	61265.86
584.50	61200.33
584.66	61092.66
584.82	61158.20
584.98	61357.14
585.14	61219.05
585.30	61200.33
585.46	61354.80
585.62	61401.61
585.78	61322.04
585.94	60994.36
586.10	61338.42
586.26	61289.27
586.42	61366.51
586.58	61366.51
586.74	61205.01
586.90	61268.20
587.06	61343.10
587.22	61167.56
587.38	61361.82
587.54	61406.30
587.70	61572.47
587.86	61202.67
588.02	61399.27
588.18	61333.74
588.34	61483.53
588.49	61219.05
