SpectraSuite Data File
++++++++++++++++++++++++++++++++++++
Date: Fri Oct 25 10:48:22 EDT 2013
User: price-jones
Dark Spectrum Present: No
Reference Spectrum Present: No
Number of Sampled Component Spectra: 1
Spectrometers: USB2+H05261
Integration Time (usec): 100000 (USB2+H05261)
Spectra Averaged: 1 (USB2+H05261)
Boxcar Smoothing: 0 (USB2+H05261)
Correct for Electrical Dark: No (USB2+H05261)
Strobe/Lamp Enabled: No (USB2+H05261)
Correct for Detector Non-linearity: No (USB2+H05261)
Correct for Stray Light: No (USB2+H05261)
Number of Pixels in Processed Spectrum: 2048
>>>>>Begin Processed Spectral Data<<<<<
365.73	110.01
365.92	110.01
366.12	110.01
366.32	51.49
366.52	21.06
366.72	14.04
366.91	39.79
367.11	60.85
367.31	35.11
367.51	35.11
367.70	32.77
367.90	21.06
368.10	56.17
368.30	67.88
368.49	37.45
368.69	28.09
368.89	60.85
369.09	93.62
369.28	65.54
369.48	9.36
369.68	102.98
369.87	74.90
370.07	95.96
370.27	201.29
370.47	278.52
370.66	383.85
370.86	458.74
371.06	498.53
371.25	465.77
371.45	461.09
371.65	510.24
371.84	538.32
372.04	519.60
372.24	507.90
372.44	545.34
372.63	550.03
372.83	514.92
373.03	507.90
373.22	491.51
373.42	500.87
373.62	512.58
373.81	517.26
374.01	636.63
374.21	606.20
374.40	519.60
374.60	578.11
374.79	608.54
374.99	650.67
375.19	622.58
375.38	636.63
375.58	624.92
375.78	685.78
375.97	631.94
376.17	720.88
376.37	641.31
376.56	664.71
376.76	573.43
376.95	596.84
377.15	615.56
377.35	615.56
377.54	650.67
377.74	638.97
377.93	678.76
378.13	711.52
378.33	676.41
378.52	681.10
378.72	753.65
378.91	664.71
379.11	683.44
379.31	685.78
379.50	596.84
379.70	706.84
379.89	631.94
380.09	725.57
380.28	748.97
380.48	676.41
380.68	716.20
380.87	697.48
381.07	711.52
381.26	671.73
381.46	781.74
381.65	748.97
381.85	760.67
382.04	702.16
382.24	739.61
382.43	758.33
382.63	767.70
382.83	711.52
383.02	844.93
383.22	758.33
383.41	755.99
383.61	814.51
383.80	833.23
384.00	763.01
384.19	812.17
384.39	788.76
384.58	873.02
384.78	800.46
384.97	840.25
385.17	894.08
385.36	826.21
385.56	828.55
385.75	779.40
385.95	814.51
386.14	891.74
386.34	856.64
386.53	891.74
386.72	849.61
386.92	875.36
387.11	929.19
387.31	861.32
387.50	901.11
387.70	863.66
387.89	936.21
388.09	968.98
388.28	875.36
388.48	875.36
388.67	1004.09
388.86	891.74
389.06	985.37
389.25	947.92
389.45	997.07
389.64	976.00
389.84	1055.58
390.03	1153.88
390.22	1027.50
390.42	945.58
390.61	1114.10
390.81	1071.97
391.00	1020.47
391.19	997.07
391.39	1053.24
391.58	1156.22
391.78	1053.24
391.97	1104.73
392.16	1121.12
392.36	1034.52
392.55	966.64
392.75	1081.33
392.94	997.07
393.13	1043.88
393.33	1060.26
393.52	1020.47
393.71	1128.14
393.91	1158.57
394.10	1163.25
394.29	1153.88
394.49	1156.22
394.68	1249.85
394.88	1184.31
395.07	1200.69
395.26	1268.57
395.46	1235.80
395.65	1203.04
395.84	1294.32
396.04	1310.70
396.23	1238.14
396.42	1107.07
396.62	1266.23
396.81	1252.19
397.00	1193.67
397.19	1299.00
397.39	1355.17
397.58	1350.49
397.77	1420.71
397.97	1385.60
398.16	1355.17
398.35	1523.69
398.55	1483.90
398.74	1535.39
398.93	1514.33
399.12	1413.68
399.32	1530.71
399.51	1535.39
399.70	1621.99
399.90	1568.16
400.09	1577.52
400.28	1640.72
400.47	1643.06
400.67	1722.63
400.86	1673.48
401.05	1689.87
401.24	1661.78
401.44	1797.53
401.63	1771.79
401.82	1703.91
402.01	1666.46
402.21	1849.02
402.40	1820.94
402.59	1717.95
402.78	1701.57
402.97	1820.94
403.17	1858.39
403.36	1729.66
403.55	1771.79
403.74	1806.89
403.93	1774.13
404.13	1804.55
404.32	1865.41
404.51	1970.73
404.70	1827.96
404.89	1968.39
405.09	1994.14
405.28	1919.24
405.47	1968.39
405.66	1900.52
405.85	1944.99
406.05	2078.40
406.24	2008.18
406.43	2029.24
406.62	2054.99
406.81	2045.63
407.00	2043.29
407.20	2069.03
407.39	2005.84
407.58	2204.78
407.77	2265.64
407.96	2263.30
408.15	2214.15
408.34	2188.40
408.54	2282.02
408.73	2275.00
408.92	2279.68
409.11	2303.09
409.30	2312.45
409.49	2228.19
409.68	2307.77
409.87	2321.81
410.07	2321.81
410.26	2373.30
410.45	2389.69
410.64	2352.24
410.83	2537.14
411.02	2525.44
411.21	2619.06
411.40	2607.36
411.59	2586.29
411.78	2595.65
411.98	2684.59
412.17	2665.87
412.36	2562.89
412.55	2700.98
412.74	2616.72
412.93	2843.75
413.12	2731.41
413.31	2782.90
413.50	2808.64
413.69	2860.13
413.88	2977.16
414.07	3038.02
414.26	2925.67
414.45	2984.18
414.64	2909.29
414.83	2953.76
415.02	2972.48
415.22	3077.80
415.41	3098.87
415.60	3251.00
415.79	3178.45
415.98	3258.03
416.17	3255.69
416.36	3262.71
416.55	3164.40
416.74	3243.98
416.93	3269.73
417.12	3335.26
417.31	3309.52
417.50	3302.50
417.69	3538.89
417.88	3361.01
418.07	3398.46
418.26	3492.08
418.45	3452.29
418.64	3679.32
418.83	3574.00
419.02	3574.00
419.21	3555.27
419.39	3503.78
419.58	3698.05
419.77	3590.38
419.96	3744.86
420.15	3850.18
420.34	3620.81
420.53	3735.50
420.72	3744.86
420.91	3667.62
421.10	3826.78
421.29	3957.85
421.48	3899.33
421.67	3859.54
421.86	3873.59
422.05	3829.12
422.24	3705.07
422.43	3693.37
422.61	3880.61
422.80	3885.29
422.99	3871.25
423.18	3901.67
423.37	3875.93
423.56	3882.95
423.75	3873.59
423.94	3875.93
424.13	3637.19
424.32	3887.63
424.50	3878.27
424.69	3934.44
424.88	3969.55
425.07	3843.16
425.26	3826.78
425.45	3985.93
425.64	4009.34
425.83	4002.32
426.01	4056.15
426.20	3960.19
426.39	4049.13
426.58	4119.34
426.77	3971.89
426.96	4025.72
427.15	4023.38
427.33	4023.38
427.52	4105.30
427.71	4060.83
427.90	4107.64
428.09	4248.07
428.28	4212.96
428.46	4030.40
428.65	4086.58
428.84	4339.35
429.03	4367.44
429.22	4021.04
429.40	4095.94
429.59	4107.64
429.78	4067.85
429.97	4021.04
430.16	4091.26
430.34	4018.70
430.53	4411.91
430.72	4196.58
430.91	4168.49
431.10	4266.80
431.28	4451.70
431.47	4505.53
431.66	4615.54
431.85	4407.23
432.03	4636.60
432.22	4727.88
432.41	4638.94
432.60	4582.77
432.79	4681.07
432.97	4798.10
433.16	4748.95
433.35	4664.69
433.54	4765.33
433.72	4720.86
433.91	4592.13
434.10	4765.33
434.28	4882.36
434.47	4793.42
434.66	4983.00
434.85	4816.82
435.03	4938.53
435.22	5095.35
435.41	5203.01
435.59	5179.61
435.78	5095.35
435.97	5144.50
436.16	4990.02
436.34	5125.77
436.53	5048.54
436.72	5289.61
436.90	5109.39
437.09	5247.48
437.28	5198.33
437.46	5125.77
437.65	5090.67
437.84	5214.71
438.02	5144.50
438.21	5252.16
438.40	5109.39
438.58	5364.51
438.77	5280.25
438.96	5350.46
439.14	5713.25
439.33	5753.04
439.52	5713.25
439.70	5617.29
439.89	5650.05
440.08	5657.07
440.26	5668.78
440.45	5734.31
440.63	5776.44
440.82	5916.87
441.01	6071.35
441.19	5841.98
441.38	6108.80
441.57	6223.48
441.75	6132.20
441.94	6232.85
442.12	6251.57
442.31	6331.15
442.50	6363.92
442.68	6157.95
442.87	6370.94
443.05	6277.32
443.24	6345.19
443.43	6504.35
443.61	6392.00
443.80	6471.58
443.98	6408.39
444.17	6265.61
444.35	6443.49
444.54	6654.14
444.73	6457.54
444.91	6487.96
445.10	6408.39
445.28	6427.11
445.47	6284.34
445.65	6338.17
445.84	6644.78
446.02	6593.29
446.21	6626.06
446.39	6586.27
446.58	6810.96
446.77	6651.80
446.95	6431.79
447.14	6586.27
447.32	6796.92
447.51	6539.46
447.69	6829.68
447.88	6876.49
448.06	6684.57
448.25	6586.27
448.43	6757.13
448.62	6778.19
448.80	6637.76
448.99	6916.28
449.17	6949.05
449.36	6773.51
449.54	7019.27
449.73	6923.30
449.91	7211.19
450.10	7080.12
450.28	7138.63
450.46	7201.83
450.65	7253.32
450.83	7007.56
451.02	7187.79
451.20	7335.24
451.39	7272.04
451.57	7229.91
451.76	7136.29
451.94	7225.23
452.13	7199.49
452.31	7164.38
452.49	7206.51
452.68	7171.40
452.86	7211.19
453.05	7389.07
453.23	7229.91
453.42	7201.83
453.60	7269.70
453.78	7513.12
453.97	7166.72
454.15	7363.33
454.34	7194.81
454.52	7494.40
454.70	7360.98
454.89	7618.44
455.07	7480.35
455.26	7613.76
455.44	7915.69
455.62	7627.81
455.81	7964.84
455.99	7775.26
456.17	7737.81
456.36	7903.99
456.54	7845.48
456.73	8074.85
456.91	8032.72
457.09	8035.06
457.28	8152.09
457.46	8056.12
457.64	8140.38
457.83	8105.28
458.01	8006.97
458.19	8191.88
458.38	8035.06
458.56	8229.32
458.74	8248.05
458.93	8344.01
459.11	8196.56
459.29	8212.94
459.48	8276.13
459.66	8252.73
459.84	8549.98
460.03	8430.61
460.21	8549.98
460.39	8547.64
460.57	8629.56
460.76	8500.83
460.94	8643.60
461.12	8559.34
461.31	8519.55
461.49	8596.79
461.67	8617.85
461.85	8891.70
462.04	8924.46
462.22	9376.19
462.40	8959.57
462.59	8990.00
462.77	8791.05
462.95	9088.30
463.13	8919.78
463.32	9020.42
463.50	9125.75
463.68	8933.82
463.86	9149.15
464.05	8870.63
464.23	8884.67
464.41	9083.62
464.59	9050.85
464.78	9163.20
464.96	9111.71
465.14	8936.17
465.32	9238.09
465.50	9430.02
465.69	9289.59
465.87	9259.16
466.05	9085.96
466.23	9074.26
466.41	9167.88
466.60	9275.54
466.78	9221.71
466.96	9181.92
467.14	9282.56
467.32	9343.42
467.51	9345.76
467.69	9256.82
467.87	9357.46
468.05	9554.07
468.23	9282.56
468.41	9310.65
468.60	9738.97
468.78	9596.20
468.96	9387.89
469.14	9762.37
469.32	9729.61
469.50	9657.05
469.69	9776.42
469.87	9638.33
470.05	9818.55
470.23	9900.47
470.41	9729.61
470.59	10012.81
470.77	9863.02
470.95	10036.22
471.14	10169.63
471.32	10127.50
471.50	10279.63
471.68	10080.69
471.86	10410.70
472.04	10438.79
472.22	10427.09
472.40	10258.57
472.58	10232.82
472.77	10492.62
472.95	10471.56
473.13	10792.21
473.31	10726.68
473.49	10471.56
473.67	10621.35
473.85	10583.90
474.03	10817.96
474.21	10991.16
474.39	11066.05
474.57	10754.76
474.75	11082.44
474.93	11225.21
475.12	10911.58
475.30	11129.25
475.48	11162.01
475.66	11201.80
475.84	11367.98
476.02	11391.39
476.20	11480.33
476.38	11538.84
476.56	11936.73
476.74	11728.42
476.92	11932.05
477.10	11873.54
477.28	12168.45
477.46	12201.21
477.64	12292.49
477.82	12271.43
478.00	12627.19
478.18	12484.42
478.36	12556.97
478.54	12826.14
478.72	12840.18
478.90	12709.11
479.08	13235.73
479.26	13413.61
479.44	13193.60
479.62	13043.81
479.80	13104.66
479.98	13163.17
480.16	13687.45
480.34	13355.10
480.52	13614.90
480.70	13776.39
480.88	13668.73
481.06	13900.44
481.24	13848.95
481.41	13935.55
481.59	14396.64
481.77	14314.72
481.95	14445.79
482.13	14923.26
482.31	14820.27
482.49	14705.59
482.67	14778.14
482.85	15030.92
483.03	15213.48
483.21	15211.14
483.39	15400.72
483.57	15332.85
483.74	15494.35
483.92	15531.80
484.10	15651.16
484.28	15854.79
484.46	16294.81
484.64	16262.04
484.82	16046.71
485.00	16416.52
485.18	16498.44
485.35	16535.88
485.53	16212.89
485.71	16271.40
485.89	16673.98
486.07	16470.35
486.25	16648.23
486.43	16870.58
486.61	17062.51
486.78	17315.28
486.96	17589.13
487.14	17914.46
487.32	18005.74
487.50	17872.33
487.68	18258.52
487.85	18415.34
488.03	18712.58
488.21	18679.82
488.39	18492.57
488.57	18558.11
488.75	19030.90
488.92	19119.84
489.10	19201.76
489.28	19321.12
489.46	19962.43
489.64	19803.27
489.81	19978.81
489.99	20343.94
490.17	20191.80
490.35	20390.75
490.53	20400.11
490.70	20769.91
490.88	20662.25
491.06	20772.25
491.24	20882.26
491.41	20566.29
491.59	20893.96
491.77	20751.19
491.95	21076.52
492.13	21008.65
492.30	21685.06
492.48	22080.61
492.66	21715.49
492.84	22010.40
493.01	22307.65
493.19	22101.68
493.37	22321.69
493.54	22672.77
493.72	22457.44
493.90	22848.31
494.08	22993.42
494.25	23199.39
494.43	23452.17
494.61	23473.23
494.79	23332.80
494.96	23278.97
495.14	23494.30
495.32	23772.82
495.49	23421.74
495.67	24051.34
495.85	24451.58
496.02	24467.96
496.20	24687.97
496.38	24582.65
496.55	24671.59
496.73	24748.82
496.91	24699.67
497.09	25111.61
497.26	24769.89
497.44	24882.24
497.62	25074.16
497.79	25336.30
497.97	25235.66
498.14	25652.27
498.32	25830.15
498.50	25799.73
498.67	26146.12
498.85	25996.33
499.03	26127.40
499.20	26370.82
499.38	26221.02
499.56	26485.50
499.73	26384.86
499.91	26719.56
500.08	26841.26
500.26	26466.78
500.44	26651.68
500.61	27028.51
500.79	26747.64
500.97	26693.81
501.14	27367.88
501.32	27115.11
501.49	27433.42
501.67	27164.26
501.84	27311.71
502.02	27534.06
502.20	28032.60
502.37	27964.72
502.55	28030.26
502.72	27946.00
502.90	28058.34
503.07	27995.15
503.25	28423.47
503.43	28381.34
503.60	28503.04
503.78	28245.58
503.95	28400.06
504.13	28430.49
504.30	28556.88
504.48	28673.90
504.65	28879.87
504.83	29013.28
505.01	29097.54
505.18	29130.31
505.36	29663.95
505.53	29422.87
505.71	30096.95
505.88	29759.91
506.06	29638.20
506.23	29600.76
506.41	29977.58
506.58	30022.05
506.76	30148.44
506.93	30483.14
507.11	30052.48
507.28	30368.45
507.46	30195.25
507.63	30452.71
507.81	30291.21
507.98	30218.66
508.16	30726.55
508.33	30771.02
508.50	30857.62
508.68	31232.11
508.85	30981.67
509.03	31468.50
509.20	31356.16
509.38	31204.02
509.55	31021.46
509.73	31861.71
509.90	31323.39
510.08	31316.37
510.25	31679.15
510.42	31756.39
510.60	32154.28
510.77	32032.57
510.95	32458.55
511.12	31723.62
511.30	32395.35
511.47	32739.41
511.64	32526.42
511.82	32589.62
511.99	32168.32
512.17	32800.27
512.34	32175.34
512.51	32933.68
512.69	33048.36
512.86	32973.47
513.04	33280.08
513.21	33202.84
513.38	33050.70
513.56	32926.66
513.73	32917.29
513.90	33682.65
514.08	33036.66
514.25	33247.31
514.43	33462.64
514.60	33158.37
514.77	33106.88
514.95	33539.88
515.12	34120.33
515.29	33923.72
515.47	34274.80
515.64	34455.03
515.81	33961.17
515.99	34195.23
516.16	34209.27
516.33	33729.46
516.51	34043.09
516.68	33745.84
516.85	33539.88
517.03	33832.44
517.20	34366.09
517.37	34323.96
517.54	34429.28
517.72	34550.99
517.89	34026.71
518.06	34408.22
518.24	34298.21
518.41	34157.78
518.58	34771.00
518.75	34637.59
518.93	34951.22
519.10	35054.20
519.27	35147.82
519.45	35370.18
519.62	35475.50
519.79	35438.05
519.96	35653.38
520.14	35440.39
520.31	35269.53
520.48	36053.61
520.65	35807.86
520.83	36112.13
521.00	36032.55
521.17	35873.39
521.34	36039.57
521.52	36526.40
521.69	36140.21
521.86	36802.58
522.03	36711.30
522.20	36362.56
522.38	36180.00
522.55	36561.51
522.72	36446.82
522.89	36996.85
523.07	36898.55
523.24	36540.44
523.41	37195.79
523.58	36945.36
523.75	37495.38
523.92	37371.33
524.10	37699.01
524.27	37572.62
524.44	37170.05
524.61	37825.40
524.78	37542.19
524.96	37839.44
525.13	38106.26
525.30	37825.40
525.47	37937.74
525.64	37909.66
525.81	37769.22
525.98	37752.84
526.16	37806.67
526.33	37343.25
526.50	37837.10
526.67	37696.67
526.84	37507.08
527.01	37949.45
527.18	38213.93
527.36	38031.36
527.53	38513.52
527.70	38827.15
527.87	38548.62
528.04	38614.16
528.21	38756.93
528.38	38831.83
528.55	39098.65
528.72	39108.01
528.89	39033.11
529.07	38768.63
529.24	38792.04
529.41	39093.97
529.58	39040.14
529.75	38969.92
529.92	39508.24
530.09	39129.08
530.26	39636.97
530.43	39517.60
530.60	39510.58
530.77	39093.97
530.94	40069.97
531.11	39800.81
531.28	39681.44
531.46	39938.90
531.63	39653.36
531.80	39999.76
531.97	39784.43
532.14	40025.50
532.31	39571.44
532.48	39784.43
532.65	39842.94
532.82	39805.49
532.99	40334.45
533.16	40170.61
533.33	40168.27
533.50	40179.98
533.67	40236.15
533.84	39957.63
534.01	40584.89
534.18	40704.26
534.35	40882.14
534.52	40446.80
534.69	40809.58
534.86	40711.28
535.03	40737.02
535.20	41212.15
535.37	41270.67
535.54	41301.09
535.71	40715.96
535.88	40779.15
536.05	40886.82
536.22	41233.22
536.38	41008.53
536.55	40821.28
536.72	41226.20
536.89	40746.39
537.06	40989.80
537.23	42007.94
537.40	41153.64
537.57	41270.67
537.74	41509.40
537.91	42064.11
538.08	41874.52
538.25	41294.07
538.42	41432.16
538.59	41928.36
538.75	41497.70
538.92	41904.95
539.09	41497.70
539.26	41855.80
539.43	41518.76
539.60	41933.04
539.77	41830.05
539.94	41766.86
540.11	41387.69
540.28	41984.53
540.44	41965.81
540.61	41731.75
540.78	41610.04
540.95	42291.14
541.12	41542.17
541.29	42094.53
541.46	41872.18
541.62	42106.24
541.79	42241.99
541.96	42309.86
542.13	42473.70
542.30	42787.33
542.47	42710.10
542.63	42337.95
542.80	42405.83
542.97	42923.08
543.14	42555.62
543.31	43082.24
543.48	43047.13
543.64	43679.08
543.81	43110.33
543.98	43168.84
544.15	43100.97
544.32	43250.76
544.48	43620.56
544.65	43487.15
544.82	43356.08
544.99	42981.60
545.16	43484.81
545.32	42923.08
545.49	43538.65
545.66	43950.58
545.83	43477.79
546.00	43777.38
546.16	43187.56
546.33	43438.00
546.50	42979.26
546.67	43707.16
546.83	43112.67
547.00	43779.72
547.17	43325.66
547.34	43267.14
547.50	43580.78
547.67	43819.51
547.84	44261.87
548.00	44102.71
548.17	43973.98
548.34	43672.06
548.51	43997.39
548.67	44107.40
548.84	44226.76
549.01	44264.21
549.18	44182.29
549.34	44542.74
549.51	44013.77
549.68	44163.57
549.84	44289.96
550.01	44507.63
550.18	44355.49
550.34	44474.86
550.51	44299.32
550.68	44285.28
550.84	43903.77
551.01	44282.94
551.18	44219.74
551.34	44311.02
551.51	44500.61
551.68	44477.20
551.84	45083.40
552.01	44861.05
552.18	44257.19
552.34	44194.00
552.51	44257.19
552.68	44715.93
552.84	44905.52
553.01	44861.05
553.18	44664.44
553.34	44889.13
553.51	44690.19
553.67	44767.43
553.84	45062.33
554.01	45240.21
554.17	45160.64
554.34	45404.05
554.51	45200.43
554.67	44980.42
554.84	44980.42
555.00	44739.34
555.17	45221.49
555.33	45165.32
555.50	45198.09
555.67	45113.83
555.83	45158.30
556.00	45043.61
556.16	45347.88
556.33	45324.47
556.50	45698.96
556.66	45614.70
556.83	44837.64
556.99	45553.85
557.16	45404.05
557.32	45610.02
557.49	45684.92
557.65	44933.60
557.82	45799.60
557.98	45404.05
558.15	45429.80
558.32	45621.72
558.48	45331.50
558.65	45975.14
558.81	45326.81
558.98	45755.13
559.14	45378.31
559.31	45607.68
559.47	45153.62
559.64	45633.42
559.80	46490.06
559.97	45984.51
560.13	45610.02
560.30	45439.16
560.46	45694.28
560.63	45560.87
560.79	46148.34
560.96	46043.02
561.12	45673.21
561.29	46298.14
561.45	45811.31
561.61	45743.43
561.78	46092.17
561.94	45886.20
562.11	46073.45
562.27	45979.82
562.44	46073.45
562.60	46478.36
562.77	46270.05
562.93	46178.77
563.10	46117.92
563.26	46267.71
563.42	46251.33
563.59	45574.91
563.75	46117.92
563.92	46061.74
564.08	45935.35
564.24	46480.70
564.41	46401.12
564.57	46110.89
564.74	46445.59
564.90	46209.20
565.07	46031.32
565.23	46188.13
565.39	45989.19
565.56	46614.11
565.72	46424.53
565.88	46164.73
566.05	45963.44
566.21	46253.67
566.38	45940.04
566.54	46389.42
566.70	46553.26
566.87	46543.89
567.03	46515.81
567.19	46571.98
567.36	46494.74
567.52	46382.40
567.68	46220.90
567.85	46511.13
568.01	46373.03
568.17	46279.41
568.34	46337.93
568.50	46010.25
568.66	46220.90
568.83	46361.33
568.99	46263.03
569.15	45879.18
569.32	46031.32
569.48	46344.95
569.64	46499.42
569.81	46438.57
569.97	46167.07
570.13	46469.00
570.30	46188.13
570.46	46483.04
570.62	45862.80
570.78	46155.36
570.95	45961.10
571.11	46604.75
571.27	46333.24
571.43	46085.15
571.60	46625.81
571.76	46375.37
571.92	46155.36
572.09	46096.85
572.25	46593.04
572.41	46356.65
572.57	46845.82
572.74	47042.43
572.90	46799.01
573.06	46693.69
573.22	46611.77
573.38	46674.96
573.55	46064.08
573.71	46550.91
573.87	46513.47
574.03	45977.48
574.20	46487.72
574.36	46452.61
574.52	46831.78
574.68	46354.31
574.84	46529.85
575.01	46745.18
575.17	46609.43
575.33	46213.88
575.49	46218.56
575.65	46564.96
575.82	46623.47
575.98	46571.98
576.14	46974.55
576.30	46677.30
576.46	46328.56
576.62	46136.64
576.79	46717.09
576.95	46417.50
577.11	46497.08
577.27	46712.41
577.43	46689.01
577.59	46735.82
577.75	46607.09
577.92	46459.63
578.08	46225.58
578.24	46190.47
578.40	46443.25
578.56	46466.66
578.72	46827.10
578.88	46529.85
579.04	46810.71
579.21	46101.53
579.37	46433.89
579.53	46277.07
579.69	46602.41
579.85	46244.30
580.01	46820.08
580.17	46616.45
580.33	47040.09
580.49	46677.30
580.65	46918.38
580.82	46658.58
580.98	46707.73
581.14	46656.24
581.30	46927.74
581.46	46651.56
581.62	46902.00
581.78	46820.08
581.94	47014.34
582.10	47058.81
582.26	47014.34
582.42	46581.34
582.58	46663.26
582.74	46443.25
582.90	47035.41
583.06	47026.04
583.22	46946.47
583.38	46593.04
583.54	46782.63
583.70	46810.71
583.86	46700.71
584.02	45963.44
584.18	47072.85
584.34	46838.80
584.50	47189.88
584.66	46541.55
584.82	46768.58
584.98	46951.15
585.14	46770.93
585.30	46604.75
585.46	46656.24
585.62	46628.15
585.78	46754.54
585.94	46096.85
586.10	46443.25
586.26	46323.88
586.42	46817.74
586.58	46883.27
586.74	46841.14
586.90	46845.82
587.06	46717.09
587.22	46763.90
587.38	46635.17
587.54	46784.97
587.70	47033.07
587.86	46763.90
588.02	46831.78
588.18	46768.58
588.34	46602.41
588.49	46476.02
588.65	45825.35
588.81	46499.42
588.97	46160.05
589.13	46328.56
589.29	46274.73
589.45	46293.46
589.61	46417.50
589.77	46799.01
589.93	46394.10
