SpectraSuite Data File
++++++++++++++++++++++++++++++++++++
Date: Fri Oct 25 11:23:33 EDT 2013
User: price-jones
Dark Spectrum Present: No
Reference Spectrum Present: No
Number of Sampled Component Spectra: 1
Spectrometers: USB2+H05261
Integration Time (usec): 100000 (USB2+H05261)
Spectra Averaged: 1 (USB2+H05261)
Boxcar Smoothing: 0 (USB2+H05261)
Correct for Electrical Dark: No (USB2+H05261)
Strobe/Lamp Enabled: No (USB2+H05261)
Correct for Detector Non-linearity: No (USB2+H05261)
Correct for Stray Light: No (USB2+H05261)
Number of Pixels in Processed Spectrum: 2048
>>>>>Begin Processed Spectral Data<<<<<
365.73	215.33
365.92	215.33
366.12	215.33
366.32	180.22
366.52	133.41
366.72	238.73
366.91	86.60
367.11	210.65
367.31	124.05
367.51	161.50
367.70	67.88
367.90	77.24
368.10	156.82
368.30	102.98
368.49	191.92
368.69	210.65
368.89	131.07
369.09	102.98
369.28	173.20
369.48	140.43
369.68	152.13
369.87	215.33
370.07	196.60
370.27	205.97
370.47	355.76
370.66	521.94
370.86	685.78
371.06	650.67
371.25	674.07
371.45	713.86
371.65	620.24
371.84	631.94
372.04	683.44
372.24	784.08
372.44	706.84
372.63	704.50
372.83	718.54
373.03	779.40
373.22	711.52
373.42	763.01
373.62	755.99
373.81	786.42
374.01	723.23
374.21	828.55
374.40	781.74
374.60	800.46
374.79	821.53
374.99	826.21
375.19	821.53
375.38	873.02
375.58	858.98
375.78	877.70
375.97	844.93
376.17	856.64
376.37	910.47
376.56	858.98
376.76	835.57
376.95	795.78
377.15	873.02
377.35	985.37
377.54	917.49
377.74	854.30
377.93	873.02
378.13	971.32
378.33	983.02
378.52	950.26
378.72	933.87
378.91	856.64
379.11	966.64
379.31	976.00
379.50	978.34
379.70	943.24
379.89	1004.09
380.09	954.94
380.28	891.74
380.48	1027.50
380.68	950.26
380.87	1090.69
381.07	1004.09
381.26	1027.50
381.46	1006.43
381.65	1125.80
381.85	1001.75
382.04	1057.92
382.24	1064.94
382.43	1064.94
382.63	1034.52
382.83	1032.18
383.02	1067.28
383.22	1114.10
383.41	1109.41
383.61	1078.99
383.80	1125.80
384.00	1095.37
384.19	1086.01
384.39	1132.82
384.58	1128.14
384.78	1193.67
384.97	1221.76
385.17	1198.35
385.36	1142.18
385.56	1228.78
385.75	1205.38
385.95	1179.63
386.14	1146.86
386.34	1104.73
386.53	1242.82
386.72	1219.42
386.92	1214.74
387.11	1221.76
387.31	1198.35
387.50	1167.93
387.70	1203.04
387.89	1252.19
388.09	1308.36
388.28	1308.36
388.48	1158.57
388.67	1242.82
388.86	1261.55
389.06	1266.23
389.25	1357.51
389.45	1287.29
389.64	1277.93
389.84	1306.02
390.03	1369.21
390.22	1441.77
390.42	1397.30
390.61	1303.68
390.81	1371.55
391.00	1458.15
391.19	1420.71
391.39	1521.35
391.58	1390.28
391.78	1409.00
391.97	1451.13
392.16	1526.03
392.36	1526.03
392.55	1507.30
392.75	1610.29
392.94	1554.12
393.13	1544.75
393.33	1500.28
393.52	1521.35
393.71	1565.82
393.91	1645.40
394.10	1526.03
394.29	1603.27
394.49	1673.48
394.68	1650.08
394.88	1593.90
395.07	1636.03
395.26	1598.59
395.46	1675.82
395.65	1788.17
395.84	1680.50
396.04	1724.97
396.23	1827.96
396.42	1755.40
396.62	1783.49
396.81	1888.81
397.00	1781.15
397.19	1820.94
397.39	1743.70
397.58	1886.47
397.77	1804.55
397.97	1886.47
398.16	1769.44
398.35	1909.88
398.55	1820.94
398.74	1900.52
398.93	1937.96
399.12	1888.81
399.32	1860.73
399.51	1895.83
399.70	1937.96
399.90	1907.54
400.09	1944.99
400.28	2066.69
400.47	2008.18
400.67	2134.57
400.86	1949.67
401.05	1984.77
401.24	1942.64
401.44	2064.35
401.63	2176.70
401.82	2101.80
402.01	2118.18
402.21	2176.70
402.40	2125.21
402.59	2223.51
402.78	2263.30
402.97	2282.02
403.17	2310.11
403.36	2157.97
403.55	2267.98
403.74	2361.60
403.93	2335.85
404.13	2340.54
404.32	2253.94
404.51	2438.84
404.70	2403.73
404.89	2377.98
405.09	2518.42
405.28	2441.18
405.47	2389.69
405.66	2581.61
405.85	2483.31
406.05	2478.63
406.24	2431.82
406.43	2560.55
406.62	2635.44
406.81	2726.72
407.00	2567.57
407.20	2684.59
407.39	2665.87
407.58	2722.04
407.77	2712.68
407.96	2677.57
408.15	2745.45
408.34	2759.49
408.54	2722.04
408.73	2799.28
408.92	2782.90
409.11	2799.28
409.30	2822.69
409.49	2979.50
409.68	2881.20
409.87	2904.60
410.07	2995.89
410.26	2942.05
410.45	3080.14
410.64	3075.46
410.83	2991.20
411.02	3063.76
411.21	3117.59
411.40	3035.67
411.59	3131.64
411.78	3183.13
411.98	3300.16
412.17	3274.41
412.36	3234.62
412.55	3400.80
412.74	3297.81
412.93	3377.39
413.12	3424.20
413.31	3552.93
413.50	3438.25
413.69	3510.80
413.88	3735.50
414.07	3524.85
414.26	3574.00
414.45	3595.06
414.64	3733.15
414.83	3744.86
415.02	3852.52
415.22	3840.82
415.41	3873.59
415.60	3852.52
415.79	3861.88
415.98	3992.95
416.17	3948.48
416.36	3999.98
416.55	3988.27
416.74	4095.94
416.93	3927.42
417.12	4124.02
417.31	4278.50
417.50	4081.89
417.69	4315.95
417.88	4304.25
418.07	4301.90
418.26	4395.53
418.45	4451.70
418.64	4505.53
418.83	4423.61
419.02	4355.74
419.21	4643.62
419.39	4486.81
419.58	4404.89
419.77	4507.87
419.96	4617.88
420.15	4585.11
420.34	4479.79
420.53	4500.85
420.72	4624.90
420.91	4599.15
421.10	4634.26
421.29	4655.33
421.48	4692.77
421.67	4699.80
421.86	4706.82
422.05	4800.44
422.24	4863.63
422.43	4917.47
422.61	4985.34
422.80	5001.72
422.99	4751.29
423.18	5055.56
423.37	5015.77
423.56	4940.87
423.75	4964.28
423.94	4898.74
424.13	4542.98
424.32	4662.35
424.50	4926.83
424.69	4980.66
424.88	4983.00
425.07	5004.07
425.26	4994.70
425.45	5027.47
425.64	4957.25
425.83	5027.47
426.01	5249.82
426.20	4987.68
426.39	5013.43
426.58	4959.60
426.77	5060.24
426.96	5083.64
427.15	5219.39
427.33	5219.39
427.52	5284.93
427.71	5315.36
427.90	5219.39
428.09	5273.23
428.28	5338.76
428.46	5320.04
428.65	5195.99
428.84	5540.05
429.03	5537.71
429.22	5327.06
429.40	5596.22
429.59	5406.64
429.78	5371.53
429.97	5341.10
430.16	5584.52
430.34	5565.79
430.53	5614.95
430.72	5572.82
430.91	5783.46
431.10	5645.37
431.28	5713.25
431.47	5867.72
431.66	5643.03
431.85	5701.54
432.03	5951.98
432.22	6047.94
432.41	5724.95
432.60	5944.96
432.79	5783.46
432.97	6069.01
433.16	5912.19
433.35	6010.50
433.54	5944.96
433.72	6176.67
433.91	6251.57
434.10	6129.86
434.28	5951.98
434.47	6260.93
434.66	6300.72
434.85	6342.85
435.03	6324.13
435.22	6267.95
435.41	6366.26
435.59	6260.93
435.78	6394.34
435.97	6431.79
436.16	6338.17
436.34	6363.92
436.53	6415.41
436.72	6551.16
436.90	6497.33
437.09	6525.41
437.28	6682.23
437.46	6609.67
437.65	6546.48
437.84	6668.19
438.02	6609.67
438.21	6745.42
438.40	6703.29
438.58	6869.47
438.77	7145.66
438.96	6785.21
439.14	6960.75
439.33	7035.65
439.52	7101.19
439.70	7342.26
439.89	7386.73
440.08	7293.11
440.26	7342.26
440.45	7318.86
440.63	7417.16
440.82	7599.72
441.01	7419.50
441.19	7459.29
441.38	7651.21
441.57	7737.81
441.75	7892.29
441.94	7892.29
442.12	8028.04
442.31	8065.49
442.50	7981.23
442.68	7985.91
442.87	7822.07
443.05	8145.06
443.24	8109.96
443.43	8124.00
443.61	8313.58
443.80	8432.95
443.98	8070.17
444.17	7983.57
444.35	8112.30
444.54	8187.19
444.73	8231.66
444.91	8362.73
445.10	8500.83
445.28	8339.33
445.47	8299.54
445.65	8414.23
445.84	8428.27
446.02	8514.87
446.21	8266.77
446.39	8400.18
446.58	8505.51
446.77	8559.34
446.95	8386.14
447.14	8411.89
447.32	8599.13
447.51	8421.25
447.69	8308.90
447.88	8741.90
448.06	8610.83
448.25	8561.68
448.43	8526.57
448.62	8449.33
448.80	8510.19
448.99	8601.47
449.17	8821.48
449.36	8755.94
449.54	8748.92
449.73	9156.18
449.91	8957.23
450.10	8847.22
450.28	9008.72
450.46	9057.87
450.65	8987.66
450.83	9050.85
451.02	8887.01
451.20	9240.44
451.39	9085.96
451.57	9085.96
451.76	8938.51
451.94	9275.54
452.13	9451.08
452.31	9221.71
452.49	9249.80
452.68	9308.31
452.86	9163.20
453.05	9404.27
453.23	9631.30
453.42	9284.91
453.60	9336.40
453.78	9769.40
453.97	9334.06
454.15	9603.22
454.34	9404.27
454.52	9659.39
454.70	9886.42
454.89	9661.73
455.07	9886.42
455.26	9841.95
455.44	10085.37
455.62	9720.24
455.81	9956.64
455.99	9982.38
456.17	10038.56
456.36	9984.73
456.54	9867.70
456.73	10223.46
456.91	10352.19
457.09	10333.47
457.28	10726.68
457.46	10319.42
457.64	10473.90
457.83	10497.30
458.01	10368.57
458.19	10862.43
458.38	10518.37
458.56	10731.36
458.74	10801.57
458.93	10670.50
459.11	10747.74
459.29	10684.55
459.48	10700.93
459.66	10712.63
459.84	10721.99
460.03	10902.22
460.21	10853.06
460.39	11077.76
460.57	10958.39
460.76	11070.73
460.94	11180.74
461.12	11321.17
461.31	11082.44
461.49	11082.44
461.67	11150.31
461.85	11393.73
462.04	11215.85
462.22	11712.04
462.40	11468.62
462.59	11578.63
462.77	11573.95
462.95	11793.96
463.13	11651.19
463.32	11735.45
463.50	11700.34
463.68	11829.07
463.86	11852.47
464.05	11559.91
464.23	11747.15
464.41	11737.79
464.59	11688.64
464.78	12196.53
464.96	11985.88
465.14	11981.20
465.32	12013.97
465.50	12138.02
465.69	12142.70
465.87	12168.45
466.05	12133.34
466.23	12226.96
466.41	12123.98
466.60	12627.19
466.78	11990.56
466.96	12269.09
467.14	12278.45
467.32	12442.29
467.51	12409.52
467.69	12042.06
467.87	12477.40
468.05	12666.98
468.23	12538.25
468.41	12339.30
468.60	12404.84
468.78	12596.76
468.96	12706.77
469.14	12851.88
469.32	12886.99
469.50	12634.21
469.69	13074.23
469.87	13455.74
470.05	13270.84
470.23	13394.89
470.41	13254.45
470.59	12908.05
470.77	13401.91
470.95	13200.62
471.14	13752.99
471.32	12849.54
471.50	13359.78
471.68	13741.29
471.86	13486.17
472.04	13818.52
472.22	14083.00
472.40	13661.71
472.58	13729.58
472.77	13916.83
472.95	14214.07
473.13	14668.14
473.31	13980.02
473.49	14178.97
473.67	14024.49
473.85	14391.95
474.03	14707.93
474.21	14527.71
474.39	14513.66
474.57	14635.37
474.75	14726.65
474.93	15026.24
475.12	15307.10
475.30	15098.80
475.48	14918.57
475.66	14998.15
475.84	15229.87
476.02	15274.34
476.20	15405.41
476.38	15489.67
476.56	15971.82
476.74	15894.58
476.92	15971.82
477.10	16114.59
477.28	16093.52
477.46	16292.47
477.64	16386.09
477.82	16255.02
478.00	16863.56
478.18	16566.31
478.36	17099.95
478.54	17364.43
478.72	16968.88
478.90	17303.58
479.08	17635.94
479.26	17621.89
479.44	17605.51
479.62	17778.71
479.80	18286.61
479.98	18258.52
480.16	18576.83
480.34	18200.01
480.52	18581.51
480.70	18590.88
480.88	18541.72
481.06	18696.20
481.24	19185.37
481.41	18867.06
481.59	19302.40
481.77	19686.25
481.95	19356.23
482.13	19866.47
482.31	19852.42
482.49	20217.55
482.67	19873.49
482.85	20500.75
483.03	20627.14
483.21	20725.44
483.39	20945.45
483.57	20994.61
483.74	20861.19
483.92	21345.69
484.10	20884.60
484.28	22078.27
484.46	21736.56
484.64	22232.75
484.82	22216.36
485.00	22349.78
485.18	22616.60
485.35	22920.87
485.53	22843.63
485.71	22799.16
485.89	23374.93
486.07	23608.98
486.25	23754.10
486.43	23604.30
486.61	23997.51
486.78	23936.66
486.96	24517.11
487.14	24290.08
487.32	24650.52
487.50	24882.24
487.68	25167.78
487.85	25390.13
488.03	25479.07
488.21	25631.21
488.39	25886.32
488.57	25886.32
488.75	26092.29
488.92	26565.08
489.10	26705.51
489.28	26920.84
489.46	26923.18
489.64	27197.02
489.81	27835.99
489.99	27847.69
490.17	27522.36
490.35	28252.61
490.53	28196.43
490.70	28322.82
490.88	28142.60
491.06	28624.75
491.24	28711.35
491.41	29081.16
491.59	29184.14
491.77	29322.23
491.95	29326.91
492.13	29935.45
492.30	29738.85
492.48	30043.12
492.66	30316.96
492.84	30235.04
493.01	30335.68
493.19	30506.54
493.37	30984.01
493.54	31077.63
493.72	31477.86
493.90	31449.78
494.08	31548.08
494.25	31924.91
494.43	32011.51
494.61	31910.86
494.79	32587.28
494.96	32245.56
495.14	32582.60
495.32	33050.70
495.49	33184.12
495.67	33373.70
495.85	33558.60
496.02	34007.98
496.20	34108.63
496.38	33724.78
496.55	34141.39
496.73	34866.96
496.91	34543.97
497.09	34710.14
497.26	34815.47
497.44	34763.98
497.62	35484.86
497.79	35629.98
497.97	35842.96
498.14	36112.13
498.32	35873.39
498.50	36451.50
498.67	36664.49
498.85	36730.03
499.03	36732.37
499.20	36723.01
499.38	36809.61
499.56	36582.57
499.73	37027.28
499.91	37174.73
500.08	37546.87
500.26	37507.08
500.44	37717.73
500.61	37818.38
500.79	37799.65
500.97	38092.22
501.14	38368.40
501.32	38754.59
501.49	38536.92
501.67	38665.65
501.84	38632.88
502.02	38557.99
502.20	39433.35
502.37	39316.32
502.55	39391.22
502.72	39367.81
502.90	39508.24
503.07	39707.19
503.25	39957.63
503.43	39742.30
503.60	40201.04
503.78	40432.75
503.95	40318.07
504.13	40678.51
504.30	40760.43
504.48	40596.59
504.65	40821.28
504.83	41270.67
505.01	41455.57
505.18	41191.09
505.36	41736.43
505.53	41549.19
505.71	41673.24
505.88	41706.01
506.06	41607.70
506.23	41886.23
506.41	41532.81
506.58	42504.13
506.76	42293.48
506.93	42396.46
507.11	42476.04
507.28	42452.64
507.46	42813.08
507.63	42993.30
507.81	43409.92
507.98	42850.53
508.16	43442.68
508.33	43395.87
508.50	43540.99
508.68	43718.87
508.85	44065.27
509.03	43732.91
509.20	44313.36
509.38	44395.28
509.55	44505.29
509.73	44210.38
509.90	44872.75
510.08	44289.96
510.25	45059.99
510.42	44568.48
510.60	44839.98
510.77	45336.18
510.95	45514.06
511.12	45324.47
511.30	45034.25
511.47	45535.12
511.64	45158.30
511.82	45858.12
511.99	45425.12
512.17	45668.53
512.34	45776.20
512.51	46827.10
512.69	46377.72
512.86	46373.03
513.04	46581.34
513.21	46431.55
513.38	46473.68
513.56	47194.56
513.73	46712.41
513.90	47150.09
514.08	46883.27
514.25	47503.51
514.43	47220.31
514.60	47295.21
514.77	47365.42
514.95	47817.14
515.12	47498.83
515.29	47793.74
515.47	47854.59
515.64	48004.39
515.81	47718.84
515.99	48161.20
516.16	48643.35
516.33	48362.49
516.51	48886.77
516.68	48575.48
516.85	48287.59
517.03	49055.29
517.20	48896.13
517.37	48652.72
517.54	49031.88
517.72	49123.16
517.89	49066.99
518.06	49041.24
518.24	49322.11
518.41	49492.97
518.58	49275.30
518.75	49436.80
518.93	49523.40
519.10	49202.74
519.27	49705.96
519.45	49720.00
519.62	50131.93
519.79	49741.06
519.96	50120.23
520.14	50031.29
520.31	50092.15
520.48	50342.58
520.65	50134.28
520.83	50501.74
521.00	50651.53
521.17	50426.84
521.34	50403.44
521.52	51002.61
521.69	50983.89
521.86	51213.26
522.03	51063.47
522.20	51540.94
522.38	51402.85
522.55	51206.24
522.72	51302.20
522.89	51484.76
523.07	51477.74
523.24	51421.57
523.41	51533.92
523.58	51440.29
523.75	52093.30
523.92	51941.17
524.10	51700.09
524.27	52186.92
524.44	52044.15
524.61	51845.21
524.78	52053.51
524.96	52207.99
525.13	52217.35
525.30	52566.09
525.47	52657.37
525.64	52697.16
525.81	52774.40
525.98	52376.51
526.16	52736.95
526.33	52727.59
526.50	52921.85
526.67	52645.67
526.84	52924.19
527.01	52708.86
527.18	52776.74
527.36	53057.60
527.53	53008.45
527.70	53291.66
527.87	53097.39
528.04	53308.04
528.21	53368.90
528.38	53523.37
528.55	53628.69
528.72	53408.68
528.89	53464.86
529.07	53464.86
529.24	53361.87
529.41	53525.71
529.58	53544.44
529.75	53481.24
529.92	53717.64
530.09	53914.24
530.26	54089.78
530.43	54033.61
530.60	53537.41
530.77	53450.81
530.94	54033.61
531.11	54080.42
531.28	54241.92
531.46	54302.77
531.63	54262.98
531.80	54064.03
531.97	54461.93
532.14	54312.13
532.31	54372.99
532.48	54419.80
532.65	54534.48
532.82	54394.05
532.99	54560.23
533.16	54518.10
533.33	54876.20
533.50	54997.91
533.67	55016.63
533.84	54789.60
534.01	54756.83
534.18	54923.01
534.35	55077.49
534.52	55117.28
534.69	55407.50
534.86	55402.82
535.03	55107.91
535.20	54805.98
535.37	55220.26
535.54	55384.10
535.71	55299.84
535.88	55365.37
536.05	55379.42
536.22	55723.47
536.38	55587.72
536.55	55629.85
536.72	55608.79
536.89	55676.66
537.06	55494.10
537.23	55430.91
537.40	55597.09
537.57	55517.51
537.74	55889.65
537.91	56027.74
538.08	55882.63
538.25	55660.28
538.42	55917.74
538.59	56285.20
538.75	55786.67
538.92	56044.13
539.09	56247.75
539.26	55936.46
539.43	56250.09
539.60	56362.44
539.77	56299.25
539.94	56552.02
540.11	56402.23
540.28	56690.12
540.44	56577.77
540.61	56413.93
540.78	56322.65
540.95	56622.24
541.12	56437.34
541.29	56357.76
541.46	56535.64
541.62	56732.25
541.79	56662.03
541.96	56329.67
542.13	56362.44
542.30	56753.31
542.47	56774.37
542.63	56626.92
542.80	56919.49
542.97	56851.61
543.14	57179.29
543.31	56863.32
543.48	57052.90
543.64	57593.56
543.81	57406.32
543.98	57293.97
544.15	57364.19
544.32	57485.90
544.48	57411.00
544.65	57403.98
544.82	57331.42
544.99	57289.29
545.16	57579.52
545.32	57373.55
545.49	57792.51
545.66	57827.62
545.83	57607.61
546.00	57696.55
546.16	57593.56
546.33	57492.92
546.50	57368.87
546.67	57785.49
546.83	57654.42
547.00	57600.58
547.17	57977.41
547.34	57778.46
547.50	57757.40
547.67	57918.90
547.84	58000.82
548.00	58202.10
548.17	58241.89
548.34	57942.30
548.51	58054.65
548.67	58143.59
548.84	58248.91
549.01	57944.64
549.18	58152.95
549.34	58337.85
549.51	58401.05
549.68	58159.97
549.84	58408.07
550.01	58571.91
550.18	58185.72
550.34	58379.98
550.51	58630.42
550.68	58445.52
550.84	58333.17
551.01	58454.88
551.18	58459.56
551.34	58646.80
551.51	58494.67
551.68	58597.65
551.84	58883.20
552.01	58492.33
552.18	58721.70
552.34	58581.27
552.51	58754.47
552.68	58576.59
552.84	58660.85
553.01	58946.39
553.18	58801.28
553.34	58775.53
553.51	58583.61
553.67	58759.15
553.84	59185.13
554.01	58953.41
554.17	58927.67
554.34	58962.78
554.51	59063.42
554.67	59201.51
554.84	59206.19
555.00	58965.12
555.17	58965.12
555.33	59171.08
555.50	58962.78
555.67	58759.15
555.83	58948.73
556.00	59171.08
556.16	59203.85
556.33	59091.51
556.50	59386.41
556.66	59358.33
556.83	59051.72
556.99	59416.84
557.16	59426.20
557.32	59236.62
557.49	59587.70
557.65	59119.59
557.82	59262.36
557.98	59283.43
558.15	59283.43
558.32	59316.20
558.48	59522.16
558.65	59353.65
558.81	59578.34
558.98	59482.37
559.14	59611.10
559.31	59587.70
559.47	59817.07
559.64	59660.26
559.80	59606.42
559.97	59615.79
560.13	59688.34
560.30	59533.87
560.46	59744.51
560.63	59751.54
560.79	59856.86
560.96	59793.67
561.12	59934.10
561.29	59859.20
561.45	59966.87
561.61	59835.80
561.78	59770.26
561.94	59854.52
562.11	59641.53
562.27	59854.52
562.44	60116.66
562.60	60175.17
562.77	59875.58
562.93	59969.21
563.10	59934.10
563.26	59941.12
563.42	60144.75
563.59	60062.83
563.75	60011.34
563.92	60041.76
564.08	59882.61
564.24	60470.08
564.41	60144.75
564.57	60116.66
564.74	60179.85
564.90	60369.44
565.07	60114.32
565.23	60093.25
565.39	60280.50
565.56	60221.98
565.72	60172.83
565.88	60189.22
566.05	60198.58
566.21	60427.95
566.38	60355.39
566.54	60306.24
566.70	60416.25
566.87	60303.90
567.03	60224.32
567.19	60519.23
567.36	60399.86
567.52	60060.49
567.68	60542.64
567.85	60409.23
568.01	60575.40
568.17	60243.05
568.34	60472.42
568.50	60254.75
568.66	60149.43
568.83	60402.21
568.99	60252.41
569.15	60306.24
569.32	60369.44
569.48	60353.05
569.64	60451.36
569.81	60449.02
569.97	60460.72
570.13	60444.33
570.30	60434.97
570.46	60622.22
570.62	60470.08
570.78	60516.89
570.95	60512.21
571.11	60711.16
571.27	60540.30
571.43	60542.64
571.60	60647.96
571.76	60596.47
571.92	60549.66
572.09	60493.49
572.25	60612.85
572.41	60566.04
572.57	60673.71
572.74	60804.78
572.90	60514.55
573.06	60669.03
573.22	60512.21
573.38	60636.26
573.55	60685.41
573.71	60814.14
573.87	60678.39
574.03	60544.98
574.20	60692.43
574.36	60704.13
574.52	60917.12
574.68	60673.71
574.84	60837.54
575.01	60610.51
575.17	60610.51
575.33	60631.58
575.49	60729.88
575.65	60692.43
575.82	60856.27
575.98	60931.17
576.14	61139.47
576.30	60727.54
576.46	60772.01
576.62	60669.03
576.79	60706.47
576.95	60818.82
577.11	60793.07
577.27	60884.36
577.43	60835.20
577.59	60715.84
577.75	60685.41
577.92	60912.44
578.08	60718.18
578.24	60858.61
578.40	60807.12
578.56	61045.85
578.72	60977.98
578.88	60973.30
579.04	60968.61
579.21	61137.13
579.37	60893.72
579.53	60907.76
579.69	60654.98
579.85	60994.36
580.01	60931.17
580.17	60823.50
580.33	60992.02
580.49	60989.68
580.65	60985.00
580.82	60788.39
580.98	60720.52
581.14	60891.38
581.30	61179.26
581.46	60896.06
581.62	61116.07
581.78	60945.21
581.94	60858.61
582.10	60910.10
582.26	61022.45
582.42	61062.24
582.58	60973.30
582.74	61064.58
582.90	60849.25
583.06	60963.93
583.22	60844.57
583.38	60842.23
583.54	60935.85
583.70	60959.25
583.86	61165.22
584.02	60823.50
584.18	61090.32
584.34	60926.49
584.50	60996.70
584.66	60772.01
584.82	60935.85
584.98	61212.03
585.14	61083.30
585.30	60961.59
585.46	60959.25
585.62	60863.29
585.78	61375.87
585.94	60893.72
586.10	60945.21
586.26	61078.62
586.42	61212.03
586.58	61197.99
586.74	61073.94
586.90	60926.49
587.06	60837.54
587.22	61265.86
587.38	61066.92
587.54	61134.79
587.70	61155.86
587.86	61092.66
588.02	61307.99
588.18	61130.11
588.34	61080.96
588.49	60956.91
