SpectraSuite Data File
++++++++++++++++++++++++++++++++++++
Date: Fri Oct 25 10:48:22 EDT 2013
User: price-jones
Dark Spectrum Present: No
Reference Spectrum Present: No
Number of Sampled Component Spectra: 1
Spectrometers: USB2+H05261
Integration Time (usec): 100000 (USB2+H05261)
Spectra Averaged: 1 (USB2+H05261)
Boxcar Smoothing: 0 (USB2+H05261)
Correct for Electrical Dark: No (USB2+H05261)
Strobe/Lamp Enabled: No (USB2+H05261)
Correct for Detector Non-linearity: No (USB2+H05261)
Correct for Stray Light: No (USB2+H05261)
Number of Pixels in Processed Spectrum: 2048
>>>>>Begin Processed Spectral Data<<<<<
365.73	147.45
365.92	147.45
366.12	147.45
366.32	14.04
366.52	30.43
366.72	30.43
366.91	65.54
367.11	49.15
367.31	0.00
367.51	28.09
367.70	70.22
367.90	79.58
368.10	46.81
368.30	42.13
368.49	70.22
368.69	42.13
368.89	126.39
369.09	18.72
369.28	112.35
369.48	126.39
369.68	42.13
369.87	74.90
370.07	84.26
370.27	152.13
370.47	196.60
370.66	409.59
370.86	397.89
371.06	578.11
371.25	493.85
371.45	454.06
371.65	468.11
371.84	437.68
372.04	484.49
372.24	477.47
372.44	421.30
372.63	512.58
372.83	479.81
373.03	538.32
373.22	496.19
373.42	634.29
373.62	561.73
373.81	540.66
374.01	564.07
374.21	613.22
374.40	585.13
374.60	627.26
374.79	575.77
374.99	657.69
375.19	615.56
375.38	631.94
375.58	589.82
375.78	552.37
375.97	617.90
376.17	674.07
376.37	688.12
376.56	725.57
376.76	655.35
376.95	664.71
377.15	699.82
377.35	695.14
377.54	674.07
377.74	676.41
377.93	706.84
378.13	664.71
378.33	636.63
378.52	620.24
378.72	718.54
378.91	727.91
379.11	671.73
379.31	739.61
379.50	671.73
379.70	692.80
379.89	697.48
380.09	638.97
380.28	751.31
380.48	748.97
380.68	676.41
380.87	716.20
381.07	681.10
381.26	732.59
381.46	697.48
381.65	767.70
381.85	674.07
382.04	664.71
382.24	753.65
382.43	732.59
382.63	685.78
382.83	774.72
383.02	793.44
383.22	842.59
383.41	704.50
383.61	777.06
383.80	795.78
384.00	793.44
384.19	786.42
384.39	788.76
384.58	791.10
384.78	894.08
384.97	835.57
385.17	891.74
385.36	784.08
385.56	821.53
385.75	800.46
385.95	880.04
386.14	870.68
386.34	814.51
386.53	901.11
386.72	870.68
386.92	870.68
387.11	856.64
387.31	903.45
387.50	898.77
387.70	880.04
387.89	837.91
388.09	779.40
388.28	910.47
388.48	912.81
388.67	924.51
388.86	945.58
389.06	997.07
389.25	1015.79
389.45	940.90
389.64	992.39
389.84	1020.47
390.03	1086.01
390.22	1036.86
390.42	1043.88
390.61	1116.44
390.81	999.41
391.00	971.32
391.19	1090.69
391.39	1060.26
391.58	1104.73
391.78	1081.33
391.97	1039.20
392.16	1069.62
392.36	1086.01
392.55	1006.43
392.75	987.71
392.94	1069.62
393.13	1043.88
393.33	1069.62
393.52	1111.75
393.71	1118.78
393.91	1146.86
394.10	1219.42
394.29	1191.33
394.49	1153.88
394.68	1252.19
394.88	1233.46
395.07	1369.21
395.26	1313.04
395.46	1188.99
395.65	1245.16
395.84	1238.14
396.04	1261.55
396.23	1263.89
396.42	1200.69
396.62	1256.87
396.81	1151.54
397.00	1338.79
397.19	1270.91
397.39	1275.59
397.58	1404.32
397.77	1409.00
397.97	1460.49
398.16	1462.83
398.35	1523.69
398.55	1507.30
398.74	1509.65
398.93	1535.39
399.12	1502.62
399.32	1446.45
399.51	1497.94
399.70	1577.52
399.90	1467.52
400.09	1549.43
400.28	1636.03
400.47	1579.86
400.67	1598.59
400.86	1598.59
401.05	1722.63
401.24	1701.57
401.44	1689.87
401.63	1675.82
401.82	1727.32
402.01	1680.50
402.21	1795.19
402.40	1884.13
402.59	1788.17
402.78	1771.79
402.97	1764.76
403.17	1820.94
403.36	1900.52
403.55	1987.11
403.74	1837.32
403.93	1755.40
404.13	1856.04
404.32	1778.81
404.51	1940.30
404.70	2024.56
404.89	2080.74
405.09	1940.30
405.28	2031.58
405.47	1975.41
405.66	2125.21
405.85	2083.08
406.05	1912.22
406.24	2038.61
406.43	1963.71
406.62	2008.18
406.81	2146.27
407.00	2113.50
407.20	2085.42
407.39	2106.48
407.58	2101.80
407.77	2057.33
407.96	2183.72
408.15	2319.47
408.34	2239.89
408.54	2298.41
408.73	2296.07
408.92	2239.89
409.11	2406.07
409.30	2345.22
409.49	2366.28
409.68	2216.49
409.87	2314.79
410.07	2305.43
410.26	2410.75
410.45	2410.75
410.64	2502.03
410.83	2452.88
411.02	2672.89
411.21	2602.68
411.40	2621.40
411.59	2750.13
411.78	2710.34
411.98	2651.83
412.17	2635.44
412.36	2705.66
412.55	2686.94
412.74	2729.06
412.93	2747.79
413.12	2684.59
413.31	2726.72
413.50	2799.28
413.69	2841.41
413.88	2949.08
414.07	2918.65
414.26	2920.99
414.45	2946.73
414.64	2895.24
414.83	2942.05
415.02	3087.17
415.22	3080.14
415.41	3234.62
415.60	3159.72
415.79	3187.81
415.98	3281.43
416.17	3267.39
416.36	3232.28
416.55	3255.69
416.74	3361.01
416.93	3267.39
417.12	3365.69
417.31	3356.33
417.50	3349.31
417.69	3506.12
417.88	3552.93
418.07	3393.78
418.26	3489.74
418.45	3569.32
418.64	3726.13
418.83	3698.05
419.02	3557.61
419.21	3529.53
419.39	3611.45
419.58	3496.76
419.77	3478.04
419.96	3674.64
420.15	3779.97
420.34	3674.64
420.53	3782.31
420.72	3789.33
420.91	3840.82
421.10	3887.63
421.29	3955.51
421.48	3871.25
421.67	3817.41
421.86	3817.41
422.05	3805.71
422.24	3822.09
422.43	3964.87
422.61	3892.31
422.80	3934.44
422.99	4053.81
423.18	4023.38
423.37	4131.05
423.56	3679.32
423.75	3831.46
423.94	3995.29
424.13	3730.81
424.32	3723.79
424.50	4067.85
424.69	4159.13
424.88	4032.74
425.07	3925.08
425.26	3960.19
425.45	3936.78
425.64	4053.81
425.83	4112.32
426.01	4072.53
426.20	4128.70
426.39	4077.21
426.58	4086.58
426.77	4107.64
426.96	4145.09
427.15	3962.53
427.33	4051.47
427.52	4205.94
427.71	4102.96
427.90	4102.96
428.09	4290.20
428.28	4339.35
428.46	4180.20
428.65	4210.62
428.84	4414.25
429.03	4329.99
429.22	4107.64
429.40	4337.01
429.59	4177.86
429.78	4025.72
429.97	3969.55
430.16	4105.30
430.34	4107.64
430.53	4229.35
430.72	4327.65
430.91	4126.36
431.10	4346.37
431.28	4557.02
431.47	4660.01
431.66	4678.73
431.85	4566.39
432.03	4512.55
432.22	4765.33
432.41	4688.09
432.60	4751.29
432.79	4884.70
432.97	4765.33
433.16	4851.93
433.35	4695.11
433.54	4624.90
433.72	4795.76
433.91	4777.03
434.10	4835.55
434.28	4798.10
434.47	4873.00
434.66	5027.47
434.85	5095.35
435.03	5048.54
435.22	4945.55
435.41	5165.56
435.59	5083.64
435.78	5097.69
435.97	5266.21
436.16	5210.03
436.34	5191.31
436.53	5245.14
436.72	5235.78
436.90	5160.88
437.09	5226.42
437.28	5048.54
437.46	5032.15
437.65	5128.11
437.84	5221.74
438.02	5214.71
438.21	5343.44
438.40	5177.26
438.58	5460.47
438.77	5502.60
438.96	5617.29
439.14	5593.88
439.33	5877.09
439.52	5696.86
439.70	5652.39
439.89	5771.76
440.08	5816.23
440.26	5827.93
440.45	5865.38
440.63	6008.16
440.82	6076.03
441.01	5916.87
441.19	6174.33
441.38	6125.18
441.57	6282.00
441.75	6225.82
441.94	6466.90
442.12	6155.61
442.31	6441.15
442.50	6396.68
442.68	6382.64
442.87	6483.28
443.05	6527.75
443.24	6635.42
443.43	6523.07
443.61	6590.95
443.80	6607.33
443.98	6324.13
444.17	6244.55
444.35	6647.12
444.54	6590.95
444.73	6647.12
444.91	6422.43
445.10	6707.98
445.28	6483.28
445.47	6480.94
445.65	6569.88
445.84	6586.27
446.02	6733.72
446.21	6576.91
446.39	6691.59
446.58	6757.13
446.77	6644.78
446.95	6607.33
447.14	6775.85
447.32	6773.51
447.51	6686.91
447.69	6754.79
447.88	6794.58
448.06	6808.62
448.25	6806.28
448.43	6766.49
448.62	6789.89
448.80	6862.45
448.99	6909.26
449.17	6867.13
449.36	6874.15
449.54	7075.44
449.73	7136.29
449.91	7307.15
450.10	7021.61
450.28	7372.69
450.46	7211.19
450.65	7321.20
450.83	7456.95
451.02	7019.27
451.20	7344.60
451.39	7269.70
451.57	7241.62
451.76	7316.51
451.94	7119.91
452.13	7250.98
452.31	7372.69
452.49	7110.55
452.68	7162.04
452.86	7236.94
453.05	7400.77
453.23	7370.35
453.42	7337.58
453.60	7538.87
453.78	7515.46
453.97	7667.60
454.15	7470.99
454.34	7538.87
454.52	7463.97
454.70	7501.42
454.89	7672.28
455.07	7583.34
455.26	7796.32
455.44	7878.24
455.62	7873.56
455.81	7756.54
455.99	7981.23
456.17	7765.90
456.36	7878.24
456.54	8065.49
456.73	8311.24
456.91	8156.77
457.09	8159.11
457.28	8372.10
457.46	7929.74
457.64	8224.64
457.83	8088.89
458.01	8063.15
458.19	8294.86
458.38	8297.20
458.56	8444.65
458.74	8259.75
458.93	8264.43
459.11	8278.47
459.29	8409.54
459.48	8416.57
459.66	8400.18
459.84	8489.12
460.03	8580.40
460.21	8465.72
460.39	8585.08
460.57	8636.58
460.76	8777.01
460.94	8788.71
461.12	8702.11
461.31	8739.56
461.49	8819.14
461.67	8959.57
461.85	8929.14
462.04	8812.12
462.22	9387.89
462.40	8856.59
462.59	8842.54
462.77	8910.42
462.95	9006.38
463.13	9034.47
463.32	9100.00
463.50	9217.03
463.68	9188.94
463.86	9170.22
464.05	9226.39
464.23	8999.36
464.41	9107.02
464.59	9067.24
464.78	9186.60
464.96	9226.39
465.14	9008.72
465.32	9289.59
465.50	9231.07
465.69	9511.94
465.87	9373.85
466.05	9373.85
466.23	9334.06
466.41	9254.48
466.60	9217.03
466.78	9394.91
466.96	9348.10
467.14	9455.76
467.32	9565.77
467.51	9509.60
467.69	9195.96
467.87	9530.66
468.05	9518.96
468.23	9455.76
468.41	9446.40
468.60	9621.94
468.78	9708.54
468.96	9621.94
469.14	9724.93
469.32	9748.33
469.50	9570.45
469.69	9958.98
469.87	9966.00
470.05	9778.76
470.23	9914.51
470.41	9944.94
470.59	10017.49
470.77	9860.68
470.95	10256.23
471.14	10267.93
471.32	9933.23
471.50	10150.90
471.68	10270.27
471.86	10604.97
472.04	10597.95
472.22	10850.72
472.40	10188.35
472.58	10314.74
472.77	10668.16
472.95	10548.79
473.13	11026.26
473.31	10551.14
473.49	10696.25
473.67	10682.20
473.85	10745.40
474.03	11077.76
474.21	11166.70
474.39	11272.02
474.57	11150.31
474.75	11185.42
474.93	11166.70
475.12	11257.98
475.30	11332.87
475.48	11290.74
475.66	11442.88
475.84	11433.52
476.02	11485.01
476.20	11611.40
476.38	11758.85
476.56	11974.18
476.74	11878.22
476.92	12060.78
477.10	11751.83
477.28	12028.01
477.46	12166.10
477.64	12346.33
477.82	12573.36
478.00	12748.90
478.18	12540.59
478.36	12620.17
478.54	12917.42
478.72	12905.71
478.90	12996.99
479.08	13057.85
479.26	13406.59
479.44	13142.11
479.62	13542.34
479.80	13476.80
479.98	13429.99
480.16	13832.57
480.34	13879.38
480.52	13928.53
480.70	13858.31
480.88	13755.33
481.06	13757.67
481.24	14087.68
481.41	14373.23
481.59	14611.96
481.77	14698.56
481.95	14410.68
482.13	14773.46
482.31	14698.56
482.49	14855.38
482.67	15061.35
482.85	15243.91
483.03	15503.71
483.21	15389.02
483.39	15658.18
483.57	15232.21
483.74	15854.79
483.92	16107.57
484.10	15768.19
484.28	16152.04
484.46	16360.34
484.64	16264.38
484.82	16285.45
485.00	16400.13
485.18	16184.80
485.35	16699.72
485.53	16315.87
485.71	16428.22
485.89	16500.78
486.07	16451.63
486.25	16662.27
486.43	16973.56
486.61	17041.44
486.78	17338.69
486.96	17710.83
487.14	17678.07
487.32	18113.41
487.50	18345.12
487.68	18202.35
487.85	18569.81
488.03	18855.36
488.21	18841.31
488.39	18668.11
488.57	18860.04
488.75	18822.59
488.92	19360.91
489.10	19630.07
489.28	19419.42
489.46	20163.72
489.64	19791.57
489.81	20236.27
489.99	20599.05
490.17	20205.84
490.35	20767.57
490.53	20599.05
490.70	21008.65
490.88	20868.22
491.06	21083.55
491.24	21015.67
491.41	21053.12
491.59	21228.66
491.77	20884.60
491.95	21415.90
492.13	21664.00
492.30	21909.75
492.48	22066.57
492.66	22258.49
492.84	22246.79
493.01	22146.15
493.19	22522.98
493.37	22424.67
493.54	22586.17
493.72	22951.29
493.90	22754.69
494.08	23278.97
494.25	23697.92
494.43	23285.99
494.61	23473.23
494.79	23749.42
494.96	23838.36
495.14	23740.05
495.32	24098.16
495.49	23896.87
495.67	24486.68
495.85	24313.48
496.02	24489.03
496.20	24692.65
496.38	24587.33
496.55	24907.98
496.73	25291.83
496.91	24842.45
497.09	25233.32
497.26	25633.55
497.44	25429.92
497.62	25345.66
497.79	25652.27
497.97	25411.20
498.14	25558.65
498.32	25839.51
498.50	25993.99
498.67	26246.77
498.85	26443.37
499.03	27042.55
499.20	26635.30
499.38	26141.44
499.56	26778.07
499.73	26565.08
499.91	26834.24
500.08	26892.76
500.26	26684.45
500.44	26824.88
500.61	27077.66
500.79	27168.94
500.97	27410.01
501.14	27697.90
501.32	27960.04
501.49	27618.32
501.67	27185.32
501.84	27639.39
502.02	27791.52
502.20	28067.70
502.37	28350.91
502.55	28280.69
502.72	28549.85
502.90	28325.16
503.07	28355.59
503.25	28709.01
503.43	28524.11
503.60	28566.24
503.78	28404.74
503.95	28603.69
504.13	29118.60
504.30	29184.14
504.48	29032.00
504.65	29546.92
504.83	29336.27
505.01	29577.35
505.18	29322.23
505.36	29881.62
505.53	29940.13
505.71	29703.74
505.88	30206.95
506.06	29710.76
506.23	30347.39
506.41	29649.91
506.58	30164.82
506.76	30171.85
506.93	30359.09
507.11	30384.83
507.28	30731.23
507.46	30391.86
507.63	30497.18
507.81	30897.41
507.98	30604.84
508.16	30855.28
508.33	31119.76
508.50	31360.84
508.68	31002.74
508.85	31721.28
509.03	31005.08
509.20	31143.17
509.38	31646.38
509.55	31831.29
509.73	31835.97
509.90	32046.62
510.08	31655.75
510.25	31367.86
510.42	31835.97
510.60	32285.35
510.77	32378.97
510.95	32746.44
511.12	31974.06
511.30	32212.79
511.47	33099.86
511.64	32830.69
511.82	32868.14
511.99	32355.57
512.17	32797.93
512.34	32945.38
512.51	33034.32
512.69	33013.26
512.86	33010.92
513.04	33371.36
513.21	33282.42
513.38	33163.05
513.56	33017.94
513.73	33263.69
513.90	33582.01
514.08	33172.41
514.25	33827.76
514.43	33722.44
514.60	33876.91
514.77	33703.71
514.95	34160.12
515.12	33790.31
515.29	34298.21
515.47	34719.51
515.64	34471.41
515.81	34330.98
515.99	34139.05
516.16	33755.21
516.33	33963.51
516.51	33954.15
516.68	33837.12
516.85	33727.12
517.03	34267.78
517.20	34595.46
517.37	34405.88
517.54	34670.36
517.72	34916.11
517.89	34951.22
518.06	34625.89
518.24	34597.80
518.41	34646.95
518.58	34918.45
518.75	34892.71
518.93	35459.12
519.10	35529.33
519.27	35709.55
519.45	35840.62
519.62	35777.43
519.79	35981.06
519.96	35934.24
520.14	35819.56
520.31	35714.23
520.48	35845.30
520.65	36156.60
520.83	36474.91
521.00	36488.95
521.17	36318.09
521.34	36566.19
521.52	36751.09
521.69	36610.66
521.86	36879.82
522.03	36879.82
522.20	36828.33
522.38	36872.80
522.55	36931.31
522.72	36835.35
522.89	36898.55
523.07	37460.27
523.24	37048.34
523.41	37635.81
523.58	37303.46
523.75	37266.01
523.92	37743.48
524.10	37769.22
524.27	37783.27
524.44	37752.84
524.61	37970.51
524.78	37862.85
524.96	37979.87
525.13	38473.73
525.30	38122.65
525.47	38150.73
525.64	38281.80
525.81	38110.94
525.98	37900.29
526.16	37823.06
526.33	37654.54
526.50	38101.58
526.67	37968.17
526.84	38043.07
527.01	37895.61
527.18	38464.36
527.36	38632.88
527.53	38445.64
527.70	39351.43
527.87	39014.39
528.04	38946.51
528.21	38967.58
528.38	39115.03
528.55	39330.36
528.72	39269.51
528.89	39346.75
529.07	39353.77
529.24	39337.38
529.41	38880.98
529.58	39218.02
529.75	39571.44
529.92	39578.46
530.09	39442.71
530.26	39814.85
530.43	40088.70
530.60	39676.76
530.77	40116.78
530.94	40208.06
531.11	39871.03
531.28	40177.64
531.46	40156.57
531.63	39821.87
531.80	40177.64
531.97	40229.13
532.14	39906.13
532.31	39629.95
532.48	40128.48
532.65	40322.75
532.82	39842.94
532.99	40528.72
533.16	40191.68
533.33	40123.80
533.50	40797.88
533.67	40559.14
533.84	40161.25
534.01	41085.76
534.18	40568.51
534.35	41427.48
534.52	41146.62
534.69	41109.17
534.86	41106.83
535.03	40814.26
535.20	41216.83
535.37	41366.63
535.54	41640.47
535.71	41064.70
535.88	41085.76
536.05	41291.73
536.22	41277.69
536.38	41734.09
536.55	41331.52
536.72	41090.44
536.89	41064.70
537.06	41647.49
537.23	41588.98
537.40	41518.76
537.57	41624.09
537.74	41422.80
537.91	42038.36
538.08	42150.71
538.25	41064.70
538.42	41670.90
538.59	42260.71
538.75	41872.18
538.92	41902.61
539.09	42480.72
539.26	41890.91
539.43	41848.78
539.60	42192.84
539.77	42351.99
539.94	42335.61
540.11	42113.26
540.28	42045.38
540.44	41839.42
540.61	41422.80
540.78	42017.30
540.95	42174.11
541.12	41984.53
541.29	42183.48
541.46	42335.61
541.62	42335.61
541.79	43079.90
541.96	42494.77
542.13	42852.87
542.30	42534.56
542.47	42529.87
542.63	42707.76
542.80	43044.79
542.97	43260.12
543.14	43482.47
543.31	43583.12
543.48	43061.18
543.64	43833.55
543.81	43510.56
543.98	43629.93
544.15	43634.61
544.32	43346.72
544.48	43751.63
544.65	43707.16
544.82	43306.93
544.99	43454.39
545.16	43459.07
545.32	43330.34
545.49	43632.27
545.66	43735.25
545.83	43496.52
546.00	44121.44
546.16	44268.89
546.33	43512.90
546.50	43246.08
546.67	44116.76
546.83	43683.76
547.00	43658.01
547.17	43950.58
547.34	43491.83
547.50	43856.96
547.67	43901.43
547.84	43784.40
548.00	44074.63
548.17	44329.75
548.34	43988.03
548.51	44561.46
548.67	44374.22
548.84	44044.20
549.01	44589.55
549.18	44664.44
549.34	44718.28
549.51	44219.74
549.68	44378.90
549.84	44540.39
550.01	45256.60
550.18	44734.66
550.34	44715.93
550.51	44772.11
550.68	44652.74
550.84	43952.92
551.01	44917.22
551.18	45017.86
551.34	44835.30
551.51	45085.74
551.68	44809.56
551.84	45022.54
552.01	44648.06
552.18	44804.88
552.34	44411.67
552.51	44992.12
552.68	44947.65
552.84	44957.01
553.01	45572.57
553.18	44839.98
553.34	45095.10
553.51	44842.32
553.67	45495.33
553.84	45312.77
554.01	45102.12
554.17	45680.24
554.34	45965.78
554.51	45151.27
554.67	45869.82
554.84	45509.38
555.00	45453.20
555.17	45013.18
555.33	45785.56
555.50	45549.17
555.67	45130.21
555.83	45598.32
556.00	45586.61
556.16	45928.33
556.33	45691.94
556.50	45951.74
556.66	45654.49
556.83	45464.91
556.99	45617.04
557.16	45914.29
557.32	46171.75
557.49	45689.60
557.65	45731.73
557.82	45539.80
557.98	45738.75
558.15	45361.92
558.32	45940.04
558.48	45705.98
558.65	45930.67
558.81	45708.32
558.98	45661.51
559.14	46000.89
559.31	45897.91
559.47	45780.88
559.64	46096.85
559.80	46122.60
559.97	46415.16
560.13	45970.46
560.30	45874.50
560.46	45804.28
560.63	45918.97
560.79	45996.21
560.96	46232.60
561.12	45965.78
561.29	46218.56
561.45	45750.45
561.61	46293.46
561.78	46272.39
561.94	46066.42
562.11	46061.74
562.27	46312.18
562.44	46195.15
562.60	46433.89
562.77	46869.23
562.93	46452.61
563.10	46656.24
563.26	46106.21
563.42	45944.72
563.59	46110.89
563.75	46143.66
563.92	46340.27
564.08	46209.20
564.24	46532.19
564.41	46738.16
564.57	46391.76
564.74	46476.02
564.90	46457.29
565.07	46621.13
565.23	46361.33
565.39	46373.03
565.56	46319.20
565.72	46630.49
565.88	46246.65
566.05	46241.96
566.21	46330.90
566.38	46356.65
566.54	46281.75
566.70	46831.78
566.87	47030.72
567.03	46260.69
567.19	47009.66
567.36	46653.90
567.52	46583.68
567.68	46965.19
567.85	46546.23
568.01	46686.67
568.17	46457.29
568.34	46754.54
568.50	46337.93
568.66	46211.54
568.83	46703.05
568.99	46564.96
569.15	46328.56
569.32	46471.34
569.48	46218.56
569.64	46817.74
569.81	46906.68
569.97	46653.90
570.13	46691.35
570.30	46143.66
570.46	46539.21
570.62	46536.87
570.78	46251.33
570.95	46487.72
571.11	46843.48
571.27	46700.71
571.43	46316.86
571.60	46642.20
571.76	46784.97
571.92	46824.76
572.09	47049.45
572.25	46834.12
572.41	46955.83
572.57	46873.91
572.74	47136.05
572.90	46829.44
573.06	46925.40
573.22	46958.17
573.38	46564.96
573.55	46251.33
573.71	47026.04
573.87	46831.78
574.03	46955.83
574.20	46885.61
574.36	46728.80
574.52	46962.85
574.68	46747.52
574.84	47100.94
575.01	46871.57
575.17	46717.09
575.33	46679.64
575.49	46274.73
575.65	47105.62
575.82	46969.87
575.98	46644.54
576.14	47339.68
576.30	46944.12
576.46	46529.85
576.62	46628.15
576.79	47084.56
576.95	46768.58
577.11	46651.56
577.27	46827.10
577.43	47112.64
577.59	46574.32
577.75	46953.49
577.92	46347.29
578.08	46511.13
578.24	46248.99
578.40	46806.03
578.56	46614.11
578.72	46972.21
578.88	46808.37
579.04	46932.42
579.21	46681.98
579.37	46768.58
579.53	46880.93
579.69	46520.49
579.85	46920.72
580.01	46782.63
580.17	46787.31
580.33	47248.39
580.49	46703.05
580.65	46993.28
580.82	47339.68
580.98	46990.94
581.14	46883.27
581.30	47136.05
581.46	46735.82
581.62	46689.01
581.78	47012.00
581.94	47428.62
582.10	46976.89
582.26	47316.27
582.42	46946.47
582.58	46850.50
582.74	46855.18
582.90	46497.08
583.06	47400.53
583.22	47070.51
583.38	47047.11
583.54	46817.74
583.70	47208.61
583.86	47173.50
584.02	47033.07
584.18	46972.21
584.34	47093.92
584.50	46703.05
584.66	46815.40
584.82	46939.44
584.98	47276.48
585.14	47072.85
585.30	46714.75
585.46	47276.48
585.62	46419.84
585.78	46836.46
585.94	46644.54
586.10	46813.05
586.26	46815.40
586.42	46983.91
586.58	47152.43
586.74	47147.75
586.90	46857.52
587.06	46782.63
587.22	46466.66
587.38	47150.09
587.54	47620.54
587.70	47054.13
587.86	47119.66
588.02	46726.46
588.18	47257.76
588.34	46260.69
588.49	46923.06
588.65	46408.14
588.81	46260.69
588.97	46913.70
589.13	46597.73
589.29	46571.98
589.45	46429.21
589.61	47091.58
589.77	47433.30
589.93	46703.05
