SpectraSuite Data File
++++++++++++++++++++++++++++++++++++
Date: Fri Oct 25 10:46:54 EDT 2013
User: price-jones
Dark Spectrum Present: No
Reference Spectrum Present: No
Number of Sampled Component Spectra: 1
Spectrometers: USB2+H05261
Integration Time (usec): 100000 (USB2+H05261)
Spectra Averaged: 1 (USB2+H05261)
Boxcar Smoothing: 0 (USB2+H05261)
Correct for Electrical Dark: No (USB2+H05261)
Strobe/Lamp Enabled: No (USB2+H05261)
Correct for Detector Non-linearity: No (USB2+H05261)
Correct for Stray Light: No (USB2+H05261)
Number of Pixels in Processed Spectrum: 2048
>>>>>Begin Processed Spectral Data<<<<<
365.73	93.62
365.92	93.62
366.12	93.62
366.32	51.49
366.52	44.47
366.72	70.22
366.91	16.38
367.11	11.70
367.31	18.72
367.51	39.79
367.70	25.75
367.90	0.00
368.10	35.11
368.30	4.68
368.49	0.00
368.69	77.24
368.89	110.01
369.09	53.83
369.28	67.88
369.48	0.00
369.68	67.88
369.87	79.58
370.07	135.75
370.27	212.99
370.47	135.75
370.66	414.27
370.86	479.81
371.06	479.81
371.25	505.56
371.45	491.51
371.65	538.32
371.84	526.62
372.04	465.77
372.24	512.58
372.44	514.92
372.63	479.81
372.83	498.53
373.03	580.45
373.22	559.39
373.42	571.09
373.62	601.52
373.81	540.66
374.01	477.47
374.21	573.43
374.40	566.41
374.60	641.31
374.79	582.79
374.99	636.63
375.19	564.07
375.38	585.13
375.58	667.05
375.78	622.58
375.97	585.13
376.17	606.20
376.37	533.64
376.56	596.84
376.76	631.94
376.95	676.41
377.15	664.71
377.35	690.46
377.54	683.44
377.74	709.18
377.93	631.94
378.13	674.07
378.33	617.90
378.52	589.82
378.72	650.67
378.91	662.37
379.11	709.18
379.31	669.39
379.50	718.54
379.70	711.52
379.89	669.39
380.09	699.82
380.28	744.29
380.48	629.60
380.68	713.86
380.87	732.59
381.07	702.16
381.26	802.80
381.46	763.01
381.65	718.54
381.85	821.53
382.04	716.20
382.24	718.54
382.43	695.14
382.63	648.33
382.83	676.41
383.02	770.04
383.22	748.97
383.41	727.91
383.61	730.25
383.80	807.48
384.00	725.57
384.19	770.04
384.39	753.65
384.58	774.72
384.78	833.23
384.97	896.43
385.17	788.76
385.36	814.51
385.56	823.87
385.75	819.19
385.95	798.12
386.14	814.51
386.34	905.79
386.53	833.23
386.72	863.66
386.92	870.68
387.11	929.19
387.31	849.61
387.50	926.85
387.70	802.80
387.89	840.25
388.09	847.27
388.28	922.17
388.48	950.26
388.67	933.87
388.86	943.24
389.06	959.62
389.25	1032.18
389.45	954.94
389.64	957.28
389.84	1036.86
390.03	976.00
390.22	999.41
390.42	976.00
390.61	1050.90
390.81	990.05
391.00	1008.77
391.19	980.68
391.39	1053.24
391.58	1034.52
391.78	966.64
391.97	1055.58
392.16	1011.11
392.36	1090.69
392.55	1048.56
392.75	997.07
392.94	1029.84
393.13	978.34
393.33	1104.73
393.52	1001.75
393.71	1083.67
393.91	1114.10
394.10	1123.46
394.29	1121.12
394.49	1128.14
394.68	1193.67
394.88	1240.48
395.07	1200.69
395.26	1203.04
395.46	1249.85
395.65	1270.91
395.84	1308.36
396.04	1275.59
396.23	1142.18
396.42	1074.31
396.62	1156.22
396.81	1233.46
397.00	1221.76
397.19	1287.29
397.39	1254.53
397.58	1376.24
397.77	1413.68
397.97	1441.77
398.16	1479.22
398.35	1444.11
398.55	1437.09
398.74	1479.22
398.93	1444.11
399.12	1563.48
399.32	1434.75
399.51	1502.62
399.70	1474.54
399.90	1500.28
400.09	1645.40
400.28	1509.65
400.47	1455.81
400.67	1636.03
400.86	1614.97
401.05	1703.91
401.24	1600.93
401.44	1750.72
401.63	1760.08
401.82	1621.99
402.01	1652.42
402.21	1797.53
402.40	1687.53
402.59	1675.82
402.78	1755.40
402.97	1790.51
403.17	1767.10
403.36	1722.63
403.55	1867.75
403.74	1886.47
403.93	1804.55
404.13	1813.92
404.32	1860.73
404.51	1771.79
404.70	1825.62
404.89	1832.64
405.09	1912.22
405.28	1863.07
405.47	1881.79
405.66	1928.60
405.85	1909.88
406.05	1959.03
406.24	1912.22
406.43	1961.37
406.62	2012.86
406.81	1994.14
407.00	2092.44
407.20	2029.24
407.39	1994.14
407.58	2139.25
407.77	2237.55
407.96	2209.47
408.15	2270.32
408.34	2146.27
408.54	2289.04
408.73	2289.04
408.92	2122.87
409.11	2179.04
409.30	2258.62
409.49	2235.21
409.68	2214.15
409.87	2235.21
410.07	2293.72
410.26	2244.57
410.45	2300.75
410.64	2399.05
410.83	2588.63
411.02	2462.24
411.21	2485.65
411.40	2448.20
411.59	2555.86
411.78	2658.85
411.98	2569.91
412.17	2527.78
412.36	2708.00
412.55	2539.48
412.74	2605.02
412.93	2558.21
413.12	2759.49
413.31	2789.92
413.50	2813.32
413.69	2766.51
413.88	2881.20
414.07	2796.94
414.26	2789.92
414.45	2867.16
414.64	2834.39
414.83	2963.12
415.02	2946.73
415.22	3077.80
415.41	3192.49
415.60	3052.06
415.79	3131.64
415.98	3173.77
416.17	3239.30
416.36	3185.47
416.55	3112.91
416.74	3243.98
416.93	3300.16
417.12	3171.43
417.31	3328.24
417.50	3346.97
417.69	3398.46
417.88	3513.14
418.07	3545.91
418.26	3342.28
418.45	3442.93
418.64	3581.02
418.83	3590.38
419.02	3482.72
419.21	3597.40
419.39	3482.72
419.58	3555.27
419.77	3473.36
419.96	3602.08
420.15	3637.19
420.34	3613.79
420.53	3688.68
420.72	3852.52
420.91	3899.33
421.10	3824.44
421.29	3679.32
421.48	3726.13
421.67	3768.26
421.86	3662.94
422.05	3761.24
422.24	3730.81
422.43	3763.58
422.61	3946.14
422.80	3871.25
422.99	3798.69
423.18	3815.07
423.37	3896.99
423.56	3829.12
423.75	3922.74
423.94	3896.99
424.13	3637.19
424.32	3695.71
424.50	3871.25
424.69	3899.33
424.88	4037.42
425.07	3765.92
425.26	3786.99
425.45	3770.60
425.64	3906.35
425.83	3899.33
426.01	3990.61
426.20	3904.01
426.39	3969.55
426.58	3845.50
426.77	3929.76
426.96	3943.80
427.15	3915.72
427.33	4046.79
427.52	4077.21
427.71	3948.48
427.90	4145.09
428.09	4208.28
428.28	4021.04
428.46	4100.62
428.65	4140.41
428.84	4255.09
429.03	4215.30
429.22	4021.04
429.40	4161.47
429.59	4217.65
429.78	3927.42
429.97	3887.63
430.16	4079.55
430.34	4170.83
430.53	4255.09
430.72	4227.01
430.91	4217.65
431.10	4273.82
431.28	4545.32
431.47	4447.02
431.66	4603.83
431.85	4329.99
432.03	4603.83
432.22	4671.71
432.41	4442.34
432.60	4737.24
432.79	4620.22
432.97	4667.03
433.16	4657.67
433.35	4624.90
433.54	4620.22
433.72	4557.02
433.91	4554.68
434.10	4748.95
434.28	4664.69
434.47	4793.42
434.66	4706.82
434.85	4889.38
435.03	4950.23
435.22	4830.87
435.41	5109.39
435.59	4961.94
435.78	5097.69
435.97	5102.37
436.16	4940.87
436.34	4997.04
436.53	4842.57
436.72	5032.15
436.90	5184.29
437.09	4999.38
437.28	5071.94
437.46	5156.20
437.65	5118.75
437.84	5170.24
438.02	5041.51
438.21	5224.08
438.40	4943.21
438.58	5275.57
438.77	5397.28
438.96	5352.81
439.14	5640.69
439.33	5537.71
439.52	5434.72
439.70	5582.18
439.89	5654.73
440.08	5778.78
440.26	5526.00
440.45	5720.27
440.63	5746.02
440.82	5874.74
441.01	6111.14
441.19	5989.43
441.38	5998.79
441.57	6106.46
441.75	6092.41
441.94	6127.52
442.12	6179.01
442.31	6202.42
442.50	6366.26
442.68	6106.46
442.87	6195.40
443.05	6331.15
443.24	6469.24
443.43	6193.06
443.61	6436.47
443.80	6576.91
443.98	6253.91
444.17	6193.06
444.35	6443.49
444.54	6551.16
444.73	6394.34
444.91	6420.09
445.10	6445.84
445.28	6342.85
445.47	6457.54
445.65	6195.40
445.84	6420.09
446.02	6466.90
446.21	6614.35
446.39	6347.53
446.58	6492.65
446.77	6616.69
446.95	6502.01
447.14	6504.35
447.32	6684.57
447.51	6296.04
447.69	6558.18
447.88	6502.01
448.06	6539.46
448.25	6567.54
448.43	6759.47
448.62	6787.55
448.80	6722.02
448.99	6731.38
449.17	6810.96
449.36	6773.51
449.54	6778.19
449.73	6960.75
449.91	6839.05
450.10	7110.55
450.28	6878.83
450.46	6881.18
450.65	7070.76
450.83	6991.18
451.02	7087.14
451.20	7129.27
451.39	7117.57
451.57	7138.63
451.76	7066.08
451.94	7063.74
452.13	7239.28
452.31	7026.29
452.49	6925.65
452.68	7005.22
452.86	7169.06
453.05	7131.61
453.23	7377.37
453.42	7026.29
453.60	7325.88
453.78	7267.36
453.97	7054.37
454.15	7363.33
454.34	7185.44
454.52	7412.48
454.70	7293.11
454.89	7382.05
455.07	7440.56
455.26	7356.30
455.44	7639.51
455.62	7735.47
455.81	7566.95
455.99	7599.72
456.17	7707.38
456.36	7557.59
456.54	7840.79
456.73	7805.69
456.91	8058.46
457.09	8079.53
457.28	7894.63
457.46	7971.86
457.64	8039.74
457.83	7962.50
458.01	7873.56
458.19	8159.11
458.38	7981.23
458.56	8184.85
458.74	8021.02
458.93	8215.28
459.11	8299.54
459.29	8133.36
459.48	8360.39
459.66	8390.82
459.84	8219.96
460.03	8374.44
460.21	8559.34
460.39	8379.12
460.57	8028.04
460.76	8306.56
460.94	8379.12
461.12	8461.04
461.31	8463.38
461.49	8697.43
461.67	8446.99
461.85	8833.18
462.04	8617.85
462.22	9268.52
462.40	8777.01
462.59	8793.39
462.77	8805.10
462.95	8674.03
463.13	8887.01
463.32	8805.10
463.50	8872.97
463.68	9097.66
463.86	9043.83
464.05	8751.26
464.23	8734.88
464.41	9008.72
464.59	8809.78
464.78	9046.17
464.96	8849.57
465.14	8868.29
465.32	9369.16
465.50	9125.75
465.69	9210.01
465.87	8992.34
466.05	9191.28
466.23	9202.99
466.41	9289.59
466.60	9247.46
466.78	9004.04
466.96	9153.84
467.14	9242.78
467.32	9114.05
467.51	9378.53
467.69	9142.13
467.87	9181.92
468.05	9411.29
468.23	9170.22
468.41	9291.93
468.60	9289.59
468.78	9621.94
468.96	9371.50
469.14	9628.96
469.32	9579.81
469.50	9179.58
469.69	9415.98
469.87	9736.63
470.05	9671.09
470.23	9570.45
470.41	9699.18
470.59	9994.09
470.77	9628.96
470.95	9935.57
471.14	10092.39
471.32	9884.08
471.50	10061.96
471.68	10164.95
471.86	10366.23
472.04	10305.38
472.22	10420.06
472.40	10223.46
472.58	10150.90
472.77	10221.12
472.95	10448.15
473.13	10539.43
473.31	10633.05
473.49	10328.78
473.67	10424.75
473.85	10443.47
474.03	10920.94
474.21	11070.73
474.39	10963.07
474.57	10780.51
474.75	10953.71
474.93	10970.09
475.12	10981.79
475.30	11059.03
475.48	11002.86
475.66	11222.87
475.84	11044.99
476.02	11257.98
476.20	11080.10
476.38	11545.86
476.56	11714.38
476.74	11538.84
476.92	11609.06
477.10	11611.40
477.28	11845.45
477.46	11798.64
477.64	12042.06
477.82	12294.83
478.00	12313.56
478.18	12280.79
478.36	12173.13
478.54	12470.37
478.72	12608.47
478.90	12664.64
479.08	12793.37
479.26	12879.97
479.44	12950.18
479.62	13025.08
479.80	13259.13
479.98	13116.36
480.16	13647.66
480.34	13551.70
480.52	13589.15
480.70	13493.19
480.88	13469.78
481.06	13614.90
481.24	13862.99
481.41	13919.17
481.59	14150.88
481.77	14331.10
481.95	14190.67
482.13	14143.86
482.31	14518.34
482.49	14544.09
482.67	14808.57
482.85	14923.26
483.03	14979.43
483.21	15047.30
483.39	15206.46
483.57	15087.09
483.74	15047.30
483.92	15550.52
484.10	15463.92
484.28	15623.08
484.46	15847.77
484.64	16147.36
484.82	15712.02
485.00	16175.44
485.18	16224.59
485.35	16386.09
485.53	16065.44
485.71	16121.61
485.89	16540.57
486.07	16203.53
486.25	16170.76
486.43	16620.14
486.61	16779.30
486.78	17123.36
486.96	17125.70
487.14	17628.92
487.32	17451.03
487.50	17682.75
487.68	18066.60
487.85	18132.13
488.03	18300.65
488.21	18221.07
488.39	18314.69
488.57	18541.72
488.75	18544.06
488.92	18885.78
489.10	19339.85
489.28	19213.46
489.46	19445.17
489.64	19424.11
489.81	19864.13
489.99	19983.49
490.17	20224.57
490.35	20170.74
490.53	19971.79
490.70	20226.91
490.88	20641.18
491.06	20418.83
491.24	20500.75
491.41	20521.82
491.59	20566.29
491.77	20699.70
491.95	20814.38
492.13	21123.33
492.30	20992.26
492.48	21399.52
492.66	21497.82
492.84	21825.50
493.01	21926.14
493.19	21722.51
493.37	22118.06
493.54	21916.78
493.72	22452.76
493.90	22368.50
494.08	22623.62
494.25	23009.81
494.43	23061.30
494.61	23040.23
494.79	23363.23
494.96	23073.00
495.14	23147.90
495.32	23459.19
495.49	23353.87
495.67	23660.48
495.85	23817.29
496.02	23887.51
496.20	23798.57
496.38	24271.36
496.55	24465.62
496.73	24498.39
496.91	24283.06
497.09	24503.07
497.26	25088.20
497.44	24692.65
497.62	25369.07
497.79	25158.42
497.97	24891.60
498.14	25301.19
498.32	25535.24
498.50	25329.28
498.67	25837.17
498.85	25867.60
499.03	25865.26
499.20	26214.00
499.38	26204.64
499.56	26050.16
499.73	26492.52
499.91	26373.16
500.08	26576.78
500.26	25961.22
500.44	26518.27
500.61	26277.19
500.79	26508.91
500.97	26628.27
501.14	27089.36
501.32	27119.79
501.49	26785.09
501.67	26768.71
501.84	27033.19
502.02	27424.06
502.20	27508.32
502.37	27669.81
502.55	27768.12
502.72	27725.99
502.90	27718.96
503.07	27917.91
503.25	28369.63
503.43	28039.62
503.60	28112.17
503.78	28102.81
503.95	28144.94
504.13	28510.07
504.30	28348.57
504.48	28531.13
504.65	28683.27
504.83	29099.88
505.01	28922.00
505.18	28830.72
505.36	28709.01
505.53	29448.62
505.71	29504.79
505.88	29329.25
506.06	29043.71
506.23	29572.67
506.41	28947.75
506.58	29687.36
506.76	29736.51
506.93	30249.08
507.11	29418.19
507.28	30155.46
507.46	29558.63
507.63	29993.97
507.81	30190.57
507.98	30375.47
508.16	30043.12
508.33	30415.26
508.50	30480.80
508.68	30689.10
508.85	30927.84
509.03	30705.49
509.20	30719.53
509.38	31019.12
509.55	30855.28
509.73	30876.35
509.90	31475.52
510.08	31192.32
510.25	31260.20
510.42	31077.63
510.60	31496.59
510.77	31225.09
510.95	31791.50
511.12	31622.98
511.30	32123.85
511.47	32308.76
511.64	32376.63
511.82	32058.32
511.99	32027.89
512.17	32409.40
512.34	32123.85
512.51	32542.81
512.69	32641.11
512.86	32362.59
513.04	32926.66
513.21	32708.99
513.38	32748.78
513.56	33060.07
513.73	32547.49
513.90	32751.12
514.08	32985.17
514.25	33392.42
514.43	33270.72
514.60	33329.23
514.77	33429.87
514.95	33233.27
515.12	33294.12
515.29	33338.59
515.47	33914.36
515.64	33820.74
515.81	33982.24
515.99	33392.42
516.16	33312.84
516.33	33326.89
516.51	33876.91
516.68	33104.54
516.85	33092.83
517.03	33174.75
517.20	33970.54
517.37	34139.05
517.54	34136.71
517.72	33825.42
517.89	33949.47
518.06	33944.79
518.24	34087.56
518.41	33993.94
518.58	34284.17
518.75	34438.64
518.93	34925.47
519.10	35035.48
519.27	34948.88
519.45	34822.49
519.62	35044.84
519.79	35555.08
519.96	35309.32
520.14	35278.89
520.31	35257.83
520.48	35246.13
520.65	34895.05
520.83	35658.06
521.00	35515.29
521.17	35690.83
521.34	35739.98
521.52	36060.63
521.69	35887.43
521.86	36250.22
522.03	36009.14
522.20	36503.00
522.38	36023.19
522.55	36428.10
522.72	36257.24
522.89	36201.07
523.07	36105.10
523.24	36430.44
523.41	36940.68
523.58	36563.85
523.75	37298.78
523.92	37104.51
524.10	37193.45
524.27	37137.28
524.44	37469.64
524.61	37486.02
524.78	37408.78
524.96	37785.61
525.13	37640.50
525.30	37586.66
525.47	37528.15
525.64	37481.34
525.81	37214.52
525.98	37282.39
526.16	37404.10
526.33	37497.72
526.50	37806.67
526.67	37043.66
526.84	37455.59
527.01	37347.93
527.18	37834.76
527.36	37666.24
527.53	38092.22
527.70	38394.15
527.87	38373.08
528.04	38045.41
528.21	38384.79
528.38	38651.61
528.55	38550.96
528.72	38389.47
528.89	38806.08
529.07	38403.51
529.24	38801.40
529.41	38684.37
529.58	38546.28
529.75	38527.56
529.92	38775.66
530.09	39009.71
530.26	39189.93
530.43	39274.19
530.60	39119.71
530.77	38780.34
530.94	39005.03
531.11	39072.90
531.28	39110.35
531.46	39269.51
531.63	39723.57
531.80	39543.35
531.97	39742.30
532.14	38944.17
532.31	39260.15
532.48	39438.03
532.65	39927.20
532.82	39545.69
532.99	39548.03
533.16	39367.81
533.33	40175.30
533.50	40149.55
533.67	40177.64
533.84	40067.63
534.01	39948.26
534.18	39751.66
534.35	40294.66
534.52	40100.40
534.69	40350.84
534.86	40484.25
535.03	40238.49
535.20	40542.76
535.37	40730.00
535.54	41104.49
535.71	40147.21
535.88	40362.54
536.05	40484.25
536.22	40610.64
536.38	40807.24
536.55	40446.80
536.72	40973.42
536.89	40692.55
537.06	40823.62
537.23	41200.45
537.40	40612.98
537.57	40872.78
537.74	41226.20
537.91	41364.29
538.08	41698.98
538.25	40999.16
538.42	40980.44
538.59	41350.24
538.75	41305.77
538.92	41511.74
539.09	41425.14
539.26	41607.70
539.43	41357.27
539.60	41659.20
539.77	41596.00
539.94	41502.38
540.11	41219.17
540.28	41069.38
540.44	41441.53
540.61	41610.04
540.78	41425.14
540.95	41734.09
541.12	41570.25
541.29	41198.11
541.46	41652.17
541.62	41811.33
541.79	41989.21
541.96	41567.91
542.13	41668.56
542.30	41860.48
542.47	42129.64
542.63	41752.82
542.80	41888.57
542.97	42410.51
543.14	42876.27
543.31	42815.42
543.48	42609.45
543.64	43040.11
543.81	42897.34
543.98	42862.23
544.15	42607.11
544.32	43152.46
544.48	43306.93
544.65	42712.44
544.82	42796.70
544.99	42319.23
545.16	42752.23
545.32	42784.99
545.49	43512.90
545.66	43093.94
545.83	43058.84
546.00	43526.94
546.16	43168.84
546.33	43138.41
546.50	43206.29
546.67	43255.44
546.83	43243.74
547.00	43239.06
547.17	43304.59
547.34	43328.00
547.50	43529.28
547.67	43222.67
547.84	43519.92
548.00	43564.39
548.17	43737.59
548.34	43777.38
548.51	43863.98
548.67	43658.01
548.84	43772.70
549.01	43910.79
549.18	43540.99
549.34	43924.83
549.51	44018.46
549.68	44098.03
549.84	43524.60
550.01	44086.33
550.18	43817.17
550.34	44062.93
550.51	43887.39
550.68	44074.63
550.84	43716.53
551.01	44067.61
551.18	43906.11
551.34	44306.34
551.51	44245.49
551.68	44446.77
551.84	44353.15
552.01	44060.58
552.18	43807.81
552.34	44004.41
552.51	44163.57
552.68	44065.27
552.84	44402.30
553.01	44685.51
553.18	44313.36
553.34	44360.17
553.51	44252.51
553.67	44879.77
553.84	44491.24
554.01	44919.56
554.17	45179.36
554.34	44652.74
554.51	45027.23
554.67	44957.01
554.84	44790.83
555.00	45097.44
555.17	44842.32
555.33	44832.96
555.50	44519.33
555.67	44863.39
555.83	44800.19
556.00	44744.02
556.16	45067.02
556.33	44912.54
556.50	44786.15
556.66	44900.84
556.83	44722.96
556.99	45045.95
557.16	45287.03
557.32	45411.07
557.49	44952.33
557.65	44825.94
557.82	44968.71
557.98	44994.46
558.15	45291.71
558.32	45179.36
558.48	45319.79
558.65	45240.21
558.81	45240.21
558.98	44933.60
559.14	45907.27
559.31	44821.26
559.47	45469.59
559.64	45485.97
559.80	45579.59
559.97	45324.47
560.13	44928.92
560.30	45041.27
560.46	45565.55
560.63	45359.58
560.79	45830.03
560.96	45963.44
561.12	45420.44
561.29	45242.56
561.45	45272.98
561.61	45429.80
561.78	44900.84
561.94	45558.53
562.11	45062.33
562.27	45390.01
562.44	45483.63
562.60	45687.26
562.77	45656.83
562.93	45509.38
563.10	45656.83
563.26	45507.04
563.42	45783.22
563.59	45455.54
563.75	45813.65
563.92	46038.34
564.08	45900.25
564.24	45724.71
564.41	45839.39
564.57	45823.01
564.74	45588.95
564.90	45722.37
565.07	45769.18
565.23	45977.48
565.39	45464.91
565.56	45780.88
565.72	46043.02
565.88	45738.75
566.05	45193.40
566.21	45511.72
566.38	45670.87
566.54	45813.65
566.70	46038.34
566.87	46143.66
567.03	45717.68
567.19	46408.14
567.36	46216.22
567.52	46050.04
567.68	46138.98
567.85	45713.00
568.01	45951.74
568.17	45462.57
568.34	46248.99
568.50	45968.12
568.66	45741.09
568.83	46017.27
568.99	45715.34
569.15	45717.68
569.32	45820.67
569.48	45371.28
569.64	46211.54
569.81	46050.04
569.97	45895.56
570.13	45916.63
570.30	46117.92
570.46	45783.22
570.62	45968.12
570.78	45815.99
570.95	45504.70
571.11	45907.27
571.27	45874.50
571.43	46157.70
571.60	46382.40
571.76	45839.39
571.92	46344.95
572.09	46007.91
572.25	45684.92
572.41	46256.01
572.57	45865.14
572.74	46164.73
572.90	46256.01
573.06	46476.02
573.22	46101.53
573.38	46263.03
573.55	45525.76
573.71	46316.86
573.87	46286.43
574.03	46028.98
574.20	45846.41
574.36	46005.57
574.52	46270.05
574.68	46183.45
574.84	46185.79
575.01	46007.91
575.17	46106.21
575.33	46117.92
575.49	45996.21
575.65	46604.75
575.82	46387.08
575.98	46089.83
576.14	46555.60
576.30	46003.23
576.46	46279.41
576.62	46185.79
576.79	46237.28
576.95	45942.38
577.11	46099.19
577.27	46150.68
577.43	46155.36
577.59	46337.93
577.75	46384.74
577.92	46148.34
578.08	45677.90
578.24	45933.01
578.40	46234.94
578.56	45879.18
578.72	46146.00
578.88	46471.34
579.04	46101.53
579.21	46148.34
579.37	46061.74
579.53	46199.83
579.69	45972.80
579.85	46263.03
580.01	46347.29
580.17	46326.22
580.33	46335.59
580.49	46354.31
580.65	46490.06
580.82	46649.22
580.98	46391.76
581.14	45977.48
581.30	46253.67
581.46	46082.81
581.62	46976.89
581.78	46602.41
581.94	46487.72
582.10	46314.52
582.26	46560.28
582.42	46270.05
582.58	46000.89
582.74	46480.70
582.90	46373.03
583.06	46574.32
583.22	46429.21
583.38	46567.30
583.54	46536.87
583.70	46567.30
583.86	46600.07
584.02	46518.15
584.18	46476.02
584.34	46286.43
584.50	46300.48
584.66	46101.53
584.82	46153.02
584.98	46738.16
585.14	46246.65
585.30	46263.03
585.46	46113.23
585.62	46124.94
585.78	46216.22
585.94	45879.18
586.10	46616.45
586.26	45986.85
586.42	46377.72
586.58	46569.64
586.74	46497.08
586.90	46148.34
587.06	46120.26
587.22	46726.46
587.38	46384.74
587.54	46630.49
587.70	46658.58
587.86	46408.14
588.02	46164.73
588.18	46567.30
588.34	46174.09
588.49	46309.84
588.65	46220.90
588.81	46181.11
588.97	46305.16
589.13	45890.88
589.29	45895.56
589.45	46681.98
589.61	46148.34
589.77	46307.50
589.93	46263.03
590.08	46604.75
