SpectraSuite Data File
++++++++++++++++++++++++++++++++++++
Date: Fri Oct 25 11:34:38 EDT 2013
User: price-jones
Dark Spectrum Present: No
Reference Spectrum Present: No
Number of Sampled Component Spectra: 1
Spectrometers: USB2+H05261
Integration Time (usec): 100000 (USB2+H05261)
Spectra Averaged: 1 (USB2+H05261)
Boxcar Smoothing: 0 (USB2+H05261)
Correct for Electrical Dark: No (USB2+H05261)
Strobe/Lamp Enabled: No (USB2+H05261)
Correct for Detector Non-linearity: No (USB2+H05261)
Correct for Stray Light: No (USB2+H05261)
Number of Pixels in Processed Spectrum: 2048
>>>>>Begin Processed Spectral Data<<<<<
365.73	264.48
365.92	264.48
366.12	264.48
366.32	163.84
366.52	177.88
366.72	173.20
366.91	217.67
367.11	175.54
367.31	173.20
367.51	147.45
367.70	166.18
367.90	234.05
368.10	210.65
368.30	210.65
368.49	220.01
368.69	142.77
368.89	203.63
369.09	252.78
369.28	238.73
369.48	222.35
369.68	222.35
369.87	224.69
370.07	266.82
370.27	330.02
370.47	299.59
370.66	444.70
370.86	512.58
371.06	444.70
371.25	566.41
371.45	582.79
371.65	631.94
371.84	531.30
372.04	557.05
372.24	617.90
372.44	627.26
372.63	585.13
372.83	617.90
373.03	580.45
373.22	610.88
373.42	636.63
373.62	564.07
373.81	620.24
374.01	613.22
374.21	692.80
374.40	622.58
374.60	662.37
374.79	678.76
374.99	547.69
375.19	559.39
375.38	669.39
375.58	610.88
375.78	720.88
375.97	697.48
376.17	744.29
376.37	657.69
376.56	636.63
376.76	681.10
376.95	650.67
377.15	650.67
377.35	685.78
377.54	634.29
377.74	620.24
377.93	650.67
378.13	692.80
378.33	709.18
378.52	643.65
378.72	627.26
378.91	774.72
379.11	697.48
379.31	657.69
379.50	664.71
379.70	706.84
379.89	770.04
380.09	788.76
380.28	711.52
380.48	709.18
380.68	662.37
380.87	688.12
381.07	699.82
381.26	786.42
381.46	765.36
381.65	767.70
381.85	737.27
382.04	814.51
382.24	753.65
382.43	821.53
382.63	767.70
382.83	812.17
383.02	837.91
383.22	821.53
383.41	770.04
383.61	730.25
383.80	800.46
384.00	833.23
384.19	826.21
384.39	767.70
384.58	842.59
384.78	856.64
384.97	791.10
385.17	777.06
385.36	748.97
385.56	758.33
385.75	798.12
385.95	805.14
386.14	809.83
386.34	793.44
386.53	828.55
386.72	833.23
386.92	873.02
387.11	833.23
387.31	856.64
387.50	786.42
387.70	877.70
387.89	891.74
388.09	901.11
388.28	851.96
388.48	936.21
388.67	966.64
388.86	894.08
389.06	936.21
389.25	945.58
389.45	842.59
389.64	903.45
389.84	933.87
390.03	938.55
390.22	894.08
390.42	933.87
390.61	929.19
390.81	1008.77
391.00	985.37
391.19	971.32
391.39	1006.43
391.58	1034.52
391.78	919.83
391.97	1013.45
392.16	943.24
392.36	1034.52
392.55	940.90
392.75	1057.92
392.94	973.66
393.13	978.34
393.33	1015.79
393.52	1046.22
393.71	1100.05
393.91	1053.24
394.10	1041.54
394.29	1064.94
394.49	1020.47
394.68	1064.94
394.88	1118.78
395.07	1043.88
395.26	1060.26
395.46	1114.10
395.65	1174.95
395.84	1055.58
396.04	1238.14
396.23	1151.54
396.42	1245.16
396.62	1165.59
396.81	1153.88
397.00	1137.50
397.19	1123.46
397.39	1191.33
397.58	1224.10
397.77	1221.76
397.97	1273.25
398.16	1174.95
398.35	1233.46
398.55	1172.61
398.74	1203.04
398.93	1277.93
399.12	1245.16
399.32	1291.98
399.51	1331.76
399.70	1308.36
399.90	1299.00
400.09	1327.08
400.28	1313.04
400.47	1294.32
400.67	1294.32
400.86	1348.15
401.05	1373.89
401.24	1310.70
401.44	1378.58
401.63	1373.89
401.82	1348.15
402.01	1291.98
402.21	1521.35
402.40	1329.42
402.59	1493.26
402.78	1458.15
402.97	1476.88
403.17	1425.39
403.36	1413.68
403.55	1465.18
403.74	1582.20
403.93	1509.65
404.13	1519.01
404.32	1554.12
404.51	1411.34
404.70	1502.62
404.89	1577.52
405.09	1661.78
405.28	1586.88
405.47	1633.69
405.66	1643.06
405.85	1652.42
406.05	1685.19
406.24	1652.42
406.43	1706.25
406.62	1668.80
406.81	1717.95
407.00	1556.46
407.20	1696.89
407.39	1797.53
407.58	1785.83
407.77	1813.92
407.96	1755.40
408.15	1867.75
408.34	1699.23
408.54	1806.89
408.73	1839.66
408.92	1891.15
409.11	1909.88
409.30	1881.79
409.49	1888.81
409.68	1998.82
409.87	1933.28
410.07	1849.02
410.26	2015.20
410.45	1940.30
410.64	1952.01
410.83	2012.86
411.02	1998.82
411.21	2087.76
411.40	2043.29
411.59	2057.33
411.78	2083.08
411.98	2167.34
412.17	2115.84
412.36	2139.25
412.55	2263.30
412.74	2246.91
412.93	2204.78
413.12	2204.78
413.31	2347.56
413.50	2305.43
413.69	2279.68
413.88	2319.47
414.07	2321.81
414.26	2410.75
414.45	2410.75
414.64	2396.71
414.83	2495.01
415.02	2539.48
415.22	2403.73
415.41	2661.19
415.60	2548.84
415.79	2541.82
415.98	2537.14
416.17	2649.49
416.36	2576.93
416.55	2572.25
416.74	2567.57
416.93	2626.08
417.12	2759.49
417.31	2785.24
417.50	2764.17
417.69	2850.77
417.88	2768.85
418.07	2785.24
418.26	2818.00
418.45	2913.97
418.64	2920.99
418.83	2923.33
419.02	2839.07
419.21	2939.71
419.39	3012.27
419.58	3014.61
419.77	2928.01
419.96	3009.93
420.15	2939.71
420.34	2986.52
420.53	3012.27
420.72	2974.82
420.91	3124.62
421.10	3208.87
421.29	3197.17
421.48	3014.61
421.67	3061.42
421.86	3143.34
422.05	3183.13
422.24	3169.09
422.43	3220.58
422.61	3159.72
422.80	3272.07
422.99	3281.43
423.18	3276.75
423.37	3295.47
423.56	3192.49
423.75	3169.09
423.94	3197.17
424.13	3164.40
424.32	3129.30
424.50	3377.39
424.69	3393.78
424.88	3452.29
425.07	3281.43
425.26	3265.05
425.45	3349.31
425.64	3131.64
425.83	3295.47
426.01	3351.65
426.20	3321.22
426.39	3356.33
426.58	3323.56
426.77	3311.86
426.96	3386.76
427.15	3368.03
427.33	3309.52
427.52	3391.44
427.71	3515.48
427.90	3449.95
428.09	3555.27
428.28	3508.46
428.46	3478.04
428.65	3461.65
428.84	3543.57
429.03	3684.00
429.22	3534.21
429.40	3644.21
429.59	3552.93
429.78	3463.99
429.97	3405.48
430.16	3679.32
430.34	3684.00
430.53	3609.11
430.72	3606.77
430.91	3634.85
431.10	3639.53
431.28	3733.15
431.47	3859.54
431.66	3779.97
431.85	3836.14
432.03	3824.44
432.22	3845.50
432.41	3845.50
432.60	3786.99
432.79	3803.37
432.97	3864.22
433.16	3981.25
433.35	4004.66
433.54	3971.89
433.72	3901.67
433.91	4072.53
434.10	4117.00
434.28	3922.74
434.47	4042.11
434.66	4184.88
434.85	4039.76
435.03	4196.58
435.22	4121.68
435.41	4311.27
435.59	4135.73
435.78	4245.73
435.97	4285.52
436.16	4175.52
436.34	4142.75
436.53	4208.28
436.72	4243.39
436.90	4175.52
437.09	4353.40
437.28	4269.14
437.46	4341.69
437.65	4341.69
437.84	4418.93
438.02	4444.68
438.21	4409.57
438.40	4397.87
438.58	4542.98
438.77	4528.94
438.96	4596.81
439.14	4627.24
439.33	4667.03
439.52	4578.09
439.70	4582.77
439.89	4777.03
440.08	4865.97
440.26	4905.76
440.45	4835.55
440.63	4753.63
440.82	4875.34
441.01	4870.65
441.19	5020.45
441.38	5013.43
441.57	4945.55
441.75	4987.68
441.94	5057.90
442.12	5151.52
442.31	5088.32
442.50	5219.39
442.68	5104.71
442.87	5172.58
443.05	5371.53
443.24	5252.16
443.43	5125.77
443.61	5198.33
443.80	5526.00
443.98	5191.31
444.17	5076.62
444.35	5160.88
444.54	5383.23
444.73	5364.51
444.91	5462.81
445.10	5423.02
445.28	5397.28
445.47	5280.25
445.65	5490.90
445.84	5493.24
446.02	5439.40
446.21	5385.57
446.39	5369.19
446.58	5526.00
446.77	5528.35
446.95	5287.27
447.14	5603.24
447.32	5432.38
447.51	5392.59
447.69	5467.49
447.88	5521.32
448.06	5453.45
448.25	5479.19
448.43	5516.64
448.62	5509.62
448.80	5516.64
448.99	5832.62
449.17	5521.32
449.36	5558.77
449.54	5727.29
449.73	5767.08
449.91	5636.01
450.10	5729.63
450.28	5998.79
450.46	5994.11
450.65	5757.72
450.83	5771.76
451.02	5823.25
451.20	5944.96
451.39	5923.90
451.57	5734.31
451.76	5865.38
451.94	5853.68
452.13	6008.16
452.31	6022.20
452.49	5825.59
452.68	6115.82
452.86	5912.19
453.05	6092.41
453.23	6094.76
453.42	6061.99
453.60	6122.84
453.78	6153.27
453.97	6108.80
454.15	6043.26
454.34	6099.44
454.52	6251.57
454.70	6310.08
454.89	6286.68
455.07	6223.48
455.26	6370.94
455.44	6466.90
455.62	6356.90
455.81	6155.61
455.99	6417.75
456.17	6326.47
456.36	6452.86
456.54	6724.36
456.73	6581.59
456.91	6644.78
457.09	6679.89
457.28	6752.45
457.46	6595.63
457.64	6874.15
457.83	6670.53
458.01	6637.76
458.19	6867.13
458.38	6705.63
458.56	6803.94
458.74	6906.92
458.93	6834.36
459.11	6766.49
459.29	7007.56
459.48	6855.43
459.66	6899.90
459.84	7026.29
460.03	6958.41
460.21	7068.42
460.39	6949.05
460.57	6977.14
460.76	7040.33
460.94	7213.53
461.12	7199.49
461.31	7192.47
461.49	7115.23
461.67	7276.73
461.85	7342.26
462.04	7073.10
462.22	7566.95
462.40	7250.98
462.59	7527.16
462.77	7311.83
462.95	7321.20
463.13	7379.71
463.32	7555.25
463.50	7470.99
463.68	7644.19
463.86	7611.42
464.05	7506.10
464.23	7606.74
464.41	7421.84
464.59	7508.44
464.78	7779.94
464.96	7466.31
465.14	7520.14
465.32	7641.85
465.50	7693.34
465.69	7700.36
465.87	7843.14
466.05	7796.32
466.23	7861.86
466.41	7857.18
466.60	7887.61
466.78	7660.57
466.96	7613.76
467.14	7775.26
467.32	7976.55
467.51	7929.74
467.69	7676.96
467.87	7934.42
468.05	7978.89
468.23	7864.20
468.41	7882.92
468.60	8163.79
468.78	8163.79
468.96	7911.01
469.14	8138.04
469.32	8170.81
469.50	8081.87
469.69	8243.37
469.87	8229.32
470.05	8201.24
470.23	8383.80
470.41	8236.35
470.59	8507.85
470.77	8468.06
470.95	8369.76
471.14	8557.00
471.32	8154.43
471.50	8500.83
471.68	8540.61
471.86	8636.58
472.04	8650.62
472.22	8896.38
472.40	8498.49
472.58	8596.79
472.77	8711.47
472.95	8879.99
473.13	9081.28
473.31	8896.38
473.49	8723.18
473.67	9163.20
473.85	9029.79
474.03	9153.84
474.21	9118.73
474.39	9320.01
474.57	9284.91
474.75	9362.14
474.93	9570.45
475.12	9385.55
475.30	9511.94
475.48	9495.55
475.66	9591.52
475.84	9380.87
476.02	9783.44
476.20	9525.98
476.38	9914.51
476.56	10200.05
476.74	10108.77
476.92	9900.47
477.10	10024.51
477.28	10246.87
477.46	10232.82
477.64	10279.63
477.82	10272.61
478.00	10429.43
478.18	10518.37
478.36	10604.97
478.54	10846.04
478.72	10925.62
478.90	11019.24
479.08	10993.50
479.26	11185.42
479.44	11246.27
479.62	11164.36
479.80	11382.03
479.98	11466.28
480.16	11602.04
480.34	11496.71
480.52	11651.19
480.70	11639.48
480.88	11569.27
481.06	11683.95
481.24	11812.68
481.41	11789.28
481.59	12049.08
481.77	12325.26
481.95	12072.48
482.13	12231.64
482.31	12449.31
482.49	12578.04
482.67	12720.81
482.85	12816.77
483.03	12564.00
483.21	12891.67
483.39	13240.41
483.57	13151.47
483.74	13444.04
483.92	13359.78
484.10	13135.09
484.28	13458.08
484.46	13760.01
484.64	14106.41
484.82	13713.20
485.00	13767.03
485.18	14066.62
485.35	14333.44
485.53	14246.84
485.71	14380.25
485.89	14693.88
486.07	14792.19
486.25	14635.37
486.43	14604.94
486.61	14878.79
486.78	14988.79
486.96	14941.98
487.14	15140.93
487.32	15286.04
487.50	15571.58
487.68	15520.09
487.85	15726.06
488.03	15627.76
488.21	15660.52
488.39	15997.56
488.57	16360.34
488.75	16027.99
488.92	16535.88
489.10	16423.54
489.28	16662.27
489.46	17191.23
489.64	16734.83
489.81	17362.09
489.99	17467.42
490.17	17111.66
490.35	17701.47
490.53	17530.61
490.70	17687.43
490.88	17479.12
491.06	18047.87
491.24	17722.54
491.41	18090.00
491.59	18302.99
491.77	17996.38
491.95	18274.90
492.13	18735.99
492.30	18511.30
492.48	18438.74
492.66	18597.90
492.84	18764.07
493.01	19274.31
493.19	19129.20
493.37	19484.96
493.54	19073.03
493.72	19489.64
493.90	19506.02
494.08	19585.60
494.25	19831.36
494.43	19903.92
494.61	20255.00
494.79	20039.67
494.96	20163.72
495.14	20304.15
495.32	20896.30
495.49	20460.96
495.67	20311.17
495.85	20798.00
496.02	21060.14
496.20	21355.05
496.38	21343.35
496.55	21130.36
496.73	21757.62
496.91	21626.55
497.09	21493.14
497.26	21766.98
497.44	21764.64
497.62	21900.39
497.79	22377.86
497.97	22073.59
498.14	22317.01
498.32	22530.00
498.50	22642.34
498.67	22609.58
498.85	22551.06
499.03	22869.37
499.20	22480.85
499.38	22876.40
499.56	23124.49
499.73	22946.61
499.91	23239.18
500.08	23197.05
500.26	23091.73
500.44	23285.99
500.61	23623.03
500.79	23520.04
500.97	23964.75
501.14	23899.21
501.32	23878.15
501.49	23789.20
501.67	24065.39
501.84	24196.46
502.02	23981.13
502.20	24453.92
502.37	24173.05
502.55	24615.41
502.72	24559.24
502.90	24451.58
503.07	24449.24
503.25	24833.08
503.43	24570.94
503.60	24835.42
503.78	24891.60
503.95	25233.32
504.13	25088.20
504.30	25350.34
504.48	25209.91
504.65	25568.01
504.83	25521.20
505.01	25523.54
505.18	25497.80
505.36	25724.83
505.53	25582.06
505.71	25673.34
505.88	26132.08
506.06	25708.44
506.23	26052.50
506.41	26052.50
506.58	26118.04
506.76	26092.29
506.93	26539.33
507.11	26529.97
507.28	26546.36
507.46	26663.38
507.63	26799.13
507.81	26513.59
507.98	26602.53
508.16	27115.11
508.33	27482.57
508.50	27391.29
508.68	27047.23
508.85	27419.38
509.03	27466.19
509.20	27190.00
509.38	27508.32
509.55	27819.61
509.73	27812.59
509.90	27611.30
510.08	27817.27
510.25	27709.60
510.42	28051.32
510.60	28243.24
510.77	28243.24
510.95	28477.30
511.12	27828.97
511.30	28657.52
511.47	28540.49
511.64	28577.94
511.82	28353.25
511.99	28641.14
512.17	29099.88
512.34	28889.23
512.51	28987.53
512.69	29057.75
512.86	29053.07
513.04	29418.19
513.21	29132.65
513.38	29481.39
513.56	29575.01
513.73	29352.66
513.90	29556.28
514.08	29579.69
514.25	29596.07
514.43	29823.11
514.60	29886.30
514.77	29919.07
514.95	30132.06
515.12	30036.09
515.29	30122.69
515.47	30061.84
515.64	30796.77
515.81	29935.45
515.99	30588.46
516.16	30780.39
516.33	29979.92
516.51	30857.62
516.68	30855.28
516.85	30696.13
517.03	31117.42
517.20	31054.23
517.37	30749.96
517.54	30876.35
517.72	31133.81
517.89	31325.73
518.06	31234.45
518.24	31021.46
518.41	31094.02
518.58	31234.45
518.75	31094.02
518.93	31894.48
519.10	31861.71
519.27	31487.23
519.45	31697.88
519.62	32048.96
519.79	31899.16
519.96	32233.86
520.14	31969.38
520.31	31707.24
520.48	32676.22
520.65	32456.21
520.83	32737.07
521.00	32283.01
521.17	32116.83
521.34	33060.07
521.52	32713.67
521.69	32861.12
521.86	32692.60
522.03	33113.90
522.20	32783.88
522.38	33221.56
522.55	33036.66
522.72	32947.72
522.89	33113.90
523.07	33792.65
523.24	33219.22
523.41	33511.79
523.58	33076.45
523.75	33589.03
523.92	33706.05
524.10	33574.98
524.27	33958.83
524.44	34005.64
524.61	33722.44
524.78	34089.90
524.96	34242.04
525.13	34017.35
525.30	34068.84
525.47	34300.55
525.64	34490.13
525.81	34263.10
525.98	34445.66
526.16	34213.95
526.33	34448.00
526.50	34445.66
526.67	34693.76
526.84	34263.10
527.01	34541.63
527.18	35138.46
527.36	34679.72
527.53	34991.01
527.70	34899.73
527.87	35075.27
528.04	35117.40
528.21	34972.28
528.38	35082.29
528.55	35009.73
528.72	34932.50
528.89	35297.62
529.07	35260.17
529.24	34866.96
529.41	35306.98
529.58	35164.21
529.75	35672.10
529.92	35583.16
530.09	35641.68
530.26	35889.77
530.43	35578.48
530.60	35606.57
530.77	35632.32
530.94	36114.47
531.11	35828.92
531.28	35868.71
531.46	36025.53
531.63	36147.23
531.80	36065.31
531.97	36596.62
532.14	36371.92
532.31	36172.98
532.48	36514.70
532.65	36580.23
532.82	36266.60
532.99	36121.49
533.16	36573.21
533.33	36673.85
533.50	36439.80
533.67	36603.64
533.84	36613.00
534.01	36762.79
534.18	36996.85
534.35	37598.37
534.52	37017.91
534.69	37481.34
534.86	37193.45
535.03	37139.62
535.20	37249.63
535.37	37523.47
535.54	37876.89
535.71	37298.78
535.88	37553.90
536.05	37773.91
536.22	37425.17
536.38	37493.04
536.55	37284.73
536.72	37481.34
536.89	37558.58
537.06	37738.80
537.23	38227.97
537.40	37617.09
537.57	37432.19
537.74	37507.08
537.91	38342.66
538.08	37876.89
538.25	37687.31
538.42	38000.94
538.59	38286.48
538.75	37780.93
538.92	38834.17
539.09	38410.53
539.26	38323.93
539.43	38323.93
539.60	38483.09
539.77	38457.34
539.94	38824.81
540.11	38412.87
540.28	38347.34
540.44	38838.85
540.61	38302.87
540.78	38515.86
540.95	38684.37
541.12	38665.65
541.29	38565.01
541.46	38799.06
541.62	38731.18
541.79	38782.68
541.96	38574.37
542.13	38546.28
542.30	39468.45
542.47	39281.21
542.63	38920.77
542.80	39234.40
542.97	39667.40
543.14	39646.33
543.31	39461.43
543.48	39819.53
543.64	39824.22
543.81	39934.22
543.98	39913.16
544.15	39922.52
544.32	39959.97
544.48	40297.00
544.65	39819.53
544.82	40062.95
544.99	39538.67
545.16	39983.37
545.32	40271.26
545.49	40533.40
545.66	40369.56
545.83	40779.15
546.00	40100.40
546.16	40484.25
546.33	39959.97
546.50	40041.88
546.67	40832.99
546.83	40034.86
547.00	40112.10
547.17	40528.72
547.34	40215.08
547.50	40978.10
547.67	41265.99
547.84	40594.25
548.00	40615.32
548.17	41163.00
548.34	40886.82
548.51	41160.66
548.67	40868.09
548.84	40882.14
549.01	41074.06
549.18	40444.46
549.34	41354.93
549.51	40823.62
549.68	41518.76
549.84	41216.83
550.01	41483.66
550.18	41219.17
550.34	41230.88
550.51	41212.15
550.68	41617.07
550.84	40828.30
551.01	41638.13
551.18	41296.41
551.34	41867.50
551.51	41567.91
551.68	41338.54
551.84	41607.70
552.01	41406.42
552.18	41689.62
552.34	41305.77
552.51	42234.97
552.68	41486.00
552.84	41862.82
553.01	42059.43
553.18	41853.46
553.34	42094.53
553.51	42127.30
553.67	41975.17
553.84	42164.75
554.01	42153.05
554.17	42206.88
554.34	42059.43
554.51	41860.48
554.67	42415.19
554.84	42529.87
555.00	42279.44
555.17	41942.40
555.33	42265.39
555.50	42782.65
555.67	42328.59
555.83	42436.25
556.00	42342.63
556.16	43117.35
556.33	42684.35
556.50	42691.37
556.66	42209.22
556.83	42389.44
556.99	42899.68
557.16	42927.77
557.32	42609.45
557.49	43091.60
557.65	42513.49
557.82	42405.83
557.98	43323.32
558.15	42976.92
558.32	42761.59
558.48	42586.05
558.65	42972.24
558.81	42880.95
558.98	42897.34
559.14	43054.15
559.31	42927.77
559.47	42885.64
559.64	42965.21
559.80	43086.92
559.97	43161.82
560.13	42930.11
560.30	43332.68
560.46	43456.73
560.63	43178.20
560.79	42792.01
560.96	43459.07
561.12	43543.33
561.29	43377.15
561.45	43608.86
561.61	43021.39
561.78	43372.47
561.94	43606.52
562.11	43901.43
562.27	43487.15
562.44	43487.15
562.60	43800.79
562.77	43393.53
562.93	43480.13
563.10	43683.76
563.26	43482.47
563.42	43821.85
563.59	43863.98
563.75	43578.43
563.92	43786.74
564.08	43629.93
564.24	43475.45
564.41	43835.89
564.57	43875.68
564.74	43828.87
564.90	43969.30
565.07	43536.30
565.23	43847.60
565.39	44168.25
565.56	43796.10
565.72	44189.31
565.88	43966.96
566.05	43454.39
566.21	43608.86
566.38	43681.42
566.54	43992.71
566.70	43775.04
566.87	43723.55
567.03	43555.03
567.19	44226.76
567.36	43910.79
567.52	44119.10
567.68	43636.95
567.85	44107.40
568.01	43981.01
568.17	44189.31
568.34	44566.14
568.50	44186.97
568.66	43941.22
568.83	43903.77
568.99	43852.28
569.15	44264.21
569.32	44294.64
569.48	44032.50
569.64	44292.30
569.81	44514.65
569.97	44516.99
570.13	44612.95
570.30	43973.98
570.46	44308.68
570.62	44245.49
570.78	44575.50
570.95	44378.90
571.11	44669.12
571.27	44215.06
571.43	44318.04
571.60	44226.76
571.76	44402.30
571.92	44397.62
572.09	43885.04
572.25	44463.16
572.41	44140.16
572.57	44931.26
572.74	44346.13
572.90	44217.40
573.06	44495.92
573.22	44425.71
573.38	44732.32
573.55	44509.97
573.71	44636.36
573.87	44559.12
574.03	44800.19
574.20	44594.23
574.36	44701.89
574.52	44727.64
574.68	44676.15
574.84	45031.91
575.01	44575.50
575.17	44844.66
575.33	44966.37
575.49	44547.42
575.65	44634.02
575.82	45113.83
575.98	44638.70
576.14	44643.38
576.30	44837.64
576.46	45170.00
576.62	44619.97
576.79	45010.84
576.95	44732.32
577.11	44542.74
577.27	44563.80
577.43	44570.82
577.59	44589.55
577.75	44655.08
577.92	44369.54
578.08	44889.13
578.24	44610.61
578.40	44996.80
578.56	45057.65
578.72	44788.49
578.88	44828.28
579.04	45003.82
579.21	44949.99
579.37	44514.65
579.53	45041.27
579.69	44584.86
579.85	44935.95
580.01	44486.56
580.17	44439.75
580.33	44933.60
580.49	44949.99
580.65	44708.91
580.82	44568.48
580.98	44804.88
581.14	43999.73
581.30	44786.15
581.46	44765.09
581.62	44680.83
581.78	44598.91
581.94	45209.79
582.10	45006.16
582.26	45109.14
582.42	44889.13
582.58	44945.31
582.74	44971.05
582.90	45205.11
583.06	45041.27
583.22	44678.49
583.38	44856.37
583.54	44851.69
583.70	44753.38
583.86	44964.03
584.02	45127.87
584.18	45455.54
584.34	44933.60
584.50	44942.97
584.66	44891.48
584.82	44797.85
584.98	45207.45
585.14	45057.65
585.30	44439.75
585.46	44781.47
585.62	44816.58
585.78	45312.77
585.94	45228.51
586.10	44631.68
586.26	44903.18
586.42	44694.87
586.58	45202.77
586.74	45165.32
586.90	44739.34
587.06	45184.04
587.22	45422.78
587.38	44891.48
587.54	45193.40
587.70	45301.07
587.86	45352.56
588.02	45090.42
588.18	45174.68
588.34	45277.66
588.49	45523.42
588.65	44952.33
588.81	45020.20
588.97	45256.60
589.13	44886.79
589.29	45209.79
589.45	45289.37
589.61	45162.98
589.77	45373.63
589.93	45148.93
590.08	45223.83
