SpectraSuite Data File
++++++++++++++++++++++++++++++++++++
Date: Fri Oct 25 10:47:20 EDT 2013
User: price-jones
Dark Spectrum Present: No
Reference Spectrum Present: No
Number of Sampled Component Spectra: 1
Spectrometers: USB2+H05261
Integration Time (usec): 100000 (USB2+H05261)
Spectra Averaged: 1 (USB2+H05261)
Boxcar Smoothing: 0 (USB2+H05261)
Correct for Electrical Dark: No (USB2+H05261)
Strobe/Lamp Enabled: No (USB2+H05261)
Correct for Detector Non-linearity: No (USB2+H05261)
Correct for Stray Light: No (USB2+H05261)
Number of Pixels in Processed Spectrum: 2048
>>>>>Begin Processed Spectral Data<<<<<
365.73	135.75
365.92	135.75
366.12	135.75
366.32	18.72
366.52	0.00
366.72	21.06
366.91	11.70
367.11	16.38
367.31	39.79
367.51	37.45
367.70	25.75
367.90	53.83
368.10	39.79
368.30	37.45
368.49	53.83
368.69	107.66
368.89	65.54
369.09	23.41
369.28	72.56
369.48	35.11
369.68	51.49
369.87	79.58
370.07	91.28
370.27	112.35
370.47	170.86
370.66	374.49
370.86	458.74
371.06	479.81
371.25	477.47
371.45	395.55
371.65	479.81
371.84	454.06
372.04	402.57
372.24	395.55
372.44	486.83
372.63	526.62
372.83	475.13
373.03	547.69
373.22	507.90
373.42	578.11
373.62	500.87
373.81	472.79
374.01	528.96
374.21	514.92
374.40	662.37
374.60	594.50
374.79	463.43
374.99	521.94
375.19	521.94
375.38	589.82
375.58	484.49
375.78	620.24
375.97	580.45
376.17	617.90
376.37	543.00
376.56	521.94
376.76	615.56
376.95	585.13
377.15	657.69
377.35	559.39
377.54	641.31
377.74	531.30
377.93	503.22
378.13	557.05
378.33	578.11
378.52	648.33
378.72	638.97
378.91	650.67
379.11	615.56
379.31	678.76
379.50	571.09
379.70	638.97
379.89	688.12
380.09	681.10
380.28	648.33
380.48	645.99
380.68	648.33
380.87	624.92
381.07	613.22
381.26	737.27
381.46	657.69
381.65	645.99
381.85	655.35
382.04	629.60
382.24	678.76
382.43	678.76
382.63	739.61
382.83	734.93
383.02	704.50
383.22	669.39
383.41	699.82
383.61	683.44
383.80	744.29
384.00	748.97
384.19	765.36
384.39	770.04
384.58	695.14
384.78	767.70
384.97	725.57
385.17	741.95
385.36	793.44
385.56	718.54
385.75	702.16
385.95	683.44
386.14	781.74
386.34	793.44
386.53	821.53
386.72	770.04
386.92	723.23
387.11	795.78
387.31	739.61
387.50	767.70
387.70	753.65
387.89	870.68
388.09	924.51
388.28	819.19
388.48	873.02
388.67	828.55
388.86	812.17
389.06	887.06
389.25	861.32
389.45	844.93
389.64	915.15
389.84	880.04
390.03	912.81
390.22	910.47
390.42	936.21
390.61	922.17
390.81	905.79
391.00	924.51
391.19	997.07
391.39	922.17
391.58	943.24
391.78	985.37
391.97	961.96
392.16	898.77
392.36	952.60
392.55	973.66
392.75	964.30
392.94	999.41
393.13	968.98
393.33	1036.86
393.52	964.30
393.71	1022.81
393.91	924.51
394.10	1069.62
394.29	1050.90
394.49	1076.65
394.68	1008.77
394.88	1151.54
395.07	1081.33
395.26	1100.05
395.46	1121.12
395.65	1048.56
395.84	1067.28
396.04	1100.05
396.23	1111.75
396.42	1097.71
396.62	1032.18
396.81	1153.88
397.00	1160.91
397.19	1149.20
397.39	1186.65
397.58	1144.52
397.77	1231.12
397.97	1226.44
398.16	1254.53
398.35	1291.98
398.55	1268.57
398.74	1303.68
398.93	1364.53
399.12	1280.27
399.32	1310.70
399.51	1289.64
399.70	1362.19
399.90	1327.08
400.09	1441.77
400.28	1458.15
400.47	1376.24
400.67	1392.62
400.86	1476.88
401.05	1437.09
401.24	1418.36
401.44	1434.75
401.63	1458.15
401.82	1404.32
402.01	1497.94
402.21	1486.24
402.40	1526.03
402.59	1558.80
402.78	1521.35
402.97	1502.62
403.17	1418.36
403.36	1586.88
403.55	1551.78
403.74	1636.03
403.93	1673.48
404.13	1626.67
404.32	1703.91
404.51	1612.63
404.70	1596.25
404.89	1708.59
405.09	1654.76
405.28	1577.52
405.47	1757.74
405.66	1682.85
405.85	1678.16
406.05	1778.81
406.24	1811.57
406.43	1724.97
406.62	1764.76
406.81	1806.89
407.00	1750.72
407.20	1760.08
407.39	1701.57
407.58	1877.11
407.77	1769.44
407.96	2019.88
408.15	1837.32
408.34	1853.70
408.54	1973.07
408.73	1963.71
408.92	1994.14
409.11	1987.11
409.30	1940.30
409.49	1968.39
409.68	1973.07
409.87	1994.14
410.07	1984.77
410.26	1980.09
410.45	2120.53
410.64	2080.74
410.83	2017.54
411.02	2225.85
411.21	2260.96
411.40	2253.94
411.59	2260.96
411.78	2195.42
411.98	2380.32
412.17	2333.51
412.36	2359.26
412.55	2359.26
412.74	2293.72
412.93	2478.63
413.12	2279.68
413.31	2406.07
413.50	2429.48
413.69	2452.88
413.88	2560.55
414.07	2511.39
414.26	2436.50
414.45	2628.42
414.64	2705.66
414.83	2558.21
415.02	2558.21
415.22	2644.81
415.41	2757.15
415.60	2738.43
415.79	2675.23
415.98	2871.84
416.17	2825.03
416.36	2775.88
416.55	2773.53
416.74	2799.28
416.93	2855.45
417.12	2902.26
417.31	2958.44
417.50	2993.55
417.69	3063.76
417.88	3091.85
418.07	2993.55
418.26	2930.35
418.45	3000.57
418.64	3152.70
418.83	3112.91
419.02	3047.38
419.21	3129.30
419.39	3066.10
419.58	3077.80
419.77	3218.24
419.96	3253.34
420.15	3225.26
420.34	3148.02
420.53	3138.66
420.72	3382.07
420.91	3316.54
421.10	3220.58
421.29	3318.88
421.48	3293.13
421.67	3295.47
421.86	3218.24
422.05	3309.52
422.24	3187.81
422.43	3251.00
422.61	3456.97
422.80	3499.10
422.99	3342.28
423.18	3559.95
423.37	3548.25
423.56	3520.17
423.75	3417.18
423.94	3513.14
424.13	3337.60
424.32	3361.01
424.50	3424.20
424.69	3513.14
424.88	3463.99
425.07	3459.31
425.26	3386.76
425.45	3461.65
425.64	3606.77
425.83	3365.69
426.01	3543.57
426.20	3506.12
426.39	3452.29
426.58	3485.06
426.77	3503.78
426.96	3522.51
427.15	3545.91
427.33	3410.16
427.52	3719.11
427.71	3588.04
427.90	3751.88
428.09	3712.09
428.28	3756.56
428.46	3641.87
428.65	3784.65
428.84	3796.35
429.03	3742.52
429.22	3721.45
429.40	3644.21
429.59	3749.54
429.78	3651.24
429.97	3597.40
430.16	3747.20
430.34	3667.62
430.53	3875.93
430.72	3824.44
430.91	3859.54
431.10	3882.95
431.28	4025.72
431.47	4119.34
431.66	4067.85
431.85	4070.19
432.03	4140.41
432.22	4229.35
432.41	4142.75
432.60	4119.34
432.79	4100.62
432.97	4138.07
433.16	4201.26
433.35	4201.26
433.54	4168.49
433.72	4353.40
433.91	4341.69
434.10	4407.23
434.28	4138.07
434.47	4210.62
434.66	4271.48
434.85	4355.74
435.03	4318.29
435.22	4498.51
435.41	4540.64
435.59	4306.59
435.78	4449.36
435.97	4397.87
436.16	4531.28
436.34	4575.75
436.53	4542.98
436.72	4711.50
436.90	4566.39
437.09	4671.71
437.28	4447.02
437.46	4540.64
437.65	4622.56
437.84	4428.29
438.02	4601.49
438.21	4711.50
438.40	4723.20
438.58	4842.57
438.77	4760.65
438.96	4936.19
439.14	4767.67
439.33	5067.26
439.52	5025.13
439.70	5048.54
439.89	5111.73
440.08	5163.22
440.26	5053.22
440.45	5118.75
440.63	5076.62
440.82	5322.38
441.01	5273.23
441.19	5207.69
441.38	5366.85
441.57	5308.34
441.75	5476.85
441.94	5586.86
442.12	5441.75
442.31	5685.16
442.50	5535.37
442.68	5551.75
442.87	5504.94
443.05	5497.92
443.24	5736.65
443.43	5724.95
443.61	5774.10
443.80	5858.36
443.98	5636.01
444.17	5397.28
444.35	5643.03
444.54	5792.83
444.73	5811.55
444.91	5682.82
445.10	5738.99
445.28	5694.52
445.47	5846.66
445.65	5935.60
445.84	5762.40
446.02	5846.66
446.21	5867.72
446.39	5942.62
446.58	5748.36
446.77	5905.17
446.95	5682.82
447.14	5851.34
447.32	6008.16
447.51	5877.09
447.69	5743.67
447.88	5933.26
448.06	5944.96
448.25	5895.81
448.43	5970.71
448.62	5951.98
448.80	5928.58
448.99	5905.17
449.17	6207.10
449.36	6108.80
449.54	6069.01
449.73	6279.66
449.91	6242.21
450.10	6026.88
450.28	6354.55
450.46	6389.66
450.65	6429.45
450.83	6300.72
451.02	6286.68
451.20	6312.42
451.39	6113.48
451.57	6263.27
451.76	6317.11
451.94	6326.47
452.13	6359.24
452.31	6420.09
452.49	6237.53
452.68	6513.71
452.86	6417.75
453.05	6490.31
453.23	6576.91
453.42	6368.60
453.60	6459.88
453.78	6485.62
453.97	6572.22
454.15	6546.48
454.34	6588.61
454.52	6588.61
454.70	6567.54
454.89	6698.61
455.07	6733.72
455.26	6754.79
455.44	6829.68
455.62	6724.36
455.81	6923.30
455.99	6871.81
456.17	6768.83
456.36	7023.95
456.54	6881.18
456.73	7014.59
456.91	7246.30
457.09	7056.72
457.28	7136.29
457.46	7227.57
457.64	7250.98
457.83	7073.10
458.01	7080.12
458.19	7342.26
458.38	7330.56
458.56	7178.42
458.74	7379.71
458.93	7155.02
459.11	7403.11
459.29	7400.77
459.48	7339.92
459.66	7274.38
459.84	7438.22
460.03	7803.35
460.21	7634.83
460.39	7714.41
460.57	7667.60
460.76	7655.89
460.94	7716.75
461.12	7714.41
461.31	7651.21
461.49	7667.60
461.67	7569.29
461.85	7836.11
462.04	7840.79
462.22	8280.82
462.40	7941.44
462.59	7983.57
462.77	7941.44
462.95	7922.71
463.13	8095.91
463.32	7936.76
463.50	8037.40
463.68	8013.99
463.86	7903.99
464.05	7983.57
464.23	7953.14
464.41	8145.06
464.59	7864.20
464.78	8065.49
464.96	8046.76
465.14	7911.01
465.32	8208.26
465.50	8145.06
465.69	8362.73
465.87	8149.75
466.05	8336.99
466.23	8100.59
466.41	8386.14
466.60	8416.57
466.78	8095.91
466.96	8166.13
467.14	8341.67
467.32	8404.86
467.51	8552.32
467.69	8219.96
467.87	8439.97
468.05	8439.97
468.23	8463.38
468.41	8287.84
468.60	8439.97
468.78	8594.45
468.96	8526.57
469.14	8538.27
469.32	8582.74
469.50	8461.04
469.69	8793.39
469.87	8809.78
470.05	8751.26
470.23	8842.54
470.41	8821.48
470.59	8999.36
470.77	8786.37
470.95	9025.11
471.14	9188.94
471.32	9001.70
471.50	9252.14
471.68	9104.68
471.86	8973.61
472.04	9163.20
472.22	9301.29
472.40	9270.86
472.58	9296.61
472.77	9432.36
472.95	9432.36
473.13	9891.10
473.31	9507.26
473.49	9507.26
473.67	9544.70
473.85	9296.61
474.03	9694.50
474.21	9811.53
474.39	9863.02
474.57	9870.04
474.75	10134.52
474.93	10221.12
475.12	10050.26
475.30	10050.26
475.48	10176.65
475.66	10113.45
475.84	10155.58
476.02	10310.06
476.20	10204.74
476.38	10260.91
476.56	10642.42
476.74	10567.52
476.92	10731.36
477.10	10537.09
477.28	10771.15
477.46	11000.52
477.64	11023.92
477.82	10892.85
478.00	11339.90
478.18	11117.54
478.36	11257.98
478.54	11272.02
478.72	11410.11
478.90	11587.99
479.08	11627.78
479.26	11669.91
479.44	11489.69
479.62	11679.27
479.80	12091.21
479.98	11950.78
480.16	12449.31
480.34	12161.42
480.52	12283.13
480.70	12369.73
480.88	12311.22
481.06	12376.75
481.24	12606.13
481.41	12746.56
481.59	12702.09
481.77	12908.05
481.95	12992.31
482.13	13284.88
482.31	13107.00
482.49	13207.64
482.67	13336.37
482.85	13565.74
483.03	13638.30
483.21	13535.32
483.39	13867.67
483.57	13762.35
483.74	13996.40
483.92	14204.71
484.10	13949.59
484.28	14214.07
484.46	14221.10
484.64	14733.67
484.82	14520.68
485.00	14609.62
485.18	14785.16
485.35	14991.13
485.53	14780.48
485.71	14871.76
485.89	15112.84
486.07	14899.85
486.25	15035.60
486.43	15272.00
486.61	15449.88
486.78	15719.04
486.96	15817.34
487.14	15868.83
487.32	16168.42
487.50	16367.37
487.68	16353.32
487.85	16683.34
488.03	16985.27
488.21	16816.75
488.39	16720.79
488.57	16891.65
488.75	17125.70
488.92	17319.96
489.10	17460.40
489.28	17411.25
489.46	17722.54
489.64	17586.79
489.81	18108.72
489.99	18274.90
490.17	18183.62
490.35	18731.31
490.53	18384.91
490.70	18672.79
490.88	18665.77
491.06	18855.36
491.24	19035.58
491.41	18628.32
491.59	19250.91
491.77	19087.07
491.95	19515.39
492.13	19358.57
492.30	19770.51
492.48	19396.02
492.66	19782.21
492.84	19639.44
493.01	19843.06
493.19	19992.86
493.37	20208.19
493.54	20095.84
493.72	20563.95
493.90	20795.66
494.08	20652.89
494.25	21179.51
494.43	20863.54
494.61	21266.11
494.79	21369.09
494.96	21137.38
495.14	21179.51
495.32	21680.38
495.49	21528.25
495.67	21776.34
495.85	21696.77
496.02	21687.40
496.20	22134.45
496.38	22230.41
496.55	21975.29
496.73	22541.70
496.91	22244.45
497.09	22689.15
497.26	22871.72
497.44	22820.22
497.62	22696.17
497.79	23239.18
497.97	22984.06
498.14	23438.12
498.32	23576.22
498.50	23192.37
498.67	23613.66
498.85	23641.75
499.03	24156.67
499.20	23768.14
499.38	23929.64
499.56	24074.75
499.73	24327.53
499.91	24470.30
500.08	24079.43
500.26	24563.92
500.44	24400.08
500.61	24582.65
500.79	24570.94
500.97	24711.38
501.14	24889.26
501.32	24664.57
501.49	24854.15
501.67	24861.17
501.84	25312.89
502.02	25127.99
502.20	25528.22
502.37	25296.51
502.55	25312.89
502.72	25551.63
502.90	25458.01
503.07	25701.42
503.25	26071.23
503.43	25605.46
503.60	25846.54
503.78	26026.76
503.95	26125.06
504.13	25998.67
504.30	26197.62
504.48	26246.77
504.65	26162.51
504.83	26602.53
505.01	27012.12
505.18	26726.58
505.36	27122.13
505.53	26843.60
505.71	27199.37
505.88	27356.18
506.06	27192.34
506.23	27407.67
506.41	27407.67
506.58	27346.82
506.76	27658.11
506.93	27718.96
507.11	27452.14
507.28	27456.82
507.46	27557.47
507.63	27620.66
507.81	28177.71
507.98	27683.86
508.16	27819.61
508.33	28133.24
508.50	28168.35
508.68	28278.35
508.85	28416.44
509.03	28760.50
509.20	28634.11
509.38	28620.07
509.55	28489.00
509.73	28608.37
509.90	28868.17
510.08	28599.01
510.25	29200.52
510.42	29118.60
510.60	29034.35
510.77	29247.33
510.95	29570.33
511.12	29680.33
511.30	29446.28
511.47	29567.99
511.64	29853.53
511.82	29832.47
511.99	29633.52
512.17	30073.54
512.34	29706.08
512.51	30478.46
512.69	30291.21
512.86	30204.61
513.04	30700.81
513.21	30424.62
513.38	30375.47
513.56	30309.94
513.73	30415.26
513.90	30059.50
514.08	30459.73
514.25	30801.45
514.43	30845.92
514.60	30902.09
514.77	30492.50
514.95	31388.92
515.12	31243.81
515.29	31297.64
515.47	31419.35
515.64	31419.35
515.81	31747.03
515.99	31690.85
516.16	31723.62
516.33	31683.83
516.51	31559.78
516.68	31211.04
516.85	31634.68
517.03	31461.48
517.20	31545.74
517.37	31496.59
517.54	32105.13
517.72	31744.69
517.89	31878.10
518.06	31847.67
518.24	31866.39
518.41	31960.02
518.58	32217.47
518.75	32559.19
518.93	32636.43
519.10	32636.43
519.27	32669.20
519.45	32484.30
519.62	32697.28
519.79	32931.34
519.96	33188.80
520.14	32931.34
520.31	32940.70
520.48	33151.35
520.65	33427.53
520.83	33254.33
521.00	33453.28
521.17	33244.97
521.34	33212.20
521.52	33530.51
521.69	33401.79
521.86	33563.28
522.03	34057.14
522.20	33633.50
522.38	33738.82
522.55	34099.26
522.72	33759.89
522.89	34389.49
523.07	34068.84
523.24	34125.01
523.41	34352.04
523.58	34066.50
523.75	34485.45
523.92	34293.53
524.10	34618.86
524.27	34752.27
524.44	34452.69
524.61	34948.88
524.78	34991.01
524.96	35253.15
525.13	34988.67
525.30	35276.55
525.47	35377.20
525.64	35058.88
525.81	35323.36
525.98	35356.13
526.16	34899.73
526.33	35098.67
526.50	35040.16
526.67	34974.63
526.84	35093.99
527.01	35178.25
527.18	35512.95
527.36	35967.01
527.53	35709.55
527.70	36013.82
527.87	35826.58
528.04	35826.58
528.21	35800.83
528.38	36093.40
528.55	35861.69
528.72	36074.68
528.89	36723.01
529.07	36329.80
529.24	36161.28
529.41	36343.84
529.58	36259.58
529.75	36453.84
529.92	36783.86
530.09	36435.12
530.26	36833.01
530.43	36383.63
530.60	36315.75
530.77	36540.44
530.94	37034.30
531.11	36950.04
531.28	36854.08
531.46	37174.73
531.63	37060.04
531.80	36772.16
531.97	37006.21
532.14	36891.52
532.31	36690.24
532.48	37462.61
532.65	37038.98
532.82	37471.98
532.99	37546.87
533.16	37282.39
533.33	37549.21
533.50	37610.07
533.67	37722.41
533.84	37542.19
534.01	37474.32
534.18	37968.17
534.35	37940.08
534.52	37497.72
534.69	37827.74
534.86	38232.65
535.03	37619.43
535.20	38043.07
535.37	38143.71
535.54	38457.34
535.71	37694.33
535.88	38103.92
536.05	38038.39
536.22	38396.49
536.38	38569.69
536.55	38323.93
536.72	38373.08
536.89	38134.35
537.06	38424.57
537.23	38873.96
537.40	38429.26
537.57	38408.19
537.74	38527.56
537.91	39210.99
538.08	38799.06
538.25	38724.16
538.42	38504.15
538.59	38953.54
538.75	38384.79
538.92	39435.69
539.09	39054.18
539.26	39292.91
539.43	38806.08
539.60	39166.52
539.77	38920.77
539.94	39407.60
540.11	39321.00
540.28	39454.41
540.44	38859.91
540.61	38990.98
540.78	39086.95
540.95	39262.49
541.12	38813.10
541.29	39248.44
541.46	39445.05
541.62	39779.74
541.79	39730.59
541.96	39370.15
542.13	39473.13
542.30	40261.90
542.47	39936.56
542.63	39761.02
542.80	40025.50
542.97	40371.90
543.14	40371.90
543.31	40163.59
543.48	39990.39
543.64	40706.60
543.81	40568.51
543.98	40673.83
544.15	40343.81
544.32	40612.98
544.48	40793.20
544.65	40451.48
544.82	40577.87
544.99	40187.00
545.16	40842.35
545.32	40662.13
545.49	40877.46
545.66	40905.54
545.83	41043.63
546.00	41305.77
546.16	40369.56
546.33	40837.67
546.50	40294.66
546.67	40940.65
546.83	40287.64
547.00	40931.29
547.17	40720.64
547.34	41153.64
547.50	41132.57
547.67	41528.13
547.84	40973.42
548.00	41577.28
548.17	42085.17
548.34	41045.97
548.51	41806.65
548.67	41553.87
548.84	41525.78
549.01	41614.72
549.18	41486.00
549.34	41478.97
549.51	41745.80
549.68	41783.24
549.84	41675.58
550.01	41928.36
550.18	41429.82
550.34	41563.23
550.51	41776.22
550.68	41617.07
550.84	41366.63
551.01	41911.97
551.18	41909.63
551.34	41825.37
551.51	41813.67
551.68	41560.89
551.84	42089.85
552.01	41574.94
552.18	41989.21
552.34	41677.92
552.51	42424.55
552.68	42019.64
552.84	42302.84
553.01	42513.49
553.18	42190.50
553.34	41984.53
553.51	42162.41
553.67	42134.32
553.84	42429.23
554.01	42677.33
554.17	42522.85
554.34	42735.84
554.51	42607.11
554.67	42609.45
554.84	42782.65
555.00	42806.06
555.17	42560.30
555.33	42733.50
555.50	42733.50
555.67	42733.50
555.83	42780.31
556.00	42660.94
556.16	43281.19
556.33	43395.87
556.50	43065.86
556.66	42766.27
556.83	42572.00
556.99	42990.96
557.16	43112.67
557.32	43250.76
557.49	42918.40
557.65	42904.36
557.82	42522.85
557.98	42855.21
558.15	42890.32
558.32	43267.14
558.48	43061.18
558.65	42878.61
558.81	43234.38
558.98	43634.61
559.14	43019.05
559.31	43297.57
559.47	43452.05
559.64	43639.29
559.80	43379.49
559.97	43330.34
560.13	43007.34
560.30	43246.08
560.46	43103.31
560.63	43632.27
560.79	43274.16
560.96	43643.97
561.12	43681.42
561.29	43452.05
561.45	43669.72
561.61	43360.76
561.78	43365.45
561.94	43522.26
562.11	43407.58
562.27	43468.43
562.44	43002.66
562.60	44025.48
562.77	43526.94
562.93	43466.09
563.10	44053.56
563.26	43133.73
563.42	43913.13
563.59	43269.48
563.75	43639.29
563.92	43690.78
564.08	43494.18
564.24	43833.55
564.41	43966.96
564.57	44030.16
564.74	43770.36
564.90	43662.69
565.07	43339.70
565.23	43702.48
565.39	43669.72
565.56	44051.22
565.72	43672.06
565.88	44044.20
566.05	43814.83
566.21	43803.13
566.38	43798.44
566.54	43856.96
566.70	44645.72
566.87	44376.56
567.03	44247.83
567.19	44397.62
567.36	44109.74
567.52	43929.51
567.68	43988.03
567.85	44367.20
568.01	43707.16
568.17	43599.50
568.34	44163.57
568.50	44210.38
568.66	43789.08
568.83	43962.28
568.99	43690.78
569.15	43812.49
569.32	44006.75
569.48	43646.31
569.64	44116.76
569.81	44505.29
569.97	44027.82
570.13	44292.30
570.30	44325.07
570.46	43777.38
570.62	43812.49
570.78	43538.65
570.95	44196.34
571.11	44186.97
571.27	43887.39
571.43	44409.32
571.60	44093.35
571.76	43840.57
571.92	43868.66
572.09	44240.81
572.25	43728.23
572.41	43875.68
572.57	44243.15
572.74	44629.34
572.90	44418.69
573.06	44594.23
573.22	44287.62
573.38	44027.82
573.55	43887.39
573.71	44191.65
573.87	44030.16
574.03	44208.04
574.20	44100.37
574.36	44313.36
574.52	44334.43
574.68	44278.25
574.84	44591.89
575.01	44041.86
575.17	44304.00
575.33	44666.78
575.49	44336.77
575.65	44369.54
575.82	44725.30
575.98	44662.10
576.14	44835.30
576.30	44360.17
576.46	44114.42
576.62	44163.57
576.79	44397.62
576.95	43849.94
577.11	44004.41
577.27	44797.85
577.43	44479.54
577.59	44210.38
577.75	44556.78
577.92	44186.97
578.08	43995.05
578.24	44102.71
578.40	44603.59
578.56	44652.74
578.72	44509.97
578.88	44676.15
579.04	44556.78
579.21	44566.14
579.37	44378.90
579.53	44179.95
579.69	43880.36
579.85	44851.69
580.01	44596.57
580.17	44648.06
580.33	44856.37
580.49	44406.98
580.65	44355.49
580.82	44877.43
580.98	44477.20
581.14	44444.43
581.30	44315.70
581.46	44289.96
581.62	44711.25
581.78	44133.14
581.94	44900.84
582.10	44631.68
582.26	44694.87
582.42	44442.09
582.58	44818.92
582.74	44275.91
582.90	44526.35
583.06	44509.97
583.22	44505.29
583.38	44596.57
583.54	44786.15
583.70	44229.10
583.86	44266.55
584.02	44655.08
584.18	44718.28
584.34	44729.98
584.50	44425.71
584.66	44453.79
584.82	44409.32
584.98	44809.56
585.14	44479.54
585.30	44301.66
585.46	44140.16
585.62	44432.73
585.78	44423.37
585.94	43962.28
586.10	44570.82
586.26	44713.59
586.42	44765.09
586.58	44893.82
586.74	44392.94
586.90	44292.30
587.06	44388.26
587.22	44931.26
587.38	44526.35
587.54	45050.63
587.70	44949.99
587.86	44470.18
588.02	44830.62
588.18	44844.66
588.34	44690.19
588.49	44376.56
588.65	44268.89
588.81	44446.77
588.97	44231.44
589.13	44032.50
589.29	44744.02
589.45	44741.68
589.61	44584.86
589.77	45027.23
589.93	45036.59
590.08	44802.53
590.24	44641.04
