SpectraSuite Data File
++++++++++++++++++++++++++++++++++++
Date: Fri Oct 25 10:47:52 EDT 2013
User: price-jones
Dark Spectrum Present: No
Reference Spectrum Present: No
Number of Sampled Component Spectra: 1
Spectrometers: USB2+H05261
Integration Time (usec): 100000 (USB2+H05261)
Spectra Averaged: 1 (USB2+H05261)
Boxcar Smoothing: 0 (USB2+H05261)
Correct for Electrical Dark: No (USB2+H05261)
Strobe/Lamp Enabled: No (USB2+H05261)
Correct for Detector Non-linearity: No (USB2+H05261)
Correct for Stray Light: No (USB2+H05261)
Number of Pixels in Processed Spectrum: 2048
>>>>>Begin Processed Spectral Data<<<<<
365.73	149.79
365.92	149.79
366.12	149.79
366.32	28.09
366.52	42.13
366.72	63.19
366.91	56.17
367.11	77.24
367.31	53.83
367.51	11.70
367.70	72.56
367.90	131.07
368.10	60.85
368.30	65.54
368.49	11.70
368.69	58.51
368.89	37.45
369.09	70.22
369.28	18.72
369.48	0.00
369.68	163.84
369.87	93.62
370.07	126.39
370.27	93.62
370.47	217.67
370.66	330.02
370.86	400.23
371.06	477.47
371.25	369.80
371.45	472.79
371.65	526.62
371.84	411.93
372.04	479.81
372.24	519.60
372.44	454.06
372.63	451.72
372.83	489.17
373.03	554.71
373.22	486.83
373.42	561.73
373.62	524.28
373.81	559.39
374.01	517.26
374.21	575.77
374.40	519.60
374.60	575.77
374.79	535.98
374.99	589.82
375.19	545.34
375.38	533.64
375.58	578.11
375.78	557.05
375.97	648.33
376.17	669.39
376.37	557.05
376.56	540.66
376.76	477.47
376.95	634.29
377.15	643.65
377.35	638.97
377.54	692.80
377.74	603.86
377.93	592.16
378.13	624.92
378.33	634.29
378.52	631.94
378.72	674.07
378.91	653.01
379.11	667.05
379.31	594.50
379.50	603.86
379.70	641.31
379.89	669.39
380.09	709.18
380.28	695.14
380.48	664.71
380.68	688.12
380.87	662.37
381.07	669.39
381.26	711.52
381.46	615.56
381.65	601.52
381.85	636.63
382.04	676.41
382.24	678.76
382.43	685.78
382.63	634.29
382.83	620.24
383.02	683.44
383.22	767.70
383.41	765.36
383.61	718.54
383.80	702.16
384.00	723.23
384.19	828.55
384.39	725.57
384.58	774.72
384.78	725.57
384.97	720.88
385.17	702.16
385.36	746.63
385.56	765.36
385.75	741.95
385.95	741.95
386.14	866.00
386.34	704.50
386.53	833.23
386.72	744.29
386.92	774.72
387.11	697.48
387.31	777.06
387.50	809.83
387.70	802.80
387.89	849.61
388.09	706.84
388.28	770.04
388.48	844.93
388.67	847.27
388.86	765.36
389.06	903.45
389.25	931.53
389.45	793.44
389.64	854.30
389.84	933.87
390.03	851.96
390.22	861.32
390.42	875.36
390.61	847.27
390.81	931.53
391.00	917.49
391.19	961.96
391.39	919.83
391.58	887.06
391.78	1027.50
391.97	1029.84
392.16	959.62
392.36	1036.86
392.55	999.41
392.75	966.64
392.94	997.07
393.13	966.64
393.33	917.49
393.52	1048.56
393.71	985.37
393.91	952.60
394.10	1027.50
394.29	1001.75
394.49	1043.88
394.68	1107.07
394.88	1149.20
395.07	1121.12
395.26	1022.81
395.46	1125.80
395.65	1196.01
395.84	1050.90
396.04	1172.61
396.23	1144.52
396.42	1088.35
396.62	1069.62
396.81	1069.62
397.00	1125.80
397.19	1165.59
397.39	1273.25
397.58	1207.72
397.77	1315.38
397.97	1221.76
398.16	1310.70
398.35	1301.34
398.55	1266.23
398.74	1317.72
398.93	1355.17
399.12	1282.61
399.32	1404.32
399.51	1387.94
399.70	1390.28
399.90	1221.76
400.09	1306.02
400.28	1299.00
400.47	1352.83
400.67	1380.92
400.86	1549.43
401.05	1385.60
401.24	1401.98
401.44	1533.05
401.63	1474.54
401.82	1537.73
402.01	1476.88
402.21	1502.62
402.40	1575.18
402.59	1490.92
402.78	1549.43
402.97	1504.96
403.17	1554.12
403.36	1502.62
403.55	1547.09
403.74	1589.22
403.93	1612.63
404.13	1760.08
404.32	1579.86
404.51	1633.69
404.70	1666.46
404.89	1549.43
405.09	1687.53
405.28	1664.12
405.47	1647.74
405.66	1621.99
405.85	1865.41
406.05	1734.34
406.24	1834.98
406.43	1849.02
406.62	1830.30
406.81	1968.39
407.00	1799.87
407.20	1739.02
407.39	1905.20
407.58	1907.54
407.77	1902.86
407.96	1977.75
408.15	1916.90
408.34	1947.33
408.54	2012.86
408.73	1956.69
408.92	1989.46
409.11	2066.69
409.30	2017.54
409.49	2015.20
409.68	1989.46
409.87	2169.68
410.07	2057.33
410.26	2132.23
410.45	2071.37
410.64	2092.44
410.83	2277.34
411.02	2174.36
411.21	2197.76
411.40	2146.27
411.59	2256.28
411.78	2356.92
411.98	2312.45
412.17	2354.58
412.36	2368.62
412.55	2410.75
412.74	2370.96
412.93	2487.99
413.12	2270.32
413.31	2562.89
413.50	2399.05
413.69	2548.84
413.88	2569.91
414.07	2518.42
414.26	2562.89
414.45	2597.99
414.64	2555.86
414.83	2698.64
415.02	2698.64
415.22	2743.11
415.41	2813.32
415.60	2799.28
415.79	2813.32
415.98	2906.95
416.17	2834.39
416.36	2848.43
416.55	2881.20
416.74	2991.20
416.93	2951.42
417.12	2916.31
417.31	2946.73
417.50	3021.63
417.69	3138.66
417.88	3047.38
418.07	2986.52
418.26	3038.02
418.45	3112.91
418.64	3300.16
418.83	3066.10
419.02	3096.53
419.21	3171.43
419.39	3222.92
419.58	3045.04
419.77	3227.60
419.96	3187.81
420.15	3272.07
420.34	3339.94
420.53	3211.22
420.72	3349.31
420.91	3407.82
421.10	3258.03
421.29	3447.61
421.48	3346.97
421.67	3417.18
421.86	3361.01
422.05	3370.37
422.24	3473.36
422.43	3391.44
422.61	3471.01
422.80	3431.23
422.99	3564.64
423.18	3496.76
423.37	3562.30
423.56	3581.02
423.75	3559.95
423.94	3468.67
424.13	3288.45
424.32	3283.77
424.50	3463.99
424.69	3597.40
424.88	3623.15
425.07	3473.36
425.26	3463.99
425.45	3480.38
425.64	3545.91
425.83	3515.48
426.01	3583.36
426.20	3590.38
426.39	3555.27
426.58	3566.98
426.77	3522.51
426.96	3557.61
427.15	3637.19
427.33	3595.06
427.52	3595.06
427.71	3662.94
427.90	3723.79
428.09	3627.83
428.28	3723.79
428.46	3698.05
428.65	3859.54
428.84	3990.61
429.03	3866.56
429.22	3669.96
429.40	3716.77
429.59	3794.01
429.78	3744.86
429.97	3632.51
430.16	3592.72
430.34	3740.18
430.53	3880.61
430.72	3948.48
430.91	3932.10
431.10	3962.53
431.28	4081.89
431.47	4112.32
431.66	4238.71
431.85	4032.74
432.03	4138.07
432.22	4217.65
432.41	4177.86
432.60	4117.00
432.79	4145.09
432.97	4227.01
433.16	4138.07
433.35	4327.65
433.54	4278.50
433.72	4320.63
433.91	4147.43
434.10	4297.22
434.28	4294.88
434.47	4393.19
434.66	4489.15
434.85	4341.69
435.03	4425.95
435.22	4414.25
435.41	4669.37
435.59	4498.51
435.78	4571.07
435.97	4657.67
436.16	4631.92
436.34	4435.32
436.53	4580.43
436.72	4638.94
436.90	4390.84
437.09	4648.30
437.28	4685.75
437.46	4615.54
437.65	4580.43
437.84	4723.20
438.02	4744.27
438.21	4732.56
438.40	4596.81
438.58	4896.40
438.77	4931.51
438.96	4980.66
439.14	5048.54
439.33	4997.04
439.52	5001.72
439.70	5144.50
439.89	5205.35
440.08	5249.82
440.26	5055.56
440.45	5093.01
440.63	5270.89
440.82	5231.10
441.01	5200.67
441.19	5514.30
441.38	5329.40
441.57	5383.23
441.75	5535.37
441.94	5596.22
442.12	5526.00
442.31	5664.10
442.50	5579.84
442.68	5682.82
442.87	5715.59
443.05	5706.23
443.24	5699.20
443.43	5685.16
443.61	5694.52
443.80	5940.28
443.98	5558.77
444.17	5636.01
444.35	5804.53
444.54	5853.68
444.73	5823.25
444.91	5973.05
445.10	5846.66
445.28	5792.83
445.47	5715.59
445.65	5900.49
445.84	5799.85
446.02	5909.85
446.21	5973.05
446.39	5870.06
446.58	5987.09
446.77	5678.14
446.95	5788.14
447.14	6045.60
447.32	6031.56
447.51	6113.48
447.69	5846.66
447.88	5989.43
448.06	6080.71
448.25	5963.68
448.43	6141.57
448.62	5973.05
448.80	6001.13
448.99	6132.20
449.17	6024.54
449.36	6129.86
449.54	6307.74
449.73	6317.11
449.91	6251.57
450.10	6349.87
450.28	6342.85
450.46	6356.90
450.65	6443.49
450.83	6483.28
451.02	6370.94
451.20	6516.05
451.39	6373.28
451.57	6464.56
451.76	6373.28
451.94	6352.21
452.13	6619.04
452.31	6523.07
452.49	6420.09
452.68	6469.24
452.86	6462.22
453.05	6443.49
453.23	6623.72
453.42	6567.54
453.60	6476.26
453.78	6572.22
453.97	6480.94
454.15	6621.38
454.34	6502.01
454.52	6696.27
454.70	6736.06
454.89	6768.83
455.07	6722.02
455.26	6743.08
455.44	6998.20
455.62	6965.43
455.81	7019.27
455.99	6977.14
456.17	7101.19
456.36	6960.75
456.54	7157.36
456.73	7089.48
456.91	7199.49
457.09	7272.04
457.28	7400.77
457.46	6977.14
457.64	7335.24
457.83	7286.09
458.01	7187.79
458.19	7449.93
458.38	7136.29
458.56	7492.05
458.74	7447.58
458.93	7438.22
459.11	7592.70
459.29	7473.33
459.48	7389.07
459.66	7456.95
459.84	7555.25
460.03	7693.34
460.21	7723.77
460.39	7662.91
460.57	7667.60
460.76	7630.15
460.94	7667.60
461.12	7693.34
461.31	7815.05
461.49	7777.60
461.67	7667.60
461.85	8088.89
462.04	7901.65
462.22	8390.82
462.40	7960.16
462.59	8086.55
462.77	8109.96
462.95	8051.44
463.13	8002.29
463.32	7878.24
463.50	8077.19
463.68	8070.17
463.86	8182.51
464.05	8006.97
464.23	8105.28
464.41	8154.43
464.59	8170.81
464.78	8210.60
464.96	8355.71
465.14	8051.44
465.32	8180.17
465.50	8594.45
465.69	8404.86
465.87	8285.50
466.05	8327.63
466.23	8212.94
466.41	8329.97
466.60	8411.89
466.78	8402.52
466.96	8313.58
467.14	8379.12
467.32	8517.21
467.51	8454.02
467.69	8388.48
467.87	8613.17
468.05	8519.55
468.23	8411.89
468.41	8362.73
468.60	8601.47
468.78	8758.28
468.96	8458.70
469.14	8629.56
469.32	8858.93
469.50	8620.19
469.69	8865.95
469.87	8980.64
470.05	8947.87
470.23	9069.58
470.41	8954.89
470.59	8973.61
470.77	8957.23
470.95	8945.53
471.14	9142.13
471.32	8968.93
471.50	9135.11
471.68	9254.48
471.86	9277.88
472.04	9287.25
472.22	9640.67
472.40	9240.44
472.58	9348.10
472.77	9474.49
472.95	9504.92
473.13	9717.90
473.31	9525.98
473.49	9584.49
473.67	9504.92
473.85	9757.69
474.03	9947.28
474.21	9942.60
474.39	9916.85
474.57	9912.17
474.75	9968.34
474.93	10038.56
475.12	10167.29
475.30	10120.48
475.48	10331.12
475.66	9980.04
475.84	10361.55
476.02	10361.55
476.20	10417.72
476.38	10525.39
476.56	10986.47
476.74	10504.32
476.92	10883.49
477.10	10511.35
477.28	11014.56
477.46	10862.43
477.64	11007.54
477.82	11087.12
478.00	11311.81
478.18	11248.61
478.36	11229.89
478.54	11438.20
478.72	11571.61
478.90	11604.38
479.08	11838.43
479.26	11943.75
479.44	12035.03
479.62	11887.58
479.80	12189.51
479.98	12109.93
480.16	12278.45
480.34	12283.13
480.52	12592.08
480.70	12425.90
480.88	12493.78
481.06	12475.06
481.24	12547.61
481.41	12833.16
481.59	13212.32
481.77	13245.09
481.95	12933.80
482.13	13273.18
482.31	13469.78
482.49	13516.59
482.67	13689.79
482.85	13647.66
483.03	13752.99
483.21	13757.67
483.39	14043.21
483.57	14008.11
483.74	14099.39
483.92	14195.35
484.10	14391.95
484.28	14396.64
484.46	14427.06
484.64	14789.85
484.82	14710.27
485.00	14806.23
485.18	15007.52
485.35	15138.58
485.53	14988.79
485.71	15063.69
485.89	15171.35
486.07	15484.98
486.25	15318.81
486.43	15255.61
486.61	15562.22
486.78	15824.36
486.96	16278.43
487.14	16358.00
487.32	16135.65
487.50	16372.05
487.68	16601.42
487.85	16711.42
488.03	17020.38
488.21	17076.55
488.39	16987.61
488.57	17153.79
488.75	17268.47
488.92	17448.69
489.10	17575.08
489.28	17647.64
489.46	18075.96
489.64	17694.45
489.81	18382.57
489.99	18132.13
490.17	18263.20
490.35	18831.95
490.53	18221.07
490.70	18705.56
490.88	18597.90
491.06	18857.70
491.24	18834.29
491.41	19267.29
491.59	19201.76
491.77	18991.11
491.95	19445.17
492.13	19749.44
492.30	19721.35
492.48	19969.45
492.66	19924.98
492.84	20102.86
493.01	20133.29
493.19	20077.12
493.37	20692.68
493.54	20940.77
493.72	20844.81
493.90	20676.29
494.08	21018.01
494.25	20915.03
494.43	21371.43
494.61	21231.00
494.79	21394.84
494.96	21226.32
495.14	21329.30
495.32	21701.45
495.49	21703.79
495.67	21769.32
495.85	21982.31
496.02	22111.04
496.20	22455.10
496.38	22705.54
496.55	22298.28
496.73	23023.85
496.91	22459.78
497.09	23021.51
497.26	22937.25
497.44	23033.21
497.62	22874.06
497.79	22864.69
497.97	23112.79
498.14	23522.38
498.32	23543.45
498.50	23426.42
498.67	23892.19
498.85	24182.42
499.03	24049.00
499.20	23927.30
499.38	24341.57
499.56	24290.08
499.73	24437.53
499.91	24297.10
500.08	24599.03
500.26	24339.23
500.44	24676.27
500.61	24606.05
500.79	24720.74
500.97	24952.45
501.14	25287.15
501.32	25020.33
501.49	25008.62
501.67	24966.49
501.84	25448.64
502.02	25535.24
502.20	25682.70
502.37	25542.27
502.55	25731.85
502.72	25858.24
502.90	26078.25
503.07	25832.49
503.25	25923.77
503.43	25521.20
503.60	26066.55
503.78	26382.52
503.95	26291.24
504.13	26209.32
504.30	26457.42
504.48	26288.90
504.65	26937.23
504.83	26955.95
505.01	26969.99
505.18	26796.79
505.36	27129.15
505.53	27082.34
505.71	27484.91
505.88	27515.34
506.06	27068.30
506.23	27185.32
506.41	27459.16
506.58	27166.60
506.76	27756.41
506.93	27592.58
507.11	27683.86
507.28	27840.67
507.46	27814.93
507.63	27786.84
507.81	27779.82
507.98	27936.63
508.16	28336.87
508.33	28280.69
508.50	28149.62
508.68	28568.58
508.85	28797.95
509.03	28645.82
509.20	28711.35
509.38	28994.56
509.55	29156.05
509.73	29202.86
509.90	28821.36
510.08	29177.12
510.25	29050.73
510.42	29436.92
510.60	29551.60
510.77	29553.94
510.95	29530.54
511.12	29677.99
511.30	29591.39
511.47	29846.51
511.64	29757.57
511.82	30583.78
511.99	29589.05
512.17	30415.26
512.34	30600.16
512.51	30328.66
512.69	30761.66
512.86	30686.76
513.04	30513.56
513.21	30696.13
513.38	30466.75
513.56	30438.67
513.73	30464.41
513.90	31047.21
514.08	31119.76
514.25	31262.54
514.43	31194.66
514.60	30939.54
514.77	30824.86
514.95	30988.69
515.12	31384.24
515.29	31218.07
515.47	31627.66
515.64	31622.98
515.81	31519.99
515.99	31882.78
516.16	31674.47
516.33	31754.05
516.51	31768.09
516.68	31683.83
516.85	31304.67
517.03	31828.95
517.20	31735.32
517.37	32081.72
517.54	32430.46
517.72	31845.33
517.89	32503.02
518.06	32217.47
518.24	32065.34
518.41	32210.45
518.58	32151.94
518.75	32400.04
518.93	32854.10
519.10	32926.66
519.27	32769.84
519.45	33191.14
519.62	32961.76
519.79	32809.63
519.96	33008.58
520.14	33324.55
520.31	32847.08
520.48	33591.37
520.65	32833.04
520.83	33546.90
521.00	33481.36
521.17	33825.42
521.34	33886.28
521.52	33979.90
521.69	33586.69
521.86	33937.77
522.03	33539.88
522.20	33675.63
522.38	34110.97
522.55	34244.38
522.72	34410.56
522.89	34272.46
523.07	34733.55
523.24	34026.71
523.41	34499.50
523.58	34256.08
523.75	34838.87
523.92	34658.65
524.10	34675.04
524.27	34796.74
524.44	35133.78
524.61	35166.55
524.78	35269.53
524.96	35211.02
525.13	35304.64
525.30	35185.27
525.47	35548.06
525.64	35351.45
525.81	35119.74
525.98	35454.44
526.16	35150.17
526.33	35054.20
526.50	35742.32
526.67	35122.08
526.84	35297.62
527.01	35393.58
527.18	35725.94
527.36	35852.33
527.53	35985.74
527.70	36257.24
527.87	36194.04
528.04	36184.68
528.21	36477.25
528.38	35899.14
528.55	35894.46
528.72	36748.75
528.89	36257.24
529.07	36252.56
529.24	36851.73
529.41	36718.32
529.58	36549.81
529.75	36172.98
529.92	37151.32
530.09	37013.23
530.26	36568.53
530.43	37064.72
530.60	36790.88
530.77	36781.52
530.94	37186.43
531.11	36870.46
531.28	37261.33
531.46	36886.84
531.63	37954.13
531.80	37057.70
531.97	37174.73
532.14	37315.16
532.31	37345.59
532.48	37340.91
532.65	37500.06
532.82	37315.16
532.99	37565.60
533.16	37429.85
533.33	37397.08
533.50	37745.82
533.67	37759.86
533.84	37645.18
534.01	37560.92
534.18	37806.67
534.35	38190.52
534.52	37839.44
534.69	38230.31
534.86	38366.06
535.03	37684.97
535.20	38967.58
535.37	38808.42
535.54	38398.83
535.71	38373.08
535.88	38604.80
536.05	38291.16
536.22	38433.94
536.38	38302.87
536.55	38497.13
536.72	38478.41
536.89	38726.50
537.06	38234.99
537.23	38672.67
537.40	38426.92
537.57	39145.46
537.74	38480.75
537.91	39150.14
538.08	38815.44
538.25	38988.64
538.42	39019.07
538.59	39049.50
538.75	38871.62
538.92	39262.49
539.09	39288.23
539.26	39349.09
539.43	39716.55
539.60	39255.46
539.77	39526.97
539.94	39374.83
540.11	39218.02
540.28	39154.82
540.44	39566.76
540.61	39613.57
540.78	38817.78
540.95	39468.45
541.12	39423.98
541.29	39159.50
541.46	39501.22
541.62	39442.71
541.79	40142.53
541.96	39512.92
542.13	39927.20
542.30	40027.84
542.47	39941.24
542.63	39936.56
542.80	39866.34
542.97	40072.31
543.14	40741.71
543.31	40411.69
543.48	40163.59
543.64	41017.89
543.81	40568.51
543.98	40512.33
544.15	40257.21
544.32	40931.29
544.48	41184.07
544.65	40802.56
544.82	40882.14
544.99	40858.73
545.16	41003.85
545.32	40643.40
545.49	41102.15
545.66	41280.03
545.83	40882.14
546.00	41141.94
546.16	40912.56
546.33	40715.96
546.50	40680.85
546.67	41045.97
546.83	40533.40
547.00	40814.26
547.17	41062.36
547.34	41130.23
547.50	41237.90
547.67	41476.63
547.84	40924.27
548.00	41490.68
548.17	41848.78
548.34	41303.43
548.51	41881.55
548.67	41392.37
548.84	41331.52
549.01	41368.97
549.18	41453.23
549.34	41790.27
549.51	41993.89
549.68	41806.65
549.84	41956.44
550.01	41745.80
550.18	41780.90
550.34	42080.49
550.51	41682.60
550.68	41254.28
550.84	42021.98
551.01	41876.86
551.18	42050.06
551.34	41820.69
551.51	42298.16
551.68	42230.29
551.84	42373.06
552.01	42394.12
552.18	41993.89
552.34	42171.77
552.51	42225.60
552.68	42670.31
552.84	42176.45
553.01	42726.48
553.18	42344.97
553.34	42183.48
553.51	41911.97
553.67	42600.09
553.84	42494.77
554.01	42515.83
554.17	42721.80
554.34	43119.69
554.51	42890.32
554.67	43091.60
554.84	43037.77
555.00	42574.34
555.17	42597.75
555.33	42483.06
555.50	42450.30
555.67	42646.90
555.83	42562.64
556.00	42506.47
556.16	43236.72
556.33	43002.66
556.50	43019.05
556.66	42934.79
556.83	43117.35
556.99	43007.34
557.16	43110.33
557.32	43433.32
557.49	43196.93
557.65	42815.42
557.82	42827.12
557.98	43416.94
558.15	42979.26
558.32	43414.60
558.48	43246.08
558.65	43100.97
558.81	43232.04
558.98	43398.21
559.14	43047.13
559.31	43587.80
559.47	43171.18
559.64	43346.72
559.80	43662.69
559.97	43496.52
560.13	43667.37
560.30	43194.59
560.46	43674.40
560.63	43358.42
560.79	43505.88
560.96	43370.13
561.12	43669.72
561.29	43503.54
561.45	43470.77
561.61	43650.99
561.78	43517.58
561.94	43536.30
562.11	43831.21
562.27	43477.79
562.44	43524.60
562.60	43786.74
562.77	43873.34
562.93	43768.02
563.10	43702.48
563.26	43068.20
563.42	43908.45
563.59	43840.57
563.75	43711.84
563.92	44374.22
564.08	44217.40
564.24	43756.32
564.41	44259.53
564.57	43648.65
564.74	44105.06
564.90	44233.78
565.07	44463.16
565.23	43913.13
565.39	43775.04
565.56	44449.11
565.72	43948.24
565.88	43597.16
566.05	44147.18
566.21	43938.88
566.38	43988.03
566.54	43985.69
566.70	43838.23
566.87	44491.24
567.03	44406.98
567.19	44205.70
567.36	44074.63
567.52	44252.51
567.68	44456.14
567.85	43814.83
568.01	44472.52
568.17	44528.69
568.34	44266.55
568.50	44268.89
568.66	43849.94
568.83	44540.39
568.99	44069.95
569.15	44402.30
569.32	43372.47
569.48	44044.20
569.64	44641.04
569.81	44062.93
569.97	44313.36
570.13	44182.29
570.30	44030.16
570.46	44526.35
570.62	44299.32
570.78	43744.61
570.95	44107.40
571.11	44563.80
571.27	44069.95
571.43	44203.36
571.60	44175.27
571.76	44854.03
571.92	44528.69
572.09	44123.78
572.25	44018.46
572.41	44081.65
572.57	44601.25
572.74	45240.21
572.90	44109.74
573.06	44561.46
573.22	44362.51
573.38	44294.64
573.55	44194.00
573.71	44526.35
573.87	44280.60
574.03	43913.13
574.20	44514.65
574.36	44289.96
574.52	44636.36
574.68	44715.93
574.84	44891.48
575.01	44278.25
575.17	44491.24
575.33	44624.65
575.49	44219.74
575.65	44722.96
575.82	44907.86
575.98	44526.35
576.14	44847.00
576.30	44952.33
576.46	43901.43
576.62	44212.72
576.79	44430.39
576.95	44076.97
577.11	44409.32
577.27	44371.88
577.43	44732.32
577.59	44404.64
577.75	44247.83
577.92	44102.71
578.08	44175.27
578.24	44327.41
578.40	44619.97
578.56	44430.39
578.72	44568.48
578.88	44720.62
579.04	44603.59
579.21	44397.62
579.37	44435.07
579.53	44942.97
579.69	44566.14
579.85	44577.84
580.01	44603.59
580.17	44760.40
580.33	45081.06
580.49	44980.42
580.65	44854.03
580.82	45017.86
580.98	44556.78
581.14	44311.02
581.30	45177.02
581.46	44566.14
581.62	44673.81
581.78	44612.95
581.94	44905.52
582.10	44973.39
582.26	44933.60
582.42	44744.02
582.58	44865.73
582.74	44130.80
582.90	44638.70
583.06	44914.88
583.22	44762.75
583.38	45174.68
583.54	44954.67
583.70	44655.08
583.86	44435.07
584.02	44357.83
584.18	44790.83
584.34	44477.20
584.50	44849.35
584.66	44729.98
584.82	44804.88
584.98	45134.89
585.14	44706.57
585.30	44364.85
585.46	44465.50
585.62	44395.28
585.78	44746.36
585.94	44037.18
586.10	44516.99
586.26	44795.51
586.42	44481.88
586.58	44715.93
586.74	44891.48
586.90	44491.24
587.06	44584.86
587.22	44755.72
587.38	44664.44
587.54	45467.25
587.70	45132.55
587.86	45141.91
588.02	44898.50
588.18	44978.07
588.34	44713.59
588.49	44098.03
588.65	44304.00
588.81	44481.88
588.97	44477.20
589.13	44542.74
589.29	44914.88
589.45	44713.59
589.61	45191.06
589.77	44807.22
589.93	44872.75
590.08	45226.17
590.24	45055.31
