SpectraSuite Data File
++++++++++++++++++++++++++++++++++++
Date: Fri Oct 25 11:26:27 EDT 2013
User: price-jones
Dark Spectrum Present: No
Reference Spectrum Present: No
Number of Sampled Component Spectra: 1
Spectrometers: USB2+H05261
Integration Time (usec): 100000 (USB2+H05261)
Spectra Averaged: 1 (USB2+H05261)
Boxcar Smoothing: 0 (USB2+H05261)
Correct for Electrical Dark: No (USB2+H05261)
Strobe/Lamp Enabled: No (USB2+H05261)
Correct for Detector Non-linearity: No (USB2+H05261)
Correct for Stray Light: No (USB2+H05261)
Number of Pixels in Processed Spectrum: 2048
>>>>>Begin Processed Spectral Data<<<<<
365.73	215.33
365.92	215.33
366.12	215.33
366.32	243.42
366.52	126.39
366.72	184.90
366.91	142.77
367.11	170.86
367.31	126.39
367.51	173.20
367.70	154.48
367.90	114.69
368.10	175.54
368.30	128.73
368.49	112.35
368.69	215.33
368.89	156.82
369.09	163.84
369.28	196.60
369.48	177.88
369.68	175.54
369.87	236.39
370.07	220.01
370.27	191.92
370.47	315.97
370.66	589.82
370.86	683.44
371.06	655.35
371.25	648.33
371.45	678.76
371.65	627.26
371.84	669.39
372.04	645.99
372.24	788.76
372.44	748.97
372.63	739.61
372.83	763.01
373.03	751.31
373.22	809.83
373.42	809.83
373.62	730.25
373.81	793.44
374.01	842.59
374.21	795.78
374.40	798.12
374.60	816.85
374.79	805.14
374.99	856.64
375.19	805.14
375.38	856.64
375.58	868.34
375.78	940.90
375.97	873.02
376.17	863.66
376.37	835.57
376.56	966.64
376.76	938.55
376.95	854.30
377.15	940.90
377.35	840.25
377.54	830.89
377.74	964.30
377.93	833.23
378.13	854.30
378.33	880.04
378.52	908.13
378.72	938.55
378.91	903.45
379.11	1015.79
379.31	866.00
379.50	954.94
379.70	973.66
379.89	1015.79
380.09	929.19
380.28	926.85
380.48	954.94
380.68	966.64
380.87	978.34
381.07	1062.60
381.26	990.05
381.46	973.66
381.65	973.66
381.85	1060.26
382.04	1043.88
382.24	1041.54
382.43	1116.44
382.63	1116.44
382.83	1097.71
383.02	1050.90
383.22	1111.75
383.41	1060.26
383.61	1093.03
383.80	1102.39
384.00	1196.01
384.19	1086.01
384.39	1104.73
384.58	1097.71
384.78	1163.25
384.97	1118.78
385.17	1172.61
385.36	1118.78
385.56	1210.06
385.75	1104.73
385.95	1212.40
386.14	1238.14
386.34	1172.61
386.53	1160.91
386.72	1203.04
386.92	1249.85
387.11	1280.27
387.31	1226.44
387.50	1088.35
387.70	1207.72
387.89	1266.23
388.09	1282.61
388.28	1282.61
388.48	1317.72
388.67	1352.83
388.86	1359.85
389.06	1338.79
389.25	1453.47
389.45	1355.17
389.64	1313.04
389.84	1401.98
390.03	1369.21
390.22	1465.18
390.42	1406.66
390.61	1357.51
390.81	1380.92
391.00	1504.96
391.19	1460.49
391.39	1432.41
391.58	1420.71
391.78	1474.54
391.97	1526.03
392.16	1549.43
392.36	1551.78
392.55	1514.33
392.75	1497.94
392.94	1551.78
393.13	1563.48
393.33	1603.27
393.52	1542.41
393.71	1558.80
393.91	1584.54
394.10	1614.97
394.29	1598.59
394.49	1570.50
394.68	1643.06
394.88	1605.61
395.07	1593.90
395.26	1640.72
395.46	1717.95
395.65	1741.36
395.84	1715.61
396.04	1708.59
396.23	1706.25
396.42	1762.42
396.62	1764.76
396.81	1746.04
397.00	1813.92
397.19	1699.23
397.39	1640.72
397.58	1818.60
397.77	1806.89
397.97	1919.24
398.16	1844.34
398.35	1870.09
398.55	1734.34
398.74	1795.19
398.93	1914.56
399.12	1984.77
399.32	1942.64
399.51	1984.77
399.70	2062.01
399.90	2015.20
400.09	1881.79
400.28	1980.09
400.47	2017.54
400.67	2174.36
400.86	2113.50
401.05	2066.69
401.24	2108.82
401.44	2094.78
401.63	2143.93
401.82	2162.66
402.01	2242.23
402.21	2143.93
402.40	2162.66
402.59	2188.40
402.78	2148.61
402.97	2197.76
403.17	2256.28
403.36	2225.85
403.55	2289.04
403.74	2296.07
403.93	2310.11
404.13	2485.65
404.32	2244.57
404.51	2424.80
404.70	2389.69
404.89	2420.11
405.09	2466.92
405.28	2464.58
405.47	2455.22
405.66	2417.77
405.85	2520.76
406.05	2567.57
406.24	2565.23
406.43	2555.86
406.62	2691.62
406.81	2768.85
407.00	2471.61
407.20	2630.76
407.39	2640.12
407.58	2630.76
407.77	2733.75
407.96	2647.15
408.15	2710.34
408.34	2738.43
408.54	2696.30
408.73	2743.11
408.92	2726.72
409.11	2754.81
409.30	2843.75
409.49	2935.03
409.68	2991.20
409.87	2848.43
410.07	3052.06
410.26	3026.31
410.45	2902.26
410.64	3096.53
410.83	2953.76
411.02	3075.46
411.21	3133.98
411.40	3070.78
411.59	3164.40
411.78	3094.19
411.98	3087.17
412.17	3300.16
412.36	3194.83
412.55	3351.65
412.74	3412.50
412.93	3445.27
413.12	3356.33
413.31	3592.72
413.50	3485.06
413.69	3510.80
413.88	3571.66
414.07	3529.53
414.26	3550.59
414.45	3726.13
414.64	3798.69
414.83	3702.73
415.02	3765.92
415.22	3943.80
415.41	3796.35
415.60	3861.88
415.79	3941.46
415.98	3936.78
416.17	4049.13
416.36	3831.46
416.55	4119.34
416.74	4091.26
416.93	4030.40
417.12	4086.58
417.31	4252.75
417.50	4156.79
417.69	4306.59
417.88	4187.22
418.07	4381.48
418.26	4124.02
418.45	4346.37
418.64	4458.72
418.83	4383.82
419.02	4463.40
419.21	4557.02
419.39	4482.13
419.58	4404.89
419.77	4318.29
419.96	4559.36
420.15	4678.73
420.34	4582.77
420.53	4805.12
420.72	4781.71
420.91	4606.17
421.10	4718.52
421.29	4617.88
421.48	4538.30
421.67	4772.35
421.86	4823.84
422.05	4781.71
422.24	4891.72
422.43	4753.63
422.61	4816.82
422.80	5029.81
422.99	4812.14
423.18	4802.78
423.37	5020.45
423.56	5032.15
423.75	4837.89
423.94	4770.01
424.13	4554.68
424.32	4688.09
424.50	4870.65
424.69	5041.51
424.88	5041.51
425.07	5020.45
425.26	4985.34
425.45	4954.91
425.64	4968.96
425.83	4894.06
426.01	5053.22
426.20	5041.51
426.39	5036.83
426.58	4940.87
426.77	5020.45
426.96	5018.11
427.15	5210.03
427.33	5252.16
427.52	5074.28
427.71	5235.78
427.90	5193.65
428.09	5123.43
428.28	5355.15
428.46	5401.96
428.65	5193.65
428.84	5469.83
429.03	5446.43
429.22	5240.46
429.40	5364.51
429.59	5544.73
429.78	5268.55
429.97	5195.99
430.16	5432.38
430.34	5500.26
430.53	5816.23
430.72	5610.26
430.91	5570.48
431.10	5451.11
431.28	5575.16
431.47	5603.24
431.66	5935.60
431.85	5729.63
432.03	5856.02
432.22	6104.12
432.41	5989.43
432.60	5837.30
432.79	5886.45
432.97	5912.19
433.16	5921.56
433.35	5956.66
433.54	6076.03
433.72	6064.33
433.91	6106.46
434.10	6230.51
434.28	6143.91
434.47	6251.57
434.66	5935.60
434.85	6314.77
435.03	6207.10
435.22	6092.41
435.41	6417.75
435.59	6363.92
435.78	6361.58
435.97	6572.22
436.16	6628.40
436.34	6314.77
436.53	6485.62
436.72	6525.41
436.90	6427.11
437.09	6705.63
437.28	6417.75
437.46	6717.34
437.65	6593.29
437.84	6686.91
438.02	6607.33
438.21	6640.10
438.40	6602.65
438.58	7033.31
438.77	7026.29
438.96	6960.75
439.14	6946.71
439.33	7012.24
439.52	6986.50
439.70	7140.97
439.89	7234.60
440.08	7236.94
440.26	7368.01
440.45	7171.40
440.63	7499.08
440.82	7487.37
441.01	7552.91
441.19	7693.34
441.38	7506.10
441.57	7581.00
441.75	7569.29
441.94	7892.29
442.12	7716.75
442.31	7981.23
442.50	7798.66
442.68	7915.69
442.87	7950.80
443.05	7934.42
443.24	8168.47
443.43	8074.85
443.61	8318.26
443.80	8341.67
443.98	8133.36
444.17	7859.52
444.35	8339.33
444.54	8388.48
444.73	8205.92
444.91	8271.45
445.10	8311.24
445.28	8315.92
445.47	8217.62
445.65	8379.12
445.84	8547.64
446.02	8334.65
446.21	8250.39
446.39	8318.26
446.58	8390.82
446.77	8549.98
446.95	8219.96
447.14	8461.04
447.32	8521.89
447.51	8470.40
447.69	8407.20
447.88	8582.74
448.06	8500.83
448.25	8575.72
448.43	8439.97
448.62	8552.32
448.80	8402.52
448.99	8617.85
449.17	8828.50
449.36	8641.26
449.54	8910.42
449.73	8795.73
449.91	8982.98
450.10	8800.41
450.28	9064.89
450.46	9039.15
450.65	8786.37
450.83	8887.01
451.02	8982.98
451.20	9130.43
451.39	9036.81
451.57	9261.50
451.76	8975.95
451.94	9172.56
452.13	9088.30
452.31	9329.38
452.49	9004.04
452.68	9282.56
452.86	9303.63
453.05	9329.38
453.23	9453.42
453.42	9394.91
453.60	9437.04
453.78	9359.80
453.97	9406.61
454.15	9371.50
454.34	9394.91
454.52	9699.18
454.70	9633.64
454.89	9689.82
455.07	9657.05
455.26	9771.74
455.44	9839.61
455.62	9809.19
455.81	9958.98
455.99	10012.81
456.17	9947.28
456.36	9916.85
456.54	10167.29
456.73	10101.75
456.91	10422.41
457.09	10525.39
457.28	10469.22
457.46	10087.71
457.64	10562.84
457.83	10153.24
458.01	10345.17
458.19	10724.33
458.38	10469.22
458.56	10628.37
458.74	10492.62
458.93	10513.69
459.11	10668.16
459.29	10569.86
459.48	10834.34
459.66	10572.20
459.84	10991.16
460.03	11023.92
460.21	11002.86
460.39	10710.29
460.57	10860.09
460.76	10878.81
460.94	11138.61
461.12	11178.40
461.31	11124.57
461.49	11178.40
461.67	11063.71
461.85	11363.30
462.04	11293.08
462.22	11714.38
462.40	11475.65
462.59	11517.78
462.77	11386.71
462.95	11623.10
463.13	11597.35
463.32	11709.70
463.50	11456.92
463.68	11721.40
463.86	11700.34
464.05	11653.53
464.23	11630.12
464.41	11623.10
464.59	11592.67
464.78	11955.46
464.96	11932.05
465.14	11866.52
465.32	12060.78
465.50	12058.44
465.69	12255.04
465.87	11957.80
466.05	12109.93
466.23	12332.28
466.41	12301.86
466.60	12311.22
466.78	12346.33
466.96	11976.52
467.14	12126.32
467.32	12395.48
467.51	12510.16
467.69	12229.30
467.87	12294.83
468.05	12620.17
468.23	12439.95
468.41	12264.41
468.60	12666.98
468.78	12606.13
468.96	12496.12
469.14	12699.75
469.32	13142.11
469.50	12648.26
469.69	12758.26
469.87	12884.65
470.05	12861.24
470.23	13214.66
470.41	12652.94
470.59	13411.27
470.77	13099.98
470.95	13219.35
471.14	13408.93
471.32	12994.65
471.50	13497.87
471.68	13614.90
471.86	13542.34
472.04	13420.63
472.22	14125.13
472.40	13631.28
472.58	13781.07
472.77	13694.47
472.95	14111.09
473.13	14328.76
473.31	13930.87
473.49	14015.13
473.67	14160.24
473.85	14272.59
474.03	14555.79
474.21	14377.91
474.39	14815.59
474.57	14728.99
474.75	14855.38
474.93	14904.53
475.12	14923.26
475.30	15185.40
475.48	14925.60
475.66	15143.27
475.84	15056.67
476.02	15290.72
476.20	14993.47
476.38	15632.44
476.56	15878.19
476.74	15796.28
476.92	15712.02
477.10	15679.25
477.28	15999.90
477.46	16004.58
477.64	16053.73
477.82	16486.73
478.00	16929.09
478.18	16706.74
478.36	16821.43
478.54	17006.33
478.72	17092.93
478.90	17301.24
479.08	17221.66
479.26	17528.27
479.44	17851.27
479.62	17776.37
479.80	17987.02
479.98	17991.70
480.16	18541.72
480.34	18274.90
480.52	18548.75
480.70	18501.93
480.88	18211.71
481.06	18492.57
481.24	18661.09
481.41	18764.07
481.59	19344.53
481.77	19506.02
481.95	19489.64
482.13	19597.31
482.31	19260.27
482.49	20025.62
482.67	20191.80
482.85	20343.94
483.03	20575.65
483.21	20570.97
483.39	20989.92
483.57	20552.24
483.74	20975.88
483.92	21270.79
484.10	21434.63
484.28	21745.92
484.46	21881.67
484.64	22099.34
484.82	21979.97
485.00	22246.79
485.18	22637.66
485.35	23297.69
485.53	22759.37
485.71	23091.73
485.89	23733.03
486.07	23356.21
486.25	23349.18
486.43	23105.77
486.61	23857.08
486.78	23864.10
486.96	23889.85
487.14	24252.63
487.32	24489.03
487.50	24432.85
487.68	25062.46
487.85	25167.78
488.03	25415.88
488.21	25663.97
488.39	25357.36
488.57	25949.52
488.75	25916.75
488.92	26279.54
489.10	26679.77
489.28	26787.43
489.46	27197.02
489.64	26937.23
489.81	27690.88
489.99	27489.59
490.17	27721.30
490.35	27700.24
490.53	27887.48
490.70	27976.42
490.88	27962.38
491.06	28514.75
491.24	29202.86
491.41	28826.04
491.59	28950.09
491.77	29146.69
491.95	29369.04
492.13	29731.83
492.30	29839.49
492.48	29813.74
492.66	30132.06
492.84	30176.53
493.01	30614.21
493.19	30359.09
493.37	30642.29
493.54	30771.02
493.72	31213.38
493.90	31498.93
494.08	31400.63
494.25	31728.30
494.43	31875.76
494.61	32037.25
494.79	32383.65
494.96	32378.97
495.14	32257.26
495.32	32858.78
495.49	33282.42
495.67	33020.28
495.85	33593.71
496.02	33696.69
496.20	33825.42
496.38	34218.63
496.55	34106.29
496.73	34700.78
496.91	34342.68
497.09	34227.99
497.26	34387.15
497.44	35082.29
497.62	35182.93
497.79	35585.50
497.97	35424.01
498.14	35510.61
498.32	35728.28
498.50	35950.63
498.67	36231.49
498.85	35997.44
499.03	36795.56
499.20	36605.98
499.38	36577.89
499.56	36898.55
499.73	36652.79
499.91	37158.34
500.08	37333.89
500.26	36910.25
500.44	37113.87
500.61	38078.18
500.79	37352.61
500.97	37521.13
501.14	38391.81
501.32	37986.89
501.49	38249.03
501.67	38113.28
501.84	38714.80
502.02	38990.98
502.20	38934.81
502.37	38859.91
502.55	38838.85
502.72	39103.33
502.90	39360.79
503.07	39548.03
503.25	39393.56
503.43	39683.78
503.60	39548.03
503.78	39952.94
503.95	40240.83
504.13	40203.38
504.30	40313.39
504.48	39910.82
504.65	40641.06
504.83	40900.86
505.01	41301.09
505.18	40809.58
505.36	41462.59
505.53	40931.29
505.71	41352.58
505.88	41532.81
506.06	41361.95
506.23	41865.16
506.41	41879.21
506.58	41546.85
506.76	41750.48
506.93	42316.89
507.11	42089.85
507.28	42164.75
507.46	42665.63
507.63	42506.47
507.81	42843.51
507.98	42857.55
508.16	42721.80
508.33	43335.02
508.50	42871.59
508.68	43243.74
508.85	43763.34
509.03	43374.81
509.20	44231.44
509.38	43985.69
509.55	44170.59
509.73	44423.37
509.90	44416.35
510.08	44734.66
510.25	44449.11
510.42	44357.83
510.60	44856.37
510.77	45062.33
510.95	45230.85
511.12	44921.90
511.30	45038.93
511.47	44659.76
511.64	45511.72
511.82	45666.19
511.99	45315.11
512.17	45588.95
512.34	45710.66
512.51	45869.82
512.69	45914.29
512.86	46171.75
513.04	46366.01
513.21	46450.27
513.38	46632.83
513.56	46850.50
513.73	46417.50
513.90	46876.25
514.08	46806.03
514.25	46618.79
514.43	47166.48
514.60	46897.31
514.77	46864.55
514.95	47641.60
515.12	47002.64
515.29	47147.75
515.47	47519.90
515.64	48102.69
515.81	47466.06
515.99	48039.50
516.16	48065.24
516.33	48158.86
516.51	48425.68
516.68	47927.15
516.85	48215.04
517.03	48846.98
517.20	48800.17
517.37	48755.70
517.54	48804.85
517.72	48523.99
517.89	48776.76
518.06	49057.63
518.24	49052.95
518.41	49212.10
518.58	49469.56
518.75	49127.84
518.93	49333.81
519.10	49279.98
519.27	49050.61
519.45	49586.59
519.62	49542.12
519.79	49794.90
519.96	49689.57
520.14	49874.48
520.31	50148.32
520.48	49961.08
520.65	49949.37
520.83	50291.09
521.00	50532.17
521.17	50340.24
521.34	50450.25
521.52	50656.21
521.69	50738.13
521.86	50803.67
522.03	50892.61
522.20	50787.28
522.38	51192.20
522.55	51236.67
522.72	51257.73
522.89	51051.76
523.07	51360.72
523.24	51075.17
523.41	51365.40
523.58	51334.97
523.75	51690.73
523.92	51531.57
524.10	51510.51
524.27	51866.27
524.44	51920.10
524.61	51784.35
524.78	51854.57
524.96	51934.15
525.13	51807.76
525.30	52252.46
525.47	52191.61
525.64	52037.13
525.81	52065.22
525.98	52388.21
526.16	52322.68
526.33	52339.06
526.50	52596.52
526.67	52655.03
526.84	52762.70
527.01	52802.49
527.18	52814.19
527.36	52912.49
527.53	52837.59
527.70	53310.38
527.87	52917.17
528.04	52858.66
528.21	53003.77
528.38	52786.10
528.55	53600.61
528.72	53205.06
528.89	53319.74
529.07	53088.03
529.24	53057.60
529.41	53563.16
529.58	53570.18
529.75	53476.56
529.92	53745.72
530.09	53813.60
530.26	53591.25
530.43	53626.35
530.60	53558.48
530.77	53483.58
530.94	53745.72
531.11	54021.90
531.28	53848.71
531.46	53722.32
531.63	54136.59
531.80	53998.50
531.97	54152.97
532.14	54258.30
532.31	54244.26
532.48	54429.16
532.65	54372.99
532.82	53944.67
532.99	54410.43
533.16	54272.34
533.33	54885.56
533.50	54740.45
533.67	54459.58
533.84	54504.06
534.01	54597.68
534.18	54508.74
534.35	54955.78
534.52	54834.07
534.69	55187.49
534.86	55051.74
535.03	54717.04
535.20	55215.58
535.37	55033.02
535.54	55274.09
535.71	55180.47
535.88	55126.64
536.05	55192.17
536.22	55173.45
536.38	55571.34
536.55	55271.75
536.72	55395.80
536.89	55365.37
537.06	55498.78
537.23	55487.08
537.40	55580.70
537.57	55531.55
537.74	55847.52
537.91	55964.55
538.08	55763.26
538.25	55451.97
538.42	56016.04
538.59	56104.98
538.75	55784.33
538.92	55758.58
539.09	55772.63
539.26	55817.10
539.43	55994.98
539.60	56090.94
539.77	56081.58
539.94	56292.22
540.11	56126.05
540.28	56355.42
540.44	56189.24
540.61	56069.87
540.78	56301.59
540.95	56177.54
541.12	56165.84
541.29	56219.67
541.46	56313.29
541.62	56446.70
541.79	56622.24
541.96	56271.16
542.13	56392.87
542.30	56516.92
542.47	56662.03
542.63	56657.35
542.80	56954.60
542.97	56896.08
543.14	57261.21
543.31	57109.07
543.48	57041.20
543.64	57413.34
543.81	57233.12
543.98	57322.06
544.15	57003.75
544.32	57289.29
544.48	57380.57
544.65	57286.95
544.82	57481.22
544.99	57359.51
545.16	57551.43
545.32	57235.46
545.49	57623.99
545.66	57427.38
545.83	57591.22
546.00	57600.58
546.16	57354.83
546.33	57322.06
546.50	57305.68
546.67	57378.23
546.83	56987.36
547.00	57621.65
547.17	57539.73
547.34	57778.46
547.50	57748.04
547.67	58042.95
547.84	57911.88
548.00	57773.78
548.17	58225.51
548.34	58042.95
548.51	57986.77
548.67	58031.24
548.84	57778.46
549.01	57825.28
549.18	57862.72
549.34	58054.65
549.51	58192.74
549.68	58227.85
549.84	58134.23
550.01	58176.36
550.18	58031.24
550.34	58365.94
550.51	58410.41
550.68	58234.87
550.84	58052.31
551.01	58417.43
551.18	58251.25
551.34	58300.40
551.51	58485.31
551.68	58344.87
551.84	58347.21
552.01	58342.53
552.18	58497.01
552.34	58213.80
552.51	58452.54
552.68	58429.13
552.84	58557.86
553.01	58539.14
553.18	58630.42
553.34	58581.27
553.51	58567.23
553.67	58787.24
553.84	58763.83
554.01	58700.64
554.17	58955.75
554.34	58976.82
554.51	58967.46
554.67	59002.56
554.84	59098.53
555.00	58852.77
555.17	58628.08
555.33	58829.37
555.50	58857.45
555.67	58841.07
555.83	58812.98
556.00	59180.45
556.16	59072.78
556.33	58979.16
556.50	59014.27
556.66	59238.96
556.83	59018.95
556.99	59363.01
557.16	59138.32
557.32	59426.20
557.49	59473.01
557.65	59241.30
557.82	59157.04
557.98	59054.06
558.15	59386.41
558.32	59290.45
558.48	59346.62
558.65	59295.13
558.81	59337.26
558.98	59377.05
559.14	59594.72
559.31	59526.84
559.47	59454.29
559.64	59341.94
559.80	59519.82
559.97	59613.44
560.13	59674.30
560.30	59597.06
560.46	59716.43
560.63	59554.93
560.79	59646.21
560.96	59653.23
561.12	59655.57
561.29	59639.19
561.45	59770.26
561.61	59632.17
561.78	59779.62
561.94	59765.58
562.11	59721.11
562.27	59639.19
562.44	59779.62
562.60	59999.63
562.77	59824.09
562.93	59674.30
563.10	60109.64
563.26	59831.11
563.42	59994.95
563.59	59917.71
563.75	59779.62
563.92	59936.44
564.08	59873.24
564.24	59943.46
564.41	60058.15
564.57	59983.25
564.74	59880.27
564.90	59962.18
565.07	60107.30
565.23	59955.16
565.39	59884.95
565.56	59997.29
565.72	59877.93
565.88	60193.90
566.05	60030.06
566.21	60067.51
566.38	60095.60
566.54	59983.25
566.70	60172.83
566.87	60331.99
567.03	60210.28
567.19	60196.24
567.36	59985.59
567.52	60023.04
567.68	60282.84
567.85	60179.85
568.01	60140.07
568.17	60212.62
568.34	60264.11
568.50	60252.41
568.66	60147.09
568.83	60369.44
568.99	60582.43
569.15	60390.50
569.32	60154.11
569.48	60280.50
569.64	60507.53
569.81	60128.36
569.97	60144.75
570.13	60353.05
570.30	60137.72
570.46	60264.11
570.62	60355.39
570.78	60331.99
570.95	60423.27
571.11	60416.25
571.27	60371.78
571.43	60294.54
571.60	60409.23
571.76	60458.38
571.92	60481.78
572.09	60554.34
572.25	60505.19
572.41	60533.28
572.57	60488.80
572.74	60612.85
572.90	60381.14
573.06	60303.90
573.22	60346.03
573.38	60587.11
573.55	60535.62
573.71	60643.28
573.87	60336.67
574.03	60535.62
574.20	60397.52
574.36	60547.32
574.52	60523.91
574.68	60706.47
574.84	60673.71
575.01	60523.91
575.17	60664.35
575.33	60591.79
575.49	60556.68
575.65	60603.49
575.82	60720.52
575.98	60570.72
576.14	60807.12
576.30	60732.22
576.46	60652.64
576.62	60757.97
576.79	60376.46
576.95	60528.59
577.11	60559.02
577.27	60573.06
577.43	60594.13
577.59	60570.72
577.75	60760.31
577.92	60472.42
578.08	60491.15
578.24	60626.90
578.40	60774.35
578.56	60795.42
578.72	60832.86
578.88	60779.03
579.04	60729.88
579.21	60608.17
579.37	60687.75
579.53	60802.44
579.69	60669.03
579.85	60540.30
580.01	60640.94
580.17	60678.39
580.33	60542.64
580.49	60844.57
580.65	60748.60
580.82	60734.56
580.98	60631.58
581.14	60598.81
581.30	60858.61
581.46	60734.56
581.62	60743.92
581.78	60617.53
581.94	60933.51
582.10	60678.39
582.26	60786.05
582.42	60729.88
582.58	60790.73
582.74	60865.63
582.90	60886.70
583.06	60685.41
583.22	60640.94
583.38	60706.47
583.54	60896.06
583.70	60954.57
583.86	60851.59
584.02	60760.31
584.18	60846.91
584.34	60795.42
584.50	60973.30
584.66	60638.60
584.82	60542.64
584.98	60924.14
585.14	61020.11
585.30	60676.05
585.46	60945.21
585.62	60753.29
585.78	61048.19
585.94	60619.88
586.10	60748.60
586.26	60949.89
586.42	60959.25
586.58	60912.44
586.74	60891.38
586.90	60975.64
587.06	60713.50
587.22	60942.87
587.38	60917.12
587.54	61015.43
587.70	60889.04
587.86	60975.64
588.02	60741.58
588.18	61057.56
588.34	61045.85
588.49	60729.88
