SpectraSuite Data File
++++++++++++++++++++++++++++++++++++
Date: Fri Oct 25 10:43:39 EDT 2013
User: price-jones
Dark Spectrum Present: No
Reference Spectrum Present: No
Number of Sampled Component Spectra: 1
Spectrometers: USB2+H05261
Integration Time (usec): 100000 (USB2+H05261)
Spectra Averaged: 1 (USB2+H05261)
Boxcar Smoothing: 0 (USB2+H05261)
Correct for Electrical Dark: No (USB2+H05261)
Strobe/Lamp Enabled: No (USB2+H05261)
Correct for Detector Non-linearity: No (USB2+H05261)
Correct for Stray Light: No (USB2+H05261)
Number of Pixels in Processed Spectrum: 2048
>>>>>Begin Processed Spectral Data<<<<<
365.73	107.66
365.92	107.66
366.12	107.66
366.32	81.92
366.52	11.70
366.72	72.56
366.91	23.41
367.11	0.00
367.31	25.75
367.51	0.00
367.70	46.81
367.90	0.00
368.10	39.79
368.30	84.26
368.49	65.54
368.69	21.06
368.89	23.41
369.09	77.24
369.28	105.32
369.48	42.13
369.68	79.58
369.87	53.83
370.07	84.26
370.27	84.26
370.47	198.95
370.66	351.08
370.86	416.62
371.06	475.13
371.25	433.00
371.45	454.06
371.65	425.98
371.84	409.59
372.04	421.30
372.24	500.87
372.44	514.92
372.63	491.51
372.83	433.00
373.03	543.00
373.22	470.45
373.42	608.54
373.62	498.53
373.81	496.19
374.01	589.82
374.21	573.43
374.40	535.98
374.60	571.09
374.79	599.18
374.99	587.47
375.19	575.77
375.38	557.05
375.58	648.33
375.78	713.86
375.97	578.11
376.17	627.26
376.37	592.16
376.56	645.99
376.76	552.37
376.95	620.24
377.15	629.60
377.35	678.76
377.54	657.69
377.74	578.11
377.93	657.69
378.13	678.76
378.33	688.12
378.52	636.63
378.72	697.48
378.91	676.41
379.11	636.63
379.31	681.10
379.50	622.58
379.70	725.57
379.89	734.93
380.09	660.03
380.28	648.33
380.48	720.88
380.68	674.07
380.87	706.84
381.07	732.59
381.26	706.84
381.46	650.67
381.65	739.61
381.85	627.26
382.04	678.76
382.24	667.05
382.43	763.01
382.63	744.29
382.83	709.18
383.02	678.76
383.22	692.80
383.41	770.04
383.61	777.06
383.80	795.78
384.00	753.65
384.19	812.17
384.39	821.53
384.58	837.91
384.78	837.91
384.97	739.61
385.17	823.87
385.36	805.14
385.56	784.08
385.75	823.87
385.95	844.93
386.14	788.76
386.34	716.20
386.53	882.38
386.72	919.83
386.92	866.00
387.11	863.66
387.31	833.23
387.50	856.64
387.70	917.49
387.89	945.58
388.09	926.85
388.28	896.43
388.48	863.66
388.67	933.87
388.86	894.08
389.06	952.60
389.25	931.53
389.45	1043.88
389.64	884.72
389.84	1046.22
390.03	1025.15
390.22	1046.22
390.42	1027.50
390.61	1046.22
390.81	966.64
391.00	1050.90
391.19	1036.86
391.39	999.41
391.58	1069.62
391.78	1055.58
391.97	1095.37
392.16	1043.88
392.36	1036.86
392.55	1055.58
392.75	954.94
392.94	1029.84
393.13	961.96
393.33	1064.94
393.52	1041.54
393.71	1069.62
393.91	1233.46
394.10	1029.84
394.29	1177.29
394.49	1160.91
394.68	1184.31
394.88	1174.95
395.07	1207.72
395.26	1181.97
395.46	1210.06
395.65	1273.25
395.84	1284.95
396.04	1191.33
396.23	1137.50
396.42	1172.61
396.62	1109.41
396.81	1130.48
397.00	1254.53
397.19	1336.45
397.39	1376.24
397.58	1387.94
397.77	1331.76
397.97	1441.77
398.16	1413.68
398.35	1465.18
398.55	1500.28
398.74	1448.79
398.93	1598.59
399.12	1516.67
399.32	1504.96
399.51	1511.99
399.70	1507.30
399.90	1577.52
400.09	1598.59
400.28	1650.08
400.47	1516.67
400.67	1537.73
400.86	1629.01
401.05	1692.21
401.24	1727.32
401.44	1638.38
401.63	1593.90
401.82	1811.57
402.01	1678.16
402.21	1760.08
402.40	1797.53
402.59	1732.00
402.78	1778.81
402.97	1696.89
403.17	1771.79
403.36	1837.32
403.55	1902.86
403.74	1916.90
403.93	1907.54
404.13	1891.15
404.32	1818.60
404.51	2008.18
404.70	2012.86
404.89	1947.33
405.09	1991.80
405.28	2017.54
405.47	2015.20
405.66	1952.01
405.85	1970.73
406.05	2085.42
406.24	1898.17
406.43	2050.31
406.62	2083.08
406.81	2076.06
407.00	2078.40
407.20	2106.48
407.39	2106.48
407.58	2190.74
407.77	2174.36
407.96	2193.08
408.15	2223.51
408.34	2321.81
408.54	2303.09
408.73	2260.96
408.92	2260.96
409.11	2279.68
409.30	2375.64
409.49	2275.00
409.68	2359.26
409.87	2331.17
410.07	2373.30
410.26	2333.51
410.45	2415.43
410.64	2583.95
410.83	2562.89
411.02	2506.71
411.21	2612.04
411.40	2616.72
411.59	2715.02
411.78	2752.47
411.98	2630.76
412.17	2642.46
412.36	2738.43
412.55	2649.49
412.74	2759.49
412.93	2827.37
413.12	2703.32
413.31	2956.10
413.50	2918.65
413.69	2836.73
413.88	2977.16
414.07	2991.20
414.26	3108.23
414.45	3112.91
414.64	2981.84
414.83	3108.23
415.02	3169.09
415.22	3103.55
415.41	3279.09
415.60	3225.26
415.79	3166.74
415.98	3321.22
416.17	3302.50
416.36	3239.30
416.55	3155.04
416.74	3344.63
416.93	3335.26
417.12	3428.88
417.31	3421.86
417.50	3400.80
417.69	3489.74
417.88	3431.23
418.07	3482.72
418.26	3431.23
418.45	3555.27
418.64	3714.43
418.83	3433.57
419.02	3545.91
419.21	3606.77
419.39	3604.42
419.58	3559.95
419.77	3534.21
419.96	3698.05
420.15	3723.79
420.34	3770.60
420.53	3770.60
420.72	3889.97
420.91	3861.88
421.10	3911.04
421.29	3950.82
421.48	3854.86
421.67	3885.29
421.86	3887.63
422.05	3859.54
422.24	3817.41
422.43	3859.54
422.61	3904.01
422.80	3913.38
422.99	3971.89
423.18	3936.78
423.37	4175.52
423.56	3992.95
423.75	3899.33
423.94	3857.20
424.13	3623.15
424.32	3854.86
424.50	4007.00
424.69	4049.13
424.88	4079.55
425.07	4018.70
425.26	4014.02
425.45	3904.01
425.64	3871.25
425.83	4060.83
426.01	4133.39
426.20	4112.32
426.39	4112.32
426.58	3983.59
426.77	4035.08
426.96	3955.51
427.15	4023.38
427.33	4044.45
427.52	4109.98
427.71	4135.73
427.90	4184.88
428.09	4231.69
428.28	4166.15
428.46	4276.16
428.65	4194.24
428.84	4205.94
429.03	4355.74
429.22	4140.41
429.40	4182.54
429.59	4067.85
429.78	4011.68
429.97	4039.76
430.16	4095.94
430.34	4032.74
430.53	4109.98
430.72	4177.86
430.91	4109.98
431.10	4407.23
431.28	4582.77
431.47	4725.54
431.66	4704.48
431.85	4542.98
432.03	4772.35
432.22	4652.98
432.41	4699.80
432.60	4636.60
432.79	4779.37
432.97	4877.68
433.16	4873.00
433.35	4737.24
433.54	4629.58
433.72	4725.54
433.91	4676.39
434.10	4755.97
434.28	4833.21
434.47	4954.91
434.66	4833.21
434.85	5036.83
435.03	5027.47
435.22	5029.81
435.41	5226.42
435.59	5071.94
435.78	5224.08
435.97	5254.50
436.16	5149.18
436.34	5078.96
436.53	5039.17
436.72	5425.36
436.90	5001.72
437.09	5198.33
437.28	5172.58
437.46	5238.12
437.65	5261.52
437.84	5184.29
438.02	5235.78
438.21	5217.05
438.40	5172.58
438.58	5495.58
438.77	5392.59
438.96	5504.94
439.14	5724.95
439.33	5713.25
439.52	5720.27
439.70	5673.46
439.89	5650.05
440.08	5856.02
440.26	5902.83
440.45	5750.70
440.63	5841.98
440.82	6029.22
441.01	5905.17
441.19	5959.00
441.38	6113.48
441.57	6118.16
441.75	6246.89
441.94	6403.71
442.12	6256.25
442.31	6492.65
442.50	6368.60
442.68	6361.58
442.87	6363.92
443.05	6497.33
443.24	6415.41
443.43	6370.94
443.61	6483.28
443.80	6612.01
443.98	6384.98
444.17	6382.64
444.35	6579.25
444.54	6635.42
444.73	6597.97
444.91	6686.91
445.10	6516.05
445.28	6537.12
445.47	6537.12
445.65	6370.94
445.84	6436.47
446.02	6775.85
446.21	6672.87
446.39	6583.93
446.58	6715.00
446.77	6502.01
446.95	6548.82
447.14	6724.36
447.32	7002.88
447.51	6836.70
447.69	6974.80
447.88	6801.60
448.06	6808.62
448.25	6827.34
448.43	7026.29
448.62	6850.75
448.80	6827.34
448.99	6881.18
449.17	6817.98
449.36	6691.59
449.54	7066.08
449.73	7119.91
449.91	7117.57
450.10	7239.28
450.28	7265.02
450.46	7440.56
450.65	7407.80
450.83	7487.37
451.02	7323.54
451.20	7508.44
451.39	7180.76
451.57	7349.28
451.76	7382.05
451.94	7339.92
452.13	7351.62
452.31	7391.41
452.49	7208.85
452.68	7220.55
452.86	7250.98
453.05	7185.44
453.23	7545.89
453.42	7414.82
453.60	7288.43
453.78	7602.06
453.97	7550.57
454.15	7461.63
454.34	7311.83
454.52	7632.49
454.70	7545.89
454.89	7637.17
455.07	7679.30
455.26	7730.79
455.44	7808.03
455.62	7705.04
455.81	7838.45
455.99	7793.98
456.17	7899.31
456.36	8056.12
456.54	8049.10
456.73	8131.02
456.91	8215.28
457.09	8126.34
457.28	8524.23
457.46	8013.99
457.64	8273.79
457.83	8131.02
458.01	8196.56
458.19	8344.01
458.38	8241.03
458.56	8463.38
458.74	8271.45
458.93	8365.07
459.11	8252.73
459.29	8201.24
459.48	8344.01
459.66	8423.59
459.84	8510.19
460.03	8589.77
460.21	8557.00
460.39	8603.81
460.57	8535.93
460.76	8557.00
460.94	8737.22
461.12	8758.28
461.31	8676.37
461.49	8676.37
461.67	8809.78
461.85	9006.38
462.04	8835.52
462.22	9341.08
462.40	9202.99
462.59	9090.64
462.77	9114.05
462.95	9170.22
463.13	8879.99
463.32	8994.68
463.50	9130.43
463.68	9109.36
463.86	9266.18
464.05	9104.68
464.23	9018.08
464.41	9167.88
464.59	9111.71
464.78	9177.24
464.96	9121.07
465.14	9092.98
465.32	9376.19
465.50	9371.50
465.69	9200.65
465.87	9289.59
466.05	9172.56
466.23	9266.18
466.41	9210.01
466.60	9460.45
466.78	9170.22
466.96	9282.56
467.14	9343.42
467.32	9280.22
467.51	9540.02
467.69	9266.18
467.87	9554.07
468.05	9451.08
468.23	9521.30
468.41	9462.79
468.60	9762.37
468.78	9650.03
468.96	9579.81
469.14	9856.00
469.32	9912.17
469.50	9607.90
469.69	9804.50
469.87	9879.40
470.05	10026.86
470.23	9916.85
470.41	9841.95
470.59	9933.23
470.77	10043.24
470.95	9900.47
471.14	10228.14
471.32	10045.58
471.50	10483.26
471.68	10501.98
471.86	10445.81
472.04	10525.39
472.22	10721.99
472.40	10139.20
472.58	10579.22
472.77	10574.54
472.95	10729.02
473.13	10927.96
473.31	10497.30
473.49	10750.08
473.67	10689.23
473.85	10932.64
474.03	11183.08
474.21	11250.96
474.39	11400.75
474.57	11138.61
474.75	11349.26
474.93	11311.81
475.12	11499.05
475.30	11389.05
475.48	11293.08
475.66	11246.27
475.84	11466.28
476.02	11552.88
476.20	11630.12
476.38	11864.18
476.56	12016.31
476.74	11882.90
476.92	11997.59
477.10	11913.33
477.28	12233.98
477.46	12233.98
477.64	12343.99
477.82	12348.67
478.00	12524.21
478.18	12648.26
478.36	12671.66
478.54	12886.99
478.72	12622.51
478.90	12926.78
479.08	13064.87
479.26	13217.01
479.44	13310.63
479.62	13378.50
479.80	13617.24
479.98	13584.47
480.16	13982.36
480.34	13619.58
480.52	13603.19
480.70	13837.25
480.88	13806.82
481.06	14052.58
481.24	13980.02
481.41	14518.34
481.59	14368.55
481.77	14567.49
481.95	14717.29
482.13	14665.80
482.31	14714.95
482.49	15122.20
482.67	14944.32
482.85	15159.65
483.03	15110.50
483.21	15473.28
483.39	15667.55
483.57	15768.19
483.74	15529.45
483.92	16070.12
484.10	15868.83
484.28	16046.71
484.46	16018.63
484.64	16453.97
484.82	16187.14
485.00	16376.73
485.18	16477.37
485.35	16751.21
485.53	16336.94
485.71	16208.21
485.89	16491.41
486.07	16489.07
486.25	16769.94
486.43	17092.93
486.61	17195.92
486.78	17331.67
486.96	17493.16
487.14	17694.45
487.32	17830.20
487.50	18132.13
487.68	18302.99
487.85	18633.00
488.03	18251.50
488.21	18845.99
488.39	18754.71
488.57	18735.99
488.75	19066.00
488.92	19374.95
489.10	19440.49
489.28	19447.51
489.46	19524.75
489.64	19770.51
489.81	20250.32
489.99	20051.37
490.17	20336.91
490.35	20779.28
490.53	20411.81
490.70	20889.28
490.88	20641.18
491.06	21099.93
491.24	20933.75
491.41	20952.48
491.59	20849.49
491.77	20898.64
491.95	21135.04
492.13	21392.50
492.30	21649.96
492.48	21776.34
492.66	21525.91
492.84	22019.76
493.01	22480.85
493.19	22340.41
493.37	22309.99
493.54	22654.05
493.72	22874.06
493.90	22817.88
494.08	23295.35
494.25	23473.23
494.43	23283.65
494.61	23410.04
494.79	23658.14
494.96	23887.51
495.14	23271.95
495.32	24009.22
495.49	23847.72
495.67	24060.71
495.85	24191.78
496.02	24177.73
496.20	24697.33
496.38	24577.97
496.55	24793.29
496.73	25338.64
496.91	24861.17
497.09	25259.06
497.26	25397.15
497.44	25137.35
497.62	25678.02
497.79	25678.02
497.97	25200.55
498.14	25689.72
498.32	25207.57
498.50	25795.04
498.67	26508.91
498.85	26338.05
499.03	26312.30
499.20	26490.18
499.38	26508.91
499.56	26398.90
499.73	26951.27
499.91	26892.76
500.08	26738.28
500.26	26441.03
500.44	26693.81
500.61	27227.45
500.79	26979.36
500.97	27087.02
501.14	27374.91
501.32	27508.32
501.49	27585.55
501.67	27573.85
501.84	27686.20
502.02	27651.09
502.20	27611.30
502.37	27800.88
502.55	28060.68
502.72	28676.24
502.90	28362.61
503.07	28077.07
503.25	28067.70
503.43	28023.23
503.60	28386.02
503.78	28430.49
503.95	28390.70
504.13	28856.46
504.30	29120.95
504.48	28858.81
504.65	29333.93
504.83	29120.95
505.01	29312.87
505.18	29495.43
505.36	29488.41
505.53	29776.30
505.71	29832.47
505.88	30059.50
506.06	30040.78
506.23	29818.42
506.41	29757.57
506.58	30045.46
506.76	30602.50
506.93	30497.18
507.11	30167.16
507.28	30443.35
507.46	29930.77
507.63	30263.13
507.81	30637.61
507.98	30361.43
508.16	31035.50
508.33	30817.83
508.50	31084.65
508.68	31356.16
508.85	31491.91
509.03	31101.04
509.20	31363.18
509.38	31278.92
509.55	31388.92
509.73	31433.39
509.90	31519.99
510.08	31538.72
510.25	31936.61
510.42	32187.05
510.60	32318.12
510.77	32212.79
510.95	32430.46
511.12	32156.62
511.30	32280.67
511.47	32601.32
511.64	32568.55
511.82	32446.85
511.99	32407.06
512.17	32800.27
512.34	32472.59
512.51	32898.57
512.69	32933.68
512.86	33326.89
513.04	33036.66
513.21	33027.30
513.38	32940.70
513.56	33354.97
513.73	32982.83
513.90	33294.12
514.08	33469.66
514.25	33605.41
514.43	33235.61
514.60	33624.14
514.77	33228.59
514.95	33954.15
515.12	33692.01
515.29	33834.78
515.47	34527.58
515.64	34515.88
515.81	33970.54
515.99	34003.30
516.16	33979.90
516.33	33986.92
516.51	33914.36
516.68	33626.48
516.85	33876.91
517.03	33989.26
517.20	33947.13
517.37	34155.44
517.54	34883.34
517.72	34562.69
517.89	34019.69
518.06	34370.77
518.24	34113.31
518.41	34656.31
518.58	35037.82
518.75	35028.46
518.93	35002.71
519.10	34979.31
519.27	35360.81
519.45	35613.59
519.62	35732.96
519.79	35735.30
519.96	35714.23
520.14	35761.05
520.31	35548.06
520.48	35641.68
520.65	36037.23
520.83	36187.02
521.00	36282.98
521.17	35978.72
521.34	36287.67
521.52	36367.24
521.69	36774.50
521.86	36769.82
522.03	36444.48
522.20	36414.05
522.38	36959.40
522.55	36547.47
522.72	36643.43
522.89	36360.22
523.07	36657.47
523.24	37193.45
523.41	37387.72
523.58	37146.64
523.75	37727.10
523.92	37769.22
524.10	37530.49
524.27	37701.35
524.44	37359.63
524.61	37462.61
524.78	37640.50
524.96	37600.71
525.13	37809.01
525.30	37766.88
525.47	37947.11
525.64	38368.40
525.81	37834.76
525.98	37738.80
526.16	37773.91
526.33	37493.04
526.50	37745.82
526.67	37378.36
526.84	38045.41
527.01	37357.29
527.18	38253.72
527.36	38387.13
527.53	38251.38
527.70	38794.38
527.87	38583.73
528.04	38258.40
528.21	38873.96
528.38	38607.14
528.55	39075.24
528.72	39283.55
528.89	39051.84
529.07	39016.73
529.24	38707.78
529.41	39473.13
529.58	39058.86
529.75	38953.54
529.92	38899.70
530.09	39342.06
530.26	40009.12
530.43	39885.07
530.60	39318.66
530.77	39775.06
530.94	39625.27
531.11	39452.07
531.28	39985.71
531.46	39716.55
531.63	39761.02
531.80	39592.50
531.97	39494.20
532.14	39435.69
532.31	39667.40
532.48	39494.20
532.65	39847.62
532.82	40023.16
532.99	39819.53
533.16	39995.07
533.33	40144.87
533.50	40226.79
533.67	40362.54
533.84	40175.30
534.01	40306.37
534.18	40257.21
534.35	40521.69
534.52	40421.05
534.69	40868.09
534.86	40334.45
535.03	40552.12
535.20	40985.12
535.37	41207.47
535.54	41038.95
535.71	40903.20
535.88	41048.32
536.05	41078.74
536.22	40882.14
536.38	40999.16
536.55	40921.93
536.72	40814.26
536.89	40383.60
537.06	41134.92
537.23	41071.72
537.40	41572.60
537.57	41104.49
537.74	41315.14
537.91	41890.91
538.08	41855.80
538.25	41205.13
538.42	41160.66
538.59	41710.69
538.75	41158.32
538.92	41773.88
539.09	41469.61
539.26	41790.27
539.43	41560.89
539.60	41797.29
539.77	41614.72
539.94	41874.52
540.11	41478.97
540.28	41727.07
540.44	42054.75
540.61	41483.66
540.78	41441.53
540.95	41799.63
541.12	41858.14
541.29	41928.36
541.46	41792.61
541.62	42115.60
541.79	42082.83
541.96	41638.13
542.13	42419.87
542.30	41956.44
542.47	42277.10
542.63	42150.71
542.80	42480.72
542.97	42588.39
543.14	42735.84
543.31	42721.80
543.48	43009.68
543.64	43164.16
543.81	43290.55
543.98	43613.54
544.15	43079.90
544.32	43115.01
544.48	43566.73
544.65	43269.48
544.82	43199.27
544.99	42866.91
545.16	43002.66
545.32	42913.72
545.49	43798.44
545.66	43524.60
545.83	43704.82
546.00	43889.73
546.16	43484.81
546.33	43346.72
546.50	43042.45
546.67	43835.89
546.83	43110.33
547.00	43269.48
547.17	43220.33
547.34	43468.43
547.50	43423.96
547.67	43859.30
547.84	43302.25
548.00	44147.18
548.17	43798.44
548.34	44098.03
548.51	43885.04
548.67	44399.96
548.84	44009.09
549.01	44119.10
549.18	43985.69
549.34	43920.15
549.51	44165.91
549.68	44320.38
549.84	44285.28
550.01	44285.28
550.18	44233.78
550.34	44514.65
550.51	44484.22
550.68	44194.00
550.84	43899.09
551.01	44549.76
551.18	44304.00
551.34	44575.50
551.51	44313.36
551.68	44364.85
551.84	44767.43
552.01	44327.41
552.18	44294.64
552.34	44275.91
552.51	44451.45
552.68	44559.12
552.84	44767.43
553.01	44687.85
553.18	44240.81
553.34	44346.13
553.51	44739.34
553.67	44802.53
553.84	45027.23
554.01	45177.02
554.17	44872.75
554.34	44851.69
554.51	44882.11
554.67	44816.58
554.84	44797.85
555.00	44912.54
555.17	44563.80
555.33	45399.37
555.50	45139.57
555.67	45092.76
555.83	44725.30
556.00	44968.71
556.16	45549.17
556.33	44729.98
556.50	44671.46
556.66	44893.82
556.83	44746.36
556.99	45478.95
557.16	45256.60
557.32	44903.18
557.49	45769.18
557.65	45415.76
557.82	45542.14
557.98	45446.18
558.15	45137.23
558.32	45120.85
558.48	45291.71
558.65	45338.52
558.81	44903.18
558.98	45291.71
559.14	45202.77
559.31	45092.76
559.47	45345.54
559.64	45549.17
559.80	45439.16
559.97	45467.25
560.13	44921.90
560.30	45422.78
560.46	45832.37
560.63	45291.71
560.79	45588.95
560.96	46005.57
561.12	45804.28
561.29	44870.41
561.45	45827.69
561.61	45830.03
561.78	45364.26
561.94	45570.23
562.11	45050.63
562.27	45642.79
562.44	45701.30
562.60	45902.59
562.77	45785.56
562.93	45249.58
563.10	46033.66
563.26	45605.34
563.42	45947.06
563.59	45453.20
563.75	45680.24
563.92	46230.26
564.08	45909.61
564.24	46169.41
564.41	46026.63
564.57	45911.95
564.74	45399.37
564.90	45855.78
565.07	45998.55
565.23	45558.53
565.39	45918.97
565.56	46017.27
565.72	45724.71
565.88	45790.24
566.05	45469.59
566.21	46160.05
566.38	45783.22
566.54	45703.64
566.70	46333.24
566.87	46244.30
567.03	45949.40
567.19	46153.02
567.36	46087.49
567.52	45972.80
567.68	46138.98
567.85	45556.19
568.01	46263.03
568.17	45794.92
568.34	46342.61
568.50	46068.76
568.66	45748.11
568.83	46096.85
568.99	45958.76
569.15	45982.16
569.32	45790.24
569.48	46169.41
569.64	46052.38
569.81	46078.13
569.97	46153.02
570.13	46162.39
570.30	45942.38
570.46	45619.38
570.62	45560.87
570.78	45579.59
570.95	45713.00
571.11	45897.91
571.27	45734.07
571.43	46162.39
571.60	45790.24
571.76	46169.41
571.92	45815.99
572.09	46036.00
572.25	46335.59
572.41	46571.98
572.57	46103.87
572.74	46902.00
572.90	46387.08
573.06	46522.83
573.22	46581.34
573.38	46211.54
573.55	45563.21
573.71	46445.59
573.87	46300.48
574.03	45918.97
574.20	46649.22
574.36	46204.52
574.52	46209.20
574.68	46270.05
574.84	46337.93
575.01	45773.86
575.17	46171.75
575.33	45661.51
575.49	46143.66
575.65	46295.80
575.82	46281.75
575.98	45610.02
576.14	46630.49
576.30	46267.71
576.46	46183.45
576.62	46202.18
576.79	46176.43
576.95	46162.39
577.11	46476.02
577.27	46422.19
577.43	45911.95
577.59	46192.81
577.75	45904.93
577.92	45996.21
578.08	46073.45
578.24	45872.16
578.40	46408.14
578.56	46260.69
578.72	46244.30
578.88	46541.55
579.04	46298.14
579.21	46012.59
579.37	45841.73
579.53	46176.43
579.69	46330.90
579.85	46438.57
580.01	46234.94
580.17	45907.27
580.33	46581.34
580.49	46560.28
580.65	46092.17
580.82	46089.83
580.98	46513.47
581.14	46499.42
581.30	46497.08
581.46	46227.92
581.62	46206.86
581.78	46279.41
581.94	47019.02
582.10	46738.16
582.26	46389.42
582.42	46763.90
582.58	46366.01
582.74	46492.40
582.90	46506.44
583.06	46721.77
583.22	46263.03
583.38	46817.74
583.54	46962.85
583.70	46333.24
583.86	46518.15
584.02	46454.95
584.18	46323.88
584.34	46550.91
584.50	46478.36
584.66	46239.62
584.82	46450.27
584.98	46354.31
585.14	46314.52
585.30	46277.07
585.46	46274.73
585.62	46040.68
585.78	46075.79
585.94	46389.42
586.10	45986.85
586.26	46040.68
586.42	46674.96
586.58	46469.00
586.74	46220.90
586.90	46054.72
587.06	46192.81
587.22	46443.25
587.38	46436.23
587.54	46461.97
587.70	46445.59
587.86	46146.00
588.02	46096.85
588.18	46387.08
588.34	46110.89
588.49	45628.74
588.65	46021.95
588.81	45848.75
588.97	46506.44
589.13	45708.32
589.29	45909.61
589.45	45823.01
589.61	46050.04
589.77	46452.61
589.93	46316.86
