SpectraSuite Data File
++++++++++++++++++++++++++++++++++++
Date: Fri Oct 25 10:44:49 EDT 2013
User: price-jones
Dark Spectrum Present: No
Reference Spectrum Present: No
Number of Sampled Component Spectra: 1
Spectrometers: USB2+H05261
Integration Time (usec): 100000 (USB2+H05261)
Spectra Averaged: 1 (USB2+H05261)
Boxcar Smoothing: 0 (USB2+H05261)
Correct for Electrical Dark: No (USB2+H05261)
Strobe/Lamp Enabled: No (USB2+H05261)
Correct for Detector Non-linearity: No (USB2+H05261)
Correct for Stray Light: No (USB2+H05261)
Number of Pixels in Processed Spectrum: 2048
>>>>>Begin Processed Spectral Data<<<<<
365.73	81.92
365.92	81.92
366.12	81.92
366.32	0.00
366.52	2.34
366.72	56.17
366.91	37.45
367.11	4.68
367.31	0.00
367.51	9.36
367.70	58.51
367.90	23.41
368.10	0.00
368.30	95.96
368.49	51.49
368.69	67.88
368.89	0.00
369.09	0.00
369.28	14.04
369.48	37.45
369.68	91.28
369.87	79.58
370.07	140.43
370.27	117.03
370.47	180.22
370.66	430.66
370.86	404.91
371.06	416.62
371.25	543.00
371.45	369.80
371.65	379.17
371.84	383.85
372.04	386.19
372.24	407.25
372.44	484.49
372.63	519.60
372.83	491.51
373.03	470.45
373.22	437.68
373.42	454.06
373.62	475.13
373.81	482.15
374.01	521.94
374.21	592.16
374.40	531.30
374.60	566.41
374.79	430.66
374.99	514.92
375.19	601.52
375.38	535.98
375.58	491.51
375.78	575.77
375.97	578.11
376.17	627.26
376.37	575.77
376.56	580.45
376.76	594.50
376.95	613.22
377.15	585.13
377.35	554.71
377.54	622.58
377.74	564.07
377.93	648.33
378.13	568.75
378.33	606.20
378.52	603.86
378.72	617.90
378.91	617.90
379.11	634.29
379.31	615.56
379.50	566.41
379.70	613.22
379.89	713.86
380.09	664.71
380.28	678.76
380.48	634.29
380.68	648.33
380.87	627.26
381.07	681.10
381.26	688.12
381.46	706.84
381.65	688.12
381.85	608.54
382.04	676.41
382.24	716.20
382.43	692.80
382.63	702.16
382.83	653.01
383.02	699.82
383.22	713.86
383.41	564.07
383.61	643.65
383.80	667.05
384.00	660.03
384.19	753.65
384.39	711.52
384.58	734.93
384.78	758.33
384.97	788.76
385.17	755.99
385.36	765.36
385.56	748.97
385.75	732.59
385.95	720.88
386.14	814.51
386.34	786.42
386.53	774.72
386.72	781.74
386.92	791.10
387.11	725.57
387.31	812.17
387.50	791.10
387.70	753.65
387.89	812.17
388.09	875.36
388.28	814.51
388.48	889.40
388.67	887.06
388.86	840.25
389.06	833.23
389.25	873.02
389.45	884.72
389.64	917.49
389.84	910.47
390.03	922.17
390.22	978.34
390.42	877.70
390.61	938.55
390.81	961.96
391.00	947.92
391.19	882.38
391.39	891.74
391.58	1001.75
391.78	1013.45
391.97	1036.86
392.16	847.27
392.36	994.73
392.55	947.92
392.75	954.94
392.94	903.45
393.13	947.92
393.33	983.02
393.52	973.66
393.71	1020.47
393.91	1004.09
394.10	1036.86
394.29	1039.20
394.49	1013.45
394.68	1039.20
394.88	1078.99
395.07	1074.31
395.26	1109.41
395.46	1121.12
395.65	1146.86
395.84	1053.24
396.04	1158.57
396.23	1086.01
396.42	1104.73
396.62	1163.25
396.81	1053.24
397.00	994.73
397.19	1160.91
397.39	1186.65
397.58	1240.48
397.77	1224.10
397.97	1231.12
398.16	1193.67
398.35	1299.00
398.55	1287.29
398.74	1376.24
398.93	1320.06
399.12	1289.64
399.32	1329.42
399.51	1254.53
399.70	1413.68
399.90	1348.15
400.09	1320.06
400.28	1441.77
400.47	1439.43
400.67	1540.07
400.86	1376.24
401.05	1362.19
401.24	1537.73
401.44	1504.96
401.63	1474.54
401.82	1502.62
402.01	1444.11
402.21	1540.07
402.40	1549.43
402.59	1504.96
402.78	1556.46
402.97	1577.52
403.17	1507.30
403.36	1598.59
403.55	1535.39
403.74	1624.33
403.93	1750.72
404.13	1645.40
404.32	1624.33
404.51	1645.40
404.70	1636.03
404.89	1668.80
405.09	1748.38
405.28	1813.92
405.47	1764.76
405.66	1743.70
405.85	1734.34
406.05	1846.68
406.24	1788.17
406.43	1746.04
406.62	1881.79
406.81	1881.79
407.00	1881.79
407.20	1769.44
407.39	1827.96
407.58	1912.22
407.77	1977.75
407.96	2038.61
408.15	1956.69
408.34	1994.14
408.54	2059.67
408.73	1996.48
408.92	2005.84
409.11	2033.93
409.30	2031.58
409.49	2111.16
409.68	1884.13
409.87	2076.06
410.07	1975.41
410.26	2043.29
410.45	2120.53
410.64	2083.08
410.83	2258.62
411.02	2310.11
411.21	2324.15
411.40	2218.83
411.59	2363.94
411.78	2228.19
411.98	2310.11
412.17	2422.45
412.36	2317.13
412.55	2286.70
412.74	2438.84
412.93	2471.61
413.12	2394.37
413.31	2600.34
413.50	2534.80
413.69	2485.65
413.88	2626.08
414.07	2562.89
414.26	2600.34
414.45	2689.28
414.64	2658.85
414.83	2815.66
415.02	2630.76
415.22	2740.77
415.41	2846.09
415.60	2836.73
415.79	2818.00
415.98	2857.79
416.17	2899.92
416.36	2888.22
416.55	2853.11
416.74	2960.78
416.93	2993.55
417.12	2970.14
417.31	3007.59
417.50	3023.97
417.69	3091.85
417.88	3080.14
418.07	3061.42
418.26	3185.47
418.45	3112.91
418.64	3131.64
418.83	3084.83
419.02	3178.45
419.21	3328.24
419.39	3215.90
419.58	3199.51
419.77	3152.70
419.96	3290.79
420.15	3276.75
420.34	3358.67
420.53	3386.76
420.72	3325.90
420.91	3426.54
421.10	3325.90
421.29	3438.25
421.48	3468.67
421.67	3468.67
421.86	3478.04
422.05	3328.24
422.24	3248.66
422.43	3410.16
422.61	3449.95
422.80	3508.46
422.99	3403.14
423.18	3517.83
423.37	3571.66
423.56	3510.80
423.75	3590.38
423.94	3534.21
424.13	3232.28
424.32	3283.77
424.50	3463.99
424.69	3595.06
424.88	3585.70
425.07	3508.46
425.26	3529.53
425.45	3382.07
425.64	3590.38
425.83	3485.06
426.01	3566.98
426.20	3531.87
426.39	3522.51
426.58	3634.85
426.77	3471.01
426.96	3599.74
427.15	3562.30
427.33	3646.55
427.52	3660.60
427.71	3641.87
427.90	3693.37
428.09	3801.03
428.28	3751.88
428.46	3770.60
428.65	3716.77
428.84	3801.03
429.03	3866.56
429.22	3861.88
429.40	3730.81
429.59	3716.77
429.78	3609.11
429.97	3660.60
430.16	3723.79
430.34	3864.22
430.53	3817.41
430.72	3934.44
430.91	3873.59
431.10	3749.54
431.28	4084.23
431.47	4058.49
431.66	4241.05
431.85	4210.62
432.03	4124.02
432.22	4287.86
432.41	4234.03
432.60	4135.73
432.79	4243.39
432.97	4360.42
433.16	4269.14
433.35	4147.43
433.54	4346.37
433.72	4337.01
433.91	4348.72
434.10	4276.16
434.28	4259.78
434.47	4367.44
434.66	4402.55
434.85	4634.26
435.03	4369.78
435.22	4386.16
435.41	4470.42
435.59	4526.60
435.78	4507.87
435.97	4432.97
436.16	4608.51
436.34	4650.64
436.53	4592.13
436.72	4751.29
436.90	4622.56
437.09	4606.17
437.28	4535.96
437.46	4624.90
437.65	4802.78
437.84	4753.63
438.02	4674.05
438.21	4664.69
438.40	4636.60
438.58	4786.40
438.77	4985.34
438.96	5018.11
439.14	4877.68
439.33	5060.24
439.52	5135.14
439.70	5172.58
439.89	5210.03
440.08	5254.50
440.26	5254.50
440.45	5170.24
440.63	5219.39
440.82	5345.78
441.01	5317.70
441.19	5533.03
441.38	5434.72
441.57	5425.36
441.75	5486.22
441.94	5479.19
442.12	5640.69
442.31	5696.86
442.50	5741.33
442.68	5486.22
442.87	5841.98
443.05	5998.79
443.24	5809.21
443.43	5825.59
443.61	5830.27
443.80	5944.96
443.98	5619.63
444.17	5481.53
444.35	5717.93
444.54	5909.85
444.73	5818.57
444.91	5710.91
445.10	5839.64
445.28	5797.51
445.47	5820.91
445.65	5825.59
445.84	5874.74
446.02	5872.40
446.21	5851.34
446.39	5886.45
446.58	5820.91
446.77	5900.49
446.95	5959.00
447.14	6052.63
447.32	6136.88
447.51	5956.66
447.69	5968.37
447.88	5959.00
448.06	5919.21
448.25	6029.22
448.43	6179.01
448.62	6092.41
448.80	6026.88
448.99	6024.54
449.17	6244.55
449.36	6078.37
449.54	6141.57
449.73	6171.99
449.91	6452.86
450.10	6478.60
450.28	6429.45
450.46	6265.61
450.65	6356.90
450.83	6502.01
451.02	6230.51
451.20	6380.30
451.39	6525.41
451.57	6478.60
451.76	6326.47
451.94	6422.43
452.13	6518.39
452.31	6546.48
452.49	6473.92
452.68	6562.86
452.86	6509.03
453.05	6532.44
453.23	6567.54
453.42	6644.78
453.60	6642.44
453.78	6698.61
453.97	6469.24
454.15	6609.67
454.34	6630.74
454.52	6754.79
454.70	6810.96
454.89	7028.63
455.07	6839.05
455.26	6773.51
455.44	6787.55
455.62	7035.65
455.81	6789.89
455.99	7040.33
456.17	7119.91
456.36	6942.03
456.54	7073.10
456.73	7105.87
456.91	7311.83
457.09	7342.26
457.28	7396.09
457.46	7052.03
457.64	7272.04
457.83	7197.15
458.01	7119.91
458.19	7461.63
458.38	7480.35
458.56	7674.62
458.74	7258.00
458.93	7602.06
459.11	7452.27
459.29	7564.61
459.48	7489.71
459.66	7428.86
459.84	7667.60
460.03	7730.79
460.21	7562.27
460.39	7833.77
460.57	7768.24
460.76	7700.36
460.94	7702.70
461.12	7936.76
461.31	7751.85
461.49	7772.92
461.67	7845.48
461.85	7992.93
462.04	7826.75
462.22	8112.30
462.40	8049.10
462.59	8081.87
462.77	8156.77
462.95	8013.99
463.13	7903.99
463.32	8114.64
463.50	8243.37
463.68	8273.79
463.86	8299.54
464.05	8035.06
464.23	8128.68
464.41	8187.19
464.59	8006.97
464.78	8383.80
464.96	8257.41
465.14	8126.34
465.32	8273.79
465.50	8400.18
465.69	8491.46
465.87	8507.85
466.05	8423.59
466.23	8210.60
466.41	8255.07
466.60	8465.72
466.78	8245.71
466.96	8634.24
467.14	8531.25
467.32	8428.27
467.51	8482.10
467.69	8463.38
467.87	8454.02
468.05	8671.68
468.23	8545.30
468.41	8486.78
468.60	8561.68
468.78	8788.71
468.96	8601.47
469.14	8711.47
469.32	8826.16
469.50	8622.53
469.69	8798.07
469.87	8929.14
470.05	9130.43
470.23	8980.64
470.41	8882.33
470.59	9205.33
470.77	9102.34
470.95	9172.56
471.14	9259.16
471.32	8915.10
471.50	9336.40
471.68	9259.16
471.86	9235.75
472.04	9444.06
472.22	9640.67
472.40	9359.80
472.58	9256.82
472.77	9479.17
472.95	9568.11
473.13	9851.31
473.31	9467.47
473.49	9547.05
473.67	9537.68
473.85	9827.91
474.03	10022.17
474.21	9846.63
474.39	9994.09
474.57	10129.84
474.75	9991.75
474.93	10289.00
475.12	10047.92
475.30	10186.01
475.48	10171.97
475.66	10270.27
475.84	10097.07
476.02	10246.87
476.20	10546.45
476.38	10480.92
476.56	11054.35
476.74	10626.03
476.92	10771.15
477.10	10909.24
477.28	10977.11
477.46	10965.41
477.64	10862.43
477.82	11145.63
478.00	11370.32
478.18	11489.69
478.36	11482.67
478.54	11335.21
478.72	11580.97
478.90	11723.74
479.08	11948.43
479.26	11964.82
479.44	11985.88
479.62	12032.69
479.80	11918.01
479.98	12149.72
480.16	12496.12
480.34	12381.43
480.52	12521.87
480.70	12631.87
480.88	12325.26
481.06	12638.89
481.24	12601.44
481.41	12952.52
481.59	13034.44
481.77	12971.25
481.95	13130.41
482.13	13200.62
482.31	13324.67
482.49	13654.69
482.67	13554.04
482.85	13738.94
483.03	13757.67
483.21	13928.53
483.39	14139.18
483.57	14087.68
483.74	14359.19
483.92	14274.93
484.10	14260.88
484.28	14539.41
484.46	14778.14
484.64	15035.60
484.82	14630.69
485.00	14689.20
485.18	15173.69
485.35	15332.85
485.53	15119.86
485.71	15279.02
485.89	15328.17
486.07	15232.21
486.25	15414.77
486.43	15496.69
486.61	15634.78
486.78	16215.23
486.96	15903.94
487.14	16116.93
487.32	16147.36
487.50	16547.59
487.68	16734.83
487.85	16964.20
488.03	16938.46
488.21	17214.64
488.39	17053.14
488.57	17319.96
488.75	17102.29
488.92	17315.28
489.10	17729.56
489.28	17839.56
489.46	17996.38
489.64	17907.44
489.81	18396.61
489.99	18497.25
490.17	18396.61
490.35	18600.24
490.53	18501.93
490.70	18607.26
490.88	18588.53
491.06	19077.71
491.24	18970.04
491.41	18895.14
491.59	19145.58
491.77	19489.64
491.95	19634.75
492.13	19700.29
492.30	19948.39
492.48	19936.68
492.66	20121.59
492.84	19887.53
493.01	20201.16
493.19	20002.22
493.37	20238.61
493.54	20533.52
493.72	20849.49
493.90	20545.22
494.08	21088.23
494.25	21294.19
494.43	21493.14
494.61	21479.10
494.79	21296.53
494.96	21549.31
495.14	21610.17
495.32	21769.32
495.49	21729.53
495.67	21717.83
495.85	22153.17
496.02	22441.06
496.20	22614.26
496.38	22272.54
496.55	22757.03
496.73	23014.49
496.91	22635.32
497.09	22937.25
497.26	22745.33
497.44	23005.13
497.62	23285.99
497.79	23349.18
497.97	23447.49
498.14	23248.54
498.32	23676.86
498.50	23473.23
498.67	23796.23
498.85	23812.61
499.03	23997.51
499.20	24049.00
499.38	24266.67
499.56	24584.99
499.73	24388.38
499.91	24505.41
500.08	24837.76
500.26	24261.99
500.44	24594.35
500.61	24545.20
500.79	24751.17
500.97	24826.06
501.14	25209.91
501.32	25235.66
501.49	25076.50
501.67	25193.53
501.84	25675.68
502.02	25565.67
502.20	25820.79
502.37	26043.14
502.55	26019.74
502.72	25577.37
502.90	26115.70
503.07	25820.79
503.25	26188.25
503.43	25865.26
503.60	26036.12
503.78	26288.90
503.95	26235.06
504.13	26251.45
504.30	26731.26
504.48	26450.39
504.65	26808.50
504.83	26593.17
505.01	27304.69
505.18	27285.97
505.36	27150.21
505.53	26984.04
505.71	27564.49
505.88	27735.35
506.06	27044.89
506.23	27398.31
506.41	27660.45
506.58	27807.90
506.76	27868.76
506.93	27871.10
507.11	27559.81
507.28	27777.48
507.46	27742.37
507.63	28407.08
507.81	28048.98
507.98	27964.72
508.16	28034.94
508.33	28086.43
508.50	28739.44
508.68	28631.77
508.85	29046.05
509.03	28926.68
509.20	28804.97
509.38	28713.69
509.55	29069.45
509.73	29312.87
509.90	28975.83
510.08	29500.11
510.25	29366.70
510.42	29401.81
510.60	29345.64
510.77	29734.17
510.95	29841.83
511.12	29429.90
511.30	30176.53
511.47	30022.05
511.64	30277.17
511.82	30441.01
511.99	30160.14
512.17	29977.58
512.34	30352.07
512.51	30246.74
512.69	30525.27
512.86	30637.61
513.04	30422.28
513.21	30693.79
513.38	30536.97
513.56	30691.44
513.73	30445.69
513.90	30614.21
514.08	30349.73
514.25	30827.20
514.43	31077.63
514.60	31098.70
514.77	30946.56
514.95	31630.00
515.12	31009.76
515.29	31346.79
515.47	31941.29
515.64	31854.69
515.81	31391.26
515.99	31218.07
516.16	31938.95
516.33	31786.82
516.51	31922.57
516.68	31421.69
516.85	31814.90
517.03	31770.43
517.20	31901.50
517.37	32217.47
517.54	32402.38
517.72	32313.44
517.89	32168.32
518.06	31990.44
518.24	32196.41
518.41	32364.93
518.58	32397.70
518.75	32048.96
518.93	32919.63
519.10	32474.93
519.27	32809.63
519.45	32938.36
519.62	33090.49
519.79	33099.86
519.96	33343.27
520.14	33493.07
520.31	33284.76
520.48	33436.89
520.65	33090.49
520.83	33813.72
521.00	33881.60
521.17	33560.94
521.34	34019.69
521.52	33525.83
521.69	33570.30
521.86	34169.48
522.03	33855.85
522.20	34235.02
522.38	34515.88
522.55	34220.97
522.72	34541.63
522.89	34087.56
523.07	34511.20
523.24	34150.76
523.41	34607.16
523.58	34815.47
523.75	35065.91
523.92	35218.04
524.10	34672.70
524.27	35105.70
524.44	34993.35
524.61	35648.70
524.78	34988.67
524.96	34932.50
525.13	35695.51
525.30	35419.33
525.47	35538.69
525.64	35739.98
525.81	35082.29
525.98	35473.16
526.16	35157.19
526.33	35405.28
526.50	35950.63
526.67	35283.58
526.84	35487.20
527.01	35744.66
527.18	35367.84
527.36	36224.47
527.53	36048.93
527.70	36180.00
527.87	36245.54
528.04	36203.41
528.21	36205.75
528.38	36329.80
528.55	36624.70
528.72	36491.29
528.89	36479.59
529.07	36718.32
529.24	36037.23
529.41	36673.85
529.58	36512.36
529.75	36479.59
529.92	36678.54
530.09	37221.54
530.26	37104.51
530.43	36790.88
530.60	36903.23
530.77	36849.39
530.94	37148.98
531.11	37099.83
531.28	37390.06
531.46	37406.44
531.63	37146.64
531.80	37425.17
531.97	37380.70
532.14	37352.61
532.31	37425.17
532.48	37392.40
532.65	37507.08
532.82	37717.73
532.99	37923.70
533.16	37511.77
533.33	37820.72
533.50	38113.28
533.67	38068.81
533.84	37614.75
534.01	38082.86
534.18	37921.36
534.35	37787.95
534.52	37682.62
534.69	37797.31
534.86	38192.86
535.03	38115.62
535.20	38630.54
535.37	38124.99
535.54	38817.78
535.71	38253.72
535.88	38672.67
536.05	38775.66
536.22	38808.42
536.38	38693.74
536.55	38422.23
536.72	38312.23
536.89	38176.48
537.06	38670.33
537.23	38653.95
537.40	38766.29
537.57	38946.51
537.74	39461.43
537.91	39192.27
538.08	39058.86
538.25	38869.28
538.42	38834.17
538.59	39100.99
538.75	39056.52
538.92	39143.12
539.09	39360.79
539.26	39414.62
539.43	39386.54
539.60	39168.87
539.77	39414.62
539.94	39292.91
540.11	39358.45
540.28	39908.47
540.44	39487.18
540.61	39629.95
540.78	39732.93
540.95	39814.85
541.12	39370.15
541.29	39421.64
541.46	39201.63
541.62	39580.80
541.79	39812.51
541.96	39566.76
542.13	39414.62
542.30	39931.88
542.47	40336.79
542.63	39693.15
542.80	39810.17
542.97	40493.61
543.14	40598.93
543.31	40187.00
543.48	40275.94
543.64	40896.18
543.81	41193.43
543.98	40772.13
544.15	40486.59
544.32	40624.68
544.48	41045.97
544.65	40809.58
544.82	40940.65
544.99	40612.98
545.16	40928.95
545.32	41078.74
545.49	41270.67
545.66	41132.57
545.83	41207.47
546.00	41038.95
546.16	40982.78
546.33	40676.17
546.50	40582.55
546.67	41027.25
546.83	40994.48
547.00	41317.48
547.17	41296.41
547.34	41280.03
547.50	41670.90
547.67	41427.48
547.84	41514.08
548.00	41804.31
548.17	41926.02
548.34	41523.44
548.51	41694.30
548.67	41729.41
548.84	41977.51
549.01	41581.96
549.18	41614.72
549.34	41567.91
549.51	41942.40
549.68	41631.11
549.84	42337.95
550.01	42153.05
550.18	42045.38
550.34	41614.72
550.51	42218.58
550.68	42146.03
550.84	41865.16
551.01	41865.16
551.18	42218.58
551.34	41841.76
551.51	42089.85
551.68	42305.18
551.84	42047.72
552.01	42204.54
552.18	41832.39
552.34	42267.73
552.51	42333.27
552.68	42230.29
552.84	42653.92
553.01	42342.63
553.18	42642.22
553.34	42766.27
553.51	42625.84
553.67	42447.96
553.84	42653.92
554.01	42469.02
554.17	42768.61
554.34	42684.35
554.51	42665.63
554.67	42951.17
554.84	42440.93
555.00	42602.43
555.17	42440.93
555.33	42777.97
555.50	42651.58
555.67	42579.03
555.83	42569.66
556.00	43166.50
556.16	43386.51
556.33	42756.91
556.50	43009.68
556.66	42941.81
556.83	42677.33
556.99	43159.48
557.16	43758.66
557.32	43358.42
557.49	43115.01
557.65	43278.85
557.82	42862.23
557.98	43267.14
558.15	43426.30
558.32	43302.25
558.48	43091.60
558.65	43098.62
558.81	42993.30
558.98	43239.06
559.14	43019.05
559.31	43379.49
559.47	43545.67
559.64	43749.29
559.80	43709.50
559.97	44098.03
560.13	43384.17
560.30	43505.88
560.46	43445.02
560.63	43679.08
560.79	43646.31
560.96	43831.21
561.12	43753.97
561.29	43641.63
561.45	43622.90
561.61	43536.30
561.78	43246.08
561.94	43416.94
562.11	43583.12
562.27	43234.38
562.44	43566.73
562.60	43796.10
562.77	43615.88
562.93	43138.41
563.10	43636.95
563.26	43636.95
563.42	43924.83
563.59	43548.01
563.75	43833.55
563.92	43742.27
564.08	43714.19
564.24	43847.60
564.41	43739.93
564.57	43658.01
564.74	43634.61
564.90	44296.98
565.07	44030.16
565.23	44170.59
565.39	43503.54
565.56	43817.17
565.72	44179.95
565.88	43650.99
566.05	43892.07
566.21	43887.39
566.38	43861.64
566.54	43861.64
566.70	43913.13
566.87	44648.06
567.03	44184.63
567.19	44605.93
567.36	43924.83
567.52	44280.60
567.68	44058.24
567.85	43859.30
568.01	44161.23
568.17	44231.44
568.34	44032.50
568.50	43882.70
568.66	44018.46
568.83	43955.26
568.99	44100.37
569.15	44128.46
569.32	44046.54
569.48	43775.04
569.64	44357.83
569.81	44341.45
569.97	44280.60
570.13	44465.50
570.30	43679.08
570.46	44114.42
570.62	44296.98
570.78	43761.00
570.95	43981.01
571.11	44334.43
571.27	43863.98
571.43	44194.00
571.60	44285.28
571.76	44418.69
571.92	44079.31
572.09	44158.89
572.25	44013.77
572.41	43915.47
572.57	44465.50
572.74	44425.71
572.90	44224.42
573.06	44531.03
573.22	43894.41
573.38	44329.75
573.55	44123.78
573.71	44222.08
573.87	44458.48
574.03	44493.58
574.20	44526.35
574.36	44362.51
574.52	44751.04
574.68	44708.91
574.84	44280.60
575.01	44243.15
575.17	44563.80
575.33	44521.67
575.49	44121.44
575.65	44484.22
575.82	44533.37
575.98	44332.09
576.14	44470.18
576.30	44715.93
576.46	44198.68
576.62	44385.92
576.79	44383.58
576.95	43988.03
577.11	44231.44
577.27	44315.70
577.43	44217.40
577.59	44521.67
577.75	44416.35
577.92	44404.64
578.08	44119.10
578.24	44203.36
578.40	44158.89
578.56	44463.16
578.72	44287.62
578.88	44540.39
579.04	44802.53
579.21	44842.32
579.37	44570.82
579.53	44680.83
579.69	44271.23
579.85	44533.37
580.01	44301.66
580.17	44465.50
580.33	44694.87
580.49	44811.90
580.65	44788.49
580.82	44907.86
580.98	44781.47
581.14	44205.70
581.30	44673.81
581.46	44837.64
581.62	44406.98
581.78	44636.36
581.94	44980.42
582.10	44215.06
582.26	44285.28
582.42	44311.02
582.58	44435.07
582.74	44442.09
582.90	44638.70
583.06	44797.85
583.22	44561.46
583.38	44882.11
583.54	44463.16
583.70	44493.58
583.86	44589.55
584.02	44121.44
584.18	44687.85
584.34	44238.47
584.50	44685.51
584.66	44154.21
584.82	44547.42
584.98	44573.16
585.14	45127.87
585.30	44605.93
585.46	44645.72
585.62	44175.27
585.78	44346.13
585.94	44208.04
586.10	44676.15
586.26	44673.81
586.42	44573.16
586.58	45233.19
586.74	44505.29
586.90	44198.68
587.06	44589.55
587.22	44704.23
587.38	44294.64
587.54	44711.25
587.70	44921.90
587.86	44315.70
588.02	44863.39
588.18	44362.51
588.34	44643.38
588.49	44027.82
588.65	44161.23
588.81	44329.75
588.97	44285.28
589.13	44554.44
589.29	44381.24
589.45	44779.13
589.61	44903.18
589.77	44626.99
589.93	44671.46
590.08	44851.69
590.24	44924.24
590.40	45092.76
