SpectraSuite Data File
++++++++++++++++++++++++++++++++++++
Date: Fri Oct 25 10:48:20 EDT 2013
User: price-jones
Dark Spectrum Present: No
Reference Spectrum Present: No
Number of Sampled Component Spectra: 1
Spectrometers: USB2+H05261
Integration Time (usec): 100000 (USB2+H05261)
Spectra Averaged: 1 (USB2+H05261)
Boxcar Smoothing: 0 (USB2+H05261)
Correct for Electrical Dark: No (USB2+H05261)
Strobe/Lamp Enabled: No (USB2+H05261)
Correct for Detector Non-linearity: No (USB2+H05261)
Correct for Stray Light: No (USB2+H05261)
Number of Pixels in Processed Spectrum: 2048
>>>>>Begin Processed Spectral Data<<<<<
365.73	107.66
365.92	107.66
366.12	107.66
366.32	51.49
366.52	74.90
366.72	65.54
366.91	60.85
367.11	0.00
367.31	81.92
367.51	35.11
367.70	51.49
367.90	4.68
368.10	0.00
368.30	44.47
368.49	25.75
368.69	121.71
368.89	16.38
369.09	28.09
369.28	81.92
369.48	44.47
369.68	44.47
369.87	112.35
370.07	77.24
370.27	154.48
370.47	110.01
370.66	414.27
370.86	477.47
371.06	505.56
371.25	554.71
371.45	526.62
371.65	456.40
371.84	451.72
372.04	468.11
372.24	559.39
372.44	538.32
372.63	585.13
372.83	575.77
373.03	573.43
373.22	507.90
373.42	531.30
373.62	554.71
373.81	620.24
374.01	564.07
374.21	603.86
374.40	557.05
374.60	627.26
374.79	573.43
374.99	624.92
375.19	629.60
375.38	606.20
375.58	606.20
375.78	636.63
375.97	566.41
376.17	650.67
376.37	718.54
376.56	662.37
376.76	638.97
376.95	683.44
377.15	638.97
377.35	620.24
377.54	636.63
377.74	676.41
377.93	734.93
378.13	781.74
378.33	702.16
378.52	660.03
378.72	660.03
378.91	755.99
379.11	622.58
379.31	704.50
379.50	713.86
379.70	744.29
379.89	706.84
380.09	706.84
380.28	772.38
380.48	763.01
380.68	739.61
380.87	730.25
381.07	706.84
381.26	802.80
381.46	739.61
381.65	823.87
381.85	664.71
382.04	751.31
382.24	699.82
382.43	648.33
382.63	835.57
382.83	711.52
383.02	863.66
383.22	812.17
383.41	755.99
383.61	727.91
383.80	819.19
384.00	842.59
384.19	873.02
384.39	861.32
384.58	875.36
384.78	858.98
384.97	889.40
385.17	847.27
385.36	770.04
385.56	837.91
385.75	802.80
385.95	863.66
386.14	884.72
386.34	875.36
386.53	924.51
386.72	915.15
386.92	945.58
387.11	847.27
387.31	926.85
387.50	840.25
387.70	891.74
387.89	929.19
388.09	1029.84
388.28	917.49
388.48	976.00
388.67	966.64
388.86	1039.20
389.06	908.13
389.25	968.98
389.45	1050.90
389.64	1118.78
389.84	978.34
390.03	1060.26
390.22	1020.47
390.42	1020.47
390.61	1001.75
390.81	1086.01
391.00	1132.82
391.19	1130.48
391.39	1207.72
391.58	1086.01
391.78	1125.80
391.97	1071.97
392.16	1078.99
392.36	1125.80
392.55	1043.88
392.75	1093.03
392.94	1029.84
393.13	1097.71
393.33	1039.20
393.52	1170.27
393.71	1242.82
393.91	1177.29
394.10	1153.88
394.29	1081.33
394.49	1193.67
394.68	1217.08
394.88	1228.78
395.07	1259.21
395.26	1226.44
395.46	1266.23
395.65	1348.15
395.84	1210.06
396.04	1252.19
396.23	1247.51
396.42	1226.44
396.62	1299.00
396.81	1320.06
397.00	1259.21
397.19	1299.00
397.39	1275.59
397.58	1448.79
397.77	1467.52
397.97	1493.26
398.16	1458.15
398.35	1507.30
398.55	1561.14
398.74	1600.93
398.93	1600.93
399.12	1469.86
399.32	1614.97
399.51	1638.38
399.70	1717.95
399.90	1526.03
400.09	1619.65
400.28	1600.93
400.47	1678.16
400.67	1650.08
400.86	1689.87
401.05	1696.89
401.24	1809.23
401.44	1746.04
401.63	1778.81
401.82	1832.64
402.01	1809.23
402.21	1893.49
402.40	1771.79
402.59	1804.55
402.78	1858.39
402.97	1788.17
403.17	1987.11
403.36	1980.09
403.55	1959.03
403.74	1923.92
403.93	2073.71
404.13	1895.83
404.32	2005.84
404.51	1912.22
404.70	2050.31
404.89	2066.69
405.09	2083.08
405.28	1909.88
405.47	2062.01
405.66	2104.14
405.85	2078.40
406.05	2083.08
406.24	2052.65
406.43	2225.85
406.62	2237.55
406.81	2169.68
407.00	2120.53
407.20	2083.08
407.39	2197.76
407.58	2207.13
407.77	2377.98
407.96	2415.43
408.15	2345.22
408.34	2289.04
408.54	2380.32
408.73	2413.09
408.92	2305.43
409.11	2427.14
409.30	2487.99
409.49	2448.20
409.68	2480.97
409.87	2277.34
410.07	2340.54
410.26	2455.22
410.45	2394.37
410.64	2635.44
410.83	2630.76
411.02	2544.16
411.21	2750.13
411.40	2693.96
411.59	2675.23
411.78	2703.32
411.98	2832.05
412.17	2857.79
412.36	2808.64
412.55	2759.49
412.74	2850.77
412.93	2850.77
413.12	2834.39
413.31	2888.22
413.50	2928.01
413.69	3007.59
413.88	2981.84
414.07	3028.65
414.26	3000.57
414.45	3136.32
414.64	3021.63
414.83	3049.72
415.02	3201.85
415.22	3176.11
415.41	3204.19
415.60	3307.18
415.79	3248.66
415.98	3494.42
416.17	3421.86
416.36	3368.03
416.55	3438.25
416.74	3314.20
416.93	3349.31
417.12	3426.54
417.31	3318.88
417.50	3548.25
417.69	3468.67
417.88	3440.59
418.07	3627.83
418.26	3581.02
418.45	3611.45
418.64	3824.44
418.83	3726.13
419.02	3691.02
419.21	3681.66
419.39	3679.32
419.58	3819.75
419.77	3599.74
419.96	3911.04
420.15	3971.89
420.34	3941.46
420.53	3892.31
420.72	3915.72
420.91	4049.13
421.10	3974.23
421.29	4126.36
421.48	3906.35
421.67	4042.11
421.86	3960.19
422.05	3850.18
422.24	3871.25
422.43	3997.64
422.61	3882.95
422.80	4042.11
422.99	4081.89
423.18	4243.39
423.37	4234.03
423.56	3990.61
423.75	3988.27
423.94	4011.68
424.13	3852.52
424.32	4067.85
424.50	4131.05
424.69	4208.28
424.88	4180.20
425.07	4067.85
425.26	3992.95
425.45	4133.39
425.64	4109.98
425.83	4023.38
426.01	4421.27
426.20	4166.15
426.39	4252.75
426.58	4018.70
426.77	4051.47
426.96	4170.83
427.15	4109.98
427.33	4250.41
427.52	4184.88
427.71	4257.43
427.90	4168.49
428.09	4283.18
428.28	4315.95
428.46	4205.94
428.65	4334.67
428.84	4477.44
429.03	4444.68
429.22	4189.56
429.40	4344.03
429.59	4299.56
429.78	4266.80
429.97	4147.43
430.16	4231.69
430.34	4236.37
430.53	4306.59
430.72	4287.86
430.91	4470.42
431.10	4390.84
431.28	4786.40
431.47	4760.65
431.66	4856.61
431.85	4851.93
432.03	4732.56
432.22	4863.63
432.41	4765.33
432.60	4966.62
432.79	4940.87
432.97	5004.07
433.16	4847.25
433.35	4854.27
433.54	4896.40
433.72	4798.10
433.91	4922.15
434.10	4945.55
434.28	4809.80
434.47	4994.70
434.66	5273.23
434.85	5104.71
435.03	5078.96
435.22	5205.35
435.41	5266.21
435.59	5282.59
435.78	5083.64
435.97	5282.59
436.16	5245.14
436.34	5411.32
436.53	5406.64
436.72	5385.57
436.90	5158.54
437.09	5423.02
437.28	5221.74
437.46	5296.63
437.65	5390.25
437.84	5277.91
438.02	5355.15
438.21	5348.12
438.40	5385.57
438.58	5540.05
438.77	5661.76
438.96	5619.63
439.14	5760.06
439.33	5764.74
439.52	5844.32
439.70	5643.03
439.89	5860.70
440.08	5872.40
440.26	5872.40
440.45	5844.32
440.63	6097.10
440.82	6146.25
441.01	6024.54
441.19	6471.58
441.38	6317.11
441.57	6356.90
441.75	6485.62
441.94	6413.07
442.12	6469.24
442.31	6614.35
442.50	6593.29
442.68	6471.58
442.87	6651.80
443.05	6722.02
443.24	6693.93
443.43	6614.35
443.61	6635.42
443.80	6897.56
443.98	6509.03
444.17	6558.18
444.35	6855.43
444.54	6696.27
444.73	6846.07
444.91	6626.06
445.10	6834.36
445.28	6682.23
445.47	6516.05
445.65	6733.72
445.84	6703.29
446.02	6909.26
446.21	6817.98
446.39	6876.49
446.58	7014.59
446.77	7045.01
446.95	6895.22
447.14	6843.73
447.32	7208.85
447.51	6904.58
447.69	6862.45
447.88	6775.85
448.06	7040.33
448.25	6906.92
448.43	7007.56
448.62	7042.67
448.80	6988.84
448.99	6871.81
449.17	7227.57
449.36	7229.91
449.54	7166.72
449.73	7349.28
449.91	7440.56
450.10	7358.64
450.28	7492.05
450.46	7269.70
450.65	7417.16
450.83	7688.66
451.02	7417.16
451.20	7442.90
451.39	7627.81
451.57	7454.61
451.76	7433.54
451.94	7452.27
452.13	7552.91
452.31	7489.71
452.49	7304.81
452.68	7454.61
452.86	7470.99
453.05	7466.31
453.23	7634.83
453.42	7536.52
453.60	7478.01
453.78	7805.69
453.97	7808.03
454.15	7805.69
454.34	7714.41
454.52	7815.05
454.70	7749.51
454.89	7768.24
455.07	7838.45
455.26	7843.14
455.44	8063.15
455.62	7836.11
455.81	8163.79
455.99	8063.15
456.17	8177.83
456.36	7999.95
456.54	8177.83
456.73	8285.50
456.91	8519.55
457.09	8589.77
457.28	8505.51
457.46	8351.03
457.64	8573.38
457.83	8362.73
458.01	8355.71
458.19	8374.44
458.38	8388.48
458.56	8561.68
458.74	8505.51
458.93	8564.02
459.11	8716.16
459.29	8554.66
459.48	8671.68
459.66	8578.06
459.84	8769.99
460.03	8606.15
460.21	8758.28
460.39	8798.07
460.57	8769.99
460.76	8837.86
460.94	8947.87
461.12	8933.82
461.31	9158.52
461.49	8802.75
461.67	9064.89
461.85	9263.84
462.04	9142.13
462.22	9568.11
462.40	9252.14
462.59	9247.46
462.77	9146.81
462.95	9277.88
463.13	9221.71
463.32	9497.89
463.50	9338.74
463.68	9387.89
463.86	9441.72
464.05	9181.92
464.23	9476.83
464.41	9343.42
464.59	9202.99
464.78	9376.19
464.96	9544.70
465.14	9399.59
465.32	9493.21
465.50	9596.20
465.69	9696.84
465.87	9591.52
466.05	9490.87
466.23	9666.41
466.41	9600.88
466.60	9760.03
466.78	9495.55
466.96	9774.08
467.14	9453.42
467.32	9582.15
467.51	10003.45
467.69	9551.73
467.87	9575.13
468.05	9818.55
468.23	9760.03
468.41	9659.39
468.60	9895.78
468.78	9867.70
468.96	9640.67
469.14	10132.18
469.32	10169.63
469.50	9680.46
469.69	10169.63
469.87	10183.67
470.05	10197.71
470.23	10054.94
470.41	10253.89
470.59	10214.10
470.77	10214.10
470.95	10216.44
471.14	10455.17
471.32	10321.76
471.50	10757.10
471.68	10623.69
471.86	10724.33
472.04	10993.50
472.22	10913.92
472.40	10677.52
472.58	10745.40
472.77	11023.92
472.95	10801.57
473.13	11164.36
473.31	10902.22
473.49	10707.95
473.67	10911.58
473.85	11178.40
474.03	11513.10
474.21	11398.41
474.39	11492.03
474.57	11410.11
474.75	11492.03
474.93	11646.51
475.12	11389.05
475.30	11676.93
475.48	11777.58
475.66	11651.19
475.84	11620.76
476.02	11707.36
476.20	11688.64
476.38	11908.65
476.56	12051.42
476.74	12320.58
476.92	12446.97
477.10	12119.29
477.28	12472.71
477.46	12554.63
477.64	12711.45
477.82	12912.74
478.00	13071.89
478.18	12929.12
478.36	13240.41
478.54	13212.32
478.72	13355.10
478.90	13324.67
479.08	13317.65
479.26	13490.85
479.44	13355.10
479.62	13743.63
479.80	13570.43
479.98	14024.49
480.16	14087.68
480.34	13820.86
480.52	14265.57
480.70	14115.77
480.88	14092.37
481.06	14225.78
481.24	14307.69
481.41	14738.35
481.59	14906.87
481.77	14775.80
481.95	14752.40
482.13	15178.37
482.31	15002.83
482.49	15131.56
482.67	15372.64
482.85	15374.98
483.03	15648.82
483.21	15885.22
483.39	15847.77
483.57	15896.92
483.74	16130.97
483.92	15934.37
484.10	16308.85
484.28	16594.40
484.46	16788.66
484.64	16800.37
484.82	16538.23
485.00	16620.14
485.18	17057.82
485.35	17212.30
485.53	16695.04
485.71	16718.45
485.89	17245.07
486.07	16926.75
486.25	17221.66
486.43	17153.79
486.61	17645.30
486.78	17600.83
486.96	18031.49
487.14	18412.99
487.32	18436.40
487.50	18630.66
487.68	18719.60
487.85	19185.37
488.03	19379.64
488.21	19187.71
488.39	19105.79
488.57	19208.78
488.75	19768.16
488.92	19489.64
489.10	19913.28
489.28	19974.13
489.46	20231.59
489.64	20388.41
489.81	20741.83
489.99	20648.21
490.17	21074.18
490.35	21041.42
490.53	21270.79
490.70	21242.70
490.88	21212.28
491.06	21577.40
491.24	21259.09
491.41	21638.25
491.59	21525.91
491.77	21586.76
491.95	22136.79
492.13	22141.47
492.30	22586.17
492.48	22567.45
492.66	22370.84
492.84	22707.88
493.01	22977.04
493.19	22820.22
493.37	23325.78
493.54	23206.41
493.72	23597.28
493.90	23566.85
494.08	23927.30
494.25	24072.41
494.43	24088.79
494.61	24379.02
494.79	24191.78
494.96	24049.00
495.14	24315.83
495.32	24308.80
495.49	24226.89
495.67	24540.52
495.85	24631.80
496.02	24954.79
496.20	25198.21
496.38	25378.43
496.55	25516.52
496.73	25783.34
496.91	25488.43
497.09	25830.15
497.26	26272.51
497.44	26026.76
497.62	26178.89
497.79	26108.68
497.97	26005.69
498.14	26328.69
498.32	26370.82
498.50	26544.02
498.67	26721.90
498.85	26707.85
499.03	27201.71
499.20	27143.19
499.38	27601.94
499.56	27161.92
499.73	27513.00
499.91	27454.48
500.08	27683.86
500.26	27445.12
500.44	27400.65
500.61	27672.15
500.79	27756.41
500.97	27733.01
501.14	27957.70
501.32	27936.63
501.49	28315.80
501.67	28177.71
501.84	28140.26
502.02	28327.50
502.20	28615.39
502.37	28762.84
502.55	28465.60
502.72	29078.82
502.90	29095.20
503.07	28898.59
503.25	28861.15
503.43	28940.72
503.60	29060.09
503.78	28879.87
503.95	29184.14
504.13	29408.83
504.30	29535.22
504.48	29537.56
504.65	29680.33
504.83	29909.71
505.01	30211.64
505.18	30249.08
505.36	30387.18
505.53	30487.82
505.71	30499.52
505.88	30780.39
506.06	30625.91
506.23	30876.35
506.41	30586.12
506.58	30764.00
506.76	30710.17
506.93	31271.90
507.11	31180.62
507.28	31101.04
507.46	30878.69
507.63	31218.07
507.81	31131.47
507.98	31136.15
508.16	31321.05
508.33	31737.66
508.50	31583.19
508.68	31796.18
508.85	32238.54
509.03	31850.01
509.20	32273.65
509.38	32107.47
509.55	31955.33
509.73	32114.49
509.90	32191.73
510.08	32217.47
510.25	32533.45
510.42	32706.65
510.60	33111.56
510.77	32982.83
510.95	32931.34
511.12	32503.02
511.30	33134.96
511.47	33156.03
511.64	33177.09
511.82	33947.13
511.99	33429.87
512.17	33291.78
512.34	33167.73
512.51	33390.08
512.69	34197.57
512.86	33954.15
513.04	34183.52
513.21	33647.54
513.38	33846.49
513.56	33862.87
513.73	33537.54
513.90	34244.38
514.08	34171.82
514.25	34213.95
514.43	34185.86
514.60	34206.93
514.77	34494.82
514.95	34689.08
515.12	34850.58
515.29	34969.94
515.47	34899.73
515.64	35431.03
515.81	34834.19
515.99	35131.44
516.16	34387.15
516.33	34417.58
516.51	35171.23
516.68	34160.12
516.85	34417.58
517.03	34623.54
517.20	34710.14
517.37	35122.08
517.54	35484.86
517.72	35241.45
517.89	34969.94
518.06	35365.49
518.24	35267.19
518.41	35393.58
518.58	35503.59
518.75	35779.77
518.93	35859.35
519.10	36301.71
519.27	36222.13
519.45	36205.75
519.62	36563.85
519.79	36624.70
519.96	36486.61
520.14	36315.75
520.31	36669.17
520.48	36917.27
520.65	36385.97
520.83	37336.23
521.00	37074.09
521.17	37050.68
521.34	36823.65
521.52	37242.60
521.69	37661.56
521.86	37656.88
522.03	37500.06
522.20	37106.85
522.38	37780.93
522.55	37514.11
522.72	37301.12
522.89	37612.41
523.07	37825.40
523.24	37731.78
523.41	38307.55
523.58	37848.80
523.75	38436.28
523.92	38443.30
524.10	38557.99
524.27	38438.62
524.44	38635.22
524.61	38424.57
524.78	38885.66
524.96	38808.42
525.13	38869.28
525.30	38857.57
525.47	39438.03
525.64	39185.25
525.81	38990.98
525.98	38323.93
526.16	38429.26
526.33	38733.53
526.50	38312.23
526.67	38845.87
526.84	38569.69
527.01	38469.04
527.18	38934.81
527.36	39599.52
527.53	39416.96
527.70	39590.16
527.87	40079.33
528.04	39622.93
528.21	39573.78
528.38	39875.71
528.55	40006.78
528.72	40102.74
528.89	40226.79
529.07	40198.70
529.24	39798.47
529.41	40467.86
529.58	39885.07
529.75	40128.48
529.92	40369.56
530.09	40271.26
530.26	40924.27
530.43	40790.86
530.60	40449.14
530.77	40348.50
530.94	40781.49
531.11	40753.41
531.28	40568.51
531.46	40978.10
531.63	40957.03
531.80	40917.25
531.97	40582.55
532.14	40652.76
532.31	40582.55
532.48	40570.85
532.65	40610.64
532.82	40753.41
532.99	40928.95
533.16	40737.02
533.33	41050.66
533.50	41544.51
533.67	41268.33
533.84	40912.56
534.01	41696.64
534.18	41347.90
534.35	41876.86
534.52	41345.56
534.69	41626.43
534.86	41720.05
535.03	41940.06
535.20	41764.52
535.37	42263.05
535.54	42199.86
535.71	41865.16
535.88	41848.78
536.05	41951.76
536.22	42120.28
536.38	42040.70
536.55	42225.60
536.72	42057.09
536.89	41876.86
537.06	42092.19
537.23	42223.26
537.40	42281.78
537.57	42279.44
537.74	42438.59
537.91	42677.33
538.08	42759.25
538.25	42408.17
538.42	42415.19
538.59	42714.78
538.75	42089.85
538.92	42178.79
539.09	42700.73
539.26	42895.00
539.43	42234.97
539.60	42726.48
539.77	42567.32
539.94	42808.40
540.11	42422.21
540.28	42628.18
540.44	42691.37
540.61	42770.95
540.78	42492.43
540.95	42897.34
541.12	42920.74
541.29	42787.33
541.46	42705.41
541.62	43145.44
541.79	43281.19
541.96	42726.48
542.13	43140.75
542.30	42902.02
542.47	43206.29
542.63	43358.42
542.80	43449.70
542.97	43356.08
543.14	43871.00
543.31	43632.27
543.48	44151.87
543.64	44617.63
543.81	44437.41
543.98	44123.78
544.15	43833.55
544.32	44425.71
544.48	44091.01
544.65	44552.10
544.82	44151.87
544.99	44044.20
545.16	44009.09
545.32	44362.51
545.49	44619.97
545.66	44659.76
545.83	44261.87
546.00	45067.02
546.16	44142.50
546.33	44088.67
546.50	44259.53
546.67	44804.88
546.83	44439.75
547.00	44339.11
547.17	44339.11
547.34	44348.47
547.50	44589.55
547.67	44708.91
547.84	44793.17
548.00	44933.60
548.17	44959.35
548.34	45062.33
548.51	45361.92
548.67	45071.70
548.84	45406.39
549.01	45008.50
549.18	45036.59
549.34	44825.94
549.51	44804.88
549.68	44861.05
549.84	45326.81
550.01	45235.53
550.18	45205.11
550.34	45170.00
550.51	45137.23
550.68	44910.20
550.84	45139.57
551.01	45272.98
551.18	45272.98
551.34	45251.92
551.51	45385.33
551.68	45551.51
551.84	45544.48
552.01	45179.36
552.18	45312.77
552.34	45268.30
552.51	45572.57
552.68	45275.32
552.84	46007.91
553.01	46089.83
553.18	45640.45
553.34	45972.80
553.51	45415.76
553.67	45425.12
553.84	45614.70
554.01	46012.59
554.17	46244.30
554.34	46059.40
554.51	46354.31
554.67	46052.38
554.84	46106.21
555.00	46206.86
555.17	45841.73
555.33	46234.94
555.50	46078.13
555.67	46075.79
555.83	46014.93
556.00	46099.19
556.16	46358.99
556.33	46298.14
556.50	46185.79
556.66	46396.44
556.83	46071.10
556.99	46483.04
557.16	46389.42
557.32	46450.27
557.49	46082.81
557.65	45956.42
557.82	46293.46
557.98	46227.92
558.15	46206.86
558.32	46609.43
558.48	45874.50
558.65	45949.40
558.81	46103.87
558.98	46171.75
559.14	46382.40
559.31	46302.82
559.47	46801.35
559.64	46550.91
559.80	46740.50
559.97	46539.21
560.13	46714.75
560.30	46511.13
560.46	46618.79
560.63	46539.21
560.79	46614.11
560.96	46649.22
561.12	46672.62
561.29	46450.27
561.45	46728.80
561.61	46967.53
561.78	46752.20
561.94	46094.51
562.11	46937.10
562.27	46990.94
562.44	46721.77
562.60	46637.51
562.77	47129.03
562.93	46937.10
563.10	46904.34
563.26	46642.20
563.42	46906.68
563.59	46621.13
563.75	46958.17
563.92	47182.86
564.08	47208.61
564.24	47264.78
564.41	46859.87
564.57	47227.33
564.74	47138.39
564.90	47065.83
565.07	47264.78
565.23	46703.05
565.39	46918.38
565.56	47157.11
565.72	46885.61
565.88	47061.15
566.05	46962.85
566.21	47105.62
566.38	46707.73
566.54	46749.86
566.70	47358.40
566.87	47496.49
567.03	47241.37
567.19	47407.55
567.36	47124.35
567.52	46946.47
567.68	47316.27
567.85	47234.35
568.01	47189.88
568.17	46878.59
568.34	47405.21
568.50	47536.28
568.66	46997.96
568.83	47442.66
568.99	46841.14
569.15	47068.17
569.32	47203.92
569.48	47037.75
569.64	47241.37
569.81	47452.02
569.97	47171.16
570.13	47021.36
570.30	47161.79
570.46	46721.77
570.62	46703.05
570.78	46916.04
570.95	46761.56
571.11	47138.39
571.27	47594.79
571.43	47026.04
571.60	47295.21
571.76	47217.97
571.92	47054.13
572.09	47058.81
572.25	47154.77
572.41	47512.88
572.57	47063.49
572.74	47566.71
572.90	47201.58
573.06	47545.64
573.22	47725.86
573.38	47283.50
573.55	47070.51
573.71	47213.29
573.87	47435.64
574.03	47452.02
574.20	47203.92
574.36	47049.45
574.52	47587.77
574.68	47285.84
574.84	47306.91
575.01	47648.63
575.17	47009.66
575.33	47414.57
575.49	47442.66
575.65	47892.04
575.82	47426.28
575.98	47255.42
576.14	47381.80
576.30	47295.21
576.46	47166.48
576.62	47234.35
576.79	47147.75
576.95	46960.51
577.11	46988.60
577.27	47351.38
577.43	47449.68
577.59	46747.52
577.75	47063.49
577.92	47044.77
578.08	47044.77
578.24	47035.41
578.40	46836.46
578.56	47290.52
578.72	47255.42
578.88	47526.92
579.04	47323.29
579.21	47178.18
579.37	47615.86
579.53	47232.01
579.69	47140.73
579.85	47246.05
580.01	47342.02
580.17	47007.32
580.33	48027.79
580.49	47583.09
580.65	47442.66
580.82	47327.97
580.98	47512.88
581.14	47079.88
581.30	47480.11
581.46	47445.00
581.62	47817.14
581.78	47562.03
581.94	47917.79
582.10	47290.52
582.26	47730.54
582.42	47576.07
582.58	47365.42
582.74	47356.06
582.90	47683.73
583.06	47861.61
583.22	47470.75
583.38	47793.74
583.54	47327.97
583.70	47367.76
583.86	47353.72
584.02	47180.52
584.18	47931.83
584.34	47430.96
584.50	47606.50
584.66	47292.86
584.82	47428.62
584.98	47592.45
585.14	47452.02
585.30	47292.86
585.46	47330.31
585.62	46717.09
585.78	47021.36
585.94	46754.54
586.10	47377.12
586.26	47159.45
586.42	47611.18
586.58	47524.58
586.74	47555.00
586.90	47510.53
587.06	47407.55
587.22	47578.41
587.38	47222.65
587.54	47613.52
587.70	47442.66
587.86	47426.28
588.02	47365.42
588.18	47648.63
588.34	47313.93
588.49	47215.63
588.65	46534.53
588.81	46979.23
588.97	47105.62
589.13	47033.07
589.29	47002.64
589.45	46869.23
589.61	47423.93
589.77	47758.63
