SpectraSuite Data File
++++++++++++++++++++++++++++++++++++
Date: Fri Oct 25 11:33:57 EDT 2013
User: price-jones
Dark Spectrum Present: No
Reference Spectrum Present: No
Number of Sampled Component Spectra: 1
Spectrometers: USB2+H05261
Integration Time (usec): 100000 (USB2+H05261)
Spectra Averaged: 1 (USB2+H05261)
Boxcar Smoothing: 0 (USB2+H05261)
Correct for Electrical Dark: No (USB2+H05261)
Strobe/Lamp Enabled: No (USB2+H05261)
Correct for Detector Non-linearity: No (USB2+H05261)
Correct for Stray Light: No (USB2+H05261)
Number of Pixels in Processed Spectrum: 2048
>>>>>Begin Processed Spectral Data<<<<<
365.73	210.65
365.92	210.65
366.12	210.65
366.32	245.76
366.52	222.35
366.72	177.88
366.91	138.09
367.11	119.37
367.31	212.99
367.51	198.95
367.70	119.37
367.90	252.78
368.10	212.99
368.30	215.33
368.49	156.82
368.69	248.10
368.89	198.95
369.09	273.84
369.28	212.99
369.48	210.65
369.68	285.55
369.87	238.73
370.07	252.78
370.27	266.82
370.47	301.93
370.66	451.72
370.86	491.51
371.06	557.05
371.25	643.65
371.45	517.26
371.65	573.43
371.84	517.26
372.04	550.03
372.24	545.34
372.44	557.05
372.63	561.73
372.83	603.86
373.03	582.79
373.22	631.94
373.42	692.80
373.62	599.18
373.81	566.41
374.01	676.41
374.21	608.54
374.40	662.37
374.60	650.67
374.79	603.86
374.99	674.07
375.19	660.03
375.38	631.94
375.58	690.46
375.78	732.59
375.97	641.31
376.17	657.69
376.37	676.41
376.56	702.16
376.76	716.20
376.95	641.31
377.15	613.22
377.35	660.03
377.54	706.84
377.74	655.35
377.93	653.01
378.13	723.23
378.33	734.93
378.52	685.78
378.72	734.93
378.91	699.82
379.11	695.14
379.31	709.18
379.50	671.73
379.70	699.82
379.89	716.20
380.09	702.16
380.28	737.27
380.48	746.63
380.68	772.38
380.87	748.97
381.07	751.31
381.26	809.83
381.46	723.23
381.65	723.23
381.85	716.20
382.04	772.38
382.24	744.29
382.43	692.80
382.63	840.25
382.83	718.54
383.02	727.91
383.22	809.83
383.41	800.46
383.61	786.42
383.80	835.57
384.00	786.42
384.19	798.12
384.39	819.19
384.58	802.80
384.78	805.14
384.97	863.66
385.17	802.80
385.36	826.21
385.56	891.74
385.75	851.96
385.95	851.96
386.14	861.32
386.34	791.10
386.53	861.32
386.72	884.72
386.92	863.66
387.11	903.45
387.31	905.79
387.50	802.80
387.70	919.83
387.89	978.34
388.09	894.08
388.28	917.49
388.48	854.30
388.67	905.79
388.86	952.60
389.06	919.83
389.25	936.21
389.45	891.74
389.64	1020.47
389.84	952.60
390.03	915.15
390.22	978.34
390.42	968.98
390.61	992.39
390.81	968.98
391.00	945.58
391.19	1004.09
391.39	966.64
391.58	1006.43
391.78	990.05
391.97	1069.62
392.16	931.53
392.36	1046.22
392.55	1036.86
392.75	1025.15
392.94	1083.67
393.13	1055.58
393.33	971.32
393.52	1083.67
393.71	1160.91
393.91	971.32
394.10	1043.88
394.29	1240.48
394.49	1093.03
394.68	1022.81
394.88	1057.92
395.07	1139.84
395.26	1132.82
395.46	1165.59
395.65	1163.25
395.84	1116.44
396.04	1275.59
396.23	1200.69
396.42	1193.67
396.62	1207.72
396.81	1217.08
397.00	1181.97
397.19	1200.69
397.39	1191.33
397.58	1306.02
397.77	1200.69
397.97	1203.04
398.16	1228.78
398.35	1261.55
398.55	1231.12
398.74	1228.78
398.93	1299.00
399.12	1282.61
399.32	1345.81
399.51	1336.45
399.70	1345.81
399.90	1446.45
400.09	1362.19
400.28	1409.00
400.47	1380.92
400.67	1315.38
400.86	1315.38
401.05	1394.96
401.24	1380.92
401.44	1411.34
401.63	1413.68
401.82	1516.67
402.01	1458.15
402.21	1476.88
402.40	1558.80
402.59	1530.71
402.78	1511.99
402.97	1504.96
403.17	1631.35
403.36	1490.92
403.55	1619.65
403.74	1504.96
403.93	1589.22
404.13	1542.41
404.32	1610.29
404.51	1575.18
404.70	1717.95
404.89	1657.10
405.09	1722.63
405.28	1626.67
405.47	1591.56
405.66	1701.57
405.85	1696.89
406.05	1659.44
406.24	1710.93
406.43	1804.55
406.62	1802.21
406.81	1783.49
407.00	1783.49
407.20	1844.34
407.39	1720.29
407.58	1851.36
407.77	1837.32
407.96	1902.86
408.15	1834.98
408.34	1867.75
408.54	1968.39
408.73	1968.39
408.92	1844.34
409.11	1982.43
409.30	1893.49
409.49	1970.73
409.68	1937.96
409.87	2036.27
410.07	2033.93
410.26	2022.22
410.45	2033.93
410.64	2031.58
410.83	2003.50
411.02	1949.67
411.21	2076.06
411.40	2111.16
411.59	2218.83
411.78	2176.70
411.98	2141.59
412.17	2214.15
412.36	2249.25
412.55	2181.38
412.74	2282.02
412.93	2429.48
413.12	2375.64
413.31	2324.15
413.50	2560.55
413.69	2368.62
413.88	2518.42
414.07	2459.90
414.26	2469.27
414.45	2562.89
414.64	2562.89
414.83	2583.95
415.02	2495.01
415.22	2647.15
415.41	2691.62
415.60	2626.08
415.79	2651.83
415.98	2703.32
416.17	2717.36
416.36	2789.92
416.55	2740.77
416.74	2799.28
416.93	2810.98
417.12	2853.11
417.31	2761.83
417.50	2829.71
417.69	2981.84
417.88	2834.39
418.07	2904.60
418.26	2960.78
418.45	2981.84
418.64	3148.02
418.83	2974.82
419.02	3084.83
419.21	3070.78
419.39	2972.48
419.58	3096.53
419.77	3056.74
419.96	3098.87
420.15	3236.96
420.34	3215.90
420.53	3084.83
420.72	3169.09
420.91	3281.43
421.10	3239.30
421.29	3290.79
421.48	3171.43
421.67	3339.94
421.86	3314.20
422.05	3262.71
422.24	3119.93
422.43	3332.92
422.61	3344.63
422.80	3492.08
422.99	3286.11
423.18	3323.56
423.37	3417.18
423.56	3283.77
423.75	3318.88
423.94	3288.45
424.13	3159.72
424.32	3318.88
424.50	3482.72
424.69	3538.89
424.88	3428.88
425.07	3522.51
425.26	3361.01
425.45	3365.69
425.64	3438.25
425.83	3456.97
426.01	3492.08
426.20	3428.88
426.39	3428.88
426.58	3496.76
426.77	3550.59
426.96	3609.11
427.15	3655.92
427.33	3590.38
427.52	3513.14
427.71	3707.41
427.90	3529.53
428.09	3578.68
428.28	3623.15
428.46	3676.98
428.65	3627.83
428.84	3723.79
429.03	3761.24
429.22	3625.49
429.40	3747.20
429.59	3857.20
429.78	3707.41
429.97	3555.27
430.16	3824.44
430.34	3831.46
430.53	3847.84
430.72	3901.67
430.91	3943.80
431.10	3955.51
431.28	3810.39
431.47	3967.21
431.66	4079.55
431.85	3857.20
432.03	4011.68
432.22	3988.27
432.41	4098.28
432.60	4028.06
432.79	4119.34
432.97	4056.15
433.16	4124.02
433.35	4077.21
433.54	4135.73
433.72	4126.36
433.91	4243.39
434.10	4217.65
434.28	4044.45
434.47	4194.24
434.66	4238.71
434.85	4196.58
435.03	4397.87
435.22	4227.01
435.41	4315.95
435.59	4430.63
435.78	4507.87
435.97	4278.50
436.16	4409.57
436.34	4423.61
436.53	4477.44
436.72	4557.02
436.90	4414.25
437.09	4542.98
437.28	4358.08
437.46	4521.92
437.65	4409.57
437.84	4589.79
438.02	4437.66
438.21	4734.90
438.40	4393.19
438.58	4704.48
438.77	4737.24
438.96	4723.20
439.14	4854.27
439.33	4915.12
439.52	4894.06
439.70	4896.40
439.89	4912.78
440.08	4901.08
440.26	4898.74
440.45	4973.64
440.63	4992.36
440.82	5207.69
441.01	5006.41
441.19	5116.41
441.38	5144.50
441.57	5284.93
441.75	5277.91
441.94	5261.52
442.12	5390.25
442.31	5371.53
442.50	5411.32
442.68	5317.70
442.87	5268.55
443.05	5383.23
443.24	5380.89
443.43	5596.22
443.61	5533.03
443.80	5661.76
443.98	5397.28
444.17	5348.12
444.35	5490.90
444.54	5689.84
444.73	5678.14
444.91	5530.69
445.10	5556.43
445.28	5626.65
445.47	5596.22
445.65	5511.96
445.84	5760.06
446.02	5626.65
446.21	5614.95
446.39	5521.32
446.58	5734.31
446.77	5692.18
446.95	5483.88
447.14	5731.97
447.32	5778.78
447.51	5687.50
447.69	5643.03
447.88	5706.23
448.06	5645.37
448.25	5650.05
448.43	5851.34
448.62	5689.84
448.80	5729.63
448.99	5954.32
449.17	5715.59
449.36	5696.86
449.54	6054.97
449.73	5905.17
449.91	6139.23
450.10	6125.18
450.28	6214.12
450.46	5912.19
450.65	6090.07
450.83	6134.54
451.02	6127.52
451.20	6197.74
451.39	6115.82
451.57	6164.97
451.76	6080.71
451.94	6272.64
452.13	6232.85
452.31	6258.59
452.49	6085.39
452.68	6244.55
452.86	6354.55
453.05	6473.92
453.23	6363.92
453.42	6228.17
453.60	6267.95
453.78	6235.19
453.97	6394.34
454.15	6403.71
454.34	6361.58
454.52	6436.47
454.70	6567.54
454.89	6647.12
455.07	6452.86
455.26	6621.38
455.44	6546.48
455.62	6698.61
455.81	6525.41
455.99	6588.61
456.17	6946.71
456.36	6703.29
456.54	6775.85
456.73	6857.77
456.91	7035.65
457.09	7145.66
457.28	7225.23
457.46	6869.47
457.64	7096.50
457.83	7073.10
458.01	7140.97
458.19	7229.91
458.38	7225.23
458.56	7155.02
458.74	7215.87
458.93	7075.44
459.11	6979.48
459.29	7152.68
459.48	7473.33
459.66	7307.15
459.84	7241.62
460.03	7391.41
460.21	7272.04
460.39	7335.24
460.57	7419.50
460.76	7377.37
460.94	7478.01
461.12	7520.14
461.31	7461.63
461.49	7489.71
461.67	7494.40
461.85	7648.87
462.04	7421.84
462.22	8241.03
462.40	7660.57
462.59	7756.54
462.77	7627.81
462.95	7639.51
463.13	7770.58
463.32	7545.89
463.50	8058.46
463.68	8046.76
463.86	7962.50
464.05	7702.70
464.23	7918.03
464.41	7749.51
464.59	7908.67
464.78	8191.88
464.96	7997.61
465.14	7819.73
465.32	8109.96
465.50	7765.90
465.69	8163.79
465.87	8053.78
466.05	8278.47
466.23	8086.55
466.41	8149.75
466.60	8358.05
466.78	8269.11
466.96	8067.83
467.14	8250.39
467.32	8271.45
467.51	8423.59
467.69	7920.37
467.87	8245.71
468.05	8355.71
468.23	8339.33
468.41	8397.84
468.60	8318.26
468.78	8189.53
468.96	8493.80
469.14	8250.39
469.32	8669.34
469.50	8376.78
469.69	8636.58
469.87	8781.69
470.05	8648.28
470.23	8746.58
470.41	8837.86
470.59	8863.61
470.77	8762.97
470.95	8744.24
471.14	9062.55
471.32	8739.56
471.50	8765.31
471.68	8943.19
471.86	9022.77
472.04	9027.45
472.22	9217.03
472.40	9081.28
472.58	8968.93
472.77	9146.81
472.95	9451.08
473.13	9748.33
473.31	9240.44
473.49	9305.97
473.67	9376.19
473.85	9362.14
474.03	9600.88
474.21	9706.20
474.39	9818.55
474.57	9650.03
474.75	9902.81
474.93	9832.59
475.12	9589.17
475.30	10045.58
475.48	9907.49
475.66	10047.92
475.84	9907.49
476.02	10169.63
476.20	10209.42
476.38	10368.57
476.56	10548.79
476.74	10497.30
476.92	10490.28
477.10	10284.31
477.28	10551.14
477.46	10525.39
477.64	10778.17
477.82	10876.47
478.00	11159.67
478.18	10963.07
478.36	10927.96
478.54	11201.80
478.72	11183.08
478.90	11541.18
479.08	11559.91
479.26	11779.92
479.44	11550.54
479.62	11644.17
479.80	11971.84
479.98	11868.86
480.16	11997.59
480.34	11882.90
480.52	12166.10
480.70	12262.07
480.88	12194.19
481.06	12255.04
481.24	12306.54
481.41	12631.87
481.59	12760.60
481.77	12793.37
481.95	12840.18
482.13	13153.81
482.31	13008.70
482.49	13097.64
482.67	13156.15
482.85	13371.48
483.03	13369.14
483.21	13420.63
483.39	13921.51
483.57	13919.17
483.74	13741.29
483.92	13888.74
484.10	13729.58
484.28	14068.96
484.46	14251.52
484.64	14794.53
484.82	14541.75
485.00	14600.26
485.18	14782.82
485.35	15030.92
485.53	14848.36
485.71	14927.94
485.89	15517.75
486.07	14984.11
486.25	15414.77
486.43	15527.11
486.61	15531.80
486.78	15543.50
486.96	15845.43
487.14	16037.35
487.32	16198.85
487.50	16285.45
487.68	16311.19
487.85	16695.04
488.03	16643.55
488.21	16938.46
488.39	16779.30
488.57	16805.05
488.75	17006.33
488.92	17420.61
489.10	17678.07
489.28	17621.89
489.46	17731.90
489.64	17675.73
489.81	17951.91
489.99	18005.74
490.17	17937.87
490.35	18448.10
490.53	18277.24
490.70	18471.51
490.88	18377.89
491.06	18677.48
491.24	18541.72
491.41	18974.72
491.59	19073.03
491.77	18960.68
491.95	19484.96
492.13	19435.81
492.30	19487.30
492.48	19487.30
492.66	19536.45
492.84	19950.73
493.01	19978.81
493.19	19995.20
493.37	20119.24
493.54	20217.55
493.72	20266.70
493.90	20428.20
494.08	20884.60
494.25	20718.42
494.43	20680.97
494.61	21050.78
494.79	21158.44
494.96	20943.11
495.14	21331.64
495.32	21710.81
495.49	21490.80
495.67	21745.92
495.85	22022.10
496.02	22066.57
496.20	22408.29
496.38	22422.33
496.55	22153.17
496.73	22682.13
496.91	22464.46
497.09	22649.36
497.26	22785.12
497.44	22719.58
497.62	22686.81
497.79	23061.30
497.97	22953.63
498.14	23466.21
498.32	23576.22
498.50	23704.95
498.67	23768.14
498.85	23854.74
499.03	23681.54
499.20	24056.03
499.38	23660.48
499.56	23885.17
499.73	24180.07
499.91	24503.07
500.08	24528.81
500.26	24402.43
500.44	24613.07
500.61	24865.85
500.79	24582.65
500.97	24952.45
501.14	25003.94
501.32	25411.20
501.49	25172.46
501.67	25029.69
501.84	25500.14
502.02	25710.78
502.20	25179.48
502.37	25362.04
502.55	25795.04
502.72	25638.23
502.90	25553.97
503.07	25458.01
503.25	25996.33
503.43	25586.74
503.60	25886.32
503.78	26237.41
503.95	26022.08
504.13	26167.19
504.30	26146.12
504.48	26476.14
504.65	26852.97
504.83	26836.58
505.01	26464.44
505.18	27047.23
505.36	26916.16
505.53	27178.30
505.71	27232.13
505.88	27515.34
506.06	26967.65
506.23	27557.47
506.41	27681.52
506.58	27772.80
506.76	27562.15
506.93	27550.45
507.11	27552.79
507.28	27718.96
507.46	28032.60
507.63	27730.67
507.81	28177.71
507.98	27847.69
508.16	28147.28
508.33	28397.72
508.50	28561.56
508.68	28835.40
508.85	28489.00
509.03	28851.78
509.20	28819.02
509.38	29024.98
509.55	28987.53
509.73	28734.76
509.90	29235.63
510.08	29205.20
510.25	29481.39
510.42	29277.76
510.60	29413.51
510.77	29565.65
510.95	29944.81
511.12	29518.84
511.30	29710.76
511.47	29607.78
511.64	29605.44
511.82	30195.25
511.99	30012.69
512.17	29923.75
512.34	30235.04
512.51	30511.22
512.69	30707.83
512.86	30731.23
513.04	30504.20
513.21	30483.14
513.38	31021.46
513.56	31082.31
513.73	31016.78
513.90	31047.21
514.08	30848.26
514.25	31297.64
514.43	31178.28
514.60	30969.97
514.77	31414.67
514.95	31494.25
515.12	31115.08
515.29	31061.25
515.47	31976.40
515.64	32367.27
515.81	31742.35
515.99	31630.00
516.16	32451.53
516.33	32158.96
516.51	32357.91
516.68	32041.93
516.85	32041.93
517.03	32383.65
517.20	32603.66
517.37	32322.80
517.54	32694.94
517.72	32507.70
517.89	32582.60
518.06	32240.88
518.24	32732.39
518.41	32751.12
518.58	32968.79
518.75	32594.30
518.93	33013.26
519.10	32931.34
519.27	32964.10
519.45	33139.65
519.62	33408.81
519.79	33640.52
519.96	33474.34
520.14	33586.69
520.31	33357.32
520.48	33947.13
520.65	33804.36
520.83	33970.54
521.00	33919.04
521.17	34380.13
521.34	34040.75
521.52	34015.01
521.69	34342.68
521.86	34330.98
522.03	34518.22
522.20	34504.18
522.38	34897.39
522.55	34710.14
522.72	34815.47
522.89	34478.43
523.07	34927.81
523.24	34864.62
523.41	35030.80
523.58	34890.37
523.75	35012.07
523.92	35253.15
524.10	35461.46
524.27	35192.30
524.44	35442.73
524.61	35208.68
524.78	35325.71
524.96	35676.79
525.13	35676.79
525.30	35969.35
525.47	35835.94
525.64	35913.18
525.81	35707.21
525.98	36093.40
526.16	36102.76
526.33	36011.48
526.50	36212.77
526.67	36348.52
526.84	36421.08
527.01	36416.40
527.18	35981.06
527.36	36744.07
527.53	36456.18
527.70	36891.52
527.87	36697.26
528.04	36928.97
528.21	36959.40
528.38	36671.51
528.55	37078.77
528.72	36631.72
528.89	37120.90
529.07	36723.01
529.24	36535.76
529.41	37469.64
529.58	37116.22
529.75	37153.66
529.92	37092.81
530.09	37455.59
530.26	37347.93
530.43	37354.95
530.60	37289.42
530.77	37521.13
530.94	37439.21
531.11	37628.79
531.28	37361.97
531.46	37699.01
531.63	37902.64
531.80	38117.96
531.97	38298.19
532.14	37904.98
532.31	38029.02
532.48	38047.75
532.65	38321.59
532.82	38206.90
532.99	37834.76
533.16	38206.90
533.33	38260.74
533.50	37975.19
533.67	38181.16
533.84	37926.04
534.01	38497.13
534.18	38422.23
534.35	39035.45
534.52	38667.99
534.69	39096.31
534.86	39370.15
535.03	38572.03
535.20	38845.87
535.37	38857.57
535.54	39007.37
535.71	39058.86
535.88	39622.93
536.05	39278.87
536.22	39501.22
536.38	39796.13
536.55	39428.66
536.72	39578.46
536.89	39248.44
537.06	39683.78
537.23	40006.78
537.40	39428.66
537.57	39388.88
537.74	39203.97
537.91	39763.36
538.08	39318.66
538.25	39700.17
538.42	39854.64
538.59	40137.85
538.75	39763.36
538.92	40154.23
539.09	40112.10
539.26	40165.93
539.43	40788.52
539.60	39934.22
539.77	40350.84
539.94	40694.89
540.11	40444.46
540.28	40011.46
540.44	40821.28
540.61	40690.21
540.78	40332.11
540.95	40715.96
541.12	40240.83
541.29	40868.09
541.46	40350.84
541.62	40479.57
541.79	40638.72
541.96	40463.18
542.13	41158.32
542.30	40994.48
542.47	41069.38
542.63	41022.57
542.80	41116.19
542.97	41907.29
543.14	41476.63
543.31	41301.09
543.48	41219.17
543.64	42010.28
543.81	41872.18
543.98	41247.26
544.15	41675.58
544.32	41698.98
544.48	41741.11
544.65	41799.63
544.82	41886.23
544.99	41366.63
545.16	42050.06
545.32	42012.62
545.49	42160.07
545.66	42092.19
545.83	42340.29
546.00	42543.92
546.16	42307.52
546.33	42443.27
546.50	42155.39
546.67	42190.50
546.83	42000.91
547.00	42279.44
547.17	42370.72
547.34	42487.74
547.50	42674.99
547.67	42948.83
547.84	42866.91
548.00	42834.14
548.17	43236.72
548.34	42614.13
548.51	43138.41
548.67	42756.91
548.84	42674.99
549.01	42845.85
549.18	42813.08
549.34	42731.16
549.51	43203.95
549.68	43330.34
549.84	42862.23
550.01	43349.06
550.18	42806.06
550.34	43402.89
550.51	43601.84
550.68	43634.61
550.84	43367.79
551.01	43496.52
551.18	43227.35
551.34	43456.73
551.51	43426.30
551.68	43161.82
551.84	43665.03
552.01	43257.78
552.18	43461.41
552.34	43388.85
552.51	43758.66
552.68	43330.34
552.84	43828.87
553.01	43414.60
553.18	43323.32
553.34	43873.34
553.51	43526.94
553.67	43873.34
553.84	44020.80
554.01	44584.86
554.17	44341.45
554.34	44484.22
554.51	43976.33
554.67	44453.79
554.84	44308.68
555.00	44374.22
555.17	44158.89
555.33	44416.35
555.50	44505.29
555.67	44435.07
555.83	44657.42
556.00	44346.13
556.16	45113.83
556.33	44652.74
556.50	44444.43
556.66	44299.32
556.83	44051.22
556.99	44737.00
557.16	44772.11
557.32	44521.67
557.49	44655.08
557.65	44140.16
557.82	44903.18
557.98	44837.64
558.15	45282.34
558.32	44474.86
558.48	44818.92
558.65	44886.79
558.81	45003.82
558.98	44720.62
559.14	44734.66
559.31	44605.93
559.47	45048.29
559.64	44945.31
559.80	44926.58
559.97	45359.58
560.13	45104.46
560.30	45254.26
560.46	45411.07
560.63	45666.19
560.79	45476.61
560.96	45390.01
561.12	45099.78
561.29	45275.32
561.45	45633.42
561.61	45181.70
561.78	45521.08
561.94	45102.12
562.11	45354.90
562.27	44753.38
562.44	45453.20
562.60	45933.01
562.77	45624.06
562.93	45394.69
563.10	45787.90
563.26	45485.97
563.42	45607.68
563.59	45808.96
563.75	45368.94
563.92	45570.23
564.08	45605.34
564.24	45476.61
564.41	45827.69
564.57	46050.04
564.74	45617.04
564.90	45808.96
565.07	45481.29
565.23	45563.21
565.39	45813.65
565.56	46010.25
565.72	45668.53
565.88	45832.37
566.05	45670.87
566.21	45869.82
566.38	45780.88
566.54	46087.49
566.70	45904.93
566.87	46124.94
567.03	45808.96
567.19	45888.54
567.36	45464.91
567.52	46204.52
567.68	46162.39
567.85	45972.80
568.01	46171.75
568.17	46117.92
568.34	46354.31
568.50	46382.40
568.66	45874.50
568.83	46263.03
568.99	46185.79
569.15	45893.22
569.32	46202.18
569.48	45986.85
569.64	46763.90
569.81	46403.46
569.97	45958.76
570.13	46593.04
570.30	46483.04
570.46	46469.00
570.62	46038.34
570.78	46286.43
570.95	46028.98
571.11	46902.00
571.27	46300.48
571.43	46361.33
571.60	46368.35
571.76	46028.98
571.92	46349.63
572.09	46134.30
572.25	46415.16
572.41	46527.51
572.57	46195.15
572.74	46958.17
572.90	46515.81
573.06	46726.46
573.22	46937.10
573.38	46342.61
573.55	46749.86
573.71	46497.08
573.87	46630.49
574.03	46394.10
574.20	46873.91
574.36	46164.73
574.52	47037.75
574.68	46707.73
574.84	46995.62
575.01	46499.42
575.17	47075.19
575.33	46480.70
575.49	46866.89
575.65	46590.70
575.82	46733.48
575.98	46410.48
576.14	46557.94
576.30	46541.55
576.46	46911.36
576.62	46321.54
576.79	46747.52
576.95	46314.52
577.11	46471.34
577.27	46424.53
577.43	46745.18
577.59	46747.52
577.75	46438.57
577.92	46293.46
578.08	47075.19
578.24	46335.59
578.40	46658.58
578.56	46955.83
578.72	46588.36
578.88	46913.70
579.04	46899.65
579.21	46646.88
579.37	47260.10
579.53	46902.00
579.69	46717.09
579.85	46579.00
580.01	46672.62
580.17	46581.34
580.33	47208.61
580.49	46717.09
580.65	47129.03
580.82	46380.06
580.98	46841.14
581.14	46595.38
581.30	46691.35
581.46	46693.69
581.62	46674.96
581.78	46536.87
581.94	47114.98
582.10	47178.18
582.26	47037.75
582.42	46855.18
582.58	46806.03
582.74	46747.52
582.90	46850.50
583.06	46862.21
583.22	46855.18
583.38	46567.30
583.54	46658.58
583.70	46791.99
583.86	47360.74
584.02	46836.46
584.18	47482.45
584.34	47049.45
584.50	47250.74
584.66	47405.21
584.82	46967.53
584.98	47227.33
585.14	47213.29
585.30	46527.51
585.46	46953.49
585.62	46799.01
585.78	47056.47
585.94	46827.10
586.10	47203.92
586.26	46782.63
586.42	46923.06
586.58	47147.75
586.74	46681.98
586.90	46789.65
587.06	47365.42
587.22	47201.58
587.38	46705.39
587.54	47199.24
587.70	47210.95
587.86	47459.04
588.02	47091.58
588.18	46754.54
588.34	46862.21
588.49	47526.92
588.65	47138.39
588.81	46555.60
588.97	47189.88
589.13	46880.93
589.29	47587.77
589.45	47578.41
589.61	47281.16
589.77	47365.42
589.93	47234.35
590.08	47753.95
