SpectraSuite Data File
++++++++++++++++++++++++++++++++++++
Date: Fri Oct 25 11:23:29 EDT 2013
User: price-jones
Dark Spectrum Present: No
Reference Spectrum Present: No
Number of Sampled Component Spectra: 1
Spectrometers: USB2+H05261
Integration Time (usec): 100000 (USB2+H05261)
Spectra Averaged: 1 (USB2+H05261)
Boxcar Smoothing: 0 (USB2+H05261)
Correct for Electrical Dark: No (USB2+H05261)
Strobe/Lamp Enabled: No (USB2+H05261)
Correct for Detector Non-linearity: No (USB2+H05261)
Correct for Stray Light: No (USB2+H05261)
Number of Pixels in Processed Spectrum: 2048
>>>>>Begin Processed Spectral Data<<<<<
365.73	271.50
365.92	271.50
366.12	271.50
366.32	105.32
366.52	147.45
366.72	154.48
366.91	145.11
367.11	140.43
367.31	53.83
367.51	49.15
367.70	88.94
367.90	77.24
368.10	161.50
368.30	93.62
368.49	135.75
368.69	128.73
368.89	107.66
369.09	159.16
369.28	107.66
369.48	140.43
369.68	198.95
369.87	210.65
370.07	126.39
370.27	234.05
370.47	301.93
370.66	517.26
370.86	653.01
371.06	662.37
371.25	657.69
371.45	660.03
371.65	643.65
371.84	631.94
372.04	674.07
372.24	725.57
372.44	763.01
372.63	765.36
372.83	692.80
373.03	697.48
373.22	770.04
373.42	791.10
373.62	751.31
373.81	781.74
374.01	861.32
374.21	861.32
374.40	744.29
374.60	765.36
374.79	732.59
374.99	777.06
375.19	901.11
375.38	788.76
375.58	819.19
375.78	821.53
375.97	816.85
376.17	926.85
376.37	837.91
376.56	812.17
376.76	882.38
376.95	844.93
377.15	922.17
377.35	924.51
377.54	870.68
377.74	826.21
377.93	908.13
378.13	924.51
378.33	994.73
378.52	905.79
378.72	943.24
378.91	997.07
379.11	915.15
379.31	894.08
379.50	894.08
379.70	1006.43
379.89	1025.15
380.09	959.62
380.28	971.32
380.48	938.55
380.68	952.60
380.87	971.32
381.07	1100.05
381.26	1086.01
381.46	1025.15
381.65	1146.86
381.85	1076.65
382.04	999.41
382.24	1057.92
382.43	1032.18
382.63	1001.75
382.83	1086.01
383.02	1132.82
383.22	1123.46
383.41	1057.92
383.61	1095.37
383.80	1153.88
384.00	1008.77
384.19	1013.45
384.39	1116.44
384.58	1165.59
384.78	1067.28
384.97	1203.04
385.17	1090.69
385.36	1156.22
385.56	1165.59
385.75	1151.54
385.95	1254.53
386.14	1287.29
386.34	1151.54
386.53	1268.57
386.72	1263.89
386.92	1224.10
387.11	1329.42
387.31	1273.25
387.50	1256.87
387.70	1289.64
387.89	1210.06
388.09	1245.16
388.28	1287.29
388.48	1320.06
388.67	1277.93
388.86	1249.85
389.06	1289.64
389.25	1289.64
389.45	1233.46
389.64	1373.89
389.84	1371.55
390.03	1371.55
390.22	1383.26
390.42	1387.94
390.61	1387.94
390.81	1282.61
391.00	1437.09
391.19	1530.71
391.39	1369.21
391.58	1462.83
391.78	1352.83
391.97	1406.66
392.16	1423.05
392.36	1551.78
392.55	1453.47
392.75	1490.92
392.94	1549.43
393.13	1549.43
393.33	1551.78
393.52	1650.08
393.71	1537.73
393.91	1577.52
394.10	1563.48
394.29	1640.72
394.49	1626.67
394.68	1638.38
394.88	1638.38
395.07	1647.74
395.26	1713.27
395.46	1643.06
395.65	1685.19
395.84	1626.67
396.04	1858.39
396.23	1710.93
396.42	1743.70
396.62	1802.21
396.81	1820.94
397.00	1778.81
397.19	1682.85
397.39	1809.23
397.58	1806.89
397.77	1769.44
397.97	1895.83
398.16	1680.50
398.35	1874.77
398.55	1914.56
398.74	1937.96
398.93	1963.71
399.12	1846.68
399.32	1874.77
399.51	1961.37
399.70	2001.16
399.90	2024.56
400.09	2090.10
400.28	2083.08
400.47	1973.07
400.67	2141.59
400.86	2094.78
401.05	2153.29
401.24	2136.91
401.44	2080.74
401.63	2090.10
401.82	2148.61
402.01	2050.31
402.21	2127.55
402.40	2293.72
402.59	2303.09
402.78	2228.19
402.97	2263.30
403.17	2244.57
403.36	2239.89
403.55	2396.71
403.74	2326.49
403.93	2307.77
404.13	2438.84
404.32	2363.94
404.51	2335.85
404.70	2513.74
404.89	2256.28
405.09	2476.29
405.28	2511.39
405.47	2497.35
405.66	2532.46
405.85	2539.48
406.05	2452.88
406.24	2497.35
406.43	2499.69
406.62	2668.21
406.81	2586.29
407.00	2602.68
407.20	2637.78
407.39	2630.76
407.58	2684.59
407.77	2764.17
407.96	2771.19
408.15	2764.17
408.34	2698.64
408.54	2862.48
408.73	2799.28
408.92	2691.62
409.11	2829.71
409.30	2757.15
409.49	2883.54
409.68	3084.83
409.87	2951.42
410.07	2949.08
410.26	3026.31
410.45	2951.42
410.64	3052.06
410.83	3084.83
411.02	3152.70
411.21	3059.08
411.40	3152.70
411.59	3304.84
411.78	3096.53
411.98	3241.64
412.17	3178.45
412.36	3323.56
412.55	3475.70
412.74	3475.70
412.93	3302.50
413.12	3288.45
413.31	3559.95
413.50	3461.65
413.69	3365.69
413.88	3578.68
414.07	3576.34
414.26	3653.58
414.45	3599.74
414.64	3646.55
414.83	3819.75
415.02	3641.87
415.22	3775.28
415.41	3878.27
415.60	3831.46
415.79	3868.91
415.98	4093.60
416.17	3892.31
416.36	4067.85
416.55	3833.80
416.74	4030.40
416.93	4133.39
417.12	4149.77
417.31	4222.33
417.50	4187.22
417.69	4280.84
417.88	4252.75
418.07	4329.99
418.26	4353.40
418.45	4367.44
418.64	4500.85
418.83	4592.13
419.02	4393.19
419.21	4484.47
419.39	4465.74
419.58	4524.26
419.77	4477.44
419.96	4557.02
420.15	4657.67
420.34	4667.03
420.53	4425.95
420.72	4725.54
420.91	4706.82
421.10	4664.69
421.29	4758.31
421.48	4741.93
421.67	4870.65
421.86	4828.53
422.05	4774.69
422.24	4856.61
422.43	4725.54
422.61	4997.04
422.80	5055.56
422.99	4924.49
423.18	4849.59
423.37	5156.20
423.56	5069.60
423.75	4826.18
423.94	4945.55
424.13	4676.39
424.32	4767.67
424.50	5076.62
424.69	5179.61
424.88	5041.51
425.07	4912.78
425.26	4968.96
425.45	5109.39
425.64	4997.04
425.83	4980.66
426.01	5158.54
426.20	5125.77
426.39	5107.05
426.58	5081.30
426.77	5163.22
426.96	5118.75
427.15	5205.35
427.33	5179.61
427.52	5165.56
427.71	5245.14
427.90	5329.40
428.09	5399.62
428.28	5359.83
428.46	5362.17
428.65	5270.89
428.84	5460.47
429.03	5502.60
429.22	5453.45
429.40	5626.65
429.59	5631.33
429.78	5327.06
429.97	5205.35
430.16	5518.98
430.34	5619.63
430.53	5570.48
430.72	5762.40
430.91	5738.99
431.10	5579.84
431.28	5846.66
431.47	5891.13
431.66	5944.96
431.85	5781.12
432.03	5778.78
432.22	6113.48
432.41	5937.94
432.60	6003.47
432.79	6003.47
432.97	5863.04
433.16	6010.50
433.35	5886.45
433.54	6169.65
433.72	6141.57
433.91	6242.21
434.10	6139.23
434.28	6097.10
434.47	6033.90
434.66	6225.82
434.85	6452.86
435.03	6384.98
435.22	6314.77
435.41	6483.28
435.59	6356.90
435.78	6424.77
435.97	6494.99
436.16	6469.24
436.34	6420.09
436.53	6579.25
436.72	6693.93
436.90	6689.25
437.09	6539.46
437.28	6485.62
437.46	6633.08
437.65	6761.81
437.84	6630.74
438.02	6775.85
438.21	6675.21
438.40	6724.36
438.58	6827.34
438.77	7049.69
438.96	6991.18
439.14	7269.70
439.33	7267.36
439.52	7372.69
439.70	7194.81
439.89	7353.96
440.08	7475.67
440.26	7445.24
440.45	7403.11
440.63	7559.93
440.82	7581.00
441.01	7709.72
441.19	7758.88
441.38	7721.43
441.57	7875.90
441.75	7768.24
441.94	7990.59
442.12	7999.95
442.31	8035.06
442.50	8074.85
442.68	7873.56
442.87	8032.72
443.05	8226.98
443.24	8423.59
443.43	8088.89
443.61	8283.16
443.80	8372.10
443.98	8098.25
444.17	7824.41
444.35	8259.75
444.54	8425.93
444.73	8287.84
444.91	8400.18
445.10	8402.52
445.28	8421.25
445.47	8386.14
445.65	8264.43
445.84	8521.89
446.02	8557.00
446.21	8428.27
446.39	8423.59
446.58	8631.90
446.77	8435.29
446.95	8273.79
447.14	8470.40
447.32	8709.13
447.51	8542.96
447.69	8533.59
447.88	8671.68
448.06	8400.18
448.25	8423.59
448.43	8805.10
448.62	8795.73
448.80	8526.57
448.99	8683.39
449.17	8755.94
449.36	8751.26
449.54	8901.06
449.73	8971.27
449.91	8844.88
450.10	8947.87
450.28	9151.49
450.46	8943.19
450.65	9008.72
450.83	9207.67
451.02	9144.47
451.20	9212.35
451.39	9364.48
451.57	9291.93
451.76	9254.48
451.94	9282.56
452.13	9572.79
452.31	9217.03
452.49	9277.88
452.68	9362.14
452.86	9324.69
453.05	9551.73
453.23	9605.56
453.42	9408.95
453.60	9259.16
453.78	9544.70
453.97	9523.64
454.15	9458.10
454.34	9479.17
454.52	9727.27
454.70	9902.81
454.89	9865.36
455.07	9717.90
455.26	9738.97
455.44	10228.14
455.62	9912.17
455.81	9963.66
455.99	10178.99
456.17	10033.88
456.36	10040.90
456.54	10218.78
456.73	10326.44
456.91	10394.32
457.09	10473.90
457.28	10483.26
457.46	10539.43
457.64	10579.22
457.83	10448.15
458.01	10342.83
458.19	10576.88
458.38	10480.92
458.56	10932.64
458.74	10576.88
458.93	10904.56
459.11	10675.18
459.29	10787.53
459.48	10796.89
459.66	10822.64
459.84	11089.46
460.03	11037.97
460.21	11171.38
460.39	11012.22
460.57	10942.00
460.76	11126.91
460.94	10965.41
461.12	11279.04
461.31	11105.84
461.49	11253.30
461.67	11325.85
461.85	11536.50
462.04	11239.25
462.22	11660.55
462.40	11606.72
462.59	11564.59
462.77	11587.99
462.95	11894.60
463.13	11426.50
463.32	11562.25
463.50	11719.06
463.68	11915.67
463.86	11854.81
464.05	11651.19
464.23	11637.14
464.41	11833.75
464.59	11688.64
464.78	12189.51
464.96	11850.13
465.14	12070.14
465.32	12201.21
465.50	12238.66
465.69	12299.52
465.87	12332.28
466.05	12163.76
466.23	12304.20
466.41	12074.82
466.60	12475.06
466.78	12325.26
466.96	12203.55
467.14	12173.13
467.32	12484.42
467.51	12390.80
467.69	12217.60
467.87	12493.78
468.05	12643.57
468.23	12386.12
468.41	12559.31
468.60	12491.44
468.78	12858.90
468.96	12762.94
469.14	12910.40
469.32	13008.70
469.50	12844.86
469.69	13177.22
469.87	13116.36
470.05	13240.41
470.23	13226.37
470.41	13153.81
470.59	13540.00
470.77	13329.35
470.95	13280.20
471.14	13462.76
471.32	13266.16
471.50	13568.09
471.68	13528.30
471.86	13675.75
472.04	13916.83
472.22	13933.21
472.40	13638.30
472.58	13851.29
472.77	14115.77
472.95	14286.63
473.13	14733.67
473.31	14312.38
473.49	14267.91
473.67	14176.62
473.85	14307.69
474.03	14628.35
474.21	14785.16
474.39	14752.40
474.57	14750.06
474.75	15161.99
474.93	15033.26
475.12	14876.44
475.30	15075.39
475.48	15234.55
475.66	15442.85
475.84	15103.48
476.02	15555.20
476.20	15578.61
476.38	15723.72
476.56	16093.52
476.74	16095.86
476.92	15747.12
477.10	15936.71
477.28	16311.19
477.46	16458.65
477.64	16599.08
477.82	16376.73
478.00	17294.22
478.18	17013.35
478.36	17050.80
478.54	17315.28
478.72	17048.46
478.90	17813.82
479.08	17706.15
479.26	17612.53
479.44	17687.43
479.62	17996.38
479.80	18373.21
479.98	18178.94
480.16	18628.32
480.34	18387.25
480.52	18876.42
480.70	18998.13
480.88	18735.99
481.06	18824.93
481.24	18932.59
481.41	19215.80
481.59	19644.12
481.77	19693.27
481.95	19742.42
482.13	19557.52
482.31	19974.13
482.49	19981.15
482.67	20404.79
482.85	20697.36
483.03	20723.10
483.21	20746.51
483.39	20975.88
483.57	21191.21
483.74	21092.91
483.92	21479.10
484.10	21200.57
484.28	21869.97
484.46	22209.34
484.64	22373.18
484.82	22036.14
485.00	22221.05
485.18	23007.47
485.35	22955.97
485.53	22967.68
485.71	22789.80
485.89	23367.91
486.07	23695.58
486.25	23754.10
486.43	23740.05
486.61	24128.58
486.78	24002.19
486.96	24077.09
487.14	24570.94
487.32	25099.90
487.50	24847.13
487.68	25303.53
487.85	25167.78
488.03	25656.95
488.21	25942.50
488.39	26029.10
488.57	26319.32
488.75	26438.69
488.92	26785.09
489.10	27110.43
489.28	26815.52
489.46	27271.92
489.64	27346.82
489.81	27899.19
489.99	28252.61
490.17	28121.54
490.35	28336.87
490.53	28123.88
490.70	28517.09
490.88	28254.95
491.06	29347.98
491.24	28912.64
491.41	29289.46
491.59	29542.24
491.77	29326.91
491.95	30160.14
492.13	29706.08
492.30	29699.06
492.48	30136.74
492.66	30061.84
492.84	30478.46
493.01	31007.42
493.19	30630.59
493.37	31321.05
493.54	31475.52
493.72	31899.16
493.90	31655.75
494.08	32247.90
494.25	32402.38
494.43	32041.93
494.61	32451.53
494.79	32465.57
494.96	32744.09
495.14	32786.22
495.32	33244.97
495.49	33621.80
495.67	33502.43
495.85	33876.91
496.02	34338.00
496.20	34330.98
496.38	34075.86
496.55	34436.30
496.73	35304.64
496.91	34955.90
497.09	34686.74
497.26	35391.24
497.44	35049.52
497.62	35470.82
497.79	35861.69
497.97	35896.80
498.14	35922.54
498.32	36671.51
498.50	36882.16
498.67	36905.57
498.85	36987.49
499.03	36912.59
499.20	36715.98
499.38	36755.77
499.56	36945.36
499.73	37118.56
499.91	37319.84
500.08	37947.11
500.26	37067.06
500.44	37750.50
500.61	38497.13
500.79	38333.29
500.97	38450.32
501.14	39021.41
501.32	38838.85
501.49	38773.31
501.67	38911.41
501.84	39171.21
502.02	39328.02
502.20	39538.67
502.37	39648.68
502.55	39522.29
502.72	39639.31
502.90	39618.25
503.07	40112.10
503.25	39845.28
503.43	40158.91
503.60	40589.57
503.78	40800.22
503.95	40378.92
504.13	40830.65
504.30	41027.25
504.48	40631.70
504.65	41273.01
504.83	41177.04
505.01	41785.58
505.18	41493.02
505.36	41731.75
505.53	41558.55
505.71	41544.51
505.88	41876.86
506.06	41439.18
506.23	42171.77
506.41	41883.89
506.58	41970.49
506.76	42508.81
506.93	42831.80
507.11	42241.99
507.28	42637.54
507.46	42902.02
507.63	43463.75
507.81	43515.24
507.98	43129.05
508.16	43068.20
508.33	43576.09
508.50	44074.63
508.68	43988.03
508.85	44236.12
509.03	44044.20
509.20	44081.65
509.38	44715.93
509.55	44683.17
509.73	44971.05
509.90	44495.92
510.08	44776.79
510.25	44835.30
510.42	45123.19
510.60	44921.90
510.77	45516.40
510.95	45792.58
511.12	45198.09
511.30	45492.99
511.47	45490.65
511.64	45390.01
511.82	46181.11
511.99	45762.15
512.17	46300.48
512.34	46017.27
512.51	46628.15
512.69	46864.55
512.86	46471.34
513.04	46871.57
513.21	46784.97
513.38	46660.92
513.56	47206.26
513.73	46799.01
513.90	47002.64
514.08	47124.35
514.25	47641.60
514.43	47449.68
514.60	47393.51
514.77	47693.10
514.95	48343.77
515.12	47468.40
515.29	47849.91
515.47	48133.12
515.64	48423.34
515.81	48105.03
515.99	48121.41
516.16	49209.76
516.33	48406.96
516.51	49029.54
516.68	48683.14
516.85	48540.37
517.03	48924.22
517.20	49221.47
517.37	49113.80
517.54	49165.29
517.72	48891.45
517.89	49434.45
518.06	49794.90
518.24	49191.04
518.41	49846.39
518.58	49764.47
518.75	49294.02
518.93	49731.70
519.10	50012.57
519.27	49963.42
519.45	49825.32
519.62	50457.27
519.79	50277.05
519.96	50365.99
520.14	50571.96
520.31	50344.92
520.48	50492.38
520.65	50529.83
520.83	50864.52
521.00	50644.51
521.17	50717.07
521.34	51072.83
521.52	51117.30
521.69	51140.71
521.86	51454.34
522.03	51501.15
522.20	51664.99
522.38	51702.43
522.55	51662.64
522.72	51349.01
522.89	51466.04
523.07	51856.91
523.24	51765.63
523.41	51721.16
523.58	51599.45
523.75	52210.33
523.92	52090.96
524.10	52381.19
524.27	51985.64
524.44	52250.12
524.61	52271.18
524.78	52406.94
524.96	52257.14
525.13	52435.02
525.30	52296.93
525.47	52891.43
525.64	52938.24
525.81	52788.44
525.98	52879.72
526.16	53001.43
526.33	52790.78
526.50	53380.60
526.67	53172.29
526.84	53017.82
527.01	53090.37
527.18	53104.41
527.36	53174.63
527.53	53492.94
527.70	53666.14
527.87	53666.14
528.04	53511.67
528.21	53478.90
528.38	53577.20
528.55	53666.14
528.72	53441.45
528.89	53567.84
529.07	53612.31
529.24	53460.18
529.41	54035.95
529.58	53939.99
529.75	54174.04
529.92	53895.52
530.09	54080.42
530.26	54316.81
530.43	53886.15
530.60	54092.12
530.77	53925.94
530.94	54190.42
531.11	54396.39
531.28	54480.65
531.46	54248.94
531.63	54480.65
531.80	54520.44
531.97	54408.09
532.14	54679.60
532.31	54499.37
532.48	54693.64
532.65	54609.38
532.82	54780.24
532.99	54775.56
533.16	54880.88
533.33	54960.46
533.50	55173.45
533.67	55007.27
533.84	54618.74
534.01	54859.82
534.18	55054.08
534.35	55372.39
534.52	55262.39
534.69	55477.72
534.86	55454.31
535.03	55297.50
535.20	55515.17
535.37	55428.57
535.54	55756.24
535.71	55238.98
535.88	55721.13
536.05	55622.83
536.22	55662.62
536.38	55671.98
536.55	55833.48
536.72	55648.58
536.89	55646.24
537.06	55927.10
537.23	55964.55
537.40	55636.87
537.57	55936.46
537.74	55952.85
537.91	56245.41
538.08	56009.02
538.25	55807.73
538.42	56177.54
538.59	56360.10
538.75	56027.74
538.92	56147.11
539.09	56495.85
539.26	56378.82
539.43	56399.89
539.60	56374.14
539.77	56474.79
539.94	56575.43
540.11	56554.36
540.28	56526.28
540.44	56753.31
540.61	56722.88
540.78	56783.74
540.95	56514.58
541.12	56573.09
541.29	56535.64
541.46	56769.69
541.62	56825.87
541.79	56919.49
541.96	56727.56
542.13	56830.55
542.30	56809.48
542.47	57010.77
542.63	56942.89
542.80	57097.37
542.97	57279.93
543.14	57286.95
543.31	57481.22
543.48	57352.49
543.64	57640.37
543.81	57483.56
543.98	57602.92
544.15	57605.26
544.32	57483.56
544.48	57677.82
544.65	57434.41
544.82	57279.93
544.99	57368.87
545.16	57741.02
545.32	57635.69
545.49	57970.39
545.66	57759.74
545.83	57851.02
546.00	57705.91
546.16	57855.70
546.33	57626.33
546.50	57453.13
546.67	57972.73
546.83	57623.99
547.00	57939.96
547.17	57743.36
547.34	57944.64
547.50	58134.23
547.67	58216.14
547.84	58199.76
548.00	58260.62
548.17	58457.22
548.34	58255.93
548.51	58319.13
548.67	58286.36
548.84	58309.77
549.01	58197.42
549.18	58286.36
549.34	58443.18
549.51	58454.88
549.68	58780.21
549.84	58438.50
550.01	58422.11
550.18	58382.32
550.34	58557.86
550.51	58489.99
550.68	58396.37
550.84	58471.26
551.01	58752.13
551.18	58684.25
551.34	58763.83
551.51	58775.53
551.68	58815.32
551.84	58438.50
552.01	58557.86
552.18	58866.81
552.34	58836.39
552.51	58873.84
552.68	58567.23
552.84	58866.81
553.01	59327.90
553.18	58878.52
553.34	59086.82
553.51	58862.13
553.67	59084.48
553.84	59114.91
554.01	59145.34
554.17	59199.17
554.34	58983.84
554.51	58997.88
554.67	59320.88
554.84	59140.66
555.00	59276.41
555.17	59234.28
555.33	59267.05
555.50	59201.51
555.67	59234.28
555.83	59180.45
556.00	59306.83
556.16	59550.25
556.33	59458.97
556.50	59220.23
556.66	59395.77
556.83	59166.40
556.99	59573.66
557.16	59737.49
557.32	59597.06
557.49	59704.73
557.65	59264.70
557.82	59496.42
557.98	59594.72
558.15	59372.37
558.32	59674.30
558.48	59587.70
558.65	59505.78
558.81	59583.02
558.98	59723.45
559.14	59793.67
559.31	59824.09
559.47	59866.22
559.64	59711.75
559.80	59777.28
559.97	60009.00
560.13	59590.04
560.30	59725.79
560.46	59889.63
560.63	59910.69
560.79	59980.91
560.96	60119.00
561.12	59934.10
561.29	59994.95
561.45	59882.61
561.61	59887.29
561.78	60023.04
561.94	59929.42
562.11	60123.68
562.27	60083.89
562.44	60224.32
562.60	59898.99
562.77	60151.77
562.93	59985.59
563.10	59980.91
563.26	60179.85
563.42	60292.20
563.59	60001.97
563.75	60191.56
563.92	60261.77
564.08	60119.00
564.24	60257.09
564.41	60266.45
564.57	60336.67
564.74	60315.61
564.90	60140.07
565.07	60182.19
565.23	60285.18
565.39	60191.56
565.56	60364.76
565.72	60364.76
565.88	60336.67
566.05	60229.01
566.21	60392.84
566.38	60444.33
566.54	60512.21
566.70	60439.65
566.87	60591.79
567.03	60285.18
567.19	60591.79
567.36	60449.02
567.52	60402.21
567.68	60617.53
567.85	60542.64
568.01	60662.00
568.17	60315.61
568.34	60570.72
568.50	60580.09
568.66	60542.64
568.83	60598.81
568.99	60547.32
569.15	60647.96
569.32	60608.17
569.48	60444.33
569.64	60692.43
569.81	60502.85
569.97	60516.89
570.13	60385.82
570.30	60434.97
570.46	60722.86
570.62	60692.43
570.78	60755.63
570.95	60683.07
571.11	60821.16
571.27	60549.66
571.43	60631.58
571.60	60760.31
571.76	60678.39
571.92	60835.20
572.09	61031.81
572.25	60715.84
572.41	60839.89
572.57	60722.86
572.74	61073.94
572.90	60795.42
573.06	60804.78
573.22	60734.56
573.38	60713.50
573.55	60711.16
573.71	60947.55
573.87	60989.68
574.03	60514.55
574.20	60839.89
574.36	60643.28
574.52	60872.65
574.68	61022.45
574.84	61099.68
575.01	60734.56
575.17	60788.39
575.33	60748.60
575.49	60743.92
575.65	60853.93
575.82	60825.84
575.98	60942.87
576.14	61228.41
576.30	60996.70
576.46	60886.70
576.62	60748.60
576.79	60893.72
576.95	60736.90
577.11	61015.43
577.27	60900.74
577.43	61083.30
577.59	61003.72
577.75	60774.35
577.92	60900.74
578.08	60949.89
578.24	60945.21
578.40	61256.50
578.56	60963.93
578.72	60982.66
578.88	61001.38
579.04	61029.47
579.21	60982.66
579.37	61027.13
579.53	61073.94
579.69	60788.39
579.85	60966.27
580.01	61216.71
580.17	60865.63
580.33	61087.98
580.49	61237.78
580.65	60931.17
580.82	60968.61
580.98	60945.21
581.14	60942.87
581.30	61090.32
581.46	60985.00
581.62	61116.07
581.78	61146.50
581.94	61197.99
582.10	61090.32
582.26	61083.30
582.42	61015.43
582.58	61029.47
582.74	61179.26
582.90	61167.56
583.06	61312.67
583.22	60884.36
583.38	61109.05
583.54	60954.57
583.70	60999.04
583.86	61099.68
584.02	61008.40
584.18	61174.58
584.34	61172.24
584.50	61361.82
584.66	61162.88
584.82	60828.18
584.98	61282.25
585.14	61347.78
585.30	61043.51
585.46	61207.35
585.62	61120.75
585.78	61317.35
585.94	60907.76
586.10	61235.44
586.26	61282.25
586.42	61403.95
586.58	61183.94
586.74	61087.98
586.90	61015.43
587.06	60977.98
587.22	61399.27
587.38	61062.24
587.54	61361.82
587.70	61361.82
587.86	61137.13
588.02	61085.64
588.18	61396.93
588.34	61378.21
588.49	61048.19
