SpectraSuite Data File
++++++++++++++++++++++++++++++++++++
Date: Fri Oct 25 10:47:50 EDT 2013
User: price-jones
Dark Spectrum Present: No
Reference Spectrum Present: No
Number of Sampled Component Spectra: 1
Spectrometers: USB2+H05261
Integration Time (usec): 100000 (USB2+H05261)
Spectra Averaged: 1 (USB2+H05261)
Boxcar Smoothing: 0 (USB2+H05261)
Correct for Electrical Dark: No (USB2+H05261)
Strobe/Lamp Enabled: No (USB2+H05261)
Correct for Detector Non-linearity: No (USB2+H05261)
Correct for Stray Light: No (USB2+H05261)
Number of Pixels in Processed Spectrum: 2048
>>>>>Begin Processed Spectral Data<<<<<
365.73	63.19
365.92	63.19
366.12	63.19
366.32	28.09
366.52	93.62
366.72	44.47
366.91	30.43
367.11	42.13
367.31	53.83
367.51	65.54
367.70	53.83
367.90	102.98
368.10	81.92
368.30	63.19
368.49	16.38
368.69	32.77
368.89	60.85
369.09	28.09
369.28	88.94
369.48	91.28
369.68	37.45
369.87	100.64
370.07	105.32
370.27	110.01
370.47	187.24
370.66	369.80
370.86	383.85
371.06	447.04
371.25	477.47
371.45	409.59
371.65	479.81
371.84	454.06
372.04	374.49
372.24	447.04
372.44	468.11
372.63	472.79
372.83	524.28
373.03	517.26
373.22	468.11
373.42	489.17
373.62	540.66
373.81	580.45
374.01	489.17
374.21	517.26
374.40	512.58
374.60	582.79
374.79	538.32
374.99	510.24
375.19	519.60
375.38	528.96
375.58	531.30
375.78	587.47
375.97	608.54
376.17	620.24
376.37	617.90
376.56	699.82
376.76	592.16
376.95	486.83
377.15	592.16
377.35	664.71
377.54	587.47
377.74	543.00
377.93	601.52
378.13	599.18
378.33	613.22
378.52	535.98
378.72	620.24
378.91	557.05
379.11	697.48
379.31	720.88
379.50	657.69
379.70	589.82
379.89	674.07
380.09	716.20
380.28	695.14
380.48	674.07
380.68	578.11
380.87	671.73
381.07	678.76
381.26	741.95
381.46	697.48
381.65	653.01
381.85	667.05
382.04	727.91
382.24	739.61
382.43	774.72
382.63	653.01
382.83	702.16
383.02	760.67
383.22	711.52
383.41	685.78
383.61	784.08
383.80	786.42
384.00	718.54
384.19	777.06
384.39	748.97
384.58	699.82
384.78	786.42
384.97	723.23
385.17	774.72
385.36	704.50
385.56	784.08
385.75	711.52
385.95	774.72
386.14	823.87
386.34	826.21
386.53	854.30
386.72	863.66
386.92	814.51
387.11	781.74
387.31	821.53
387.50	767.70
387.70	763.01
387.89	823.87
388.09	819.19
388.28	828.55
388.48	791.10
388.67	844.93
388.86	863.66
389.06	819.19
389.25	880.04
389.45	823.87
389.64	915.15
389.84	926.85
390.03	929.19
390.22	861.32
390.42	851.96
390.61	903.45
390.81	1018.13
391.00	973.66
391.19	915.15
391.39	961.96
391.58	926.85
391.78	861.32
391.97	978.34
392.16	894.08
392.36	999.41
392.55	1015.79
392.75	1020.47
392.94	947.92
393.13	957.28
393.33	976.00
393.52	992.39
393.71	1090.69
393.91	1093.03
394.10	997.07
394.29	1053.24
394.49	1071.97
394.68	959.62
394.88	1081.33
395.07	1022.81
395.26	1184.31
395.46	1102.39
395.65	1170.27
395.84	1146.86
396.04	1111.75
396.23	1181.97
396.42	1025.15
396.62	1153.88
396.81	1121.12
397.00	1132.82
397.19	1167.93
397.39	1160.91
397.58	1228.78
397.77	1273.25
397.97	1296.66
398.16	1177.29
398.35	1313.04
398.55	1294.32
398.74	1224.10
398.93	1394.96
399.12	1373.89
399.32	1284.95
399.51	1310.70
399.70	1383.26
399.90	1376.24
400.09	1376.24
400.28	1394.96
400.47	1409.00
400.67	1420.71
400.86	1462.83
401.05	1547.09
401.24	1439.43
401.44	1570.50
401.63	1504.96
401.82	1495.60
402.01	1507.30
402.21	1516.67
402.40	1537.73
402.59	1481.56
402.78	1514.33
402.97	1591.56
403.17	1575.18
403.36	1650.08
403.55	1600.93
403.74	1633.69
403.93	1729.66
404.13	1732.00
404.32	1575.18
404.51	1638.38
404.70	1760.08
404.89	1727.32
405.09	1631.35
405.28	1696.89
405.47	1640.72
405.66	1785.83
405.85	1825.62
406.05	1734.34
406.24	1755.40
406.43	1853.70
406.62	1743.70
406.81	1870.09
407.00	1696.89
407.20	1884.13
407.39	1975.41
407.58	1968.39
407.77	2038.61
407.96	1975.41
408.15	2026.90
408.34	2026.90
408.54	1966.05
408.73	2003.50
408.92	2118.18
409.11	2094.78
409.30	2134.57
409.49	2092.44
409.68	2157.97
409.87	1963.71
410.07	2080.74
410.26	2157.97
410.45	2167.34
410.64	2080.74
410.83	2239.89
411.02	2183.72
411.21	2296.07
411.40	2279.68
411.59	2345.22
411.78	2296.07
411.98	2249.25
412.17	2382.67
412.36	2368.62
412.55	2466.92
412.74	2352.24
412.93	2415.43
413.12	2438.84
413.31	2640.12
413.50	2377.98
413.69	2572.25
413.88	2628.42
414.07	2438.84
414.26	2663.53
414.45	2693.96
414.64	2668.21
414.83	2665.87
415.02	2719.70
415.22	2693.96
415.41	2813.32
415.60	2747.79
415.79	2848.43
415.98	2736.09
416.17	2843.75
416.36	2876.52
416.55	2792.26
416.74	3026.31
416.93	2855.45
417.12	2991.20
417.31	2867.16
417.50	2956.10
417.69	3087.17
417.88	2937.37
418.07	3035.67
418.26	3021.63
418.45	3178.45
418.64	3164.40
418.83	3267.39
419.02	3199.51
419.21	3321.22
419.39	3276.75
419.58	3122.27
419.77	3007.59
419.96	3276.75
420.15	3262.71
420.34	3215.90
420.53	3356.33
420.72	3412.50
420.91	3363.35
421.10	3529.53
421.29	3459.31
421.48	3314.20
421.67	3468.67
421.86	3515.48
422.05	3332.92
422.24	3337.60
422.43	3426.54
422.61	3391.44
422.80	3557.61
422.99	3515.48
423.18	3515.48
423.37	3674.64
423.56	3632.51
423.75	3522.51
423.94	3520.17
424.13	3297.81
424.32	3393.78
424.50	3574.00
424.69	3660.60
424.88	3646.55
425.07	3552.93
425.26	3550.59
425.45	3529.53
425.64	3574.00
425.83	3595.06
426.01	3726.13
426.20	3543.57
426.39	3545.91
426.58	3632.51
426.77	3658.26
426.96	3588.04
427.15	3674.64
427.33	3562.30
427.52	3632.51
427.71	3805.71
427.90	3777.62
428.09	3824.44
428.28	3772.94
428.46	3749.54
428.65	3843.16
428.84	3740.18
429.03	3796.35
429.22	3712.09
429.40	3700.39
429.59	3712.09
429.78	3674.64
429.97	3574.00
430.16	3644.21
430.34	3915.72
430.53	3971.89
430.72	3857.20
430.91	4032.74
431.10	4133.39
431.28	4119.34
431.47	4121.68
431.66	4079.55
431.85	4035.08
432.03	4102.96
432.22	4255.09
432.41	4081.89
432.60	4140.41
432.79	4238.71
432.97	4191.90
433.16	4271.48
433.35	4065.51
433.54	4217.65
433.72	4308.93
433.91	4280.84
434.10	4393.19
434.28	4404.89
434.47	4304.25
434.66	4397.87
434.85	4447.02
435.03	4608.51
435.22	4432.97
435.41	4552.34
435.59	4589.79
435.78	4681.07
435.97	4812.14
436.16	4641.28
436.34	4400.21
436.53	4660.01
436.72	4638.94
436.90	4482.13
437.09	4730.22
437.28	4561.70
437.46	4755.97
437.65	4662.35
437.84	4718.52
438.02	4870.65
438.21	4814.48
438.40	4566.39
438.58	4891.72
438.77	4961.94
438.96	4968.96
439.14	5153.86
439.33	5184.29
439.52	5167.90
439.70	5018.11
439.89	5184.29
440.08	5219.39
440.26	5167.90
440.45	5165.56
440.63	5376.21
440.82	5350.46
441.01	5352.81
441.19	5488.56
441.38	5486.22
441.57	5474.51
441.75	5542.39
441.94	5713.25
442.12	5689.84
442.31	5720.27
442.50	5729.63
442.68	5657.07
442.87	5556.43
443.05	5776.44
443.24	5898.15
443.43	5710.91
443.61	5898.15
443.80	5851.34
443.98	5664.10
444.17	5558.77
444.35	5790.49
444.54	5884.11
444.73	5860.70
444.91	5788.14
445.10	5806.87
445.28	5884.11
445.47	5673.46
445.65	5813.89
445.84	5959.00
446.02	5966.03
446.21	5935.60
446.39	6083.05
446.58	6026.88
446.77	5884.11
446.95	6001.13
447.14	6022.20
447.32	5991.77
447.51	6054.97
447.69	5942.62
447.88	6040.92
448.06	5928.58
448.25	5809.21
448.43	6092.41
448.62	6118.16
448.80	6139.23
448.99	6019.86
449.17	6171.99
449.36	6050.28
449.54	6328.81
449.73	6436.47
449.91	6459.88
450.10	6499.67
450.28	6420.09
450.46	6422.43
450.65	6413.07
450.83	6396.68
451.02	6368.60
451.20	6342.85
451.39	6466.90
451.57	6387.32
451.76	6581.59
451.94	6537.12
452.13	6546.48
452.31	6436.47
452.49	6452.86
452.68	6539.46
452.86	6441.15
453.05	6523.07
453.23	6623.72
453.42	6677.55
453.60	6525.41
453.78	6752.45
453.97	6696.27
454.15	6757.13
454.34	6696.27
454.52	6911.60
454.70	6813.30
454.89	6895.22
455.07	6909.26
455.26	6820.32
455.44	7012.24
455.62	6846.07
455.81	7049.69
455.99	7054.37
456.17	6993.52
456.36	7110.55
456.54	7059.06
456.73	7197.15
456.91	7426.52
457.09	7258.00
457.28	7452.27
457.46	7183.10
457.64	7363.33
457.83	7279.07
458.01	7356.30
458.19	7384.39
458.38	7372.69
458.56	7405.46
458.74	7576.31
458.93	7487.37
459.11	7527.16
459.29	7503.76
459.48	7522.48
459.66	7559.93
459.84	7478.01
460.03	7737.81
460.21	7775.26
460.39	7768.24
460.57	7585.68
460.76	7688.66
460.94	7903.99
461.12	7758.88
461.31	7789.30
461.49	7681.64
461.67	7655.89
461.85	8049.10
462.04	7962.50
462.22	8383.80
462.40	8149.75
462.59	8161.45
462.77	7948.46
462.95	7992.93
463.13	8077.19
463.32	8229.32
463.50	7978.89
463.68	8145.06
463.86	8180.17
464.05	8039.74
464.23	8255.07
464.41	8446.99
464.59	8217.62
464.78	8229.32
464.96	8304.22
465.14	8205.92
465.32	8294.86
465.50	8425.93
465.69	8444.65
465.87	8425.93
466.05	8346.35
466.23	8484.44
466.41	8187.19
466.60	8344.01
466.78	8390.82
466.96	8355.71
467.14	8496.14
467.32	8610.83
467.51	8599.13
467.69	8372.10
467.87	8500.83
468.05	8734.88
468.23	8542.96
468.41	8500.83
468.60	8695.09
468.78	8744.24
468.96	8706.79
469.14	8788.71
469.32	8959.57
469.50	8592.11
469.69	8879.99
469.87	8903.40
470.05	8940.85
470.23	9018.08
470.41	8966.59
470.59	8908.08
470.77	9020.42
470.95	9046.17
471.14	9135.11
471.32	8954.89
471.50	9221.71
471.68	9296.61
471.86	9554.07
472.04	9507.26
472.22	9554.07
472.40	9050.85
472.58	9455.76
472.77	9614.92
472.95	9710.88
473.13	10078.35
473.31	9708.54
473.49	9640.67
473.67	9682.80
473.85	9582.15
474.03	10012.81
474.21	9916.85
474.39	9998.77
474.57	10064.30
474.75	10188.35
474.93	10085.37
475.12	10115.80
475.30	10291.34
475.48	10228.14
475.66	10434.11
475.84	10415.38
476.02	10537.09
476.20	10326.44
476.38	10640.08
476.56	10909.24
476.74	10864.77
476.92	10773.49
477.10	10911.58
477.28	10974.77
477.46	10920.94
477.64	11229.89
477.82	11316.49
478.00	11257.98
478.18	11396.07
478.36	11473.31
478.54	11730.76
478.72	11555.22
478.90	11852.47
479.08	11995.25
479.26	12009.29
479.44	11910.99
479.62	11894.60
479.80	12100.57
479.98	12236.32
480.16	12428.24
480.34	12400.16
480.52	12374.41
480.70	12390.80
480.88	12388.46
481.06	12734.85
481.24	12926.78
481.41	12989.97
481.59	13401.91
481.77	13046.15
481.95	13013.38
482.13	13256.79
482.31	13170.19
482.49	13666.39
482.67	13743.63
482.85	13621.92
483.03	13652.34
483.21	13818.52
483.39	14019.81
483.57	13940.23
483.74	14251.52
483.92	14293.65
484.10	14150.88
484.28	14263.22
484.46	14675.16
484.64	15218.16
484.82	14609.62
485.00	14876.44
485.18	15096.46
485.35	15304.76
485.53	15040.28
485.71	15234.55
485.89	15332.85
486.07	15522.43
486.25	15602.01
486.43	15826.70
486.61	15655.84
486.78	15997.56
486.96	16002.24
487.14	16226.93
487.32	15990.54
487.50	16451.63
487.68	16638.87
487.85	16769.94
488.03	17111.66
488.21	17034.42
488.39	16978.25
488.57	17362.09
488.75	17598.49
488.92	17600.83
489.10	17731.90
489.28	17802.11
489.46	17954.25
489.64	17940.21
489.81	18574.49
489.99	18555.77
490.17	18487.89
490.35	18864.72
490.53	18635.35
490.70	18853.02
490.88	18892.80
491.06	19232.18
491.24	18948.98
491.41	19307.08
491.59	19538.79
491.77	19381.98
491.95	19660.50
492.13	19442.83
492.30	19800.93
492.48	19749.44
492.66	20152.01
492.84	20023.28
493.01	20383.73
493.19	20152.01
493.37	20313.51
493.54	20772.25
493.72	20624.80
493.90	20940.77
494.08	21010.99
494.25	21099.93
494.43	21181.85
494.61	21811.45
494.79	21612.51
494.96	21755.28
495.14	21558.67
495.32	21776.34
495.49	22005.72
495.67	21809.11
495.85	21902.73
496.02	22136.79
496.20	22469.14
496.38	22553.40
496.55	22499.57
496.73	23014.49
496.91	22836.61
497.09	22948.95
497.26	23150.24
497.44	23131.51
497.62	23175.98
497.79	23445.15
497.97	23117.47
498.14	23468.55
498.32	23697.92
498.50	23627.71
498.67	24226.89
498.85	23754.10
499.03	23791.55
499.20	24376.68
499.38	24173.05
499.56	24332.21
499.73	24549.88
499.91	24500.73
500.08	24730.10
500.26	24533.50
500.44	24613.07
500.61	25144.38
500.79	24655.20
500.97	24676.27
501.14	25090.54
501.32	25458.01
501.49	25598.44
501.67	25172.46
501.84	25504.82
502.02	25291.83
502.20	25612.48
502.37	26096.97
502.55	25607.80
502.72	25748.23
502.90	25600.78
503.07	25804.41
503.25	25792.70
503.43	25989.31
503.60	26164.85
503.78	26703.17
503.95	26588.49
504.13	26546.36
504.30	26539.33
504.48	26841.26
504.65	26682.11
504.83	27056.59
505.01	27587.89
505.18	26824.88
505.36	27089.36
505.53	27091.70
505.71	27721.30
505.88	27367.88
506.06	27307.03
506.23	27513.00
506.41	27470.87
506.58	27618.32
506.76	27847.69
506.93	27700.24
507.11	27742.37
507.28	27810.25
507.46	27901.53
507.63	28027.92
507.81	28051.32
507.98	27957.70
508.16	28229.20
508.33	28697.31
508.50	28917.32
508.68	28641.14
508.85	29195.84
509.03	28596.67
509.20	28816.68
509.38	29296.49
509.55	29116.26
509.73	29134.99
509.90	29404.15
510.08	28795.61
510.25	29195.84
510.42	29387.77
510.60	29991.62
510.77	29659.27
510.95	29766.93
511.12	29699.06
511.30	29883.96
511.47	30139.08
511.64	30253.76
511.82	30115.67
511.99	29972.90
512.17	30485.48
512.34	30064.18
512.51	30803.79
512.69	30766.34
512.86	30574.42
513.04	30918.48
513.21	30541.65
513.38	30771.02
513.56	30855.28
513.73	30675.06
513.90	31047.21
514.08	30850.60
514.25	31091.68
514.43	30984.01
514.60	31264.88
514.77	31044.87
514.95	31653.40
515.12	31536.38
515.29	31283.60
515.47	31784.48
515.64	31791.50
515.81	31730.64
515.99	31901.50
516.16	31967.04
516.33	31646.38
516.51	31805.54
516.68	31688.51
516.85	31744.69
517.03	31716.60
517.20	31931.93
517.37	31969.38
517.54	32570.90
517.72	32790.91
517.89	32084.06
518.06	32149.60
518.24	31967.04
518.41	32144.92
518.58	32741.75
518.75	32587.28
518.93	33039.00
519.10	32573.24
519.27	32711.33
519.45	33053.05
519.62	32854.10
519.79	32940.70
519.96	33251.99
520.14	33766.91
520.31	33273.06
520.48	33504.77
520.65	33694.35
520.83	33855.85
521.00	33652.22
521.17	33589.03
521.34	33589.03
521.52	33677.97
521.69	33717.76
521.86	33853.51
522.03	34375.45
522.20	33965.85
522.38	34270.12
522.55	34309.91
522.72	34508.86
522.89	34464.39
523.07	34361.40
523.24	33977.56
523.41	34569.71
523.58	34398.85
523.75	34958.24
523.92	34862.28
524.10	34878.66
524.27	34946.54
524.44	34890.37
524.61	35269.53
524.78	35494.22
524.96	35115.06
525.13	35297.62
525.30	35742.32
525.47	35775.09
525.64	35372.52
525.81	35814.88
525.98	35505.93
526.16	35346.77
526.33	35440.39
526.50	36065.31
526.67	35501.25
526.84	35475.50
527.01	35447.41
527.18	35655.72
527.36	36086.38
527.53	36437.46
527.70	36687.90
527.87	36723.01
528.04	36018.50
528.21	36142.55
528.38	35924.88
528.55	36428.10
528.72	36655.13
528.89	36825.99
529.07	36531.08
529.24	36472.57
529.41	36884.50
529.58	36463.21
529.75	36397.67
529.92	36732.37
530.09	36119.15
530.26	37024.93
530.43	37170.05
530.60	37069.40
530.77	36678.54
530.94	37392.40
531.11	37177.07
531.28	37263.67
531.46	37230.90
531.63	37806.67
531.80	37216.86
531.97	37195.79
532.14	37474.32
532.31	36926.63
532.48	37282.39
532.65	38054.77
532.82	37017.91
532.99	37811.35
533.16	37876.89
533.33	37984.55
533.50	38026.68
533.67	38204.56
533.84	37989.24
534.01	38204.56
534.18	38117.96
534.35	38382.45
534.52	37736.46
534.69	38017.32
534.86	38490.11
535.03	38298.19
535.20	38728.84
535.37	38366.06
535.54	38403.51
535.71	38536.92
535.88	38462.02
536.05	38576.71
536.22	38557.99
536.38	38586.07
536.55	38557.99
536.72	38665.65
536.89	38656.29
537.06	38726.50
537.23	38946.51
537.40	38902.04
537.57	38993.32
537.74	38717.14
537.91	39683.78
538.08	38998.01
538.25	38476.07
538.42	38897.36
538.59	39461.43
538.75	38871.62
538.92	39243.76
539.09	39049.50
539.26	39480.16
539.43	39419.30
539.60	39393.56
539.77	39597.18
539.94	39325.68
540.11	39065.88
540.28	39388.88
540.44	39658.04
540.61	39194.61
540.78	39615.91
540.95	39611.23
541.12	39484.84
541.29	39866.34
541.46	39721.23
541.62	39611.23
541.79	40243.17
541.96	39749.32
542.13	40135.51
542.30	39920.18
542.47	40189.34
542.63	39840.60
542.80	40467.86
542.97	40507.65
543.14	40715.96
543.31	40301.68
543.48	40856.39
543.64	41174.70
543.81	40692.55
543.98	40708.94
544.15	40655.11
544.32	41130.23
544.48	41111.51
544.65	41095.13
544.82	41031.93
544.99	40734.68
545.16	40952.35
545.32	40722.98
545.49	41303.43
545.66	41392.37
545.83	41109.17
546.00	41350.24
546.16	40935.97
546.33	41413.44
546.50	40945.33
546.67	41031.93
546.83	40891.50
547.00	41317.48
547.17	41303.43
547.34	40994.48
547.50	41467.27
547.67	41546.85
547.84	41434.50
548.00	41820.69
548.17	42021.98
548.34	41457.91
548.51	42033.68
548.67	41996.23
548.84	41951.76
549.01	41708.35
549.18	41846.44
549.34	41675.58
549.51	41982.19
549.68	42110.92
549.84	42309.86
550.01	41940.06
550.18	42047.72
550.34	41853.46
550.51	42150.71
550.68	41832.39
550.84	41539.83
551.01	42029.00
551.18	42213.90
551.34	42122.62
551.51	42419.87
551.68	42265.39
551.84	42241.99
552.01	42120.28
552.18	42384.76
552.34	42131.98
552.51	42745.20
552.68	42630.52
552.84	42363.70
553.01	43126.71
553.18	42529.87
553.34	42562.64
553.51	42391.78
553.67	42841.17
553.84	42843.51
554.01	43051.81
554.17	43185.22
554.34	43358.42
554.51	42887.98
554.67	43112.67
554.84	42997.98
555.00	42925.42
555.17	42665.63
555.33	42670.31
555.50	42759.25
555.67	42902.02
555.83	43196.93
556.00	43100.97
556.16	43194.59
556.33	43468.43
556.50	43019.05
556.66	43260.12
556.83	43100.97
556.99	42939.47
557.16	43416.94
557.32	43533.96
557.49	42520.51
557.65	43206.29
557.82	43496.52
557.98	43379.49
558.15	43372.47
558.32	43587.80
558.48	43316.29
558.65	43339.70
558.81	43253.10
558.98	43753.97
559.14	43519.92
559.31	43145.44
559.47	43594.82
559.64	43538.65
559.80	44133.14
559.97	43758.66
560.13	43026.07
560.30	43695.46
560.46	43831.21
560.63	43040.11
560.79	43482.47
560.96	43695.46
561.12	43648.65
561.29	44088.67
561.45	43728.23
561.61	43929.51
561.78	43803.13
561.94	43519.92
562.11	43882.70
562.27	43505.88
562.44	43531.62
562.60	43981.01
562.77	44261.87
562.93	43789.08
563.10	44102.71
563.26	43452.05
563.42	44039.52
563.59	43725.89
563.75	43913.13
563.92	44217.40
564.08	44184.63
564.24	43910.79
564.41	43765.68
564.57	44215.06
564.74	44121.44
564.90	44191.65
565.07	44369.54
565.23	44053.56
565.39	43669.72
565.56	44292.30
565.72	44006.75
565.88	43587.80
566.05	44058.24
566.21	43613.54
566.38	44573.16
566.54	43896.75
566.70	44208.04
566.87	44334.43
567.03	44002.07
567.19	44231.44
567.36	43992.71
567.52	44027.82
567.68	44112.08
567.85	44163.57
568.01	44683.17
568.17	43988.03
568.34	44699.55
568.50	44390.60
568.66	44172.93
568.83	44341.45
568.99	44439.75
569.15	44128.46
569.32	44252.51
569.48	44217.40
569.64	44748.70
569.81	44739.34
569.97	44493.58
570.13	44428.05
570.30	44456.14
570.46	44264.21
570.62	44172.93
570.78	44205.70
570.95	44280.60
571.11	44631.68
571.27	44648.06
571.43	44505.29
571.60	44254.85
571.76	44652.74
571.92	44397.62
572.09	44617.63
572.25	44275.91
572.41	44425.71
572.57	44397.62
572.74	45043.61
572.90	44994.46
573.06	44928.92
573.22	44467.84
573.38	44559.12
573.55	44343.79
573.71	44842.32
573.87	44587.21
574.03	44266.55
574.20	44360.17
574.36	44673.81
574.52	44383.58
574.68	44769.77
574.84	44861.05
575.01	44467.84
575.17	44807.22
575.33	44058.24
575.49	44357.83
575.65	44811.90
575.82	45127.87
575.98	44673.81
576.14	45212.13
576.30	44683.17
576.46	45074.04
576.62	44722.96
576.79	44252.51
576.95	44299.32
577.11	44861.05
577.27	44673.81
577.43	44418.69
577.59	44701.89
577.75	44568.48
577.92	44519.33
578.08	44147.18
578.24	44748.70
578.40	44603.59
578.56	44439.75
578.72	44638.70
578.88	44348.47
579.04	44369.54
579.21	44713.59
579.37	44105.06
579.53	44781.47
579.69	44392.94
579.85	44996.80
580.01	44369.54
580.17	44786.15
580.33	45200.43
580.49	44839.98
580.65	45111.49
580.82	44556.78
580.98	44858.71
581.14	44699.55
581.30	45113.83
581.46	44729.98
581.62	44493.58
581.78	44823.60
581.94	45207.45
582.10	45132.55
582.26	44797.85
582.42	44425.71
582.58	45064.67
582.74	44507.63
582.90	44854.03
583.06	45034.25
583.22	44781.47
583.38	45448.52
583.54	45228.51
583.70	44933.60
583.86	44509.97
584.02	44383.58
584.18	44690.19
584.34	44484.22
584.50	44547.42
584.66	44643.38
584.82	44926.58
584.98	44971.05
585.14	44854.03
585.30	44313.36
585.46	44680.83
585.62	44715.93
585.78	44718.28
585.94	44355.49
586.10	44760.40
586.26	44835.30
586.42	44905.52
586.58	44907.86
586.74	45085.74
586.90	44617.63
587.06	44488.90
587.22	44994.46
587.38	44797.85
587.54	45364.26
587.70	45083.40
587.86	44839.98
588.02	45354.90
588.18	45106.80
588.34	44451.45
588.49	44732.32
588.65	44498.26
588.81	44472.52
588.97	44442.09
589.13	44746.36
589.29	44313.36
589.45	44959.35
589.61	44701.89
589.77	45207.45
589.93	45038.93
590.08	45263.62
590.24	44996.80
