SpectraSuite Data File
++++++++++++++++++++++++++++++++++++
Date: Fri Oct 25 10:48:35 EDT 2013
User: price-jones
Dark Spectrum Present: No
Reference Spectrum Present: No
Number of Sampled Component Spectra: 1
Spectrometers: USB2+H05261
Integration Time (usec): 100000 (USB2+H05261)
Spectra Averaged: 1 (USB2+H05261)
Boxcar Smoothing: 0 (USB2+H05261)
Correct for Electrical Dark: No (USB2+H05261)
Strobe/Lamp Enabled: No (USB2+H05261)
Correct for Detector Non-linearity: No (USB2+H05261)
Correct for Stray Light: No (USB2+H05261)
Number of Pixels in Processed Spectrum: 2048
>>>>>Begin Processed Spectral Data<<<<<
365.73	114.69
365.92	114.69
366.12	114.69
366.32	4.68
366.52	86.60
366.72	77.24
366.91	0.00
367.11	39.79
367.31	16.38
367.51	63.19
367.70	67.88
367.90	39.79
368.10	79.58
368.30	53.83
368.49	9.36
368.69	72.56
368.89	60.85
369.09	74.90
369.28	53.83
369.48	81.92
369.68	58.51
369.87	65.54
370.07	72.56
370.27	93.62
370.47	184.90
370.66	425.98
370.86	510.24
371.06	465.77
371.25	491.51
371.45	505.56
371.65	620.24
371.84	482.15
372.04	545.34
372.24	528.96
372.44	510.24
372.63	603.86
372.83	585.13
373.03	512.58
373.22	500.87
373.42	557.05
373.62	547.69
373.81	566.41
374.01	552.37
374.21	559.39
374.40	575.77
374.60	688.12
374.79	543.00
374.99	683.44
375.19	606.20
375.38	592.16
375.58	594.50
375.78	638.97
375.97	655.35
376.17	692.80
376.37	650.67
376.56	662.37
376.76	690.46
376.95	674.07
377.15	678.76
377.35	704.50
377.54	718.54
377.74	695.14
377.93	695.14
378.13	664.71
378.33	711.52
378.52	727.91
378.72	648.33
378.91	692.80
379.11	699.82
379.31	662.37
379.50	643.65
379.70	695.14
379.89	695.14
380.09	725.57
380.28	713.86
380.48	697.48
380.68	725.57
380.87	695.14
381.07	674.07
381.26	758.33
381.46	802.80
381.65	746.63
381.85	671.73
382.04	763.01
382.24	791.10
382.43	655.35
382.63	681.10
382.83	697.48
383.02	758.33
383.22	734.93
383.41	737.27
383.61	788.76
383.80	767.70
384.00	856.64
384.19	851.96
384.39	837.91
384.58	891.74
384.78	929.19
384.97	870.68
385.17	861.32
385.36	847.27
385.56	851.96
385.75	840.25
385.95	816.85
386.14	973.66
386.34	819.19
386.53	875.36
386.72	887.06
386.92	947.92
387.11	912.81
387.31	854.30
387.50	854.30
387.70	994.73
387.89	905.79
388.09	905.79
388.28	922.17
388.48	915.15
388.67	952.60
388.86	964.30
389.06	966.64
389.25	961.96
389.45	1039.20
389.64	1071.97
389.84	1053.24
390.03	938.55
390.22	1050.90
390.42	1142.18
390.61	1123.46
390.81	1137.50
391.00	1090.69
391.19	1046.22
391.39	1076.65
391.58	1121.12
391.78	1060.26
391.97	1165.59
392.16	1043.88
392.36	1001.75
392.55	1086.01
392.75	1046.22
392.94	1069.62
393.13	1153.88
393.33	1064.94
393.52	1165.59
393.71	1151.54
393.91	1184.31
394.10	1233.46
394.29	1266.23
394.49	1221.76
394.68	1235.80
394.88	1291.98
395.07	1352.83
395.26	1313.04
395.46	1280.27
395.65	1399.64
395.84	1291.98
396.04	1425.39
396.23	1275.59
396.42	1198.35
396.62	1247.51
396.81	1287.29
397.00	1282.61
397.19	1352.83
397.39	1362.19
397.58	1406.66
397.77	1437.09
397.97	1465.18
398.16	1509.65
398.35	1490.92
398.55	1537.73
398.74	1540.07
398.93	1673.48
399.12	1575.18
399.32	1575.18
399.51	1661.78
399.70	1659.44
399.90	1617.31
400.09	1619.65
400.28	1645.40
400.47	1605.61
400.67	1701.57
400.86	1743.70
401.05	1764.76
401.24	1809.23
401.44	1811.57
401.63	1781.15
401.82	1734.34
402.01	1830.30
402.21	1823.28
402.40	1898.17
402.59	1849.02
402.78	1797.53
402.97	1893.49
403.17	1973.07
403.36	1940.30
403.55	1900.52
403.74	1944.99
403.93	1830.30
404.13	1799.87
404.32	1984.77
404.51	2017.54
404.70	1977.75
404.89	1907.54
405.09	2076.06
405.28	2040.95
405.47	1977.75
405.66	2043.29
405.85	1998.82
406.05	2069.03
406.24	2221.17
406.43	2209.47
406.62	2232.87
406.81	2296.07
407.00	2176.70
407.20	2181.38
407.39	2143.93
407.58	2253.94
407.77	2319.47
407.96	2359.26
408.15	2272.66
408.34	2333.51
408.54	2401.39
408.73	2380.32
408.92	2471.61
409.11	2436.50
409.30	2377.98
409.49	2392.03
409.68	2417.77
409.87	2427.14
410.07	2380.32
410.26	2466.92
410.45	2459.90
410.64	2642.46
410.83	2628.42
411.02	2654.17
411.21	2775.88
411.40	2654.17
411.59	2717.36
411.78	2712.68
411.98	2703.32
412.17	2754.81
412.36	2892.90
412.55	2888.22
412.74	2789.92
412.93	2895.24
413.12	2963.12
413.31	2981.84
413.50	3038.02
413.69	3038.02
413.88	3089.51
414.07	3035.67
414.26	3084.83
414.45	3028.65
414.64	3112.91
414.83	3166.74
415.02	3218.24
415.22	3220.58
415.41	3197.17
415.60	3321.22
415.79	3251.00
415.98	3391.44
416.17	3487.40
416.36	3414.84
416.55	3220.58
416.74	3421.86
416.93	3389.10
417.12	3456.97
417.31	3382.07
417.50	3531.87
417.69	3592.72
417.88	3527.19
418.07	3765.92
418.26	3503.78
418.45	3606.77
418.64	3861.88
418.83	3648.90
419.02	3726.13
419.21	3721.45
419.39	3866.56
419.58	3662.94
419.77	3726.13
419.96	3672.30
420.15	3838.48
420.34	3913.38
420.53	3833.80
420.72	3939.12
420.91	3878.27
421.10	4004.66
421.29	4007.00
421.48	3988.27
421.67	4028.06
421.86	3906.35
422.05	3953.16
422.24	3913.38
422.43	3978.91
422.61	4063.17
422.80	3978.91
422.99	4109.98
423.18	4018.70
423.37	4198.92
423.56	4051.47
423.75	4091.26
423.94	4072.53
424.13	3852.52
424.32	3908.69
424.50	4194.24
424.69	4177.86
424.88	4093.60
425.07	4140.41
425.26	4004.66
425.45	4086.58
425.64	4133.39
425.83	4105.30
426.01	4304.25
426.20	4128.70
426.39	4208.28
426.58	4154.45
426.77	4086.58
426.96	4117.00
427.15	4175.52
427.33	4299.56
427.52	4250.41
427.71	4262.12
427.90	4287.86
428.09	4238.71
428.28	4152.11
428.46	4344.03
428.65	4304.25
428.84	4517.23
429.03	4533.62
429.22	4138.07
429.40	4292.54
429.59	4283.18
429.78	4198.92
429.97	3899.33
430.16	4131.05
430.34	4273.82
430.53	4348.72
430.72	4234.03
430.91	4458.72
431.10	4648.30
431.28	4662.35
431.47	4835.55
431.66	4975.98
431.85	4713.84
432.03	4826.18
432.22	4891.72
432.41	4842.57
432.60	4865.97
432.79	4812.14
432.97	4945.55
433.16	4849.59
433.35	4631.92
433.54	4802.78
433.72	4748.95
433.91	4842.57
434.10	5011.09
434.28	4861.29
434.47	4983.00
434.66	4854.27
434.85	5174.92
435.03	5256.84
435.22	5083.64
435.41	5294.29
435.59	5221.74
435.78	5320.04
435.97	5385.57
436.16	5486.22
436.34	5322.38
436.53	5486.22
436.72	5455.79
436.90	5275.57
437.09	5427.70
437.28	5317.70
437.46	5341.10
437.65	5280.25
437.84	5441.75
438.02	5509.62
438.21	5455.79
438.40	5385.57
438.58	5483.88
438.77	5731.97
438.96	5509.62
439.14	5769.42
439.33	5860.70
439.52	5853.68
439.70	5769.42
439.89	5961.34
440.08	5970.71
440.26	5856.02
440.45	5966.03
440.63	6015.18
440.82	6230.51
441.01	6148.59
441.19	6256.25
441.38	6324.13
441.57	6279.66
441.75	6347.53
441.94	6459.88
442.12	6623.72
442.31	6654.14
442.50	6651.80
442.68	6459.88
442.87	6544.14
443.05	6642.44
443.24	6789.89
443.43	6764.15
443.61	6637.76
443.80	7068.42
443.98	6530.09
444.17	6530.09
444.35	6822.66
444.54	6864.79
444.73	6808.62
444.91	6600.31
445.10	6609.67
445.28	6754.79
445.47	6747.76
445.65	6738.40
445.84	6794.58
446.02	6698.61
446.21	6860.11
446.39	6949.05
446.58	6892.88
446.77	6963.09
446.95	6906.92
447.14	6869.47
447.32	7014.59
447.51	6860.11
447.69	6890.54
447.88	7124.59
448.06	6923.30
448.25	6953.73
448.43	6981.82
448.62	7019.27
448.80	7112.89
448.99	7066.08
449.17	7140.97
449.36	7131.61
449.54	7316.51
449.73	7398.43
449.91	7353.96
450.10	7351.62
450.28	7501.42
450.46	7660.57
450.65	7662.91
450.83	7728.45
451.02	7449.93
451.20	7779.94
451.39	7700.36
451.57	7583.34
451.76	7391.41
451.94	7573.97
452.13	7588.02
452.31	7651.21
452.49	7035.65
452.68	7548.23
452.86	7337.58
453.05	7705.04
453.23	7637.17
453.42	7562.27
453.60	7723.77
453.78	7662.91
453.97	7541.21
454.15	7756.54
454.34	7597.38
454.52	7728.45
454.70	7665.25
454.89	7812.71
455.07	7906.33
455.26	7911.01
455.44	8049.10
455.62	7892.29
455.81	8184.85
455.99	8109.96
456.17	8133.36
456.36	8081.87
456.54	8168.47
456.73	8320.60
456.91	8416.57
457.09	8575.72
457.28	8444.65
457.46	8252.73
457.64	8636.58
457.83	8444.65
458.01	8149.75
458.19	8629.56
458.38	8194.22
458.56	8589.77
458.74	8594.45
458.93	8491.46
459.11	8463.38
459.29	8468.06
459.48	8758.28
459.66	8734.88
459.84	8512.53
460.03	8805.10
460.21	8781.69
460.39	8903.40
460.57	9006.38
460.76	8994.68
460.94	9034.47
461.12	8999.36
461.31	9025.11
461.49	8971.27
461.67	8982.98
461.85	9357.46
462.04	8915.10
462.22	9558.75
462.40	9256.82
462.59	9378.53
462.77	9177.24
462.95	9224.05
463.13	9320.01
463.32	9238.09
463.50	9411.29
463.68	9465.13
463.86	9518.96
464.05	9268.52
464.23	9280.22
464.41	9465.13
464.59	9177.24
464.78	9551.73
464.96	9355.12
465.14	9315.33
465.32	9458.10
465.50	9614.92
465.69	9851.31
465.87	9521.30
466.05	9497.89
466.23	9628.96
466.41	9617.26
466.60	9771.74
466.78	9579.81
466.96	9558.75
467.14	9710.88
467.32	9767.06
467.51	9811.53
467.69	9621.94
467.87	9727.27
468.05	9741.31
468.23	9895.78
468.41	9930.89
468.60	9926.21
468.78	10019.83
468.96	9893.44
469.14	9893.44
469.32	10101.75
469.50	10024.51
469.69	10134.52
469.87	10050.26
470.05	10024.51
470.23	10090.05
470.41	10246.87
470.59	10312.40
470.77	10377.94
470.95	10333.47
471.14	10544.11
471.32	10480.92
471.50	10581.56
471.68	10611.99
471.86	10726.68
472.04	10857.75
472.22	11030.94
472.40	10466.88
472.58	10707.95
472.77	10930.30
472.95	11154.99
473.13	11267.34
473.31	10836.68
473.49	10984.13
473.67	10977.11
473.85	10991.16
474.03	11403.09
474.21	11346.92
474.39	11571.61
474.57	11487.35
474.75	11534.16
474.93	11611.40
475.12	11597.35
475.30	11789.28
475.48	11700.34
475.66	11946.09
475.84	11707.36
476.02	11887.58
476.20	11985.88
476.38	11967.16
476.56	12353.35
476.74	11946.09
476.92	12180.15
477.10	12159.08
477.28	12535.91
477.46	12587.40
477.64	12655.28
477.82	13076.57
478.00	13041.46
478.18	13015.72
478.36	13048.49
478.54	13004.02
478.72	13310.63
478.90	13352.76
479.08	13671.07
479.26	13364.46
479.44	13694.47
479.62	13811.50
479.80	13790.44
479.98	14003.43
480.16	14090.02
480.34	14008.11
480.52	14326.42
480.70	14328.76
480.88	14045.55
481.06	14527.71
481.24	14214.07
481.41	14888.15
481.59	15190.08
481.77	15002.83
481.95	15159.65
482.13	14904.53
482.31	15094.11
482.49	15592.65
482.67	15496.69
482.85	15704.99
483.03	15960.11
483.21	15763.51
483.39	15948.41
483.57	15730.74
483.74	16077.14
483.92	16135.65
484.10	16114.59
484.28	16652.91
484.46	16767.60
484.64	17074.21
484.82	16755.90
485.00	16767.60
485.18	17064.85
485.35	16959.52
485.53	16744.19
485.71	16739.51
485.89	16886.97
486.07	16856.54
486.25	17467.42
486.43	17579.76
486.61	17294.22
486.78	18015.10
486.96	17975.31
487.14	18457.46
487.32	18375.55
487.50	18768.76
487.68	18649.39
487.85	19000.47
488.03	19255.59
488.21	19213.46
488.39	18988.77
488.57	19426.45
488.75	19428.79
488.92	19854.76
489.10	19997.54
489.28	20018.60
489.46	20453.94
489.64	20013.92
489.81	20924.39
489.99	21102.27
490.17	20971.20
490.35	20849.49
490.53	20709.06
490.70	21221.64
490.88	21326.96
491.06	21912.10
491.24	21694.43
491.41	21275.47
491.59	21834.86
491.77	21467.39
491.95	21572.72
492.13	22307.65
492.30	22434.03
492.48	22501.91
492.66	22632.98
492.84	22808.52
493.01	23157.26
493.19	23080.02
493.37	22944.27
493.54	23213.43
493.72	23529.41
493.90	23545.79
494.08	23868.78
494.25	23882.83
494.43	24011.56
494.61	24187.10
494.79	24407.11
494.96	24182.42
495.14	24219.86
495.32	24458.60
495.49	24615.41
495.67	24945.43
495.85	24863.51
496.02	25195.87
496.20	25219.27
496.38	24938.41
496.55	25586.74
496.73	26003.35
496.91	25778.66
497.09	25944.84
497.26	25743.55
497.44	26167.19
497.62	26146.12
497.79	26293.58
497.97	26293.58
498.14	26490.18
498.32	26487.84
498.50	26361.45
498.67	27154.90
498.85	26843.60
499.03	27283.62
499.20	27325.75
499.38	27037.87
499.56	27318.73
499.73	27599.60
499.91	27381.93
500.08	27807.90
500.26	27082.34
500.44	27821.95
500.61	27805.56
500.79	27674.49
500.97	27800.88
501.14	28353.25
501.32	28236.22
501.49	28477.30
501.67	28168.35
501.84	28439.85
502.02	28446.87
502.20	28400.06
502.37	28709.01
502.55	28423.47
502.72	28900.94
502.90	29015.62
503.07	28943.06
503.25	29266.06
503.43	29125.63
503.60	28849.44
503.78	29387.77
503.95	29333.93
504.13	29397.13
504.30	29680.33
504.48	29673.31
504.65	30211.64
504.83	29982.26
505.01	30384.83
505.18	30167.16
505.36	30384.83
505.53	30377.81
505.71	30824.86
505.88	30876.35
506.06	30270.15
506.23	31138.49
506.41	31058.91
506.58	30742.94
506.76	30529.95
506.93	31292.96
507.11	31033.16
507.28	31328.07
507.46	30916.14
507.63	31012.10
507.81	31197.00
507.98	31285.94
508.16	31344.45
508.33	31639.36
508.50	31730.64
508.68	31534.04
508.85	32219.81
509.03	31721.28
509.20	32297.05
509.38	32243.22
509.55	32137.90
509.73	32320.46
509.90	32514.72
510.08	32173.00
510.25	32383.65
510.42	33069.43
510.60	33003.89
510.77	32748.78
510.95	33411.15
511.12	32936.02
511.30	33198.16
511.47	33921.38
511.64	33706.05
511.82	33153.69
511.99	33448.60
512.17	33521.15
512.34	33193.48
512.51	33668.61
512.69	33759.89
512.86	33752.87
513.04	33778.61
513.21	33748.18
513.38	33942.45
513.56	34064.16
513.73	33897.98
513.90	34595.46
514.08	34370.77
514.25	34448.00
514.43	34293.53
514.60	34272.46
514.77	34272.46
514.95	34565.03
515.12	34433.96
515.29	34836.53
515.47	35063.57
515.64	35311.66
515.81	35051.86
515.99	34916.11
516.16	35037.82
516.33	35154.85
516.51	34565.03
516.68	34382.47
516.85	34478.43
517.03	34450.35
517.20	34930.16
517.37	34859.94
517.54	35648.70
517.72	35498.91
517.89	35211.02
518.06	35318.68
518.24	35587.85
518.41	35274.21
518.58	35592.53
518.75	35754.02
518.93	36149.57
519.10	36144.89
519.27	36322.77
519.45	35974.03
519.62	36589.59
519.79	36985.15
519.96	36414.05
520.14	36378.95
520.31	36121.49
520.48	36692.58
520.65	36732.37
520.83	36863.44
521.00	36907.91
521.17	37165.37
521.34	37038.98
521.52	37357.29
521.69	37336.23
521.86	37567.94
522.03	37280.05
522.20	37401.76
522.38	37776.25
522.55	37902.64
522.72	37500.06
522.89	37429.85
523.07	38003.28
523.24	37839.44
523.41	38094.56
523.58	38139.03
523.75	38625.86
523.92	38387.13
524.10	38426.92
524.27	38244.35
524.44	38518.20
524.61	38721.82
524.78	38904.38
524.96	38518.20
525.13	39049.50
525.30	39157.16
525.47	39187.59
525.64	39051.84
525.81	38326.27
525.98	38616.50
526.16	38595.43
526.33	38602.46
526.50	38363.72
526.67	38525.22
526.84	38836.51
527.01	39016.73
527.18	38780.34
527.36	39318.66
527.53	39262.49
527.70	40126.14
527.87	39468.45
528.04	39852.30
528.21	40037.20
528.38	39910.82
528.55	40603.61
528.72	39821.87
528.89	40240.83
529.07	40091.04
529.24	40032.52
529.41	40357.86
529.58	39976.35
529.75	40128.48
529.92	40451.48
530.09	40428.07
530.26	40273.60
530.43	40603.61
530.60	40542.76
530.77	40098.06
530.94	40318.07
531.11	40652.76
531.28	40460.84
531.46	40687.87
531.63	40959.38
531.80	40704.26
531.97	40832.99
532.14	40818.94
532.31	40275.94
532.48	40484.25
532.65	40994.48
532.82	40907.88
532.99	41490.68
533.16	40645.74
533.33	41181.73
533.50	41448.55
533.67	41610.04
533.84	41191.09
534.01	41340.88
534.18	41493.02
534.35	42024.32
534.52	41258.96
534.69	41780.90
534.86	41764.52
535.03	41598.34
535.20	41940.06
535.37	42089.85
535.54	42604.77
535.71	41544.51
535.88	41996.23
536.05	41926.02
536.22	41900.27
536.38	42066.45
536.55	42155.39
536.72	42375.40
536.89	41642.81
537.06	42396.46
537.23	42127.30
537.40	41933.04
537.57	41918.99
537.74	43058.84
537.91	42862.23
538.08	42600.09
538.25	42054.75
538.42	42092.19
538.59	43005.00
538.75	42433.91
538.92	42342.63
539.09	42539.24
539.26	42347.31
539.43	42660.94
539.60	42693.71
539.77	42487.74
539.94	42560.30
540.11	42768.61
540.28	42656.26
540.44	42899.68
540.61	42906.70
540.78	42450.30
540.95	42930.11
541.12	42583.71
541.29	42955.85
541.46	42784.99
541.62	43051.81
541.79	43531.62
541.96	42967.55
542.13	43433.32
542.30	43260.12
542.47	43295.23
542.63	43166.50
542.80	43695.46
542.97	44079.31
543.14	44165.91
543.31	43880.36
543.48	43707.16
543.64	44446.77
543.81	44416.35
543.98	44210.38
544.15	43901.43
544.32	44357.83
544.48	44540.39
544.65	44114.42
544.82	44048.88
544.99	44018.46
545.16	44203.36
545.32	43896.75
545.49	44442.09
545.66	44519.33
545.83	44409.32
546.00	44435.07
546.16	44348.47
546.33	44385.92
546.50	44549.76
546.67	44875.09
546.83	44116.76
547.00	44748.70
547.17	44313.36
547.34	44844.66
547.50	44910.20
547.67	45055.31
547.84	44573.16
548.00	44809.56
548.17	44987.44
548.34	45200.43
548.51	45326.81
548.67	45565.55
548.84	45247.24
549.01	45099.78
549.18	44828.28
549.34	45038.93
549.51	45230.85
549.68	45528.10
549.84	45455.54
550.01	45352.56
550.18	44797.85
550.34	45521.08
550.51	45041.27
550.68	45219.15
550.84	44807.22
551.01	45727.05
551.18	45432.14
551.34	45642.79
551.51	45511.72
551.68	45668.53
551.84	45617.04
552.01	45883.86
552.18	45382.99
552.34	45202.77
552.51	45460.23
552.68	45617.04
552.84	45823.01
553.01	45921.31
553.18	45780.88
553.34	45485.97
553.51	45366.60
553.67	45710.66
553.84	46176.43
554.01	46270.05
554.17	46115.58
554.34	46021.95
554.51	46050.04
554.67	46368.35
554.84	45827.69
555.00	46199.83
555.17	45724.71
555.33	46361.33
555.50	45930.67
555.67	46248.99
555.83	45937.69
556.00	46518.15
556.16	46279.41
556.33	46248.99
556.50	45984.51
556.66	46110.89
556.83	46155.36
556.99	46520.49
557.16	46241.96
557.32	45998.55
557.49	46665.60
557.65	46174.09
557.82	46454.95
557.98	46054.72
558.15	46373.03
558.32	46270.05
558.48	46351.97
558.65	46501.76
558.81	46597.73
558.98	46464.32
559.14	46157.70
559.31	46078.13
559.47	46866.89
559.64	46616.45
559.80	46628.15
559.97	46880.93
560.13	46644.54
560.30	46691.35
560.46	46644.54
560.63	46412.82
560.79	46712.41
560.96	46892.63
561.12	46597.73
561.29	46988.60
561.45	46974.55
561.61	46932.42
561.78	46602.41
561.94	46763.90
562.11	46913.70
562.27	46653.90
562.44	47077.54
562.60	46958.17
562.77	46810.71
562.93	46677.30
563.10	46941.78
563.26	46492.40
563.42	47316.27
563.59	46794.33
563.75	46651.56
563.92	47356.06
564.08	47037.75
564.24	47330.31
564.41	47056.47
564.57	47072.85
564.74	47122.01
564.90	46773.27
565.07	47171.16
565.23	46838.80
565.39	46340.27
565.56	47000.30
565.72	46981.57
565.88	46988.60
566.05	46787.31
566.21	46944.12
566.38	46969.87
566.54	46616.45
566.70	47143.07
566.87	47557.35
567.03	46827.10
567.19	47327.97
567.36	47576.07
567.52	46747.52
567.68	47248.39
567.85	46894.97
568.01	47227.33
568.17	46660.92
568.34	46976.89
568.50	47449.68
568.66	46997.96
568.83	47564.37
568.99	46850.50
569.15	47164.14
569.32	46969.87
569.48	46951.15
569.64	47473.09
569.81	47433.30
569.97	47129.03
570.13	47103.28
570.30	47192.22
570.46	46801.35
570.62	46712.41
570.78	46740.50
570.95	46649.22
571.11	46951.15
571.27	47351.38
571.43	47182.86
571.60	47426.28
571.76	47428.62
571.92	47316.27
572.09	47515.22
572.25	47819.49
572.41	47501.17
572.57	47622.88
572.74	47742.25
572.90	47295.21
573.06	47283.50
573.22	47318.61
573.38	47234.35
573.55	47267.12
573.71	47842.89
573.87	47484.79
574.03	47459.04
574.20	47517.56
574.36	46845.82
574.52	47126.69
574.68	47573.73
574.84	47030.72
575.01	47290.52
575.17	47260.10
575.33	47037.75
575.49	47126.69
575.65	47447.34
575.82	47349.04
575.98	47728.20
576.14	47505.85
576.30	47608.84
576.46	47290.52
576.62	47550.32
576.79	46939.44
576.95	47037.75
577.11	47037.75
577.27	47356.06
577.43	47370.10
577.59	47309.25
577.75	47260.10
577.92	46763.90
578.08	47136.05
578.24	46784.97
578.40	47196.90
578.56	47344.36
578.72	47285.84
578.88	47798.42
579.04	47452.02
579.21	47264.78
579.37	47157.11
579.53	46841.14
579.69	47234.35
579.85	47199.24
580.01	47494.15
580.17	47281.16
580.33	47477.77
580.49	47484.79
580.65	47334.99
580.82	47318.61
580.98	47437.98
581.14	47484.79
581.30	47601.82
581.46	47304.57
581.62	47475.43
581.78	47538.62
581.94	47896.72
582.10	47531.60
582.26	47604.16
582.42	47934.17
582.58	47302.23
582.74	47072.85
582.90	47878.00
583.06	47262.44
583.22	47686.07
583.38	47365.42
583.54	47166.48
583.70	47374.78
583.86	48039.50
584.02	47440.32
584.18	47676.71
584.34	47395.85
584.50	47775.02
584.66	47615.86
584.82	47531.60
584.98	47098.60
585.14	47445.00
585.30	47194.56
585.46	47655.65
585.62	47222.65
585.78	47285.84
585.94	47126.69
586.10	47285.84
586.26	47515.22
586.42	47547.98
586.58	47421.59
586.74	47480.11
586.90	47306.91
587.06	47760.97
587.22	47702.46
587.38	47714.16
587.54	47894.38
587.70	47688.42
587.86	47232.01
588.02	47618.20
588.18	47856.93
588.34	47152.43
588.49	47082.22
588.65	46770.93
588.81	46789.65
588.97	46794.33
589.13	46866.89
589.29	46857.52
589.45	46990.94
589.61	47182.86
589.77	47126.69
