SpectraSuite Data File
++++++++++++++++++++++++++++++++++++
Date: Fri Oct 25 10:47:33 EDT 2013
User: price-jones
Dark Spectrum Present: No
Reference Spectrum Present: No
Number of Sampled Component Spectra: 1
Spectrometers: USB2+H05261
Integration Time (usec): 100000 (USB2+H05261)
Spectra Averaged: 1 (USB2+H05261)
Boxcar Smoothing: 0 (USB2+H05261)
Correct for Electrical Dark: No (USB2+H05261)
Strobe/Lamp Enabled: No (USB2+H05261)
Correct for Detector Non-linearity: No (USB2+H05261)
Correct for Stray Light: No (USB2+H05261)
Number of Pixels in Processed Spectrum: 2048
>>>>>Begin Processed Spectral Data<<<<<
365.73	166.18
365.92	166.18
366.12	166.18
366.32	70.22
366.52	65.54
366.72	39.79
366.91	16.38
367.11	88.94
367.31	23.41
367.51	46.81
367.70	46.81
367.90	88.94
368.10	72.56
368.30	14.04
368.49	16.38
368.69	74.90
368.89	105.32
369.09	102.98
369.28	56.17
369.48	56.17
369.68	119.37
369.87	149.79
370.07	91.28
370.27	110.01
370.47	231.71
370.66	346.40
370.86	383.85
371.06	425.98
371.25	444.70
371.45	489.17
371.65	461.09
371.84	390.87
372.04	482.15
372.24	510.24
372.44	526.62
372.63	510.24
372.83	437.68
373.03	533.64
373.22	465.77
373.42	496.19
373.62	500.87
373.81	521.94
374.01	596.84
374.21	636.63
374.40	531.30
374.60	589.82
374.79	592.16
374.99	512.58
375.19	578.11
375.38	554.71
375.58	610.88
375.78	599.18
375.97	582.79
376.17	550.03
376.37	540.66
376.56	603.86
376.76	587.47
376.95	603.86
377.15	503.22
377.35	587.47
377.54	631.94
377.74	564.07
377.93	655.35
378.13	648.33
378.33	596.84
378.52	660.03
378.72	667.05
378.91	585.13
379.11	627.26
379.31	627.26
379.50	622.58
379.70	648.33
379.89	629.60
380.09	641.31
380.28	615.56
380.48	702.16
380.68	608.54
380.87	634.29
381.07	695.14
381.26	610.88
381.46	636.63
381.65	732.59
381.85	634.29
382.04	662.37
382.24	690.46
382.43	676.41
382.63	601.52
382.83	676.41
383.02	692.80
383.22	730.25
383.41	716.20
383.61	685.78
383.80	690.46
384.00	753.65
384.19	699.82
384.39	716.20
384.58	685.78
384.78	737.27
384.97	699.82
385.17	734.93
385.36	702.16
385.56	805.14
385.75	739.61
385.95	704.50
386.14	727.91
386.34	788.76
386.53	791.10
386.72	795.78
386.92	863.66
387.11	772.38
387.31	821.53
387.50	702.16
387.70	819.19
387.89	894.08
388.09	826.21
388.28	870.68
388.48	802.80
388.67	884.72
388.86	840.25
389.06	903.45
389.25	863.66
389.45	917.49
389.64	830.89
389.84	891.74
390.03	929.19
390.22	887.06
390.42	835.57
390.61	884.72
390.81	910.47
391.00	910.47
391.19	929.19
391.39	1004.09
391.58	887.06
391.78	1025.15
391.97	966.64
392.16	945.58
392.36	992.39
392.55	931.53
392.75	903.45
392.94	980.68
393.13	968.98
393.33	910.47
393.52	976.00
393.71	1004.09
393.91	1039.20
394.10	1048.56
394.29	1032.18
394.49	1008.77
394.68	1048.56
394.88	1078.99
395.07	1179.63
395.26	1111.75
395.46	1090.69
395.65	1095.37
395.84	1083.67
396.04	1130.48
396.23	1081.33
396.42	1067.28
396.62	1015.79
396.81	1128.14
397.00	1116.44
397.19	1167.93
397.39	1212.40
397.58	1200.69
397.77	1217.08
397.97	1188.99
398.16	1221.76
398.35	1341.13
398.55	1205.38
398.74	1308.36
398.93	1313.04
399.12	1338.79
399.32	1275.59
399.51	1242.82
399.70	1380.92
399.90	1371.55
400.09	1224.10
400.28	1432.41
400.47	1460.49
400.67	1378.58
400.86	1479.22
401.05	1427.73
401.24	1409.00
401.44	1432.41
401.63	1458.15
401.82	1401.98
402.01	1418.36
402.21	1481.56
402.40	1467.52
402.59	1544.75
402.78	1540.07
402.97	1514.33
403.17	1584.54
403.36	1497.94
403.55	1643.06
403.74	1629.01
403.93	1554.12
404.13	1619.65
404.32	1561.14
404.51	1610.29
404.70	1575.18
404.89	1509.65
405.09	1650.08
405.28	1729.66
405.47	1633.69
405.66	1666.46
405.85	1682.85
406.05	1706.25
406.24	1830.30
406.43	1781.15
406.62	1694.55
406.81	1743.70
407.00	1746.04
407.20	1827.96
407.39	1781.15
407.58	1809.23
407.77	1902.86
407.96	1916.90
408.15	1937.96
408.34	1944.99
408.54	1839.66
408.73	1898.17
408.92	1998.82
409.11	1895.83
409.30	1975.41
409.49	2001.16
409.68	2101.80
409.87	2029.24
410.07	1975.41
410.26	2092.44
410.45	1849.02
410.64	2083.08
410.83	2204.78
411.02	2090.10
411.21	2179.04
411.40	2249.25
411.59	2265.64
411.78	2190.74
411.98	2181.38
412.17	2317.13
412.36	2279.68
412.55	2354.58
412.74	2333.51
412.93	2410.75
413.12	2216.49
413.31	2492.67
413.50	2375.64
413.69	2408.41
413.88	2600.34
414.07	2452.88
414.26	2502.03
414.45	2555.86
414.64	2555.86
414.83	2686.94
415.02	2626.08
415.22	2633.10
415.41	2773.53
415.60	2628.42
415.79	2700.98
415.98	2899.92
416.17	2710.34
416.36	2794.60
416.55	2775.88
416.74	2726.72
416.93	2810.98
417.12	2897.58
417.31	2918.65
417.50	2930.35
417.69	2967.80
417.88	3049.72
418.07	2899.92
418.26	3054.40
418.45	2897.58
418.64	3096.53
418.83	3112.91
419.02	3145.68
419.21	3122.27
419.39	3157.38
419.58	3159.72
419.77	3082.49
419.96	3241.64
420.15	3180.79
420.34	3166.74
420.53	3239.30
420.72	3166.74
420.91	3309.52
421.10	3368.03
421.29	3426.54
421.48	3290.79
421.67	3325.90
421.86	3307.18
422.05	3206.53
422.24	3368.03
422.43	3276.75
422.61	3480.38
422.80	3454.63
422.99	3510.80
423.18	3393.78
423.37	3503.78
423.56	3405.48
423.75	3447.61
423.94	3400.80
424.13	3290.79
424.32	3471.01
424.50	3412.50
424.69	3501.44
424.88	3529.53
425.07	3559.95
425.26	3405.48
425.45	3466.33
425.64	3384.41
425.83	3396.12
426.01	3562.30
426.20	3447.61
426.39	3475.70
426.58	3496.76
426.77	3494.42
426.96	3424.20
427.15	3503.78
427.33	3592.72
427.52	3613.79
427.71	3496.76
427.90	3627.83
428.09	3693.37
428.28	3719.11
428.46	3695.71
428.65	3648.90
428.84	3868.91
429.03	3705.07
429.22	3592.72
429.40	3714.43
429.59	3707.41
429.78	3550.59
429.97	3613.79
430.16	3735.50
430.34	3707.41
430.53	3911.04
430.72	3784.65
430.91	3749.54
431.10	4046.79
431.28	3974.23
431.47	4042.11
431.66	4112.32
431.85	3868.91
432.03	4182.54
432.22	4236.37
432.41	4189.56
432.60	4077.21
432.79	3969.55
432.97	4091.26
433.16	4208.28
433.35	4124.02
433.54	4278.50
433.72	4196.58
433.91	4154.45
434.10	4287.86
434.28	4227.01
434.47	4241.05
434.66	4355.74
434.85	4369.78
435.03	4241.05
435.22	4400.21
435.41	4545.32
435.59	4393.19
435.78	4294.88
435.97	4486.81
436.16	4423.61
436.34	4510.21
436.53	4423.61
436.72	4524.26
436.90	4388.50
437.09	4671.71
437.28	4528.94
437.46	4533.62
437.65	4582.77
437.84	4552.34
438.02	4512.55
438.21	4657.67
438.40	4582.77
438.58	4767.67
438.77	4755.97
438.96	4645.96
439.14	4980.66
439.33	4966.62
439.52	5100.03
439.70	5013.43
439.89	5013.43
440.08	4983.00
440.26	5139.82
440.45	4959.60
440.63	5057.90
440.82	5390.25
441.01	5238.12
441.19	5315.36
441.38	5380.89
441.57	5305.99
441.75	5366.85
441.94	5540.05
442.12	5441.75
442.31	5563.45
442.50	5703.89
442.68	5427.70
442.87	5479.19
443.05	5530.69
443.24	5708.57
443.43	5598.56
443.61	5710.91
443.80	5898.15
443.98	5537.71
444.17	5465.15
444.35	5554.09
444.54	5769.42
444.73	5636.01
444.91	5708.57
445.10	5757.72
445.28	5806.87
445.47	5743.67
445.65	5692.18
445.84	5734.31
446.02	5673.46
446.21	5834.96
446.39	5753.04
446.58	5738.99
446.77	5783.46
446.95	5713.25
447.14	5724.95
447.32	5900.49
447.51	5659.42
447.69	5827.93
447.88	5970.71
448.06	5731.97
448.25	5783.46
448.43	5863.04
448.62	5760.06
448.80	5893.47
448.99	5942.62
449.17	5991.77
449.36	5823.25
449.54	6022.20
449.73	6193.06
449.91	6101.78
450.10	6235.19
450.28	6221.14
450.46	6164.97
450.65	5888.79
450.83	6066.67
451.02	6387.32
451.20	6267.95
451.39	6104.12
451.57	6197.74
451.76	6263.27
451.94	6427.11
452.13	6448.18
452.31	6263.27
452.49	6223.48
452.68	6279.66
452.86	6356.90
453.05	6539.46
453.23	6429.45
453.42	6335.83
453.60	6464.56
453.78	6506.69
453.97	6312.42
454.15	6438.81
454.34	6436.47
454.52	6525.41
454.70	6502.01
454.89	6743.08
455.07	6539.46
455.26	6651.80
455.44	6668.19
455.62	6576.91
455.81	6750.10
455.99	6679.89
456.17	6841.39
456.36	6832.02
456.54	6939.69
456.73	7000.54
456.91	7124.59
457.09	7178.42
457.28	7337.58
457.46	7066.08
457.64	7155.02
457.83	7052.03
458.01	6995.86
458.19	7176.08
458.38	7157.36
458.56	7372.69
458.74	7283.75
458.93	7183.10
459.11	7349.28
459.29	7410.14
459.48	7283.75
459.66	7543.55
459.84	7356.30
460.03	7595.04
460.21	7548.23
460.39	7290.77
460.57	7557.59
460.76	7501.42
460.94	7583.34
461.12	7688.66
461.31	7728.45
461.49	7573.97
461.67	7585.68
461.85	7646.53
462.04	7562.27
462.22	8273.79
462.40	7630.15
462.59	7845.48
462.77	7803.35
462.95	7786.96
463.13	7756.54
463.32	7714.41
463.50	7796.32
463.68	8102.93
463.86	7936.76
464.05	7705.04
464.23	7761.22
464.41	8119.32
464.59	7801.01
464.78	8133.36
464.96	8004.63
465.14	7887.61
465.32	8006.97
465.50	8182.51
465.69	8353.37
465.87	8112.30
466.05	8147.40
466.23	8163.79
466.41	8177.83
466.60	8290.18
466.78	8194.22
466.96	8131.02
467.14	8273.79
467.32	8423.59
467.51	8547.64
467.69	8159.11
467.87	8180.17
468.05	8521.89
468.23	8259.75
468.41	8257.41
468.60	8360.39
468.78	8299.54
468.96	8376.78
469.14	8549.98
469.32	8603.81
469.50	8610.83
469.69	8795.73
469.87	8891.70
470.05	8788.71
470.23	8800.41
470.41	8865.95
470.59	8765.31
470.77	8760.63
470.95	8854.25
471.14	9011.06
471.32	8837.86
471.50	9114.05
471.68	9001.70
471.86	8968.93
472.04	9139.79
472.22	9385.55
472.40	9111.71
472.58	9144.47
472.77	9331.72
472.95	9481.51
473.13	9479.17
473.31	9493.21
473.49	9238.09
473.67	9612.58
473.85	9467.47
474.03	9811.53
474.21	9605.56
474.39	9907.49
474.57	9977.70
474.75	9858.34
474.93	9966.00
475.12	9958.98
475.30	9879.40
475.48	9989.41
475.66	9980.04
475.84	10012.81
476.02	10389.64
476.20	10036.22
476.38	10399.00
476.56	10651.78
476.74	10361.55
476.92	10672.84
477.10	10326.44
477.28	10759.44
477.46	10703.27
477.64	10815.62
477.82	11112.86
478.00	10986.47
478.18	10841.36
478.36	11225.21
478.54	11262.66
478.72	11377.34
478.90	11239.25
479.08	11611.40
479.26	11683.95
479.44	11648.85
479.62	11999.93
479.80	11723.74
479.98	11882.90
480.16	12030.35
480.34	12102.91
480.52	12196.53
480.70	12297.17
480.88	11995.25
481.06	12290.15
481.24	12353.35
481.41	12688.04
481.59	12851.88
481.77	12765.28
481.95	12636.55
482.13	13041.46
482.31	13170.19
482.49	13425.31
482.67	13067.21
482.85	13338.71
483.03	13635.96
483.21	13446.38
483.39	13827.88
483.57	13605.53
483.74	13872.36
483.92	14019.81
484.10	13933.21
484.28	14127.47
484.46	14508.98
484.64	14824.95
484.82	14277.27
485.00	14450.47
485.18	14827.29
485.35	14745.38
485.53	14867.08
485.71	14822.61
485.89	15351.57
486.07	15042.62
486.25	15073.05
486.43	15374.98
486.61	15470.94
486.78	15576.27
486.96	15859.47
487.14	16053.73
487.32	16119.27
487.50	16381.41
487.68	16297.15
487.85	16545.25
488.03	16830.79
488.21	16629.51
488.39	16699.72
488.57	16973.56
488.75	17039.10
488.92	17240.39
489.10	17226.34
489.28	17411.25
489.46	17687.43
489.64	17558.70
489.81	18239.79
489.99	18253.84
490.17	18029.15
490.35	18417.68
490.53	18396.61
490.70	18370.86
490.88	18483.21
491.06	18745.35
491.24	18511.30
491.41	18738.33
491.59	18977.06
491.77	18841.31
491.95	19023.87
492.13	19262.61
492.30	19365.59
492.48	19578.58
492.66	19740.08
492.84	19697.95
493.01	20058.39
493.19	19814.98
493.37	20133.29
493.54	20144.99
493.72	20336.91
493.90	20201.16
494.08	20610.76
494.25	20690.34
494.43	20961.84
494.61	21256.75
494.79	21050.78
494.96	21076.52
495.14	20819.07
495.32	21259.09
495.49	21661.66
495.67	21518.89
495.85	21759.96
496.02	22253.81
496.20	21617.19
496.38	21991.67
496.55	22113.38
496.73	22848.31
496.91	22607.23
497.09	22249.13
497.26	22733.62
497.44	22848.31
497.62	22670.43
497.79	22806.18
497.97	22860.01
498.14	23304.71
498.32	22904.48
498.50	23138.54
498.67	23882.83
498.85	23421.74
499.03	23641.75
499.20	23777.50
499.38	23562.17
499.56	23899.21
499.73	24168.37
499.91	24236.25
500.08	24147.31
500.26	23810.27
500.44	24474.98
500.61	24402.43
500.79	23962.40
500.97	24430.51
501.14	25130.33
501.32	24907.98
501.49	24526.47
501.67	24699.67
501.84	24987.56
502.02	25053.09
502.20	25106.93
502.37	25230.98
502.55	25343.32
502.72	25816.11
502.90	25221.61
503.07	24875.21
503.25	25919.09
503.43	25483.75
503.60	25743.55
503.78	25872.28
503.95	25916.75
504.13	26005.69
504.30	25694.40
504.48	26017.40
504.65	26279.54
504.83	26256.13
505.01	26448.05
505.18	26546.36
505.36	26962.97
505.53	26539.33
505.71	26838.92
505.88	26948.93
506.06	26876.37
506.23	27154.90
506.41	27278.94
506.58	27042.55
506.76	27150.21
506.93	27398.31
507.11	27461.51
507.28	27438.10
507.46	27304.69
507.63	27346.82
507.81	27571.51
507.98	27604.28
508.16	28173.03
508.33	27679.18
508.50	27763.43
508.68	27950.68
508.85	28112.17
509.03	28809.65
509.20	28208.14
509.38	28776.89
509.55	28498.36
509.73	28545.17
509.90	28568.58
510.08	28697.31
510.25	28624.75
510.42	28470.28
510.60	29137.33
510.77	28701.99
510.95	29003.92
511.12	29008.60
511.30	29359.68
511.47	29598.41
511.64	29673.31
511.82	29895.66
511.99	29397.13
512.17	29495.43
512.34	29813.74
512.51	29809.06
512.69	30300.58
512.86	30251.42
513.04	30480.80
513.21	30345.05
513.38	30073.54
513.56	30064.18
513.73	30394.20
513.90	30321.64
514.08	30586.12
514.25	30902.09
514.43	30813.15
514.60	30862.30
514.77	30696.13
514.95	31037.84
515.12	30452.71
515.29	30859.96
515.47	31147.85
515.64	31180.62
515.81	31103.38
515.99	31161.89
516.16	31576.17
516.33	31241.47
516.51	31189.98
516.68	31262.54
516.85	31491.91
517.03	31309.35
517.20	31538.72
517.37	31281.26
517.54	31758.73
517.72	31931.93
517.89	31800.86
518.06	31632.34
518.24	31896.82
518.41	31688.51
518.58	32023.21
518.75	32212.79
518.93	32240.88
519.10	32325.14
519.27	32053.64
519.45	32699.62
519.62	32519.40
519.79	32863.46
519.96	32549.83
520.14	32943.04
520.31	32409.40
520.48	32737.07
520.65	33326.89
520.83	33294.12
521.00	33628.82
521.17	32783.88
521.34	33078.79
521.52	33556.26
521.69	33039.00
521.86	33413.49
522.03	33633.50
522.20	33537.54
522.38	33497.75
522.55	34029.05
522.72	33642.86
522.89	33661.58
523.07	33771.59
523.24	33570.30
523.41	33869.89
523.58	34022.03
523.75	34670.36
523.92	34291.19
524.10	34298.21
524.27	34679.72
524.44	34426.94
524.61	34614.18
524.78	34443.32
524.96	34848.24
525.13	34841.21
525.30	35201.66
525.47	34998.03
525.64	34796.74
525.81	35089.31
525.98	35023.78
526.16	34731.21
526.33	34951.22
526.50	35477.84
526.67	34911.43
526.84	34824.83
527.01	35218.04
527.18	35211.02
527.36	34991.01
527.53	35295.28
527.70	35924.88
527.87	35924.88
528.04	35597.21
528.21	35290.60
528.38	35779.77
528.55	35868.71
528.72	35957.65
528.89	35950.63
529.07	35988.08
529.24	35903.82
529.41	35931.90
529.58	35952.97
529.75	35875.73
529.92	36627.04
530.09	35992.76
530.26	36395.33
530.43	36247.88
530.60	36343.84
530.77	36460.87
530.94	36442.14
531.11	36105.10
531.28	37062.38
531.46	36921.95
531.63	36905.57
531.80	36481.93
531.97	36769.82
532.14	36594.28
532.31	36694.92
532.48	37439.21
532.65	36985.15
532.82	37095.15
532.99	37099.83
533.16	37081.11
533.33	37376.01
533.50	37170.05
533.67	36886.84
533.84	37249.63
534.01	37099.83
534.18	37439.21
534.35	37879.23
534.52	37151.32
534.69	37511.77
534.86	37820.72
535.03	37432.19
535.20	37914.34
535.37	37907.32
535.54	38115.62
535.71	38040.73
535.88	38108.60
536.05	37750.50
536.22	38239.67
536.38	38017.32
536.55	38251.38
536.72	38258.40
536.89	37649.86
537.06	37867.53
537.23	38010.30
537.40	38384.79
537.57	38305.21
537.74	38103.92
537.91	39185.25
538.08	38291.16
538.25	38239.67
538.42	38384.79
538.59	38256.06
538.75	38216.27
538.92	38941.83
539.09	39054.18
539.26	38775.66
539.43	39243.76
539.60	38859.91
539.77	38518.20
539.94	38644.59
540.11	38724.16
540.28	39545.69
540.44	39005.03
540.61	38670.33
540.78	38628.20
540.95	39021.41
541.12	39070.56
541.29	38834.17
541.46	39145.46
541.62	39328.02
541.79	39533.99
541.96	39269.51
542.13	39152.48
542.30	39573.78
542.47	39400.58
542.63	39456.75
542.80	39861.66
542.97	40109.76
543.14	40402.33
543.31	40081.67
543.48	40194.02
543.64	40645.74
543.81	40212.74
543.98	40116.78
544.15	39969.33
544.32	40685.53
544.48	40402.33
544.65	40341.47
544.82	40346.15
544.99	40107.42
545.16	40381.26
545.32	40245.51
545.49	40802.56
545.66	40617.66
545.83	40517.01
546.00	41277.69
546.16	40643.40
546.33	40645.74
546.50	40634.04
546.67	40552.12
546.83	40275.94
547.00	40437.44
547.17	40926.61
547.34	40287.64
547.50	40837.67
547.67	41134.92
547.84	40622.34
548.00	40802.56
548.17	41148.96
548.34	40418.71
548.51	41024.91
548.67	41317.48
548.84	41074.06
549.01	41200.45
549.18	41095.13
549.34	41560.89
549.51	41572.60
549.68	41436.84
549.84	41701.32
550.01	41801.97
550.18	41242.58
550.34	41694.30
550.51	41195.77
550.68	41043.63
550.84	40940.65
551.01	41291.73
551.18	41457.91
551.34	41464.93
551.51	41404.08
551.68	42150.71
551.84	41820.69
552.01	41668.56
552.18	41890.91
552.34	41579.62
552.51	42148.37
552.68	41961.12
552.84	42204.54
553.01	42351.99
553.18	41729.41
553.34	41900.27
553.51	41453.23
553.67	41783.24
553.84	42539.24
554.01	42197.52
554.17	42277.10
554.34	42483.06
554.51	42101.56
554.67	42344.97
554.84	42562.64
555.00	42639.88
555.17	42328.59
555.33	42071.13
555.50	42536.90
555.67	42167.09
555.83	42487.74
556.00	42895.00
556.16	42511.15
556.33	42536.90
556.50	42309.86
556.66	43026.07
556.83	42342.63
556.99	43002.66
557.16	42740.52
557.32	42892.66
557.49	42712.44
557.65	42447.96
557.82	42642.22
557.98	42635.20
558.15	42843.51
558.32	42813.08
558.48	42953.51
558.65	43014.37
558.81	42726.48
558.98	43112.67
559.14	43002.66
559.31	43056.50
559.47	43054.15
559.64	43213.31
559.80	42972.24
559.97	43072.88
560.13	42665.63
560.30	43269.48
560.46	43042.45
560.63	43147.78
560.79	43189.91
560.96	43012.02
561.12	43304.59
561.29	43372.47
561.45	43414.60
561.61	43288.21
561.78	43337.36
561.94	43157.14
562.11	43269.48
562.27	43400.55
562.44	43426.30
562.60	43662.69
562.77	43711.84
562.93	43145.44
563.10	43388.85
563.26	43430.98
563.42	43325.66
563.59	43257.78
563.75	43166.50
563.92	43672.06
564.08	43707.16
564.24	43882.70
564.41	43433.32
564.57	43625.25
564.74	43330.34
564.90	43255.44
565.07	43700.14
565.23	43594.82
565.39	42983.94
565.56	43938.88
565.72	43632.27
565.88	43477.79
566.05	43297.57
566.21	43636.95
566.38	43536.30
566.54	43604.18
566.70	43470.77
566.87	43576.09
567.03	43522.26
567.19	44088.67
567.36	44165.91
567.52	43835.89
567.68	43917.81
567.85	43384.17
568.01	43941.22
568.17	43793.76
568.34	44144.84
568.50	43833.55
568.66	43634.61
568.83	44224.42
568.99	43763.34
569.15	43461.41
569.32	43821.85
569.48	43271.82
569.64	44032.50
569.81	43690.78
569.97	43709.50
570.13	44121.44
570.30	43697.80
570.46	44081.65
570.62	43571.41
570.78	43332.68
570.95	43688.44
571.11	44039.52
571.27	43849.94
571.43	44067.61
571.60	44039.52
571.76	44046.54
571.92	43634.61
572.09	43943.56
572.25	43573.75
572.41	43433.32
572.57	43772.70
572.74	44631.68
572.90	44334.43
573.06	44032.50
573.22	44222.08
573.38	43669.72
573.55	43718.87
573.71	44025.48
573.87	43828.87
574.03	43704.82
574.20	43779.72
574.36	44091.01
574.52	43849.94
574.68	44507.63
574.84	44172.93
575.01	44355.49
575.17	43959.94
575.33	43910.79
575.49	43854.62
575.65	44320.38
575.82	44463.16
575.98	43941.22
576.14	44645.72
576.30	44027.82
576.46	43728.23
576.62	43763.34
576.79	44091.01
576.95	43840.57
577.11	44360.17
577.27	43800.79
577.43	44126.12
577.59	44196.34
577.75	44128.46
577.92	43852.28
578.08	43742.27
578.24	43854.62
578.40	43964.62
578.56	43676.74
578.72	43906.11
578.88	44329.75
579.04	44154.21
579.21	44109.74
579.37	43765.68
579.53	44289.96
579.69	44280.60
579.85	44416.35
580.01	44229.10
580.17	44355.49
580.33	44329.75
580.49	44353.15
580.65	44318.04
580.82	44278.25
580.98	44313.36
581.14	44123.78
581.30	44346.13
581.46	43978.67
581.62	44463.16
581.78	43962.28
581.94	45069.36
582.10	44399.96
582.26	44535.71
582.42	44416.35
582.58	44336.77
582.74	44130.80
582.90	44194.00
583.06	44615.29
583.22	44509.97
583.38	44147.18
583.54	44292.30
583.70	43819.51
583.86	44275.91
584.02	43828.87
584.18	44519.33
584.34	44507.63
584.50	44428.05
584.66	44584.86
584.82	44296.98
584.98	44414.01
585.14	44467.84
585.30	44516.99
585.46	44238.47
585.62	44240.81
585.78	44177.61
585.94	44140.16
586.10	44144.84
586.26	44137.82
586.42	44236.12
586.58	44301.66
586.74	44467.84
586.90	44320.38
587.06	44158.89
587.22	44189.31
587.38	44034.84
587.54	44626.99
587.70	44591.89
587.86	44713.59
588.02	44374.22
588.18	44299.32
588.34	44339.11
588.49	44116.76
588.65	44226.76
588.81	44385.92
588.97	44505.29
589.13	43945.90
589.29	44512.31
589.45	44460.82
589.61	44552.10
589.77	44275.91
589.93	44928.92
590.08	44783.81
590.24	44996.80
