SpectraSuite Data File
++++++++++++++++++++++++++++++++++++
Date: Fri Oct 25 11:33:24 EDT 2013
User: price-jones
Dark Spectrum Present: No
Reference Spectrum Present: No
Number of Sampled Component Spectra: 1
Spectrometers: USB2+H05261
Integration Time (usec): 100000 (USB2+H05261)
Spectra Averaged: 1 (USB2+H05261)
Boxcar Smoothing: 0 (USB2+H05261)
Correct for Electrical Dark: No (USB2+H05261)
Strobe/Lamp Enabled: No (USB2+H05261)
Correct for Detector Non-linearity: No (USB2+H05261)
Correct for Stray Light: No (USB2+H05261)
Number of Pixels in Processed Spectrum: 2048
>>>>>Begin Processed Spectral Data<<<<<
365.73	245.76
365.92	245.76
366.12	245.76
366.32	285.55
366.52	147.45
366.72	217.67
366.91	227.03
367.11	180.22
367.31	222.35
367.51	163.84
367.70	217.67
367.90	201.29
368.10	119.37
368.30	182.56
368.49	203.63
368.69	203.63
368.89	170.86
369.09	154.48
369.28	182.56
369.48	208.31
369.68	170.86
369.87	264.48
370.07	248.10
370.27	220.01
370.47	334.70
370.66	533.64
370.86	538.32
371.06	561.73
371.25	559.39
371.45	517.26
371.65	496.19
371.84	613.22
372.04	526.62
372.24	535.98
372.44	578.11
372.63	592.16
372.83	564.07
373.03	580.45
373.22	500.87
373.42	620.24
373.62	638.97
373.81	603.86
374.01	662.37
374.21	697.48
374.40	645.99
374.60	674.07
374.79	620.24
374.99	653.01
375.19	678.76
375.38	634.29
375.58	648.33
375.78	653.01
375.97	552.37
376.17	716.20
376.37	692.80
376.56	650.67
376.76	641.31
376.95	720.88
377.15	713.86
377.35	777.06
377.54	653.01
377.74	716.20
377.93	657.69
378.13	683.44
378.33	751.31
378.52	634.29
378.72	737.27
378.91	699.82
379.11	713.86
379.31	692.80
379.50	727.91
379.70	690.46
379.89	720.88
380.09	812.17
380.28	697.48
380.48	753.65
380.68	758.33
380.87	767.70
381.07	676.41
381.26	760.67
381.46	793.44
381.65	798.12
381.85	748.97
382.04	849.61
382.24	819.19
382.43	849.61
382.63	671.73
382.83	793.44
383.02	844.93
383.22	830.89
383.41	770.04
383.61	800.46
383.80	791.10
384.00	781.74
384.19	863.66
384.39	851.96
384.58	807.48
384.78	884.72
384.97	805.14
385.17	877.70
385.36	875.36
385.56	889.40
385.75	816.85
385.95	849.61
386.14	854.30
386.34	842.59
386.53	889.40
386.72	823.87
386.92	877.70
387.11	854.30
387.31	894.08
387.50	889.40
387.70	877.70
387.89	931.53
388.09	940.90
388.28	978.34
388.48	910.47
388.67	971.32
388.86	950.26
389.06	912.81
389.25	964.30
389.45	908.13
389.64	891.74
389.84	976.00
390.03	903.45
390.22	1004.09
390.42	905.79
390.61	922.17
390.81	1029.84
391.00	936.21
391.19	1013.45
391.39	1064.94
391.58	1064.94
391.78	1083.67
391.97	961.96
392.16	1022.81
392.36	1057.92
392.55	1118.78
392.75	1149.20
392.94	1043.88
393.13	1123.46
393.33	997.07
393.52	1095.37
393.71	1210.06
393.91	1184.31
394.10	1093.03
394.29	1158.57
394.49	1090.69
394.68	1224.10
394.88	1118.78
395.07	1060.26
395.26	1027.50
395.46	1102.39
395.65	1128.14
395.84	1205.38
396.04	1221.76
396.23	1259.21
396.42	1193.67
396.62	1273.25
396.81	1207.72
397.00	1235.80
397.19	1200.69
397.39	1275.59
397.58	1259.21
397.77	1172.61
397.97	1277.93
398.16	1256.87
398.35	1163.25
398.55	1320.06
398.74	1268.57
398.93	1343.47
399.12	1289.64
399.32	1252.19
399.51	1249.85
399.70	1462.83
399.90	1320.06
400.09	1327.08
400.28	1383.26
400.47	1369.21
400.67	1357.51
400.86	1416.02
401.05	1411.34
401.24	1453.47
401.44	1434.75
401.63	1444.11
401.82	1404.32
402.01	1458.15
402.21	1458.15
402.40	1462.83
402.59	1488.58
402.78	1483.90
402.97	1507.30
403.17	1589.22
403.36	1589.22
403.55	1607.95
403.74	1612.63
403.93	1647.74
404.13	1633.69
404.32	1561.14
404.51	1504.96
404.70	1739.02
404.89	1544.75
405.09	1694.55
405.28	1713.27
405.47	1659.44
405.66	1732.00
405.85	1636.03
406.05	1577.52
406.24	1767.10
406.43	1713.27
406.62	1790.51
406.81	1797.53
407.00	1699.23
407.20	1764.76
407.39	1891.15
407.58	1893.49
407.77	1930.94
407.96	1996.48
408.15	1860.73
408.34	1865.41
408.54	1872.43
408.73	1975.41
408.92	1937.96
409.11	2026.90
409.30	1963.71
409.49	2071.37
409.68	1998.82
409.87	1989.46
410.07	2036.27
410.26	2054.99
410.45	1940.30
410.64	2101.80
410.83	2211.81
411.02	2136.91
411.21	2134.57
411.40	2275.00
411.59	2143.93
411.78	2211.81
411.98	2237.55
412.17	2296.07
412.36	2181.38
412.55	2333.51
412.74	2429.48
412.93	2382.67
413.12	2263.30
413.31	2485.65
413.50	2408.41
413.69	2354.58
413.88	2457.56
414.07	2485.65
414.26	2457.56
414.45	2452.88
414.64	2518.42
414.83	2513.74
415.02	2581.61
415.22	2663.53
415.41	2696.30
415.60	2628.42
415.79	2658.85
415.98	2679.91
416.17	2834.39
416.36	2743.11
416.55	2885.88
416.74	2754.81
416.93	2841.41
417.12	2913.97
417.31	2839.07
417.50	2787.58
417.69	2949.08
417.88	2918.65
418.07	2792.26
418.26	2951.42
418.45	2923.33
418.64	3096.53
418.83	3021.63
419.02	3077.80
419.21	3119.93
419.39	3087.17
419.58	3087.17
419.77	3173.77
419.96	3236.96
420.15	3080.14
420.34	3124.62
420.53	3150.36
420.72	3349.31
420.91	3290.79
421.10	3365.69
421.29	3332.92
421.48	3248.66
421.67	3314.20
421.86	3211.22
422.05	3335.26
422.24	3410.16
422.43	3398.46
422.61	3321.22
422.80	3604.42
422.99	3358.67
423.18	3405.48
423.37	3428.88
423.56	3300.16
423.75	3466.33
423.94	3251.00
424.13	3248.66
424.32	3316.54
424.50	3435.91
424.69	3503.78
424.88	3461.65
425.07	3445.27
425.26	3447.61
425.45	3356.33
425.64	3473.36
425.83	3398.46
426.01	3487.40
426.20	3400.80
426.39	3478.04
426.58	3461.65
426.77	3508.46
426.96	3562.30
427.15	3559.95
427.33	3536.55
427.52	3456.97
427.71	3655.92
427.90	3716.77
428.09	3676.98
428.28	3744.86
428.46	3548.25
428.65	3646.55
428.84	3918.06
429.03	3747.20
429.22	3555.27
429.40	3749.54
429.59	3707.41
429.78	3590.38
429.97	3527.19
430.16	3796.35
430.34	3873.59
430.53	3962.53
430.72	3932.10
430.91	3875.93
431.10	3857.20
431.28	4009.34
431.47	3953.16
431.66	3976.57
431.85	4053.81
432.03	4021.04
432.22	4196.58
432.41	3967.21
432.60	4037.42
432.79	4107.64
432.97	4014.02
433.16	4117.00
433.35	4025.72
433.54	4250.41
433.72	4227.01
433.91	4301.90
434.10	4229.35
434.28	4060.83
434.47	4369.78
434.66	4276.16
434.85	4180.20
435.03	4442.34
435.22	4339.35
435.41	4477.44
435.59	4493.83
435.78	4390.84
435.97	4362.76
436.16	4465.74
436.34	4416.59
436.53	4416.59
436.72	4524.26
436.90	4386.16
437.09	4652.98
437.28	4313.61
437.46	4643.62
437.65	4587.45
437.84	4622.56
438.02	4683.41
438.21	4599.15
438.40	4631.92
438.58	4751.29
438.77	4816.82
438.96	4837.89
439.14	4842.57
439.33	4805.12
439.52	4863.63
439.70	4896.40
439.89	4968.96
440.08	5008.75
440.26	5104.71
440.45	5064.92
440.63	5114.07
440.82	5153.86
441.01	5177.26
441.19	5266.21
441.38	5336.42
441.57	5310.68
441.75	5273.23
441.94	5352.81
442.12	5352.81
442.31	5526.00
442.50	5511.96
442.68	5294.29
442.87	5359.83
443.05	5469.83
443.24	5497.92
443.43	5610.26
443.61	5530.69
443.80	5767.08
443.98	5439.40
444.17	5287.27
444.35	5652.39
444.54	5500.26
444.73	5596.22
444.91	5694.52
445.10	5703.89
445.28	5626.65
445.47	5682.82
445.65	5764.74
445.84	5638.35
446.02	5785.80
446.21	5694.52
446.39	5760.06
446.58	5872.40
446.77	5694.52
446.95	5600.90
447.14	5678.14
447.32	5806.87
447.51	5820.91
447.69	5706.23
447.88	5746.02
448.06	5757.72
448.25	5767.08
448.43	5947.30
448.62	5825.59
448.80	5526.00
448.99	5923.90
449.17	5921.56
449.36	5755.38
449.54	5926.24
449.73	6066.67
449.91	6134.54
450.10	6001.13
450.28	6155.61
450.46	6143.91
450.65	6232.85
450.83	6108.80
451.02	6148.59
451.20	6310.08
451.39	6134.54
451.57	6207.10
451.76	6153.27
451.94	6272.64
452.13	6396.68
452.31	6127.52
452.49	6162.63
452.68	6211.78
452.86	6387.32
453.05	6354.55
453.23	6335.83
453.42	6291.36
453.60	6417.75
453.78	6457.54
453.97	6324.13
454.15	6448.18
454.34	6249.23
454.52	6506.69
454.70	6574.56
454.89	6551.16
455.07	6630.74
455.26	6602.65
455.44	6698.61
455.62	6679.89
455.81	6803.94
455.99	6768.83
456.17	6717.34
456.36	6773.51
456.54	6911.60
456.73	6984.16
456.91	6956.07
457.09	7052.03
457.28	7014.59
457.46	6855.43
457.64	6918.62
457.83	7075.44
458.01	7012.24
458.19	7082.46
458.38	7056.72
458.56	7236.94
458.74	7178.42
458.93	7173.74
459.11	7136.29
459.29	7005.22
459.48	7368.01
459.66	7117.57
459.84	7360.98
460.03	7255.66
460.21	7517.80
460.39	7314.17
460.57	7487.37
460.76	7379.71
460.94	7433.54
461.12	7440.56
461.31	7562.27
461.49	7595.04
461.67	7595.04
461.85	7620.78
462.04	7576.31
462.22	8124.00
462.40	7737.81
462.59	7691.00
462.77	7740.15
462.95	7957.82
463.13	7826.75
463.32	7784.62
463.50	7812.71
463.68	7920.37
463.86	8114.64
464.05	7880.58
464.23	7864.20
464.41	8039.74
464.59	7859.52
464.78	8025.70
464.96	8042.08
465.14	8107.62
465.32	8149.75
465.50	8142.72
465.69	8163.79
465.87	8084.21
466.05	8081.87
466.23	8318.26
466.41	8128.68
466.60	8418.91
466.78	8180.17
466.96	8285.50
467.14	8348.69
467.32	8318.26
467.51	8409.54
467.69	8287.84
467.87	8163.79
468.05	8311.24
468.23	8332.31
468.41	8257.41
468.60	8287.84
468.78	8573.38
468.96	8528.91
469.14	8500.83
469.32	8578.06
469.50	8524.23
469.69	8835.52
469.87	8788.71
470.05	8952.55
470.23	8779.35
470.41	8772.33
470.59	8861.27
470.77	8695.09
470.95	8802.75
471.14	9034.47
471.32	8713.81
471.50	9128.09
471.68	9013.40
471.86	9149.15
472.04	9064.89
472.22	9535.34
472.40	9210.01
472.58	9151.49
472.77	9298.95
472.95	9369.16
473.13	9544.70
473.31	9355.12
473.49	9303.63
473.67	9514.28
473.85	9579.81
474.03	9825.57
474.21	9633.64
474.39	9884.08
474.57	9902.81
474.75	9720.24
474.93	10045.58
475.12	9961.32
475.30	10197.71
475.48	10029.20
475.66	10150.90
475.84	10143.88
476.02	10429.43
476.20	10186.01
476.38	10225.80
476.56	10623.69
476.74	10637.73
476.92	10466.88
477.10	10511.35
477.28	10768.80
477.46	10911.58
477.64	10827.32
477.82	11201.80
478.00	11314.15
478.18	11183.08
478.36	11185.42
478.54	11372.66
478.72	11398.41
478.90	11578.63
479.08	11735.45
479.26	11674.59
479.44	11791.62
479.62	11918.01
479.80	11702.68
479.98	11829.07
480.16	12390.80
480.34	12315.90
480.52	12439.95
480.70	12423.56
480.88	12011.63
481.06	12599.10
481.24	12645.91
481.41	12648.26
481.59	12699.75
481.77	12776.98
481.95	12989.97
482.13	13322.33
482.31	12840.18
482.49	13369.14
482.67	13308.29
482.85	13369.14
483.03	13411.27
483.21	13415.95
483.39	13792.78
483.57	13596.17
483.74	13977.68
483.92	14120.45
484.10	13909.80
484.28	14319.40
484.46	14541.75
484.64	14644.73
484.82	14604.94
485.00	14780.48
485.18	14927.94
485.35	14946.66
485.53	15021.56
485.71	15314.13
485.89	15463.92
486.07	15337.53
486.25	15667.55
486.43	15545.84
486.61	16098.20
486.78	15840.75
486.96	15712.02
487.14	16173.10
487.32	16313.53
487.50	16067.78
487.68	16652.91
487.85	16681.00
488.03	16664.61
488.21	17106.98
488.39	17158.47
488.57	17373.80
488.75	17193.58
488.92	17149.11
489.10	17390.18
489.28	17525.93
489.46	17834.88
489.64	18078.30
489.81	17980.00
489.99	18244.48
490.17	18190.64
490.35	18420.02
490.53	18462.15
490.70	19073.03
490.88	18780.46
491.06	18958.34
491.24	19068.34
491.41	18977.06
491.59	19293.04
491.77	19281.33
491.95	19332.82
492.13	19791.57
492.30	19655.82
492.48	19976.47
492.66	20102.86
492.84	19833.70
493.01	20093.50
493.19	20060.73
493.37	20837.79
493.54	20203.50
493.72	20748.85
493.90	20634.16
494.08	20924.39
494.25	20748.85
494.43	21228.66
494.61	21397.18
494.79	21493.14
494.96	21383.13
495.14	21696.77
495.32	21495.48
495.49	21811.45
495.67	21942.52
495.85	22092.32
496.02	22136.79
496.20	22422.33
496.38	22265.52
496.55	22455.10
496.73	22848.31
496.91	23028.53
497.09	23117.47
497.26	22948.95
497.44	22998.10
497.62	22934.91
497.79	23695.58
497.97	23316.42
498.14	23845.38
498.32	23695.58
498.50	24006.87
498.67	24046.66
498.85	24027.94
499.03	23929.64
499.20	24383.70
499.38	24079.43
499.56	24662.22
499.73	24374.34
499.91	24697.33
500.08	24638.82
500.26	24496.05
500.44	24765.21
500.61	24999.26
500.79	24929.05
500.97	25064.80
501.14	25483.75
501.32	25443.96
501.49	25553.97
501.67	25570.35
501.84	25919.09
502.02	25589.08
502.20	25921.43
502.37	25954.20
502.55	25678.02
502.72	25844.20
502.90	25907.39
503.07	26125.06
503.25	25954.20
503.43	25916.75
503.60	26888.07
503.78	26609.55
503.95	26106.34
504.13	26607.21
504.30	27138.51
504.48	26782.75
504.65	27030.85
504.83	27084.68
505.01	27466.19
505.18	27201.71
505.36	27573.85
505.53	27459.16
505.71	27211.07
505.88	27395.97
506.06	27552.79
506.23	27742.37
506.41	27332.78
506.58	27613.64
506.76	28056.00
506.93	28166.01
507.11	28158.99
507.28	28114.52
507.46	28306.44
507.63	28758.16
507.81	28381.34
507.98	28437.51
508.16	28833.06
508.33	28807.31
508.50	28950.09
508.68	29039.03
508.85	28877.53
509.03	29064.77
509.20	29134.99
509.38	29741.19
509.55	29237.97
509.73	29528.20
509.90	29539.90
510.08	29570.33
510.25	29500.11
510.42	29982.26
510.60	29333.93
510.77	30118.01
510.95	30242.06
511.12	30132.06
511.30	30197.59
511.47	30204.61
511.64	30319.30
511.82	30494.84
511.99	30110.99
512.17	30543.99
512.34	30501.86
512.51	30941.88
512.69	30764.00
512.86	30654.00
513.04	30892.73
513.21	30934.86
513.38	31239.13
513.56	31597.23
513.73	30775.70
513.90	31199.34
514.08	31562.12
514.25	31931.93
514.43	31384.24
514.60	31688.51
514.77	31796.18
514.95	32093.43
515.12	31770.43
515.29	31669.79
515.47	32158.96
515.64	31952.99
515.81	32018.53
515.99	32411.74
516.16	32196.41
516.33	32306.41
516.51	32442.17
516.68	32669.20
516.85	32905.59
517.03	32914.95
517.20	32889.21
517.37	32835.38
517.54	32987.51
517.72	32737.07
517.89	33137.30
518.06	33116.24
518.24	32879.85
518.41	32868.14
518.58	33443.91
518.75	33270.72
518.93	33415.83
519.10	33483.70
519.27	33376.04
519.45	33567.96
519.62	34036.07
519.79	33926.07
519.96	34178.84
520.14	33802.02
520.31	33755.21
520.48	34110.97
520.65	33923.72
520.83	34321.62
521.00	34436.30
521.17	34384.81
521.34	34789.72
521.52	34403.53
521.69	34855.26
521.86	34637.59
522.03	35152.51
522.20	34740.57
522.38	35000.37
522.55	35370.18
522.72	34787.38
522.89	35349.11
523.07	35634.66
523.24	35222.72
523.41	35545.72
523.58	35421.67
523.75	35274.21
523.92	35159.53
524.10	35852.33
524.27	35695.51
524.44	35662.74
524.61	35992.76
524.78	36065.31
524.96	36055.95
525.13	36311.07
525.30	36631.72
525.47	36086.38
525.64	36198.73
525.81	36615.34
525.98	36596.62
526.16	36390.65
526.33	36531.08
526.50	36538.10
526.67	36584.91
526.84	36765.14
527.01	36928.97
527.18	36542.78
527.36	36928.97
527.53	36966.42
527.70	36879.82
527.87	37284.73
528.04	37085.79
528.21	37118.56
528.38	37163.03
528.55	37605.39
528.72	37067.06
528.89	37060.04
529.07	37397.08
529.24	37376.01
529.41	37794.97
529.58	37326.86
529.75	37572.62
529.92	37818.38
530.09	37839.44
530.26	37865.19
530.43	38075.84
530.60	38045.41
530.77	37811.35
530.94	38029.02
531.11	37757.52
531.28	38368.40
531.46	38106.26
531.63	38211.59
531.80	38286.48
531.97	38511.17
532.14	38192.86
532.31	38398.83
532.48	38621.18
532.65	38569.69
532.82	38291.16
532.99	38373.08
533.16	38445.64
533.33	38569.69
533.50	38827.15
533.67	39154.82
533.84	38464.36
534.01	38972.26
534.18	39201.63
534.35	39370.15
534.52	39133.76
534.69	39625.27
534.86	39896.77
535.03	38778.00
535.20	39505.90
535.37	39498.88
535.54	39777.40
535.71	39473.13
535.88	39297.59
536.05	39548.03
536.22	39576.12
536.38	40072.31
536.55	39735.27
536.72	39674.42
536.89	39625.27
537.06	39957.63
537.23	40383.60
537.40	40170.61
537.57	39842.94
537.74	40032.52
537.91	40706.60
538.08	40002.10
538.25	39959.97
538.42	40292.32
538.59	40664.47
538.75	39952.94
538.92	40889.16
539.09	40737.02
539.26	40765.11
539.43	40835.33
539.60	40554.46
539.77	40407.01
539.94	41144.28
540.11	40886.82
540.28	40996.82
540.44	41015.55
540.61	41017.89
540.78	40863.41
540.95	41111.51
541.12	40788.52
541.29	41127.89
541.46	41371.31
541.62	41085.76
541.79	41111.51
541.96	40964.06
542.13	41076.40
542.30	41113.85
542.47	41483.66
542.63	41689.62
542.80	41816.01
542.97	41944.74
543.14	42050.06
543.31	42066.45
543.48	42085.17
543.64	42621.16
543.81	42143.69
543.98	42078.15
544.15	42155.39
544.32	41928.36
544.48	42864.57
544.65	42384.76
544.82	42469.02
544.99	42302.84
545.16	42534.56
545.32	42169.43
545.49	42799.04
545.66	42789.67
545.83	43110.33
546.00	42906.70
546.16	42576.69
546.33	42754.57
546.50	42342.63
546.67	42761.59
546.83	42569.66
547.00	42682.01
547.17	42555.62
547.34	42780.31
547.50	43171.18
547.67	43199.27
547.84	42993.30
548.00	43281.19
548.17	43491.83
548.34	43599.50
548.51	43641.63
548.67	43278.85
548.84	43353.74
549.01	42932.45
549.18	43562.05
549.34	43611.20
549.51	43732.91
549.68	43786.74
549.84	43482.47
550.01	43852.28
550.18	43201.61
550.34	43543.33
550.51	44006.75
550.68	43775.04
550.84	43590.14
551.01	43852.28
551.18	43515.24
551.34	44041.86
551.51	43695.46
551.68	43737.59
551.84	43751.63
552.01	43913.13
552.18	44027.82
552.34	43798.44
552.51	44458.48
552.68	44233.78
552.84	44175.27
553.01	44563.80
553.18	44533.37
553.34	44254.85
553.51	44179.95
553.67	44626.99
553.84	44676.15
554.01	44514.65
554.17	44561.46
554.34	44488.90
554.51	44765.09
554.67	44741.68
554.84	44596.57
555.00	44919.56
555.17	44692.53
555.33	44795.51
555.50	44669.12
555.67	45186.38
555.83	44758.06
556.00	45333.84
556.16	45090.42
556.33	45029.57
556.50	44877.43
556.66	45436.82
556.83	45284.68
556.99	45390.01
557.16	45588.95
557.32	45588.95
557.49	45113.83
557.65	44994.46
557.82	45544.48
557.98	45399.37
558.15	45291.71
558.32	45029.57
558.48	45705.98
558.65	45752.79
558.81	45385.33
558.98	45382.99
559.14	45815.99
559.31	45652.15
559.47	45434.48
559.64	45521.08
559.80	45595.98
559.97	45013.18
560.13	45443.84
560.30	45212.13
560.46	45801.94
560.63	45347.88
560.79	46064.08
560.96	46387.08
561.12	45684.92
561.29	45935.35
561.45	46043.02
561.61	46007.91
561.78	45764.49
561.94	46230.26
562.11	45979.82
562.27	45925.99
562.44	46218.56
562.60	46239.62
562.77	46028.98
562.93	45783.22
563.10	45900.25
563.26	46028.98
563.42	46532.19
563.59	46176.43
563.75	46078.13
563.92	46129.62
564.08	45743.43
564.24	46061.74
564.41	46309.84
564.57	46412.82
564.74	46220.90
564.90	46007.91
565.07	46480.70
565.23	46461.97
565.39	46354.31
565.56	46272.39
565.72	46134.30
565.88	46550.91
566.05	46064.08
566.21	46281.75
566.38	46358.99
566.54	46323.88
566.70	46461.97
566.87	46583.68
567.03	46122.60
567.19	46801.35
567.36	46586.02
567.52	46223.24
567.68	46988.60
567.85	46485.38
568.01	46742.84
568.17	46522.83
568.34	46834.12
568.50	46681.98
568.66	46635.17
568.83	46497.08
568.99	46600.07
569.15	47047.11
569.32	46822.42
569.48	46604.75
569.64	46808.37
569.81	46958.17
569.97	46920.72
570.13	46824.76
570.30	46394.10
570.46	46642.20
570.62	46939.44
570.78	46859.87
570.95	47009.66
571.11	47288.18
571.27	46576.66
571.43	46564.96
571.60	47248.39
571.76	46892.63
571.92	46731.14
572.09	46597.73
572.25	46703.05
572.41	46899.65
572.57	46377.72
572.74	47117.32
572.90	46777.95
573.06	47299.89
573.22	46880.93
573.38	47199.24
573.55	47110.30
573.71	47192.22
573.87	47023.70
574.03	46869.23
574.20	47248.39
574.36	47187.54
574.52	46789.65
574.68	47250.74
574.84	47096.26
575.01	47232.01
575.17	46944.12
575.33	47117.32
575.49	46951.15
575.65	47707.14
575.82	47150.09
575.98	47063.49
576.14	47072.85
576.30	47381.80
576.46	47381.80
576.62	47028.38
576.79	47129.03
576.95	46934.76
577.11	47136.05
577.27	46791.99
577.43	47098.60
577.59	47168.82
577.75	46997.96
577.92	47000.30
578.08	47063.49
578.24	46782.63
578.40	47437.98
578.56	47054.13
578.72	47241.37
578.88	47452.02
579.04	47320.95
579.21	47271.80
579.37	47033.07
579.53	47812.46
579.69	47283.50
579.85	47555.00
580.01	47405.21
580.17	47538.62
580.33	47203.92
580.49	47428.62
580.65	47433.30
580.82	47072.85
580.98	47604.16
581.14	46988.60
581.30	47437.98
581.46	47063.49
581.62	47021.36
581.78	47030.72
581.94	47480.11
582.10	47159.45
582.26	47515.22
582.42	47349.04
582.58	47332.65
582.74	47349.04
582.90	47442.66
583.06	47564.37
583.22	47283.50
583.38	47552.66
583.54	47480.11
583.70	47503.51
583.86	47412.23
584.02	47445.00
584.18	47847.57
584.34	47793.74
584.50	47632.24
584.66	47674.37
584.82	47526.92
584.98	47800.76
585.14	47533.94
585.30	47367.76
585.46	47569.05
585.62	47489.47
585.78	47938.85
585.94	47138.39
586.10	47388.83
586.26	47449.68
586.42	47292.86
586.58	47821.83
586.74	47409.89
586.90	47524.58
587.06	47613.52
587.22	47482.45
587.38	47503.51
587.54	47547.98
587.70	48123.75
587.86	47468.40
588.02	47655.65
588.18	47419.25
588.34	47604.16
588.49	47454.36
588.65	47262.44
588.81	47868.64
588.97	47714.16
589.13	47641.60
589.29	47688.42
589.45	47655.65
589.61	47814.80
589.77	47707.14
589.93	47810.12
