SpectraSuite Data File
++++++++++++++++++++++++++++++++++++
Date: Fri Oct 25 11:22:31 EDT 2013
User: price-jones
Dark Spectrum Present: No
Reference Spectrum Present: No
Number of Sampled Component Spectra: 1
Spectrometers: USB2+H05261
Integration Time (usec): 100000 (USB2+H05261)
Spectra Averaged: 1 (USB2+H05261)
Boxcar Smoothing: 0 (USB2+H05261)
Correct for Electrical Dark: No (USB2+H05261)
Strobe/Lamp Enabled: No (USB2+H05261)
Correct for Detector Non-linearity: No (USB2+H05261)
Correct for Stray Light: No (USB2+H05261)
Number of Pixels in Processed Spectrum: 2048
>>>>>Begin Processed Spectral Data<<<<<
365.73	262.14
365.92	262.14
366.12	262.14
366.32	93.62
366.52	110.01
366.72	149.79
366.91	107.66
367.11	60.85
367.31	79.58
367.51	84.26
367.70	140.43
367.90	91.28
368.10	77.24
368.30	86.60
368.49	135.75
368.69	112.35
368.89	149.79
369.09	154.48
369.28	133.41
369.48	182.56
369.68	187.24
369.87	201.29
370.07	229.37
370.27	264.48
370.47	360.44
370.66	634.29
370.86	564.07
371.06	634.29
371.25	660.03
371.45	662.37
371.65	585.13
371.84	631.94
372.04	683.44
372.24	685.78
372.44	732.59
372.63	706.84
372.83	777.06
373.03	760.67
373.22	748.97
373.42	816.85
373.62	816.85
373.81	753.65
374.01	849.61
374.21	798.12
374.40	821.53
374.60	805.14
374.79	833.23
374.99	823.87
375.19	833.23
375.38	858.98
375.58	863.66
375.78	854.30
375.97	873.02
376.17	891.74
376.37	875.36
376.56	781.74
376.76	842.59
376.95	905.79
377.15	905.79
377.35	950.26
377.54	866.00
377.74	854.30
377.93	912.81
378.13	929.19
378.33	1008.77
378.52	945.58
378.72	966.64
378.91	938.55
379.11	858.98
379.31	940.90
379.50	933.87
379.70	931.53
379.89	990.05
380.09	1015.79
380.28	966.64
380.48	901.11
380.68	898.77
380.87	964.30
381.07	983.02
381.26	1057.92
381.46	1074.31
381.65	1062.60
381.85	1116.44
382.04	1071.97
382.24	1001.75
382.43	1076.65
382.63	1006.43
382.83	1104.73
383.02	1034.52
383.22	1111.75
383.41	1149.20
383.61	1114.10
383.80	1118.78
384.00	1062.60
384.19	1090.69
384.39	1137.50
384.58	1205.38
384.78	1109.41
384.97	1118.78
385.17	1109.41
385.36	1184.31
385.56	1210.06
385.75	1170.27
385.95	1181.97
386.14	1137.50
386.34	1193.67
386.53	1254.53
386.72	1210.06
386.92	1277.93
387.11	1259.21
387.31	1249.85
387.50	1200.69
387.70	1233.46
387.89	1263.89
388.09	1268.57
388.28	1284.95
388.48	1291.98
388.67	1413.68
388.86	1186.65
389.06	1392.62
389.25	1338.79
389.45	1336.45
389.64	1355.17
389.84	1338.79
390.03	1350.49
390.22	1385.60
390.42	1399.64
390.61	1380.92
390.81	1385.60
391.00	1526.03
391.19	1387.94
391.39	1453.47
391.58	1423.05
391.78	1490.92
391.97	1444.11
392.16	1476.88
392.36	1549.43
392.55	1455.81
392.75	1493.26
392.94	1593.90
393.13	1607.95
393.33	1521.35
393.52	1610.29
393.71	1621.99
393.91	1549.43
394.10	1596.25
394.29	1610.29
394.49	1570.50
394.68	1621.99
394.88	1605.61
395.07	1636.03
395.26	1671.14
395.46	1706.25
395.65	1774.13
395.84	1664.12
396.04	1760.08
396.23	1710.93
396.42	1792.85
396.62	1820.94
396.81	1792.85
397.00	1781.15
397.19	1692.21
397.39	1872.43
397.58	1748.38
397.77	1802.21
397.97	1788.17
398.16	1853.70
398.35	2033.93
398.55	1909.88
398.74	1959.03
398.93	1973.07
399.12	1952.01
399.32	1902.86
399.51	1954.35
399.70	1996.48
399.90	2031.58
400.09	2080.74
400.28	2167.34
400.47	2012.86
400.67	2113.50
400.86	2090.10
401.05	2190.74
401.24	2097.12
401.44	2136.91
401.63	2195.42
401.82	2160.31
402.01	2204.78
402.21	2106.48
402.40	2174.36
402.59	2293.72
402.78	2214.15
402.97	2115.84
403.17	2099.46
403.36	2300.75
403.55	2326.49
403.74	2277.34
403.93	2326.49
404.13	2347.56
404.32	2305.43
404.51	2317.13
404.70	2492.67
404.89	2443.52
405.09	2502.03
405.28	2452.88
405.47	2455.22
405.66	2492.67
405.85	2555.86
406.05	2502.03
406.24	2502.03
406.43	2612.04
406.62	2600.34
406.81	2710.34
407.00	2569.91
407.20	2579.27
407.39	2656.51
407.58	2785.24
407.77	2642.46
407.96	2654.17
408.15	2768.85
408.34	2818.00
408.54	2869.50
408.73	2920.99
408.92	2874.18
409.11	3009.93
409.30	2862.48
409.49	2897.58
409.68	2991.20
409.87	2892.90
410.07	2963.12
410.26	2965.46
410.45	2981.84
410.64	3159.72
410.83	3021.63
411.02	2965.46
411.21	3129.30
411.40	3192.49
411.59	3267.39
411.78	3185.47
411.98	3260.37
412.17	3386.76
412.36	3307.18
412.55	3447.61
412.74	3426.54
412.93	3389.10
413.12	3438.25
413.31	3527.19
413.50	3433.57
413.69	3536.55
413.88	3581.02
414.07	3609.11
414.26	3749.54
414.45	3634.85
414.64	3606.77
414.83	3808.05
415.02	3749.54
415.22	3714.43
415.41	3885.29
415.60	3845.50
415.79	3812.73
415.98	4117.00
416.17	4018.70
416.36	4065.51
416.55	4060.83
416.74	4023.38
416.93	4145.09
417.12	4154.45
417.31	4173.18
417.50	4149.77
417.69	4454.04
417.88	4329.99
418.07	4208.28
418.26	4264.46
418.45	4449.36
418.64	4493.83
418.83	4379.14
419.02	4479.79
419.21	4507.87
419.39	4652.98
419.58	4491.49
419.77	4390.84
419.96	4629.58
420.15	4660.01
420.34	4732.56
420.53	4704.48
420.72	4711.50
420.91	4660.01
421.10	4727.88
421.29	4933.85
421.48	4812.14
421.67	4816.82
421.86	4713.84
422.05	4870.65
422.24	4802.78
422.43	4854.27
422.61	4917.47
422.80	4940.87
422.99	5060.24
423.18	4975.98
423.37	5165.56
423.56	5050.88
423.75	4997.04
423.94	4924.49
424.13	4573.41
424.32	4695.11
424.50	4997.04
424.69	5088.32
424.88	5296.63
425.07	4821.50
425.26	4826.18
425.45	5048.54
425.64	5069.60
425.83	5034.49
426.01	5160.88
426.20	5193.65
426.39	5078.96
426.58	5008.75
426.77	5060.24
426.96	5177.26
427.15	5174.92
427.33	5135.14
427.52	5083.64
427.71	5235.78
427.90	5139.82
428.09	5313.02
428.28	5434.72
428.46	5270.89
428.65	5289.61
428.84	5533.03
429.03	5579.84
429.22	5359.83
429.40	5547.07
429.59	5593.88
429.78	5598.56
429.97	5320.04
430.16	5610.26
430.34	5701.54
430.53	5682.82
430.72	5636.01
430.91	5673.46
431.10	5699.20
431.28	5825.59
431.47	5877.09
431.66	6022.20
431.85	5863.04
432.03	6019.86
432.22	6085.39
432.41	5933.26
432.60	5921.56
432.79	5851.34
432.97	5987.09
433.16	6125.18
433.35	5980.07
433.54	6289.02
433.72	6293.70
433.91	6235.19
434.10	6274.98
434.28	6181.35
434.47	6392.00
434.66	6284.34
434.85	6333.49
435.03	6347.53
435.22	6162.63
435.41	6399.02
435.59	6438.81
435.78	6651.80
435.97	6434.13
436.16	6516.05
436.34	6399.02
436.53	6551.16
436.72	6712.66
436.90	6588.61
437.09	6602.65
437.28	6471.58
437.46	6665.85
437.65	6712.66
437.84	6829.68
438.02	6747.76
438.21	6773.51
438.40	6874.15
438.58	7131.61
438.77	7014.59
438.96	6984.16
439.14	7110.55
439.33	7267.36
439.52	7194.81
439.70	7232.26
439.89	7304.81
440.08	7487.37
440.26	7447.58
440.45	7414.82
440.63	7548.23
440.82	7522.48
441.01	7627.81
441.19	7728.45
441.38	7686.32
441.57	7798.66
441.75	7988.25
441.94	7929.74
442.12	7903.99
442.31	8147.40
442.50	8149.75
442.68	7950.80
442.87	8145.06
443.05	8184.85
443.24	8222.30
443.43	8102.93
443.61	8318.26
443.80	8362.73
443.98	8056.12
444.17	7896.97
444.35	8430.61
444.54	8622.53
444.73	8383.80
444.91	8454.02
445.10	8358.05
445.28	8428.27
445.47	8287.84
445.65	8388.48
445.84	8535.93
446.02	8629.56
446.21	8465.72
446.39	8519.55
446.58	8538.27
446.77	8437.63
446.95	8252.73
447.14	8524.23
447.32	8739.56
447.51	8547.64
447.69	8463.38
447.88	8631.90
448.06	8400.18
448.25	8542.96
448.43	8526.57
448.62	8542.96
448.80	8542.96
448.99	8830.84
449.17	8667.00
449.36	8720.84
449.54	9090.64
449.73	8903.40
449.91	9195.96
450.10	8982.98
450.28	9060.21
450.46	9104.68
450.65	9036.81
450.83	9366.82
451.02	9095.32
451.20	9186.60
451.39	9163.20
451.57	9158.52
451.76	9074.26
451.94	9535.34
452.13	9380.87
452.31	9556.41
452.49	9348.10
452.68	9430.02
452.86	9394.91
453.05	9582.15
453.23	9568.11
453.42	9671.09
453.60	9430.02
453.78	9713.22
453.97	9593.86
454.15	9760.03
454.34	9661.73
454.52	9954.30
454.70	9769.40
454.89	9909.83
455.07	9802.16
455.26	9942.60
455.44	9966.00
455.62	9900.47
455.81	10146.22
455.99	9811.53
456.17	10008.13
456.36	10157.92
456.54	10354.53
456.73	10457.51
456.91	10473.90
457.09	10586.24
457.28	10576.88
457.46	10427.09
457.64	10541.77
457.83	10450.49
458.01	10361.55
458.19	10787.53
458.38	10588.58
458.56	10747.74
458.74	10595.61
458.93	10860.09
459.11	10892.85
459.29	10693.91
459.48	10626.03
459.66	10789.87
459.84	11194.78
460.03	11073.07
460.21	11190.10
460.39	10932.64
460.57	11063.71
460.76	11255.64
460.94	11309.47
461.12	11206.48
461.31	11274.36
461.49	11138.61
461.67	11173.72
461.85	11396.07
462.04	11309.47
462.22	11737.79
462.40	11683.95
462.59	11452.24
462.77	11597.35
462.95	11796.30
463.13	11644.17
463.32	11894.60
463.50	11939.07
463.68	11838.43
463.86	11906.31
464.05	11719.06
464.23	11580.97
464.41	11974.18
464.59	11672.25
464.78	12009.29
464.96	12112.27
465.14	11688.64
465.32	12156.74
465.50	12297.17
465.69	12308.88
465.87	12238.66
466.05	12210.57
466.23	12222.28
466.41	12245.68
466.60	12690.38
466.78	12388.46
466.96	12294.83
467.14	12259.73
467.32	12404.84
467.51	12671.66
467.69	12255.04
467.87	12638.89
468.05	12727.83
468.23	12446.97
468.41	12397.82
468.60	12685.70
468.78	12889.33
468.96	12805.07
469.14	12795.71
469.32	13109.34
469.50	12807.41
469.69	13146.79
469.87	13350.42
470.05	13385.52
470.23	13455.74
470.41	13209.98
470.59	13364.46
470.77	13268.50
470.95	13303.60
471.14	13607.87
471.32	13324.67
471.50	13790.44
471.68	13556.38
471.86	13832.57
472.04	13944.91
472.22	14094.71
472.40	13727.24
472.58	13907.46
472.77	14260.88
472.95	14174.28
473.13	14705.59
473.31	14169.60
473.49	14427.06
473.67	14017.47
473.85	14647.07
474.03	14633.03
474.21	14537.07
474.39	14712.61
474.57	14574.52
474.75	15288.38
474.93	14984.11
475.12	15066.03
475.30	15286.04
475.48	15075.39
475.66	15325.83
475.84	15283.70
476.02	15683.93
476.20	15484.98
476.38	15779.89
476.56	16145.02
476.74	16170.76
476.92	15964.79
477.10	16123.95
477.28	16133.31
477.46	16245.66
477.64	16411.84
477.82	16688.02
478.00	16851.86
478.18	16959.52
478.36	17270.81
478.54	17198.26
478.72	17444.01
478.90	17310.60
479.08	17769.35
479.26	17858.29
479.44	17958.93
479.62	17788.07
479.80	18101.70
479.98	18242.14
480.16	19077.71
480.34	18431.72
480.52	18600.24
480.70	18735.99
480.88	18473.85
481.06	19201.76
481.24	18707.90
481.41	19161.97
481.59	19501.34
481.77	19772.85
481.95	19779.87
482.13	19702.63
482.31	19510.71
482.49	20573.31
482.67	20255.00
482.85	20580.33
483.03	20931.41
483.21	21013.33
483.39	21057.80
483.57	21032.05
483.74	21069.50
483.92	21706.13
484.10	21308.24
484.28	22132.11
484.46	22174.24
484.64	22429.35
484.82	21937.84
485.00	22586.17
485.18	23054.28
485.35	23047.26
485.53	22785.12
485.71	23365.57
485.89	23618.35
486.07	23761.12
486.25	23473.23
486.43	23950.70
486.61	23711.97
486.78	24198.80
486.96	24212.84
487.14	25034.37
487.32	24786.27
487.50	25076.50
487.68	25198.21
487.85	25291.83
488.03	25493.12
488.21	26111.02
488.39	25869.94
488.57	26277.19
488.75	26057.18
488.92	26527.63
489.10	27159.58
489.28	26789.77
489.46	27379.59
489.64	27065.96
489.81	27646.41
489.99	28046.64
490.17	28166.01
490.35	28573.26
490.53	28467.94
490.70	28779.23
490.88	28439.85
491.06	29088.18
491.24	28868.17
491.41	29315.21
491.59	29654.59
491.77	29532.88
491.95	29399.47
492.13	29790.34
492.30	30279.51
492.48	30256.11
492.66	30494.84
492.84	30944.22
493.01	30890.39
493.19	30808.47
493.37	31115.08
493.54	31494.25
493.72	31529.36
493.90	31597.23
494.08	32051.30
494.25	32121.51
494.43	32135.56
494.61	32636.43
494.79	32886.87
494.96	32772.18
495.14	33092.83
495.32	33429.87
495.49	33853.51
495.67	33350.29
495.85	33773.93
496.02	33837.12
496.20	34424.60
496.38	34197.57
496.55	34555.67
496.73	35101.01
496.91	34998.03
497.09	35072.93
497.26	34995.69
497.44	35463.80
497.62	35276.55
497.79	36060.63
497.97	36065.31
498.14	36397.67
498.32	36514.70
498.50	36554.49
498.67	36910.25
498.85	36837.69
499.03	37090.47
499.20	36877.48
499.38	37298.78
499.56	37617.09
499.73	37759.86
499.91	37514.11
500.08	37914.34
500.26	37439.21
500.44	38066.47
500.61	38029.02
500.79	37919.02
500.97	38429.26
501.14	38834.17
501.32	38735.87
501.49	38724.16
501.67	39063.54
501.84	39470.79
502.02	39248.44
502.20	39192.27
502.37	39548.03
502.55	39445.05
502.72	39779.74
502.90	39409.94
503.07	39587.82
503.25	40282.96
503.43	40198.70
503.60	40542.76
503.78	40407.01
503.95	40676.17
504.13	40849.37
504.30	41139.60
504.48	40837.67
504.65	40919.59
504.83	41223.86
505.01	41694.30
505.18	41572.60
505.36	41750.48
505.53	41441.53
505.71	42225.60
505.88	42316.89
506.06	41869.84
506.23	42204.54
506.41	42239.65
506.58	42387.10
506.76	42408.17
506.93	42663.28
507.11	42672.65
507.28	42866.91
507.46	43253.10
507.63	43168.84
507.81	43379.49
507.98	43098.62
508.16	43501.20
508.33	43831.21
508.50	43894.41
508.68	44072.29
508.85	44128.46
509.03	43896.75
509.20	43803.13
509.38	44650.40
509.55	44423.37
509.73	45191.06
509.90	44573.16
510.08	44882.11
510.25	45127.87
510.42	45106.80
510.60	45254.26
510.77	45366.60
510.95	45893.22
511.12	45340.86
511.30	45605.34
511.47	46045.36
511.64	45624.06
511.82	46216.22
511.99	46094.51
512.17	46389.42
512.34	46274.73
512.51	46925.40
512.69	46579.00
512.86	46454.95
513.04	47498.83
513.21	46986.25
513.38	47070.51
513.56	46934.76
513.73	47070.51
513.90	47845.23
514.08	47503.51
514.25	47599.47
514.43	47826.51
514.60	47657.99
514.77	47667.35
514.95	47896.72
515.12	47669.69
515.29	47950.56
515.47	48182.27
515.64	48959.33
515.81	48081.63
515.99	48521.65
516.16	48704.21
516.33	48633.99
516.51	48905.49
516.68	48781.45
516.85	48650.38
517.03	49162.95
517.20	49537.44
517.37	49043.59
517.54	49141.89
517.72	49263.60
517.89	49605.31
518.06	49701.28
518.24	49481.27
518.41	49525.74
518.58	49794.90
518.75	49663.83
518.93	49855.75
519.10	49783.19
519.27	50103.85
519.45	50127.25
519.62	50188.11
519.79	50408.12
519.96	50267.69
520.14	50429.18
520.31	50136.62
520.48	50897.29
520.65	50532.17
520.83	51508.17
521.00	50876.22
521.17	50590.68
521.34	50686.64
521.52	50965.17
521.69	51072.83
521.86	51269.43
522.03	51444.98
522.20	51784.35
522.38	51557.32
522.55	51917.76
522.72	51749.24
522.89	51910.74
523.07	51735.20
523.24	51667.33
523.41	51810.10
523.58	51697.75
523.75	52266.50
523.92	52079.26
524.10	52076.92
524.27	52032.45
524.44	52498.22
524.61	52413.96
524.78	52580.13
524.96	52222.03
525.13	52514.60
525.30	52547.37
525.47	52715.89
525.64	52734.61
525.81	52940.58
525.98	52720.57
526.16	53120.80
526.33	52893.77
526.50	53123.14
526.67	53116.12
526.84	53167.61
527.01	53200.38
527.18	53244.85
527.36	53338.47
527.53	53312.72
527.70	53727.00
527.87	53502.31
528.04	53097.39
528.21	53361.87
528.38	53783.17
528.55	53649.76
528.72	53710.61
528.89	53820.62
529.07	53736.36
529.24	53785.51
529.41	54057.01
529.58	53825.30
529.75	54007.86
529.92	53860.41
530.09	53989.14
530.26	54124.89
530.43	53977.43
530.60	54234.89
530.77	53982.12
530.94	54192.76
531.11	54220.85
531.28	54539.16
531.46	54698.32
531.63	54372.99
531.80	54738.11
531.97	54761.51
532.14	54838.75
532.31	54780.24
532.48	54777.90
532.65	55260.05
532.82	54770.88
532.99	55154.72
533.16	54777.90
533.33	55152.38
533.50	55182.81
533.67	54878.54
533.84	54890.24
534.01	55124.30
534.18	55344.31
534.35	55826.46
534.52	55388.78
534.69	55292.82
534.86	55419.20
535.03	55299.84
535.20	55304.52
535.37	55421.55
535.54	55786.67
535.71	55531.55
535.88	55587.72
536.05	55714.11
536.22	55873.27
536.38	56130.73
536.55	55805.39
536.72	55899.01
536.89	55894.33
537.06	55842.84
537.23	56158.81
537.40	55695.39
537.57	55962.21
537.74	56203.28
537.91	56006.68
538.08	55969.23
538.25	55973.91
538.42	56243.07
538.59	56282.86
538.75	56306.27
538.92	56186.90
539.09	56491.17
539.26	56175.20
539.43	56294.56
539.60	56500.53
539.77	56460.74
539.94	56757.99
540.11	56690.12
540.28	56596.49
540.44	56811.82
540.61	56851.61
540.78	56685.43
540.95	56589.47
541.12	56676.07
541.29	56664.37
541.46	56856.29
541.62	56891.40
541.79	56898.42
541.96	56577.77
542.13	56669.05
542.30	56875.02
542.47	57137.16
542.63	57008.43
542.80	57322.06
542.97	57251.84
543.14	57270.57
543.31	57162.90
543.48	57228.44
543.64	57710.59
543.81	57584.20
543.98	57640.37
544.15	57584.20
544.32	57546.75
544.48	57771.44
544.65	57609.95
544.82	57733.99
544.99	57558.45
545.16	57638.03
545.32	57668.46
545.49	57872.09
545.66	57879.11
545.83	57689.52
546.00	58003.16
546.16	58047.63
546.33	57694.21
546.50	57511.64
546.67	57935.28
546.83	57563.14
547.00	57991.45
547.17	57951.66
547.34	58171.67
547.50	58314.45
547.67	58410.41
547.84	58181.04
548.00	58113.16
548.17	58497.01
548.34	58134.23
548.51	58511.05
548.67	58457.22
548.84	58487.65
549.01	58286.36
549.18	58314.45
549.34	58513.39
549.51	58534.46
549.68	58581.27
549.84	58646.80
550.01	58651.48
550.18	58417.43
550.34	58667.87
550.51	58855.11
550.68	58604.67
550.84	58684.25
551.01	58899.58
551.18	58782.55
551.34	58724.04
551.51	58836.39
551.68	58815.32
551.84	58864.47
552.01	58789.58
552.18	58892.56
552.34	58885.54
552.51	58752.13
552.68	58756.81
552.84	59098.53
553.01	59159.38
553.18	59229.60
553.34	59138.32
553.51	59032.99
553.67	59091.51
553.84	59201.51
554.01	59161.72
554.17	59271.73
554.34	59414.50
554.51	59330.24
554.67	59243.64
554.84	59100.87
555.00	59126.61
555.17	59393.43
555.33	59281.09
555.50	59016.61
555.67	59241.30
555.83	59285.77
556.00	59260.02
556.16	59597.06
556.33	59625.15
556.50	59372.37
556.66	59578.34
556.83	59351.30
556.99	59590.04
557.16	59814.73
557.32	59583.02
557.49	59767.92
557.65	59573.66
557.82	59632.17
557.98	59625.15
558.15	59613.44
558.32	59657.91
558.48	59561.95
558.65	59702.38
558.81	59683.66
558.98	59920.05
559.14	59721.11
559.31	59936.44
559.47	59800.69
559.64	59777.28
559.80	59826.43
559.97	60062.83
560.13	60030.06
560.30	60207.94
560.46	60027.72
560.63	59835.80
560.79	60032.40
560.96	60196.24
561.12	60214.96
561.29	60025.38
561.45	59966.87
561.61	60116.66
561.78	60142.41
561.94	60018.36
562.11	60097.94
562.27	60023.04
562.44	60245.39
562.60	60200.92
562.77	60158.79
562.93	59805.37
563.10	60097.94
563.26	60156.45
563.42	60282.84
563.59	60250.07
563.75	60221.98
563.92	60205.60
564.08	60130.70
564.24	60310.92
564.41	60399.86
564.57	60245.39
564.74	60563.70
564.90	60296.88
565.07	60425.61
565.23	60212.62
565.39	60509.87
565.56	60465.40
565.72	60374.12
565.88	60182.19
566.05	60392.84
566.21	60439.65
566.38	60266.45
566.54	60439.65
566.70	60690.09
566.87	60530.93
567.03	60416.25
567.19	60603.49
567.36	60446.68
567.52	60308.58
567.68	60816.48
567.85	60657.32
568.01	60669.03
568.17	60376.46
568.34	60406.89
568.50	60622.22
568.66	60481.78
568.83	60591.79
568.99	60542.64
569.15	60736.90
569.32	60685.41
569.48	60673.71
569.64	60626.90
569.81	60734.56
569.97	60580.09
570.13	60629.24
570.30	60526.25
570.46	60685.41
570.62	60764.99
570.78	60732.22
570.95	60762.65
571.11	60842.23
571.27	60697.11
571.43	60931.17
571.60	60732.22
571.76	60858.61
571.92	60926.49
572.09	60711.16
572.25	60968.61
572.41	60734.56
572.57	60802.44
572.74	60856.27
572.90	60767.33
573.06	60692.43
573.22	60711.16
573.38	60872.65
573.55	60788.39
573.71	61003.72
573.87	61020.11
574.03	60713.50
574.20	60910.10
574.36	60818.82
574.52	60926.49
574.68	60853.93
574.84	61153.52
575.01	60809.46
575.17	60748.60
575.33	60788.39
575.49	60905.42
575.65	60982.66
575.82	61102.03
575.98	60926.49
576.14	61066.92
576.30	61013.08
576.46	60999.04
576.62	60926.49
576.79	60954.57
576.95	60788.39
577.11	61193.31
577.27	61017.77
577.43	60987.34
577.59	60935.85
577.75	60858.61
577.92	60893.72
578.08	60961.59
578.24	60975.64
578.40	61148.84
578.56	61207.35
578.72	60961.59
578.88	61017.77
579.04	61127.77
579.21	61087.98
579.37	61116.07
579.53	61415.66
579.69	60720.52
579.85	61137.13
580.01	61249.48
580.17	60849.25
580.33	61024.79
580.49	61345.44
580.65	61066.92
580.82	61102.03
580.98	60961.59
581.14	61144.16
581.30	61120.75
581.46	61085.64
581.62	61027.13
581.78	60931.17
581.94	61015.43
582.10	61024.79
582.26	61181.60
582.42	61195.65
582.58	60963.93
582.74	61127.77
582.90	61078.62
583.06	61172.24
583.22	61003.72
583.38	61223.73
583.54	61057.56
583.70	61158.20
583.86	61368.85
584.02	60992.02
584.18	61045.85
584.34	61111.39
584.50	60884.36
584.66	61006.06
584.82	60889.04
584.98	61464.81
585.14	61139.47
585.30	60954.57
585.46	61165.22
585.62	61345.44
585.78	61448.42
585.94	61139.47
586.10	61132.45
586.26	61439.06
586.42	61291.61
586.58	61219.05
586.74	61205.01
586.90	61329.06
587.06	60919.46
587.22	61249.48
587.38	61303.31
587.54	61389.91
587.70	61535.02
587.86	61202.67
588.02	61235.44
588.18	61396.93
588.34	61207.35
588.49	61137.13
