SpectraSuite Data File
++++++++++++++++++++++++++++++++++++
Date: Fri Oct 25 10:47:21 EDT 2013
User: price-jones
Dark Spectrum Present: No
Reference Spectrum Present: No
Number of Sampled Component Spectra: 1
Spectrometers: USB2+H05261
Integration Time (usec): 100000 (USB2+H05261)
Spectra Averaged: 1 (USB2+H05261)
Boxcar Smoothing: 0 (USB2+H05261)
Correct for Electrical Dark: No (USB2+H05261)
Strobe/Lamp Enabled: No (USB2+H05261)
Correct for Detector Non-linearity: No (USB2+H05261)
Correct for Stray Light: No (USB2+H05261)
Number of Pixels in Processed Spectrum: 2048
>>>>>Begin Processed Spectral Data<<<<<
365.73	152.13
365.92	152.13
366.12	152.13
366.32	105.32
366.52	65.54
366.72	105.32
366.91	16.38
367.11	102.98
367.31	51.49
367.51	58.51
367.70	63.19
367.90	44.47
368.10	9.36
368.30	79.58
368.49	0.00
368.69	81.92
368.89	42.13
369.09	81.92
369.28	117.03
369.48	126.39
369.68	112.35
369.87	65.54
370.07	46.81
370.27	161.50
370.47	166.18
370.66	386.19
370.86	402.57
371.06	475.13
371.25	430.66
371.45	477.47
371.65	512.58
371.84	409.59
372.04	454.06
372.24	514.92
372.44	458.74
372.63	489.17
372.83	465.77
373.03	493.85
373.22	510.24
373.42	514.92
373.62	519.60
373.81	498.53
374.01	603.86
374.21	566.41
374.40	496.19
374.60	650.67
374.79	559.39
374.99	559.39
375.19	662.37
375.38	608.54
375.58	538.32
375.78	557.05
375.97	578.11
376.17	641.31
376.37	571.09
376.56	603.86
376.76	608.54
376.95	678.76
377.15	587.47
377.35	573.43
377.54	587.47
377.74	610.88
377.93	608.54
378.13	566.41
378.33	620.24
378.52	631.94
378.72	634.29
378.91	653.01
379.11	662.37
379.31	613.22
379.50	526.62
379.70	592.16
379.89	664.71
380.09	634.29
380.28	648.33
380.48	664.71
380.68	620.24
380.87	664.71
381.07	657.69
381.26	777.06
381.46	662.37
381.65	704.50
381.85	582.79
382.04	575.77
382.24	685.78
382.43	631.94
382.63	671.73
382.83	802.80
383.02	739.61
383.22	667.05
383.41	692.80
383.61	748.97
383.80	716.20
384.00	676.41
384.19	697.48
384.39	770.04
384.58	781.74
384.78	760.67
384.97	744.29
385.17	741.95
385.36	674.07
385.56	727.91
385.75	704.50
385.95	777.06
386.14	861.32
386.34	730.25
386.53	739.61
386.72	821.53
386.92	784.08
387.11	856.64
387.31	830.89
387.50	779.40
387.70	793.44
387.89	901.11
388.09	919.83
388.28	849.61
388.48	835.57
388.67	905.79
388.86	858.98
389.06	894.08
389.25	884.72
389.45	880.04
389.64	875.36
389.84	971.32
390.03	915.15
390.22	912.81
390.42	929.19
390.61	966.64
390.81	961.96
391.00	976.00
391.19	961.96
391.39	940.90
391.58	887.06
391.78	976.00
391.97	940.90
392.16	938.55
392.36	1004.09
392.55	1025.15
392.75	1008.77
392.94	947.92
393.13	978.34
393.33	1006.43
393.52	933.87
393.71	1114.10
393.91	999.41
394.10	1020.47
394.29	1041.54
394.49	1053.24
394.68	1118.78
394.88	1074.31
395.07	1163.25
395.26	1219.42
395.46	1135.16
395.65	1135.16
395.84	1144.52
396.04	1165.59
396.23	1151.54
396.42	1160.91
396.62	1165.59
396.81	1135.16
397.00	1128.14
397.19	1130.48
397.39	1259.21
397.58	1287.29
397.77	1249.85
397.97	1252.19
398.16	1090.69
398.35	1369.21
398.55	1324.74
398.74	1324.74
398.93	1296.66
399.12	1322.40
399.32	1362.19
399.51	1432.41
399.70	1399.64
399.90	1465.18
400.09	1416.02
400.28	1380.92
400.47	1287.29
400.67	1441.77
400.86	1455.81
401.05	1430.07
401.24	1310.70
401.44	1437.09
401.63	1521.35
401.82	1423.05
402.01	1455.81
402.21	1528.37
402.40	1598.59
402.59	1453.47
402.78	1483.90
402.97	1593.90
403.17	1614.97
403.36	1633.69
403.55	1591.56
403.74	1699.23
403.93	1680.50
404.13	1605.61
404.32	1659.44
404.51	1633.69
404.70	1701.57
404.89	1727.32
405.09	1682.85
405.28	1650.08
405.47	1614.97
405.66	1839.66
405.85	1741.36
406.05	1739.02
406.24	1785.83
406.43	1788.17
406.62	1867.75
406.81	1919.24
407.00	1792.85
407.20	1834.98
407.39	1832.64
407.58	2001.16
407.77	1846.68
407.96	1853.70
408.15	1996.48
408.34	2045.63
408.54	2054.99
408.73	2005.84
408.92	2054.99
409.11	1989.46
409.30	2003.50
409.49	2045.63
409.68	2015.20
409.87	2139.25
410.07	2085.42
410.26	2083.08
410.45	2139.25
410.64	2064.35
410.83	2139.25
411.02	2200.10
411.21	2150.95
411.40	2204.78
411.59	2413.09
411.78	2284.36
411.98	2305.43
412.17	2298.41
412.36	2345.22
412.55	2473.95
412.74	2408.41
412.93	2541.82
413.12	2291.38
413.31	2532.46
413.50	2469.27
413.69	2527.78
413.88	2621.40
414.07	2537.14
414.26	2551.18
414.45	2616.72
414.64	2647.15
414.83	2621.40
415.02	2750.13
415.22	2679.91
415.41	2883.54
415.60	2738.43
415.79	2764.17
415.98	2820.35
416.17	2806.30
416.36	2899.92
416.55	2951.42
416.74	2895.24
416.93	2825.03
417.12	3023.97
417.31	2930.35
417.50	2904.60
417.69	3038.02
417.88	3038.02
418.07	3150.36
418.26	3091.85
418.45	3070.78
418.64	3155.04
418.83	3115.25
419.02	3129.30
419.21	3131.64
419.39	3302.50
419.58	3262.71
419.77	3183.13
419.96	3365.69
420.15	3311.86
420.34	3337.60
420.53	3386.76
420.72	3382.07
420.91	3466.33
421.10	3375.05
421.29	3485.06
421.48	3325.90
421.67	3389.10
421.86	3449.95
422.05	3398.46
422.24	3410.16
422.43	3445.27
422.61	3557.61
422.80	3520.17
422.99	3487.40
423.18	3527.19
423.37	3574.00
423.56	3499.10
423.75	3550.59
423.94	3492.08
424.13	3206.53
424.32	3344.63
424.50	3454.63
424.69	3559.95
424.88	3695.71
425.07	3466.33
425.26	3424.20
425.45	3618.47
425.64	3517.83
425.83	3506.12
426.01	3744.86
426.20	3679.32
426.39	3702.73
426.58	3548.25
426.77	3578.68
426.96	3527.19
427.15	3524.85
427.33	3611.45
427.52	3585.70
427.71	3744.86
427.90	3669.96
428.09	3758.90
428.28	3693.37
428.46	3962.53
428.65	3700.39
428.84	3939.12
429.03	3899.33
429.22	3609.11
429.40	3889.97
429.59	3892.31
429.78	3681.66
429.97	3681.66
430.16	3655.92
430.34	3812.73
430.53	3808.05
430.72	3927.42
430.91	3976.57
431.10	3995.29
431.28	4163.81
431.47	4159.13
431.66	4187.22
431.85	4077.21
432.03	4124.02
432.22	4243.39
432.41	4098.28
432.60	4077.21
432.79	4337.01
432.97	4269.14
433.16	4198.92
433.35	4149.77
433.54	4168.49
433.72	4315.95
433.91	4273.82
434.10	4194.24
434.28	4259.78
434.47	4360.42
434.66	4545.32
434.85	4430.63
435.03	4482.13
435.22	4442.34
435.41	4606.17
435.59	4631.92
435.78	4667.03
435.97	4615.54
436.16	4608.51
436.34	4503.19
436.53	4592.13
436.72	4690.43
436.90	4512.55
437.09	4674.05
437.28	4519.57
437.46	4702.14
437.65	4631.92
437.84	4746.61
438.02	4795.76
438.21	4718.52
438.40	4580.43
438.58	4746.61
438.77	4917.47
438.96	4922.15
439.14	4978.32
439.33	5156.20
439.52	5001.72
439.70	5095.35
439.89	5160.88
440.08	5270.89
440.26	5144.50
440.45	5132.79
440.63	5123.43
440.82	5362.17
441.01	5329.40
441.19	5322.38
441.38	5441.75
441.57	5476.85
441.75	5479.19
441.94	5638.35
442.12	5540.05
442.31	5722.61
442.50	5579.84
442.68	5586.86
442.87	5638.35
443.05	5860.70
443.24	5905.17
443.43	5856.02
443.61	5823.25
443.80	6090.07
443.98	5731.97
444.17	5675.80
444.35	5982.41
444.54	5947.30
444.73	5935.60
444.91	5832.62
445.10	5774.10
445.28	5764.74
445.47	5757.72
445.65	5916.87
445.84	5909.85
446.02	5912.19
446.21	5942.62
446.39	5984.75
446.58	6069.01
446.77	6155.61
446.95	5888.79
447.14	5858.36
447.32	5884.11
447.51	5991.77
447.69	5944.96
447.88	6052.63
448.06	6125.18
448.25	5963.68
448.43	6113.48
448.62	6061.99
448.80	6043.26
448.99	6085.39
449.17	6099.44
449.36	6246.89
449.54	6370.94
449.73	6305.40
449.91	6417.75
450.10	6193.06
450.28	6399.02
450.46	6443.49
450.65	6438.81
450.83	6228.17
451.02	6399.02
451.20	6602.65
451.39	6504.35
451.57	6572.22
451.76	6354.55
451.94	6417.75
452.13	6279.66
452.31	6314.77
452.49	6303.06
452.68	6445.84
452.86	6487.96
453.05	6553.50
453.23	6649.46
453.42	6551.16
453.60	6616.69
453.78	6602.65
453.97	6679.89
454.15	6441.15
454.34	6621.38
454.52	6682.23
454.70	6757.13
454.89	6916.28
455.07	6731.38
455.26	6960.75
455.44	6869.47
455.62	6871.81
455.81	6995.86
455.99	7143.32
456.17	7019.27
456.36	6972.46
456.54	7133.95
456.73	7272.04
456.91	7171.40
457.09	7346.94
457.28	7459.29
457.46	7218.21
457.64	7288.43
457.83	7321.20
458.01	7372.69
458.19	7452.27
458.38	7213.53
458.56	7391.41
458.74	7494.40
458.93	7485.03
459.11	7524.82
459.29	7375.03
459.48	7419.50
459.66	7536.52
459.84	7595.04
460.03	7698.02
460.21	7707.38
460.39	7623.12
460.57	7499.08
460.76	7747.17
460.94	7840.79
461.12	7761.22
461.31	7801.01
461.49	7831.43
461.67	7644.19
461.85	8035.06
462.04	7859.52
462.22	8294.86
462.40	8077.19
462.59	8102.93
462.77	8009.31
462.95	8114.64
463.13	8088.89
463.32	8294.86
463.50	8152.09
463.68	7981.23
463.86	7999.95
464.05	7854.84
464.23	8028.04
464.41	8135.70
464.59	8229.32
464.78	8219.96
464.96	8037.40
465.14	8131.02
465.32	8388.48
465.50	8278.47
465.69	8484.44
465.87	8388.48
466.05	8329.97
466.23	8332.31
466.41	8411.89
466.60	8482.10
466.78	8519.55
466.96	8294.86
467.14	8351.03
467.32	8676.37
467.51	8554.66
467.69	8411.89
467.87	8498.49
468.05	8896.38
468.23	8554.66
468.41	8514.87
468.60	8713.81
468.78	8585.08
468.96	8585.08
469.14	8798.07
469.32	8856.59
469.50	8587.43
469.69	9076.60
469.87	9167.88
470.05	9050.85
470.23	8826.16
470.41	9039.15
470.59	9186.60
470.77	8786.37
470.95	8910.42
471.14	9331.72
471.32	9027.45
471.50	9664.07
471.68	9296.61
471.86	9376.19
472.04	9327.03
472.22	9668.75
472.40	9430.02
472.58	9380.87
472.77	9540.02
472.95	9652.37
473.13	9895.78
473.31	9418.32
473.49	9500.23
473.67	9434.70
473.85	9727.27
474.03	10071.33
474.21	9891.10
474.39	10108.77
474.57	10005.79
474.75	10136.86
474.93	10223.46
475.12	10146.22
475.30	10450.49
475.48	10420.06
475.66	10284.31
475.84	10310.06
476.02	10534.75
476.20	10267.93
476.38	10569.86
476.56	10768.80
476.74	10719.65
476.92	10782.85
477.10	10902.22
477.28	11005.20
477.46	10843.70
477.64	10995.84
477.82	11049.67
478.00	11578.63
478.18	11459.26
478.36	11482.67
478.54	11578.63
478.72	11445.22
478.90	11714.38
479.08	11817.36
479.26	11932.05
479.44	11838.43
479.62	11999.93
479.80	12290.15
479.98	12248.02
480.16	12421.22
480.34	12273.77
480.52	12526.55
480.70	12503.14
480.88	12484.42
481.06	12730.17
481.24	12779.32
481.41	13158.49
481.59	13060.19
481.77	12992.31
481.95	13125.72
482.13	13359.78
482.31	13453.40
482.49	13441.70
482.67	13640.64
482.85	13706.18
483.03	13928.53
483.21	14185.99
483.39	14038.53
483.57	14092.37
483.74	14085.34
483.92	14293.65
484.10	13961.30
484.28	14581.54
484.46	14689.20
484.64	14869.42
484.82	14808.57
485.00	14846.02
485.18	15241.57
485.35	14995.81
485.53	14876.44
485.71	15108.16
485.89	15356.25
486.07	15365.62
486.25	15431.15
486.43	15723.72
486.61	15721.38
486.78	15871.17
486.96	16056.08
487.14	16369.71
487.32	16301.83
487.50	16486.73
487.68	16936.12
487.85	16922.07
488.03	17095.27
488.21	17067.19
488.39	17046.12
488.57	17036.76
488.75	17549.34
488.92	17486.14
489.10	17961.27
489.28	17839.56
489.46	17862.97
489.64	17942.55
489.81	18534.70
489.99	18663.43
490.17	18560.45
490.35	18743.01
490.53	18668.11
490.70	18595.56
490.88	19023.87
491.06	19215.80
491.24	19264.95
491.41	18981.74
491.59	19157.28
491.77	19250.91
491.95	19358.57
492.13	19704.97
492.30	20159.03
492.48	19978.81
492.66	20051.37
492.84	20175.42
493.01	20437.56
493.19	20201.16
493.37	20505.43
493.54	20521.82
493.72	20482.03
493.90	20922.05
494.08	20959.50
494.25	21453.35
494.43	21057.80
494.61	21703.79
494.79	21282.49
494.96	21652.30
495.14	21205.25
495.32	21984.65
495.49	22118.06
495.67	21823.16
495.85	22003.38
496.02	22307.65
496.20	22892.78
496.38	22775.75
496.55	22862.35
496.73	22902.14
496.91	23016.83
497.09	23166.62
497.26	23084.70
497.44	22988.74
497.62	23164.28
497.79	23608.98
497.97	23264.92
498.14	23868.78
498.32	23648.77
498.50	23552.81
498.67	23988.15
498.85	23992.83
499.03	24297.10
499.20	23693.24
499.38	24240.93
499.56	24430.51
499.73	24671.59
499.91	24437.53
500.08	24903.30
500.26	24397.74
500.44	24971.18
500.61	25020.33
500.79	24844.79
500.97	25003.94
501.14	25352.68
501.32	25638.23
501.49	25240.34
501.67	25420.56
501.84	25378.43
502.02	25465.03
502.20	25968.24
502.37	25844.20
502.55	25872.28
502.72	26199.96
502.90	25977.61
503.07	26012.71
503.25	26115.70
503.43	26022.08
503.60	26478.48
503.78	26579.12
503.95	26412.95
504.13	26560.40
504.30	26806.16
504.48	26490.18
504.65	27030.85
504.83	27028.51
505.01	27000.42
505.18	26904.46
505.36	27400.65
505.53	27194.68
505.71	27330.44
505.88	28063.02
506.06	27473.21
506.23	27321.07
506.41	27669.81
506.58	27693.22
506.76	27859.40
506.93	28154.30
507.11	27999.83
507.28	27931.95
507.46	28093.45
507.63	28435.17
507.81	28374.31
507.98	28404.74
508.16	28423.47
508.33	28573.26
508.50	28797.95
508.68	28463.25
508.85	28861.15
509.03	28697.31
509.20	29020.30
509.38	29240.31
509.55	29502.45
509.73	29116.26
509.90	29479.05
510.08	29390.11
510.25	29511.81
510.42	29331.59
510.60	29387.77
510.77	29724.80
510.95	30059.50
511.12	29666.29
511.30	29912.05
511.47	30354.41
511.64	30375.47
511.82	30459.73
511.99	30136.74
512.17	30373.13
512.34	30092.27
512.51	30717.19
512.69	30665.70
512.86	30820.17
513.04	30574.42
513.21	30742.94
513.38	30703.15
513.56	30426.96
513.73	30773.36
513.90	31178.28
514.08	30904.43
514.25	31133.81
514.43	31087.00
514.60	31218.07
514.77	31140.83
514.95	31545.74
515.12	31466.16
515.29	31468.50
515.47	31477.86
515.64	31892.14
515.81	31955.33
515.99	32215.13
516.16	31658.09
516.33	31634.68
516.51	32275.99
516.68	31681.49
516.85	31756.39
517.03	32034.91
517.20	31903.84
517.37	31971.72
517.54	32577.92
517.72	32685.58
517.89	32231.52
518.06	32486.64
518.24	31981.08
518.41	32327.48
518.58	32636.43
518.75	32311.10
518.93	33017.94
519.10	33034.32
519.27	33310.50
519.45	33074.11
519.62	33247.31
519.79	33462.64
519.96	33172.41
520.14	33553.92
520.31	33003.89
520.48	33897.98
520.65	33411.15
520.83	33942.45
521.00	33731.80
521.17	33933.09
521.34	33710.74
521.52	33825.42
521.69	34141.39
521.86	34487.79
522.03	34155.44
522.20	34288.85
522.38	34316.93
522.55	34319.28
522.72	34316.93
522.89	34171.82
523.07	34347.36
523.24	34440.98
523.41	34663.33
523.58	34375.45
523.75	34913.77
523.92	35243.79
524.10	35002.71
524.27	35194.64
524.44	35159.53
524.61	35391.24
524.78	35173.57
524.96	35264.85
525.13	35283.58
525.30	35688.49
525.47	35849.99
525.64	35477.84
525.81	35641.68
525.98	35723.60
526.16	35353.79
526.33	35541.03
526.50	35744.66
526.67	35461.46
526.84	35714.23
527.01	35768.07
527.18	35849.99
527.36	35948.29
527.53	35959.99
527.70	36437.46
527.87	36624.70
528.04	36121.49
528.21	36290.01
528.38	36121.49
528.55	36648.11
528.72	36437.46
528.89	36575.55
529.07	36549.81
529.24	36755.77
529.41	36907.91
529.58	36903.23
529.75	36517.04
529.92	37151.32
530.09	37085.79
530.26	36650.45
530.43	37514.11
530.60	36549.81
530.77	36737.05
530.94	37457.93
531.11	37097.49
531.28	37277.71
531.46	37675.60
531.63	37223.88
531.80	37441.55
531.97	37390.06
532.14	37584.32
532.31	37338.57
532.48	37495.38
532.65	37818.38
532.82	37415.80
532.99	37741.14
533.16	37397.08
533.33	37612.41
533.50	38043.07
533.67	38389.47
533.84	37949.45
534.01	37727.10
534.18	38323.93
534.35	38515.86
534.52	38103.92
534.69	38286.48
534.86	38705.44
535.03	38452.66
535.20	38270.10
535.37	38721.82
535.54	38880.98
535.71	38340.32
535.88	38766.29
536.05	38508.83
536.22	38679.69
536.38	39026.09
536.55	38990.98
536.72	38483.09
536.89	38485.43
537.06	38548.62
537.23	39168.87
537.40	39112.69
537.57	39143.12
537.74	38794.38
537.91	39335.04
538.08	39351.43
538.25	38726.50
538.42	39374.83
538.59	39473.13
538.75	39255.46
538.92	39316.32
539.09	39585.48
539.26	39171.21
539.43	39545.69
539.60	39241.42
539.77	39433.35
539.94	39393.56
540.11	39283.55
540.28	39288.23
540.44	39543.35
540.61	39756.34
540.78	39859.32
540.95	39807.83
541.12	39555.05
541.29	39962.31
541.46	39625.27
541.62	39882.73
541.79	39653.36
541.96	39763.36
542.13	40187.00
542.30	39974.01
542.47	40439.78
542.63	39791.45
542.80	40194.02
542.97	40807.24
543.14	40973.42
543.31	41013.21
543.48	40790.86
543.64	40818.94
543.81	41123.21
543.98	41247.26
544.15	40425.73
544.32	40985.12
544.48	40992.14
544.65	40577.87
544.82	40931.29
544.99	40512.33
545.16	40865.75
545.32	40809.58
545.49	41542.17
545.66	41441.53
545.83	41230.88
546.00	41303.43
546.16	41123.21
546.33	40837.67
546.50	40966.40
546.67	41411.10
546.83	40989.80
547.00	41172.36
547.17	41390.03
547.34	41067.04
547.50	41572.60
547.67	41780.90
547.84	41476.63
548.00	41715.37
548.17	41823.03
548.34	41769.20
548.51	42021.98
548.67	42263.05
548.84	42398.80
549.01	41670.90
549.18	42057.09
549.34	41757.50
549.51	42099.22
549.68	42218.58
549.84	42553.28
550.01	42389.44
550.18	41769.20
550.34	41963.46
550.51	42197.52
550.68	41914.31
550.84	41876.86
551.01	42171.77
551.18	42148.37
551.34	42529.87
551.51	42260.71
551.68	42174.11
551.84	42483.06
552.01	42649.24
552.18	42792.01
552.34	42199.86
552.51	42700.73
552.68	42206.88
552.84	42590.73
553.01	42597.75
553.18	42735.84
553.34	42939.47
553.51	42295.82
553.67	42553.28
553.84	42841.17
554.01	42850.53
554.17	43264.80
554.34	43281.19
554.51	42890.32
554.67	43171.18
554.84	43367.79
555.00	43058.84
555.17	42953.51
555.33	42986.28
555.50	42979.26
555.67	43248.42
555.83	43065.86
556.00	43065.86
556.16	43412.26
556.33	43339.70
556.50	43105.65
556.66	43332.68
556.83	43328.00
556.99	43407.58
557.16	43084.58
557.32	43945.90
557.49	43608.86
557.65	43445.02
557.82	43522.26
557.98	43250.76
558.15	44030.16
558.32	43627.59
558.48	43688.44
558.65	42916.06
558.81	43526.94
558.98	43473.11
559.14	43878.02
559.31	43309.27
559.47	43573.75
559.64	43690.78
559.80	43782.06
559.97	43845.26
560.13	43379.49
560.30	43445.02
560.46	43821.85
560.63	43966.96
560.79	44011.43
560.96	43768.02
561.12	43753.97
561.29	43725.89
561.45	43791.42
561.61	43639.29
561.78	43903.77
561.94	43559.71
562.11	43772.70
562.27	43901.43
562.44	43674.40
562.60	43875.68
562.77	43990.37
562.93	44184.63
563.10	44194.00
563.26	43768.02
563.42	44083.99
563.59	44376.56
563.75	44088.67
563.92	44318.04
564.08	44212.72
564.24	44147.18
564.41	44168.25
564.57	44048.88
564.74	44093.35
564.90	44673.81
565.07	44182.29
565.23	44034.84
565.39	43906.11
565.56	44631.68
565.72	44011.43
565.88	44399.96
566.05	43995.05
566.21	43672.06
566.38	44205.70
566.54	43793.76
566.70	44236.12
566.87	44566.14
567.03	44224.42
567.19	44495.92
567.36	44395.28
567.52	44552.10
567.68	44741.68
567.85	44102.71
568.01	44484.22
568.17	44086.33
568.34	44341.45
568.50	44098.03
568.66	44402.30
568.83	44493.58
568.99	44453.79
569.15	44203.36
569.32	44378.90
569.48	44416.35
569.64	44847.00
569.81	44849.35
569.97	44203.36
570.13	44156.55
570.30	44027.82
570.46	44236.12
570.62	44133.14
570.78	43995.05
570.95	43920.15
571.11	44538.05
571.27	44711.25
571.43	44474.86
571.60	44301.66
571.76	44531.03
571.92	44406.98
572.09	44685.51
572.25	44552.10
572.41	44280.60
572.57	44634.02
572.74	45099.78
572.90	44460.82
573.06	44619.97
573.22	44800.19
573.38	44435.07
573.55	44655.08
573.71	44989.78
573.87	44451.45
574.03	44507.63
574.20	44884.45
574.36	44884.45
574.52	44903.18
574.68	44954.67
574.84	44694.87
575.01	44507.63
575.17	44903.18
575.33	44397.62
575.49	44212.72
575.65	44980.42
575.82	45200.43
575.98	44467.84
576.14	44828.28
576.30	44851.69
576.46	44378.90
576.62	44371.88
576.79	44622.31
576.95	44451.45
577.11	44748.70
577.27	44619.97
577.43	44919.56
577.59	44622.31
577.75	44762.75
577.92	44655.08
578.08	44612.95
578.24	44643.38
578.40	44732.32
578.56	44535.71
578.72	44626.99
578.88	45371.28
579.04	44854.03
579.21	44779.13
579.37	44760.40
579.53	44451.45
579.69	44404.64
579.85	44598.91
580.01	44498.26
580.17	45057.65
580.33	45003.82
580.49	44715.93
580.65	44856.37
580.82	45401.71
580.98	44917.22
581.14	44257.19
581.30	45251.92
581.46	44734.66
581.62	45118.51
581.78	44968.71
581.94	45216.81
582.10	44720.62
582.26	44992.12
582.42	44767.43
582.58	44437.41
582.74	44816.58
582.90	44917.22
583.06	44870.41
583.22	44692.53
583.38	45146.59
583.54	44947.65
583.70	44938.29
583.86	44968.71
584.02	44231.44
584.18	45111.49
584.34	44697.21
584.50	44570.82
584.66	44987.44
584.82	44650.40
584.98	44811.90
585.14	44938.29
585.30	44526.35
585.46	44898.50
585.62	44701.89
585.78	45230.85
585.94	44538.05
586.10	45003.82
586.26	44774.45
586.42	44720.62
586.58	45083.40
586.74	45020.20
586.90	44816.58
587.06	44596.57
587.22	45158.30
587.38	44690.19
587.54	45067.02
587.70	45081.06
587.86	45076.38
588.02	44877.43
588.18	44971.05
588.34	44931.26
588.49	44816.58
588.65	44488.90
588.81	44893.82
588.97	44884.45
589.13	44409.32
589.29	45024.89
589.45	44650.40
589.61	44748.70
589.77	44952.33
589.93	45172.34
590.08	45457.88
590.24	45237.87
