SpectraSuite Data File
++++++++++++++++++++++++++++++++++++
Date: Fri Oct 25 11:25:22 EDT 2013
User: price-jones
Dark Spectrum Present: No
Reference Spectrum Present: No
Number of Sampled Component Spectra: 1
Spectrometers: USB2+H05261
Integration Time (usec): 100000 (USB2+H05261)
Spectra Averaged: 1 (USB2+H05261)
Boxcar Smoothing: 0 (USB2+H05261)
Correct for Electrical Dark: No (USB2+H05261)
Strobe/Lamp Enabled: No (USB2+H05261)
Correct for Detector Non-linearity: No (USB2+H05261)
Correct for Stray Light: No (USB2+H05261)
Number of Pixels in Processed Spectrum: 2048
>>>>>Begin Processed Spectral Data<<<<<
365.73	252.78
365.92	252.78
366.12	252.78
366.32	105.32
366.52	145.11
366.72	156.82
366.91	77.24
367.11	138.09
367.31	110.01
367.51	175.54
367.70	156.82
367.90	168.52
368.10	117.03
368.30	133.41
368.49	100.64
368.69	147.45
368.89	161.50
369.09	149.79
369.28	152.13
369.48	145.11
369.68	133.41
369.87	142.77
370.07	205.97
370.27	191.92
370.47	320.65
370.66	648.33
370.86	575.77
371.06	678.76
371.25	739.61
371.45	599.18
371.65	718.54
371.84	695.14
372.04	636.63
372.24	664.71
372.44	681.10
372.63	716.20
372.83	739.61
373.03	744.29
373.22	627.26
373.42	819.19
373.62	727.91
373.81	779.40
374.01	823.87
374.21	861.32
374.40	805.14
374.60	781.74
374.79	805.14
374.99	826.21
375.19	823.87
375.38	898.77
375.58	805.14
375.78	847.27
375.97	805.14
376.17	847.27
376.37	826.21
376.56	901.11
376.76	873.02
376.95	926.85
377.15	840.25
377.35	919.83
377.54	887.06
377.74	828.55
377.93	889.40
378.13	887.06
378.33	896.43
378.52	945.58
378.72	873.02
378.91	931.53
379.11	957.28
379.31	894.08
379.50	971.32
379.70	1015.79
379.89	1041.54
380.09	931.53
380.28	999.41
380.48	945.58
380.68	922.17
380.87	987.71
381.07	1048.56
381.26	1046.22
381.46	1046.22
381.65	990.05
381.85	1083.67
382.04	931.53
382.24	1064.94
382.43	1076.65
382.63	1001.75
382.83	1046.22
383.02	1076.65
383.22	1151.54
383.41	1102.39
383.61	1074.31
383.80	1121.12
384.00	1022.81
384.19	1043.88
384.39	1097.71
384.58	1114.10
384.78	1048.56
384.97	1184.31
385.17	1135.16
385.36	1172.61
385.56	1109.41
385.75	1177.29
385.95	1137.50
386.14	1146.86
386.34	1181.97
386.53	1210.06
386.72	1116.44
386.92	1238.14
387.11	1196.01
387.31	1299.00
387.50	1224.10
387.70	1249.85
387.89	1252.19
388.09	1348.15
388.28	1259.21
388.48	1301.34
388.67	1362.19
388.86	1324.74
389.06	1289.64
389.25	1345.81
389.45	1406.66
389.64	1338.79
389.84	1366.87
390.03	1434.75
390.22	1338.79
390.42	1331.76
390.61	1322.40
390.81	1371.55
391.00	1401.98
391.19	1434.75
391.39	1434.75
391.58	1401.98
391.78	1432.41
391.97	1474.54
392.16	1507.30
392.36	1511.99
392.55	1561.14
392.75	1460.49
392.94	1589.22
393.13	1514.33
393.33	1474.54
393.52	1486.24
393.71	1568.16
393.91	1593.90
394.10	1675.82
394.29	1593.90
394.49	1563.48
394.68	1577.52
394.88	1678.16
395.07	1687.53
395.26	1523.69
395.46	1626.67
395.65	1638.38
395.84	1748.38
396.04	1776.47
396.23	1755.40
396.42	1736.68
396.62	1762.42
396.81	1830.30
397.00	1706.25
397.19	1750.72
397.39	1732.00
397.58	1818.60
397.77	1734.34
397.97	1895.83
398.16	1872.43
398.35	1837.32
398.55	1851.36
398.74	1881.79
398.93	1930.94
399.12	1898.17
399.32	1877.11
399.51	1973.07
399.70	1956.69
399.90	1900.52
400.09	2059.67
400.28	2071.37
400.47	1982.43
400.67	2019.88
400.86	1949.67
401.05	2003.50
401.24	2134.57
401.44	2057.33
401.63	2132.23
401.82	2132.23
402.01	2139.25
402.21	2122.87
402.40	2246.91
402.59	2141.59
402.78	2193.08
402.97	2197.76
403.17	2216.49
403.36	2218.83
403.55	2225.85
403.74	2359.26
403.93	2270.32
404.13	2363.94
404.32	2340.54
404.51	2422.45
404.70	2401.39
404.89	2370.96
405.09	2401.39
405.28	2368.62
405.47	2366.28
405.66	2532.46
405.85	2588.63
406.05	2551.18
406.24	2469.27
406.43	2413.09
406.62	2595.65
406.81	2588.63
407.00	2640.12
407.20	2520.76
407.39	2546.50
407.58	2792.26
407.77	2768.85
407.96	2745.45
408.15	2731.41
408.34	2759.49
408.54	2818.00
408.73	2736.09
408.92	2773.53
409.11	2848.43
409.30	2808.64
409.49	2939.71
409.68	2920.99
409.87	2951.42
410.07	2909.29
410.26	2878.86
410.45	2991.20
410.64	3005.25
410.83	3115.25
411.02	3038.02
411.21	3115.25
411.40	3117.59
411.59	3176.11
411.78	3290.79
411.98	3206.53
412.17	3185.47
412.36	3229.94
412.55	3321.22
412.74	3353.99
412.93	3323.56
413.12	3325.90
413.31	3583.36
413.50	3478.04
413.69	3552.93
413.88	3541.23
414.07	3508.46
414.26	3707.41
414.45	3571.66
414.64	3648.90
414.83	3644.21
415.02	3740.18
415.22	3770.60
415.41	3667.62
415.60	3873.59
415.79	3981.25
415.98	3904.01
416.17	3871.25
416.36	3840.82
416.55	4004.66
416.74	3852.52
416.93	4023.38
417.12	4114.66
417.31	4095.94
417.50	4138.07
417.69	4058.49
417.88	4187.22
418.07	4273.82
418.26	4273.82
418.45	4257.43
418.64	4440.00
418.83	4315.95
419.02	4322.97
419.21	4566.39
419.39	4416.59
419.58	4287.86
419.77	4315.95
419.96	4491.49
420.15	4559.36
420.34	4456.38
420.53	4580.43
420.72	4571.07
420.91	4610.86
421.10	4711.50
421.29	4732.56
421.48	4762.99
421.67	4641.28
421.86	4697.46
422.05	4629.58
422.24	4608.51
422.43	4777.03
422.61	4826.18
422.80	4983.00
422.99	4807.46
423.18	5006.41
423.37	5034.49
423.56	5008.75
423.75	4884.70
423.94	4755.97
424.13	4603.83
424.32	4667.03
424.50	5029.81
424.69	4959.60
424.88	4994.70
425.07	4795.76
425.26	4767.67
425.45	4908.10
425.64	4966.62
425.83	5018.11
426.01	5001.72
426.20	5001.72
426.39	4964.28
426.58	4964.28
426.77	5123.43
426.96	4912.78
427.15	5036.83
427.33	5064.92
427.52	5277.91
427.71	5193.65
427.90	5083.64
428.09	5338.76
428.28	5322.38
428.46	5334.08
428.65	5195.99
428.84	5261.52
429.03	5490.90
429.22	5488.56
429.40	5390.25
429.59	5481.53
429.78	5259.18
429.97	5238.12
430.16	5366.85
430.34	5511.96
430.53	5572.82
430.72	5612.60
430.91	5582.18
431.10	5526.00
431.28	5502.60
431.47	5722.61
431.66	5675.80
431.85	5682.82
432.03	5743.67
432.22	5940.28
432.41	5795.17
432.60	5729.63
432.79	5694.52
432.97	5921.56
433.16	5966.03
433.35	5928.58
433.54	6010.50
433.72	6083.05
433.91	5841.98
434.10	6043.26
434.28	6010.50
434.47	6085.39
434.66	6263.27
434.85	6286.68
435.03	6333.49
435.22	6258.59
435.41	6377.96
435.59	6314.77
435.78	6298.38
435.97	6352.21
436.16	6401.37
436.34	6291.36
436.53	6382.64
436.72	6494.99
436.90	6511.37
437.09	6539.46
437.28	6427.11
437.46	6553.50
437.65	6609.67
437.84	6705.63
438.02	6516.05
438.21	6906.92
438.40	6441.15
438.58	6876.49
438.77	7026.29
438.96	6832.02
439.14	7091.82
439.33	6984.16
439.52	7087.14
439.70	7098.84
439.89	7243.96
440.08	7426.52
440.26	7300.13
440.45	7131.61
440.63	7363.33
440.82	7468.65
441.01	7454.61
441.19	7534.18
441.38	7700.36
441.57	7712.07
441.75	7803.35
441.94	7920.37
442.12	7798.66
442.31	7985.91
442.50	8042.08
442.68	7878.24
442.87	8058.46
443.05	8013.99
443.24	8217.62
443.43	8084.21
443.61	8224.64
443.80	8409.54
443.98	7854.84
444.17	7707.38
444.35	8154.43
444.54	8304.22
444.73	8432.95
444.91	8222.30
445.10	8299.54
445.28	8226.98
445.47	8234.00
445.65	8168.47
445.84	8322.94
446.02	8388.48
446.21	8346.35
446.39	8332.31
446.58	8491.46
446.77	8470.40
446.95	8212.94
447.14	8381.46
447.32	8585.08
447.51	8599.13
447.69	8449.33
447.88	8603.81
448.06	8276.13
448.25	8287.84
448.43	8454.02
448.62	8514.87
448.80	8435.29
448.99	8608.49
449.17	8578.06
449.36	8608.49
449.54	8802.75
449.73	8849.57
449.91	8875.31
450.10	8777.01
450.28	9025.11
450.46	8741.90
450.65	8957.23
450.83	8954.89
451.02	9081.28
451.20	9107.02
451.39	8982.98
451.57	9013.40
451.76	8966.59
451.94	9041.49
452.13	9238.09
452.31	9298.95
452.49	9224.05
452.68	9142.13
452.86	9144.47
453.05	9268.52
453.23	9364.48
453.42	9380.87
453.60	9249.80
453.78	9628.96
453.97	9387.89
454.15	9380.87
454.34	9221.71
454.52	9329.38
454.70	9579.81
454.89	9591.52
455.07	9542.36
455.26	9673.43
455.44	9724.93
455.62	9682.80
455.81	9736.63
455.99	9853.66
456.17	9935.57
456.36	9870.04
456.54	10244.52
456.73	10204.74
456.91	10265.59
457.09	10422.41
457.28	10455.17
457.46	10200.05
457.64	10347.51
457.83	10401.34
458.01	10155.58
458.19	10548.79
458.38	10452.83
458.56	10574.54
458.74	10429.43
458.93	10525.39
459.11	10576.88
459.29	10754.76
459.48	10775.83
459.66	10829.66
459.84	10822.64
460.03	10806.25
460.21	10855.40
460.39	10876.47
460.57	10759.44
460.76	10846.04
460.94	11014.56
461.12	11171.38
461.31	10824.98
461.49	11171.38
461.67	11110.52
461.85	11449.90
462.04	11157.33
462.22	11915.67
462.40	11536.50
462.59	11265.00
462.77	11265.00
462.95	11367.98
463.13	11501.39
463.32	11599.70
463.50	11379.68
463.68	11730.76
463.86	11810.34
464.05	11517.78
464.23	11620.76
464.41	11756.51
464.59	11492.03
464.78	11925.03
464.96	11782.26
465.14	11740.13
465.32	12028.01
465.50	12013.97
465.69	12217.60
465.87	11836.09
466.05	12119.29
466.23	12086.53
466.41	12203.55
466.60	12248.02
466.78	11922.69
466.96	12058.44
467.14	12042.06
467.32	12187.17
467.51	12477.40
467.69	12072.48
467.87	12306.54
468.05	12414.20
468.23	12362.71
468.41	12334.62
468.60	12311.22
468.78	12652.94
468.96	12589.74
469.14	12706.77
469.32	12884.65
469.50	12549.95
469.69	12875.29
469.87	12786.35
470.05	13069.55
470.23	13202.96
470.41	13069.55
470.59	13085.94
470.77	13121.04
470.95	12957.21
471.14	13362.12
471.32	12987.63
471.50	13408.93
471.68	13401.91
471.86	13584.47
472.04	13373.82
472.22	14019.81
472.40	13432.33
472.58	13640.64
472.77	13802.14
472.95	14171.94
473.13	14300.67
473.31	13963.64
473.49	13975.34
473.67	14071.30
473.85	14157.90
474.03	14672.82
474.21	14487.92
474.39	14389.61
474.57	14576.86
474.75	14897.51
474.93	14803.89
475.12	14728.99
475.30	14789.85
475.48	14733.67
475.66	14843.68
475.84	15126.88
476.02	15384.34
476.20	15360.94
476.38	15594.99
476.56	15730.74
476.74	15751.81
476.92	15662.86
477.10	15880.53
477.28	15866.49
477.46	15936.71
477.64	16030.33
477.82	16287.79
478.00	16561.63
478.18	16634.19
478.36	16533.54
478.54	17006.33
478.72	17053.14
478.90	17205.28
479.08	17444.01
479.26	17708.49
479.44	17516.57
479.62	17893.40
479.80	17745.94
479.98	18099.36
480.16	18630.66
480.34	17827.86
480.52	18534.70
480.70	18483.21
480.88	18143.83
481.06	18892.80
481.24	18710.24
481.41	18771.10
481.59	19428.79
481.77	19367.93
481.95	19314.10
482.13	19583.26
482.31	19477.94
482.49	20245.63
482.67	19969.45
482.85	20088.82
483.03	20411.81
483.21	20821.41
483.39	20779.28
483.57	20805.02
483.74	20971.20
483.92	20870.56
484.10	20863.54
484.28	21294.19
484.46	21774.00
484.64	22342.75
484.82	21724.85
485.00	22108.70
485.18	22314.67
485.35	22857.67
485.53	22394.25
485.71	22609.58
485.89	23520.04
486.07	23112.79
486.25	23246.20
486.43	23211.09
486.61	23541.11
486.78	23866.44
486.96	24191.78
487.14	24231.57
487.32	24294.76
487.50	24753.51
487.68	24659.88
487.85	25364.39
488.03	25174.80
488.21	25212.25
488.39	25795.04
488.57	25687.38
488.75	25802.07
488.92	25944.84
489.10	26658.70
489.28	26394.22
489.46	26939.57
489.64	26693.81
489.81	27454.48
489.99	27583.21
490.17	27428.74
490.35	27770.46
490.53	27583.21
490.70	28023.23
490.88	27967.06
491.06	28437.51
491.24	28449.21
491.41	29032.00
491.59	28718.37
491.77	29083.50
491.95	29411.17
492.13	29465.00
492.30	29390.11
492.48	29895.66
492.66	30185.89
492.84	29989.28
493.01	30115.67
493.19	30359.09
493.37	30986.35
493.54	30799.11
493.72	31096.36
493.90	31580.85
494.08	31613.62
494.25	31573.83
494.43	31971.72
494.61	32147.26
494.79	32521.74
494.96	32297.05
495.14	32400.04
495.32	32889.21
495.49	32641.11
495.67	33106.88
495.85	33305.82
496.02	33715.42
496.20	33453.28
496.38	34000.96
496.55	33502.43
496.73	35061.22
496.91	34195.23
497.09	34782.70
497.26	34675.04
497.44	34838.87
497.62	35012.07
497.79	35381.88
497.97	35262.51
498.14	35571.46
498.32	35676.79
498.50	35681.47
498.67	36142.55
498.85	35969.35
499.03	36233.83
499.20	36636.41
499.38	36589.59
499.56	36950.04
499.73	36589.59
499.91	36971.10
500.08	37090.47
500.26	37301.12
500.44	37345.59
500.61	37748.16
500.79	37408.78
500.97	38220.95
501.14	38057.11
501.32	38225.63
501.49	38010.30
501.67	38286.48
501.84	38466.70
502.02	38532.24
502.20	38562.67
502.37	39009.71
502.55	39246.10
502.72	38948.85
502.90	38990.98
503.07	39360.79
503.25	39658.04
503.43	39440.37
503.60	40053.59
503.78	39548.03
503.95	39632.29
504.13	40240.83
504.30	39964.65
504.48	39997.41
504.65	40865.75
504.83	41188.75
505.01	41090.44
505.18	40687.87
505.36	40961.72
505.53	41027.25
505.71	41120.87
505.88	41474.29
506.06	41013.21
506.23	41544.51
506.41	41020.23
506.58	41577.28
506.76	41759.84
506.93	42071.13
507.11	42085.17
507.28	42017.30
507.46	42536.90
507.63	42426.89
507.81	42824.78
507.98	42604.77
508.16	42913.72
508.33	42775.63
508.50	43468.43
508.68	43112.67
508.85	43248.42
509.03	43454.39
509.20	43784.40
509.38	43913.13
509.55	44002.07
509.73	44072.29
509.90	44282.94
510.08	44205.70
510.25	43976.33
510.42	44357.83
510.60	44800.19
510.77	44671.46
510.95	45134.89
511.12	44954.67
511.30	45083.40
511.47	45059.99
511.64	45439.16
511.82	45677.90
511.99	45457.88
512.17	45687.26
512.34	45078.72
512.51	45818.33
512.69	46284.09
512.86	45797.26
513.04	46604.75
513.21	46333.24
513.38	46227.92
513.56	46754.54
513.73	46302.82
513.90	46920.72
514.08	46431.55
514.25	46897.31
514.43	47194.56
514.60	46941.78
514.77	46476.02
514.95	47629.90
515.12	47065.83
515.29	47147.75
515.47	47566.71
515.64	47831.19
515.81	47643.94
515.99	48090.99
516.16	47856.93
516.33	47676.71
516.51	48456.11
516.68	47934.17
516.85	48107.37
517.03	48332.06
517.20	48521.65
517.37	48451.43
517.54	48453.77
517.72	48542.71
517.89	48917.20
518.06	48872.73
518.24	48973.37
518.41	48985.07
518.58	49237.85
518.75	48868.05
518.93	49216.78
519.10	49085.72
519.27	49521.05
519.45	49605.31
519.62	49471.90
519.79	49958.73
519.96	49879.16
520.14	49745.75
520.31	49801.92
520.48	49907.24
520.65	50113.21
520.83	50483.01
521.00	50663.24
521.17	50148.32
521.34	50595.36
521.52	50419.82
521.69	50389.39
521.86	50721.75
522.03	50761.54
522.20	50794.31
522.38	51473.06
522.55	50864.52
522.72	51044.74
522.89	51096.24
523.07	51201.56
523.24	51243.69
523.41	51379.44
523.58	51033.04
523.75	51803.08
523.92	51531.57
524.10	51690.73
524.27	51662.64
524.44	51580.73
524.61	51983.30
524.78	51877.97
524.96	51859.25
525.13	52020.75
525.30	52072.24
525.47	52179.90
525.64	52186.92
525.81	52027.77
525.98	52645.67
526.16	52626.95
526.33	52552.05
526.50	52758.02
526.67	52610.56
526.84	52577.79
527.01	52395.23
527.18	52502.90
527.36	52460.77
527.53	52800.15
527.70	53251.87
527.87	52978.03
528.04	52842.27
528.21	53123.14
528.38	53024.84
528.55	53422.73
528.72	52999.09
528.89	53165.27
529.07	53003.77
529.24	53263.57
529.41	53455.50
529.58	53441.45
529.75	53455.50
529.92	53624.01
530.09	53406.34
530.26	53506.99
530.43	53820.62
530.60	53600.61
530.77	53436.77
530.94	53879.13
531.11	53572.52
531.28	53806.58
531.46	54014.88
531.63	53815.94
531.80	54213.83
531.97	54099.14
532.14	54260.64
532.31	54380.01
532.48	54305.11
532.65	54581.29
532.82	54354.26
532.99	54548.53
533.16	54248.94
533.33	54684.28
533.50	54557.89
533.67	54354.26
533.84	54497.03
534.01	54688.96
534.18	54808.32
534.35	54899.61
534.52	54911.31
534.69	54841.09
534.86	54948.76
535.03	54937.05
535.20	54890.24
535.37	55098.55
535.54	55281.11
535.71	55164.09
535.88	55182.81
536.05	55344.31
536.22	55318.56
536.38	55271.75
536.55	55206.22
536.72	55419.20
536.89	55243.66
537.06	55550.27
537.23	55297.50
537.40	55255.37
537.57	55494.10
537.74	55627.51
537.91	55664.96
538.08	55583.04
538.25	55466.02
538.42	55732.84
538.59	55835.82
538.75	55428.57
538.92	55639.22
539.09	55664.96
539.26	56060.51
539.43	55868.59
539.60	56016.04
539.77	55999.66
539.94	56123.71
540.11	56144.77
540.28	56217.33
540.44	56261.80
540.61	56182.22
540.78	56231.37
540.95	56245.41
541.12	56231.37
541.29	56390.53
541.46	56062.85
541.62	56418.61
541.79	56542.66
541.96	56200.94
542.13	56437.34
542.30	56495.85
542.47	56547.34
542.63	56598.83
542.80	56535.64
542.97	56704.16
543.14	56912.47
543.31	56924.17
543.48	57111.41
543.64	57235.46
543.81	57261.21
543.98	56921.83
544.15	57158.22
544.32	57453.13
544.48	57429.72
544.65	57340.78
544.82	56903.10
544.99	57123.11
545.16	57439.09
545.32	57221.42
545.49	57317.38
545.66	57593.56
545.83	57371.21
546.00	57560.79
546.16	57703.57
546.33	57446.11
546.50	57230.78
546.67	57523.35
546.83	57460.15
547.00	57429.72
547.17	57565.48
547.34	57392.28
547.50	57581.86
547.67	57836.98
547.84	57633.35
548.00	57879.11
548.17	58012.52
548.34	57801.87
548.51	58045.29
548.67	58010.18
548.84	58150.61
549.01	57869.75
549.18	58103.80
549.34	58054.65
549.51	57989.11
549.68	58213.80
549.84	58148.27
550.01	58038.26
550.18	57832.30
550.34	58176.36
550.51	58387.00
550.68	58387.00
550.84	57855.70
551.01	58286.36
551.18	58204.44
551.34	58279.34
551.51	58363.60
551.68	58382.32
551.84	58403.39
552.01	58230.19
552.18	58410.41
552.34	58262.96
552.51	58452.54
552.68	58045.29
552.84	58277.00
553.01	58731.06
553.18	58677.23
553.34	58848.09
553.51	58424.45
553.67	58501.69
553.84	58684.25
554.01	58855.11
554.17	58944.05
554.34	58841.07
554.51	58731.06
554.67	58979.16
554.84	58681.91
555.00	58705.32
555.17	58616.38
555.33	58740.42
555.50	58759.15
555.67	58801.28
555.83	58841.07
556.00	58946.39
556.16	59220.23
556.33	59002.56
556.50	58979.16
556.66	59084.48
556.83	58831.71
556.99	59243.64
557.16	59173.42
557.32	59201.51
557.49	59283.43
557.65	58904.26
557.82	59201.51
557.98	59316.20
558.15	59047.04
558.32	59157.04
558.48	59161.72
558.65	59260.02
558.81	59245.98
558.98	59428.54
559.14	59465.99
559.31	59578.34
559.47	59449.61
559.64	59494.08
559.80	59458.97
559.97	59606.42
560.13	59299.81
560.30	59428.54
560.46	59503.44
560.63	59578.34
560.79	59545.57
560.96	59695.36
561.12	59531.53
561.29	59739.83
561.45	59889.63
561.61	59760.90
561.78	59533.87
561.94	59583.02
562.11	59433.22
562.27	59739.83
562.44	59906.01
562.60	59709.41
562.77	59798.35
562.93	59395.77
563.10	59980.91
563.26	59690.68
563.42	59948.14
563.59	59821.75
563.75	59957.50
563.92	59702.38
564.08	59643.87
564.24	59966.87
564.41	59861.54
564.57	59973.89
564.74	59903.67
564.90	60102.62
565.07	59941.12
565.23	59849.84
565.39	59936.44
565.56	59875.58
565.72	60119.00
565.88	60119.00
566.05	59952.82
566.21	60044.10
566.38	60069.85
566.54	59924.74
566.70	60299.22
566.87	60271.14
567.03	60086.23
567.19	60203.26
567.36	60221.98
567.52	60016.02
567.68	60374.12
567.85	60231.35
568.01	60119.00
568.17	60123.68
568.34	60301.56
568.50	60069.85
568.66	60109.64
568.83	60097.94
568.99	60226.66
569.15	59957.50
569.32	60184.54
569.48	60114.32
569.64	60257.09
569.81	60165.81
569.97	60252.41
570.13	60151.77
570.30	60196.24
570.46	60378.80
570.62	60364.76
570.78	60156.45
570.95	60261.77
571.11	60437.31
571.27	60266.45
571.43	60259.43
571.60	60346.03
571.76	60310.92
571.92	60369.44
572.09	60385.82
572.25	60210.28
572.41	60252.41
572.57	60381.14
572.74	60418.59
572.90	60329.65
573.06	60451.36
573.22	60310.92
573.38	60446.68
573.55	60500.51
573.71	60460.72
573.87	60519.23
574.03	60299.22
574.20	60589.45
574.36	60392.84
574.52	60472.42
574.68	60598.81
574.84	60460.72
575.01	60425.61
575.17	60568.38
575.33	60509.87
575.49	60582.43
575.65	60535.62
575.82	60680.73
575.98	60645.62
576.14	60671.37
576.30	60640.94
576.46	60664.35
576.62	60451.36
576.79	60671.37
576.95	60327.31
577.11	60460.72
577.27	60598.81
577.43	60636.26
577.59	60659.66
577.75	60633.92
577.92	60559.02
578.08	60437.31
578.24	60533.28
578.40	60779.03
578.56	60818.82
578.72	60809.46
578.88	60591.79
579.04	60816.48
579.21	60662.00
579.37	60678.39
579.53	60734.56
579.69	60514.55
579.85	60605.83
580.01	60552.00
580.17	60671.37
580.33	60816.48
580.49	60732.22
580.65	60795.42
580.82	60793.07
580.98	60638.60
581.14	60676.05
581.30	60790.73
581.46	60729.88
581.62	60725.20
581.78	60449.02
581.94	60739.24
582.10	60671.37
582.26	60657.32
582.42	60584.77
582.58	60933.51
582.74	60825.84
582.90	60844.57
583.06	60743.92
583.22	60507.53
583.38	60605.83
583.54	60662.00
583.70	60645.62
583.86	60802.44
584.02	60601.15
584.18	60977.98
584.34	60793.07
584.50	60690.09
584.66	60729.88
584.82	60523.91
584.98	60762.65
585.14	60893.72
585.30	60650.30
585.46	60732.22
585.62	60846.91
585.78	60985.00
585.94	60491.15
586.10	60757.97
586.26	60886.70
586.42	61024.79
586.58	60762.65
586.74	60886.70
586.90	60802.44
587.06	60860.95
587.22	61020.11
587.38	60821.16
587.54	60982.66
587.70	61230.75
587.86	61118.41
588.02	61006.06
588.18	61097.34
588.34	60933.51
588.49	60860.95
