SpectraSuite Data File
++++++++++++++++++++++++++++++++++++
Date: Fri Oct 25 11:23:42 EDT 2013
User: price-jones
Dark Spectrum Present: No
Reference Spectrum Present: No
Number of Sampled Component Spectra: 1
Spectrometers: USB2+H05261
Integration Time (usec): 100000 (USB2+H05261)
Spectra Averaged: 1 (USB2+H05261)
Boxcar Smoothing: 0 (USB2+H05261)
Correct for Electrical Dark: No (USB2+H05261)
Strobe/Lamp Enabled: No (USB2+H05261)
Correct for Detector Non-linearity: No (USB2+H05261)
Correct for Stray Light: No (USB2+H05261)
Number of Pixels in Processed Spectrum: 2048
>>>>>Begin Processed Spectral Data<<<<<
365.73	205.97
365.92	205.97
366.12	205.97
366.32	203.63
366.52	131.07
366.72	131.07
366.91	121.71
367.11	135.75
367.31	98.30
367.51	119.37
367.70	100.64
367.90	161.50
368.10	121.71
368.30	138.09
368.49	126.39
368.69	208.31
368.89	121.71
369.09	152.13
369.28	196.60
369.48	208.31
369.68	201.29
369.87	154.48
370.07	194.26
370.27	222.35
370.47	365.12
370.66	543.00
370.86	610.88
371.06	664.71
371.25	774.72
371.45	610.88
371.65	683.44
371.84	660.03
372.04	725.57
372.24	697.48
372.44	737.27
372.63	720.88
372.83	802.80
373.03	737.27
373.22	786.42
373.42	819.19
373.62	774.72
373.81	748.97
374.01	741.95
374.21	849.61
374.40	788.76
374.60	877.70
374.79	844.93
374.99	898.77
375.19	823.87
375.38	826.21
375.58	805.14
375.78	826.21
375.97	884.72
376.17	844.93
376.37	950.26
376.56	812.17
376.76	821.53
376.95	800.46
377.15	922.17
377.35	866.00
377.54	835.57
377.74	915.15
377.93	851.96
378.13	908.13
378.33	959.62
378.52	954.94
378.72	938.55
378.91	915.15
379.11	863.66
379.31	1034.52
379.50	938.55
379.70	997.07
379.89	1067.28
380.09	980.68
380.28	999.41
380.48	943.24
380.68	954.94
380.87	1053.24
381.07	971.32
381.26	1011.11
381.46	1097.71
381.65	1036.86
381.85	1004.09
382.04	990.05
382.24	1046.22
382.43	1041.54
382.63	1142.18
382.83	1076.65
383.02	1165.59
383.22	1064.94
383.41	1022.81
383.61	1102.39
383.80	1160.91
384.00	1116.44
384.19	1123.46
384.39	1135.16
384.58	1090.69
384.78	990.05
384.97	1167.93
385.17	1167.93
385.36	1139.84
385.56	1158.57
385.75	1245.16
385.95	1226.44
386.14	1196.01
386.34	1261.55
386.53	1193.67
386.72	1198.35
386.92	1301.34
387.11	1291.98
387.31	1219.42
387.50	1245.16
387.70	1217.08
387.89	1240.48
388.09	1301.34
388.28	1261.55
388.48	1263.89
388.67	1352.83
388.86	1369.21
389.06	1331.76
389.25	1345.81
389.45	1270.91
389.64	1348.15
389.84	1364.53
390.03	1350.49
390.22	1334.11
390.42	1401.98
390.61	1315.38
390.81	1416.02
391.00	1266.23
391.19	1434.75
391.39	1469.86
391.58	1362.19
391.78	1390.28
391.97	1469.86
392.16	1467.52
392.36	1486.24
392.55	1453.47
392.75	1465.18
392.94	1540.07
393.13	1593.90
393.33	1460.49
393.52	1605.61
393.71	1528.37
393.91	1561.14
394.10	1668.80
394.29	1547.09
394.49	1540.07
394.68	1746.04
394.88	1554.12
395.07	1654.76
395.26	1586.88
395.46	1673.48
395.65	1732.00
395.84	1673.48
396.04	1778.81
396.23	1720.29
396.42	1781.15
396.62	1834.98
396.81	1799.87
397.00	1736.68
397.19	1764.76
397.39	1722.63
397.58	1842.00
397.77	1937.96
397.97	1832.64
398.16	1900.52
398.35	1947.33
398.55	1839.66
398.74	1940.30
398.93	1949.67
399.12	1923.92
399.32	1884.13
399.51	1905.20
399.70	2010.52
399.90	1933.28
400.09	2003.50
400.28	2150.95
400.47	2012.86
400.67	2099.46
400.86	2059.67
401.05	2022.22
401.24	2071.37
401.44	2146.27
401.63	2179.04
401.82	2172.02
402.01	2146.27
402.21	2167.34
402.40	2239.89
402.59	2148.61
402.78	2232.87
402.97	2104.14
403.17	2319.47
403.36	2260.96
403.55	2239.89
403.74	2373.30
403.93	2307.77
404.13	2392.03
404.32	2403.73
404.51	2455.22
404.70	2431.82
404.89	2375.64
405.09	2532.46
405.28	2520.76
405.47	2471.61
405.66	2553.52
405.85	2640.12
406.05	2644.81
406.24	2670.55
406.43	2663.53
406.62	2593.31
406.81	2689.28
407.00	2654.17
407.20	2665.87
407.39	2555.86
407.58	2663.53
407.77	2843.75
407.96	2906.95
408.15	2747.79
408.34	2712.68
408.54	2794.60
408.73	2698.64
408.92	2904.60
409.11	2892.90
409.30	2825.03
409.49	2850.77
409.68	2920.99
409.87	2871.84
410.07	2977.16
410.26	2991.20
410.45	2939.71
410.64	3070.78
410.83	3141.00
411.02	3082.49
411.21	3183.13
411.40	3068.44
411.59	3227.60
411.78	3204.19
411.98	3246.32
412.17	3213.56
412.36	3293.13
412.55	3389.10
412.74	3433.57
412.93	3323.56
413.12	3332.92
413.31	3669.96
413.50	3534.21
413.69	3454.63
413.88	3541.23
414.07	3627.83
414.26	3698.05
414.45	3655.92
414.64	3728.47
414.83	3754.22
415.02	3716.77
415.22	3824.44
415.41	3789.33
415.60	3896.99
415.79	3866.56
415.98	3894.65
416.17	4098.28
416.36	3880.61
416.55	4025.72
416.74	4173.18
416.93	4060.83
417.12	4133.39
417.31	4322.97
417.50	4243.39
417.69	4147.43
417.88	4252.75
418.07	4353.40
418.26	4276.16
418.45	4264.46
418.64	4498.51
418.83	4491.49
419.02	4351.06
419.21	4500.85
419.39	4559.36
419.58	4449.36
419.77	4493.83
419.96	4620.22
420.15	4643.62
420.34	4498.51
420.53	4699.80
420.72	4697.46
420.91	4629.58
421.10	4791.08
421.29	4957.25
421.48	4669.37
421.67	4887.04
421.86	4746.61
422.05	4887.04
422.24	4875.34
422.43	4861.29
422.61	4898.74
422.80	5055.56
422.99	4997.04
423.18	4835.55
423.37	5022.79
423.56	4931.51
423.75	5032.15
423.94	4856.61
424.13	4631.92
424.32	4905.76
424.50	5062.58
424.69	4863.63
424.88	5078.96
425.07	4896.40
425.26	4877.68
425.45	5004.07
425.64	5018.11
425.83	5090.67
426.01	4992.36
426.20	5032.15
426.39	5170.24
426.58	5097.69
426.77	4980.66
426.96	5160.88
427.15	5163.22
427.33	5296.63
427.52	5200.67
427.71	5247.48
427.90	5057.90
428.09	5448.77
428.28	5376.21
428.46	5401.96
428.65	5411.32
428.84	5509.62
429.03	5425.36
429.22	5242.80
429.40	5469.83
429.59	5465.15
429.78	5322.38
429.97	5284.93
430.16	5511.96
430.34	5540.05
430.53	5528.35
430.72	5577.50
430.91	5708.57
431.10	5636.01
431.28	5530.69
431.47	5872.40
431.66	5713.25
431.85	5799.85
432.03	5827.93
432.22	5926.24
432.41	5951.98
432.60	5973.05
432.79	5820.91
432.97	6029.22
433.16	6012.84
433.35	6036.24
433.54	6097.10
433.72	6148.59
433.91	6054.97
434.10	6132.20
434.28	6239.87
434.47	6045.60
434.66	6291.36
434.85	6209.44
435.03	6363.92
435.22	6108.80
435.41	6567.54
435.59	6429.45
435.78	6464.56
435.97	6492.65
436.16	6303.06
436.34	6408.39
436.53	6438.81
436.72	6810.96
436.90	6679.89
437.09	6743.08
437.28	6368.60
437.46	6518.39
437.65	6595.63
437.84	6888.20
438.02	6757.13
438.21	6839.05
438.40	6691.59
438.58	6995.86
438.77	6981.82
438.96	7187.79
439.14	7045.01
439.33	7206.51
439.52	7288.43
439.70	7414.82
439.89	7302.47
440.08	7393.75
440.26	7342.26
440.45	7297.79
440.63	7515.46
440.82	7672.28
441.01	7346.94
441.19	7616.10
441.38	7801.01
441.57	7831.43
441.75	7882.92
441.94	7918.03
442.12	7992.93
442.31	8056.12
442.50	8269.11
442.68	7903.99
442.87	7943.78
443.05	8100.59
443.24	8271.45
443.43	8142.72
443.61	8030.38
443.80	8255.07
443.98	7990.59
444.17	7861.86
444.35	8250.39
444.54	8259.75
444.73	8318.26
444.91	8313.58
445.10	8390.82
445.28	8351.03
445.47	8416.57
445.65	8505.51
445.84	8463.38
446.02	8315.92
446.21	8409.54
446.39	8301.88
446.58	8451.67
446.77	8477.42
446.95	8229.32
447.14	8606.15
447.32	8519.55
447.51	8554.66
447.69	8351.03
447.88	8400.18
448.06	8519.55
448.25	8603.81
448.43	8549.98
448.62	8718.50
448.80	8627.21
448.99	8599.13
449.17	8540.61
449.36	8578.06
449.54	8762.97
449.73	8816.80
449.91	8816.80
450.10	8997.02
450.28	8940.85
450.46	9078.94
450.65	8994.68
450.83	9085.96
451.02	9078.94
451.20	8999.36
451.39	9200.65
451.57	9193.62
451.76	9102.34
451.94	9064.89
452.13	9092.98
452.31	9212.35
452.49	9273.20
452.68	9415.98
452.86	9364.48
453.05	9542.36
453.23	9579.81
453.42	9537.68
453.60	9547.05
453.78	9446.40
453.97	9312.99
454.15	9399.59
454.34	9809.19
454.52	9657.05
454.70	9617.26
454.89	9661.73
455.07	9654.71
455.26	9998.77
455.44	10001.11
455.62	9956.64
455.81	9797.48
455.99	10022.17
456.17	10296.02
456.36	9834.93
456.54	10356.87
456.73	10190.69
456.91	10525.39
457.09	10431.77
457.28	10415.38
457.46	10342.83
457.64	10567.52
457.83	10523.05
458.01	10368.57
458.19	10707.95
458.38	10668.16
458.56	10750.08
458.74	10757.10
458.93	10778.17
459.11	10668.16
459.29	10773.49
459.48	10565.18
459.66	10970.09
459.84	10869.45
460.03	10981.79
460.21	10860.09
460.39	10993.50
460.57	11211.17
460.76	11063.71
460.94	11234.57
461.12	11040.31
461.31	11133.93
461.49	11286.06
461.67	11218.19
461.85	11733.11
462.04	11166.70
462.22	11606.72
462.40	11300.11
462.59	11609.06
462.77	11686.29
462.95	11442.88
463.13	11606.72
463.32	11534.16
463.50	11705.02
463.68	11578.63
463.86	11742.47
464.05	11768.21
464.23	11730.76
464.41	11822.05
464.59	11580.97
464.78	12028.01
464.96	12088.87
465.14	11644.17
465.32	12049.08
465.50	12180.15
465.69	12163.76
465.87	12180.15
466.05	12173.13
466.23	12360.37
466.41	12149.72
466.60	12519.53
466.78	12313.56
466.96	12446.97
467.14	12393.14
467.32	12449.31
467.51	12489.10
467.69	12341.64
467.87	12514.84
468.05	12655.28
468.23	12491.44
468.41	12573.36
468.60	12580.38
468.78	12634.21
468.96	12814.43
469.14	12966.57
469.32	13109.34
469.50	12631.87
469.69	12987.63
469.87	12996.99
470.05	13298.92
470.23	13322.33
470.41	13102.32
470.59	13338.71
470.77	13146.79
470.95	13434.68
471.14	13631.28
471.32	13238.07
471.50	13532.98
471.68	13528.30
471.86	13708.52
472.04	13673.41
472.22	14178.97
472.40	13795.12
472.58	13965.98
472.77	13874.70
472.95	14047.90
473.13	14698.56
473.31	14052.58
473.49	14073.64
473.67	14052.58
473.85	14546.43
474.03	14846.02
474.21	14705.59
474.39	14768.78
474.57	14743.03
474.75	14956.02
474.93	15066.03
475.12	14953.68
475.30	15218.16
475.48	15033.26
475.66	15288.38
475.84	15365.62
476.02	15225.18
476.20	15449.88
476.38	15733.08
476.56	16088.84
476.74	16084.16
476.92	15889.90
477.10	15861.81
477.28	16065.44
477.46	16152.04
477.64	16365.03
477.82	16491.41
478.00	17055.48
478.18	16915.05
478.36	16826.11
478.54	17233.36
478.72	17109.32
478.90	17621.89
479.08	17647.64
479.26	17823.18
479.44	17774.03
479.62	17776.37
479.80	18073.62
479.98	18221.07
480.16	18588.53
480.34	18424.70
480.52	18698.54
480.70	18600.24
480.88	18576.83
481.06	18576.83
481.24	19098.77
481.41	19173.67
481.59	19503.68
481.77	19550.49
481.95	19384.32
482.13	20042.01
482.31	19658.16
482.49	20404.79
482.67	20264.36
482.85	20692.68
483.03	20847.15
483.21	20680.97
483.39	21198.23
483.57	21076.52
483.74	21252.06
483.92	21413.56
484.10	21071.84
484.28	21731.87
484.46	22214.02
484.64	22293.60
484.82	22197.64
485.00	22335.73
485.18	22860.01
485.35	22850.65
485.53	22941.93
485.71	23426.42
485.89	23498.98
486.07	23494.30
486.25	23185.35
486.43	23807.93
486.61	24044.32
486.78	24184.76
486.96	24341.57
487.14	24425.83
487.32	24549.88
487.50	24716.06
487.68	25046.07
487.85	25149.06
488.03	25722.49
488.21	26293.58
488.39	25888.67
488.57	26057.18
488.75	26134.42
488.92	26752.32
489.10	26827.22
489.28	26712.53
489.46	27206.39
489.64	26909.14
489.81	28147.28
489.99	27597.26
490.17	27964.72
490.35	28318.14
490.53	28189.41
490.70	28526.45
490.88	28336.87
491.06	28847.10
491.24	28732.42
491.41	29076.48
491.59	29317.55
491.77	29488.41
491.95	29813.74
492.13	29874.60
492.30	30213.98
492.48	29975.24
492.66	30567.40
492.84	30125.04
493.01	31105.72
493.19	30927.84
493.37	31241.47
493.54	31157.21
493.72	31353.82
493.90	31473.18
494.08	31709.58
494.25	32055.98
494.43	32559.19
494.61	32151.94
494.79	32769.84
494.96	32863.46
495.14	32643.45
495.32	33202.84
495.49	33495.41
495.67	33071.77
495.85	33748.18
496.02	33830.10
496.20	34068.84
496.38	34363.75
496.55	34349.70
496.73	35192.30
496.91	34665.67
497.09	34859.94
497.26	35182.93
497.44	35098.67
497.62	35070.59
497.79	36297.03
497.97	35519.97
498.14	35952.97
498.32	36313.41
498.50	36105.10
498.67	36678.54
498.85	36919.61
499.03	36669.17
499.20	36542.78
499.38	36924.29
499.56	37357.29
499.73	37130.26
499.91	37469.64
500.08	37743.48
500.26	37642.84
500.44	37486.02
500.61	38054.77
500.79	37539.85
500.97	38389.47
501.14	38672.67
501.32	38649.27
501.49	38532.24
501.67	38820.13
501.84	38918.43
502.02	38990.98
502.20	39311.64
502.37	39208.65
502.55	39262.49
502.72	39662.72
502.90	39480.16
503.07	39681.44
503.25	39655.70
503.43	39800.81
503.60	40198.70
503.78	40421.05
503.95	40332.11
504.13	40289.98
504.30	40629.36
504.48	40311.05
504.65	40722.98
504.83	41258.96
505.01	41478.97
505.18	41474.29
505.36	41247.26
505.53	41385.35
505.71	41565.57
505.88	41993.89
506.06	41352.58
506.23	42192.84
506.41	41970.49
506.58	42391.78
506.76	42382.42
506.93	42759.25
507.11	42457.32
507.28	42827.12
507.46	42740.52
507.63	43058.84
507.81	43012.02
507.98	43035.43
508.16	43217.99
508.33	43339.70
508.50	43463.75
508.68	43871.00
508.85	44114.42
509.03	43863.98
509.20	44062.93
509.38	44421.03
509.55	44893.82
509.73	44594.23
509.90	44664.44
510.08	44720.62
510.25	44828.28
510.42	44910.20
510.60	45118.51
510.77	45148.93
510.95	45577.25
511.12	45380.65
511.30	45471.93
511.47	45710.66
511.64	46143.66
511.82	46059.40
511.99	45715.34
512.17	45588.95
512.34	46082.81
512.51	46494.74
512.69	46508.79
512.86	46380.06
513.04	46426.87
513.21	47065.83
513.38	46625.81
513.56	47098.60
513.73	46728.80
513.90	47327.97
514.08	46976.89
514.25	47892.04
514.43	47374.78
514.60	47358.40
514.77	47213.29
514.95	47643.94
515.12	47569.05
515.29	47569.05
515.47	48271.21
515.64	47952.90
515.81	48142.48
515.99	48413.98
516.16	48418.66
516.33	48383.55
516.51	48451.43
516.68	48877.41
516.85	48294.61
517.03	48928.90
517.20	49165.29
517.37	48818.89
517.54	48832.94
517.72	49017.84
517.89	49078.69
518.06	49347.86
518.24	49242.53
518.41	49172.31
518.58	49535.10
518.75	49099.76
518.93	49448.50
519.10	49895.54
519.27	49801.92
519.45	49928.31
519.62	49827.66
519.79	49900.22
519.96	50309.82
520.14	50157.68
520.31	50153.00
520.48	50382.37
520.65	50543.87
520.83	50735.79
521.00	50754.52
521.17	50710.05
521.34	50766.22
521.52	50876.22
521.69	50904.31
521.86	51096.24
522.03	51278.80
522.20	51632.22
522.38	51510.51
522.55	51234.33
522.72	51454.34
522.89	51547.96
523.07	51655.62
523.24	51892.02
523.41	51674.35
523.58	51594.77
523.75	51952.87
523.92	51835.84
524.10	52074.58
524.27	52385.87
524.44	52142.45
524.61	52140.11
524.78	52294.59
524.96	52554.39
525.13	52484.17
525.30	52743.97
525.47	52598.86
525.64	52556.73
525.81	52701.84
525.98	53165.27
526.16	52772.06
526.33	52832.91
526.50	53214.42
526.67	52753.33
526.84	53057.60
527.01	52795.46
527.18	52568.43
527.36	52830.57
527.53	53352.51
527.70	53511.67
527.87	53375.92
528.04	53366.55
528.21	53244.85
528.38	53202.72
528.55	53757.42
528.72	53738.70
528.89	53790.19
529.07	53413.37
529.24	53502.31
529.41	53736.36
529.58	53715.29
529.75	53680.19
529.92	53790.19
530.09	53855.73
530.26	54138.93
530.43	54115.53
530.60	53874.45
530.77	53970.41
530.94	54113.19
531.11	54150.63
531.28	54178.72
531.46	54344.90
531.63	54267.66
531.80	54363.62
531.97	54621.08
532.14	54639.81
532.31	54337.88
532.48	54738.11
532.65	54745.13
532.82	54649.17
532.99	54756.83
533.16	54747.47
533.33	54803.64
533.50	55098.55
533.67	55035.36
533.84	54457.24
534.01	54974.50
534.18	54913.65
534.35	55356.01
534.52	55206.22
534.69	55283.45
534.86	55344.31
535.03	55075.15
535.20	55292.82
535.37	55557.30
535.54	55552.62
535.71	55428.57
535.88	55278.77
536.05	55627.51
536.22	55580.70
536.38	55833.48
536.55	55585.38
536.72	55824.12
536.89	55601.77
537.06	55578.36
537.23	55899.01
537.40	55599.43
537.57	55686.03
537.74	55800.71
537.91	56032.42
538.08	55924.76
538.25	55735.18
538.42	56079.24
538.59	56112.00
538.75	56041.79
538.92	56336.69
539.09	56069.87
539.26	56236.05
539.43	56119.02
539.60	56622.24
539.77	56306.27
539.94	56303.93
540.11	56395.21
540.28	56397.55
540.44	56472.45
540.61	56362.44
540.78	56397.55
540.95	56453.72
541.12	56322.65
541.29	56432.66
541.46	56612.88
541.62	56587.13
541.79	57099.71
541.96	56500.53
542.13	56652.67
542.30	56750.97
542.47	56844.59
542.63	56891.40
542.80	56966.30
542.97	57331.42
543.14	57301.00
543.31	57090.35
543.48	57235.46
543.64	57422.70
543.81	57394.62
543.98	57237.80
544.15	57352.49
544.32	57322.06
544.48	57652.08
544.65	57516.32
544.82	57460.15
544.99	57219.08
545.16	57537.39
545.32	57574.84
545.49	57612.29
545.66	57820.59
545.83	57682.50
546.00	57691.86
546.16	57738.68
546.33	57542.07
546.50	57748.04
546.67	57975.07
546.83	57439.09
547.00	57757.40
547.17	57755.06
547.34	57886.13
547.50	57984.43
547.67	58218.49
547.84	58061.67
548.00	58099.12
548.17	58349.56
548.34	58066.35
548.51	58178.70
548.67	58298.06
548.84	58274.66
549.01	58078.05
549.18	58181.04
549.34	58454.88
549.51	58372.96
549.68	58438.50
549.84	58326.15
550.01	58262.96
550.18	58284.02
550.34	58394.03
550.51	58644.46
550.68	58370.62
550.84	58408.07
551.01	58770.85
551.18	58422.11
551.34	58625.74
551.51	58602.33
551.68	58550.84
551.84	58752.13
552.01	58609.35
552.18	58848.09
552.34	58649.14
552.51	58752.13
552.68	58525.10
552.84	58602.33
553.01	58990.86
553.18	58791.92
553.34	58824.68
553.51	58988.52
553.67	58885.54
553.84	59098.53
554.01	59021.29
554.17	59040.01
554.34	59075.12
554.51	58880.86
554.67	59161.72
554.84	59138.32
555.00	59096.19
555.17	59082.14
555.33	59021.29
555.50	59100.87
555.67	58925.33
555.83	58958.09
556.00	59107.89
556.16	59641.53
556.33	59271.73
556.50	59196.83
556.66	59461.31
556.83	59196.83
556.99	59416.84
557.16	59489.40
557.32	59344.28
557.49	59711.75
557.65	59370.03
557.82	59426.20
557.98	59580.68
558.15	59367.69
558.32	59636.85
558.48	59351.30
558.65	59653.23
558.81	59686.00
558.98	59599.40
559.14	59669.62
559.31	59653.23
559.47	59751.54
559.64	59868.56
559.80	59688.34
559.97	59742.17
560.13	59690.68
560.30	59690.68
560.46	59714.09
560.63	60037.08
560.79	59985.59
560.96	59971.55
561.12	59859.20
561.29	59922.40
561.45	59922.40
561.61	59756.22
561.78	59856.86
561.94	59723.45
562.11	59833.46
562.27	59746.86
562.44	59842.82
562.60	60074.53
562.77	60093.25
562.93	59700.04
563.10	60135.38
563.26	59861.54
563.42	60156.45
563.59	59880.27
563.75	60030.06
563.92	59966.87
564.08	59976.23
564.24	60207.94
564.41	60119.00
564.57	60292.20
564.74	60296.88
564.90	60161.13
565.07	59997.29
565.23	60350.71
565.39	60058.15
565.56	60392.84
565.72	60418.59
565.88	60224.32
566.05	60044.10
566.21	60350.71
566.38	60147.09
566.54	60289.86
566.70	60348.37
566.87	60535.62
567.03	60271.14
567.19	60465.40
567.36	60285.18
567.52	60353.05
567.68	60507.53
567.85	60477.10
568.01	60453.70
568.17	60275.82
568.34	60360.08
568.50	60537.96
568.66	60179.85
568.83	60273.48
568.99	60406.89
569.15	60509.87
569.32	60413.91
569.48	60282.84
569.64	60502.85
569.81	60463.06
569.97	60631.58
570.13	60444.33
570.30	60399.86
570.46	60552.00
570.62	60811.80
570.78	60500.51
570.95	60404.55
571.11	60662.00
571.27	60498.17
571.43	60657.32
571.60	60907.76
571.76	60446.68
571.92	60764.99
572.09	60671.37
572.25	60669.03
572.41	60715.84
572.57	60603.49
572.74	60961.59
572.90	60767.33
573.06	60832.86
573.22	60727.54
573.38	60924.14
573.55	60762.65
573.71	60912.44
573.87	60809.46
574.03	60807.12
574.20	60968.61
574.36	60767.33
574.52	60491.15
574.68	60622.22
574.84	60818.82
575.01	60870.31
575.17	60584.77
575.33	60720.52
575.49	60582.43
575.65	60999.04
575.82	60956.91
575.98	60797.76
576.14	61043.51
576.30	60900.74
576.46	60704.13
576.62	60793.07
576.79	60767.33
576.95	60797.76
577.11	60793.07
577.27	60940.53
577.43	60896.06
577.59	60764.99
577.75	60783.71
577.92	60680.73
578.08	60814.14
578.24	60858.61
578.40	61116.07
578.56	61099.68
578.72	60903.08
578.88	61111.39
579.04	60938.19
579.21	60973.30
579.37	60989.68
579.53	61099.68
579.69	60870.31
579.85	61017.77
580.01	60903.08
580.17	60657.32
580.33	61036.49
580.49	61106.71
580.65	60985.00
580.82	61139.47
580.98	60917.12
581.14	60872.65
581.30	61087.98
581.46	60985.00
581.62	61104.37
581.78	60968.61
581.94	60849.25
582.10	60666.69
582.26	60910.10
582.42	60926.49
582.58	60938.19
582.74	61092.66
582.90	61209.69
583.06	60968.61
583.22	60839.89
583.38	61073.94
583.54	61029.47
583.70	61062.24
583.86	61200.33
584.02	60942.87
584.18	61057.56
584.34	60980.32
584.50	61169.90
584.66	60910.10
584.82	60874.99
584.98	61008.40
585.14	61066.92
585.30	61078.62
585.46	61003.72
585.62	61055.21
585.78	61230.75
585.94	60992.02
586.10	61195.65
586.26	61062.24
586.42	61155.86
586.58	61085.64
586.74	61130.11
586.90	61141.81
587.06	61043.51
587.22	61027.13
587.38	61010.74
587.54	61221.39
587.70	61399.27
587.86	61179.26
588.02	61343.10
588.18	61132.45
588.34	61464.81
588.49	61095.00
