SpectraSuite Data File
++++++++++++++++++++++++++++++++++++
Date: Fri Oct 25 11:24:08 EDT 2013
User: price-jones
Dark Spectrum Present: No
Reference Spectrum Present: No
Number of Sampled Component Spectra: 1
Spectrometers: USB2+H05261
Integration Time (usec): 100000 (USB2+H05261)
Spectra Averaged: 1 (USB2+H05261)
Boxcar Smoothing: 0 (USB2+H05261)
Correct for Electrical Dark: No (USB2+H05261)
Strobe/Lamp Enabled: No (USB2+H05261)
Correct for Detector Non-linearity: No (USB2+H05261)
Correct for Stray Light: No (USB2+H05261)
Number of Pixels in Processed Spectrum: 2048
>>>>>Begin Processed Spectral Data<<<<<
365.73	262.14
365.92	262.14
366.12	262.14
366.32	149.79
366.52	159.16
366.72	191.92
366.91	145.11
367.11	95.96
367.31	166.18
367.51	93.62
367.70	159.16
367.90	147.45
368.10	91.28
368.30	159.16
368.49	187.24
368.69	117.03
368.89	201.29
369.09	121.71
369.28	152.13
369.48	191.92
369.68	140.43
369.87	166.18
370.07	215.33
370.27	287.89
370.47	334.70
370.66	552.37
370.86	627.26
371.06	699.82
371.25	648.33
371.45	667.05
371.65	711.52
371.84	660.03
372.04	713.86
372.24	664.71
372.44	667.05
372.63	819.19
372.83	727.91
373.03	816.85
373.22	748.97
373.42	713.86
373.62	725.57
373.81	786.42
374.01	863.66
374.21	873.02
374.40	779.40
374.60	851.96
374.79	802.80
374.99	821.53
375.19	854.30
375.38	903.45
375.58	774.72
375.78	807.48
375.97	833.23
376.17	842.59
376.37	805.14
376.56	847.27
376.76	875.36
376.95	910.47
377.15	896.43
377.35	926.85
377.54	957.28
377.74	866.00
377.93	980.68
378.13	952.60
378.33	954.94
378.52	844.93
378.72	910.47
378.91	926.85
379.11	957.28
379.31	964.30
379.50	964.30
379.70	961.96
379.89	976.00
380.09	987.71
380.28	985.37
380.48	1032.18
380.68	1006.43
380.87	990.05
381.07	1032.18
381.26	1048.56
381.46	992.39
381.65	1071.97
381.85	1011.11
382.04	1158.57
382.24	1041.54
382.43	1018.13
382.63	1022.81
382.83	1062.60
383.02	1102.39
383.22	1191.33
383.41	1064.94
383.61	1027.50
383.80	1139.84
384.00	1177.29
384.19	1116.44
384.39	1179.63
384.58	1128.14
384.78	1153.88
384.97	1125.80
385.17	1198.35
385.36	1198.35
385.56	1186.65
385.75	1231.12
385.95	1207.72
386.14	1132.82
386.34	1125.80
386.53	1275.59
386.72	1235.80
386.92	1221.76
387.11	1362.19
387.31	1334.11
387.50	1186.65
387.70	1224.10
387.89	1252.19
388.09	1306.02
388.28	1296.66
388.48	1299.00
388.67	1369.21
388.86	1299.00
389.06	1385.60
389.25	1397.30
389.45	1409.00
389.64	1378.58
389.84	1313.04
390.03	1366.87
390.22	1418.36
390.42	1357.51
390.61	1357.51
390.81	1327.08
391.00	1476.88
391.19	1469.86
391.39	1486.24
391.58	1493.26
391.78	1551.78
391.97	1584.54
392.16	1500.28
392.36	1537.73
392.55	1596.25
392.75	1554.12
392.94	1511.99
393.13	1561.14
393.33	1537.73
393.52	1577.52
393.71	1659.44
393.91	1607.95
394.10	1554.12
394.29	1664.12
394.49	1629.01
394.68	1661.78
394.88	1682.85
395.07	1685.19
395.26	1708.59
395.46	1692.21
395.65	1715.61
395.84	1799.87
396.04	1741.36
396.23	1753.06
396.42	1802.21
396.62	1809.23
396.81	1795.19
397.00	1724.97
397.19	1748.38
397.39	1813.92
397.58	1769.44
397.77	1767.10
397.97	1891.15
398.16	1898.17
398.35	1898.17
398.55	2040.95
398.74	1856.04
398.93	1923.92
399.12	1849.02
399.32	2010.52
399.51	1935.62
399.70	2038.61
399.90	2015.20
400.09	2012.86
400.28	2015.20
400.47	2026.90
400.67	2108.82
400.86	2099.46
401.05	2017.54
401.24	2094.78
401.44	2071.37
401.63	2143.93
401.82	2120.53
402.01	2148.61
402.21	2155.63
402.40	2235.21
402.59	2286.70
402.78	2237.55
402.97	2321.81
403.17	2314.79
403.36	2251.60
403.55	2373.30
403.74	2373.30
403.93	2373.30
404.13	2431.82
404.32	2420.11
404.51	2438.84
404.70	2345.22
404.89	2382.67
405.09	2413.09
405.28	2469.27
405.47	2464.58
405.66	2527.78
405.85	2581.61
406.05	2506.71
406.24	2375.64
406.43	2485.65
406.62	2651.83
406.81	2579.27
407.00	2588.63
407.20	2647.15
407.39	2626.08
407.58	2614.38
407.77	2775.88
407.96	2693.96
408.15	2855.45
408.34	2822.69
408.54	2902.26
408.73	2920.99
408.92	2773.53
409.11	2916.31
409.30	2864.82
409.49	2923.33
409.68	3077.80
409.87	3000.57
410.07	3019.29
410.26	2906.95
410.45	3075.46
410.64	3019.29
410.83	3038.02
411.02	3103.55
411.21	3145.68
411.40	3087.17
411.59	3311.86
411.78	3183.13
411.98	3304.84
412.17	3262.71
412.36	3435.91
412.55	3328.24
412.74	3417.18
412.93	3337.60
413.12	3496.76
413.31	3559.95
413.50	3442.93
413.69	3550.59
413.88	3585.70
414.07	3485.06
414.26	3496.76
414.45	3740.18
414.64	3735.50
414.83	3829.12
415.02	3700.39
415.22	3805.71
415.41	3892.31
415.60	3976.57
415.79	4032.74
415.98	3918.06
416.17	4028.06
416.36	4086.58
416.55	4124.02
416.74	4084.23
416.93	4117.00
417.12	4107.64
417.31	4163.81
417.50	4208.28
417.69	4287.86
417.88	4149.77
418.07	4234.03
418.26	4283.18
418.45	4393.19
418.64	4517.23
418.83	4486.81
419.02	4465.74
419.21	4535.96
419.39	4526.60
419.58	4468.08
419.77	4582.77
419.96	4444.68
420.15	4582.77
420.34	4652.98
420.53	4645.96
420.72	4706.82
420.91	4772.35
421.10	4800.44
421.29	4786.40
421.48	4725.54
421.67	4905.76
421.86	4798.10
422.05	4889.38
422.24	4718.52
422.43	4826.18
422.61	4802.78
422.80	4940.87
422.99	4760.65
423.18	5011.09
423.37	5008.75
423.56	4795.76
423.75	5050.88
423.94	4821.50
424.13	4671.71
424.32	4793.42
424.50	5046.20
424.69	5156.20
424.88	5055.56
425.07	5107.05
425.26	4964.28
425.45	4915.12
425.64	5013.43
425.83	4966.62
426.01	5036.83
426.20	4966.62
426.39	5139.82
426.58	5069.60
426.77	5020.45
426.96	5298.97
427.15	5018.11
427.33	5294.29
427.52	5160.88
427.71	5231.10
427.90	5104.71
428.09	5322.38
428.28	5305.99
428.46	5411.32
428.65	5430.04
428.84	5551.75
429.03	5544.73
429.22	5287.27
429.40	5338.76
429.59	5530.69
429.78	5320.04
429.97	5200.67
430.16	5416.00
430.34	5694.52
430.53	5867.72
430.72	5722.61
430.91	5647.71
431.10	5547.07
431.28	5781.12
431.47	5743.67
431.66	5818.57
431.85	5582.18
432.03	5947.30
432.22	6111.14
432.41	6036.24
432.60	6038.58
432.79	6066.67
432.97	5987.09
433.16	6104.12
433.35	5984.75
433.54	6207.10
433.72	6230.51
433.91	6108.80
434.10	6052.63
434.28	6083.05
434.47	6162.63
434.66	6258.59
434.85	6394.34
435.03	6445.84
435.22	6399.02
435.41	6471.58
435.59	6361.58
435.78	6455.20
435.97	6513.71
436.16	6466.90
436.34	6612.01
436.53	6480.94
436.72	6677.55
436.90	6649.46
437.09	6602.65
437.28	6445.84
437.46	6757.13
437.65	6750.10
437.84	6885.86
438.02	6803.94
438.21	6808.62
438.40	6895.22
438.58	6935.01
438.77	7211.19
438.96	6970.12
439.14	6963.09
439.33	7084.80
439.52	7218.21
439.70	7379.71
439.89	7396.09
440.08	7356.30
440.26	7321.20
440.45	7360.98
440.63	7328.22
440.82	7606.74
441.01	7414.82
441.19	7648.87
441.38	7779.94
441.57	7721.43
441.75	7707.38
441.94	8086.55
442.12	8002.29
442.31	8180.17
442.50	8208.26
442.68	7857.18
442.87	8070.17
443.05	8386.14
443.24	8173.15
443.43	8126.34
443.61	8308.90
443.80	8484.44
443.98	7971.86
444.17	7871.22
444.35	8215.28
444.54	8393.16
444.73	8465.72
444.91	8367.42
445.10	8454.02
445.28	8465.72
445.47	8255.07
445.65	8472.74
445.84	8620.19
446.02	8493.80
446.21	8390.82
446.39	8351.03
446.58	8580.40
446.77	8561.68
446.95	8451.67
447.14	8547.64
447.32	8463.38
447.51	8568.70
447.69	8561.68
447.88	8444.65
448.06	8421.25
448.25	8594.45
448.43	8702.11
448.62	8547.64
448.80	8669.34
448.99	8875.31
449.17	8688.07
449.36	8638.92
449.54	8769.99
449.73	8938.51
449.91	9004.04
450.10	9043.83
450.28	9006.38
450.46	9174.90
450.65	9013.40
450.83	9088.30
451.02	9046.17
451.20	9179.58
451.39	9179.58
451.57	9322.35
451.76	9139.79
451.94	9163.20
452.13	9488.53
452.31	9490.87
452.49	9238.09
452.68	9551.73
452.86	9727.27
453.05	9692.16
453.23	9621.94
453.42	9617.26
453.60	9397.25
453.78	9486.19
453.97	9528.32
454.15	9664.07
454.34	9589.17
454.52	9614.92
454.70	9678.12
454.89	9841.95
455.07	9792.80
455.26	9984.73
455.44	9928.55
455.62	9954.30
455.81	9914.51
455.99	10073.67
456.17	10190.69
456.36	10127.50
456.54	10111.11
456.73	10153.24
456.91	10462.19
457.09	10253.89
457.28	10518.37
457.46	10361.55
457.64	10532.41
457.83	10633.05
458.01	10611.99
458.19	10703.27
458.38	10565.18
458.56	10588.58
458.74	10614.33
458.93	10684.55
459.11	10972.43
459.29	10789.87
459.48	10932.64
459.66	10810.93
459.84	11049.67
460.03	11063.71
460.21	10974.77
460.39	11194.78
460.57	10946.69
460.76	10953.71
460.94	11201.80
461.12	11339.90
461.31	11220.53
461.49	11105.84
461.67	11131.59
461.85	11637.14
462.04	11332.87
462.22	11417.13
462.40	11550.54
462.59	11573.95
462.77	11447.56
462.95	11873.54
463.13	11960.14
463.32	11798.64
463.50	11796.30
463.68	11829.07
463.86	11686.29
464.05	11943.75
464.23	11604.38
464.41	11985.88
464.59	11662.89
464.78	12098.23
464.96	11880.56
465.14	11836.09
465.32	12114.61
465.50	12222.28
465.69	12423.56
465.87	12238.66
466.05	12226.96
466.23	12372.07
466.41	12367.39
466.60	12655.28
466.78	12348.67
466.96	12091.21
467.14	12362.71
467.32	12507.82
467.51	12512.50
467.69	12109.93
467.87	12552.29
468.05	12765.28
468.23	12564.00
468.41	12713.79
468.60	12868.27
468.78	12915.08
468.96	12933.80
469.14	12973.59
469.32	13165.51
469.50	12713.79
469.69	13041.46
469.87	13135.09
470.05	13303.60
470.23	13380.84
470.41	13319.99
470.59	13556.38
470.77	13193.60
470.95	13254.45
471.14	13579.79
471.32	13064.87
471.50	13610.22
471.68	13905.12
471.86	13729.58
472.04	13760.01
472.22	14251.52
472.40	13926.19
472.58	14066.62
472.77	14150.88
472.95	14295.99
473.13	14721.97
473.31	14246.84
473.49	14146.20
473.67	14251.52
473.85	14352.16
474.03	14623.67
474.21	14633.03
474.39	14963.04
474.57	14897.51
474.75	14930.28
474.93	15236.89
475.12	15042.62
475.30	15169.01
475.48	15262.63
475.66	15145.61
475.84	15091.77
476.02	15662.86
476.20	15232.21
476.38	15679.25
476.56	16245.66
476.74	16147.36
476.92	15847.77
477.10	16039.69
477.28	16496.10
477.46	16217.57
477.64	16449.28
477.82	16423.54
478.00	16987.61
478.18	16992.29
478.36	16971.22
478.54	17240.39
478.72	17221.66
478.90	17345.71
479.08	17591.47
479.26	17624.23
479.44	17568.06
479.62	17862.97
479.80	18059.57
479.98	18331.08
480.16	18855.36
480.34	18530.02
480.52	18733.65
480.70	18668.11
480.88	18630.66
481.06	18700.88
481.24	18991.11
481.41	19562.20
481.59	19484.96
481.77	19522.41
481.95	19627.73
482.13	19683.91
482.31	20264.36
482.49	20507.77
482.67	20271.38
482.85	20638.84
483.03	20910.35
483.21	21083.55
483.39	21249.72
483.57	21097.59
483.74	21242.70
483.92	21270.79
484.10	21294.19
484.28	21460.37
484.46	22291.26
484.64	22574.47
484.82	22302.96
485.00	22487.87
485.18	22745.33
485.35	23278.97
485.53	22963.00
485.71	23051.94
485.89	23498.98
486.07	23166.62
486.25	23711.97
486.43	23828.99
486.61	24027.94
486.78	24285.40
486.96	24156.67
487.14	24411.79
487.32	24973.52
487.50	24664.57
487.68	24959.47
487.85	25331.62
488.03	25883.98
488.21	25834.83
488.39	26209.32
488.57	26298.26
488.75	26450.39
488.92	26361.45
489.10	26902.12
489.28	26876.37
489.46	27435.76
489.64	27335.12
489.81	27859.40
489.99	27915.57
490.17	27812.59
490.35	28610.71
490.53	28231.54
490.70	28884.55
490.88	28510.07
491.06	29219.25
491.24	29032.00
491.41	29113.92
491.59	29867.58
491.77	29530.54
491.95	29766.93
492.13	29898.00
492.30	29912.05
492.48	30195.25
492.66	30373.13
492.84	30696.13
493.01	31131.47
493.19	30764.00
493.37	31379.56
493.54	31171.25
493.72	32088.74
493.90	31981.08
494.08	31709.58
494.25	32011.51
494.43	32173.00
494.61	32205.77
494.79	32692.60
494.96	32718.35
495.14	32999.21
495.32	33273.06
495.49	33684.99
495.67	33764.57
495.85	33895.64
496.02	34249.06
496.20	34117.99
496.38	34668.02
496.55	34106.29
496.73	34995.69
496.91	34925.47
497.09	34859.94
497.26	35367.84
497.44	35342.09
497.62	35824.24
497.79	35931.90
497.97	35421.67
498.14	36378.95
498.32	35948.29
498.50	36231.49
498.67	37432.19
498.85	36458.52
499.03	36439.80
499.20	37474.32
499.38	37329.20
499.56	37425.17
499.73	37322.18
499.91	37675.60
500.08	37944.76
500.26	37537.51
500.44	38024.34
500.61	38349.68
500.79	37794.97
500.97	38471.39
501.14	39058.86
501.32	38923.11
501.49	38733.53
501.67	38852.89
501.84	39168.87
502.02	39309.30
502.20	39129.08
502.37	39395.90
502.55	39571.44
502.72	39592.50
502.90	40006.78
503.07	39756.34
503.25	40280.62
503.43	39632.29
503.60	40737.02
503.78	40521.69
503.95	40751.07
504.13	40886.82
504.30	41350.24
504.48	40744.05
504.65	41151.30
504.83	40959.38
505.01	41507.06
505.18	41581.96
505.36	41682.60
505.53	41621.75
505.71	42305.18
505.88	42181.13
506.06	41986.87
506.23	42014.96
506.41	41771.54
506.58	42536.90
506.76	42588.39
506.93	43044.79
507.11	42263.05
507.28	42506.47
507.46	43374.81
507.63	43058.84
507.81	43356.08
507.98	43133.73
508.16	43430.98
508.33	43711.84
508.50	43873.34
508.68	44032.50
508.85	44231.44
509.03	43721.21
509.20	44149.53
509.38	44294.64
509.55	45191.06
509.73	44601.25
509.90	44727.64
510.08	44694.87
510.25	44872.75
510.42	44954.67
510.60	45914.29
510.77	45221.49
510.95	45352.56
511.12	45340.86
511.30	45481.29
511.47	45654.49
511.64	45537.46
511.82	45769.18
511.99	45668.53
512.17	46057.06
512.34	46199.83
512.51	46553.26
512.69	46775.61
512.86	46305.16
513.04	47079.88
513.21	46916.04
513.38	46892.63
513.56	47290.52
513.73	47079.88
513.90	47522.24
514.08	47138.39
514.25	47484.79
514.43	47618.20
514.60	47899.06
514.77	47971.62
514.95	48058.22
515.12	48177.59
515.29	47639.26
515.47	48238.44
515.64	48397.60
515.81	48402.28
515.99	48067.58
516.16	48273.55
516.33	48339.08
516.51	48896.13
516.68	48563.78
516.85	48512.28
517.03	49324.45
517.20	48954.64
517.37	48790.81
517.54	49268.28
517.72	49223.81
517.89	49034.22
518.06	49441.48
518.24	49532.76
518.41	49291.68
518.58	49382.96
518.75	49212.10
518.93	49631.06
519.10	49900.22
519.27	50169.38
519.45	50026.61
519.62	49928.31
519.79	50075.76
519.96	50223.22
520.14	50529.83
520.31	50241.94
520.48	50656.21
520.65	50443.23
520.83	50714.73
521.00	50555.57
521.17	50756.86
521.34	50890.27
521.52	51194.54
521.69	50747.50
521.86	51180.49
522.03	51341.99
522.20	51351.35
522.38	51786.69
522.55	51381.78
522.72	51386.46
522.89	51709.46
523.07	51772.65
523.24	51952.87
523.41	51770.31
523.58	51739.88
523.75	51889.68
523.92	52079.26
524.10	52051.17
524.27	52570.77
524.44	52451.41
524.61	52196.29
524.78	52205.65
524.96	52371.83
525.13	52247.78
525.30	52676.10
525.47	52769.72
525.64	52975.69
525.81	53024.84
525.98	52865.68
526.16	52596.52
526.33	52935.90
526.50	53247.19
526.67	53013.13
526.84	53125.48
527.01	53027.18
527.18	53279.96
527.36	53237.83
527.53	53027.18
527.70	53670.82
527.87	53579.54
528.04	53394.64
528.21	53404.00
528.38	53511.67
528.55	53621.67
528.72	53663.80
528.89	53616.99
529.07	53382.94
529.24	53588.91
529.41	54148.29
529.58	54017.22
529.75	53846.36
529.92	54017.22
530.09	54150.63
530.26	54185.74
530.43	54073.40
530.60	54033.61
530.77	53886.15
530.94	54192.76
531.11	54482.99
531.28	54284.04
531.46	54431.50
531.63	54539.16
531.80	54417.46
531.97	54550.87
532.14	54518.10
532.31	54576.61
532.48	54527.46
532.65	54663.21
532.82	54761.51
532.99	55011.95
533.16	54831.73
533.33	55119.62
533.50	55171.11
533.67	54838.75
533.84	54923.01
534.01	54967.48
534.18	55203.88
534.35	55341.97
534.52	55220.26
534.69	55430.91
534.86	55494.10
535.03	55253.03
535.20	55356.01
535.37	55618.15
535.54	55592.40
535.71	55505.80
535.88	55524.53
536.05	55681.34
536.22	55948.17
536.38	55927.10
536.55	55686.03
536.72	55978.59
536.89	55796.03
537.06	55852.20
537.23	56203.28
537.40	56069.87
537.57	55613.47
537.74	55927.10
537.91	56184.56
538.08	56198.60
538.25	55629.85
538.42	55945.83
538.59	56423.29
538.75	56144.77
538.92	56336.69
539.09	56545.00
539.26	56254.78
539.43	56362.44
539.60	56214.99
539.77	56442.02
539.94	56535.64
540.11	56463.08
540.28	56608.20
540.44	56505.21
540.61	56521.60
540.78	56505.21
540.95	56446.70
541.12	56535.64
541.29	56566.07
541.46	56554.36
541.62	56704.16
541.79	56807.14
541.96	56671.39
542.13	56617.56
542.30	57031.83
542.47	56783.74
542.63	56919.49
542.80	57146.52
542.97	57296.31
543.14	57242.48
543.31	57125.46
543.48	57450.79
543.64	57811.23
543.81	57336.10
543.98	57535.05
544.15	57492.92
544.32	57645.05
544.48	57851.02
544.65	57616.97
544.82	57558.45
544.99	57588.88
545.16	57647.39
545.32	57521.01
545.49	57968.05
545.66	57731.65
545.83	57731.65
546.00	57939.96
546.16	57888.47
546.33	57982.09
546.50	57762.08
546.67	58045.29
546.83	57694.21
547.00	58096.78
547.17	57640.37
547.34	58068.69
547.50	58358.92
547.67	58171.67
547.84	57979.75
548.00	58150.61
548.17	58251.25
548.34	58183.38
548.51	58691.27
548.67	58286.36
548.84	58258.27
549.01	58028.90
549.18	58377.64
549.34	58260.62
549.51	58482.97
549.68	58637.44
549.84	58599.99
550.01	58637.44
550.18	58515.73
550.34	58330.83
550.51	58812.98
550.68	58412.75
550.84	58314.45
551.01	58719.36
551.18	58646.80
551.34	58433.81
551.51	58859.79
551.68	58829.37
551.84	58639.78
552.01	58848.09
552.18	58894.90
552.34	58522.76
552.51	58656.17
552.68	58684.25
552.84	58810.64
553.01	59049.38
553.18	58962.78
553.34	58997.88
553.51	58997.88
553.67	58934.69
553.84	59271.73
554.01	59255.34
554.17	59168.74
554.34	59180.45
554.51	59215.55
554.67	59423.86
554.84	59231.94
555.00	59014.27
555.17	59030.65
555.33	59196.83
555.50	59358.33
555.67	59047.04
555.83	58930.01
556.00	59348.96
556.16	59367.69
556.33	59430.88
556.50	59264.70
556.66	59395.77
556.83	59365.35
556.99	59646.21
557.16	59786.64
557.32	59540.89
557.49	59868.56
557.65	59531.53
557.82	59517.48
557.98	59512.80
558.15	59533.87
558.32	59561.95
558.48	59620.47
558.65	59669.62
558.81	59697.70
558.98	59625.15
559.14	59702.38
559.31	59721.11
559.47	59882.61
559.64	59618.13
559.80	59877.93
559.97	59913.03
560.13	59599.40
560.30	59957.50
560.46	59849.84
560.63	59852.18
560.79	59772.60
560.96	60154.11
561.12	59826.43
561.29	59985.59
561.45	59891.97
561.61	59948.14
561.78	59985.59
561.94	59700.04
562.11	60107.30
562.27	59950.48
562.44	60079.21
562.60	60236.03
562.77	60184.54
562.93	59831.11
563.10	60381.14
563.26	59873.24
563.42	60261.77
563.59	60027.72
563.75	60210.28
563.92	60224.32
564.08	60212.62
564.24	60280.50
564.41	60264.11
564.57	60360.08
564.74	60322.63
564.90	60411.57
565.07	60477.10
565.23	60259.43
565.39	60158.79
565.56	60371.78
565.72	59983.25
565.88	60294.54
566.05	60348.37
566.21	60306.24
566.38	60322.63
566.54	60409.23
566.70	60573.06
566.87	60479.44
567.03	60308.58
567.19	60563.70
567.36	60530.93
567.52	60509.87
567.68	60704.13
567.85	60460.72
568.01	60669.03
568.17	60374.12
568.34	60523.91
568.50	60540.30
568.66	60500.51
568.83	60404.55
568.99	60570.72
569.15	60449.02
569.32	60530.93
569.48	60509.87
569.64	60481.78
569.81	60544.98
569.97	60591.79
570.13	60573.06
570.30	60530.93
570.46	60685.41
570.62	60762.65
570.78	60715.84
570.95	60619.88
571.11	60879.67
571.27	60776.69
571.43	60640.94
571.60	60666.69
571.76	60729.88
571.92	60743.92
572.09	60631.58
572.25	60769.67
572.41	60750.94
572.57	60699.45
572.74	60804.78
572.90	60802.44
573.06	60748.60
573.22	60729.88
573.38	60844.57
573.55	60755.63
573.71	60891.38
573.87	60779.03
574.03	60753.29
574.20	60905.42
574.36	60687.75
574.52	60846.91
574.68	60999.04
574.84	60858.61
575.01	60860.95
575.17	60729.88
575.33	60874.99
575.49	60746.26
575.65	60907.76
575.82	60907.76
575.98	61029.47
576.14	61183.94
576.30	61069.26
576.46	60750.94
576.62	60992.02
576.79	60783.71
576.95	61024.79
577.11	60865.63
577.27	61132.45
577.43	60959.25
577.59	60860.95
577.75	60907.76
577.92	60989.68
578.08	61048.19
578.24	61010.74
578.40	61148.84
578.56	60963.93
578.72	61160.54
578.88	61069.26
579.04	61055.21
579.21	61069.26
579.37	61097.34
579.53	61090.32
579.69	60933.51
579.85	60830.52
580.01	61022.45
580.17	60872.65
580.33	61069.26
580.49	61251.82
580.65	61134.79
580.82	61043.51
580.98	60963.93
581.14	60884.36
581.30	61073.94
581.46	60977.98
581.62	61279.91
581.78	60996.70
581.94	61235.44
582.10	61113.73
582.26	61146.50
582.42	61162.88
582.58	61141.81
582.74	61041.17
582.90	61080.96
583.06	61169.90
583.22	60933.51
583.38	61003.72
583.54	61223.73
583.70	61080.96
583.86	61251.82
584.02	61008.40
584.18	61130.11
584.34	61022.45
584.50	61076.28
584.66	61057.56
584.82	61029.47
584.98	61167.56
585.14	61282.25
585.30	60898.40
585.46	61195.65
585.62	61144.16
585.78	61073.94
585.94	61085.64
586.10	61167.56
586.26	61249.48
586.42	61347.78
586.58	61282.25
586.74	61043.51
586.90	61195.65
587.06	61080.96
587.22	61385.23
587.38	61251.82
587.54	61333.74
587.70	61340.76
587.86	61151.18
588.02	61392.25
588.18	61247.14
588.34	61127.77
588.49	61160.54
