SpectraSuite Data File
++++++++++++++++++++++++++++++++++++
Date: Fri Oct 25 11:34:02 EDT 2013
User: price-jones
Dark Spectrum Present: No
Reference Spectrum Present: No
Number of Sampled Component Spectra: 1
Spectrometers: USB2+H05261
Integration Time (usec): 100000 (USB2+H05261)
Spectra Averaged: 1 (USB2+H05261)
Boxcar Smoothing: 0 (USB2+H05261)
Correct for Electrical Dark: No (USB2+H05261)
Strobe/Lamp Enabled: No (USB2+H05261)
Correct for Detector Non-linearity: No (USB2+H05261)
Correct for Stray Light: No (USB2+H05261)
Number of Pixels in Processed Spectrum: 2048
>>>>>Begin Processed Spectral Data<<<<<
365.73	290.23
365.92	290.23
366.12	290.23
366.32	238.73
366.52	224.69
366.72	234.05
366.91	149.79
367.11	220.01
367.31	142.77
367.51	203.63
367.70	205.97
367.90	128.73
368.10	217.67
368.30	152.13
368.49	208.31
368.69	194.26
368.89	210.65
369.09	227.03
369.28	236.39
369.48	191.92
369.68	252.78
369.87	269.16
370.07	203.63
370.27	231.71
370.47	297.25
370.66	503.22
370.86	521.94
371.06	568.75
371.25	608.54
371.45	557.05
371.65	589.82
371.84	596.84
372.04	442.36
372.24	629.60
372.44	578.11
372.63	603.86
372.83	559.39
373.03	603.86
373.22	608.54
373.42	650.67
373.62	613.22
373.81	622.58
374.01	599.18
374.21	667.05
374.40	622.58
374.60	667.05
374.79	578.11
374.99	620.24
375.19	755.99
375.38	709.18
375.58	568.75
375.78	615.56
375.97	755.99
376.17	723.23
376.37	669.39
376.56	671.73
376.76	667.05
376.95	643.65
377.15	683.44
377.35	638.97
377.54	653.01
377.74	709.18
377.93	685.78
378.13	664.71
378.33	678.76
378.52	786.42
378.72	718.54
378.91	807.48
379.11	695.14
379.31	683.44
379.50	718.54
379.70	800.46
379.89	744.29
380.09	655.35
380.28	711.52
380.48	734.93
380.68	741.95
380.87	711.52
381.07	725.57
381.26	695.14
381.46	739.61
381.65	819.19
381.85	753.65
382.04	723.23
382.24	716.20
382.43	765.36
382.63	779.40
382.83	763.01
383.02	802.80
383.22	798.12
383.41	837.91
383.61	826.21
383.80	786.42
384.00	812.17
384.19	734.93
384.39	793.44
384.58	786.42
384.78	781.74
384.97	837.91
385.17	786.42
385.36	807.48
385.56	814.51
385.75	788.76
385.95	781.74
386.14	903.45
386.34	819.19
386.53	896.43
386.72	905.79
386.92	924.51
387.11	896.43
387.31	889.40
387.50	751.31
387.70	866.00
387.89	856.64
388.09	880.04
388.28	929.19
388.48	976.00
388.67	915.15
388.86	901.11
389.06	952.60
389.25	985.37
389.45	936.21
389.64	915.15
389.84	994.73
390.03	980.68
390.22	926.85
390.42	997.07
390.61	987.71
390.81	912.81
391.00	997.07
391.19	1027.50
391.39	994.73
391.58	971.32
391.78	987.71
391.97	936.21
392.16	1041.54
392.36	1046.22
392.55	1071.97
392.75	1018.13
392.94	1032.18
393.13	1008.77
393.33	1025.15
393.52	1081.33
393.71	1074.31
393.91	1050.90
394.10	1048.56
394.29	1086.01
394.49	1055.58
394.68	1132.82
394.88	1118.78
395.07	1146.86
395.26	1067.28
395.46	1071.97
395.65	1149.20
395.84	1156.22
396.04	1233.46
396.23	1221.76
396.42	1111.75
396.62	1151.54
396.81	1139.84
397.00	1252.19
397.19	1184.31
397.39	1142.18
397.58	1214.74
397.77	1252.19
397.97	1294.32
398.16	1320.06
398.35	1357.51
398.55	1233.46
398.74	1261.55
398.93	1416.02
399.12	1212.40
399.32	1203.04
399.51	1139.84
399.70	1301.34
399.90	1334.11
400.09	1296.66
400.28	1397.30
400.47	1348.15
400.67	1474.54
400.86	1329.42
401.05	1418.36
401.24	1399.64
401.44	1444.11
401.63	1493.26
401.82	1434.75
402.01	1380.92
402.21	1481.56
402.40	1451.13
402.59	1467.52
402.78	1486.24
402.97	1479.22
403.17	1446.45
403.36	1490.92
403.55	1497.94
403.74	1516.67
403.93	1605.61
404.13	1542.41
404.32	1645.40
404.51	1563.48
404.70	1605.61
404.89	1579.86
405.09	1516.67
405.28	1652.42
405.47	1643.06
405.66	1722.63
405.85	1727.32
406.05	1722.63
406.24	1722.63
406.43	1687.53
406.62	1806.89
406.81	1778.81
407.00	1799.87
407.20	1727.32
407.39	1720.29
407.58	1809.23
407.77	1809.23
407.96	1830.30
408.15	1856.04
408.34	1823.28
408.54	1919.24
408.73	1905.20
408.92	1856.04
409.11	2008.18
409.30	1921.58
409.49	2052.65
409.68	1961.37
409.87	1923.92
410.07	2050.31
410.26	2045.63
410.45	1982.43
410.64	2008.18
410.83	2036.27
411.02	2118.18
411.21	2129.89
411.40	2160.31
411.59	2113.50
411.78	2244.57
411.98	2232.87
412.17	2200.10
412.36	2265.64
412.55	2216.49
412.74	2228.19
412.93	2167.34
413.12	2176.70
413.31	2438.84
413.50	2356.92
413.69	2359.26
413.88	2476.29
414.07	2410.75
414.26	2324.15
414.45	2525.44
414.64	2534.80
414.83	2607.36
415.02	2464.58
415.22	2546.50
415.41	2738.43
415.60	2670.55
415.79	2612.04
415.98	2705.66
416.17	2874.18
416.36	2654.17
416.55	2775.88
416.74	2740.77
416.93	2605.02
417.12	2738.43
417.31	2773.53
417.50	2822.69
417.69	2869.50
417.88	2904.60
418.07	2981.84
418.26	2899.92
418.45	2977.16
418.64	3016.95
418.83	3030.99
419.02	2958.44
419.21	3014.61
419.39	3021.63
419.58	3082.49
419.77	2951.42
419.96	3117.59
420.15	3155.04
420.34	3077.80
420.53	3143.34
420.72	3192.49
420.91	3171.43
421.10	3225.26
421.29	3077.80
421.48	3229.94
421.67	3115.25
421.86	3192.49
422.05	3325.90
422.24	3365.69
422.43	3197.17
422.61	3351.65
422.80	3344.63
422.99	3489.74
423.18	3396.12
423.37	3382.07
423.56	3342.28
423.75	3339.94
423.94	3335.26
424.13	3239.30
424.32	3115.25
424.50	3358.67
424.69	3421.86
424.88	3520.17
425.07	3328.24
425.26	3229.94
425.45	3454.63
425.64	3433.57
425.83	3421.86
426.01	3506.12
426.20	3339.94
426.39	3344.63
426.58	3370.37
426.77	3391.44
426.96	3370.37
427.15	3471.01
427.33	3527.19
427.52	3368.03
427.71	3695.71
427.90	3536.55
428.09	3602.08
428.28	3705.07
428.46	3681.66
428.65	3550.59
428.84	3808.05
429.03	3735.50
429.22	3646.55
429.40	3735.50
429.59	3751.88
429.78	3641.87
429.97	3545.91
430.16	3688.68
430.34	3735.50
430.53	3882.95
430.72	3929.76
430.91	3913.38
431.10	3606.77
431.28	3969.55
431.47	3976.57
431.66	3894.65
431.85	3838.48
432.03	4114.66
432.22	3990.61
432.41	3932.10
432.60	4030.40
432.79	4091.26
432.97	4173.18
433.16	4231.69
433.35	4023.38
433.54	4046.79
433.72	4079.55
433.91	4166.15
434.10	4074.87
434.28	4095.94
434.47	4109.98
434.66	4304.25
434.85	4283.18
435.03	4241.05
435.22	4163.81
435.41	4367.44
435.59	4311.27
435.78	4397.87
435.97	4374.46
436.16	4437.66
436.34	4339.35
436.53	4566.39
436.72	4397.87
436.90	4402.55
437.09	4428.29
437.28	4409.57
437.46	4416.59
437.65	4479.79
437.84	4643.62
438.02	4519.57
438.21	4512.55
438.40	4477.44
438.58	4592.13
438.77	4847.25
438.96	4643.62
439.14	4889.38
439.33	4770.01
439.52	4777.03
439.70	5004.07
439.89	4901.08
440.08	5029.81
440.26	5036.83
440.45	5048.54
440.63	4947.89
440.82	4978.32
441.01	4898.74
441.19	5203.01
441.38	5188.97
441.57	5200.67
441.75	5085.98
441.94	5198.33
442.12	5371.53
442.31	5437.06
442.50	5263.86
442.68	5242.80
442.87	5406.64
443.05	5462.81
443.24	5537.71
443.43	5369.19
443.61	5528.35
443.80	5556.43
443.98	5305.99
444.17	5313.02
444.35	5373.87
444.54	5593.88
444.73	5701.54
444.91	5685.16
445.10	5636.01
445.28	5598.56
445.47	5607.92
445.65	5565.79
445.84	5654.73
446.02	5715.59
446.21	5750.70
446.39	5542.39
446.58	5582.18
446.77	5514.30
446.95	5628.99
447.14	5727.29
447.32	5671.12
447.51	5839.64
447.69	5603.24
447.88	5767.08
448.06	5731.97
448.25	5692.18
448.43	5813.89
448.62	5762.40
448.80	5767.08
448.99	5638.35
449.17	5823.25
449.36	5905.17
449.54	5940.28
449.73	5874.74
449.91	6146.25
450.10	5956.66
450.28	5989.43
450.46	5982.41
450.65	5994.11
450.83	5884.11
451.02	6012.84
451.20	6094.76
451.39	6118.16
451.57	5959.00
451.76	6092.41
451.94	6054.97
452.13	6106.46
452.31	6106.46
452.49	6108.80
452.68	6155.61
452.86	6305.40
453.05	6277.32
453.23	6363.92
453.42	6331.15
453.60	6167.31
453.78	6279.66
453.97	6319.45
454.15	6324.13
454.34	6361.58
454.52	6387.32
454.70	6548.82
454.89	6469.24
455.07	6576.91
455.26	6527.75
455.44	6567.54
455.62	6597.97
455.81	6401.37
455.99	6890.54
456.17	6768.83
456.36	6590.95
456.54	6665.85
456.73	6703.29
456.91	6953.73
457.09	6817.98
457.28	7023.95
457.46	6867.13
457.64	6841.39
457.83	7047.35
458.01	6810.96
458.19	6993.52
458.38	7194.81
458.56	7033.31
458.74	7070.76
458.93	6993.52
459.11	7035.65
459.29	7204.17
459.48	7080.12
459.66	7166.72
459.84	7300.13
460.03	7276.73
460.21	7286.09
460.39	7330.56
460.57	7513.12
460.76	7363.33
460.94	7445.24
461.12	7543.55
461.31	7412.48
461.49	7445.24
461.67	7346.94
461.85	7513.12
462.04	7606.74
462.22	7796.32
462.40	7662.91
462.59	7686.32
462.77	7583.34
462.95	7648.87
463.13	7815.05
463.32	7644.19
463.50	7669.94
463.68	7850.16
463.86	7691.00
464.05	7808.03
464.23	7726.11
464.41	7751.85
464.59	7751.85
464.78	8046.76
464.96	7967.18
465.14	7709.72
465.32	7873.56
465.50	8074.85
465.69	8138.04
465.87	7843.14
466.05	7955.48
466.23	8109.96
466.41	8109.96
466.60	8224.64
466.78	7859.52
466.96	8093.57
467.14	8280.82
467.32	8236.35
467.51	8112.30
467.69	7974.21
467.87	8046.76
468.05	8243.37
468.23	8198.90
468.41	8116.98
468.60	8168.47
468.78	8297.20
468.96	8372.10
469.14	8493.80
469.32	8662.32
469.50	8528.91
469.69	8557.00
469.87	8737.22
470.05	8627.21
470.23	8645.94
470.41	8828.50
470.59	8812.12
470.77	8538.27
470.95	8793.39
471.14	8849.57
471.32	8650.62
471.50	8947.87
471.68	8809.78
471.86	8870.63
472.04	8968.93
472.22	9263.84
472.40	8877.65
472.58	9242.78
472.77	9071.92
472.95	9165.54
473.13	9418.32
473.31	9240.44
473.49	9291.93
473.67	9502.58
473.85	9432.36
474.03	9668.75
474.21	9591.52
474.39	9722.59
474.57	9687.48
474.75	9851.31
474.93	9909.83
475.12	9848.97
475.30	9841.95
475.48	9968.34
475.66	9902.81
475.84	9755.35
476.02	10134.52
476.20	9912.17
476.38	10314.74
476.56	10682.20
476.74	10476.24
476.92	10263.25
477.10	10244.52
477.28	10707.95
477.46	10703.27
477.64	10523.05
477.82	10525.39
478.00	11073.07
478.18	10939.66
478.36	11007.54
478.54	11129.25
478.72	11257.98
478.90	11297.77
479.08	11428.84
479.26	11529.48
479.44	11714.38
479.62	11473.31
479.80	11618.42
479.98	11985.88
480.16	11953.12
480.34	12046.74
480.52	11852.47
480.70	12037.38
480.88	12180.15
481.06	12159.08
481.24	12248.02
481.41	12409.52
481.59	12402.50
481.77	12659.96
481.95	12826.14
482.13	13036.78
482.31	12877.63
482.49	13128.06
482.67	12966.57
482.85	13312.97
483.03	13266.16
483.21	13474.46
483.39	13469.78
483.57	13434.68
483.74	13886.40
483.92	14132.15
484.10	13731.92
484.28	14263.22
484.46	14293.65
484.64	14448.13
484.82	14321.74
485.00	14560.47
485.18	14574.52
485.35	15091.77
485.53	14834.32
485.71	14801.55
485.89	15112.84
486.07	15077.73
486.25	15325.83
486.43	15377.32
486.61	15513.07
486.78	15510.73
486.96	15468.60
487.14	15899.26
487.32	15690.95
487.50	15985.86
487.68	16301.83
487.85	16517.16
488.03	16472.69
488.21	16699.72
488.39	16585.04
488.57	16987.61
488.75	16936.12
488.92	17116.34
489.10	17015.69
489.28	17188.89
489.46	17532.95
489.64	17467.42
489.81	17869.99
489.99	17977.65
490.17	17778.71
490.35	18185.96
490.53	18214.05
490.70	18331.08
490.88	18347.46
491.06	18487.89
491.24	18499.59
491.41	19007.49
491.59	19124.52
491.77	19115.16
491.95	18916.21
492.13	19281.33
492.30	19566.88
492.48	19381.98
492.66	19475.60
492.84	19349.21
493.01	20051.37
493.19	19758.80
493.37	19838.38
493.54	20357.98
493.72	20416.49
493.90	20135.63
494.08	20318.19
494.25	20589.69
494.43	20498.41
494.61	20496.07
494.79	20795.66
494.96	20723.10
495.14	21111.63
495.32	21326.96
495.49	21317.60
495.67	21357.39
495.85	21771.66
496.02	22115.72
496.20	21982.31
496.38	22207.00
496.55	22092.32
496.73	22965.34
496.91	22478.50
497.09	22450.42
497.26	22651.70
497.44	22532.34
497.62	22721.92
497.79	23021.51
497.97	22871.72
498.14	23206.41
498.32	23515.36
498.50	23302.37
498.67	23669.84
498.85	23557.49
499.03	23747.08
499.20	23665.16
499.38	23770.48
499.56	23939.00
499.73	24032.62
499.91	24243.27
500.08	24666.91
500.26	24313.48
500.44	24311.14
500.61	24273.70
500.79	24517.11
500.97	24788.61
501.14	25060.12
501.32	24879.89
501.49	25048.41
501.67	24760.53
501.84	25081.18
502.02	25245.02
502.20	25209.91
502.37	25439.28
502.55	25043.73
502.72	25720.15
502.90	25692.06
503.07	25305.87
503.25	25546.95
503.43	25298.85
503.60	26043.14
503.78	25986.97
503.95	26155.49
504.13	26232.72
504.30	26342.73
504.48	26249.11
504.65	26567.42
504.83	26689.13
505.01	26827.22
505.18	26625.93
505.36	27096.38
505.53	26792.11
505.71	26850.63
505.88	27091.70
506.06	27112.77
506.23	27005.10
506.41	26953.61
506.58	27117.45
506.76	27166.60
506.93	27740.03
507.11	27410.01
507.28	27536.40
507.46	27597.26
507.63	27917.91
507.81	28158.99
507.98	28098.13
508.16	27683.86
508.33	28116.86
508.50	28086.43
508.68	28175.37
508.85	28442.19
509.03	28580.28
509.20	28498.36
509.38	29008.60
509.55	28980.51
509.73	28943.06
509.90	28711.35
510.08	28959.45
510.25	29191.16
510.42	29277.76
510.60	29177.12
510.77	29263.72
510.95	29516.50
511.12	29549.26
511.30	29343.30
511.47	29532.88
511.64	29310.53
511.82	30010.35
511.99	29635.86
512.17	30019.71
512.34	30286.53
512.51	30373.13
512.69	30459.73
512.86	30462.07
513.04	30536.97
513.21	30382.49
513.38	30600.16
513.56	30927.84
513.73	30394.20
513.90	30733.57
514.08	30960.61
514.25	31007.42
514.43	31337.43
514.60	31161.89
514.77	31103.38
514.95	31318.71
515.12	31023.80
515.29	31271.90
515.47	31421.69
515.64	31583.19
515.81	31229.77
515.99	31892.14
516.16	32023.21
516.33	31786.82
516.51	31992.78
516.68	32023.21
516.85	31955.33
517.03	32137.90
517.20	32615.37
517.37	32151.94
517.54	32290.03
517.72	32584.94
517.89	32329.82
518.06	32486.64
518.24	32416.42
518.41	32322.80
518.58	32624.73
518.75	32570.90
518.93	32889.21
519.10	32905.59
519.27	32980.49
519.45	33134.96
519.62	33303.48
519.79	33223.90
519.96	32835.38
520.14	33167.73
520.31	32945.38
520.48	33652.22
520.65	33553.92
520.83	34272.46
521.00	33565.62
521.17	33893.30
521.34	34361.40
521.52	33970.54
521.69	34307.57
521.86	34279.49
522.03	33886.28
522.20	34281.83
522.38	34909.09
522.55	34476.09
522.72	34471.41
522.89	34333.32
523.07	34974.63
523.24	34600.14
523.41	34574.39
523.58	34555.67
523.75	34815.47
523.92	34768.66
524.10	34927.81
524.27	35164.21
524.44	35386.56
524.61	35779.77
524.78	35332.73
524.96	35505.93
525.13	35489.54
525.30	35845.30
525.47	35491.88
525.64	35754.02
525.81	35660.40
525.98	35732.96
526.16	35828.92
526.33	35625.29
526.50	36282.98
526.67	36133.19
526.84	36147.23
527.01	36517.04
527.18	35761.05
527.36	36051.27
527.53	36088.72
527.70	36488.95
527.87	36680.88
528.04	36493.63
528.21	36472.57
528.38	36465.55
528.55	37076.43
528.72	36631.72
528.89	36781.52
529.07	36713.64
529.24	36900.89
529.41	37378.36
529.58	36730.03
529.75	36662.15
529.92	37488.36
530.09	37703.69
530.26	37368.99
530.43	37518.79
530.60	36708.96
530.77	37542.19
530.94	37378.36
531.11	37095.15
531.28	37523.47
531.46	37394.74
531.63	37317.50
531.80	37364.31
531.97	37785.61
532.14	37752.84
532.31	37418.14
532.48	37935.40
532.65	38012.64
532.82	37773.91
532.99	38057.11
533.16	38141.37
533.33	37617.09
533.50	37968.17
533.67	38363.72
533.84	38115.62
534.01	38452.66
534.18	38192.86
534.35	38813.10
534.52	38644.59
534.69	38457.34
534.86	38253.72
535.03	38246.69
535.20	38778.00
535.37	39096.31
535.54	39112.69
535.71	38770.97
535.88	38677.35
536.05	39271.85
536.22	38932.47
536.38	38906.73
536.55	38876.30
536.72	39501.22
536.89	39028.43
537.06	39445.05
537.23	39421.64
537.40	39299.94
537.57	39325.68
537.74	39175.89
537.91	39445.05
538.08	39674.42
538.25	39545.69
538.42	39695.49
538.59	39847.62
538.75	39639.31
538.92	40044.23
539.09	39887.41
539.26	39716.55
539.43	39653.36
539.60	39938.90
539.77	40357.86
539.94	40130.83
540.11	39817.19
540.28	39852.30
540.44	40467.86
540.61	40395.31
540.78	40278.28
540.95	40306.37
541.12	40615.32
541.29	40196.36
541.46	40116.78
541.62	40814.26
541.79	40765.11
541.96	40474.88
542.13	40451.48
542.30	40928.95
542.47	40751.07
542.63	40493.61
542.80	40863.41
542.97	41654.51
543.14	41284.71
543.31	40914.90
543.48	41125.55
543.64	41579.62
543.81	41429.82
543.98	40975.76
544.15	41256.62
544.32	41612.38
544.48	41518.76
544.65	41530.47
544.82	41621.75
544.99	41364.29
545.16	41607.70
545.32	41516.42
545.49	41820.69
545.66	42356.67
545.83	42113.26
546.00	42192.84
546.16	41942.40
546.33	42000.91
546.50	41778.56
546.67	41944.74
546.83	42131.98
547.00	41876.86
547.17	41895.59
547.34	42321.57
547.50	42478.38
547.67	42595.41
547.84	42232.63
548.00	42335.61
548.17	42457.32
548.34	42576.69
548.51	42401.14
548.67	43117.35
548.84	42469.02
549.01	42562.64
549.18	42665.63
549.34	42796.70
549.51	43075.22
549.68	43344.38
549.84	42939.47
550.01	43021.39
550.18	42796.70
550.34	42457.32
550.51	43232.04
550.68	42974.58
550.84	42579.03
551.01	43292.89
551.18	42796.70
551.34	43028.41
551.51	43367.79
551.68	43267.14
551.84	43117.35
552.01	43117.35
552.18	43243.74
552.34	43363.11
552.51	43435.66
552.68	42960.53
552.84	43152.46
553.01	43721.21
553.18	43349.06
553.34	43049.47
553.51	43271.82
553.67	43416.94
553.84	43800.79
554.01	43863.98
554.17	43821.85
554.34	43522.26
554.51	43838.23
554.67	43899.09
554.84	43817.17
555.00	43641.63
555.17	43798.44
555.33	44065.27
555.50	44175.27
555.67	43929.51
555.83	43969.30
556.00	43899.09
556.16	44318.04
556.33	43742.27
556.50	44589.55
556.66	43990.37
556.83	44112.08
556.99	44411.67
557.16	44678.49
557.32	44559.12
557.49	44505.29
557.65	44039.52
557.82	44776.79
557.98	44343.79
558.15	44074.63
558.32	44704.23
558.48	44074.63
558.65	44769.77
558.81	44591.89
558.98	44659.76
559.14	44577.84
559.31	44767.43
559.47	44786.15
559.64	44598.91
559.80	44889.13
559.97	45024.89
560.13	44774.45
560.30	44704.23
560.46	45076.38
560.63	45125.53
560.79	45064.67
560.96	45418.10
561.12	45450.86
561.29	45291.71
561.45	45446.18
561.61	45050.63
561.78	45251.92
561.94	45006.16
562.11	45165.32
562.27	44683.17
562.44	45113.83
562.60	45523.42
562.77	45333.84
562.93	45223.83
563.10	45694.28
563.26	45240.21
563.42	45500.01
563.59	45296.39
563.75	45228.51
563.92	44978.07
564.08	45439.16
564.24	45375.97
564.41	45167.66
564.57	45481.29
564.74	45352.56
564.90	45607.68
565.07	45139.57
565.23	45490.65
565.39	45043.61
565.56	45516.40
565.72	45570.23
565.88	45675.55
566.05	45460.23
566.21	45698.96
566.38	45642.79
566.54	45998.55
566.70	45673.21
566.87	45787.90
567.03	45537.46
567.19	45790.24
567.36	45544.48
567.52	45495.33
567.68	45989.19
567.85	45443.84
568.01	46183.45
568.17	45628.74
568.34	45776.20
568.50	46096.85
568.66	45347.88
568.83	45792.58
568.99	45832.37
569.15	46120.26
569.32	45820.67
569.48	46082.81
569.64	45918.97
569.81	45965.78
569.97	46080.47
570.13	45940.04
570.30	45694.28
570.46	46323.88
570.62	46298.14
570.78	45993.87
570.95	45942.38
571.11	46532.19
571.27	45612.36
571.43	45537.46
571.60	45916.63
571.76	45647.47
571.92	45759.81
572.09	45771.52
572.25	46089.83
572.41	46368.35
572.57	46258.35
572.74	46571.98
572.90	46110.89
573.06	45989.19
573.22	46246.65
573.38	46370.69
573.55	46188.13
573.71	46534.53
573.87	46162.39
574.03	46316.86
574.20	46337.93
574.36	46078.13
574.52	46560.28
574.68	46146.00
574.84	46817.74
575.01	46452.61
575.17	46347.29
575.33	46527.51
575.49	46230.26
575.65	46394.10
575.82	46747.52
575.98	46234.94
576.14	46735.82
576.30	46342.61
576.46	46611.77
576.62	46366.01
576.79	46291.12
576.95	45949.40
577.11	46143.66
577.27	46244.30
577.43	46361.33
577.59	46108.55
577.75	46277.07
577.92	46148.34
578.08	46422.19
578.24	46536.87
578.40	46873.91
578.56	46557.94
578.72	46623.47
578.88	46871.57
579.04	46473.68
579.21	46377.72
579.37	46768.58
579.53	46614.11
579.69	46038.34
579.85	46433.89
580.01	46593.04
580.17	46628.15
580.33	46672.62
580.49	46639.86
580.65	46515.81
580.82	46698.37
580.98	46358.99
581.14	46464.32
581.30	46745.18
581.46	46323.88
581.62	46012.59
581.78	46642.20
581.94	46471.34
582.10	46333.24
582.26	46504.10
582.42	46527.51
582.58	46993.28
582.74	46501.76
582.90	46672.62
583.06	46916.04
583.22	46693.69
583.38	46808.37
583.54	46698.37
583.70	46590.70
583.86	46796.67
584.02	46436.23
584.18	46450.27
584.34	46789.65
584.50	46759.22
584.66	46384.74
584.82	46873.91
584.98	46822.42
585.14	46887.95
585.30	46656.24
585.46	46838.80
585.62	46768.58
585.78	46780.29
585.94	46630.49
586.10	46714.75
586.26	46401.12
586.42	46951.15
586.58	46841.14
586.74	46646.88
586.90	46656.24
587.06	46389.42
587.22	46567.30
587.38	46693.69
587.54	47100.94
587.70	47250.74
587.86	47206.26
588.02	46681.98
588.18	46202.18
588.34	46490.06
588.49	46808.37
588.65	46777.95
588.81	46630.49
588.97	46909.02
589.13	46948.81
589.29	46663.26
589.45	46859.87
589.61	46719.43
589.77	46899.65
589.93	47157.11
590.08	47466.06
