SpectraSuite Data File
++++++++++++++++++++++++++++++++++++
Date: Fri Oct 25 11:25:43 EDT 2013
User: price-jones
Dark Spectrum Present: No
Reference Spectrum Present: No
Number of Sampled Component Spectra: 1
Spectrometers: USB2+H05261
Integration Time (usec): 100000 (USB2+H05261)
Spectra Averaged: 1 (USB2+H05261)
Boxcar Smoothing: 0 (USB2+H05261)
Correct for Electrical Dark: No (USB2+H05261)
Strobe/Lamp Enabled: No (USB2+H05261)
Correct for Detector Non-linearity: No (USB2+H05261)
Correct for Stray Light: No (USB2+H05261)
Number of Pixels in Processed Spectrum: 2048
>>>>>Begin Processed Spectral Data<<<<<
365.73	156.82
365.92	156.82
366.12	156.82
366.32	170.86
366.52	161.50
366.72	138.09
366.91	100.64
367.11	105.32
367.31	126.39
367.51	142.77
367.70	201.29
367.90	149.79
368.10	135.75
368.30	133.41
368.49	170.86
368.69	198.95
368.89	182.56
369.09	117.03
369.28	175.54
369.48	170.86
369.68	248.10
369.87	255.12
370.07	180.22
370.27	203.63
370.47	381.51
370.66	566.41
370.86	681.10
371.06	667.05
371.25	671.73
371.45	641.31
371.65	695.14
371.84	589.82
372.04	706.84
372.24	690.46
372.44	737.27
372.63	725.57
372.83	755.99
373.03	669.39
373.22	751.31
373.42	779.40
373.62	730.25
373.81	842.59
374.01	791.10
374.21	854.30
374.40	725.57
374.60	870.68
374.79	812.17
374.99	760.67
375.19	896.43
375.38	833.23
375.58	737.27
375.78	863.66
375.97	901.11
376.17	922.17
376.37	854.30
376.56	966.64
376.76	844.93
376.95	727.91
377.15	922.17
377.35	905.79
377.54	976.00
377.74	945.58
377.93	908.13
378.13	908.13
378.33	957.28
378.52	898.77
378.72	903.45
378.91	889.40
379.11	894.08
379.31	901.11
379.50	1027.50
379.70	978.34
379.89	959.62
380.09	959.62
380.28	1001.75
380.48	936.21
380.68	961.96
380.87	1013.45
381.07	1027.50
381.26	1048.56
381.46	1022.81
381.65	1111.75
381.85	1102.39
382.04	999.41
382.24	1036.86
382.43	1076.65
382.63	1107.07
382.83	1076.65
383.02	1137.50
383.22	1093.03
383.41	1032.18
383.61	1172.61
383.80	1107.07
384.00	1156.22
384.19	1095.37
384.39	1090.69
384.58	1259.21
384.78	1221.76
384.97	1163.25
385.17	1111.75
385.36	1076.65
385.56	1217.08
385.75	1078.99
385.95	1128.14
386.14	1139.84
386.34	1146.86
386.53	1186.65
386.72	1116.44
386.92	1240.48
387.11	1221.76
387.31	1320.06
387.50	1228.78
387.70	1273.25
387.89	1348.15
388.09	1238.14
388.28	1165.59
388.48	1315.38
388.67	1301.34
388.86	1261.55
389.06	1343.47
389.25	1341.13
389.45	1341.13
389.64	1294.32
389.84	1380.92
390.03	1287.29
390.22	1362.19
390.42	1439.43
390.61	1376.24
390.81	1427.73
391.00	1427.73
391.19	1420.71
391.39	1390.28
391.58	1488.58
391.78	1469.86
391.97	1425.39
392.16	1448.79
392.36	1453.47
392.55	1479.22
392.75	1563.48
392.94	1476.88
393.13	1434.75
393.33	1565.82
393.52	1497.94
393.71	1643.06
393.91	1526.03
394.10	1598.59
394.29	1652.42
394.49	1537.73
394.68	1668.80
394.88	1650.08
395.07	1678.16
395.26	1699.23
395.46	1678.16
395.65	1804.55
395.84	1650.08
396.04	1764.76
396.23	1652.42
396.42	1701.57
396.62	1809.23
396.81	1701.57
397.00	1741.36
397.19	1795.19
397.39	1732.00
397.58	1930.94
397.77	1804.55
397.97	1771.79
398.16	1760.08
398.35	1870.09
398.55	1902.86
398.74	1952.01
398.93	1959.03
399.12	1935.62
399.32	1926.26
399.51	1923.92
399.70	1984.77
399.90	2019.88
400.09	1930.94
400.28	2073.71
400.47	1984.77
400.67	2026.90
400.86	2076.06
401.05	2047.97
401.24	2078.40
401.44	2113.50
401.63	2104.14
401.82	2221.17
402.01	2083.08
402.21	2209.47
402.40	2101.80
402.59	2090.10
402.78	2289.04
402.97	2193.08
403.17	2267.98
403.36	2249.25
403.55	2305.43
403.74	2394.37
403.93	2385.01
404.13	2331.17
404.32	2438.84
404.51	2328.83
404.70	2413.09
404.89	2284.36
405.09	2438.84
405.28	2473.95
405.47	2487.99
405.66	2497.35
405.85	2560.55
406.05	2537.14
406.24	2555.86
406.43	2513.74
406.62	2530.12
406.81	2754.81
407.00	2605.02
407.20	2595.65
407.39	2588.63
407.58	2628.42
407.77	2572.25
407.96	2743.11
408.15	2841.41
408.34	2731.41
408.54	2778.22
408.73	2757.15
408.92	2904.60
409.11	2923.33
409.30	2899.92
409.49	2899.92
409.68	2801.62
409.87	2850.77
410.07	2991.20
410.26	2958.44
410.45	2932.69
410.64	2888.22
410.83	2960.78
411.02	3136.32
411.21	3091.85
411.40	3110.57
411.59	3166.74
411.78	3103.55
411.98	3089.51
412.17	3262.71
412.36	3187.81
412.55	3279.09
412.74	3449.95
412.93	3358.67
413.12	3304.84
413.31	3609.11
413.50	3449.95
413.69	3543.57
413.88	3641.87
414.07	3482.72
414.26	3599.74
414.45	3646.55
414.64	3658.26
414.83	3681.66
415.02	3852.52
415.22	3836.14
415.41	3850.18
415.60	4009.34
415.79	3873.59
415.98	3866.56
416.17	3971.89
416.36	4021.04
416.55	3985.93
416.74	4100.62
416.93	3992.95
417.12	4053.81
417.31	4091.26
417.50	4114.66
417.69	4271.48
417.88	4341.69
418.07	4269.14
418.26	4224.67
418.45	4294.88
418.64	4454.04
418.83	4407.23
419.02	4393.19
419.21	4535.96
419.39	4437.66
419.58	4414.25
419.77	4456.38
419.96	4369.78
420.15	4496.17
420.34	4664.69
420.53	4610.86
420.72	4571.07
420.91	4585.11
421.10	4671.71
421.29	4863.63
421.48	4760.65
421.67	4868.31
421.86	4685.75
422.05	4894.06
422.24	4774.69
422.43	4887.04
422.61	4936.19
422.80	4856.61
422.99	4985.34
423.18	4828.53
423.37	4964.28
423.56	5085.98
423.75	5067.26
423.94	4851.93
424.13	4592.13
424.32	4762.99
424.50	4847.25
424.69	5097.69
424.88	4954.91
425.07	5027.47
425.26	4870.65
425.45	5029.81
425.64	4985.34
425.83	4959.60
426.01	5177.26
426.20	5137.48
426.39	5130.45
426.58	5032.15
426.77	5013.43
426.96	5078.96
427.15	5046.20
427.33	5343.44
427.52	5053.22
427.71	5242.80
427.90	5226.42
428.09	5334.08
428.28	5177.26
428.46	5301.31
428.65	5228.76
428.84	5439.40
429.03	5654.73
429.22	5275.57
429.40	5418.34
429.59	5516.64
429.78	5275.57
429.97	5373.87
430.16	5476.85
430.34	5582.18
430.53	5561.11
430.72	5486.22
430.91	5743.67
431.10	5540.05
431.28	5902.83
431.47	5664.10
431.66	5858.36
431.85	5699.20
432.03	5944.96
432.22	5832.62
432.41	5928.58
432.60	5853.68
432.79	6069.01
432.97	5790.49
433.16	5891.13
433.35	5774.10
433.54	6022.20
433.72	6244.55
433.91	6045.60
434.10	6043.26
434.28	6183.70
434.47	6211.78
434.66	6204.76
434.85	6242.21
435.03	6319.45
435.22	6277.32
435.41	6466.90
435.59	6406.05
435.78	6263.27
435.97	6544.14
436.16	6441.15
436.34	6274.98
436.53	6265.61
436.72	6523.07
436.90	6457.54
437.09	6635.42
437.28	6363.92
437.46	6509.03
437.65	6506.69
437.84	6740.74
438.02	6569.88
438.21	6766.49
438.40	6679.89
438.58	7014.59
438.77	6871.81
438.96	6832.02
439.14	7098.84
439.33	7119.91
439.52	7094.16
439.70	7112.89
439.89	7536.52
440.08	7428.86
440.26	7283.75
440.45	7276.73
440.63	7335.24
440.82	7473.33
441.01	7396.09
441.19	7438.22
441.38	7719.09
441.57	7665.25
441.75	7590.36
441.94	7906.33
442.12	7864.20
442.31	8051.44
442.50	8011.65
442.68	7913.35
442.87	8011.65
443.05	8074.85
443.24	8234.00
443.43	7990.59
443.61	8224.64
443.80	8184.85
443.98	8053.78
444.17	7571.63
444.35	8234.00
444.54	8135.70
444.73	8187.19
444.91	8095.91
445.10	8381.46
445.28	8304.22
445.47	8168.47
445.65	8383.80
445.84	8463.38
446.02	8486.78
446.21	8315.92
446.39	8313.58
446.58	8456.36
446.77	8332.31
446.95	8271.45
447.14	8416.57
447.32	8557.00
447.51	8285.50
447.69	8624.87
447.88	8432.95
448.06	8376.78
448.25	8568.70
448.43	8430.61
448.62	8489.12
448.80	8395.50
448.99	8587.43
449.17	8599.13
449.36	8587.43
449.54	8896.38
449.73	8999.36
449.91	8966.59
450.10	8964.25
450.28	9118.73
450.46	8999.36
450.65	8854.25
450.83	9057.87
451.02	9067.24
451.20	9163.20
451.39	9050.85
451.57	9128.09
451.76	9167.88
451.94	9062.55
452.13	9369.16
452.31	9483.85
452.49	9298.95
452.68	9383.21
452.86	9366.82
453.05	9411.29
453.23	9607.90
453.42	9364.48
453.60	9383.21
453.78	9404.27
453.97	9238.09
454.15	9568.11
454.34	9322.35
454.52	9811.53
454.70	9675.77
454.89	9755.35
455.07	9750.67
455.26	9771.74
455.44	9877.06
455.62	9593.86
455.81	9902.81
455.99	9956.64
456.17	9954.30
456.36	9987.07
456.54	10246.87
456.73	10399.00
456.91	10597.95
457.09	10377.94
457.28	10471.56
457.46	10345.17
457.64	10155.58
457.83	10642.42
458.01	10349.85
458.19	10785.19
458.38	10387.30
458.56	10696.25
458.74	10644.76
458.93	10686.89
459.11	10452.83
459.29	10586.24
459.48	10808.59
459.66	10775.83
459.84	10686.89
460.03	11066.05
460.21	10824.98
460.39	10953.71
460.57	10761.78
460.76	11042.65
460.94	11197.12
461.12	11302.45
461.31	10986.47
461.49	11159.67
461.67	11239.25
461.85	11426.50
462.04	11222.87
462.22	11864.18
462.40	11660.55
462.59	11344.58
462.77	11583.31
462.95	11602.04
463.13	11480.33
463.32	11527.14
463.50	11765.87
463.68	11714.38
463.86	11784.60
464.05	11765.87
464.23	11800.98
464.41	11992.90
464.59	11587.99
464.78	12030.35
464.96	11782.26
465.14	11707.36
465.32	11960.14
465.50	12013.97
465.69	12016.31
465.87	12170.79
466.05	12056.10
466.23	12189.51
466.41	12273.77
466.60	12376.75
466.78	11990.56
466.96	12325.26
467.14	12575.70
467.32	12241.00
467.51	12472.71
467.69	12109.93
467.87	12580.38
468.05	12575.70
468.23	12339.30
468.41	12463.35
468.60	12503.14
468.78	12641.23
468.96	12322.92
469.14	12709.11
469.32	12816.77
469.50	12493.78
469.69	12840.18
469.87	12929.12
470.05	13064.87
470.23	12856.56
470.41	13259.13
470.59	12999.34
470.77	12966.57
470.95	13429.99
471.14	13621.92
471.32	13078.91
471.50	13357.44
471.68	13406.59
471.86	13862.99
472.04	13891.08
472.22	13650.00
472.40	13631.28
472.58	13713.20
472.77	13919.17
472.95	14097.05
473.13	14324.08
473.31	13916.83
473.49	14214.07
473.67	14005.77
473.85	14384.93
474.03	14525.36
474.21	14406.00
474.39	14878.79
474.57	14527.71
474.75	14885.81
474.93	14857.72
475.12	14782.82
475.30	14960.70
475.48	14855.38
475.66	15044.96
475.84	15246.25
476.02	15131.56
476.20	15398.38
476.38	15672.23
476.56	15807.98
476.74	15805.64
476.92	15747.12
477.10	15770.53
477.28	16135.65
477.46	16004.58
477.64	16163.74
477.82	16386.09
478.00	16678.66
478.18	16556.95
478.36	16688.02
478.54	16971.22
478.72	16947.82
478.90	17298.90
479.08	17305.92
479.26	17710.83
479.44	17706.15
479.62	17631.26
479.80	17848.93
479.98	17980.00
480.16	18345.12
480.34	18342.78
480.52	18506.62
480.70	18565.13
480.88	18551.09
481.06	18469.17
481.24	18878.76
481.41	18831.95
481.59	19243.88
481.77	19491.98
481.95	19559.86
482.13	19468.58
482.31	19522.41
482.49	20053.71
482.67	19983.49
482.85	20161.37
483.03	20521.82
483.21	20673.95
483.39	20741.83
483.57	20751.19
483.74	20954.82
483.92	21055.46
484.10	21252.06
484.28	21418.24
484.46	21745.92
484.64	22171.89
484.82	21881.67
485.00	22469.14
485.18	22417.65
485.35	22824.90
485.53	23021.51
485.71	22885.76
485.89	23070.66
486.07	22946.61
486.25	23494.30
486.43	23548.13
486.61	23775.16
486.78	23573.88
486.96	23880.49
487.14	24648.18
487.32	24535.84
487.50	24561.58
487.68	24797.98
487.85	25092.88
488.03	25591.42
488.21	25371.41
488.39	25432.26
488.57	26150.81
488.75	25766.96
488.92	26239.75
489.10	26684.45
489.28	26522.95
489.46	27000.42
489.64	27000.42
489.81	27505.98
489.99	27690.88
490.17	27688.54
490.35	28048.98
490.53	28364.95
490.70	28046.64
490.88	28313.46
491.06	28601.35
491.24	28474.96
491.41	28704.33
491.59	29027.32
491.77	29371.38
491.95	29282.44
492.13	29383.09
492.30	29680.33
492.48	29919.07
492.66	30494.84
492.84	29970.56
493.01	30665.70
493.19	30464.41
493.37	30625.91
493.54	30836.56
493.72	31400.63
493.90	31103.38
494.08	31330.41
494.25	31992.78
494.43	31800.86
494.61	32006.83
494.79	32411.74
494.96	32584.94
495.14	32659.84
495.32	32758.14
495.49	32858.78
495.67	33336.25
495.85	33343.27
496.02	33490.73
496.20	33621.80
496.38	33390.08
496.55	33977.56
496.73	34829.51
496.91	34101.61
497.09	34438.64
497.26	34686.74
497.44	34707.80
497.62	34665.67
497.79	35849.99
497.97	35115.06
498.14	35515.29
498.32	36198.73
498.50	35999.78
498.67	36329.80
498.85	36191.70
499.03	36327.45
499.20	36451.50
499.38	36825.99
499.56	36760.45
499.73	36957.06
499.91	36683.22
500.08	37462.61
500.26	37251.97
500.44	37336.23
500.61	37518.79
500.79	37560.92
500.97	37661.56
501.14	38171.80
501.32	38363.72
501.49	38227.97
501.67	38419.89
501.84	38543.94
502.02	38960.56
502.20	38539.26
502.37	38986.30
502.55	38794.38
502.72	39454.41
502.90	39182.91
503.07	39309.30
503.25	39770.38
503.43	39646.33
503.60	39721.23
503.78	39969.33
503.95	40140.19
504.13	39892.09
504.30	40704.26
504.48	39936.56
504.65	40374.24
504.83	41132.57
505.01	40891.50
505.18	40893.84
505.36	41486.00
505.53	41500.04
505.71	41544.51
505.88	41228.54
506.06	41064.70
506.23	41858.14
506.41	41303.43
506.58	41928.36
506.76	41511.74
506.93	42220.92
507.11	42005.59
507.28	42572.00
507.46	42377.74
507.63	42550.94
507.81	43316.29
507.98	42438.59
508.16	43217.99
508.33	43360.76
508.50	43564.39
508.68	43356.08
508.85	44217.40
509.03	43372.47
509.20	43868.66
509.38	43971.64
509.55	44360.17
509.73	44294.64
509.90	44374.22
510.08	44479.54
510.25	44191.65
510.42	44561.46
510.60	44685.51
510.77	45127.87
510.95	45207.45
511.12	44898.50
511.30	44713.59
511.47	44987.44
511.64	45371.28
511.82	45731.73
511.99	45586.61
512.17	45745.77
512.34	45731.73
512.51	46265.37
512.69	46036.00
512.86	45970.46
513.04	46801.35
513.21	46321.54
513.38	46429.21
513.56	46784.97
513.73	46747.52
513.90	46920.72
514.08	46691.35
514.25	47346.70
514.43	47110.30
514.60	47136.05
514.77	47105.62
514.95	47559.69
515.12	47323.29
515.29	47297.55
515.47	47920.13
515.64	47943.53
515.81	47580.75
515.99	47601.82
516.16	48306.32
516.33	48573.14
516.51	48563.78
516.68	48240.78
516.85	48004.39
517.03	48596.54
517.20	48896.13
517.37	48556.75
517.54	48495.90
517.72	48797.83
517.89	48760.38
518.06	49137.21
518.24	48882.09
518.41	48739.32
518.58	49062.31
518.75	48697.19
518.93	49336.15
519.10	49275.30
519.27	49762.13
519.45	49495.31
519.62	49799.58
519.79	49708.30
519.96	49375.94
520.14	50206.83
520.31	50059.38
520.48	50174.06
520.65	50305.13
520.83	50164.70
521.00	50251.30
521.17	50387.05
521.34	50286.41
521.52	50520.46
521.69	50384.71
521.86	50609.40
522.03	50841.12
522.20	51030.70
522.38	51440.29
522.55	51140.71
522.72	51203.90
522.89	51054.11
523.07	51341.99
523.24	51264.75
523.41	51473.06
523.58	51402.85
523.75	51782.01
523.92	51423.91
524.10	51929.47
524.27	51934.15
524.44	51826.48
524.61	52119.05
524.78	51732.86
524.96	51814.78
525.13	52081.60
525.30	52069.90
525.47	52397.57
525.64	52310.97
525.81	52200.97
525.98	52582.48
526.16	52507.58
526.33	52603.54
526.50	52683.12
526.67	52701.84
526.84	52828.23
527.01	52921.85
527.18	52783.76
527.36	52631.63
527.53	52570.77
527.70	53329.11
527.87	53176.97
528.04	52725.25
528.21	53361.87
528.38	53102.07
528.55	53202.72
528.72	53305.70
528.89	53123.14
529.07	53298.68
529.24	53340.81
529.41	53762.11
529.58	53375.92
529.75	53399.32
529.92	53495.28
530.09	53652.10
530.26	53911.90
530.43	53853.39
530.60	53539.75
530.77	53792.53
530.94	54038.29
531.11	53635.72
531.28	54096.80
531.46	54038.29
531.63	54152.97
531.80	54192.76
531.97	54054.67
532.14	54082.76
532.31	54206.81
532.48	54546.18
532.65	54562.57
532.82	54405.75
532.99	54398.73
533.16	54485.33
533.33	54569.59
533.50	54742.79
533.67	54698.32
533.84	54424.48
534.01	54602.36
534.18	54567.25
534.35	55157.06
534.52	54780.24
534.69	55157.06
534.86	55119.62
535.03	54773.22
535.20	55040.04
535.37	55035.36
535.54	55274.09
535.71	55220.26
535.88	55238.98
536.05	55264.73
536.22	55337.29
536.38	55178.13
536.55	55344.31
536.72	55377.08
536.89	55009.61
537.06	55578.36
537.23	55592.40
537.40	55484.74
537.57	55449.63
537.74	55629.85
537.91	55915.40
538.08	55824.12
538.25	55646.24
538.42	55861.57
538.59	55985.61
538.75	55531.55
538.92	56140.09
539.09	55861.57
539.26	56016.04
539.43	55913.06
539.60	55985.61
539.77	56186.90
539.94	56142.43
540.11	56207.97
540.28	56320.31
540.44	56151.79
540.61	56219.67
540.78	55969.23
540.95	56425.64
541.12	56193.92
541.29	56275.84
541.46	56465.42
541.62	56336.69
541.79	56378.82
541.96	56339.04
542.13	56612.88
542.30	56427.98
542.47	56533.30
542.63	56912.47
542.80	56884.38
542.97	57102.05
543.14	57193.33
543.31	57165.24
543.48	57155.88
543.64	57240.14
543.81	57261.21
543.98	57282.27
544.15	57361.85
544.32	57125.46
544.48	57455.47
544.65	57127.80
544.82	57134.82
544.99	57125.46
545.16	57249.50
545.32	57258.87
545.49	57532.71
545.66	57347.81
545.83	57418.02
546.00	57551.43
546.16	57462.49
546.33	57511.64
546.50	57293.97
546.67	57696.55
546.83	57076.30
547.00	57785.49
547.17	57616.97
547.34	57481.22
547.50	57677.82
547.67	57659.10
547.84	57820.59
548.00	58223.17
548.17	57986.77
548.34	57900.17
548.51	58103.80
548.67	57956.35
548.84	58024.22
549.01	57979.75
549.18	57853.36
549.34	58136.57
549.51	58152.95
549.68	58174.02
549.84	58223.17
550.01	58129.54
550.18	58120.18
550.34	58417.43
550.51	58248.91
550.68	58335.51
550.84	58092.10
551.01	58588.29
551.18	58101.46
551.34	58394.03
551.51	58202.10
551.68	58508.71
551.84	58471.26
552.01	58223.17
552.18	58649.14
552.34	58368.28
552.51	58356.58
552.68	58396.37
552.84	58497.01
553.01	58808.30
553.18	58688.93
553.34	58614.04
553.51	58534.46
553.67	58794.26
553.84	58866.81
554.01	58775.53
554.17	58817.66
554.34	58934.69
554.51	58770.85
554.67	59159.38
554.84	58852.77
555.00	58789.58
555.17	58850.43
555.33	58913.62
555.50	59032.99
555.67	59040.01
555.83	58939.37
556.00	59105.55
556.16	59281.09
556.33	59098.53
556.50	59157.04
556.66	59100.87
556.83	59213.21
556.99	59133.63
557.16	59304.49
557.32	59231.94
557.49	59456.63
557.65	59126.61
557.82	59180.45
557.98	59171.08
558.15	59306.83
558.32	59353.65
558.48	59299.81
558.65	59421.52
558.81	59461.31
558.98	59367.69
559.14	59487.06
559.31	59332.58
559.47	59573.66
559.64	59400.46
559.80	59564.29
559.97	59538.55
560.13	59531.53
560.30	59430.88
560.46	59760.90
560.63	59676.64
560.79	59714.09
560.96	59639.19
561.12	59671.96
561.29	59730.47
561.45	59653.23
561.61	59721.11
561.78	59561.95
561.94	59554.93
562.11	59484.72
562.27	59737.49
562.44	59849.84
562.60	59849.84
562.77	59796.01
562.93	59646.21
563.10	59934.10
563.26	59590.04
563.42	60072.19
563.59	59936.44
563.75	59831.11
563.92	59737.49
564.08	59997.29
564.24	59910.69
564.41	59985.59
564.57	59798.35
564.74	59931.76
564.90	60065.17
565.07	59840.48
565.23	59931.76
565.39	59938.78
565.56	60058.15
565.72	59980.91
565.88	60093.25
566.05	59924.74
566.21	60044.10
566.38	60184.54
566.54	59938.78
566.70	60282.84
566.87	60081.55
567.03	60114.32
567.19	60168.15
567.36	60271.14
567.52	60231.35
567.68	60509.87
567.85	60060.49
568.01	60460.72
568.17	60135.38
568.34	60219.64
568.50	60182.19
568.66	60285.18
568.83	60198.58
568.99	60100.28
569.15	60154.11
569.32	60177.51
569.48	60317.95
569.64	60453.70
569.81	60367.10
569.97	60236.03
570.13	60219.64
570.30	60301.56
570.46	60411.57
570.62	60395.18
570.78	60282.84
570.95	60437.31
571.11	60399.86
571.27	60481.78
571.43	60446.68
571.60	60495.83
571.76	60243.05
571.92	60434.97
572.09	60376.46
572.25	60519.23
572.41	60306.24
572.57	60650.30
572.74	60732.22
572.90	60493.49
573.06	60362.42
573.22	60275.82
573.38	60477.10
573.55	60533.28
573.71	60753.29
573.87	60598.81
574.03	60622.22
574.20	60549.66
574.36	60474.76
574.52	60645.62
574.68	60561.36
574.84	60727.54
575.01	60552.00
575.17	60566.04
575.33	60566.04
575.49	60505.19
575.65	60713.50
575.82	60720.52
575.98	60533.28
576.14	60807.12
576.30	60699.45
576.46	60678.39
576.62	60690.09
576.79	60453.70
576.95	60493.49
577.11	60699.45
577.27	60647.96
577.43	60823.50
577.59	60587.11
577.75	60514.55
577.92	60582.43
578.08	60647.96
578.24	60713.50
578.40	60797.76
578.56	60982.66
578.72	60839.89
578.88	60757.97
579.04	60821.16
579.21	60687.75
579.37	60919.46
579.53	60769.67
579.69	60647.96
579.85	60746.26
580.01	60542.64
580.17	60427.95
580.33	60921.80
580.49	61090.32
580.65	60860.95
580.82	60715.84
580.98	60732.22
581.14	60662.00
581.30	60762.65
581.46	60537.96
581.62	60708.82
581.78	60748.60
581.94	60903.08
582.10	60816.48
582.26	60711.16
582.42	60750.94
582.58	60830.52
582.74	60882.02
582.90	60825.84
583.06	60800.10
583.22	60757.97
583.38	60678.39
583.54	60748.60
583.70	60870.31
583.86	60968.61
584.02	60708.82
584.18	60842.23
584.34	60921.80
584.50	60931.17
584.66	60685.41
584.82	60741.58
584.98	61099.68
585.14	60963.93
585.30	60650.30
585.46	60900.74
585.62	60734.56
585.78	60935.85
585.94	60694.77
586.10	60853.93
586.26	60811.80
586.42	60849.25
586.58	61083.30
586.74	60989.68
586.90	60912.44
587.06	60856.27
587.22	60872.65
587.38	60769.67
587.54	61083.30
587.70	61013.08
587.86	61151.18
588.02	60842.23
588.18	61113.73
588.34	60886.70
588.49	60863.29
