SpectraSuite Data File
++++++++++++++++++++++++++++++++++++
Date: Fri Oct 25 11:34:15 EDT 2013
User: price-jones
Dark Spectrum Present: No
Reference Spectrum Present: No
Number of Sampled Component Spectra: 1
Spectrometers: USB2+H05261
Integration Time (usec): 100000 (USB2+H05261)
Spectra Averaged: 1 (USB2+H05261)
Boxcar Smoothing: 0 (USB2+H05261)
Correct for Electrical Dark: No (USB2+H05261)
Strobe/Lamp Enabled: No (USB2+H05261)
Correct for Detector Non-linearity: No (USB2+H05261)
Correct for Stray Light: No (USB2+H05261)
Number of Pixels in Processed Spectrum: 2048
>>>>>Begin Processed Spectral Data<<<<<
365.73	287.89
365.92	287.89
366.12	287.89
366.32	175.54
366.52	121.71
366.72	201.29
366.91	124.05
367.11	227.03
367.31	163.84
367.51	163.84
367.70	166.18
367.90	168.52
368.10	198.95
368.30	173.20
368.49	156.82
368.69	196.60
368.89	227.03
369.09	152.13
369.28	189.58
369.48	180.22
369.68	243.42
369.87	248.10
370.07	220.01
370.27	198.95
370.47	351.08
370.66	538.32
370.86	503.22
371.06	496.19
371.25	554.71
371.45	510.24
371.65	564.07
371.84	531.30
372.04	533.64
372.24	589.82
372.44	627.26
372.63	580.45
372.83	596.84
373.03	557.05
373.22	596.84
373.42	596.84
373.62	613.22
373.81	671.73
374.01	585.13
374.21	688.12
374.40	622.58
374.60	634.29
374.79	688.12
374.99	603.86
375.19	599.18
375.38	624.92
375.58	653.01
375.78	699.82
375.97	711.52
376.17	763.01
376.37	599.18
376.56	699.82
376.76	671.73
376.95	678.76
377.15	772.38
377.35	683.44
377.54	678.76
377.74	596.84
377.93	713.86
378.13	664.71
378.33	692.80
378.52	622.58
378.72	662.37
378.91	631.94
379.11	718.54
379.31	667.05
379.50	683.44
379.70	669.39
379.89	695.14
380.09	734.93
380.28	657.69
380.48	727.91
380.68	732.59
380.87	636.63
381.07	795.78
381.26	676.41
381.46	798.12
381.65	727.91
381.85	835.57
382.04	744.29
382.24	830.89
382.43	751.31
382.63	763.01
382.83	814.51
383.02	763.01
383.22	793.44
383.41	821.53
383.61	840.25
383.80	858.98
384.00	758.33
384.19	816.85
384.39	800.46
384.58	837.91
384.78	863.66
384.97	840.25
385.17	842.59
385.36	807.48
385.56	877.70
385.75	894.08
385.95	891.74
386.14	863.66
386.34	849.61
386.53	781.74
386.72	826.21
386.92	858.98
387.11	917.49
387.31	791.10
387.50	816.85
387.70	842.59
387.89	990.05
388.09	877.70
388.28	940.90
388.48	898.77
388.67	936.21
388.86	889.40
389.06	889.40
389.25	943.24
389.45	978.34
389.64	891.74
389.84	976.00
390.03	933.87
390.22	940.90
390.42	957.28
390.61	1015.79
390.81	959.62
391.00	1034.52
391.19	1034.52
391.39	997.07
391.58	1032.18
391.78	929.19
391.97	997.07
392.16	980.68
392.36	912.81
392.55	985.37
392.75	1076.65
392.94	952.60
393.13	1060.26
393.33	1039.20
393.52	1032.18
393.71	1107.07
393.91	1055.58
394.10	1064.94
394.29	1036.86
394.49	1139.84
394.68	1060.26
394.88	1004.09
395.07	1142.18
395.26	1123.46
395.46	1170.27
395.65	1107.07
395.84	1142.18
396.04	1203.04
396.23	1170.27
396.42	1249.85
396.62	1097.71
396.81	1210.06
397.00	1144.52
397.19	1177.29
397.39	1170.27
397.58	1320.06
397.77	1196.01
397.97	1252.19
398.16	1121.12
398.35	1263.89
398.55	1210.06
398.74	1238.14
398.93	1219.42
399.12	1284.95
399.32	1308.36
399.51	1217.08
399.70	1378.58
399.90	1334.11
400.09	1345.81
400.28	1303.68
400.47	1336.45
400.67	1495.60
400.86	1348.15
401.05	1399.64
401.24	1425.39
401.44	1315.38
401.63	1423.05
401.82	1458.15
402.01	1324.74
402.21	1359.85
402.40	1479.22
402.59	1467.52
402.78	1547.09
402.97	1502.62
403.17	1626.67
403.36	1460.49
403.55	1551.78
403.74	1530.71
403.93	1647.74
404.13	1533.05
404.32	1535.39
404.51	1586.88
404.70	1659.44
404.89	1598.59
405.09	1621.99
405.28	1687.53
405.47	1633.69
405.66	1598.59
405.85	1673.48
406.05	1591.56
406.24	1851.36
406.43	1727.32
406.62	1748.38
406.81	1820.94
407.00	1851.36
407.20	1755.40
407.39	1795.19
407.58	1757.74
407.77	1851.36
407.96	1797.53
408.15	1849.02
408.34	1856.04
408.54	1865.41
408.73	1832.64
408.92	1825.62
409.11	1902.86
409.30	1912.22
409.49	1930.94
409.68	1921.58
409.87	1940.30
410.07	1942.64
410.26	2008.18
410.45	1966.05
410.64	1998.82
410.83	2172.02
411.02	1968.39
411.21	1942.64
411.40	2012.86
411.59	2118.18
411.78	2097.12
411.98	2101.80
412.17	2134.57
412.36	2176.70
412.55	2256.28
412.74	2338.20
412.93	2209.47
413.12	2228.19
413.31	2335.85
413.50	2356.92
413.69	2286.70
413.88	2483.31
414.07	2513.74
414.26	2382.67
414.45	2394.37
414.64	2476.29
414.83	2525.44
415.02	2473.95
415.22	2630.76
415.41	2588.63
415.60	2607.36
415.79	2523.10
415.98	2630.76
416.17	2761.83
416.36	2672.89
416.55	2691.62
416.74	2689.28
416.93	2691.62
417.12	2712.68
417.31	2825.03
417.50	2787.58
417.69	2949.08
417.88	2911.63
418.07	2942.05
418.26	2909.29
418.45	3007.59
418.64	3054.40
418.83	2930.35
419.02	2937.37
419.21	3000.57
419.39	2935.03
419.58	3023.97
419.77	2977.16
419.96	2944.39
420.15	3112.91
420.34	2965.46
420.53	3105.89
420.72	3112.91
420.91	3215.90
421.10	3192.49
421.29	3143.34
421.48	3021.63
421.67	3239.30
421.86	3059.08
422.05	3211.22
422.24	3236.96
422.43	3274.41
422.61	3143.34
422.80	3288.45
422.99	3131.64
423.18	3229.94
423.37	3318.88
423.56	3243.98
423.75	3276.75
423.94	3232.28
424.13	3211.22
424.32	3155.04
424.50	3391.44
424.69	3379.73
424.88	3297.81
425.07	3267.39
425.26	3255.69
425.45	3236.96
425.64	3417.18
425.83	3337.60
426.01	3311.86
426.20	3370.37
426.39	3524.85
426.58	3279.09
426.77	3445.27
426.96	3414.84
427.15	3419.52
427.33	3480.38
427.52	3492.08
427.71	3597.40
427.90	3588.04
428.09	3562.30
428.28	3353.99
428.46	3562.30
428.65	3574.00
428.84	3679.32
429.03	3641.87
429.22	3463.99
429.40	3747.20
429.59	3583.36
429.78	3637.19
429.97	3445.27
430.16	3679.32
430.34	3669.96
430.53	3789.33
430.72	3779.97
430.91	3728.47
431.10	3632.51
431.28	3861.88
431.47	3838.48
431.66	3882.95
431.85	3840.82
432.03	3843.16
432.22	4042.11
432.41	3929.76
432.60	3964.87
432.79	3920.40
432.97	3990.61
433.16	3948.48
433.35	4079.55
433.54	4002.32
433.72	4079.55
433.91	4074.87
434.10	4044.45
434.28	4121.68
434.47	4077.21
434.66	4079.55
434.85	4138.07
435.03	4203.60
435.22	4147.43
435.41	4255.09
435.59	4360.42
435.78	4210.62
435.97	4259.78
436.16	4203.60
436.34	4362.76
436.53	4353.40
436.72	4421.27
436.90	4140.41
437.09	4383.82
437.28	4360.42
437.46	4430.63
437.65	4477.44
437.84	4440.00
438.02	4442.34
438.21	4404.89
438.40	4432.97
438.58	4573.41
438.77	4592.13
438.96	4533.62
439.14	4744.27
439.33	4706.82
439.52	4718.52
439.70	4865.97
439.89	4938.53
440.08	4858.95
440.26	4889.38
440.45	5053.22
440.63	4938.53
440.82	5029.81
441.01	4931.51
441.19	5095.35
441.38	5109.39
441.57	5081.30
441.75	5055.56
441.94	5336.42
442.12	5287.27
442.31	5203.01
442.50	5446.43
442.68	5359.83
442.87	5214.71
443.05	5247.48
443.24	5430.04
443.43	5188.97
443.61	5444.09
443.80	5558.77
443.98	5406.64
444.17	5308.34
444.35	5467.49
444.54	5455.79
444.73	5460.47
444.91	5308.34
445.10	5490.90
445.28	5441.75
445.47	5364.51
445.65	5427.70
445.84	5612.60
446.02	5760.06
446.21	5586.86
446.39	5460.47
446.58	5612.60
446.77	5764.74
446.95	5561.11
447.14	5504.94
447.32	5687.50
447.51	5488.56
447.69	5561.11
447.88	5561.11
448.06	5526.00
448.25	5572.82
448.43	5778.78
448.62	5582.18
448.80	5575.16
448.99	5764.74
449.17	5790.49
449.36	5834.96
449.54	5820.91
449.73	5788.14
449.91	5856.02
450.10	5762.40
450.28	5853.68
450.46	6010.50
450.65	5902.83
450.83	6104.12
451.02	6024.54
451.20	6104.12
451.39	6036.24
451.57	5973.05
451.76	5916.87
451.94	6008.16
452.13	6045.60
452.31	5998.79
452.49	6031.56
452.68	6094.76
452.86	6090.07
453.05	6328.81
453.23	6197.74
453.42	6204.76
453.60	5879.43
453.78	6106.46
453.97	6251.57
454.15	6319.45
454.34	6242.21
454.52	6349.87
454.70	6265.61
454.89	6413.07
455.07	6340.51
455.26	6502.01
455.44	6534.78
455.62	6368.60
455.81	6410.73
455.99	6724.36
456.17	6537.12
456.36	6642.44
456.54	6574.56
456.73	6530.09
456.91	6806.28
457.09	6892.88
457.28	6918.62
457.46	6834.36
457.64	6773.51
457.83	6850.75
458.01	6745.42
458.19	7073.10
458.38	7002.88
458.56	6979.48
458.74	6843.73
458.93	6988.84
459.11	7056.72
459.29	7084.80
459.48	7140.97
459.66	7194.81
459.84	7204.17
460.03	7297.79
460.21	7045.01
460.39	7185.44
460.57	7220.55
460.76	7283.75
460.94	7201.83
461.12	7183.10
461.31	7297.79
461.49	7204.17
461.67	7070.76
461.85	7503.76
462.04	7318.86
462.22	7868.88
462.40	7548.23
462.59	7620.78
462.77	7463.97
462.95	7627.81
463.13	7456.95
463.32	7665.25
463.50	7782.28
463.68	7653.55
463.86	7705.04
464.05	7691.00
464.23	7541.21
464.41	7789.30
464.59	7653.55
464.78	7770.58
464.96	7749.51
465.14	7733.13
465.32	7943.78
465.50	7971.86
465.69	7885.26
465.87	7695.68
466.05	7962.50
466.23	7913.35
466.41	7988.25
466.60	8058.46
466.78	7878.24
466.96	8067.83
467.14	8018.68
467.32	7953.14
467.51	8224.64
467.69	7992.93
467.87	8184.85
468.05	8262.09
468.23	8056.12
468.41	7983.57
468.60	7953.14
468.78	8065.49
468.96	8088.89
469.14	8381.46
469.32	8327.63
469.50	8344.01
469.69	8472.74
469.87	8381.46
470.05	8458.70
470.23	8475.08
470.41	8360.39
470.59	8664.66
470.77	8535.93
470.95	8351.03
471.14	8720.84
471.32	8674.03
471.50	8669.34
471.68	8833.18
471.86	8748.92
472.04	8826.16
472.22	8987.66
472.40	8835.52
472.58	8959.57
472.77	9055.53
472.95	9160.86
473.13	9392.57
473.31	9163.20
473.49	9097.66
473.67	9219.37
473.85	9282.56
474.03	9561.09
474.21	9394.91
474.39	9617.26
474.57	9523.64
474.75	9621.94
474.93	9664.07
475.12	9762.37
475.30	9572.79
475.48	9839.61
475.66	9891.10
475.84	9643.01
476.02	10059.62
476.20	9865.36
476.38	10097.07
476.56	10296.02
476.74	10291.34
476.92	10284.31
477.10	9947.28
477.28	10459.85
477.46	10314.74
477.64	10401.34
477.82	10698.59
478.00	10991.16
478.18	10651.78
478.36	11087.12
478.54	10892.85
478.72	11014.56
478.90	10953.71
479.08	11293.08
479.26	11419.47
479.44	11213.51
479.62	11506.07
479.80	11508.41
479.98	11435.86
480.16	11936.73
480.34	11733.11
480.52	12074.82
480.70	11997.59
480.88	11700.34
481.06	11990.56
481.24	12107.59
481.41	12023.33
481.59	12325.26
481.77	12397.82
481.95	12620.17
482.13	12889.33
482.31	12753.58
482.49	12645.91
482.67	12798.05
482.85	13008.70
483.03	13064.87
483.21	13352.76
483.39	13305.95
483.57	13207.64
483.74	13493.19
483.92	13432.33
484.10	13657.03
484.28	13715.54
484.46	13893.42
484.64	14207.05
484.82	14281.95
485.00	14185.99
485.18	14237.48
485.35	14719.63
485.53	14740.69
485.71	14712.61
485.89	14848.36
486.07	14937.30
486.25	14913.89
486.43	15124.54
486.61	15302.42
486.78	15077.73
486.96	15225.18
487.14	15489.67
487.32	15604.35
487.50	15910.96
487.68	15866.49
487.85	16100.55
488.03	16252.68
488.21	16449.28
488.39	16531.20
488.57	16681.00
488.75	16416.52
488.92	16903.35
489.10	16795.68
489.28	17041.44
489.46	17259.11
489.64	17104.64
489.81	17652.32
489.99	17624.23
490.17	17453.37
490.35	17926.16
490.53	17738.92
490.70	18125.11
490.88	17987.02
491.06	18253.84
491.24	18024.47
491.41	18150.85
491.59	18743.01
491.77	18808.54
491.95	18813.23
492.13	18864.72
492.30	18941.96
492.48	18963.02
492.66	19150.26
492.84	19101.11
493.01	19431.13
493.19	19440.49
493.37	19807.95
493.54	19611.35
493.72	19985.83
493.90	20100.52
494.08	19978.81
494.25	20217.55
494.43	20297.13
494.61	20425.86
494.79	20519.48
494.96	20498.41
495.14	20666.93
495.32	20903.32
495.49	21104.61
495.67	21039.08
495.85	20854.17
496.02	21308.24
496.20	21511.86
496.38	21678.04
496.55	22139.13
496.73	22230.41
496.91	21785.71
497.09	22012.74
497.26	22232.75
497.44	22265.52
497.62	22122.74
497.79	22761.71
497.97	22537.02
498.14	22684.47
498.32	22698.52
498.50	23091.73
498.67	23138.54
498.85	23220.45
499.03	23152.58
499.20	23405.36
499.38	23428.76
499.56	23597.28
499.73	23726.01
499.91	23941.34
500.08	24205.82
500.26	23873.46
500.44	23672.18
500.61	24142.63
500.79	24233.91
500.97	24493.71
501.14	24584.99
501.32	24568.60
501.49	24498.39
501.67	24683.29
501.84	24868.19
502.02	24940.75
502.20	24470.30
502.37	24812.02
502.55	25127.99
502.72	25034.37
502.90	24919.68
503.07	24950.11
503.25	24926.71
503.43	25392.47
503.60	25446.30
503.78	25759.94
503.95	25469.71
504.13	25537.59
504.30	25673.34
504.48	25678.02
504.65	26209.32
504.83	25876.96
505.01	26331.03
505.18	26270.17
505.36	26576.78
505.53	26162.51
505.71	26810.84
505.88	26621.25
506.06	26555.72
506.23	26565.08
506.41	26941.91
506.58	26831.90
506.76	27234.47
506.93	27428.74
507.11	26958.29
507.28	27377.25
507.46	27276.60
507.63	27367.88
507.81	27777.48
507.98	27309.37
508.16	27405.33
508.33	27770.46
508.50	27718.96
508.68	27688.54
508.85	28327.50
509.03	27889.82
509.20	28175.37
509.38	28610.71
509.55	28201.11
509.73	28388.36
509.90	28379.00
510.08	28409.42
510.25	28411.76
510.42	28739.44
510.60	28996.90
510.77	28980.51
510.95	29223.93
511.12	28751.14
511.30	29195.84
511.47	29048.39
511.64	29275.42
511.82	29474.37
511.99	29420.53
512.17	29301.17
512.34	29055.41
512.51	29816.08
512.69	29827.79
512.86	29968.22
513.04	30206.95
513.21	29893.32
513.38	30412.92
513.56	30340.36
513.73	30230.36
513.90	30148.44
514.08	30015.03
514.25	30513.56
514.43	30766.34
514.60	30756.98
514.77	30815.49
514.95	30607.19
515.12	30927.84
515.29	30822.51
515.47	30661.02
515.64	30892.73
515.81	30693.79
515.99	31173.60
516.16	31824.26
516.33	31531.70
516.51	31524.68
516.68	31651.06
516.85	31562.12
517.03	31756.39
517.20	31587.87
517.37	31641.70
517.54	31700.22
517.72	31702.56
517.89	31889.80
518.06	31908.52
518.24	31999.80
518.41	31988.10
518.58	32109.81
518.75	32023.21
518.93	32109.81
519.10	32275.99
519.27	32350.88
519.45	32428.12
519.62	32933.68
519.79	32540.47
519.96	32847.08
520.14	32762.82
520.31	32601.32
520.48	32868.14
520.65	32882.19
520.83	33198.16
521.00	33322.21
521.17	33343.27
521.34	33347.95
521.52	33631.16
521.69	33495.41
521.86	33642.86
522.03	33804.36
522.20	33710.74
522.38	34223.31
522.55	34141.39
522.72	33663.93
522.89	34178.84
523.07	34630.57
523.24	34529.92
523.41	33743.50
523.58	34288.85
523.75	34527.58
523.92	34316.93
524.10	34529.92
524.27	34389.49
524.44	34682.06
524.61	34878.66
524.78	34906.75
524.96	35185.27
525.13	34909.09
525.30	35000.37
525.47	35091.65
525.64	34946.54
525.81	34618.86
525.98	35309.32
526.16	35585.50
526.33	35433.37
526.50	35365.49
526.67	35299.96
526.84	35388.90
527.01	35016.75
527.18	35526.99
527.36	35391.24
527.53	35945.95
527.70	35842.96
527.87	36336.82
528.04	35913.18
528.21	35833.60
528.38	36165.96
528.55	36257.24
528.72	35952.97
528.89	36313.41
529.07	36343.84
529.24	36226.81
529.41	36498.31
529.58	36545.12
529.75	36570.87
529.92	36360.22
530.09	36680.88
530.26	36720.66
530.43	36503.00
530.60	36545.12
530.77	36493.63
530.94	36580.23
531.11	36435.12
531.28	37235.58
531.46	36985.15
531.63	37242.60
531.80	36797.90
531.97	36959.40
532.14	37462.61
532.31	37156.00
532.48	37464.96
532.65	37549.21
532.82	37406.44
532.99	37886.25
533.16	37343.25
533.33	37556.24
533.50	37825.40
533.67	37408.78
533.84	37078.77
534.01	37883.91
534.18	37556.24
534.35	38113.28
534.52	37656.88
534.69	38256.06
534.86	37818.38
535.03	37979.87
535.20	38132.01
535.37	38323.93
535.54	38316.91
535.71	38059.45
535.88	38412.87
536.05	38775.66
536.22	38277.12
536.38	38583.73
536.55	38089.88
536.72	38071.15
536.89	38345.00
537.06	38717.14
537.23	39030.77
537.40	38508.83
537.57	38218.61
537.74	38834.17
537.91	39543.35
538.08	38873.96
538.25	38555.64
538.42	38464.36
538.59	39627.61
538.75	38892.68
538.92	39353.77
539.09	38946.51
539.26	39194.61
539.43	38815.44
539.60	39833.58
539.77	39342.06
539.94	39922.52
540.11	39218.02
540.28	39880.39
540.44	39159.50
540.61	39253.12
540.78	39515.26
540.95	39653.36
541.12	39508.24
541.29	39805.49
541.46	39491.86
541.62	39800.81
541.79	40442.12
541.96	39290.57
542.13	39754.00
542.30	40006.78
542.47	40088.70
542.63	40137.85
542.80	40224.45
542.97	40765.11
543.14	40879.80
543.31	40617.66
543.48	40622.34
543.64	41067.04
543.81	40907.88
543.98	40666.81
544.15	40975.76
544.32	40671.49
544.48	41270.67
544.65	40598.93
544.82	41062.36
544.99	40423.39
545.16	40907.88
545.32	40837.67
545.49	41265.99
545.66	41216.83
545.83	41563.23
546.00	41591.32
546.16	41095.13
546.33	40795.54
546.50	41237.90
546.67	41708.35
546.83	40959.38
547.00	41235.56
547.17	41415.78
547.34	41502.38
547.50	41553.87
547.67	41818.35
547.84	41434.50
548.00	41904.95
548.17	41972.83
548.34	41708.35
548.51	42351.99
548.67	41553.87
548.84	41785.58
549.01	41865.16
549.18	41865.16
549.34	41961.12
549.51	42323.91
549.68	42260.71
549.84	41851.12
550.01	41949.42
550.18	41872.18
550.34	42227.95
550.51	42139.00
550.68	42370.72
550.84	42192.84
551.01	42787.33
551.18	41808.99
551.34	42021.98
551.51	42525.19
551.68	42665.63
551.84	42387.10
552.01	42581.37
552.18	42366.04
552.34	42682.01
552.51	42749.88
552.68	42546.26
552.84	42632.86
553.01	42644.56
553.18	42642.22
553.34	42855.21
553.51	43002.66
553.67	43110.33
553.84	43236.72
554.01	42880.95
554.17	42953.51
554.34	43538.65
554.51	43222.67
554.67	43346.72
554.84	42981.60
555.00	42829.46
555.17	43229.69
555.33	43119.69
555.50	43335.02
555.67	43447.36
555.83	43409.92
556.00	43501.20
556.16	44013.77
556.33	43503.54
556.50	43473.11
556.66	43585.46
556.83	43068.20
556.99	43959.94
557.16	43990.37
557.32	44151.87
557.49	44004.41
557.65	43386.51
557.82	43889.73
557.98	44158.89
558.15	43854.62
558.32	43835.89
558.48	43913.13
558.65	44189.31
558.81	43749.29
558.98	43803.13
559.14	43807.81
559.31	43704.82
559.47	43800.79
559.64	44058.24
559.80	43903.77
559.97	43924.83
560.13	43571.41
560.30	44048.88
560.46	44177.61
560.63	44395.28
560.79	44289.96
560.96	44528.69
561.12	44404.64
561.29	44318.04
561.45	44301.66
561.61	44318.04
561.78	44250.17
561.94	44287.62
562.11	44116.76
562.27	44484.22
562.44	44421.03
562.60	44528.69
562.77	44406.98
562.93	44432.73
563.10	44680.83
563.26	44491.24
563.42	44781.47
563.59	44484.22
563.75	44847.00
563.92	44715.93
564.08	44428.05
564.24	44957.01
564.41	44500.61
564.57	44926.58
564.74	45003.82
564.90	44591.89
565.07	44437.41
565.23	44418.69
565.39	44699.55
565.56	44713.59
565.72	44868.07
565.88	44980.42
566.05	44973.39
566.21	44650.40
566.38	45003.82
566.54	45165.32
566.70	44928.92
566.87	45282.34
567.03	44322.72
567.19	45212.13
567.36	45418.10
567.52	44968.71
567.68	45537.46
567.85	45198.09
568.01	45132.55
568.17	44903.18
568.34	45357.24
568.50	44783.81
568.66	44926.58
568.83	45319.79
568.99	44868.07
569.15	45078.72
569.32	45144.25
569.48	45368.94
569.64	45591.30
569.81	45659.17
569.97	45294.05
570.13	45635.77
570.30	45191.06
570.46	45272.98
570.62	45705.98
570.78	45272.98
570.95	44807.22
571.11	45593.64
571.27	45364.26
571.43	45294.05
571.60	45280.00
571.76	45237.87
571.92	45373.63
572.09	45280.00
572.25	45265.96
572.41	44889.13
572.57	45151.27
572.74	45954.08
572.90	45366.60
573.06	45081.06
573.22	45530.44
573.38	45902.59
573.55	45675.55
573.71	45935.35
573.87	45553.85
574.03	45701.30
574.20	45607.68
574.36	45640.45
574.52	45659.17
574.68	45691.94
574.84	46080.47
575.01	45560.87
575.17	45869.82
575.33	45305.75
575.49	45633.42
575.65	45825.35
575.82	45338.52
575.98	45687.26
576.14	45670.87
576.30	46176.43
576.46	45607.68
576.62	45280.00
576.79	45563.21
576.95	45235.53
577.11	45925.99
577.27	45642.79
577.43	45485.97
577.59	45565.55
577.75	45696.62
577.92	45373.63
578.08	45785.56
578.24	45682.58
578.40	46071.10
578.56	46150.68
578.72	45661.51
578.88	45837.05
579.04	45645.13
579.21	45514.06
579.37	46122.60
579.53	46087.49
579.69	45298.73
579.85	45886.20
580.01	46087.49
580.17	45923.65
580.33	45668.53
580.49	46064.08
580.65	45900.25
580.82	46117.92
580.98	45794.92
581.14	45338.52
581.30	45633.42
581.46	45357.24
581.62	45610.02
581.78	46150.68
581.94	45944.72
582.10	45404.05
582.26	46106.21
582.42	45773.86
582.58	45830.03
582.74	45979.82
582.90	46019.61
583.06	45961.10
583.22	46101.53
583.38	46031.32
583.54	46047.70
583.70	45942.38
583.86	46466.66
584.02	45387.67
584.18	46230.26
584.34	45893.22
584.50	46199.83
584.66	46258.35
584.82	46059.40
584.98	46263.03
585.14	45867.48
585.30	45579.59
585.46	45778.54
585.62	45820.67
585.78	45752.79
585.94	45659.17
586.10	45612.36
586.26	46071.10
586.42	46003.23
586.58	45841.73
586.74	45886.20
586.90	46036.00
587.06	46162.39
587.22	46080.47
587.38	45902.59
587.54	46071.10
587.70	46225.58
587.86	45965.78
588.02	46071.10
588.18	45778.54
588.34	46096.85
588.49	46068.76
588.65	45783.22
588.81	45654.49
588.97	46000.89
589.13	46185.79
589.29	46162.39
589.45	46373.03
589.61	46375.37
589.77	46630.49
589.93	46134.30
590.08	46281.75
