SpectraSuite Data File
++++++++++++++++++++++++++++++++++++
Date: Fri Oct 25 10:48:01 EDT 2013
User: price-jones
Dark Spectrum Present: No
Reference Spectrum Present: No
Number of Sampled Component Spectra: 1
Spectrometers: USB2+H05261
Integration Time (usec): 100000 (USB2+H05261)
Spectra Averaged: 1 (USB2+H05261)
Boxcar Smoothing: 0 (USB2+H05261)
Correct for Electrical Dark: No (USB2+H05261)
Strobe/Lamp Enabled: No (USB2+H05261)
Correct for Detector Non-linearity: No (USB2+H05261)
Correct for Stray Light: No (USB2+H05261)
Number of Pixels in Processed Spectrum: 2048
>>>>>Begin Processed Spectral Data<<<<<
365.73	175.54
365.92	175.54
366.12	175.54
366.32	44.47
366.52	0.00
366.72	0.00
366.91	42.13
367.11	21.06
367.31	0.00
367.51	18.72
367.70	32.77
367.90	105.32
368.10	46.81
368.30	7.02
368.49	72.56
368.69	28.09
368.89	100.64
369.09	117.03
369.28	100.64
369.48	74.90
369.68	124.05
369.87	173.20
370.07	102.98
370.27	142.77
370.47	248.10
370.66	344.06
370.86	308.95
371.06	451.72
371.25	449.38
371.45	433.00
371.65	507.90
371.84	351.08
372.04	409.59
372.24	505.56
372.44	442.36
372.63	437.68
372.83	463.43
373.03	482.15
373.22	475.13
373.42	582.79
373.62	554.71
373.81	547.69
374.01	514.92
374.21	517.26
374.40	517.26
374.60	638.97
374.79	479.81
374.99	507.90
375.19	496.19
375.38	592.16
375.58	601.52
375.78	526.62
375.97	578.11
376.17	531.30
376.37	608.54
376.56	528.96
376.76	603.86
376.95	571.09
377.15	585.13
377.35	582.79
377.54	655.35
377.74	575.77
377.93	557.05
378.13	596.84
378.33	599.18
378.52	596.84
378.72	568.75
378.91	702.16
379.11	585.13
379.31	634.29
379.50	620.24
379.70	713.86
379.89	648.33
380.09	610.88
380.28	638.97
380.48	596.84
380.68	648.33
380.87	629.60
381.07	718.54
381.26	695.14
381.46	674.07
381.65	755.99
381.85	669.39
382.04	653.01
382.24	702.16
382.43	678.76
382.63	620.24
382.83	643.65
383.02	744.29
383.22	634.29
383.41	695.14
383.61	688.12
383.80	690.46
384.00	770.04
384.19	725.57
384.39	732.59
384.58	744.29
384.78	695.14
384.97	727.91
385.17	770.04
385.36	746.63
385.56	746.63
385.75	770.04
385.95	746.63
386.14	699.82
386.34	702.16
386.53	833.23
386.72	791.10
386.92	795.78
387.11	837.91
387.31	746.63
387.50	819.19
387.70	798.12
387.89	795.78
388.09	784.08
388.28	802.80
388.48	889.40
388.67	781.74
388.86	903.45
389.06	802.80
389.25	952.60
389.45	929.19
389.64	823.87
389.84	952.60
390.03	877.70
390.22	868.34
390.42	896.43
390.61	933.87
390.81	922.17
391.00	884.72
391.19	1055.58
391.39	875.36
391.58	957.28
391.78	887.06
391.97	940.90
392.16	980.68
392.36	1074.31
392.55	915.15
392.75	898.77
392.94	1013.45
393.13	985.37
393.33	976.00
393.52	978.34
393.71	1034.52
393.91	1013.45
394.10	1081.33
394.29	983.02
394.49	1013.45
394.68	1078.99
394.88	1095.37
395.07	1156.22
395.26	1071.97
395.46	1165.59
395.65	1032.18
395.84	1165.59
396.04	1165.59
396.23	1151.54
396.42	1090.69
396.62	1109.41
396.81	1125.80
397.00	1114.10
397.19	1137.50
397.39	1188.99
397.58	1245.16
397.77	1174.95
397.97	1128.14
398.16	1210.06
398.35	1352.83
398.55	1273.25
398.74	1231.12
398.93	1301.34
399.12	1231.12
399.32	1249.85
399.51	1266.23
399.70	1350.49
399.90	1284.95
400.09	1320.06
400.28	1425.39
400.47	1378.58
400.67	1432.41
400.86	1458.15
401.05	1413.68
401.24	1406.66
401.44	1479.22
401.63	1476.88
401.82	1481.56
402.01	1493.26
402.21	1500.28
402.40	1488.58
402.59	1526.03
402.78	1575.18
402.97	1526.03
403.17	1540.07
403.36	1570.50
403.55	1577.52
403.74	1600.93
403.93	1577.52
404.13	1689.87
404.32	1636.03
404.51	1621.99
404.70	1582.20
404.89	1661.78
405.09	1753.06
405.28	1741.36
405.47	1682.85
405.66	1671.14
405.85	1715.61
406.05	1729.66
406.24	1732.00
406.43	1818.60
406.62	1739.02
406.81	1834.98
407.00	1816.26
407.20	1834.98
407.39	1872.43
407.58	1820.94
407.77	1914.56
407.96	1933.28
408.15	1909.88
408.34	1977.75
408.54	1881.79
408.73	1888.81
408.92	1909.88
409.11	1916.90
409.30	2094.78
409.49	2022.22
409.68	1952.01
409.87	1980.09
410.07	2087.76
410.26	2073.71
410.45	2080.74
410.64	2125.21
410.83	2083.08
411.02	2340.54
411.21	2223.51
411.40	2284.36
411.59	2249.25
411.78	2312.45
411.98	2300.75
412.17	2253.94
412.36	2237.55
412.55	2314.79
412.74	2347.56
412.93	2385.01
413.12	2408.41
413.31	2408.41
413.50	2349.90
413.69	2476.29
413.88	2492.67
414.07	2485.65
414.26	2497.35
414.45	2520.76
414.64	2588.63
414.83	2682.25
415.02	2761.83
415.22	2640.12
415.41	2593.31
415.60	2888.22
415.79	2712.68
415.98	2789.92
416.17	2761.83
416.36	2773.53
416.55	2808.64
416.74	2888.22
416.93	2722.04
417.12	2810.98
417.31	2932.69
417.50	2827.37
417.69	3070.78
417.88	2963.12
418.07	2883.54
418.26	2965.46
418.45	3059.08
418.64	3232.28
418.83	3187.81
419.02	3077.80
419.21	3112.91
419.39	3141.00
419.58	3201.85
419.77	3192.49
419.96	3232.28
420.15	3304.84
420.34	3173.77
420.53	3314.20
420.72	3375.05
420.91	3311.86
421.10	3307.18
421.29	3480.38
421.48	3332.92
421.67	3382.07
421.86	3349.31
422.05	3274.41
422.24	3363.35
422.43	3370.37
422.61	3351.65
422.80	3368.03
422.99	3496.76
423.18	3471.01
423.37	3513.14
423.56	3417.18
423.75	3541.23
423.94	3499.10
424.13	3300.16
424.32	3243.98
424.50	3426.54
424.69	3506.12
424.88	3503.78
425.07	3466.33
425.26	3456.97
425.45	3529.53
425.64	3358.67
425.83	3405.48
426.01	3646.55
426.20	3522.51
426.39	3602.08
426.58	3562.30
426.77	3552.93
426.96	3588.04
427.15	3517.83
427.33	3576.34
427.52	3679.32
427.71	3637.19
427.90	3754.22
428.09	3641.87
428.28	3623.15
428.46	3765.92
428.65	3632.51
428.84	3843.16
429.03	3857.20
429.22	3751.88
429.40	3709.75
429.59	3758.90
429.78	3574.00
429.97	3618.47
430.16	3712.09
430.34	3627.83
430.53	3808.05
430.72	3803.37
430.91	3852.52
431.10	3786.99
431.28	3955.51
431.47	4049.13
431.66	4140.41
431.85	4189.56
432.03	4194.24
432.22	4184.88
432.41	4117.00
432.60	4152.11
432.79	4102.96
432.97	4334.67
433.16	4021.04
433.35	4131.05
433.54	4271.48
433.72	4301.90
433.91	4140.41
434.10	4215.30
434.28	4245.73
434.47	4353.40
434.66	4372.12
434.85	4369.78
435.03	4395.53
435.22	4318.29
435.41	4482.13
435.59	4397.87
435.78	4468.08
435.97	4634.26
436.16	4545.32
436.34	4444.68
436.53	4582.77
436.72	4542.98
436.90	4447.02
437.09	4582.77
437.28	4592.13
437.46	4559.36
437.65	4601.49
437.84	4655.33
438.02	4819.16
438.21	4723.20
438.40	4559.36
438.58	4608.51
438.77	4844.91
438.96	4739.58
439.14	4964.28
439.33	4945.55
439.52	4964.28
439.70	4975.98
439.89	5116.41
440.08	5121.09
440.26	4992.36
440.45	5078.96
440.63	5298.97
440.82	5305.99
441.01	5107.05
441.19	5364.51
441.38	5296.63
441.57	5289.61
441.75	5430.04
441.94	5540.05
442.12	5490.90
442.31	5713.25
442.50	5481.53
442.68	5624.31
442.87	5474.51
443.05	5537.71
443.24	5724.95
443.43	5682.82
443.61	5710.91
443.80	5776.44
443.98	5661.76
444.17	5411.32
444.35	5621.97
444.54	5710.91
444.73	5724.95
444.91	5572.82
445.10	5659.42
445.28	5790.49
445.47	5621.97
445.65	5647.71
445.84	5795.17
446.02	5781.12
446.21	5804.53
446.39	5710.91
446.58	5982.41
446.77	5898.15
446.95	5781.12
447.14	5891.13
447.32	5797.51
447.51	5900.49
447.69	5767.08
447.88	6061.99
448.06	5891.13
448.25	5804.53
448.43	5935.60
448.62	5830.27
448.80	5954.32
448.99	5944.96
449.17	5984.75
449.36	5916.87
449.54	6052.63
449.73	6216.46
449.91	6218.80
450.10	6232.85
450.28	6473.92
450.46	6370.94
450.65	6282.00
450.83	6312.42
451.02	6310.08
451.20	6373.28
451.39	6424.77
451.57	6424.77
451.76	6321.79
451.94	6480.94
452.13	6415.41
452.31	6455.20
452.49	6289.02
452.68	6392.00
452.86	6476.26
453.05	6588.61
453.23	6321.79
453.42	6487.96
453.60	6476.26
453.78	6569.88
453.97	6511.37
454.15	6434.13
454.34	6441.15
454.52	6586.27
454.70	6696.27
454.89	6843.73
455.07	6698.61
455.26	6717.34
455.44	6796.92
455.62	6974.80
455.81	6871.81
455.99	6862.45
456.17	6881.18
456.36	6920.96
456.54	6995.86
456.73	7061.40
456.91	7267.36
457.09	7222.89
457.28	7321.20
457.46	7070.76
457.64	7208.85
457.83	7073.10
458.01	7061.40
458.19	7213.53
458.38	7332.90
458.56	7311.83
458.74	7180.76
458.93	7115.23
459.11	7372.69
459.29	7391.41
459.48	7454.61
459.66	7382.05
459.84	7412.48
460.03	7534.18
460.21	7445.24
460.39	7566.95
460.57	7606.74
460.76	7805.69
460.94	7798.66
461.12	7744.83
461.31	7571.63
461.49	7672.28
461.67	7779.94
461.85	7810.37
462.04	7646.53
462.22	8163.79
462.40	7793.98
462.59	7775.26
462.77	7939.10
462.95	8053.78
463.13	7798.66
463.32	7892.29
463.50	8044.42
463.68	7955.48
463.86	8016.33
464.05	7880.58
464.23	8035.06
464.41	8053.78
464.59	7969.52
464.78	8044.42
464.96	8138.04
465.14	7983.57
465.32	8365.07
465.50	8231.66
465.69	8245.71
465.87	8341.67
466.05	8276.13
466.23	8297.20
466.41	8280.82
466.60	8496.14
466.78	8131.02
466.96	8189.53
467.14	8187.19
467.32	8311.24
467.51	8683.39
467.69	8269.11
467.87	8458.70
468.05	8688.07
468.23	8393.16
468.41	8201.24
468.60	8486.78
468.78	8524.23
468.96	8463.38
469.14	8578.06
469.32	8730.20
469.50	8498.49
469.69	8662.32
469.87	8788.71
470.05	8702.11
470.23	8889.35
470.41	8814.46
470.59	8727.86
470.77	8861.27
470.95	8985.32
471.14	9006.38
471.32	8973.61
471.50	9210.01
471.68	8884.67
471.86	9263.84
472.04	9298.95
472.22	9291.93
472.40	9219.37
472.58	9355.12
472.77	9462.79
472.95	9390.23
473.13	9610.24
473.31	9514.28
473.49	9411.29
473.67	9322.35
473.85	9565.77
474.03	9832.59
474.21	9729.61
474.39	9792.80
474.57	9916.85
474.75	9865.36
474.93	9970.68
475.12	10181.33
475.30	10036.22
475.48	10169.63
475.66	10406.02
475.84	10242.18
476.02	10310.06
476.20	10485.60
476.38	10485.60
476.56	10602.63
476.74	10293.68
476.92	10516.03
477.10	10539.43
477.28	10707.95
477.46	10841.36
477.64	10766.46
477.82	10981.79
478.00	11234.57
478.18	11138.61
478.36	11178.40
478.54	11234.57
478.72	11288.40
478.90	11468.62
479.08	11604.38
479.26	11875.88
479.44	11742.47
479.62	11946.09
479.80	11889.92
479.98	12107.59
480.16	12336.96
480.34	12107.59
480.52	12393.14
480.70	12264.41
480.88	11885.24
481.06	12444.63
481.24	12449.31
481.41	12702.09
481.59	12760.60
481.77	12891.67
481.95	12830.82
482.13	12966.57
482.31	12826.14
482.49	13209.98
482.67	13352.76
482.85	13462.76
483.03	13710.86
483.21	13652.34
483.39	14026.83
483.57	13816.18
483.74	14143.86
483.92	14347.48
484.10	13963.64
484.28	14235.14
484.46	14420.04
484.64	14569.83
484.82	14558.13
485.00	14764.10
485.18	15042.62
485.35	14810.91
485.53	15075.39
485.71	14857.72
485.89	15363.28
486.07	14972.41
486.25	15173.69
486.43	15386.68
486.61	15829.04
486.78	15850.11
486.96	15859.47
487.14	15990.54
487.32	16133.31
487.50	16056.08
487.68	16514.82
487.85	16435.24
488.03	16442.26
488.21	17064.85
488.39	16830.79
488.57	16849.52
488.75	16898.67
488.92	17411.25
489.10	17537.63
489.28	17542.32
489.46	17645.30
489.64	17584.44
489.81	17912.12
489.99	18162.56
490.17	18106.38
490.35	18408.31
490.53	18464.49
490.70	18551.09
490.88	18668.11
491.06	18956.00
491.24	18937.27
491.41	19019.19
491.59	18932.59
491.77	18881.10
491.95	19108.13
492.13	19435.81
492.30	19513.05
492.48	19545.81
492.66	19646.46
492.84	19864.13
493.01	19784.55
493.19	20168.40
493.37	20240.95
493.54	20161.37
493.72	20343.94
493.90	20498.41
494.08	20664.59
494.25	20973.54
494.43	20659.91
494.61	20917.37
494.79	21081.21
494.96	21118.65
495.14	21280.15
495.32	21617.19
495.49	21799.75
495.67	21549.31
495.85	21689.74
496.02	22237.43
496.20	21921.46
496.38	22036.14
496.55	22527.66
496.73	22752.35
496.91	22581.49
497.09	22377.86
497.26	23075.34
497.44	22923.21
497.62	22857.67
497.79	23194.71
497.97	22909.16
498.14	23082.36
498.32	23367.91
498.50	23438.12
498.67	23337.48
498.85	23716.65
499.03	23742.39
499.20	23503.66
499.38	23791.55
499.56	23796.23
499.73	23955.38
499.91	24627.12
500.08	24364.98
500.26	23873.46
500.44	24226.89
500.61	24346.25
500.79	24210.50
500.97	24400.08
501.14	24987.56
501.32	24879.89
501.49	24912.66
501.67	25153.74
501.84	25247.36
502.02	25025.01
502.20	25429.92
502.37	25394.81
502.55	25556.31
502.72	25631.21
502.90	25577.37
503.07	25715.47
503.25	25624.18
503.43	25839.51
503.60	26113.36
503.78	26066.55
503.95	25781.00
504.13	26099.31
504.30	26045.48
504.48	26019.74
504.65	26607.21
504.83	26274.85
505.01	26672.74
505.18	26703.17
505.36	27218.09
505.53	26529.97
505.71	27119.79
505.88	27311.71
506.06	26960.63
506.23	27194.68
506.41	27180.64
506.58	27412.35
506.76	27192.34
506.93	27527.04
507.11	27068.30
507.28	27587.89
507.46	27676.83
507.63	27414.69
507.81	28114.52
507.98	27711.94
508.16	28126.22
508.33	27887.48
508.50	28109.83
508.68	28474.96
508.85	28535.81
509.03	28304.10
509.20	28669.22
509.38	28716.03
509.55	28620.07
509.73	28388.36
509.90	28657.52
510.08	28819.02
510.25	28748.80
510.42	29226.27
510.60	29383.09
510.77	29132.65
510.95	29525.86
511.12	29146.69
511.30	29951.84
511.47	29373.72
511.64	29565.65
511.82	29488.41
511.99	29577.35
512.17	30080.56
512.34	29823.11
512.51	30213.98
512.69	30164.82
512.86	30169.51
513.04	30543.99
513.21	30333.34
513.38	30150.78
513.56	30359.09
513.73	30426.96
513.90	30707.83
514.08	30424.62
514.25	30735.92
514.43	30829.54
514.60	30719.53
514.77	31042.53
514.95	31115.08
515.12	31077.63
515.29	31185.30
515.47	31241.47
515.64	31000.40
515.81	31314.03
515.99	31173.60
516.16	31344.45
516.33	31140.83
516.51	31246.15
516.68	31407.65
516.85	31431.05
517.03	31559.78
517.20	31365.52
517.37	31728.30
517.54	32175.34
517.72	31679.15
517.89	31840.65
518.06	31676.81
518.24	31791.50
518.41	31983.42
518.58	32126.19
518.75	32011.51
518.93	32390.67
519.10	32327.48
519.27	32711.33
519.45	32437.48
519.62	32603.66
519.79	33113.90
519.96	33127.94
520.14	32760.48
520.31	33020.28
520.48	33544.56
520.65	33167.73
520.83	33624.14
521.00	33216.88
521.17	33205.18
521.34	33331.57
521.52	33560.94
521.69	33001.55
521.86	33933.09
522.03	33729.46
522.20	34307.57
522.38	34064.16
522.55	34071.18
522.72	34057.14
522.89	34106.29
523.07	34190.55
523.24	34120.33
523.41	34391.83
523.58	33858.19
523.75	34513.54
523.92	34780.36
524.10	34923.13
524.27	34567.37
524.44	34787.38
524.61	34560.35
524.78	34873.98
524.96	34719.51
525.13	35072.93
525.30	35084.63
525.47	35323.36
525.64	35093.99
525.81	35199.32
525.98	35339.75
526.16	34822.49
526.33	34899.73
526.50	35566.78
526.67	35065.91
526.84	35473.16
527.01	35161.87
527.18	35557.42
527.36	35496.56
527.53	35709.55
527.70	35810.20
527.87	35828.92
528.04	35768.07
528.21	35761.05
528.38	35758.70
528.55	35793.81
528.72	35931.90
528.89	36355.54
529.07	36290.01
529.24	36121.49
529.41	35948.29
529.58	36196.38
529.75	35943.61
529.92	36486.61
530.09	36037.23
530.26	36463.21
530.43	36414.05
530.60	36084.04
530.77	36561.51
530.94	36645.77
531.11	37048.34
531.28	36414.05
531.46	36566.19
531.63	37212.18
531.80	37212.18
531.97	36769.82
532.14	36680.88
532.31	36744.07
532.48	37233.24
532.65	37127.92
532.82	37090.47
532.99	37476.66
533.16	37383.04
533.33	37420.48
533.50	37741.14
533.67	37474.32
533.84	37233.24
534.01	38078.18
534.18	37214.52
534.35	38195.20
534.52	37593.68
534.69	37792.63
534.86	37937.74
535.03	37722.41
535.20	38012.64
535.37	38099.24
535.54	38352.02
535.71	37706.03
535.88	37858.17
536.05	38155.41
536.22	38234.99
536.38	38366.06
536.55	38211.59
536.72	38314.57
536.89	38026.68
537.06	38548.62
537.23	38316.91
537.40	38330.95
537.57	38464.36
537.74	38323.93
537.91	39075.24
538.08	38412.87
538.25	38770.97
538.42	38895.02
538.59	39299.94
538.75	38359.04
538.92	38859.91
539.09	38834.17
539.26	38883.32
539.43	38731.18
539.60	38920.77
539.77	39033.11
539.94	39494.20
540.11	39108.01
540.28	39058.86
540.44	39082.27
540.61	39126.74
540.78	39047.16
540.95	39332.70
541.12	38998.01
541.29	39271.85
541.46	39133.76
541.62	39220.36
541.79	39470.79
541.96	39070.56
542.13	39695.49
542.30	39604.20
542.47	39484.84
542.63	39536.33
542.80	39791.45
542.97	40259.55
543.14	40554.46
543.31	40215.08
543.48	40308.71
543.64	40512.33
543.81	40084.01
543.98	40533.40
544.15	40264.24
544.32	40835.33
544.48	40634.04
544.65	40416.37
544.82	40772.13
544.99	39849.96
545.16	40421.05
545.32	40341.47
545.49	40573.19
545.66	40987.46
545.83	40629.36
546.00	40725.32
546.16	40847.03
546.33	40830.65
546.50	40495.95
546.67	40786.18
546.83	40694.89
547.00	40802.56
547.17	40704.26
547.34	40769.79
547.50	40903.20
547.67	41273.01
547.84	41118.53
548.00	41261.30
548.17	41446.21
548.34	41460.25
548.51	41296.41
548.67	41511.74
548.84	41731.75
549.01	41397.06
549.18	41186.41
549.34	41785.58
549.51	41588.98
549.68	41853.46
549.84	41558.55
550.01	41607.70
550.18	41659.20
550.34	41834.74
550.51	41490.68
550.68	41738.77
550.84	41493.02
551.01	41759.84
551.18	41624.09
551.34	41558.55
551.51	41972.83
551.68	41801.97
551.84	42155.39
552.01	41900.27
552.18	41706.01
552.34	41750.48
552.51	41900.27
552.68	41785.58
552.84	42043.04
553.01	42286.46
553.18	41972.83
553.34	42408.17
553.51	41909.63
553.67	42293.48
553.84	42600.09
554.01	42541.58
554.17	42646.90
554.34	42295.82
554.51	42487.74
554.67	42672.65
554.84	42494.77
555.00	42272.42
555.17	42431.57
555.33	42712.44
555.50	42293.48
555.67	42756.91
555.83	42855.21
556.00	42836.48
556.16	42906.70
556.33	42621.16
556.50	42646.90
556.66	42698.39
556.83	42618.81
556.99	43079.90
557.16	43056.50
557.32	43232.04
557.49	43297.57
557.65	42951.17
557.82	42607.11
557.98	42880.95
558.15	42784.99
558.32	42859.89
558.48	42796.70
558.65	43157.14
558.81	42841.17
558.98	43077.56
559.14	43157.14
559.31	42761.59
559.47	43068.20
559.64	43126.71
559.80	42932.45
559.97	43325.66
560.13	43023.73
560.30	42890.32
560.46	43313.95
560.63	43419.28
560.79	43449.70
560.96	43576.09
561.12	43215.65
561.29	43456.73
561.45	43267.14
561.61	43412.26
561.78	43405.23
561.94	43203.95
562.11	43335.02
562.27	43271.82
562.44	43653.33
562.60	43735.25
562.77	43349.06
562.93	43650.99
563.10	43306.93
563.26	42911.38
563.42	43529.28
563.59	43356.08
563.75	43168.84
563.92	43473.11
564.08	43519.92
564.24	43533.96
564.41	43461.41
564.57	43650.99
564.74	43601.84
564.90	43702.48
565.07	44058.24
565.23	43772.70
565.39	43814.83
565.56	43922.49
565.72	43578.43
565.88	43620.56
566.05	43805.47
566.21	43791.42
566.38	44088.67
566.54	44009.09
566.70	44091.01
566.87	44275.91
567.03	44392.94
567.19	44196.34
567.36	43899.09
567.52	43519.92
567.68	43985.69
567.85	43805.47
568.01	43559.71
568.17	43803.13
568.34	44088.67
568.50	44264.21
568.66	43461.41
568.83	43849.94
568.99	43936.54
569.15	43564.39
569.32	43775.04
569.48	43873.34
569.64	44259.53
569.81	43901.43
569.97	43856.96
570.13	43999.73
570.30	44004.41
570.46	43503.54
570.62	43875.68
570.78	43924.83
570.95	43948.24
571.11	44137.82
571.27	43901.43
571.43	43721.21
571.60	44259.53
571.76	43800.79
571.92	43906.11
572.09	44091.01
572.25	44079.31
572.41	43941.22
572.57	44041.86
572.74	44580.18
572.90	44048.88
573.06	44594.23
573.22	44177.61
573.38	44404.64
573.55	44123.78
573.71	44414.01
573.87	44304.00
574.03	43480.13
574.20	44112.08
574.36	43997.39
574.52	44247.83
574.68	44406.98
574.84	44194.00
575.01	44006.75
575.17	44444.43
575.33	44208.04
575.49	43971.64
575.65	44655.08
575.82	44605.93
575.98	44376.56
576.14	44870.41
576.30	44765.09
576.46	44016.11
576.62	44294.64
576.79	44435.07
576.95	43903.77
577.11	44556.78
577.27	44470.18
577.43	44252.51
577.59	44081.65
577.75	44350.81
577.92	44507.63
578.08	44201.02
578.24	43922.49
578.40	44481.88
578.56	44526.35
578.72	44617.63
578.88	44591.89
579.04	44266.55
579.21	44170.59
579.37	44247.83
579.53	44254.85
579.69	44367.20
579.85	44533.37
580.01	44395.28
580.17	44484.22
580.33	44938.29
580.49	44854.03
580.65	44533.37
580.82	44694.87
580.98	44301.66
581.14	44327.41
581.30	44474.86
581.46	44650.40
581.62	44458.48
581.78	44240.81
581.94	44793.17
582.10	44390.60
582.26	44704.23
582.42	43945.90
582.58	44500.61
582.74	44343.79
582.90	44189.31
583.06	44212.72
583.22	44509.97
583.38	44779.13
583.54	44460.82
583.70	44538.05
583.86	44657.42
584.02	44060.58
584.18	44652.74
584.34	44350.81
584.50	44655.08
584.66	44135.48
584.82	44271.23
584.98	44535.71
585.14	44734.66
585.30	44374.22
585.46	44222.08
585.62	44142.50
585.78	44748.70
585.94	44191.65
586.10	44594.23
586.26	44182.29
586.42	44781.47
586.58	44479.54
586.74	44610.61
586.90	44210.38
587.06	44320.38
587.22	44769.77
587.38	44332.09
587.54	44467.84
587.70	44751.04
587.86	44538.05
588.02	44589.55
588.18	44800.19
588.34	44603.59
588.49	44664.44
588.65	44418.69
588.81	44409.32
588.97	44264.21
589.13	44083.99
589.29	44514.65
589.45	44219.74
589.61	44425.71
589.77	44811.90
589.93	44924.24
590.08	45003.82
590.24	44758.06
