SpectraSuite Data File
++++++++++++++++++++++++++++++++++++
Date: Fri Oct 25 11:25:54 EDT 2013
User: price-jones
Dark Spectrum Present: No
Reference Spectrum Present: No
Number of Sampled Component Spectra: 1
Spectrometers: USB2+H05261
Integration Time (usec): 100000 (USB2+H05261)
Spectra Averaged: 1 (USB2+H05261)
Boxcar Smoothing: 0 (USB2+H05261)
Correct for Electrical Dark: No (USB2+H05261)
Strobe/Lamp Enabled: No (USB2+H05261)
Correct for Detector Non-linearity: No (USB2+H05261)
Correct for Stray Light: No (USB2+H05261)
Number of Pixels in Processed Spectrum: 2048
>>>>>Begin Processed Spectral Data<<<<<
365.73	308.95
365.92	308.95
366.12	308.95
366.32	131.07
366.52	156.82
366.72	205.97
366.91	161.50
367.11	44.47
367.31	110.01
367.51	170.86
367.70	121.71
367.90	187.24
368.10	138.09
368.30	121.71
368.49	105.32
368.69	187.24
368.89	124.05
369.09	133.41
369.28	154.48
369.48	194.26
369.68	138.09
369.87	168.52
370.07	149.79
370.27	280.86
370.47	311.29
370.66	610.88
370.86	664.71
371.06	634.29
371.25	697.48
371.45	638.97
371.65	781.74
371.84	690.46
372.04	739.61
372.24	709.18
372.44	716.20
372.63	760.67
372.83	774.72
373.03	753.65
373.22	772.38
373.42	770.04
373.62	692.80
373.81	800.46
374.01	812.17
374.21	807.48
374.40	816.85
374.60	842.59
374.79	812.17
374.99	833.23
375.19	903.45
375.38	922.17
375.58	849.61
375.78	828.55
375.97	800.46
376.17	915.15
376.37	889.40
376.56	847.27
376.76	812.17
376.95	858.98
377.15	809.83
377.35	830.89
377.54	828.55
377.74	873.02
377.93	887.06
378.13	936.21
378.33	1004.09
378.52	957.28
378.72	964.30
378.91	889.40
379.11	940.90
379.31	1032.18
379.50	971.32
379.70	959.62
379.89	978.34
380.09	877.70
380.28	997.07
380.48	961.96
380.68	1043.88
380.87	985.37
381.07	1025.15
381.26	1004.09
381.46	1004.09
381.65	985.37
381.85	950.26
382.04	1076.65
382.24	1057.92
382.43	994.73
382.63	1048.56
382.83	1067.28
383.02	1022.81
383.22	1125.80
383.41	1020.47
383.61	1008.77
383.80	1088.35
384.00	1128.14
384.19	1128.14
384.39	1086.01
384.58	1188.99
384.78	1116.44
384.97	1067.28
385.17	1188.99
385.36	1212.40
385.56	1266.23
385.75	1146.86
385.95	1156.22
386.14	1207.72
386.34	1165.59
386.53	1235.80
386.72	1235.80
386.92	1270.91
387.11	1254.53
387.31	1177.29
387.50	1240.48
387.70	1310.70
387.89	1308.36
388.09	1308.36
388.28	1249.85
388.48	1338.79
388.67	1280.27
388.86	1268.57
389.06	1284.95
389.25	1320.06
389.45	1336.45
389.64	1392.62
389.84	1373.89
390.03	1413.68
390.22	1378.58
390.42	1348.15
390.61	1369.21
390.81	1418.36
391.00	1355.17
391.19	1469.86
391.39	1441.77
391.58	1495.60
391.78	1355.17
391.97	1394.96
392.16	1397.30
392.36	1465.18
392.55	1486.24
392.75	1565.82
392.94	1488.58
393.13	1544.75
393.33	1446.45
393.52	1549.43
393.71	1554.12
393.91	1612.63
394.10	1533.05
394.29	1577.52
394.49	1502.62
394.68	1593.90
394.88	1710.93
395.07	1717.95
395.26	1755.40
395.46	1645.40
395.65	1732.00
395.84	1755.40
396.04	1813.92
396.23	1741.36
396.42	1844.34
396.62	1778.81
396.81	1764.76
397.00	1750.72
397.19	1825.62
397.39	1816.26
397.58	1757.74
397.77	1664.12
397.97	1853.70
398.16	1884.13
398.35	1879.45
398.55	1884.13
398.74	1937.96
398.93	1928.60
399.12	1961.37
399.32	1933.28
399.51	1949.67
399.70	1970.73
399.90	1956.69
400.09	2017.54
400.28	1966.05
400.47	2033.93
400.67	2062.01
400.86	2186.06
401.05	2080.74
401.24	2113.50
401.44	2209.47
401.63	2118.18
401.82	2111.16
402.01	2190.74
402.21	2256.28
402.40	2228.19
402.59	2174.36
402.78	2193.08
402.97	2221.17
403.17	2328.83
403.36	2251.60
403.55	2291.38
403.74	2385.01
403.93	2375.64
404.13	2251.60
404.32	2401.39
404.51	2307.77
404.70	2413.09
404.89	2370.96
405.09	2504.37
405.28	2497.35
405.47	2464.58
405.66	2403.73
405.85	2513.74
406.05	2597.99
406.24	2644.81
406.43	2511.39
406.62	2679.91
406.81	2715.02
407.00	2574.59
407.20	2614.38
407.39	2581.61
407.58	2579.27
407.77	2705.66
407.96	2799.28
408.15	2745.45
408.34	2569.91
408.54	2745.45
408.73	2850.77
408.92	2705.66
409.11	2895.24
409.30	2864.82
409.49	2967.80
409.68	2899.92
409.87	2928.01
410.07	2918.65
410.26	3061.42
410.45	2951.42
410.64	2928.01
410.83	3073.12
411.02	3148.02
411.21	3204.19
411.40	3112.91
411.59	3232.28
411.78	3199.51
411.98	3148.02
412.17	3173.77
412.36	3311.86
412.55	3297.81
412.74	3454.63
412.93	3391.44
413.12	3286.11
413.31	3522.51
413.50	3552.93
413.69	3501.44
413.88	3688.68
414.07	3595.06
414.26	3625.49
414.45	3639.53
414.64	3716.77
414.83	3819.75
415.02	3669.96
415.22	3812.73
415.41	3971.89
415.60	3882.95
415.79	3796.35
415.98	3840.82
416.17	3941.46
416.36	3962.53
416.55	3950.82
416.74	4142.75
416.93	3976.57
417.12	4046.79
417.31	4243.39
417.50	4018.70
417.69	4327.65
417.88	4304.25
418.07	4219.99
418.26	4280.84
418.45	4386.16
418.64	4557.02
418.83	4374.46
419.02	4458.72
419.21	4470.42
419.39	4477.44
419.58	4552.34
419.77	4557.02
419.96	4599.15
420.15	4578.09
420.34	4451.70
420.53	4606.17
420.72	4748.95
420.91	4788.74
421.10	4779.37
421.29	4795.76
421.48	4685.75
421.67	4791.08
421.86	4847.25
422.05	4882.36
422.24	4784.06
422.43	4938.53
422.61	4793.42
422.80	4861.29
422.99	4894.06
423.18	4877.68
423.37	5165.56
423.56	4983.00
423.75	4870.65
423.94	4807.46
424.13	4741.93
424.32	4697.46
424.50	4985.34
424.69	4842.57
424.88	4971.30
425.07	4919.81
425.26	4868.31
425.45	4844.91
425.64	4929.17
425.83	5022.79
426.01	5102.37
426.20	4968.96
426.39	5088.32
426.58	5158.54
426.77	4992.36
426.96	5055.56
427.15	5060.24
427.33	5107.05
427.52	5144.50
427.71	5334.08
427.90	5071.94
428.09	5418.34
428.28	5460.47
428.46	5310.68
428.65	5397.28
428.84	5378.55
429.03	5511.96
429.22	5289.61
429.40	5432.38
429.59	5430.04
429.78	5345.78
429.97	5362.17
430.16	5544.73
430.34	5507.28
430.53	5657.07
430.72	5678.14
430.91	5614.95
431.10	5647.71
431.28	5790.49
431.47	5715.59
431.66	5839.64
431.85	5654.73
432.03	5881.77
432.22	5916.87
432.41	6120.50
432.60	5856.02
432.79	5973.05
432.97	5977.73
433.16	6125.18
433.35	5926.24
433.54	5914.53
433.72	6073.69
433.91	6054.97
434.10	6122.84
434.28	6069.01
434.47	6193.06
434.66	6162.63
434.85	6349.87
435.03	6424.77
435.22	6326.47
435.41	6485.62
435.59	6427.11
435.78	6394.34
435.97	6431.79
436.16	6314.77
436.34	6553.50
436.53	6572.22
436.72	6436.47
436.90	6494.99
437.09	6733.72
437.28	6640.10
437.46	6541.80
437.65	6572.22
437.84	6761.81
438.02	6604.99
438.21	6848.41
438.40	6686.91
438.58	7000.54
438.77	7047.35
438.96	6878.83
439.14	6913.94
439.33	7213.53
439.52	7192.47
439.70	7007.56
439.89	7393.75
440.08	7466.31
440.26	7564.61
440.45	7311.83
440.63	7398.43
440.82	7503.76
441.01	7588.02
441.19	7590.36
441.38	7815.05
441.57	7719.09
441.75	7620.78
441.94	7889.95
442.12	7822.07
442.31	8016.33
442.50	8065.49
442.68	7878.24
442.87	7953.14
443.05	8056.12
443.24	8105.28
443.43	8044.42
443.61	8025.70
443.80	8381.46
443.98	7964.84
444.17	7779.94
444.35	8320.60
444.54	8351.03
444.73	8308.90
444.91	8163.79
445.10	8147.40
445.28	8262.09
445.47	8102.93
445.65	8245.71
445.84	8573.38
446.02	8493.80
446.21	8276.13
446.39	8496.14
446.58	8493.80
446.77	8444.65
446.95	8224.64
447.14	8559.34
447.32	8540.61
447.51	8381.46
447.69	8404.86
447.88	8421.25
448.06	8409.54
448.25	8559.34
448.43	8540.61
448.62	8627.21
448.80	8535.93
448.99	8692.75
449.17	8659.98
449.36	8844.88
449.54	8884.67
449.73	8887.01
449.91	8802.75
450.10	9046.17
450.28	9078.94
450.46	9179.58
450.65	9092.98
450.83	8879.99
451.02	8882.33
451.20	9296.61
451.39	9050.85
451.57	9268.52
451.76	8933.82
451.94	9060.21
452.13	9341.08
452.31	9338.74
452.49	9432.36
452.68	9195.96
452.86	9579.81
453.05	9596.20
453.23	9305.97
453.42	9469.81
453.60	9472.15
453.78	9521.30
453.97	9406.61
454.15	9460.45
454.34	9298.95
454.52	9745.99
454.70	9605.56
454.89	9776.42
455.07	9841.95
455.26	9783.44
455.44	9919.19
455.62	9696.84
455.81	9921.53
455.99	10087.71
456.17	9856.00
456.36	10265.59
456.54	10066.64
456.73	10307.72
456.91	10335.81
457.09	10413.04
457.28	10647.10
457.46	10312.40
457.64	10424.75
457.83	10635.39
458.01	10443.47
458.19	10668.16
458.38	10513.69
458.56	10684.55
458.74	10607.31
458.93	10656.46
459.11	10672.84
459.29	10691.57
459.48	10794.55
459.66	10951.37
459.84	10892.85
460.03	10911.58
460.21	10981.79
460.39	11126.91
460.57	10949.03
460.76	11117.54
460.94	10988.82
461.12	11267.34
461.31	11150.31
461.49	11253.30
461.67	11044.99
461.85	11550.54
462.04	11428.84
462.22	11892.26
462.40	11730.76
462.59	11644.17
462.77	11470.97
462.95	11499.05
463.13	11559.91
463.32	11564.59
463.50	11800.98
463.68	12037.38
463.86	11868.86
464.05	11634.80
464.23	11679.27
464.41	11798.64
464.59	11709.70
464.78	12177.81
464.96	11840.77
465.14	11761.19
465.32	11955.46
465.50	11976.52
465.69	12013.97
465.87	12044.40
466.05	12343.99
466.23	12166.10
466.41	12133.34
466.60	12613.15
466.78	12194.19
466.96	12226.96
467.14	12229.30
467.32	12198.87
467.51	12685.70
467.69	12226.96
467.87	12292.49
468.05	12727.83
468.23	12568.68
468.41	12444.63
468.60	12519.53
468.78	12669.32
468.96	12493.78
469.14	12793.37
469.32	12973.59
469.50	12737.20
469.69	13041.46
469.87	13046.15
470.05	13198.28
470.23	13214.66
470.41	12992.31
470.59	13097.64
470.77	13095.30
470.95	13146.79
471.14	13425.31
471.32	13088.28
471.50	13558.72
471.68	13713.20
471.86	13774.05
472.04	13638.30
472.22	13968.32
472.40	13884.06
472.58	14153.22
472.77	13947.25
472.95	14207.05
473.13	14501.96
473.31	13891.08
473.49	14043.21
473.67	14064.28
473.85	14441.11
474.03	14740.69
474.21	14504.30
474.39	14595.58
474.57	14925.60
474.75	15070.71
474.93	15077.73
475.12	15094.11
475.30	15178.37
475.48	15007.52
475.66	15272.00
475.84	15325.83
476.02	15300.08
476.20	15559.88
476.38	15513.07
476.56	15775.21
476.74	16128.63
476.92	15850.11
477.10	16070.12
477.28	16098.20
477.46	16147.36
477.64	16496.10
477.82	16592.06
478.00	16917.39
478.18	16809.73
478.36	17099.95
478.54	17467.42
478.72	17235.70
478.90	17429.97
479.08	17343.37
479.26	17701.47
479.44	17818.50
479.62	17675.73
479.80	18017.44
479.98	17937.87
480.16	18693.86
480.34	18106.38
480.52	18841.31
480.70	18803.86
480.88	18340.44
481.06	18600.24
481.24	18703.22
481.41	18899.83
481.59	19379.64
481.77	19295.38
481.95	19632.41
482.13	19791.57
482.31	19613.69
482.49	20042.01
482.67	20269.04
482.85	20549.90
483.03	20695.02
483.21	20737.15
483.39	20826.09
483.57	20863.54
483.74	20893.96
483.92	21275.47
484.10	21235.68
484.28	21813.79
484.46	21799.75
484.64	22176.58
484.82	21813.79
485.00	22277.22
485.18	22780.43
485.35	22850.65
485.53	22752.35
485.71	23002.78
485.89	23545.79
486.07	23302.37
486.25	23307.05
486.43	23679.20
486.61	23934.32
486.78	24093.47
486.96	24283.06
487.14	24261.99
487.32	24376.68
487.50	25088.20
487.68	24926.71
487.85	25301.19
488.03	25673.34
488.21	25776.32
488.39	25998.67
488.57	26089.95
488.75	25841.85
488.92	26450.39
489.10	26820.20
489.28	26813.18
489.46	27204.05
489.64	26967.65
489.81	27641.73
489.99	27751.73
490.17	27889.82
490.35	28198.77
490.53	28238.56
490.70	28226.86
490.88	28215.16
491.06	28386.02
491.24	28463.25
491.41	29237.97
491.59	29315.21
491.77	29230.95
491.95	29331.59
492.13	29244.99
492.30	30094.61
492.48	29792.68
492.66	30122.69
492.84	30251.42
493.01	30710.17
493.19	30883.37
493.37	31461.48
493.54	31058.91
493.72	31693.19
493.90	31555.10
494.08	31915.54
494.25	32393.01
494.43	31988.10
494.61	32439.82
494.79	32140.24
494.96	32332.16
495.14	33008.58
495.32	32823.67
495.49	33071.77
495.67	33006.23
495.85	33748.18
496.02	33706.05
496.20	34157.78
496.38	34171.82
496.55	34106.29
496.73	34305.23
496.91	34368.43
497.09	34724.19
497.26	34611.84
497.44	35278.89
497.62	35353.79
497.79	35510.61
497.97	35033.14
498.14	35871.05
498.32	36123.83
498.50	36100.42
498.67	36400.01
498.85	36336.82
499.03	36538.10
499.20	36594.28
499.38	37163.03
499.56	36840.03
499.73	36971.10
499.91	36961.74
500.08	37340.91
500.26	37205.16
500.44	37539.85
500.61	37867.53
500.79	38019.66
500.97	38401.17
501.14	38452.66
501.32	38462.02
501.49	38199.88
501.67	38768.63
501.84	38595.43
502.02	38576.71
502.20	39428.66
502.37	39206.31
502.55	39124.40
502.72	39285.89
502.90	39391.22
503.07	39459.09
503.25	39739.96
503.43	39690.80
503.60	40037.20
503.78	40407.01
503.95	40088.70
504.13	40343.81
504.30	40568.51
504.48	40395.31
504.65	40755.75
504.83	41230.88
505.01	41235.56
505.18	41053.00
505.36	41635.79
505.53	41160.66
505.71	41291.73
505.88	41832.39
506.06	41764.52
506.23	41918.99
506.41	41675.58
506.58	41745.80
506.76	41904.95
506.93	42602.43
507.11	42162.41
507.28	42815.42
507.46	42925.42
507.63	42838.83
507.81	43098.62
507.98	42679.67
508.16	43068.20
508.33	43421.62
508.50	43239.06
508.68	43744.61
508.85	43606.52
509.03	43400.55
509.20	44098.03
509.38	44238.47
509.55	43992.71
509.73	44428.05
509.90	44933.60
510.08	44425.71
510.25	44678.49
510.42	44856.37
510.60	44847.00
510.77	45078.72
510.95	45776.20
511.12	45432.14
511.30	45001.48
511.47	45390.01
511.64	45687.26
511.82	46279.41
511.99	45818.33
512.17	45867.48
512.34	45591.30
512.51	46426.87
512.69	46438.57
512.86	46370.69
513.04	46909.02
513.21	46899.65
513.38	46937.10
513.56	46787.31
513.73	46651.56
513.90	46979.23
514.08	47150.09
514.25	47386.49
514.43	47114.98
514.60	47501.17
514.77	47145.41
514.95	48004.39
515.12	47491.81
515.29	47248.39
515.47	48083.97
515.64	48428.02
515.81	47718.84
515.99	48107.37
516.16	48800.17
516.33	48226.74
516.51	48484.20
516.68	48378.87
516.85	48219.72
517.03	48854.00
517.20	49169.97
517.37	48374.19
517.54	48903.15
517.72	49013.16
517.89	48994.43
518.06	49125.50
518.24	49144.23
518.41	49633.40
518.58	49261.26
518.75	49270.62
518.93	49326.79
519.10	49057.63
519.27	49397.01
519.45	49563.18
519.62	50033.63
519.79	49593.61
519.96	49916.61
520.14	50143.64
520.31	49998.52
520.48	50279.39
520.65	50333.22
520.83	50499.40
521.00	50857.50
521.17	50597.70
521.34	50761.54
521.52	50499.40
521.69	50927.72
521.86	51016.66
522.03	51070.49
522.20	51075.17
522.38	51283.48
522.55	51316.25
522.72	51454.34
522.89	51311.56
523.07	51997.34
523.24	51332.63
523.41	51826.48
523.58	51405.19
523.75	51585.41
523.92	51711.80
524.10	51868.61
524.27	52006.70
524.44	52191.61
524.61	51922.44
524.78	52130.75
524.96	52006.70
525.13	52381.19
525.30	52301.61
525.47	52348.42
525.64	52198.63
525.81	52521.62
525.98	52622.26
526.16	52306.29
526.33	52575.45
526.50	52762.70
526.67	52832.91
526.84	52975.69
527.01	53315.06
527.18	52701.84
527.36	52889.09
527.53	52825.89
527.70	53385.28
527.87	53394.64
528.04	53296.34
528.21	53607.63
528.38	53359.53
528.55	53698.91
528.72	53240.17
528.89	53132.50
529.07	53441.45
529.24	53200.38
529.41	53752.74
529.58	53413.37
529.75	53584.22
529.92	53584.22
530.09	53855.73
530.26	53954.03
530.43	53998.50
530.60	53790.19
530.77	54005.52
530.94	54064.03
531.11	53820.62
531.28	54284.04
531.46	54157.66
531.63	53848.71
531.80	54293.41
531.97	54384.69
532.14	54211.49
532.31	54321.49
532.48	54581.29
532.65	54539.16
532.82	54408.09
532.99	54419.80
533.16	54581.29
533.33	54618.74
533.50	54901.95
533.67	54679.60
533.84	54784.92
534.01	54564.91
534.18	55182.81
534.35	55447.29
534.52	55047.06
534.69	55150.04
534.86	55292.82
535.03	54923.01
535.20	55325.58
535.37	55100.89
535.54	55320.90
535.71	54983.86
535.88	55552.62
536.05	55473.04
536.22	55423.89
536.38	55573.68
536.55	55503.46
536.72	55444.95
536.89	55650.92
537.06	55517.51
537.23	55730.50
537.40	55456.65
537.57	55604.11
537.74	55648.58
537.91	56069.87
538.08	55962.21
538.25	55669.64
538.42	55789.01
538.59	56149.45
538.75	55903.70
538.92	56104.98
539.09	56296.91
539.26	56067.53
539.43	56224.35
539.60	56254.78
539.77	56334.35
539.94	56435.00
540.11	56130.73
540.28	56381.16
540.44	56259.46
540.61	56364.78
540.78	56357.76
540.95	56282.86
541.12	56296.91
541.29	56301.59
541.46	56629.26
541.62	56437.34
541.79	56669.05
541.96	56310.95
542.13	56601.18
542.30	56657.35
542.47	56776.72
542.63	56872.68
542.80	57071.62
542.97	57057.58
543.14	57001.41
543.31	57183.97
543.48	57289.29
543.64	57525.69
543.81	57406.32
543.98	57368.87
544.15	57235.46
544.32	57380.57
544.48	57502.28
544.65	57457.81
544.82	57322.06
544.99	57303.34
545.16	57411.00
545.32	57258.87
545.49	57673.14
545.66	57684.84
545.83	57432.07
546.00	57759.74
546.16	57446.11
546.33	57654.42
546.50	57359.51
546.67	57757.40
546.83	57371.21
547.00	57883.79
547.17	57340.78
547.34	57560.79
547.50	57834.64
547.67	58108.48
547.84	58038.26
548.00	58206.78
548.17	58089.76
548.34	57984.43
548.51	58312.11
548.67	58155.29
548.84	58078.05
549.01	58033.58
549.18	58279.34
549.34	58054.65
549.51	58365.94
549.68	58328.49
549.84	58312.11
550.01	58340.19
550.18	58347.21
550.34	58518.07
550.51	58426.79
550.68	58291.04
550.84	58031.24
551.01	58532.12
551.18	58492.33
551.34	58459.56
551.51	58281.68
551.68	58532.12
551.84	58494.67
552.01	58508.71
552.18	58590.63
552.34	58532.12
552.51	58576.59
552.68	58312.11
552.84	58508.71
553.01	58726.38
553.18	59040.01
553.34	59004.91
553.51	58756.81
553.67	58717.02
553.84	58922.99
554.01	58775.53
554.17	58995.54
554.34	59164.06
554.51	58883.20
554.67	59124.27
554.84	59194.49
555.00	58824.68
555.17	59089.16
555.33	58871.49
555.50	58946.39
555.67	58862.13
555.83	59051.72
556.00	58990.86
556.16	59480.03
556.33	59524.50
556.50	59196.83
556.66	59283.43
556.83	59002.56
556.99	59220.23
557.16	59306.83
557.32	59395.77
557.49	59606.42
557.65	59227.26
557.82	59372.37
557.98	59135.98
558.15	59381.73
558.32	59440.24
558.48	59353.65
558.65	59337.26
558.81	59522.16
558.98	59505.78
559.14	59618.13
559.31	59552.59
559.47	59613.44
559.64	59564.29
559.80	59625.15
559.97	59777.28
560.13	59365.35
560.30	59980.91
560.46	59737.49
560.63	59774.94
560.79	59524.50
560.96	59941.12
561.12	59861.54
561.29	59807.71
561.45	59847.50
561.61	59866.22
561.78	59887.29
561.94	59786.64
562.11	59779.62
562.27	59964.52
562.44	59859.20
562.60	60048.78
562.77	59870.90
562.93	59887.29
563.10	59969.21
563.26	59744.51
563.42	60037.08
563.59	59966.87
563.75	59898.99
563.92	59917.71
564.08	60079.21
564.24	60221.98
564.41	59966.87
564.57	60025.38
564.74	59929.42
564.90	60142.41
565.07	60149.43
565.23	60207.94
565.39	60062.83
565.56	60144.75
565.72	60025.38
565.88	60079.21
566.05	60137.72
566.21	60219.64
566.38	60076.87
566.54	60135.38
566.70	60404.55
566.87	60385.82
567.03	60074.53
567.19	60491.15
567.36	60409.23
567.52	60360.08
567.68	60509.87
567.85	60392.84
568.01	60266.45
568.17	60158.79
568.34	60458.38
568.50	60369.44
568.66	60292.20
568.83	60493.49
568.99	60275.82
569.15	60549.66
569.32	60313.26
569.48	60537.96
569.64	60535.62
569.81	60437.31
569.97	60376.46
570.13	60310.92
570.30	60322.63
570.46	60264.11
570.62	60523.91
570.78	60533.28
570.95	60409.23
571.11	60535.62
571.27	60453.70
571.43	60484.12
571.60	60523.91
571.76	60544.98
571.92	60477.10
572.09	60493.49
572.25	60519.23
572.41	60479.44
572.57	60594.13
572.74	60760.31
572.90	60584.77
573.06	60561.36
573.22	60715.84
573.38	60701.79
573.55	60622.22
573.71	60842.23
573.87	60596.47
574.03	60704.13
574.20	60554.34
574.36	60479.44
574.52	60772.01
574.68	60402.21
574.84	60750.94
575.01	60905.42
575.17	60741.58
575.33	60657.32
575.49	60664.35
575.65	60924.14
575.82	60711.16
575.98	60825.84
576.14	60926.49
576.30	60755.63
576.46	60664.35
576.62	60596.47
576.79	60654.98
576.95	60615.19
577.11	60750.94
577.27	60910.10
577.43	60877.33
577.59	60584.77
577.75	60767.33
577.92	60601.15
578.08	60739.24
578.24	60793.07
578.40	60769.67
578.56	60781.37
578.72	60863.29
578.88	60903.08
579.04	60985.00
579.21	61001.38
579.37	61022.45
579.53	60985.00
579.69	60699.45
579.85	60690.09
580.01	60687.75
580.17	60711.16
580.33	60865.63
580.49	60750.94
580.65	60975.64
580.82	60952.23
580.98	60891.38
581.14	60835.20
581.30	60839.89
581.46	60669.03
581.62	61050.53
581.78	60823.50
581.94	60823.50
582.10	60889.04
582.26	60769.67
582.42	60772.01
582.58	61057.56
582.74	60699.45
582.90	60992.02
583.06	60818.82
583.22	60856.27
583.38	60797.76
583.54	60959.25
583.70	60945.21
583.86	60896.06
584.02	60739.24
584.18	61233.10
584.34	61034.15
584.50	60977.98
584.66	60811.80
584.82	60788.39
584.98	61240.12
585.14	60928.83
585.30	60938.19
585.46	60956.91
585.62	61141.81
585.78	61132.45
585.94	60837.54
586.10	60839.89
586.26	61116.07
586.42	61240.12
586.58	61141.81
586.74	61057.56
586.90	60872.65
587.06	61085.64
587.22	61085.64
587.38	61020.11
587.54	61144.16
587.70	61017.77
587.86	61174.58
588.02	61087.98
588.18	61085.64
588.34	60945.21
588.49	61080.96
