SpectraSuite Data File
++++++++++++++++++++++++++++++++++++
Date: Fri Oct 25 11:34:39 EDT 2013
User: price-jones
Dark Spectrum Present: No
Reference Spectrum Present: No
Number of Sampled Component Spectra: 1
Spectrometers: USB2+H05261
Integration Time (usec): 100000 (USB2+H05261)
Spectra Averaged: 1 (USB2+H05261)
Boxcar Smoothing: 0 (USB2+H05261)
Correct for Electrical Dark: No (USB2+H05261)
Strobe/Lamp Enabled: No (USB2+H05261)
Correct for Detector Non-linearity: No (USB2+H05261)
Correct for Stray Light: No (USB2+H05261)
Number of Pixels in Processed Spectrum: 2048
>>>>>Begin Processed Spectral Data<<<<<
365.73	294.91
365.92	294.91
366.12	294.91
366.32	156.82
366.52	196.60
366.72	252.78
366.91	152.13
367.11	217.67
367.31	236.39
367.51	138.09
367.70	189.58
367.90	217.67
368.10	173.20
368.30	210.65
368.49	189.58
368.69	198.95
368.89	187.24
369.09	140.43
369.28	297.25
369.48	194.26
369.68	264.48
369.87	248.10
370.07	229.37
370.27	327.68
370.47	308.95
370.66	451.72
370.86	507.90
371.06	512.58
371.25	507.90
371.45	545.34
371.65	503.22
371.84	519.60
372.04	550.03
372.24	559.39
372.44	596.84
372.63	578.11
372.83	622.58
373.03	557.05
373.22	589.82
373.42	552.37
373.62	664.71
373.81	622.58
374.01	624.92
374.21	688.12
374.40	610.88
374.60	655.35
374.79	634.29
374.99	636.63
375.19	662.37
375.38	645.99
375.58	636.63
375.78	678.76
375.97	671.73
376.17	699.82
376.37	674.07
376.56	702.16
376.76	592.16
376.95	634.29
377.15	622.58
377.35	629.60
377.54	713.86
377.74	662.37
377.93	683.44
378.13	655.35
378.33	692.80
378.52	732.59
378.72	683.44
378.91	767.70
379.11	732.59
379.31	767.70
379.50	671.73
379.70	676.41
379.89	720.88
380.09	664.71
380.28	667.05
380.48	631.94
380.68	709.18
380.87	695.14
381.07	720.88
381.26	788.76
381.46	746.63
381.65	786.42
381.85	800.46
382.04	755.99
382.24	737.27
382.43	767.70
382.63	690.46
382.83	692.80
383.02	734.93
383.22	777.06
383.41	795.78
383.61	802.80
383.80	821.53
384.00	779.40
384.19	833.23
384.39	816.85
384.58	795.78
384.78	868.34
384.97	858.98
385.17	739.61
385.36	800.46
385.56	800.46
385.75	819.19
385.95	854.30
386.14	833.23
386.34	819.19
386.53	842.59
386.72	779.40
386.92	823.87
387.11	837.91
387.31	861.32
387.50	858.98
387.70	887.06
387.89	821.53
388.09	929.19
388.28	873.02
388.48	952.60
388.67	966.64
388.86	894.08
389.06	856.64
389.25	889.40
389.45	882.38
389.64	936.21
389.84	945.58
390.03	936.21
390.22	887.06
390.42	880.04
390.61	891.74
390.81	826.21
391.00	990.05
391.19	1008.77
391.39	968.98
391.58	1029.84
391.78	966.64
391.97	971.32
392.16	985.37
392.36	1004.09
392.55	1020.47
392.75	994.73
392.94	954.94
393.13	1029.84
393.33	919.83
393.52	1025.15
393.71	1125.80
393.91	1001.75
394.10	1109.41
394.29	1076.65
394.49	1050.90
394.68	1078.99
394.88	1118.78
395.07	1086.01
395.26	1064.94
395.46	1191.33
395.65	1088.35
395.84	1135.16
396.04	1203.04
396.23	1088.35
396.42	1095.37
396.62	1174.95
396.81	1151.54
397.00	1090.69
397.19	1259.21
397.39	1165.59
397.58	1196.01
397.77	1104.73
397.97	1177.29
398.16	1156.22
398.35	1299.00
398.55	1172.61
398.74	1261.55
398.93	1284.95
399.12	1334.11
399.32	1228.78
399.51	1324.74
399.70	1296.66
399.90	1200.69
400.09	1338.79
400.28	1366.87
400.47	1380.92
400.67	1301.34
400.86	1268.57
401.05	1355.17
401.24	1336.45
401.44	1432.41
401.63	1413.68
401.82	1355.17
402.01	1441.77
402.21	1423.05
402.40	1502.62
402.59	1425.39
402.78	1488.58
402.97	1486.24
403.17	1444.11
403.36	1420.71
403.55	1448.79
403.74	1476.88
403.93	1490.92
404.13	1509.65
404.32	1488.58
404.51	1483.90
404.70	1654.76
404.89	1514.33
405.09	1706.25
405.28	1640.72
405.47	1610.29
405.66	1614.97
405.85	1614.97
406.05	1678.16
406.24	1671.14
406.43	1621.99
406.62	1696.89
406.81	1710.93
407.00	1696.89
407.20	1682.85
407.39	1678.16
407.58	1776.47
407.77	1909.88
407.96	1820.94
408.15	1820.94
408.34	1846.68
408.54	1881.79
408.73	1865.41
408.92	1872.43
409.11	1956.69
409.30	1846.68
409.49	1905.20
409.68	1881.79
409.87	1842.00
410.07	1949.67
410.26	1940.30
410.45	1973.07
410.64	1998.82
410.83	1940.30
411.02	2106.48
411.21	2045.63
411.40	2038.61
411.59	2083.08
411.78	2157.97
411.98	2162.66
412.17	2204.78
412.36	2216.49
412.55	2209.47
412.74	2317.13
412.93	2349.90
413.12	2162.66
413.31	2420.11
413.50	2312.45
413.69	2249.25
413.88	2377.98
414.07	2385.01
414.26	2312.45
414.45	2307.77
414.64	2338.20
414.83	2530.12
415.02	2445.86
415.22	2537.14
415.41	2581.61
415.60	2511.39
415.79	2574.59
415.98	2693.96
416.17	2677.57
416.36	2696.30
416.55	2626.08
416.74	2642.46
416.93	2691.62
417.12	2771.19
417.31	2761.83
417.50	2717.36
417.69	2761.83
417.88	2799.28
418.07	2815.66
418.26	2771.19
418.45	2888.22
418.64	2944.39
418.83	2888.22
419.02	2864.82
419.21	3047.38
419.39	2909.29
419.58	2899.92
419.77	2855.45
419.96	3016.95
420.15	3030.99
420.34	3059.08
420.53	3002.91
420.72	3063.76
420.91	3157.38
421.10	3049.72
421.29	3265.05
421.48	3091.85
421.67	3185.47
421.86	3077.80
422.05	3094.19
422.24	2995.89
422.43	3262.71
422.61	3199.51
422.80	3150.36
422.99	3234.62
423.18	3314.20
423.37	3309.52
423.56	3234.62
423.75	3255.69
423.94	3117.59
424.13	3070.78
424.32	3157.38
424.50	3295.47
424.69	3290.79
424.88	3234.62
425.07	3248.66
425.26	3297.81
425.45	3328.24
425.64	3393.78
425.83	3316.54
426.01	3197.17
426.20	3307.18
426.39	3382.07
426.58	3342.28
426.77	3201.85
426.96	3405.48
427.15	3281.43
427.33	3478.04
427.52	3438.25
427.71	3478.04
427.90	3365.69
428.09	3384.41
428.28	3468.67
428.46	3412.50
428.65	3471.01
428.84	3538.89
429.03	3637.19
429.22	3672.30
429.40	3536.55
429.59	3604.42
429.78	3482.72
429.97	3555.27
430.16	3534.21
430.34	3585.70
430.53	3810.39
430.72	3803.37
430.91	3686.34
431.10	3662.94
431.28	3602.08
431.47	3838.48
431.66	3794.01
431.85	3756.56
432.03	3812.73
432.22	3831.46
432.41	3866.56
432.60	3747.20
432.79	3775.28
432.97	3868.91
433.16	3845.50
433.35	3955.51
433.54	3911.04
433.72	4023.38
433.91	3864.22
434.10	3990.61
434.28	3957.85
434.47	4058.49
434.66	4072.53
434.85	4095.94
435.03	4117.00
435.22	4091.26
435.41	4198.92
435.59	4074.87
435.78	4173.18
435.97	4065.51
436.16	4156.79
436.34	4252.75
436.53	4224.67
436.72	4407.23
436.90	4259.78
437.09	4271.48
437.28	4229.35
437.46	4208.28
437.65	4344.03
437.84	4297.22
438.02	4505.53
438.21	4437.66
438.40	4327.65
438.58	4603.83
438.77	4477.44
438.96	4442.34
439.14	4503.19
439.33	4620.22
439.52	4622.56
439.70	4737.24
439.89	4863.63
440.08	4819.16
440.26	4840.23
440.45	4774.69
440.63	4870.65
440.82	4980.66
441.01	4767.67
441.19	5048.54
441.38	5078.96
441.57	4849.59
441.75	4975.98
441.94	5217.05
442.12	5083.64
442.31	5055.56
442.50	5181.95
442.68	4945.55
442.87	5043.85
443.05	5284.93
443.24	5392.59
443.43	5273.23
443.61	5226.42
443.80	5350.46
443.98	5153.86
444.17	5041.51
444.35	5334.08
444.54	5399.62
444.73	5380.89
444.91	5266.21
445.10	5413.66
445.28	5343.44
445.47	5404.30
445.65	5355.15
445.84	5518.98
446.02	5551.75
446.21	5401.96
446.39	5348.12
446.58	5371.53
446.77	5589.20
446.95	5322.38
447.14	5411.32
447.32	5439.40
447.51	5376.21
447.69	5427.70
447.88	5582.18
448.06	5444.09
448.25	5530.69
448.43	5390.25
448.62	5542.39
448.80	5490.90
448.99	5584.52
449.17	5556.43
449.36	5497.92
449.54	5675.80
449.73	5790.49
449.91	5816.23
450.10	5757.72
450.28	5797.51
450.46	5968.37
450.65	5788.14
450.83	5912.19
451.02	5891.13
451.20	5816.23
451.39	5703.89
451.57	5851.34
451.76	5902.83
451.94	5902.83
452.13	5944.96
452.31	6001.13
452.49	5781.12
452.68	5970.71
452.86	6022.20
453.05	6239.87
453.23	6010.50
453.42	5907.51
453.60	6036.24
453.78	6157.95
453.97	6015.18
454.15	6064.33
454.34	6061.99
454.52	6080.71
454.70	6118.16
454.89	6171.99
455.07	6319.45
455.26	6277.32
455.44	6485.62
455.62	6286.68
455.81	6298.38
455.99	6298.38
456.17	6478.60
456.36	6420.09
456.54	6532.44
456.73	6534.78
456.91	6670.53
457.09	6607.33
457.28	6857.77
457.46	6354.55
457.64	6693.93
457.83	6686.91
458.01	6616.69
458.19	6752.45
458.38	6705.63
458.56	6927.99
458.74	6881.18
458.93	6860.11
459.11	6860.11
459.29	6916.28
459.48	6717.34
459.66	6892.88
459.84	6970.12
460.03	6993.52
460.21	7117.57
460.39	6904.58
460.57	7061.40
460.76	7096.50
460.94	7204.17
461.12	7103.53
461.31	7215.87
461.49	7213.53
461.67	7105.87
461.85	7133.95
462.04	7136.29
462.22	7618.44
462.40	7506.10
462.59	7480.35
462.77	7199.49
462.95	7335.24
463.13	7478.01
463.32	7637.17
463.50	7492.05
463.68	7641.85
463.86	7276.73
464.05	7232.26
464.23	7508.44
464.41	7501.42
464.59	7403.11
464.78	7585.68
464.96	7625.47
465.14	7442.90
465.32	7578.65
465.50	7679.30
465.69	7648.87
465.87	7681.64
466.05	7595.04
466.23	7857.18
466.41	7644.19
466.60	7969.52
466.78	7812.71
466.96	7651.21
467.14	7784.62
467.32	7819.73
467.51	8072.51
467.69	7875.90
467.87	7761.22
468.05	8053.78
468.23	7913.35
468.41	7868.88
468.60	7983.57
468.78	8212.94
468.96	7782.28
469.14	8369.76
469.32	8234.00
469.50	7988.25
469.69	8320.60
469.87	8400.18
470.05	8187.19
470.23	8210.60
470.41	8395.50
470.59	8446.99
470.77	8248.05
470.95	8484.44
471.14	8606.15
471.32	8264.43
471.50	8514.87
471.68	8580.40
471.86	8575.72
472.04	8798.07
472.22	8868.29
472.40	8561.68
472.58	8732.54
472.77	8833.18
472.95	8884.67
473.13	9394.91
473.31	8870.63
473.49	8912.76
473.67	9055.53
473.85	8985.32
474.03	9118.73
474.21	9224.05
474.39	9284.91
474.57	9207.67
474.75	9390.23
474.93	9453.42
475.12	9528.32
475.30	9467.47
475.48	9460.45
475.66	9427.68
475.84	9626.62
476.02	9631.30
476.20	9586.83
476.38	9610.24
476.56	9895.78
476.74	9685.14
476.92	9951.96
477.10	9832.59
477.28	10183.67
477.46	10186.01
477.64	10230.48
477.82	10312.40
478.00	10630.71
478.18	10434.11
478.36	10588.58
478.54	10799.23
478.72	10661.14
478.90	10721.99
479.08	10956.05
479.26	10970.09
479.44	10934.98
479.62	11143.29
479.80	11147.97
479.98	11187.76
480.16	11501.39
480.34	11393.73
480.52	11557.57
480.70	11431.18
480.88	11389.05
481.06	11571.61
481.24	11889.92
481.41	11875.88
481.59	12142.70
481.77	11978.86
481.95	12116.95
482.13	12168.45
482.31	12004.61
482.49	12524.21
482.67	12578.04
482.85	12858.90
483.03	12652.94
483.21	12929.12
483.39	12968.91
483.57	12886.99
483.74	13149.13
483.92	13380.84
484.10	13256.79
484.28	13404.25
484.46	13699.16
484.64	13621.92
484.82	13720.22
485.00	13998.74
485.18	14317.06
485.35	14202.37
485.53	14139.18
485.71	14174.28
485.89	14232.80
486.07	14621.33
486.25	14848.36
486.43	14738.35
486.61	14644.73
486.78	15089.43
486.96	15068.37
487.14	15178.37
487.32	15283.70
487.50	15344.55
487.68	15403.07
487.85	15480.30
488.03	15665.21
488.21	15976.50
488.39	15974.16
488.57	16271.40
488.75	16400.13
488.92	16603.76
489.10	16739.51
489.28	16741.85
489.46	16723.13
489.64	16774.62
489.81	16959.52
489.99	17158.47
490.17	17303.58
490.35	17413.59
490.53	17617.21
490.70	17577.42
490.88	17593.81
491.06	17923.82
491.24	17951.91
491.41	18171.92
491.59	18251.50
491.77	18310.01
491.95	18436.40
492.13	18216.39
492.30	18314.69
492.48	18501.93
492.66	18593.22
492.84	18621.30
493.01	18864.72
493.19	19197.07
493.37	19267.29
493.54	19147.92
493.72	19218.14
493.90	19555.18
494.08	19833.70
494.25	19597.31
494.43	19737.74
494.61	19597.31
494.79	20023.28
494.96	20292.44
495.14	20074.77
495.32	20517.14
495.49	20437.56
495.67	20528.84
495.85	21029.71
496.02	20996.95
496.20	20856.51
496.38	21401.86
496.55	20875.24
496.73	21607.83
496.91	21233.34
497.09	21516.54
497.26	21750.60
497.44	21734.21
497.62	21834.86
497.79	22040.82
497.97	21949.54
498.14	22223.39
498.32	22225.73
498.50	22478.50
498.67	22621.28
498.85	22548.72
499.03	22742.99
499.20	22909.16
499.38	23054.28
499.56	22874.06
499.73	23108.11
499.91	23206.41
500.08	23180.67
500.26	22794.48
500.44	23651.11
500.61	23592.60
500.79	23496.64
500.97	23929.64
501.14	23805.59
501.32	23733.03
501.49	23892.19
501.67	24109.86
501.84	24063.05
502.02	24105.18
502.20	24032.62
502.37	24222.20
502.55	24020.92
502.72	24482.00
502.90	24400.08
503.07	24652.86
503.25	24812.02
503.43	24711.38
503.60	24453.92
503.78	24734.78
503.95	25209.91
504.13	25151.40
504.30	25312.89
504.48	25298.85
504.65	25436.94
504.83	25565.67
505.01	25635.89
505.18	25481.41
505.36	25151.40
505.53	25525.88
505.71	26036.12
505.88	25776.32
506.06	25593.76
506.23	26038.46
506.41	26061.87
506.58	26106.34
506.76	26265.49
506.93	26586.15
507.11	26419.97
507.28	26202.30
507.46	26668.06
507.63	26754.66
507.81	27101.06
507.98	26588.49
508.16	26881.05
508.33	26738.28
508.50	27161.92
508.68	27335.12
508.85	27515.34
509.03	27295.33
509.20	27381.93
509.38	27791.52
509.55	28030.26
509.73	27503.64
509.90	27583.21
510.08	27817.27
510.25	27548.11
510.42	28084.09
510.60	28119.20
510.77	28102.81
510.95	28369.63
511.12	28149.62
511.30	28414.10
511.47	28409.42
511.64	28414.10
511.82	28510.07
511.99	28535.81
512.17	28891.57
512.34	28795.61
512.51	29067.11
512.69	29102.22
512.86	29081.16
513.04	29123.29
513.21	28978.17
513.38	29153.71
513.56	29352.66
513.73	29237.97
513.90	29825.45
514.08	29432.24
514.25	29846.51
514.43	29514.16
514.60	29935.45
514.77	29429.90
514.95	30270.15
515.12	30087.59
515.29	29935.45
515.47	30050.14
515.64	30190.57
515.81	30281.85
515.99	29876.94
516.16	30724.21
516.33	30485.48
516.51	30511.22
516.68	30686.76
516.85	30719.53
517.03	30597.82
517.20	30562.72
517.37	30600.16
517.54	31140.83
517.72	31168.91
517.89	31112.74
518.06	31075.29
518.24	31358.50
518.41	30995.71
518.58	31426.37
518.75	31040.18
518.93	31440.42
519.10	31786.82
519.27	31262.54
519.45	31641.70
519.62	31967.04
519.79	31831.29
519.96	31644.04
520.14	32016.19
520.31	31503.61
520.48	31777.45
520.65	32334.50
520.83	32680.90
521.00	32624.73
521.17	32423.44
521.34	32261.94
521.52	32229.18
521.69	32844.74
521.86	32610.68
522.03	32790.91
522.20	32734.73
522.38	32989.85
522.55	33273.06
522.72	33188.80
522.89	32940.70
523.07	33305.82
523.24	33048.36
523.41	33369.02
523.58	33511.79
523.75	33759.89
523.92	33443.91
524.10	33963.51
524.27	33397.10
524.44	33750.52
524.61	34225.65
524.78	33879.25
524.96	34319.28
525.13	34171.82
525.30	34354.38
525.47	33942.45
525.64	33991.60
525.81	34323.96
525.98	34440.98
526.16	34080.54
526.33	34558.01
526.50	34712.49
526.67	34239.70
526.84	34359.06
527.01	34225.65
527.18	34422.26
527.36	34682.06
527.53	34642.27
527.70	34747.59
527.87	35124.42
528.04	34986.33
528.21	34792.06
528.38	35056.54
528.55	35189.95
528.72	35204.00
528.89	35204.00
529.07	35040.16
529.24	35021.44
529.41	35412.31
529.58	35175.91
529.75	35571.46
529.92	35576.14
530.09	35227.40
530.26	35562.10
530.43	35885.09
530.60	35541.03
530.77	35683.81
530.94	36034.89
531.11	35838.28
531.28	35824.24
531.46	35927.22
531.63	36055.95
531.80	35962.33
531.97	36116.81
532.14	36009.14
532.31	36194.04
532.48	36084.04
532.65	36903.23
532.82	36133.19
532.99	36430.44
533.16	36481.93
533.33	36528.74
533.50	36748.75
533.67	36594.28
533.84	36217.45
534.01	36376.61
534.18	36559.17
534.35	37046.00
534.52	37258.99
534.69	36910.25
534.86	37415.80
535.03	37184.09
535.20	36978.12
535.37	37354.95
535.54	37350.27
535.71	36802.58
535.88	37453.25
536.05	37113.87
536.22	37752.84
536.38	37226.22
536.55	37516.45
536.72	37823.06
536.89	37263.67
537.06	37464.96
537.23	38389.47
537.40	37874.55
537.57	37556.24
537.74	37315.16
537.91	37991.58
538.08	37703.69
538.25	37359.63
538.42	38171.80
538.59	38029.02
538.75	38115.62
538.92	38209.25
539.09	38398.83
539.26	38106.26
539.43	38438.62
539.60	38178.82
539.77	38377.76
539.94	38663.31
540.11	38932.47
540.28	38630.54
540.44	38401.17
540.61	38604.80
540.78	38572.03
540.95	38838.85
541.12	38714.80
541.29	38445.64
541.46	38354.36
541.62	38602.46
541.79	38960.56
541.96	38356.70
542.13	38710.12
542.30	38483.09
542.47	38988.64
542.63	38972.26
542.80	39328.02
542.97	39491.86
543.14	39477.82
543.31	39683.78
543.48	39103.33
543.64	40069.97
543.81	39648.68
543.98	39517.60
544.15	39693.15
544.32	39917.84
544.48	40182.32
544.65	40226.79
544.82	40280.62
544.99	39819.53
545.16	40002.10
545.32	40025.50
545.49	40395.31
545.66	40339.13
545.83	40219.77
546.00	40383.60
546.16	40446.80
546.33	40470.20
546.50	39929.54
546.67	40271.26
546.83	40163.59
547.00	40119.12
547.17	40563.82
547.34	39948.26
547.50	40840.01
547.67	40727.66
547.84	40582.55
548.00	40718.30
548.17	40933.63
548.34	40673.83
548.51	41048.32
548.67	40713.62
548.84	40737.02
549.01	40994.48
549.18	40439.78
549.34	40758.09
549.51	41462.59
549.68	41179.39
549.84	40863.41
550.01	41467.27
550.18	40921.93
550.34	41146.62
550.51	41148.96
550.68	41565.57
550.84	40919.59
551.01	40989.80
551.18	41134.92
551.34	41301.09
551.51	41542.17
551.68	41706.01
551.84	41439.18
552.01	40519.35
552.18	41591.32
552.34	41392.37
552.51	41560.89
552.68	41443.87
552.84	41759.84
553.01	42010.28
553.18	41359.61
553.34	41565.57
553.51	41706.01
553.67	41933.04
553.84	41757.50
554.01	42122.62
554.17	42136.66
554.34	42520.51
554.51	41928.36
554.67	42335.61
554.84	42146.03
555.00	41965.81
555.17	42359.02
555.33	42838.83
555.50	42202.20
555.67	42391.78
555.83	42501.79
556.00	42532.22
556.16	43236.72
556.33	42581.37
556.50	42562.64
556.66	42244.33
556.83	42469.02
556.99	42611.79
557.16	42773.29
557.32	42953.51
557.49	42567.32
557.65	42410.51
557.82	42827.12
557.98	42801.38
558.15	42487.74
558.32	42667.97
558.48	42094.53
558.65	42864.57
558.81	42967.55
558.98	42976.92
559.14	42682.01
559.31	42967.55
559.47	42845.85
559.64	42712.44
559.80	43157.14
559.97	43482.47
560.13	43175.86
560.30	42918.40
560.46	43419.28
560.63	43299.91
560.79	43171.18
560.96	43232.04
561.12	43367.79
561.29	42939.47
561.45	43498.86
561.61	43295.23
561.78	43339.70
561.94	43723.55
562.11	43386.51
562.27	43208.63
562.44	43674.40
562.60	43278.85
562.77	44020.80
562.93	43538.65
563.10	43639.29
563.26	43360.76
563.42	43648.65
563.59	43709.50
563.75	43672.06
563.92	44076.97
564.08	43686.10
564.24	44135.48
564.41	43379.49
564.57	43395.87
564.74	43405.23
564.90	43770.36
565.07	43842.92
565.23	43674.40
565.39	43489.49
565.56	43676.74
565.72	43646.31
565.88	43817.17
566.05	43737.59
566.21	43548.01
566.38	43896.75
566.54	43985.69
566.70	44032.50
566.87	43442.68
567.03	43562.05
567.19	43674.40
567.36	44023.14
567.52	43782.06
567.68	44062.93
567.85	43966.96
568.01	44039.52
568.17	43868.66
568.34	43803.13
568.50	43990.37
568.66	43648.65
568.83	43903.77
568.99	44182.29
569.15	43985.69
569.32	43786.74
569.48	44126.12
569.64	44285.28
569.81	44203.36
569.97	44039.52
570.13	44257.19
570.30	43964.62
570.46	44151.87
570.62	44591.89
570.78	44123.78
570.95	43997.39
571.11	44364.85
571.27	44554.44
571.43	44189.31
571.60	44552.10
571.76	43901.43
571.92	44507.63
572.09	44154.21
572.25	43838.23
572.41	44254.85
572.57	44304.00
572.74	44570.82
572.90	44086.33
573.06	44306.34
573.22	44355.49
573.38	44685.51
573.55	44514.65
573.71	44818.92
573.87	44837.64
574.03	44453.79
574.20	44301.66
574.36	44470.18
574.52	44561.46
574.68	44521.67
574.84	44596.57
575.01	44390.60
575.17	44545.08
575.33	44549.76
575.49	44472.52
575.65	44825.94
575.82	44561.46
575.98	44280.60
576.14	45010.84
576.30	44591.89
576.46	44411.67
576.62	44491.24
576.79	44509.97
576.95	44266.55
577.11	44201.02
577.27	44711.25
577.43	44264.21
577.59	44556.78
577.75	44301.66
577.92	44313.36
578.08	44924.24
578.24	44676.15
578.40	44619.97
578.56	44549.76
578.72	44715.93
578.88	44690.19
579.04	44912.54
579.21	44795.51
579.37	44949.99
579.53	44999.14
579.69	44432.73
579.85	44589.55
580.01	44559.12
580.17	44676.15
580.33	45251.92
580.49	44364.85
580.65	44931.26
580.82	44488.90
580.98	44453.79
581.14	44460.82
581.30	45090.42
581.46	44832.96
581.62	44652.74
581.78	44612.95
581.94	45081.06
582.10	44776.79
582.26	45010.84
582.42	44900.84
582.58	44636.36
582.74	44610.61
582.90	44889.13
583.06	44701.89
583.22	44671.46
583.38	44832.96
583.54	44748.70
583.70	44837.64
583.86	44793.17
584.02	44423.37
584.18	44737.00
584.34	45282.34
584.50	45165.32
584.66	44844.66
584.82	45020.20
584.98	44959.35
585.14	45069.36
585.30	44825.94
585.46	44945.31
585.62	44947.65
585.78	45174.68
585.94	44151.87
586.10	44924.24
586.26	44650.40
586.42	44905.52
586.58	44945.31
586.74	44816.58
586.90	44748.70
587.06	44865.73
587.22	44872.75
587.38	44545.08
587.54	45317.45
587.70	45731.73
587.86	45219.15
588.02	44718.28
588.18	45130.21
588.34	44964.03
588.49	45022.54
588.65	44629.34
588.81	44786.15
588.97	45162.98
589.13	45359.58
589.29	45130.21
589.45	45492.99
589.61	45296.39
589.77	45336.18
589.93	45680.24
590.08	45127.87
590.24	45392.35
