SpectraSuite Data File
++++++++++++++++++++++++++++++++++++
Date: Fri Oct 25 11:26:09 EDT 2013
User: price-jones
Dark Spectrum Present: No
Reference Spectrum Present: No
Number of Sampled Component Spectra: 1
Spectrometers: USB2+H05261
Integration Time (usec): 100000 (USB2+H05261)
Spectra Averaged: 1 (USB2+H05261)
Boxcar Smoothing: 0 (USB2+H05261)
Correct for Electrical Dark: No (USB2+H05261)
Strobe/Lamp Enabled: No (USB2+H05261)
Correct for Detector Non-linearity: No (USB2+H05261)
Correct for Stray Light: No (USB2+H05261)
Number of Pixels in Processed Spectrum: 2048
>>>>>Begin Processed Spectral Data<<<<<
365.73	231.71
365.92	231.71
366.12	231.71
366.32	180.22
366.52	163.84
366.72	142.77
366.91	117.03
367.11	105.32
367.31	18.72
367.51	72.56
367.70	102.98
367.90	184.90
368.10	145.11
368.30	163.84
368.49	102.98
368.69	168.52
368.89	98.30
369.09	166.18
369.28	95.96
369.48	114.69
369.68	177.88
369.87	194.26
370.07	220.01
370.27	262.14
370.47	285.55
370.66	521.94
370.86	608.54
371.06	641.31
371.25	760.67
371.45	681.10
371.65	695.14
371.84	641.31
372.04	697.48
372.24	760.67
372.44	657.69
372.63	751.31
372.83	711.52
373.03	774.72
373.22	774.72
373.42	786.42
373.62	821.53
373.81	702.16
374.01	819.19
374.21	833.23
374.40	868.34
374.60	842.59
374.79	753.65
374.99	877.70
375.19	840.25
375.38	791.10
375.58	940.90
375.78	751.31
375.97	849.61
376.17	877.70
376.37	812.17
376.56	896.43
376.76	873.02
376.95	940.90
377.15	915.15
377.35	976.00
377.54	957.28
377.74	882.38
377.93	875.36
378.13	889.40
378.33	938.55
378.52	964.30
378.72	917.49
378.91	992.39
379.11	987.71
379.31	940.90
379.50	994.73
379.70	1027.50
379.89	1036.86
380.09	968.98
380.28	971.32
380.48	1011.11
380.68	938.55
380.87	983.02
381.07	973.66
381.26	1090.69
381.46	1025.15
381.65	1022.81
381.85	990.05
382.04	1083.67
382.24	1095.37
382.43	1036.86
382.63	1095.37
382.83	1078.99
383.02	1062.60
383.22	1116.44
383.41	1067.28
383.61	1086.01
383.80	1207.72
384.00	1123.46
384.19	1109.41
384.39	1221.76
384.58	1100.05
384.78	1121.12
384.97	1224.10
385.17	1196.01
385.36	1242.82
385.56	1156.22
385.75	1259.21
385.95	1188.99
386.14	1224.10
386.34	1268.57
386.53	1231.12
386.72	1233.46
386.92	1179.63
387.11	1240.48
387.31	1270.91
387.50	1118.78
387.70	1310.70
387.89	1294.32
388.09	1210.06
388.28	1273.25
388.48	1240.48
388.67	1336.45
388.86	1299.00
389.06	1284.95
389.25	1362.19
389.45	1383.26
389.64	1362.19
389.84	1409.00
390.03	1315.38
390.22	1338.79
390.42	1416.02
390.61	1364.53
390.81	1455.81
391.00	1446.45
391.19	1516.67
391.39	1383.26
391.58	1437.09
391.78	1430.07
391.97	1472.20
392.16	1451.13
392.36	1479.22
392.55	1533.05
392.75	1551.78
392.94	1526.03
393.13	1626.67
393.33	1502.62
393.52	1460.49
393.71	1493.26
393.91	1537.73
394.10	1497.94
394.29	1624.33
394.49	1596.25
394.68	1549.43
394.88	1591.56
395.07	1645.40
395.26	1664.12
395.46	1715.61
395.65	1612.63
395.84	1633.69
396.04	1804.55
396.23	1776.47
396.42	1715.61
396.62	1799.87
396.81	1837.32
397.00	1785.83
397.19	1783.49
397.39	1823.28
397.58	1727.32
397.77	1827.96
397.97	1856.04
398.16	1774.13
398.35	1863.07
398.55	1961.37
398.74	1734.34
398.93	2005.84
399.12	1966.05
399.32	2005.84
399.51	1935.62
399.70	1853.70
399.90	1919.24
400.09	1905.20
400.28	2143.93
400.47	2069.03
400.67	2017.54
400.86	2085.42
401.05	2087.76
401.24	2033.93
401.44	2132.23
401.63	2223.51
401.82	2057.33
402.01	2066.69
402.21	2195.42
402.40	2183.72
402.59	2129.89
402.78	2263.30
402.97	2146.27
403.17	2338.20
403.36	2258.62
403.55	2326.49
403.74	2328.83
403.93	2445.86
404.13	2366.28
404.32	2389.69
404.51	2410.75
404.70	2392.03
404.89	2345.22
405.09	2382.67
405.28	2415.43
405.47	2553.52
405.66	2534.80
405.85	2516.08
406.05	2506.71
406.24	2492.67
406.43	2574.59
406.62	2630.76
406.81	2703.32
407.00	2633.10
407.20	2726.72
407.39	2675.23
407.58	2616.72
407.77	2668.21
407.96	2663.53
408.15	2815.66
408.34	2750.13
408.54	2649.49
408.73	2780.56
408.92	2782.90
409.11	2780.56
409.30	2916.31
409.49	2810.98
409.68	2932.69
409.87	2904.60
410.07	2911.63
410.26	2874.18
410.45	2974.82
410.64	3096.53
410.83	3124.62
411.02	3091.85
411.21	3239.30
411.40	3199.51
411.59	3192.49
411.78	3253.34
411.98	3208.87
412.17	3201.85
412.36	3389.10
412.55	3262.71
412.74	3375.05
412.93	3297.81
413.12	3414.84
413.31	3510.80
413.50	3421.86
413.69	3534.21
413.88	3410.16
414.07	3499.10
414.26	3599.74
414.45	3611.45
414.64	3644.21
414.83	3786.99
415.02	3866.56
415.22	3744.86
415.41	3845.50
415.60	3889.97
415.79	3796.35
415.98	3889.97
416.17	3997.64
416.36	3911.04
416.55	3859.54
416.74	4170.83
416.93	3974.23
417.12	3990.61
417.31	4070.19
417.50	4159.13
417.69	4271.48
417.88	4196.58
418.07	4283.18
418.26	4194.24
418.45	4344.03
418.64	4423.61
418.83	4498.51
419.02	4461.06
419.21	4475.10
419.39	4442.34
419.58	4393.19
419.77	4514.89
419.96	4454.04
420.15	4489.15
420.34	4566.39
420.53	4657.67
420.72	4760.65
420.91	4641.28
421.10	4727.88
421.29	4727.88
421.48	4587.45
421.67	4713.84
421.86	4744.27
422.05	4781.71
422.24	4894.06
422.43	4690.43
422.61	4816.82
422.80	4828.53
422.99	4905.76
423.18	4882.36
423.37	5004.07
423.56	4999.38
423.75	4901.08
423.94	4908.10
424.13	4599.15
424.32	4683.41
424.50	4943.21
424.69	4952.57
424.88	5050.88
425.07	5104.71
425.26	4922.15
425.45	5036.83
425.64	5046.20
425.83	5093.01
426.01	5177.26
426.20	4945.55
426.39	5001.72
426.58	5062.58
426.77	5081.30
426.96	5107.05
427.15	5167.90
427.33	5303.65
427.52	5249.82
427.71	5252.16
427.90	5102.37
428.09	5315.36
428.28	5341.10
428.46	5341.10
428.65	5352.81
428.84	5401.96
429.03	5509.62
429.22	5268.55
429.40	5357.49
429.59	5577.50
429.78	5420.68
429.97	5245.14
430.16	5460.47
430.34	5654.73
430.53	5582.18
430.72	5633.67
430.91	5640.69
431.10	5731.97
431.28	5717.93
431.47	5432.38
431.66	5839.64
431.85	5797.51
432.03	5856.02
432.22	5933.26
432.41	6040.92
432.60	5900.49
432.79	5870.06
432.97	5853.68
433.16	6136.88
433.35	5947.30
433.54	6045.60
433.72	6085.39
433.91	6291.36
434.10	6171.99
434.28	6118.16
434.47	6129.86
434.66	6272.64
434.85	6139.23
435.03	6256.25
435.22	6176.67
435.41	6422.43
435.59	6338.17
435.78	6513.71
435.97	6485.62
436.16	6366.26
436.34	6389.66
436.53	6342.85
436.72	6815.64
436.90	6429.45
437.09	6544.14
437.28	6513.71
437.46	6516.05
437.65	6548.82
437.84	6794.58
438.02	6623.72
438.21	6654.14
438.40	6628.40
438.58	7033.31
438.77	7075.44
438.96	6913.94
439.14	7009.90
439.33	7227.57
439.52	7201.83
439.70	7258.00
439.89	7269.70
440.08	7213.53
440.26	7424.18
440.45	7412.48
440.63	7360.98
440.82	7438.22
441.01	7391.41
441.19	7620.78
441.38	7602.06
441.57	7679.30
441.75	7693.34
441.94	7899.31
442.12	7906.33
442.31	8086.55
442.50	7892.29
442.68	7901.65
442.87	7815.05
443.05	7922.71
443.24	8107.62
443.43	8131.02
443.61	8023.36
443.80	8346.35
443.98	7995.27
444.17	7892.29
444.35	8140.38
444.54	8224.64
444.73	8437.63
444.91	8255.07
445.10	8212.94
445.28	8336.99
445.47	8226.98
445.65	7997.61
445.84	8400.18
446.02	8409.54
446.21	8421.25
446.39	8379.12
446.58	8372.10
446.77	8435.29
446.95	8250.39
447.14	8465.72
447.32	8542.96
447.51	8561.68
447.69	8353.37
447.88	8627.21
448.06	8552.32
448.25	8393.16
448.43	8599.13
448.62	8667.00
448.80	8493.80
448.99	8751.26
449.17	8620.19
449.36	8741.90
449.54	8987.66
449.73	8943.19
449.91	8924.46
450.10	8929.14
450.28	9011.06
450.46	9202.99
450.65	9092.98
450.83	8987.66
451.02	9174.90
451.20	9158.52
451.39	9221.71
451.57	9123.41
451.76	8875.31
451.94	9104.68
452.13	9198.31
452.31	9214.69
452.49	8961.91
452.68	9296.61
452.86	9226.39
453.05	9390.23
453.23	9490.87
453.42	9291.93
453.60	9235.75
453.78	9366.82
453.97	9556.41
454.15	9415.98
454.34	9495.55
454.52	9633.64
454.70	9596.20
454.89	9731.95
455.07	9633.64
455.26	9816.21
455.44	9928.55
455.62	9898.13
455.81	9797.48
455.99	10008.13
456.17	9954.30
456.36	9975.36
456.54	10092.39
456.73	10265.59
456.91	10356.87
457.09	10588.58
457.28	10331.12
457.46	10448.15
457.64	10471.56
457.83	10443.47
458.01	10377.94
458.19	10574.54
458.38	10527.73
458.56	10619.01
458.74	10579.22
458.93	10555.82
459.11	10581.56
459.29	10752.42
459.48	10619.01
459.66	10761.78
459.84	10881.15
460.03	10892.85
460.21	11063.71
460.39	10853.06
460.57	11002.86
460.76	11005.20
460.94	11185.42
461.12	11220.53
461.31	11225.21
461.49	11063.71
461.67	11096.48
461.85	11552.88
462.04	11288.40
462.22	11707.36
462.40	11660.55
462.59	11604.38
462.77	11611.40
462.95	11557.57
463.13	11618.42
463.32	11592.67
463.50	11683.95
463.68	11833.75
463.86	11831.41
464.05	11527.14
464.23	11864.18
464.41	11852.47
464.59	11520.12
464.78	11901.62
464.96	12002.27
465.14	11889.92
465.32	11903.96
465.50	11929.71
465.69	12056.10
465.87	12170.79
466.05	11983.54
466.23	12058.44
466.41	12250.36
466.60	12538.25
466.78	12208.23
466.96	12039.72
467.14	12175.47
467.32	12475.06
467.51	12578.04
467.69	12264.41
467.87	12311.22
468.05	12526.55
468.23	12362.71
468.41	12503.14
468.60	12741.88
468.78	12751.24
468.96	12503.14
469.14	12753.58
469.32	12884.65
469.50	12603.78
469.69	12929.12
469.87	13006.36
470.05	12964.23
470.23	13118.70
470.41	13102.32
470.59	13315.31
470.77	12957.21
470.95	13249.77
471.14	13570.43
471.32	13062.53
471.50	13673.41
471.68	13764.69
471.86	13570.43
472.04	13460.42
472.22	14108.75
472.40	13582.13
472.58	13701.50
472.77	13888.74
472.95	14200.03
473.13	14295.99
473.31	14101.73
473.49	14080.66
473.67	13942.57
473.85	14370.89
474.03	14633.03
474.21	14420.04
474.39	14684.52
474.57	14267.91
474.75	14759.42
474.93	14930.28
475.12	14871.76
475.30	14956.02
475.48	14717.29
475.66	14991.13
475.84	15414.77
476.02	15267.31
476.20	15192.42
476.38	15571.58
476.56	15925.00
476.74	16091.18
476.92	15763.51
477.10	15964.79
477.28	16159.06
477.46	16184.80
477.64	16327.58
477.82	16287.79
478.00	17022.72
478.18	16702.06
478.36	16926.75
478.54	16882.28
478.72	17235.70
478.90	17226.34
479.08	17577.42
479.26	17549.34
479.44	17659.34
479.62	17935.53
479.80	17991.70
479.98	17998.72
480.16	18361.50
480.34	18270.22
480.52	18382.57
480.70	18588.53
480.88	18361.50
481.06	18724.29
481.24	18501.93
481.41	18853.02
481.59	19201.76
481.77	19548.15
481.95	19367.93
482.13	19475.60
482.31	19325.80
482.49	19910.94
482.67	20299.47
482.85	20510.11
483.03	20510.11
483.21	20877.58
483.39	20779.28
483.57	20947.79
483.74	20922.05
483.92	21350.37
484.10	21315.26
484.28	21689.74
484.46	22092.32
484.64	22387.22
484.82	21923.80
485.00	21947.20
485.18	22651.70
485.35	22820.22
485.53	22565.10
485.71	22965.34
485.89	23328.12
486.07	23225.14
486.25	23044.91
486.43	23506.00
486.61	23917.93
486.78	24226.89
486.96	24018.58
487.14	24421.15
487.32	24540.52
487.50	24877.55
487.68	24936.07
487.85	25308.21
488.03	25490.77
488.21	25872.28
488.39	25860.58
488.57	25837.17
488.75	25682.70
488.92	26375.50
489.10	26656.36
489.28	26618.91
489.46	26951.27
489.64	26974.67
489.81	27690.88
489.99	27702.58
490.17	27442.78
490.35	27679.18
490.53	28404.74
490.70	28128.56
490.88	27978.76
491.06	28453.89
491.24	28591.98
491.41	28624.75
491.59	28985.19
491.77	28985.19
491.95	29654.59
492.13	29347.98
492.30	29949.50
492.48	29986.94
492.66	29923.75
492.84	29996.31
493.01	30717.19
493.19	30749.96
493.37	30859.96
493.54	31304.67
493.72	31360.84
493.90	31143.17
494.08	31419.35
494.25	32133.21
494.43	31821.92
494.61	32177.68
494.79	32194.07
494.96	31964.70
495.14	32793.25
495.32	32950.06
495.49	32701.96
495.67	33596.05
495.85	33244.97
496.02	33582.01
496.20	33858.19
496.38	33977.56
496.55	34089.90
496.73	34679.72
496.91	34359.06
497.09	34511.20
497.26	34792.06
497.44	34686.74
497.62	35178.25
497.79	35615.93
497.97	35037.82
498.14	36100.42
498.32	35725.94
498.50	35978.72
498.67	36573.21
498.85	36163.62
499.03	36505.34
499.20	36732.37
499.38	36329.80
499.56	36613.00
499.73	36910.25
499.91	37324.52
500.08	37156.00
500.26	37069.40
500.44	37853.48
500.61	37479.00
500.79	37364.31
500.97	37977.53
501.14	38408.19
501.32	38651.61
501.49	38354.36
501.67	38747.57
501.84	38742.89
502.02	38490.11
502.20	38817.78
502.37	39002.69
502.55	38965.24
502.72	38962.90
502.90	39023.75
503.07	39290.57
503.25	39714.21
503.43	39487.18
503.60	40018.48
503.78	40285.30
503.95	40086.36
504.13	40428.07
504.30	40612.98
504.48	40170.61
504.65	40346.15
504.83	40844.69
505.01	41579.62
505.18	40964.06
505.36	41144.28
505.53	41029.59
505.71	41434.50
505.88	41312.80
506.06	41380.67
506.23	42059.43
506.41	41212.15
506.58	41979.85
506.76	42155.39
506.93	42487.74
507.11	42047.72
507.28	42340.29
507.46	42368.38
507.63	43002.66
507.81	43274.16
507.98	42609.45
508.16	42689.03
508.33	43381.83
508.50	43501.20
508.68	43234.38
508.85	44100.37
509.03	43700.14
509.20	43859.30
509.38	43835.89
509.55	44343.79
509.73	44048.88
509.90	44631.68
510.08	43981.01
510.25	44493.58
510.42	44821.26
510.60	44832.96
510.77	44971.05
510.95	44987.44
511.12	44910.20
511.30	44495.92
511.47	45361.92
511.64	45492.99
511.82	45907.27
511.99	45530.44
512.17	45490.65
512.34	45282.34
512.51	46443.25
512.69	46258.35
512.86	46021.95
513.04	46738.16
513.21	46614.11
513.38	46644.54
513.56	46857.52
513.73	46700.71
513.90	46703.05
514.08	46665.60
514.25	47353.72
514.43	47103.28
514.60	47299.89
514.77	47068.17
514.95	47466.06
515.12	47107.96
515.29	47409.89
515.47	47852.25
515.64	47878.00
515.81	47484.79
515.99	47997.37
516.16	48212.70
516.33	48318.02
516.51	48577.82
516.68	48406.96
516.85	48444.41
517.03	48648.03
517.20	49059.97
517.37	48783.79
517.54	48570.80
517.72	48652.72
517.89	48839.96
518.06	48669.10
518.24	48954.64
518.41	49078.69
518.58	49223.81
518.75	49036.56
518.93	49404.03
519.10	49471.90
519.27	49310.41
519.45	49656.81
519.62	49549.14
519.79	49808.94
519.96	50035.97
520.14	50066.40
520.31	50014.91
520.48	50138.96
520.65	49947.03
520.83	50614.08
521.00	50251.30
521.17	50258.32
521.34	50733.45
521.52	50791.97
521.69	50878.57
521.86	50623.45
522.03	50852.82
522.20	50997.93
522.38	51367.74
522.55	51267.09
522.72	51461.36
522.89	51231.99
523.07	51622.86
523.24	51381.78
523.41	51487.10
523.58	51196.88
523.75	51501.15
523.92	51611.15
524.10	51634.56
524.27	51957.55
524.44	51957.55
524.61	51870.95
524.78	51971.60
524.96	51887.34
525.13	51880.31
525.30	52378.85
525.47	52519.28
525.64	52392.89
525.81	52395.23
525.98	52336.72
526.16	52526.30
526.33	52783.76
526.50	52992.07
526.67	52790.78
526.84	52704.18
527.01	52568.43
527.18	52694.82
527.36	53045.90
527.53	53034.20
527.70	53265.91
527.87	53169.95
528.04	52947.60
528.21	53146.54
528.38	53010.79
528.55	53415.71
528.72	53200.38
528.89	53338.47
529.07	53202.72
529.24	53443.79
529.41	53483.58
529.58	53333.79
529.75	53399.32
529.92	53570.18
530.09	53595.93
530.26	53860.41
530.43	53785.51
530.60	53752.74
530.77	53612.31
530.94	53727.00
531.11	53925.94
531.28	53925.94
531.46	54267.66
531.63	54075.74
531.80	54120.21
531.97	53902.54
532.14	54433.84
532.31	54492.35
532.48	54394.05
532.65	54361.28
532.82	54265.32
532.99	54482.99
533.16	54487.67
533.33	54461.93
533.50	54817.69
533.67	54515.76
533.84	54548.53
534.01	54955.78
534.18	54710.02
534.35	55044.72
534.52	54941.74
534.69	54876.20
534.86	55421.55
535.03	54630.44
535.20	55187.49
535.37	54930.03
535.54	55334.95
535.71	54962.80
535.88	55559.64
536.05	55358.35
536.22	55510.49
536.38	55178.13
536.55	55421.55
536.72	55599.43
536.89	55236.64
537.06	55332.60
537.23	55519.85
537.40	55423.89
537.57	55594.74
537.74	55688.37
537.91	55875.61
538.08	56135.41
538.25	55620.49
538.42	55664.96
538.59	56214.99
538.75	55854.54
538.92	55969.23
539.09	56041.79
539.26	55985.61
539.43	56158.81
539.60	56048.81
539.77	55985.61
539.94	56278.18
540.11	56170.52
540.28	56175.20
540.44	56423.29
540.61	56416.27
540.78	56435.00
540.95	56383.51
541.12	56275.84
541.29	56203.28
541.46	56362.44
541.62	56540.32
541.79	56591.81
541.96	56072.21
542.13	56362.44
542.30	56334.35
542.47	56690.12
542.63	56821.19
542.80	56755.65
542.97	57151.20
543.14	57174.61
543.31	57076.30
543.48	57104.39
543.64	57165.24
543.81	57080.98
543.98	57298.65
544.15	57036.51
544.32	57272.91
544.48	57338.44
544.65	57172.27
544.82	57420.36
544.99	57244.82
545.16	57432.07
545.32	57352.49
545.49	57471.85
545.66	57642.71
545.83	57609.95
546.00	57750.38
546.16	57579.52
546.33	57286.95
546.50	57577.18
546.67	57652.08
546.83	57324.40
547.00	57422.70
547.17	57499.94
547.34	57570.16
547.50	57834.64
547.67	58099.12
547.84	57949.32
548.00	57930.60
548.17	57991.45
548.34	57911.88
548.51	57991.45
548.67	58178.70
548.84	58089.76
549.01	57731.65
549.18	58080.39
549.34	58129.54
549.51	58164.65
549.68	58391.68
549.84	58071.03
550.01	58253.59
550.18	58174.02
550.34	58272.32
550.51	58279.34
550.68	58230.19
550.84	58227.85
551.01	58389.34
551.18	58342.53
551.34	58396.37
551.51	58557.86
551.68	58557.86
551.84	58468.92
552.01	58419.77
552.18	58578.93
552.34	58419.77
552.51	58611.70
552.68	58499.35
552.84	58389.34
553.01	58848.09
553.18	58735.74
553.34	58960.44
553.51	58684.25
553.67	58529.78
553.84	58731.06
554.01	58981.50
554.17	58887.88
554.34	58873.84
554.51	58773.19
554.67	59166.40
554.84	59021.29
555.00	59009.59
555.17	58822.34
555.33	58930.01
555.50	58869.15
555.67	58890.22
555.83	58871.49
556.00	58932.35
556.16	59323.22
556.33	59075.12
556.50	59124.27
556.66	59192.15
556.83	59098.53
556.99	59150.02
557.16	59323.22
557.32	59339.60
557.49	59561.95
557.65	59133.63
557.82	59243.64
557.98	59320.88
558.15	59377.05
558.32	59480.03
558.48	59313.86
558.65	59482.37
558.81	59243.64
558.98	59545.57
559.14	59473.01
559.31	59571.32
559.47	59627.49
559.64	59693.02
559.80	59566.63
559.97	59833.46
560.13	59482.37
560.30	59590.04
560.46	59716.43
560.63	59629.83
560.79	59732.81
560.96	59779.62
561.12	59767.92
561.29	59683.66
561.45	59833.46
561.61	59784.30
561.78	59674.30
561.94	59730.47
562.11	59674.30
562.27	59728.13
562.44	59934.10
562.60	60097.94
562.77	59959.84
562.93	59749.20
563.10	60004.31
563.26	59945.80
563.42	59990.27
563.59	59861.54
563.75	59671.96
563.92	59941.12
564.08	59875.58
564.24	59901.33
564.41	60062.83
564.57	60114.32
564.74	59964.52
564.90	60034.74
565.07	60051.12
565.23	59910.69
565.39	59901.33
565.56	60147.09
565.72	60004.31
565.88	59962.18
566.05	60111.98
566.21	60151.77
566.38	60310.92
566.54	60051.12
566.70	60427.95
566.87	60186.88
567.03	59884.95
567.19	60154.11
567.36	60062.83
567.52	60135.38
567.68	60456.04
567.85	60137.72
568.01	60294.54
568.17	60229.01
568.34	60179.85
568.50	60163.47
568.66	60193.90
568.83	60165.81
568.99	60425.61
569.15	60526.25
569.32	60177.51
569.48	60301.56
569.64	60416.25
569.81	60238.37
569.97	60355.39
570.13	60254.75
570.30	60133.04
570.46	60317.95
570.62	60430.29
570.78	60271.14
570.95	60430.29
571.11	60463.06
571.27	60584.77
571.43	60444.33
571.60	60406.89
571.76	60355.39
571.92	60589.45
572.09	60619.88
572.25	60395.18
572.41	60320.29
572.57	60507.53
572.74	60729.88
572.90	60453.70
573.06	60465.40
573.22	60458.38
573.38	60594.13
573.55	60678.39
573.71	60598.81
573.87	60601.15
574.03	60399.86
574.20	60673.71
574.36	60697.11
574.52	60563.70
574.68	60694.77
574.84	60647.96
575.01	60692.43
575.17	60676.05
575.33	60465.40
575.49	60355.39
575.65	60582.43
575.82	60678.39
575.98	60566.04
576.14	60837.54
576.30	60748.60
576.46	60645.62
576.62	60748.60
576.79	60795.42
576.95	60650.30
577.11	60809.46
577.27	60601.15
577.43	60788.39
577.59	60669.03
577.75	60690.09
577.92	60530.93
578.08	60846.91
578.24	60694.77
578.40	60863.29
578.56	60954.57
578.72	61034.15
578.88	60877.33
579.04	60842.23
579.21	60814.14
579.37	60788.39
579.53	60867.97
579.69	60739.24
579.85	60764.99
580.01	60793.07
580.17	60500.51
580.33	60769.67
580.49	60907.76
580.65	60874.99
580.82	60622.22
580.98	60891.38
581.14	60561.36
581.30	60992.02
581.46	60823.50
581.62	60715.84
581.78	60530.93
581.94	60821.16
582.10	60722.86
582.26	60772.01
582.42	60676.05
582.58	60912.44
582.74	60954.57
582.90	60774.35
583.06	60807.12
583.22	60701.79
583.38	60809.46
583.54	60678.39
583.70	60924.14
583.86	60720.52
584.02	60975.64
584.18	60872.65
584.34	60783.71
584.50	60924.14
584.66	60856.27
584.82	60734.56
584.98	61062.24
585.14	60889.04
585.30	60764.99
585.46	60914.78
585.62	60849.25
585.78	60907.76
585.94	60753.29
586.10	60832.86
586.26	60889.04
586.42	60959.25
586.58	61080.96
586.74	60790.73
586.90	60860.95
587.06	60839.89
587.22	60966.27
587.38	60877.33
587.54	61024.79
587.70	60987.34
587.86	61041.17
588.02	61034.15
588.18	61041.17
588.34	60872.65
588.49	60992.02
