SpectraSuite Data File
++++++++++++++++++++++++++++++++++++
Date: Fri Oct 25 11:34:29 EDT 2013
User: price-jones
Dark Spectrum Present: No
Reference Spectrum Present: No
Number of Sampled Component Spectra: 1
Spectrometers: USB2+H05261
Integration Time (usec): 100000 (USB2+H05261)
Spectra Averaged: 1 (USB2+H05261)
Boxcar Smoothing: 0 (USB2+H05261)
Correct for Electrical Dark: No (USB2+H05261)
Strobe/Lamp Enabled: No (USB2+H05261)
Correct for Detector Non-linearity: No (USB2+H05261)
Correct for Stray Light: No (USB2+H05261)
Number of Pixels in Processed Spectrum: 2048
>>>>>Begin Processed Spectral Data<<<<<
365.73	229.37
365.92	229.37
366.12	229.37
366.32	189.58
366.52	95.96
366.72	198.95
366.91	173.20
367.11	210.65
367.31	161.50
367.51	248.10
367.70	191.92
367.90	147.45
368.10	182.56
368.30	140.43
368.49	210.65
368.69	170.86
368.89	212.99
369.09	259.80
369.28	217.67
369.48	255.12
369.68	175.54
369.87	182.56
370.07	301.93
370.27	311.29
370.47	351.08
370.66	507.90
370.86	479.81
371.06	533.64
371.25	505.56
371.45	463.43
371.65	578.11
371.84	493.85
372.04	540.66
372.24	554.71
372.44	610.88
372.63	550.03
372.83	585.13
373.03	648.33
373.22	587.47
373.42	599.18
373.62	601.52
373.81	582.79
374.01	566.41
374.21	592.16
374.40	589.82
374.60	704.50
374.79	631.94
374.99	655.35
375.19	671.73
375.38	674.07
375.58	622.58
375.78	653.01
375.97	582.79
376.17	737.27
376.37	638.97
376.56	690.46
376.76	564.07
376.95	650.67
377.15	559.39
377.35	685.78
377.54	713.86
377.74	655.35
377.93	737.27
378.13	641.31
378.33	748.97
378.52	741.95
378.72	723.23
378.91	695.14
379.11	723.23
379.31	688.12
379.50	716.20
379.70	678.76
379.89	727.91
380.09	653.01
380.28	706.84
380.48	669.39
380.68	760.67
380.87	699.82
381.07	770.04
381.26	706.84
381.46	800.46
381.65	713.86
381.85	753.65
382.04	784.08
382.24	702.16
382.43	697.48
382.63	730.25
382.83	784.08
383.02	795.78
383.22	800.46
383.41	854.30
383.61	772.38
383.80	802.80
384.00	837.91
384.19	809.83
384.39	753.65
384.58	779.40
384.78	798.12
384.97	847.27
385.17	716.20
385.36	858.98
385.56	908.13
385.75	716.20
385.95	770.04
386.14	856.64
386.34	847.27
386.53	870.68
386.72	866.00
386.92	884.72
387.11	842.59
387.31	887.06
387.50	908.13
387.70	781.74
387.89	894.08
388.09	976.00
388.28	802.80
388.48	868.34
388.67	917.49
388.86	833.23
389.06	926.85
389.25	898.77
389.45	954.94
389.64	992.39
389.84	917.49
390.03	933.87
390.22	976.00
390.42	901.11
390.61	880.04
390.81	887.06
391.00	1071.97
391.19	978.34
391.39	968.98
391.58	1069.62
391.78	1006.43
391.97	1069.62
392.16	936.21
392.36	1011.11
392.55	1041.54
392.75	1067.28
392.94	954.94
393.13	997.07
393.33	997.07
393.52	1036.86
393.71	1109.41
393.91	1088.35
394.10	1020.47
394.29	1050.90
394.49	1111.75
394.68	1032.18
394.88	1104.73
395.07	1095.37
395.26	1207.72
395.46	1172.61
395.65	1163.25
395.84	1139.84
396.04	1139.84
396.23	1095.37
396.42	1207.72
396.62	1240.48
396.81	1158.57
397.00	1149.20
397.19	1219.42
397.39	1172.61
397.58	1247.51
397.77	1156.22
397.97	1219.42
398.16	1259.21
398.35	1228.78
398.55	1231.12
398.74	1249.85
398.93	1247.51
399.12	1254.53
399.32	1299.00
399.51	1245.16
399.70	1327.08
399.90	1294.32
400.09	1371.55
400.28	1301.34
400.47	1369.21
400.67	1341.13
400.86	1327.08
401.05	1385.60
401.24	1315.38
401.44	1392.62
401.63	1511.99
401.82	1476.88
402.01	1390.28
402.21	1392.62
402.40	1448.79
402.59	1526.03
402.78	1507.30
402.97	1437.09
403.17	1448.79
403.36	1434.75
403.55	1565.82
403.74	1526.03
403.93	1645.40
404.13	1633.69
404.32	1624.33
404.51	1577.52
404.70	1610.29
404.89	1629.01
405.09	1652.42
405.28	1509.65
405.47	1661.78
405.66	1638.38
405.85	1596.25
406.05	1636.03
406.24	1694.55
406.43	1650.08
406.62	1720.29
406.81	1713.27
407.00	1685.19
407.20	1643.06
407.39	1703.91
407.58	1694.55
407.77	1734.34
407.96	1769.44
408.15	1820.94
408.34	1734.34
408.54	1905.20
408.73	1757.74
408.92	1898.17
409.11	1947.33
409.30	1907.54
409.49	2001.16
409.68	2005.84
409.87	1942.64
410.07	1949.67
410.26	2097.12
410.45	1947.33
410.64	2022.22
410.83	1966.05
411.02	2052.65
411.21	2026.90
411.40	2026.90
411.59	2141.59
411.78	2136.91
411.98	2162.66
412.17	2113.50
412.36	2251.60
412.55	2300.75
412.74	2310.11
412.93	2253.94
413.12	2244.57
413.31	2417.77
413.50	2258.62
413.69	2263.30
413.88	2354.58
414.07	2424.80
414.26	2537.14
414.45	2427.14
414.64	2228.19
414.83	2452.88
415.02	2593.31
415.22	2534.80
415.41	2476.29
415.60	2553.52
415.79	2668.21
415.98	2579.27
416.17	2682.25
416.36	2658.85
416.55	2829.71
416.74	2780.56
416.93	2672.89
417.12	2612.04
417.31	2691.62
417.50	2864.82
417.69	2775.88
417.88	2906.95
418.07	2848.43
418.26	2846.09
418.45	2984.18
418.64	2888.22
418.83	2897.58
419.02	2913.97
419.21	3026.31
419.39	3084.83
419.58	3047.38
419.77	2923.33
419.96	3009.93
420.15	3049.72
420.34	3084.83
420.53	3070.78
420.72	3131.64
420.91	3112.91
421.10	3131.64
421.29	3227.60
421.48	3197.17
421.67	3101.21
421.86	3232.28
422.05	3218.24
422.24	3108.23
422.43	3241.64
422.61	3192.49
422.80	3368.03
422.99	3290.79
423.18	3337.60
423.37	3300.16
423.56	3300.16
423.75	3293.13
423.94	3220.58
424.13	3096.53
424.32	2960.78
424.50	3410.16
424.69	3426.54
424.88	3433.57
425.07	3236.96
425.26	3269.73
425.45	3339.94
425.64	3225.26
425.83	3400.80
426.01	3438.25
426.20	3356.33
426.39	3253.34
426.58	3375.05
426.77	3335.26
426.96	3403.14
427.15	3234.62
427.33	3405.48
427.52	3510.80
427.71	3463.99
427.90	3571.66
428.09	3517.83
428.28	3412.50
428.46	3473.36
428.65	3569.32
428.84	3543.57
429.03	3590.38
429.22	3482.72
429.40	3660.60
429.59	3496.76
429.78	3431.23
429.97	3440.59
430.16	3597.40
430.34	3669.96
430.53	3782.31
430.72	3878.27
430.91	3723.79
431.10	3786.99
431.28	3784.65
431.47	3796.35
431.66	3873.59
431.85	3817.41
432.03	3889.97
432.22	3927.42
432.41	3882.95
432.60	3983.59
432.79	3789.33
432.97	3925.08
433.16	3978.91
433.35	3819.75
433.54	3999.98
433.72	4100.62
433.91	3971.89
434.10	4105.30
434.28	3978.91
434.47	4065.51
434.66	4156.79
434.85	4210.62
435.03	4149.77
435.22	4149.77
435.41	4248.07
435.59	4187.22
435.78	4227.01
435.97	4231.69
436.16	4257.43
436.34	4222.33
436.53	4355.74
436.72	4414.25
436.90	4250.41
437.09	4278.50
437.28	4234.03
437.46	4180.20
437.65	4369.78
437.84	4339.35
438.02	4397.87
438.21	4458.72
438.40	4297.22
438.58	4540.64
438.77	4538.30
438.96	4592.13
439.14	4727.88
439.33	4788.74
439.52	4671.71
439.70	4751.29
439.89	4809.80
440.08	4798.10
440.26	4870.65
440.45	4861.29
440.63	4873.00
440.82	5008.75
441.01	4847.25
441.19	4975.98
441.38	4964.28
441.57	4950.23
441.75	5102.37
441.94	5165.56
442.12	5242.80
442.31	5287.27
442.50	5163.22
442.68	5181.95
442.87	4994.70
443.05	5341.10
443.24	5212.37
443.43	5310.68
443.61	5289.61
443.80	5547.07
443.98	5228.76
444.17	5156.20
444.35	5394.93
444.54	5284.93
444.73	5432.38
444.91	5308.34
445.10	5432.38
445.28	5303.65
445.47	5394.93
445.65	5408.98
445.84	5509.62
446.02	5446.43
446.21	5495.58
446.39	5376.21
446.58	5462.81
446.77	5577.50
446.95	5273.23
447.14	5481.53
447.32	5530.69
447.51	5572.82
447.69	5563.45
447.88	5596.22
448.06	5570.48
448.25	5537.71
448.43	5661.76
448.62	5554.09
448.80	5502.60
448.99	5561.11
449.17	5736.65
449.36	5518.98
449.54	5675.80
449.73	5870.06
449.91	5970.71
450.10	5907.51
450.28	5790.49
450.46	5785.80
450.65	5863.04
450.83	5930.92
451.02	5891.13
451.20	5898.15
451.39	5914.53
451.57	5937.94
451.76	6008.16
451.94	5982.41
452.13	6188.38
452.31	6043.26
452.49	5987.09
452.68	5980.07
452.86	5949.64
453.05	6235.19
453.23	6078.37
453.42	6076.03
453.60	5947.30
453.78	6134.54
453.97	6143.91
454.15	6202.42
454.34	6094.76
454.52	6380.30
454.70	6214.12
454.89	6211.78
455.07	6235.19
455.26	6277.32
455.44	6562.86
455.62	6478.60
455.81	6312.42
455.99	6490.31
456.17	6586.27
456.36	6392.00
456.54	6565.20
456.73	6551.16
456.91	6619.04
457.09	6754.79
457.28	6916.28
457.46	6661.16
457.64	6785.21
457.83	6768.83
458.01	6628.40
458.19	6747.76
458.38	6712.66
458.56	6874.15
458.74	6995.86
458.93	6932.67
459.11	6946.71
459.29	6913.94
459.48	6949.05
459.66	6942.03
459.84	7002.88
460.03	7059.06
460.21	6993.52
460.39	7094.16
460.57	7105.87
460.76	7075.44
460.94	7304.81
461.12	7281.41
461.31	7152.68
461.49	7105.87
461.67	7307.15
461.85	7225.23
462.04	7232.26
462.22	7651.21
462.40	7662.91
462.59	7435.88
462.77	7370.35
462.95	7548.23
463.13	7485.03
463.32	7522.48
463.50	7475.67
463.68	7630.15
463.86	7487.37
464.05	7550.57
464.23	7536.52
464.41	7637.17
464.59	7503.76
464.78	7793.98
464.96	7632.49
465.14	7454.61
465.32	7562.27
465.50	7712.07
465.69	7899.31
465.87	7426.52
466.05	7588.02
466.23	7737.81
466.41	7864.20
466.60	8023.36
466.78	7927.39
466.96	7995.27
467.14	7934.42
467.32	7882.92
467.51	8102.93
467.69	7770.58
467.87	8032.72
468.05	8016.33
468.23	7997.61
468.41	7887.61
468.60	8201.24
468.78	8236.35
468.96	7974.21
469.14	8180.17
469.32	8262.09
469.50	8154.43
469.69	8414.23
469.87	8386.14
470.05	8353.37
470.23	8458.70
470.41	8390.82
470.59	8538.27
470.77	8390.82
470.95	8369.76
471.14	8610.83
471.32	8238.69
471.50	8559.34
471.68	8620.19
471.86	8643.60
472.04	8636.58
472.22	8917.44
472.40	8599.13
472.58	8830.84
472.77	8926.80
472.95	8973.61
473.13	9231.07
473.31	8987.66
473.49	8786.37
473.67	8954.89
473.85	9153.84
474.03	9327.03
474.21	9135.11
474.39	9303.63
474.57	9259.16
474.75	9394.91
474.93	9399.59
475.12	9612.58
475.30	9523.64
475.48	9645.35
475.66	9891.10
475.84	9657.05
476.02	9776.42
476.20	9682.80
476.38	9736.63
476.56	10017.49
476.74	10200.05
476.92	9996.43
477.10	10106.43
477.28	10197.71
477.46	10057.28
477.64	10115.80
477.82	10427.09
478.00	10581.56
478.18	10249.21
478.36	10593.26
478.54	10794.55
478.72	10869.45
478.90	10867.11
479.08	11140.95
479.26	11044.99
479.44	11197.12
479.62	11314.15
479.80	11318.83
479.98	11421.81
480.16	11695.66
480.34	11417.13
480.52	11932.05
480.70	11726.08
480.88	11793.96
481.06	11765.87
481.24	11805.66
481.41	12177.81
481.59	12154.40
481.77	12388.46
481.95	12365.05
482.13	12325.26
482.31	12241.00
482.49	12472.71
482.67	12547.61
482.85	12936.14
483.03	12872.95
483.21	13057.85
483.39	13167.85
483.57	13298.92
483.74	13301.26
483.92	13345.73
484.10	13071.89
484.28	13577.45
484.46	13528.30
484.64	14246.84
484.82	13851.29
485.00	14071.30
485.18	14406.00
485.35	14476.21
485.53	14193.01
485.71	14469.19
485.89	14562.81
486.07	14717.29
486.25	14656.43
486.43	15000.49
486.61	15176.03
486.78	15133.90
486.96	15082.41
487.14	15236.89
487.32	15173.69
487.50	15859.47
487.68	15634.78
487.85	15878.19
488.03	16203.53
488.21	16105.23
488.39	16091.18
488.57	16453.97
488.75	16477.37
488.92	16503.12
489.10	16709.08
489.28	16800.37
489.46	16968.88
489.64	16971.22
489.81	17249.75
489.99	17390.18
490.17	17729.56
490.35	17537.63
490.53	17589.13
490.70	17745.94
490.88	17771.69
491.06	17823.18
491.24	17902.76
491.41	18167.24
491.59	18569.81
491.77	18281.92
491.95	18604.92
492.13	18970.04
492.30	18719.60
492.48	18951.32
492.66	19056.64
492.84	19009.83
493.01	19304.74
493.19	18970.04
493.37	19461.55
493.54	19496.66
493.72	19957.75
493.90	19782.21
494.08	19948.39
494.25	19934.34
494.43	20475.01
494.61	20252.66
494.79	20362.66
494.96	20238.61
495.14	20556.93
495.32	20737.15
495.49	20964.18
495.67	21018.01
495.85	20779.28
496.02	21209.93
496.20	21074.18
496.38	21369.09
496.55	21568.04
496.73	21902.73
496.91	21619.53
497.09	21869.97
497.26	21518.89
497.44	21912.10
497.62	22195.30
497.79	22260.84
497.97	22295.94
498.14	22476.16
498.32	22822.56
498.50	22735.96
498.67	22927.89
498.85	22794.48
499.03	23136.20
499.20	23271.95
499.38	23178.33
499.56	23122.15
499.73	23445.15
499.91	23630.05
500.08	23405.36
500.26	23328.12
500.44	23578.56
500.61	23503.66
500.79	23648.77
500.97	24067.73
501.14	24231.57
501.32	24196.46
501.49	23800.91
501.67	24032.62
501.84	24580.31
502.02	24379.02
502.20	24643.50
502.37	24620.10
502.55	24423.49
502.72	24680.95
502.90	24629.46
503.07	24793.29
503.25	25097.56
503.43	24849.47
503.60	25142.03
503.78	25008.62
503.95	25371.41
504.13	25252.04
504.30	25535.24
504.48	25645.25
504.65	25582.06
504.83	26089.95
505.01	26218.68
505.18	25830.15
505.36	26246.77
505.53	26033.78
505.71	26443.37
505.88	26141.44
506.06	26096.97
506.23	26431.67
506.41	26096.97
506.58	26036.12
506.76	26368.48
506.93	26773.39
507.11	26639.98
507.28	26792.11
507.46	27323.41
507.63	26895.10
507.81	27318.73
507.98	26703.17
508.16	26958.29
508.33	27185.32
508.50	27297.67
508.68	27517.68
508.85	27948.34
509.03	27269.58
509.20	27529.38
509.38	28074.73
509.55	28086.43
509.73	27955.36
509.90	28077.07
510.08	28025.57
510.25	28369.63
510.42	28208.14
510.60	28540.49
510.77	28650.50
510.95	28811.99
511.12	28421.13
511.30	28474.96
511.47	28610.71
511.64	28727.74
511.82	29062.43
511.99	29186.48
512.17	28341.55
512.34	29137.33
512.51	29696.72
512.69	29483.73
512.86	29434.58
513.04	29692.04
513.21	29420.53
513.38	29727.14
513.56	29816.08
513.73	29640.54
513.90	29795.02
514.08	30010.35
514.25	29982.26
514.43	30164.82
514.60	30256.11
514.77	30141.42
514.95	30286.53
515.12	30099.29
515.29	30136.74
515.47	30532.29
515.64	30874.01
515.81	30478.46
515.99	30806.13
516.16	31019.12
516.33	30803.79
516.51	30742.94
516.68	30974.65
516.85	31250.83
517.03	31016.78
517.20	31133.81
517.37	31070.61
517.54	31412.33
517.72	31253.17
517.89	31087.00
518.06	31463.82
518.24	31637.02
518.41	31405.31
518.58	31543.40
518.75	31204.02
518.93	31899.16
519.10	31772.77
519.27	31695.53
519.45	31749.37
519.62	32329.82
519.79	32278.33
519.96	32065.34
520.14	32226.84
520.31	32275.99
520.48	32776.86
520.65	32245.56
520.83	33120.92
521.00	33062.41
521.17	32240.88
521.34	32989.85
521.52	32868.14
521.69	32917.29
521.86	33263.69
522.03	33184.12
522.20	33081.13
522.38	33516.47
522.55	33553.92
522.72	33298.80
522.89	33390.08
523.07	33872.23
523.24	33448.60
523.41	33631.16
523.58	33415.83
523.75	34071.18
523.92	33982.24
524.10	33802.02
524.27	34017.35
524.44	34075.86
524.61	34113.31
524.78	34375.45
524.96	34082.88
525.13	34614.18
525.30	34415.24
525.47	34569.71
525.64	34480.77
525.81	34412.90
525.98	34771.00
526.16	34628.23
526.33	34642.27
526.50	34780.36
526.67	34630.57
526.84	34815.47
527.01	34934.84
527.18	35218.04
527.36	35089.31
527.53	35182.93
527.70	35159.53
527.87	35098.67
528.04	35232.08
528.21	35248.47
528.38	35374.86
528.55	35503.59
528.72	35440.39
528.89	35615.93
529.07	35901.48
529.24	35487.20
529.41	35964.67
529.58	35676.79
529.75	35629.98
529.92	36116.81
530.09	35964.67
530.26	36055.95
530.43	35962.33
530.60	36116.81
530.77	36032.55
530.94	36542.78
531.11	35859.35
531.28	35990.42
531.46	36477.25
531.63	36598.96
531.80	36488.95
531.97	36343.84
532.14	36624.70
532.31	36648.11
532.48	36730.03
532.65	37001.53
532.82	36528.74
532.99	36732.37
533.16	36643.43
533.33	36598.96
533.50	37092.81
533.67	37207.50
533.84	36957.06
534.01	37303.46
534.18	37048.34
534.35	37593.68
534.52	37415.80
534.69	37916.68
534.86	37656.88
535.03	37504.74
535.20	38038.39
535.37	37691.99
535.54	38139.03
535.71	37481.34
535.88	37839.44
536.05	38155.41
536.22	38017.32
536.38	37677.94
536.55	37874.55
536.72	37965.83
536.89	37776.25
537.06	37944.76
537.23	38366.06
537.40	38071.15
537.57	38078.18
537.74	38052.43
537.91	38337.98
538.08	38337.98
538.25	37926.04
538.42	38534.58
538.59	38635.22
538.75	38487.77
538.92	38513.52
539.09	38925.45
539.26	38731.18
539.43	38117.96
539.60	38768.63
539.77	38609.48
539.94	38866.94
540.11	38873.96
540.28	39297.59
540.44	39077.58
540.61	39112.69
540.78	38719.48
540.95	38796.72
541.12	38836.51
541.29	39012.05
541.46	38916.09
541.62	39171.21
541.79	39225.04
541.96	38930.13
542.13	38927.79
542.30	39386.54
542.47	39564.42
542.63	39847.62
542.80	39669.74
542.97	40184.66
543.14	40144.87
543.31	39817.19
543.48	39770.38
543.64	40458.50
543.81	40084.01
543.98	39985.71
544.15	40189.34
544.32	40172.96
544.48	40486.59
544.65	40418.71
544.82	40341.47
544.99	40301.68
545.16	40378.92
545.32	40271.26
545.49	40940.65
545.66	40545.10
545.83	40690.21
546.00	40730.00
546.16	40725.32
546.33	40566.16
546.50	40481.91
546.67	40732.34
546.83	40212.74
547.00	40690.21
547.17	40671.49
547.34	40856.39
547.50	41015.55
547.67	41375.99
547.84	41404.08
548.00	41338.54
548.17	41436.84
548.34	41116.19
548.51	41366.63
548.67	40987.46
548.84	41221.52
549.01	41296.41
549.18	41443.87
549.34	41600.68
549.51	41563.23
549.68	41537.49
549.84	41441.53
550.01	41359.61
550.18	41504.72
550.34	41483.66
550.51	41820.69
550.68	41886.23
550.84	41385.35
551.01	41963.46
551.18	41588.98
551.34	41755.16
551.51	41858.14
551.68	41769.20
551.84	41783.24
552.01	41605.36
552.18	42337.95
552.34	42349.65
552.51	41968.15
552.68	42251.35
552.84	41689.62
553.01	42068.79
553.18	42061.77
553.34	42295.82
553.51	42181.13
553.67	42143.69
553.84	42204.54
554.01	42368.38
554.17	42763.93
554.34	42642.22
554.51	42354.33
554.67	42614.13
554.84	42478.38
555.00	42913.72
555.17	42712.44
555.33	42754.57
555.50	42649.24
555.67	42801.38
555.83	42707.76
556.00	42925.42
556.16	43365.45
556.33	43110.33
556.50	42670.31
556.66	43051.81
556.83	42766.27
556.99	43346.72
557.16	43093.94
557.32	43253.10
557.49	43611.20
557.65	42909.04
557.82	43262.46
557.98	43281.19
558.15	42953.51
558.32	42611.79
558.48	42792.01
558.65	43461.41
558.81	42962.87
558.98	42960.53
559.14	43306.93
559.31	43423.96
559.47	43262.46
559.64	43430.98
559.80	43262.46
559.97	43225.01
560.13	43000.32
560.30	43325.66
560.46	44065.27
560.63	43206.29
560.79	43768.02
560.96	44041.86
561.12	43632.27
561.29	43674.40
561.45	43648.65
561.61	43868.66
561.78	43903.77
561.94	43395.87
562.11	43618.22
562.27	43442.68
562.44	43849.94
562.60	43498.86
562.77	43922.49
562.93	43555.03
563.10	43906.11
563.26	43648.65
563.42	44348.47
563.59	43662.69
563.75	43938.88
563.92	43966.96
564.08	44116.76
564.24	44128.46
564.41	43812.49
564.57	43648.65
564.74	44013.77
564.90	43863.98
565.07	44198.68
565.23	43880.36
565.39	43913.13
565.56	44774.45
565.72	44315.70
565.88	43969.30
566.05	44472.52
566.21	44130.80
566.38	44355.49
566.54	44355.49
566.70	44545.08
566.87	44137.82
567.03	43856.96
567.19	44772.11
567.36	44669.12
567.52	44107.40
567.68	44584.86
567.85	44524.01
568.01	44514.65
568.17	44006.75
568.34	44676.15
568.50	44526.35
568.66	43955.26
568.83	44669.12
568.99	44477.20
569.15	44692.53
569.32	44680.83
569.48	44098.03
569.64	44982.76
569.81	44729.98
569.97	44294.64
570.13	44657.42
570.30	44624.65
570.46	45074.04
570.62	44226.76
570.78	44460.82
570.95	44704.23
571.11	44708.91
571.27	44657.42
571.43	44793.17
571.60	44444.43
571.76	44673.81
571.92	44568.48
572.09	44645.72
572.25	44449.11
572.41	44626.99
572.57	44701.89
572.74	44839.98
572.90	44474.86
573.06	45071.70
573.22	44612.95
573.38	45209.79
573.55	44973.39
573.71	45059.99
573.87	44882.11
574.03	44945.31
574.20	45387.67
574.36	45020.20
574.52	45120.85
574.68	45097.44
574.84	45270.64
575.01	45588.95
575.17	45502.35
575.33	45158.30
575.49	45095.10
575.65	44830.62
575.82	45380.65
575.98	44968.71
576.14	45235.53
576.30	44987.44
576.46	45427.46
576.62	44708.91
576.79	44975.73
576.95	44744.02
577.11	44699.55
577.27	44910.20
577.43	44699.55
577.59	45085.74
577.75	44818.92
577.92	44992.12
578.08	45022.54
578.24	44746.36
578.40	44966.37
578.56	45130.21
578.72	45045.95
578.88	45411.07
579.04	45146.59
579.21	45006.16
579.37	45359.58
579.53	45312.77
579.69	45071.70
579.85	45366.60
580.01	45439.16
580.17	45170.00
580.33	45521.08
580.49	45310.43
580.65	45457.88
580.82	44683.17
580.98	45235.53
581.14	45038.93
581.30	45221.49
581.46	45294.05
581.62	44863.39
581.78	45160.64
581.94	45418.10
582.10	45429.80
582.26	45291.71
582.42	45130.21
582.58	44980.42
582.74	45390.01
582.90	45626.40
583.06	45202.77
583.22	45518.74
583.38	45242.56
583.54	45162.98
583.70	45380.65
583.86	45457.88
584.02	45329.16
584.18	45698.96
584.34	45478.95
584.50	45460.23
584.66	45202.77
584.82	45429.80
584.98	45656.83
585.14	45380.65
585.30	45586.61
585.46	45483.63
585.62	44839.98
585.78	45434.48
585.94	44769.77
586.10	45317.45
586.26	45254.26
586.42	45392.35
586.58	45275.32
586.74	45624.06
586.90	45329.16
587.06	45780.88
587.22	45492.99
587.38	45254.26
587.54	45523.42
587.70	45663.85
587.86	45511.72
588.02	45680.24
588.18	45413.41
588.34	45610.02
588.49	45322.13
588.65	45745.77
588.81	45485.97
588.97	45942.38
589.13	45319.79
589.29	45546.82
589.45	45956.42
589.61	45284.68
589.77	45663.85
589.93	45773.86
590.08	45586.61
