SpectraSuite Data File
++++++++++++++++++++++++++++++++++++
Date: Fri Oct 25 11:25:30 EDT 2013
User: price-jones
Dark Spectrum Present: No
Reference Spectrum Present: No
Number of Sampled Component Spectra: 1
Spectrometers: USB2+H05261
Integration Time (usec): 100000 (USB2+H05261)
Spectra Averaged: 1 (USB2+H05261)
Boxcar Smoothing: 0 (USB2+H05261)
Correct for Electrical Dark: No (USB2+H05261)
Strobe/Lamp Enabled: No (USB2+H05261)
Correct for Detector Non-linearity: No (USB2+H05261)
Correct for Stray Light: No (USB2+H05261)
Number of Pixels in Processed Spectrum: 2048
>>>>>Begin Processed Spectral Data<<<<<
365.73	222.35
365.92	222.35
366.12	222.35
366.32	166.18
366.52	119.37
366.72	166.18
366.91	105.32
367.11	105.32
367.31	93.62
367.51	58.51
367.70	159.16
367.90	198.95
368.10	196.60
368.30	173.20
368.49	138.09
368.69	208.31
368.89	180.22
369.09	184.90
369.28	184.90
369.48	177.88
369.68	163.84
369.87	173.20
370.07	194.26
370.27	315.97
370.47	339.38
370.66	587.47
370.86	582.79
371.06	662.37
371.25	671.73
371.45	650.67
371.65	660.03
371.84	690.46
372.04	699.82
372.24	737.27
372.44	753.65
372.63	676.41
372.83	699.82
373.03	779.40
373.22	753.65
373.42	758.33
373.62	741.95
373.81	711.52
374.01	744.29
374.21	851.96
374.40	826.21
374.60	795.78
374.79	851.96
374.99	828.55
375.19	819.19
375.38	922.17
375.58	814.51
375.78	924.51
375.97	891.74
376.17	896.43
376.37	835.57
376.56	898.77
376.76	873.02
376.95	844.93
377.15	882.38
377.35	898.77
377.54	894.08
377.74	875.36
377.93	887.06
378.13	964.30
378.33	903.45
378.52	936.21
378.72	968.98
378.91	922.17
379.11	856.64
379.31	908.13
379.50	858.98
379.70	889.40
379.89	947.92
380.09	980.68
380.28	959.62
380.48	1001.75
380.68	978.34
380.87	1027.50
381.07	1107.07
381.26	1064.94
381.46	976.00
381.65	887.06
381.85	1057.92
382.04	952.60
382.24	1074.31
382.43	1048.56
382.63	1039.20
382.83	1057.92
383.02	1067.28
383.22	1109.41
383.41	1109.41
383.61	1146.86
383.80	1158.57
384.00	1158.57
384.19	1165.59
384.39	1151.54
384.58	1071.97
384.78	1142.18
384.97	1252.19
385.17	1153.88
385.36	1172.61
385.56	1196.01
385.75	1158.57
385.95	1170.27
386.14	1186.65
386.34	1121.12
386.53	1212.40
386.72	1217.08
386.92	1247.51
387.11	1284.95
387.31	1172.61
387.50	1217.08
387.70	1284.95
387.89	1259.21
388.09	1135.16
388.28	1254.53
388.48	1299.00
388.67	1392.62
388.86	1224.10
389.06	1221.76
389.25	1270.91
389.45	1404.32
389.64	1315.38
389.84	1418.36
390.03	1357.51
390.22	1495.60
390.42	1411.34
390.61	1373.89
390.81	1355.17
391.00	1427.73
391.19	1409.00
391.39	1439.43
391.58	1406.66
391.78	1495.60
391.97	1495.60
392.16	1465.18
392.36	1631.35
392.55	1565.82
392.75	1507.30
392.94	1556.46
393.13	1462.83
393.33	1568.16
393.52	1490.92
393.71	1542.41
393.91	1500.28
394.10	1530.71
394.29	1605.61
394.49	1476.88
394.68	1629.01
394.88	1703.91
395.07	1631.35
395.26	1591.56
395.46	1732.00
395.65	1692.21
395.84	1701.57
396.04	1785.83
396.23	1729.66
396.42	1710.93
396.62	1769.44
396.81	1776.47
397.00	1762.42
397.19	1692.21
397.39	1818.60
397.58	1900.52
397.77	1776.47
397.97	1891.15
398.16	1935.62
398.35	1912.22
398.55	1837.32
398.74	1818.60
398.93	1984.77
399.12	1984.77
399.32	1809.23
399.51	1858.39
399.70	1975.41
399.90	1930.94
400.09	1994.14
400.28	1963.71
400.47	2005.84
400.67	2104.14
400.86	2010.52
401.05	2054.99
401.24	2129.89
401.44	2033.93
401.63	2162.66
401.82	2134.57
402.01	2188.40
402.21	2200.10
402.40	2312.45
402.59	2172.02
402.78	2207.13
402.97	2186.06
403.17	2221.17
403.36	2293.72
403.55	2326.49
403.74	2291.38
403.93	2385.01
404.13	2310.11
404.32	2303.09
404.51	2396.71
404.70	2464.58
404.89	2319.47
405.09	2445.86
405.28	2590.97
405.47	2471.61
405.66	2565.23
405.85	2663.53
406.05	2623.74
406.24	2555.86
406.43	2541.82
406.62	2583.95
406.81	2722.04
407.00	2551.18
407.20	2487.99
407.39	2579.27
407.58	2668.21
407.77	2773.53
407.96	2682.25
408.15	2782.90
408.34	2616.72
408.54	2803.96
408.73	2705.66
408.92	2743.11
409.11	2841.41
409.30	2916.31
409.49	2951.42
409.68	2953.76
409.87	2883.54
410.07	2878.86
410.26	2963.12
410.45	2911.63
410.64	2913.97
410.83	3143.34
411.02	3199.51
411.21	3302.50
411.40	3129.30
411.59	3115.25
411.78	3199.51
411.98	3253.34
412.17	3307.18
412.36	3225.26
412.55	3325.90
412.74	3398.46
412.93	3468.67
413.12	3368.03
413.31	3550.59
413.50	3478.04
413.69	3426.54
413.88	3515.48
414.07	3559.95
414.26	3618.47
414.45	3597.40
414.64	3599.74
414.83	3562.30
415.02	3782.31
415.22	3651.24
415.41	3805.71
415.60	3758.90
415.79	3981.25
415.98	3885.29
416.17	3808.05
416.36	3899.33
416.55	4053.81
416.74	4086.58
416.93	4044.45
417.12	4102.96
417.31	4198.92
417.50	4175.52
417.69	4278.50
417.88	4250.41
418.07	4287.86
418.26	4262.12
418.45	4351.06
418.64	4440.00
418.83	4339.35
419.02	4341.69
419.21	4353.40
419.39	4393.19
419.58	4447.02
419.77	4489.15
419.96	4594.47
420.15	4491.49
420.34	4606.17
420.53	4610.86
420.72	4636.60
420.91	4648.30
421.10	4711.50
421.29	4767.67
421.48	4610.86
421.67	4641.28
421.86	4697.46
422.05	4683.41
422.24	4711.50
422.43	4840.23
422.61	4765.33
422.80	4849.59
422.99	4840.23
423.18	4837.89
423.37	5055.56
423.56	4835.55
423.75	4961.94
423.94	4868.31
424.13	4627.24
424.32	4671.71
424.50	5046.20
424.69	5107.05
424.88	5022.79
425.07	4849.59
425.26	4929.17
425.45	4816.82
425.64	4905.76
425.83	4994.70
426.01	4889.38
426.20	5100.03
426.39	4978.32
426.58	5097.69
426.77	4947.89
426.96	5193.65
427.15	5078.96
427.33	5151.52
427.52	5104.71
427.71	5118.75
427.90	5207.69
428.09	5362.17
428.28	5406.64
428.46	5329.40
428.65	5231.10
428.84	5366.85
429.03	5540.05
429.22	5366.85
429.40	5486.22
429.59	5413.66
429.78	5275.57
429.97	5165.56
430.16	5612.60
430.34	5507.28
430.53	5657.07
430.72	5554.09
430.91	5558.77
431.10	5643.03
431.28	5628.99
431.47	5750.70
431.66	5792.83
431.85	5675.80
432.03	5785.80
432.22	5781.12
432.41	5694.52
432.60	5839.64
432.79	5975.39
432.97	6040.92
433.16	5729.63
433.35	5923.90
433.54	6120.50
433.72	6167.31
433.91	6087.73
434.10	6092.41
434.28	6003.47
434.47	6251.57
434.66	6214.12
434.85	6169.65
435.03	6377.96
435.22	6200.08
435.41	6469.24
435.59	6450.52
435.78	6375.62
435.97	6490.31
436.16	6319.45
436.34	6473.92
436.53	6427.11
436.72	6534.78
436.90	6363.92
437.09	6558.18
437.28	6457.54
437.46	6487.96
437.65	6621.38
437.84	6757.13
438.02	6656.48
438.21	6747.76
438.40	6642.44
438.58	6799.26
438.77	7045.01
438.96	6874.15
439.14	7136.29
439.33	7094.16
439.52	7103.53
439.70	7194.81
439.89	7337.58
440.08	7206.51
440.26	7386.73
440.45	7248.64
440.63	7363.33
440.82	7681.64
441.01	7382.05
441.19	7686.32
441.38	7683.98
441.57	7562.27
441.75	7602.06
441.94	7815.05
442.12	7761.22
442.31	7976.55
442.50	8196.56
442.68	7899.31
442.87	7962.50
443.05	7936.76
443.24	8116.98
443.43	7971.86
443.61	8074.85
443.80	8465.72
443.98	8140.38
444.17	7976.55
444.35	8231.66
444.54	8252.73
444.73	8280.82
444.91	8290.18
445.10	8308.90
445.28	8205.92
445.47	8145.06
445.65	8376.78
445.84	8381.46
446.02	8386.14
446.21	8365.07
446.39	8374.44
446.58	8416.57
446.77	8479.76
446.95	8109.96
447.14	8446.99
447.32	8491.46
447.51	8599.13
447.69	8308.90
447.88	8313.58
448.06	8528.91
448.25	8465.72
448.43	8503.17
448.62	8512.53
448.80	8613.17
448.99	8533.59
449.17	8573.38
449.36	8521.89
449.54	8720.84
449.73	8835.52
449.91	8887.01
450.10	8938.51
450.28	8975.95
450.46	9116.39
450.65	9078.94
450.83	8922.12
451.02	8945.53
451.20	9107.02
451.39	9008.72
451.57	8917.44
451.76	8924.46
451.94	9142.13
452.13	9224.05
452.31	9210.01
452.49	9118.73
452.68	9252.14
452.86	9256.82
453.05	9401.93
453.23	9476.83
453.42	9301.29
453.60	9266.18
453.78	9514.28
453.97	9320.01
454.15	9240.44
454.34	9256.82
454.52	9638.33
454.70	9584.49
454.89	9575.13
455.07	9832.59
455.26	9802.16
455.44	9806.84
455.62	9643.01
455.81	9788.12
455.99	9987.07
456.17	10099.41
456.36	10260.91
456.54	9905.15
456.73	10186.01
456.91	10251.55
457.09	10361.55
457.28	10368.57
457.46	10377.94
457.64	10263.25
457.83	10616.67
458.01	10413.04
458.19	10473.90
458.38	10450.49
458.56	10682.20
458.74	10565.18
458.93	10349.85
459.11	10937.32
459.29	10518.37
459.48	10616.67
459.66	10637.73
459.84	10895.19
460.03	11068.39
460.21	10932.64
460.39	10841.36
460.57	10707.95
460.76	11077.76
460.94	11030.94
461.12	11101.16
461.31	11073.07
461.49	11061.37
461.67	11082.44
461.85	11417.13
462.04	11279.04
462.22	11988.22
462.40	11452.24
462.59	11386.71
462.77	11309.47
462.95	11623.10
463.13	11625.44
463.32	11620.76
463.50	11604.38
463.68	11555.22
463.86	11721.40
464.05	11595.01
464.23	11712.04
464.41	11918.01
464.59	11541.18
464.78	12016.31
464.96	12004.61
465.14	11754.17
465.32	11927.37
465.50	12037.38
465.69	12271.43
465.87	12100.57
466.05	12241.00
466.23	12128.66
466.41	12231.64
466.60	12446.97
466.78	12149.72
466.96	12044.40
467.14	12266.75
467.32	12313.56
467.51	12334.62
467.69	11941.41
467.87	12241.00
468.05	12381.43
468.23	12395.48
468.41	12353.35
468.60	12652.94
468.78	12718.47
468.96	12339.30
469.14	12816.77
469.32	12795.71
469.50	12524.21
469.69	13027.42
469.87	12936.14
470.05	13078.91
470.23	13097.64
470.41	12940.82
470.59	13109.34
470.77	13090.62
470.95	13160.83
471.14	13284.88
471.32	13095.30
471.50	13614.90
471.68	13530.64
471.86	13682.77
472.04	13621.92
472.22	13907.46
472.40	13575.11
472.58	13944.91
472.77	13820.86
472.95	14197.69
473.13	14527.71
473.31	14167.26
473.49	14200.03
473.67	14225.78
473.85	14047.90
474.03	14576.86
474.21	14693.88
474.39	14607.28
474.57	14527.71
474.75	14841.34
474.93	14839.00
475.12	14836.66
475.30	14890.49
475.48	14752.40
475.66	15138.58
475.84	14728.99
476.02	15206.46
476.20	15328.17
476.38	15484.98
476.56	16168.42
476.74	16063.10
476.92	15829.04
477.10	15857.13
477.28	15964.79
477.46	15805.64
477.64	16233.96
477.82	16313.53
478.00	16924.41
478.18	16688.02
478.36	16746.53
478.54	17219.32
478.72	17181.87
478.90	17441.67
479.08	17312.94
479.26	17577.42
479.44	17521.25
479.62	17781.05
479.80	17762.33
479.98	18211.71
480.16	18373.21
480.34	17944.89
480.52	18532.36
480.70	18525.34
480.88	18108.72
481.06	18480.87
481.24	18813.23
481.41	19042.60
481.59	19255.59
481.77	19250.91
481.95	19257.93
482.13	19510.71
482.31	19445.17
482.49	20163.72
482.67	19782.21
482.85	20098.18
483.03	20367.34
483.21	20376.70
483.39	20999.29
483.57	20489.05
483.74	20919.71
483.92	21172.49
484.10	21221.64
484.28	21469.73
484.46	21844.22
484.64	22263.18
484.82	21762.30
485.00	22368.50
485.18	22621.28
485.35	22904.48
485.53	22850.65
485.71	23007.47
485.89	23491.96
486.07	23007.47
486.25	23185.35
486.43	23325.78
486.61	24135.60
486.78	23981.13
486.96	23988.15
487.14	24290.08
487.32	24238.59
487.50	24685.63
487.68	24809.68
487.85	25263.74
488.03	25177.14
488.21	25844.20
488.39	25731.85
488.57	25993.99
488.75	25773.98
488.92	26300.60
489.10	26576.78
489.28	26684.45
489.46	26639.98
489.64	26958.29
489.81	27393.63
489.99	27789.18
490.17	27686.20
490.35	28149.62
490.53	28135.58
490.70	28343.89
490.88	28423.47
491.06	28879.87
491.24	28591.98
491.41	28751.14
491.59	28933.70
491.77	29273.08
491.95	29343.30
492.13	29472.03
492.30	29764.59
492.48	29778.64
492.66	29986.94
492.84	30054.82
493.01	30457.39
493.19	30654.00
493.37	30728.89
493.54	31021.46
493.72	31260.20
493.90	31225.09
494.08	31672.13
494.25	31779.79
494.43	31824.26
494.61	32222.16
494.79	31943.63
494.96	32561.53
495.14	32418.76
495.32	33067.09
495.49	32999.21
495.67	33139.65
495.85	33455.62
496.02	33771.59
496.20	33912.02
496.38	33689.67
496.55	34281.83
496.73	34347.36
496.91	34632.91
497.09	34459.71
497.26	34618.86
497.44	34902.07
497.62	35337.41
497.79	35721.26
497.97	35299.96
498.14	36067.66
498.32	35922.54
498.50	35976.37
498.67	36189.36
498.85	35754.02
499.03	36254.90
499.20	36367.24
499.38	36629.38
499.56	36563.85
499.73	37137.28
499.91	37017.91
500.08	37099.83
500.26	37254.31
500.44	37532.83
500.61	37670.92
500.79	37813.70
500.97	37930.72
501.14	38534.58
501.32	38239.67
501.49	38178.82
501.67	38300.53
501.84	38546.28
502.02	38976.94
502.20	38581.39
502.37	39283.55
502.55	39208.65
502.72	39239.08
502.90	39456.75
503.07	39388.88
503.25	39255.46
503.43	39674.42
503.60	39931.88
503.78	40074.65
503.95	40013.80
504.13	40411.69
504.30	40037.20
504.48	40502.97
504.65	40676.17
504.83	40868.09
505.01	40751.07
505.18	40863.41
505.36	41113.85
505.53	41095.13
505.71	41216.83
505.88	41404.08
506.06	41338.54
506.23	41911.97
506.41	41439.18
506.58	42174.11
506.76	42333.27
506.93	42677.33
507.11	42562.64
507.28	42146.03
507.46	42417.53
507.63	42887.98
507.81	42913.72
507.98	42644.56
508.16	42883.30
508.33	43304.59
508.50	43026.07
508.68	43683.76
508.85	43386.51
509.03	43798.44
509.20	43716.53
509.38	43985.69
509.55	43704.82
509.73	44093.35
509.90	44561.46
510.08	44285.28
510.25	44243.15
510.42	44383.58
510.60	45034.25
510.77	44669.12
510.95	44999.14
511.12	44573.16
511.30	45078.72
511.47	44989.78
511.64	45315.11
511.82	45558.53
511.99	45111.49
512.17	45474.27
512.34	45631.08
512.51	46192.81
512.69	46579.00
512.86	46124.94
513.04	47028.38
513.21	46330.90
513.38	46333.24
513.56	46689.01
513.73	46642.20
513.90	46794.33
514.08	46457.29
514.25	47122.01
514.43	46550.91
514.60	47297.55
514.77	47206.26
514.95	47510.53
515.12	47119.66
515.29	47332.65
515.47	47634.58
515.64	48107.37
515.81	47559.69
515.99	48095.67
516.16	47971.62
516.33	48037.16
516.51	48739.32
516.68	48116.73
516.85	48329.72
517.03	48580.16
517.20	48577.82
517.37	48596.54
517.54	48725.27
517.72	48526.33
517.89	48584.84
518.06	48582.50
518.24	48877.41
518.41	48917.20
518.58	49228.49
518.75	48900.81
518.93	49460.20
519.10	49357.22
519.27	49722.34
519.45	49499.99
519.62	49422.75
519.79	49722.34
519.96	49509.35
520.14	49932.99
520.31	49918.95
520.48	50160.02
520.65	50230.24
520.83	50426.84
521.00	50363.65
521.17	49947.03
521.34	50323.86
521.52	50660.90
521.69	50513.44
521.86	50710.05
522.03	50798.99
522.20	50955.80
522.38	51313.90
522.55	51372.42
522.72	50953.46
522.89	51133.68
523.07	51154.75
523.24	51229.65
523.41	51569.02
523.58	51241.35
523.75	51292.84
523.92	51480.08
524.10	51709.46
524.27	51800.74
524.44	51664.99
524.61	52051.17
524.78	52048.83
524.96	52238.42
525.13	52212.67
525.30	52308.63
525.47	52404.59
525.64	52285.23
525.81	52570.77
525.98	52332.04
526.16	52369.49
526.33	52411.62
526.50	52575.45
526.67	52811.85
526.84	52828.23
527.01	52638.65
527.18	52648.01
527.36	52844.62
527.53	52975.69
527.70	53233.14
527.87	52924.19
528.04	53029.52
528.21	53277.61
528.38	53298.68
528.55	53343.15
528.72	52963.98
528.89	53235.48
529.07	53041.22
529.24	53188.67
529.41	53581.88
529.58	53333.79
529.75	53675.51
529.92	53471.88
530.09	53619.33
530.26	53698.91
530.43	53799.55
530.60	53654.44
530.77	53628.69
530.94	53881.47
531.11	53467.20
531.28	53911.90
531.46	53858.07
531.63	54347.24
531.80	53989.14
531.97	54262.98
532.14	54438.52
532.31	54078.08
532.48	54415.11
532.65	54770.88
532.82	54298.09
532.99	54585.97
533.16	54593.00
533.33	54642.15
533.50	54578.95
533.67	54642.15
533.84	54775.56
534.01	54784.92
534.18	55002.59
534.35	55136.00
534.52	54934.71
534.69	54962.80
534.86	55002.59
535.03	54763.85
535.20	55236.64
535.37	54958.12
535.54	55311.54
535.71	54887.90
535.88	55030.68
536.05	55379.42
536.22	55711.77
536.38	55461.33
536.55	55489.42
536.72	55454.31
536.89	55253.03
537.06	55269.41
537.23	55503.46
537.40	55545.59
537.57	55407.50
537.74	55742.20
537.91	55838.16
538.08	55943.48
538.25	55669.64
538.42	55690.71
538.59	55929.44
538.75	55763.26
538.92	55922.42
539.09	56034.77
539.26	55971.57
539.43	55927.10
539.60	56191.58
539.77	55924.76
539.94	56383.51
540.11	55875.61
540.28	56224.35
540.44	56240.73
540.61	56191.58
540.78	56165.84
540.95	56317.97
541.12	56097.96
541.29	56516.92
541.46	56519.26
541.62	56584.79
541.79	56715.86
541.96	56423.29
542.13	56357.76
542.30	56591.81
542.47	56842.25
542.63	56615.22
542.80	56652.67
542.97	56697.14
543.14	57045.88
543.31	57029.49
543.48	57022.47
543.64	57102.05
543.81	57088.01
543.98	57249.50
544.15	56970.98
544.32	57251.84
544.48	57436.75
544.65	57167.58
544.82	57439.09
544.99	57062.26
545.16	57432.07
545.32	57020.13
545.49	57570.16
545.66	57483.56
545.83	57656.76
546.00	57614.63
546.16	57277.59
546.33	57340.78
546.50	57308.02
546.67	57687.18
546.83	57153.54
547.00	57411.00
547.17	57453.13
547.34	57499.94
547.50	57710.59
547.67	58068.69
547.84	58033.58
548.00	57879.11
548.17	58066.35
548.34	58014.86
548.51	58159.97
548.67	58190.40
548.84	57958.69
549.01	58082.73
549.18	58195.08
549.34	58155.29
549.51	58188.06
549.68	58241.89
549.84	58204.44
550.01	58223.17
550.18	58040.60
550.34	58293.38
550.51	58518.07
550.68	58286.36
550.84	58127.20
551.01	58368.28
551.18	58344.87
551.34	58415.09
551.51	58396.37
551.68	58464.24
551.84	58450.20
552.01	58328.49
552.18	58426.79
552.34	58567.23
552.51	58546.16
552.68	58422.11
552.84	58489.99
553.01	58761.49
553.18	58569.57
553.34	58831.71
553.51	58515.73
553.67	58810.64
553.84	58787.24
554.01	58892.56
554.17	58850.43
554.34	58665.53
554.51	58866.81
554.67	59077.46
554.84	59105.55
555.00	58745.11
555.17	58864.47
555.33	59009.59
555.50	58768.51
555.67	58707.66
555.83	59119.59
556.00	59105.55
556.16	59173.42
556.33	59210.87
556.50	59121.93
556.66	59220.23
556.83	58918.31
556.99	59409.82
557.16	59400.46
557.32	59250.66
557.49	59346.62
557.65	59152.36
557.82	59133.63
557.98	59339.60
558.15	59412.16
558.32	59405.14
558.48	59253.00
558.65	59587.70
558.81	59503.44
558.98	59325.56
559.14	59290.45
559.31	59463.65
559.47	59573.66
559.64	59576.00
559.80	59737.49
559.97	59543.23
560.13	59554.93
560.30	59262.36
560.46	59597.06
560.63	59583.02
560.79	59772.60
560.96	59746.86
561.12	59503.44
561.29	59648.55
561.45	59655.57
561.61	59674.30
561.78	59578.34
561.94	59540.89
562.11	59793.67
562.27	59709.41
562.44	59522.16
562.60	59852.18
562.77	59838.14
562.93	59721.11
563.10	59800.69
563.26	59711.75
563.42	60027.72
563.59	59739.83
563.75	59746.86
563.92	59814.73
564.08	59796.01
564.24	60114.32
564.41	60011.34
564.57	59732.81
564.74	60123.68
564.90	59957.50
565.07	59948.14
565.23	59973.89
565.39	60067.51
565.56	59978.57
565.72	59884.95
565.88	60121.34
566.05	59948.14
566.21	60001.97
566.38	60238.37
566.54	60018.36
566.70	60364.76
566.87	60097.94
567.03	59980.91
567.19	60119.00
567.36	60362.42
567.52	60168.15
567.68	60472.42
567.85	60128.36
568.01	60231.35
568.17	60271.14
568.34	60247.73
568.50	60339.01
568.66	60135.38
568.83	60348.37
568.99	60210.28
569.15	60151.77
569.32	60210.28
569.48	60210.28
569.64	60441.99
569.81	60371.78
569.97	60252.41
570.13	60285.18
570.30	60563.70
570.46	60423.27
570.62	60514.55
570.78	60275.82
570.95	60214.96
571.11	60343.69
571.27	60165.81
571.43	60285.18
571.60	60425.61
571.76	60247.73
571.92	60432.63
572.09	60575.40
572.25	60343.69
572.41	60568.38
572.57	60505.19
572.74	60434.97
572.90	60301.56
573.06	60434.97
573.22	60399.86
573.38	60570.72
573.55	60673.71
573.71	60580.09
573.87	60266.45
574.03	60514.55
574.20	60640.94
574.36	60308.58
574.52	60601.15
574.68	60624.56
574.84	60472.42
575.01	60629.24
575.17	60556.68
575.33	60399.86
575.49	60313.26
575.65	60521.57
575.82	60662.00
575.98	60823.50
576.14	60760.31
576.30	60617.53
576.46	60491.15
576.62	60652.64
576.79	60598.81
576.95	60549.66
577.11	60842.23
577.27	60603.49
577.43	60643.28
577.59	60676.05
577.75	60537.96
577.92	60622.22
578.08	60673.71
578.24	60683.07
578.40	60891.38
578.56	60795.42
578.72	60657.32
578.88	60781.37
579.04	60786.05
579.21	60769.67
579.37	60940.53
579.53	60891.38
579.69	60477.10
579.85	60865.63
580.01	60594.13
580.17	60734.56
580.33	60701.79
580.49	60860.95
580.65	60676.05
580.82	60666.69
580.98	60844.57
581.14	60708.82
581.30	60959.25
581.46	60732.22
581.62	60928.83
581.78	60470.08
581.94	60748.60
582.10	60708.82
582.26	60790.73
582.42	60505.19
582.58	60762.65
582.74	60931.17
582.90	60750.94
583.06	60800.10
583.22	60678.39
583.38	60757.97
583.54	60790.73
583.70	60870.31
583.86	61013.08
584.02	60568.38
584.18	60755.63
584.34	61050.53
584.50	60828.18
584.66	60673.71
584.82	60706.47
584.98	60835.20
585.14	60844.57
585.30	60741.58
585.46	60851.59
585.62	60900.74
585.78	61001.38
585.94	60776.69
586.10	60987.34
586.26	60963.93
586.42	60954.57
586.58	60956.91
586.74	60828.18
586.90	60736.90
587.06	60725.20
587.22	60975.64
587.38	60900.74
587.54	61279.91
587.70	61183.94
587.86	60994.36
588.02	60966.27
588.18	61052.87
588.34	60963.93
588.49	60898.40
