SpectraSuite Data File
++++++++++++++++++++++++++++++++++++
Date: Fri Oct 25 11:33:21 EDT 2013
User: price-jones
Dark Spectrum Present: No
Reference Spectrum Present: No
Number of Sampled Component Spectra: 1
Spectrometers: USB2+H05261
Integration Time (usec): 100000 (USB2+H05261)
Spectra Averaged: 1 (USB2+H05261)
Boxcar Smoothing: 0 (USB2+H05261)
Correct for Electrical Dark: No (USB2+H05261)
Strobe/Lamp Enabled: No (USB2+H05261)
Correct for Detector Non-linearity: No (USB2+H05261)
Correct for Stray Light: No (USB2+H05261)
Number of Pixels in Processed Spectrum: 2048
>>>>>Begin Processed Spectral Data<<<<<
365.73	229.37
365.92	229.37
366.12	229.37
366.32	212.99
366.52	196.60
366.72	210.65
366.91	110.01
367.11	135.75
367.31	77.24
367.51	124.05
367.70	173.20
367.90	220.01
368.10	201.29
368.30	205.97
368.49	124.05
368.69	175.54
368.89	217.67
369.09	138.09
369.28	259.80
369.48	201.29
369.68	212.99
369.87	205.97
370.07	264.48
370.27	325.33
370.47	320.65
370.66	447.04
370.86	617.90
371.06	477.47
371.25	587.47
371.45	559.39
371.65	596.84
371.84	519.60
372.04	512.58
372.24	573.43
372.44	514.92
372.63	638.97
372.83	631.94
373.03	657.69
373.22	678.76
373.42	638.97
373.62	660.03
373.81	587.47
374.01	664.71
374.21	629.60
374.40	578.11
374.60	657.69
374.79	683.44
374.99	716.20
375.19	676.41
375.38	648.33
375.58	706.84
375.78	671.73
375.97	648.33
376.17	725.57
376.37	657.69
376.56	704.50
376.76	711.52
376.95	610.88
377.15	657.69
377.35	674.07
377.54	753.65
377.74	594.50
377.93	695.14
378.13	645.99
378.33	671.73
378.52	702.16
378.72	704.50
378.91	653.01
379.11	702.16
379.31	634.29
379.50	648.33
379.70	695.14
379.89	727.91
380.09	660.03
380.28	692.80
380.48	788.76
380.68	737.27
380.87	718.54
381.07	716.20
381.26	753.65
381.46	798.12
381.65	751.31
381.85	741.95
382.04	788.76
382.24	828.55
382.43	809.83
382.63	814.51
382.83	716.20
383.02	844.93
383.22	891.74
383.41	849.61
383.61	758.33
383.80	805.14
384.00	793.44
384.19	858.98
384.39	861.32
384.58	807.48
384.78	802.80
384.97	861.32
385.17	873.02
385.36	884.72
385.56	858.98
385.75	805.14
385.95	763.01
386.14	854.30
386.34	884.72
386.53	950.26
386.72	844.93
386.92	905.79
387.11	889.40
387.31	945.58
387.50	905.79
387.70	924.51
387.89	821.53
388.09	880.04
388.28	950.26
388.48	877.70
388.67	992.39
388.86	922.17
389.06	950.26
389.25	952.60
389.45	924.51
389.64	912.81
389.84	1008.77
390.03	978.34
390.22	961.96
390.42	1011.11
390.61	1001.75
390.81	952.60
391.00	954.94
391.19	971.32
391.39	1032.18
391.58	1057.92
391.78	922.17
391.97	1006.43
392.16	931.53
392.36	1046.22
392.55	1032.18
392.75	1043.88
392.94	1081.33
393.13	1153.88
393.33	1086.01
393.52	1076.65
393.71	1153.88
393.91	1046.22
394.10	1043.88
394.29	1125.80
394.49	1046.22
394.68	1064.94
394.88	1214.74
395.07	1118.78
395.26	1210.06
395.46	1151.54
395.65	1097.71
395.84	1261.55
396.04	1289.64
396.23	1181.97
396.42	1275.59
396.62	1268.57
396.81	1235.80
397.00	1198.35
397.19	1207.72
397.39	1203.04
397.58	1261.55
397.77	1327.08
397.97	1217.08
398.16	1317.72
398.35	1373.89
398.55	1240.48
398.74	1369.21
398.93	1308.36
399.12	1294.32
399.32	1306.02
399.51	1313.04
399.70	1296.66
399.90	1352.83
400.09	1359.85
400.28	1345.81
400.47	1348.15
400.67	1383.26
400.86	1390.28
401.05	1371.55
401.24	1547.09
401.44	1390.28
401.63	1430.07
401.82	1460.49
402.01	1467.52
402.21	1427.73
402.40	1481.56
402.59	1523.69
402.78	1502.62
402.97	1511.99
403.17	1528.37
403.36	1504.96
403.55	1610.29
403.74	1497.94
403.93	1551.78
404.13	1563.48
404.32	1689.87
404.51	1549.43
404.70	1682.85
404.89	1593.90
405.09	1703.91
405.28	1680.50
405.47	1647.74
405.66	1717.95
405.85	1671.14
406.05	1755.40
406.24	1788.17
406.43	1799.87
406.62	1753.06
406.81	1792.85
407.00	1788.17
407.20	1739.02
407.39	1734.34
407.58	1902.86
407.77	1952.01
407.96	1937.96
408.15	1923.92
408.34	1839.66
408.54	1877.11
408.73	1919.24
408.92	2036.27
409.11	1956.69
409.30	2029.24
409.49	1923.92
409.68	1973.07
409.87	1900.52
410.07	2097.12
410.26	2104.14
410.45	2031.58
410.64	2097.12
410.83	2115.84
411.02	2087.76
411.21	2209.47
411.40	2270.32
411.59	2228.19
411.78	2207.13
411.98	2211.81
412.17	2160.31
412.36	2253.94
412.55	2286.70
412.74	2375.64
412.93	2314.79
413.12	2401.39
413.31	2473.95
413.50	2394.37
413.69	2478.63
413.88	2541.82
414.07	2562.89
414.26	2516.08
414.45	2637.78
414.64	2567.57
414.83	2654.17
415.02	2668.21
415.22	2715.02
415.41	2605.02
415.60	2595.65
415.79	2642.46
415.98	2789.92
416.17	2661.19
416.36	2640.12
416.55	2731.41
416.74	2846.09
416.93	2855.45
417.12	2818.00
417.31	2825.03
417.50	2937.37
417.69	3101.21
417.88	2953.76
418.07	2942.05
418.26	2977.16
418.45	2967.80
418.64	3035.67
418.83	3030.99
419.02	3119.93
419.21	3157.38
419.39	3066.10
419.58	3117.59
419.77	3014.61
419.96	3204.19
420.15	3159.72
420.34	3236.96
420.53	3148.02
420.72	3166.74
420.91	3229.94
421.10	3281.43
421.29	3414.84
421.48	3290.79
421.67	3351.65
421.86	3276.75
422.05	3375.05
422.24	3358.67
422.43	3456.97
422.61	3396.12
422.80	3414.84
422.99	3304.84
423.18	3438.25
423.37	3433.57
423.56	3365.69
423.75	3456.97
423.94	3389.10
424.13	3201.85
424.32	3290.79
424.50	3382.07
424.69	3538.89
424.88	3466.33
425.07	3398.46
425.26	3431.23
425.45	3379.73
425.64	3506.12
425.83	3550.59
426.01	3459.31
426.20	3463.99
426.39	3421.86
426.58	3480.38
426.77	3370.37
426.96	3613.79
427.15	3569.32
427.33	3681.66
427.52	3552.93
427.71	3609.11
427.90	3641.87
428.09	3571.66
428.28	3742.52
428.46	3595.06
428.65	3648.90
428.84	3875.93
429.03	3805.71
429.22	3742.52
429.40	3719.11
429.59	3899.33
429.78	3782.31
429.97	3648.90
430.16	3796.35
430.34	3864.22
430.53	3918.06
430.72	3861.88
430.91	3901.67
431.10	3854.86
431.28	3906.35
431.47	4025.72
431.66	4011.68
431.85	3906.35
432.03	4032.74
432.22	4163.81
432.41	4084.23
432.60	4119.34
432.79	4117.00
432.97	4126.36
433.16	4133.39
433.35	4133.39
433.54	4273.82
433.72	4227.01
433.91	4135.73
434.10	4219.99
434.28	4264.46
434.47	4332.33
434.66	4184.88
434.85	4337.01
435.03	4271.48
435.22	4327.65
435.41	4411.91
435.59	4292.54
435.78	4374.46
435.97	4500.85
436.16	4278.50
436.34	4489.15
436.53	4489.15
436.72	4608.51
436.90	4540.64
437.09	4592.13
437.28	4383.82
437.46	4709.16
437.65	4582.77
437.84	4868.31
438.02	4650.64
438.21	4664.69
438.40	4512.55
438.58	4819.16
438.77	4793.42
438.96	4746.61
439.14	4828.53
439.33	5036.83
439.52	4945.55
439.70	4994.70
439.89	5004.07
440.08	5090.67
440.26	5008.75
440.45	5001.72
440.63	5210.03
440.82	5448.77
441.01	5158.54
441.19	5139.82
441.38	5329.40
441.57	5270.89
441.75	5366.85
441.94	5177.26
442.12	5399.62
442.31	5577.50
442.50	5334.08
442.68	5324.72
442.87	5465.15
443.05	5584.52
443.24	5551.75
443.43	5488.56
443.61	5540.05
443.80	5659.42
443.98	5516.64
444.17	5322.38
444.35	5746.02
444.54	5715.59
444.73	5785.80
444.91	5565.79
445.10	5589.20
445.28	5659.42
445.47	5624.31
445.65	5664.10
445.84	5682.82
446.02	5734.31
446.21	5776.44
446.39	5654.73
446.58	5750.70
446.77	5830.27
446.95	5598.56
447.14	5846.66
447.32	5879.43
447.51	5783.46
447.69	5727.29
447.88	5701.54
448.06	5942.62
448.25	5905.17
448.43	5863.04
448.62	5827.93
448.80	5738.99
448.99	6076.03
449.17	5781.12
449.36	5743.67
449.54	6115.82
449.73	6054.97
449.91	6221.14
450.10	6045.60
450.28	6146.25
450.46	6286.68
450.65	6108.80
450.83	6270.30
451.02	6026.88
451.20	6399.02
451.39	6164.97
451.57	6076.03
451.76	6216.46
451.94	6312.42
452.13	6335.83
452.31	6349.87
452.49	6296.04
452.68	6274.98
452.86	6443.49
453.05	6466.90
453.23	6455.20
453.42	6256.25
453.60	6354.55
453.78	6319.45
453.97	6382.64
454.15	6333.49
454.34	6420.09
454.52	6490.31
454.70	6572.22
454.89	6717.34
455.07	6651.80
455.26	6619.04
455.44	6698.61
455.62	6612.01
455.81	6803.94
455.99	6782.87
456.17	6918.62
456.36	6768.83
456.54	7042.67
456.73	6953.73
456.91	7012.24
457.09	6871.81
457.28	7012.24
457.46	6878.83
457.64	7204.17
457.83	7101.19
458.01	7140.97
458.19	7344.60
458.38	7150.34
458.56	7351.62
458.74	7171.40
458.93	7087.14
459.11	7323.54
459.29	7337.58
459.48	7295.45
459.66	7262.68
459.84	7262.68
460.03	7576.31
460.21	7337.58
460.39	7496.74
460.57	7449.93
460.76	7475.67
460.94	7592.70
461.12	7391.41
461.31	7531.84
461.49	7489.71
461.67	7391.41
461.85	7723.77
462.04	7786.96
462.22	7925.05
462.40	7850.16
462.59	7719.09
462.77	7674.62
462.95	7772.92
463.13	7716.75
463.32	7819.73
463.50	8215.28
463.68	7854.84
463.86	8009.31
464.05	7894.63
464.23	7819.73
464.41	7976.55
464.59	7889.95
464.78	8194.22
464.96	8355.71
465.14	7967.18
465.32	8149.75
465.50	8243.37
465.69	8128.68
465.87	8241.03
466.05	8161.45
466.23	8042.08
466.41	8271.45
466.60	8592.11
466.78	8327.63
466.96	8304.22
467.14	8299.54
467.32	8425.93
467.51	8446.99
467.69	8334.65
467.87	8320.60
468.05	8456.36
468.23	8369.76
468.41	8341.67
468.60	8540.61
468.78	8416.57
468.96	8610.83
469.14	8552.32
469.32	8706.79
469.50	8641.26
469.69	8720.84
469.87	8837.86
470.05	8748.92
470.23	8709.13
470.41	8894.04
470.59	8854.25
470.77	8938.51
470.95	8947.87
471.14	9100.00
471.32	8739.56
471.50	9109.36
471.68	9245.12
471.86	9181.92
472.04	9207.67
472.22	9411.29
472.40	9186.60
472.58	9441.72
472.77	9320.01
472.95	9303.63
473.13	9832.59
473.31	9420.66
473.49	9500.23
473.67	9528.32
473.85	9394.91
474.03	9689.82
474.21	9912.17
474.39	9980.04
474.57	10078.35
474.75	9963.66
474.93	10122.82
475.12	10127.50
475.30	10024.51
475.48	9998.77
475.66	10064.30
475.84	10228.14
476.02	10249.21
476.20	10272.61
476.38	10581.56
476.56	10534.75
476.74	10609.65
476.92	10464.54
477.10	10644.76
477.28	11023.92
477.46	10958.39
477.64	10815.62
477.82	10981.79
478.00	11398.41
478.18	11243.93
478.36	11356.28
478.54	11485.01
478.72	11314.15
478.90	11468.62
479.08	11557.57
479.26	11927.37
479.44	11850.13
479.62	11695.66
479.80	12191.85
479.98	12138.02
480.16	12346.33
480.34	12121.63
480.52	12423.56
480.70	12376.75
480.88	12046.74
481.06	12578.04
481.24	12664.64
481.41	12620.17
481.59	12779.32
481.77	12725.49
481.95	13085.94
482.13	13107.00
482.31	13015.72
482.49	13373.82
482.67	13312.97
482.85	13605.53
483.03	13493.19
483.21	13928.53
483.39	13907.46
483.57	13668.73
483.74	14052.58
483.92	14218.75
484.10	14354.51
484.28	14466.85
484.46	14640.05
484.64	14848.36
484.82	14448.13
485.00	14733.67
485.18	14806.23
485.35	15353.91
485.53	15005.17
485.71	15176.03
485.89	15412.43
486.07	15176.03
486.25	15697.97
486.43	15784.57
486.61	15978.84
486.78	15648.82
486.96	16079.48
487.14	16407.16
487.32	16236.30
487.50	16360.34
487.68	16638.87
487.85	16847.18
488.03	17114.00
488.21	16994.63
488.39	17235.70
488.57	17128.04
488.75	17277.83
488.92	17507.21
489.10	17537.63
489.28	17752.96
489.46	17942.55
489.64	17975.31
489.81	18059.57
489.99	18237.45
490.17	18216.39
490.35	18745.35
490.53	18445.76
490.70	18719.60
490.88	18991.11
491.06	19176.01
491.24	19073.03
491.41	19332.82
491.59	19494.32
491.77	19232.18
491.95	19325.80
492.13	19531.77
492.30	20109.88
492.48	20081.80
492.66	19992.86
492.84	20002.22
493.01	20294.79
493.19	20194.14
493.37	20437.56
493.54	20725.44
493.72	20798.00
493.90	21118.65
494.08	21013.33
494.25	20908.01
494.43	21235.68
494.61	21120.99
494.79	21448.67
494.96	21553.99
495.14	21713.15
495.32	21827.84
495.49	21994.01
495.67	22307.65
495.85	22286.58
496.02	22167.21
496.20	22572.13
496.38	22494.89
496.55	22738.30
496.73	23428.76
496.91	22747.67
497.09	23323.44
497.26	22766.39
497.44	23089.38
497.62	23316.42
497.79	23749.42
497.97	23522.38
498.14	23625.37
498.32	24004.53
498.50	23723.67
498.67	24074.75
498.85	23796.23
499.03	24306.46
499.20	24133.26
499.38	24343.91
499.56	24451.58
499.73	24760.53
499.91	24563.92
500.08	24828.40
500.26	24800.32
500.44	25060.12
500.61	25317.57
500.79	24893.94
500.97	25310.55
501.14	25516.52
501.32	25568.01
501.49	25783.34
501.67	25163.10
501.84	25783.34
502.02	25839.51
502.20	25830.15
502.37	25348.00
502.55	25823.13
502.72	26307.62
502.90	26501.89
503.07	26359.11
503.25	26244.43
503.43	25898.03
503.60	26443.37
503.78	26345.07
503.95	26412.95
504.13	26768.71
504.30	26663.38
504.48	26721.90
504.65	27190.00
504.83	27491.93
505.01	27026.17
505.18	27285.97
505.36	27452.14
505.53	27709.60
505.71	27583.21
505.88	27459.16
506.06	27232.13
506.23	28027.92
506.41	27644.07
506.58	27700.24
506.76	28273.67
506.93	28184.73
507.11	27981.10
507.28	28030.26
507.46	28238.56
507.63	28795.61
507.81	28943.06
507.98	28252.61
508.16	28580.28
508.33	28938.38
508.50	28701.99
508.68	28968.81
508.85	29158.39
509.03	29088.18
509.20	29357.34
509.38	29699.06
509.55	29446.28
509.73	29752.89
509.90	29886.30
510.08	29495.43
510.25	29645.23
510.42	29853.53
510.60	29853.53
510.77	30232.70
510.95	29986.94
511.12	30188.23
511.30	30003.33
511.47	30464.41
511.64	30108.65
511.82	30569.74
511.99	30642.29
512.17	30838.90
512.34	30623.57
512.51	31112.74
512.69	31051.89
512.86	30731.23
513.04	31110.40
513.21	31154.87
513.38	31234.45
513.56	31519.99
513.73	31197.00
513.90	31538.72
514.08	31040.18
514.25	31246.15
514.43	31751.71
514.60	31978.74
514.77	32009.17
514.95	32004.49
515.12	31957.67
515.29	32161.30
515.47	32077.04
515.64	32194.07
515.81	31945.97
515.99	32009.17
516.16	32393.01
516.33	32421.10
516.51	32772.18
516.68	32491.32
516.85	33027.30
517.03	32851.76
517.20	32842.40
517.37	32940.70
517.54	33071.77
517.72	33165.39
517.89	32999.21
518.06	33282.42
518.24	33392.42
518.41	33294.12
518.58	33193.48
518.75	33434.55
518.93	33319.87
519.10	33743.50
519.27	33827.76
519.45	34064.16
519.62	34047.77
519.79	33890.96
519.96	33956.49
520.14	34141.39
520.31	33998.62
520.48	34033.73
520.65	34405.88
520.83	34747.59
521.00	34548.65
521.17	34274.80
521.34	34815.47
521.52	34677.38
521.69	34543.97
521.86	34705.46
522.03	34899.73
522.20	35168.89
522.38	35278.89
522.55	35117.40
522.72	35129.10
522.89	35578.48
523.07	35276.55
523.24	35377.20
523.41	35871.05
523.58	35445.07
523.75	35585.50
523.92	35943.61
524.10	35789.13
524.27	35779.77
524.44	35917.86
524.61	36343.84
524.78	36119.15
524.96	36437.46
525.13	35910.84
525.30	36290.01
525.47	36793.22
525.64	36484.27
525.81	36488.95
525.98	36697.26
526.16	36381.29
526.33	36746.41
526.50	36985.15
526.67	36685.56
526.84	36594.28
527.01	36746.41
527.18	36840.03
527.36	36620.02
527.53	37275.37
527.70	37572.62
527.87	37368.99
528.04	37275.37
528.21	37338.57
528.38	37518.79
528.55	37682.62
528.72	37553.90
528.89	37153.66
529.07	37347.93
529.24	37361.97
529.41	37691.99
529.58	37420.48
529.75	37600.71
529.92	38024.34
530.09	38068.81
530.26	37773.91
530.43	38096.90
530.60	37589.00
530.77	37787.95
530.94	37851.14
531.11	38038.39
531.28	38103.92
531.46	38204.56
531.63	38373.08
531.80	38127.33
531.97	38274.78
532.14	38679.69
532.31	38429.26
532.48	38670.33
532.65	38710.12
532.82	38794.38
532.99	38778.00
533.16	38766.29
533.33	39180.57
533.50	39124.40
533.67	39138.44
533.84	39007.37
534.01	38855.23
534.18	39110.35
534.35	39428.66
534.52	39559.73
534.69	39548.03
534.86	39524.63
535.03	39613.57
535.20	39683.78
535.37	39835.92
535.54	39702.51
535.71	39653.36
535.88	39683.78
536.05	39864.00
536.22	39976.35
536.38	39716.55
536.55	40037.20
536.72	40273.60
536.89	39903.79
537.06	40004.44
537.23	40016.14
537.40	40170.61
537.57	40362.54
537.74	40194.02
537.91	40383.60
538.08	40247.85
538.25	40020.82
538.42	40327.43
538.59	40610.64
538.75	40549.78
538.92	41045.97
539.09	40711.28
539.26	40968.74
539.43	40912.56
539.60	40730.00
539.77	40577.87
539.94	41188.75
540.11	41345.56
540.28	41148.96
540.44	40912.56
540.61	40727.66
540.78	41235.56
540.95	40935.97
541.12	40722.98
541.29	41284.71
541.46	41401.74
541.62	41886.23
541.79	41600.68
541.96	41041.29
542.13	41614.72
542.30	41186.41
542.47	41146.62
542.63	41752.82
542.80	41799.63
542.97	42031.34
543.14	42148.37
543.31	41951.76
543.48	42092.19
543.64	42115.60
543.81	42674.99
543.98	41895.59
544.15	42307.52
544.32	42588.39
544.48	43152.46
544.65	42454.98
544.82	42876.27
544.99	42476.04
545.16	42473.70
545.32	42433.91
545.49	42852.87
545.66	42733.50
545.83	43229.69
546.00	42852.87
546.16	42871.59
546.33	42897.34
546.50	42768.61
546.67	43353.74
546.83	43115.01
547.00	42682.01
547.17	42761.59
547.34	43056.50
547.50	43405.23
547.67	43283.53
547.84	43292.89
548.00	43473.11
548.17	43709.50
548.34	43456.73
548.51	43543.33
548.67	43445.02
548.84	43550.35
549.01	43641.63
549.18	43798.44
549.34	43758.66
549.51	43445.02
549.68	43758.66
549.84	43257.78
550.01	43515.24
550.18	43945.90
550.34	43641.63
550.51	44154.21
550.68	44184.63
550.84	43594.82
551.01	44509.97
551.18	43681.42
551.34	44025.48
551.51	44123.78
551.68	44509.97
551.84	43950.58
552.01	44161.23
552.18	44456.14
552.34	43990.37
552.51	44561.46
552.68	43969.30
552.84	44165.91
553.01	44657.42
553.18	43730.57
553.34	44659.76
553.51	44238.47
553.67	44467.84
553.84	45041.27
554.01	44451.45
554.17	44549.76
554.34	45106.80
554.51	45031.91
554.67	44842.32
554.84	44905.52
555.00	44680.83
555.17	44629.34
555.33	44973.39
555.50	44629.34
555.67	44996.80
555.83	45043.61
556.00	44697.21
556.16	45462.57
556.33	44870.41
556.50	45350.22
556.66	45287.03
556.83	44842.32
556.99	45453.20
557.16	45516.40
557.32	45532.78
557.49	45453.20
557.65	44767.43
557.82	45464.91
557.98	45230.85
558.15	45240.21
558.32	45373.63
558.48	45254.26
558.65	45567.89
558.81	45565.55
558.98	45715.34
559.14	45392.35
559.31	45434.48
559.47	45748.11
559.64	46110.89
559.80	45776.20
559.97	45818.33
560.13	45401.71
560.30	45799.60
560.46	45858.12
560.63	45713.00
560.79	46183.45
560.96	46260.69
561.12	45567.89
561.29	46014.93
561.45	46082.81
561.61	46223.24
561.78	46293.46
561.94	45893.22
562.11	46036.00
562.27	46178.77
562.44	45837.05
562.60	46066.42
562.77	46174.09
562.93	45722.37
563.10	46431.55
563.26	46033.66
563.42	46478.36
563.59	46216.22
563.75	45544.48
563.92	46490.06
564.08	46351.97
564.24	46443.25
564.41	46316.86
564.57	46050.04
564.74	46541.55
564.90	46103.87
565.07	46148.34
565.23	46560.28
565.39	46478.36
565.56	46478.36
565.72	46305.16
565.88	46497.08
566.05	46883.27
566.21	46831.78
566.38	46452.61
566.54	46726.46
566.70	46398.78
566.87	46534.53
567.03	46291.12
567.19	46611.77
567.36	46321.54
567.52	47072.85
567.68	47138.39
567.85	46834.12
568.01	46880.93
568.17	46817.74
568.34	46684.33
568.50	46799.01
568.66	46681.98
568.83	46433.89
568.99	46923.06
569.15	46841.14
569.32	46979.23
569.48	46806.03
569.64	46981.57
569.81	46885.61
569.97	46684.33
570.13	47143.07
570.30	46658.58
570.46	47110.30
570.62	47009.66
570.78	46986.25
570.95	46721.77
571.11	47037.75
571.27	47002.64
571.43	46597.73
571.60	46632.83
571.76	47012.00
571.92	47037.75
572.09	46871.57
572.25	47129.03
572.41	47402.87
572.57	46855.18
572.74	46969.87
572.90	46656.24
573.06	47503.51
573.22	47140.73
573.38	47110.30
573.55	46988.60
573.71	47515.22
573.87	47482.45
574.03	47201.58
574.20	47349.04
574.36	47037.75
574.52	46967.53
574.68	47166.48
574.84	47508.19
575.01	47758.63
575.17	47955.24
575.33	47044.77
575.49	47063.49
575.65	47365.42
575.82	47346.70
575.98	46740.50
576.14	47192.22
576.30	47430.96
576.46	47278.82
576.62	47405.21
576.79	46995.62
576.95	47019.02
577.11	47248.39
577.27	47159.45
577.43	46937.10
577.59	47056.47
577.75	47529.26
577.92	46660.92
578.08	47325.63
578.24	47332.65
578.40	47508.19
578.56	47374.78
578.72	47524.58
578.88	47508.19
579.04	47395.85
579.21	47278.82
579.37	47674.37
579.53	47693.10
579.69	46948.81
579.85	47236.69
580.01	47482.45
580.17	47349.04
580.33	47812.46
580.49	47641.60
580.65	47835.87
580.82	47796.08
580.98	47606.50
581.14	47194.56
581.30	47723.52
581.46	47276.48
581.62	47601.82
581.78	46916.04
581.94	47611.18
582.10	47377.12
582.26	47810.12
582.42	47171.16
582.58	47576.07
582.74	47281.16
582.90	47452.02
583.06	47393.51
583.22	47519.90
583.38	47845.23
583.54	47590.11
583.70	47426.28
583.86	47480.11
584.02	47302.23
584.18	48200.99
584.34	47590.11
584.50	47852.25
584.66	47665.01
584.82	47555.00
584.98	47917.79
585.14	47599.47
585.30	47655.65
585.46	48048.86
585.62	47283.50
585.78	47725.86
585.94	47526.92
586.10	47236.69
586.26	47112.64
586.42	47831.19
586.58	47793.74
586.74	47770.33
586.90	47445.00
587.06	47435.64
587.22	47945.87
587.38	47693.10
587.54	48350.79
587.70	48465.47
587.86	48147.16
588.02	47660.33
588.18	47489.47
588.34	47625.22
588.49	47606.50
588.65	47662.67
588.81	47597.13
588.97	48182.27
589.13	47983.32
589.29	47463.72
589.45	48268.87
589.61	48119.07
589.77	47948.21
589.93	47910.77
