SpectraSuite Data File
++++++++++++++++++++++++++++++++++++
Date: Fri Oct 25 10:43:17 EDT 2013
User: price-jones
Dark Spectrum Present: No
Reference Spectrum Present: No
Number of Sampled Component Spectra: 1
Spectrometers: USB2+H05261
Integration Time (usec): 100000 (USB2+H05261)
Spectra Averaged: 1 (USB2+H05261)
Boxcar Smoothing: 0 (USB2+H05261)
Correct for Electrical Dark: No (USB2+H05261)
Strobe/Lamp Enabled: No (USB2+H05261)
Correct for Detector Non-linearity: No (USB2+H05261)
Correct for Stray Light: No (USB2+H05261)
Number of Pixels in Processed Spectrum: 2048
>>>>>Begin Processed Spectral Data<<<<<
365.73	131.07
365.92	131.07
366.12	131.07
366.32	0.00
366.52	46.81
366.72	79.58
366.91	53.83
367.11	0.00
367.31	16.38
367.51	30.43
367.70	30.43
367.90	2.34
368.10	2.34
368.30	11.70
368.49	0.00
368.69	88.94
368.89	0.00
369.09	53.83
369.28	25.75
369.48	46.81
369.68	102.98
369.87	60.85
370.07	105.32
370.27	93.62
370.47	248.10
370.66	327.68
370.86	407.25
371.06	505.56
371.25	435.34
371.45	491.51
371.65	528.96
371.84	437.68
372.04	458.74
372.24	475.13
372.44	418.96
372.63	496.19
372.83	489.17
373.03	505.56
373.22	510.24
373.42	561.73
373.62	559.39
373.81	510.24
374.01	634.29
374.21	538.32
374.40	500.87
374.60	606.20
374.79	573.43
374.99	620.24
375.19	704.50
375.38	554.71
375.58	582.79
375.78	608.54
375.97	627.26
376.17	636.63
376.37	533.64
376.56	540.66
376.76	585.13
376.95	613.22
377.15	671.73
377.35	573.43
377.54	716.20
377.74	699.82
377.93	603.86
378.13	617.90
378.33	716.20
378.52	545.34
378.72	620.24
378.91	676.41
379.11	601.52
379.31	678.76
379.50	711.52
379.70	653.01
379.89	692.80
380.09	660.03
380.28	664.71
380.48	631.94
380.68	634.29
380.87	622.58
381.07	702.16
381.26	784.08
381.46	683.44
381.65	777.06
381.85	702.16
382.04	660.03
382.24	709.18
382.43	725.57
382.63	725.57
382.83	704.50
383.02	741.95
383.22	819.19
383.41	709.18
383.61	667.05
383.80	774.72
384.00	788.76
384.19	716.20
384.39	837.91
384.58	807.48
384.78	884.72
384.97	751.31
385.17	800.46
385.36	889.40
385.56	755.99
385.75	784.08
385.95	760.67
386.14	880.04
386.34	786.42
386.53	826.21
386.72	805.14
386.92	835.57
387.11	891.74
387.31	915.15
387.50	903.45
387.70	919.83
387.89	844.93
388.09	931.53
388.28	828.55
388.48	856.64
388.67	954.94
388.86	889.40
389.06	961.96
389.25	884.72
389.45	1081.33
389.64	924.51
389.84	926.85
390.03	933.87
390.22	1032.18
390.42	1013.45
390.61	997.07
390.81	943.24
391.00	1025.15
391.19	1043.88
391.39	1083.67
391.58	1027.50
391.78	1104.73
391.97	1039.20
392.16	985.37
392.36	1039.20
392.55	1029.84
392.75	1032.18
392.94	999.41
393.13	1018.13
393.33	978.34
393.52	1053.24
393.71	1048.56
393.91	1074.31
394.10	1109.41
394.29	1156.22
394.49	1181.97
394.68	1172.61
394.88	1167.93
395.07	1224.10
395.26	1224.10
395.46	1196.01
395.65	1224.10
395.84	1144.52
396.04	1261.55
396.23	1242.82
396.42	1146.86
396.62	1181.97
396.81	1160.91
397.00	1224.10
397.19	1291.98
397.39	1266.23
397.58	1376.24
397.77	1343.47
397.97	1394.96
398.16	1465.18
398.35	1397.30
398.55	1455.81
398.74	1441.77
398.93	1561.14
399.12	1544.75
399.32	1486.24
399.51	1493.26
399.70	1497.94
399.90	1589.22
400.09	1565.82
400.28	1582.20
400.47	1619.65
400.67	1619.65
400.86	1598.59
401.05	1542.41
401.24	1659.44
401.44	1795.19
401.63	1682.85
401.82	1694.55
402.01	1811.57
402.21	1732.00
402.40	1790.51
402.59	1767.10
402.78	1785.83
402.97	1717.95
403.17	1778.81
403.36	1771.79
403.55	1813.92
403.74	1832.64
403.93	1849.02
404.13	1909.88
404.32	1870.09
404.51	1799.87
404.70	1884.13
404.89	2026.90
405.09	1954.35
405.28	1926.26
405.47	1874.77
405.66	2008.18
405.85	1966.05
406.05	1928.60
406.24	1956.69
406.43	2024.56
406.62	2069.03
406.81	2052.65
407.00	2036.27
407.20	2090.10
407.39	2066.69
407.58	2092.44
407.77	2104.14
407.96	2134.57
408.15	2167.34
408.34	2153.29
408.54	2242.23
408.73	2155.63
408.92	2331.17
409.11	2317.13
409.30	2253.94
409.49	2188.40
409.68	2120.53
409.87	2298.41
410.07	2387.35
410.26	2389.69
410.45	2385.01
410.64	2429.48
410.83	2473.95
411.02	2558.21
411.21	2459.90
411.40	2576.93
411.59	2579.27
411.78	2612.04
411.98	2530.12
412.17	2686.94
412.36	2691.62
412.55	2647.15
412.74	2759.49
412.93	2738.43
413.12	2693.96
413.31	2888.22
413.50	2829.71
413.69	2787.58
413.88	2888.22
414.07	2855.45
414.26	2825.03
414.45	2965.46
414.64	2820.35
414.83	3026.31
415.02	2991.20
415.22	3063.76
415.41	3070.78
415.60	3098.87
415.79	3145.68
415.98	3215.90
416.17	3246.32
416.36	3166.74
416.55	3180.79
416.74	3197.17
416.93	3178.45
417.12	3243.98
417.31	3269.73
417.50	3286.11
417.69	3527.19
417.88	3356.33
418.07	3316.54
418.26	3538.89
418.45	3592.72
418.64	3604.42
418.83	3566.98
419.02	3630.17
419.21	3740.18
419.39	3616.13
419.58	3485.06
419.77	3590.38
419.96	3655.92
420.15	3751.88
420.34	3744.86
420.53	3822.09
420.72	3669.96
420.91	3833.80
421.10	3889.97
421.29	3796.35
421.48	3824.44
421.67	3810.39
421.86	3693.37
422.05	3782.31
422.24	3700.39
422.43	3733.15
422.61	3918.06
422.80	3761.24
422.99	3796.35
423.18	3894.65
423.37	3836.14
423.56	3873.59
423.75	3981.25
423.94	3831.46
424.13	3578.68
424.32	3911.04
424.50	3866.56
424.69	3946.14
424.88	4100.62
425.07	4053.81
425.26	3822.09
425.45	3847.84
425.64	3948.48
425.83	3770.60
426.01	4016.36
426.20	4037.42
426.39	3971.89
426.58	3990.61
426.77	3999.98
426.96	3997.64
427.15	4042.11
427.33	4063.17
427.52	4007.00
427.71	4018.70
427.90	4091.26
428.09	4210.62
428.28	4039.76
428.46	4187.22
428.65	4149.77
428.84	4290.20
429.03	4177.86
429.22	4021.04
429.40	4205.94
429.59	4189.56
429.78	3887.63
429.97	3801.03
430.16	4049.13
430.34	4067.85
430.53	4189.56
430.72	4187.22
430.91	4145.09
431.10	4255.09
431.28	4376.80
431.47	4587.45
431.66	4695.11
431.85	4489.15
432.03	4521.92
432.22	4725.54
432.41	4568.73
432.60	4641.28
432.79	4657.67
432.97	4737.24
433.16	4730.22
433.35	4615.54
433.54	4617.88
433.72	4571.07
433.91	4664.69
434.10	4568.73
434.28	4711.50
434.47	4748.95
434.66	4926.83
434.85	4823.84
435.03	5032.15
435.22	4889.38
435.41	4947.89
435.59	4870.65
435.78	5046.20
435.97	4978.32
436.16	5132.79
436.34	5287.27
436.53	5174.92
436.72	5151.52
436.90	4990.02
437.09	5008.75
437.28	5093.01
437.46	5228.76
437.65	5121.09
437.84	5078.96
438.02	5259.18
438.21	5153.86
438.40	5156.20
438.58	5490.90
438.77	5352.81
438.96	5327.06
439.14	5420.68
439.33	5556.43
439.52	5731.97
439.70	5675.80
439.89	5657.07
440.08	5570.48
440.26	5675.80
440.45	5738.99
440.63	5664.10
440.82	5954.32
441.01	5762.40
441.19	6092.41
441.38	6073.69
441.57	6108.80
441.75	6155.61
441.94	6279.66
442.12	6321.79
442.31	6445.84
442.50	6200.08
442.68	6298.38
442.87	6164.97
443.05	6326.47
443.24	6387.32
443.43	6314.77
443.61	6375.62
443.80	6457.54
443.98	6221.14
444.17	6282.00
444.35	6588.61
444.54	6569.88
444.73	6504.35
444.91	6403.71
445.10	6462.22
445.28	6417.75
445.47	6277.32
445.65	6359.24
445.84	6317.11
446.02	6368.60
446.21	6462.22
446.39	6443.49
446.58	6396.68
446.77	6586.27
446.95	6445.84
447.14	6796.92
447.32	6644.78
447.51	6572.22
447.69	6443.49
447.88	6679.89
448.06	6736.06
448.25	6740.74
448.43	6780.53
448.62	6782.87
448.80	6712.66
448.99	6696.27
449.17	6902.24
449.36	6829.68
449.54	6958.41
449.73	7075.44
449.91	6998.20
450.10	7145.66
450.28	7225.23
450.46	7293.11
450.65	7222.89
450.83	7225.23
451.02	6979.48
451.20	7103.53
451.39	7073.10
451.57	7143.32
451.76	7117.57
451.94	7166.72
452.13	7192.47
452.31	7279.07
452.49	6876.49
452.68	7255.66
452.86	7150.34
453.05	7356.30
453.23	7440.56
453.42	7276.73
453.60	7440.56
453.78	7370.35
453.97	7316.51
454.15	7379.71
454.34	7232.26
454.52	7393.75
454.70	7393.75
454.89	7393.75
455.07	7494.40
455.26	7566.95
455.44	7698.02
455.62	7768.24
455.81	7667.60
455.99	7719.09
456.17	7784.62
456.36	7744.83
456.54	7815.05
456.73	7847.82
456.91	8234.00
457.09	8046.76
457.28	8180.17
457.46	7934.42
457.64	8126.34
457.83	8072.51
458.01	8016.33
458.19	8168.47
458.38	8093.57
458.56	8215.28
458.74	8086.55
458.93	8379.12
459.11	8252.73
459.29	8170.81
459.48	8231.66
459.66	8301.88
459.84	8294.86
460.03	8592.11
460.21	8421.25
460.39	8409.54
460.57	8594.45
460.76	8432.95
460.94	8627.21
461.12	8533.59
461.31	8659.98
461.49	8695.09
461.67	8594.45
461.85	8865.95
462.04	8627.21
462.22	9301.29
462.40	8812.12
462.59	9022.77
462.77	9130.43
462.95	8837.86
463.13	8828.50
463.32	8840.20
463.50	8868.29
463.68	8765.31
463.86	8926.80
464.05	8809.78
464.23	8854.25
464.41	8997.02
464.59	8957.23
464.78	9060.21
464.96	9071.92
465.14	9001.70
465.32	9312.99
465.50	9350.44
465.69	9195.96
465.87	9558.75
466.05	9004.04
466.23	9109.36
466.41	8952.55
466.60	9188.94
466.78	9179.58
466.96	9355.12
467.14	9392.57
467.32	9261.50
467.51	9572.79
467.69	9114.05
467.87	9287.25
468.05	9528.32
468.23	9565.77
468.41	9369.16
468.60	9497.89
468.78	9561.09
468.96	9448.74
469.14	9717.90
469.32	9654.71
469.50	9331.72
469.69	9731.95
469.87	9771.74
470.05	9834.93
470.23	9802.16
470.41	9692.16
470.59	9825.57
470.77	9923.87
470.95	9788.12
471.14	9982.38
471.32	10050.26
471.50	10195.37
471.68	10174.31
471.86	10167.29
472.04	10417.72
472.22	10569.86
472.40	10115.80
472.58	10026.86
472.77	10368.57
472.95	10424.75
473.13	10672.84
473.31	10338.15
473.49	10352.19
473.67	10604.97
473.85	10621.35
474.03	10839.02
474.21	10768.80
474.39	10974.77
474.57	11014.56
474.75	11054.35
474.93	11030.94
475.12	11028.60
475.30	11035.63
475.48	11143.29
475.66	11173.72
475.84	11143.29
476.02	11316.49
476.20	11328.19
476.38	11536.50
476.56	11744.81
476.74	11698.00
476.92	11812.68
477.10	11955.46
477.28	12198.87
477.46	11950.78
477.64	12123.98
477.82	12266.75
478.00	12627.19
478.18	12320.58
478.36	12538.25
478.54	12669.32
478.72	12564.00
478.90	12631.87
479.08	13090.62
479.26	13181.90
479.44	13249.77
479.62	12966.57
479.80	13305.95
479.98	13415.95
480.16	13600.85
480.34	13378.50
480.52	13682.77
480.70	13582.13
480.88	13635.96
481.06	13898.10
481.24	13914.48
481.41	13867.67
481.59	14314.72
481.77	14174.28
481.95	14207.05
482.13	14448.13
482.31	14455.15
482.49	14516.00
482.67	14611.96
482.85	14885.81
483.03	14995.81
483.21	15169.01
483.39	15295.40
483.57	15318.81
483.74	15262.63
483.92	15351.57
484.10	15220.50
484.28	15672.23
484.46	16004.58
484.64	16067.78
484.82	15896.92
485.00	16107.57
485.18	16114.59
485.35	16180.12
485.53	15974.16
485.71	16121.61
485.89	16376.73
486.07	16130.97
486.25	16624.83
486.43	16837.81
486.61	16826.11
486.78	16954.84
486.96	17575.08
487.14	17694.45
487.32	17673.39
487.50	17703.81
487.68	18111.07
487.85	18291.29
488.03	18200.01
488.21	18576.83
488.39	18288.95
488.57	18628.32
488.75	18719.60
488.92	18883.44
489.10	19236.86
489.28	19463.90
489.46	19655.82
489.64	19398.36
489.81	20126.27
489.99	20088.82
490.17	20159.03
490.35	20322.87
490.53	20278.40
490.70	20437.56
490.88	20460.96
491.06	20524.16
491.24	20603.74
491.41	20652.89
491.59	20491.39
491.77	20545.22
491.95	20943.11
492.13	20980.56
492.30	21600.80
492.48	21364.41
492.66	21654.64
492.84	21809.11
493.01	22113.38
493.19	22113.38
493.37	22080.61
493.54	22097.00
493.72	22249.13
493.90	22520.63
494.08	22733.62
494.25	22904.48
494.43	22909.16
494.61	23388.97
494.79	23407.70
494.96	23131.51
495.14	23339.82
495.32	23765.80
495.49	23630.05
495.67	23695.58
495.85	23779.84
496.02	23934.32
496.20	23990.49
496.38	24269.01
496.55	24638.82
496.73	24765.21
496.91	24589.67
497.09	24697.33
497.26	24971.18
497.44	24851.81
497.62	25003.94
497.79	25088.20
497.97	24989.90
498.14	25055.43
498.32	25240.34
498.50	25294.17
498.67	25869.94
498.85	25996.33
499.03	25671.00
499.20	25848.88
499.38	25977.61
499.56	26221.02
499.73	26391.88
499.91	26188.25
500.08	26609.55
500.26	26047.82
500.44	26127.40
500.61	26455.08
500.79	26349.75
500.97	26813.18
501.14	26930.20
501.32	26593.17
501.49	26899.78
501.67	26904.46
501.84	27140.85
502.02	27030.85
502.20	27611.30
502.37	27475.55
502.55	27845.35
502.72	27515.34
502.90	27831.31
503.07	27412.35
503.25	27824.29
503.43	27510.66
503.60	27812.59
503.78	27852.38
503.95	28011.53
504.13	28224.52
504.30	28505.38
504.48	28950.09
504.65	28601.35
504.83	28577.94
505.01	29064.77
505.18	29062.43
505.36	29205.20
505.53	29268.40
505.71	29551.60
505.88	29247.33
506.06	29181.80
506.23	29661.61
506.41	29556.28
506.58	29677.99
506.76	29933.11
506.93	29869.92
507.11	29954.18
507.28	29830.13
507.46	29813.74
507.63	29703.74
507.81	30384.83
507.98	30307.60
508.16	30539.31
508.33	30335.68
508.50	30651.66
508.68	30787.41
508.85	30932.52
509.03	30845.92
509.20	30972.31
509.38	31295.30
509.55	30923.16
509.73	31316.37
509.90	31232.11
510.08	31477.86
510.25	31213.38
510.42	31683.83
510.60	31704.90
510.77	31510.63
510.95	31833.63
511.12	31622.98
511.30	32198.75
511.47	31978.74
511.64	31941.29
511.82	32470.25
511.99	31751.71
512.17	32271.31
512.34	31840.65
512.51	32416.42
512.69	32147.26
512.86	32477.27
513.04	32549.83
513.21	32400.04
513.38	32575.58
513.56	32395.35
513.73	32510.04
513.90	32950.06
514.08	32699.62
514.25	33008.58
514.43	32959.42
514.60	32877.51
514.77	33223.90
514.95	33324.55
515.12	33366.68
515.29	33383.06
515.47	33790.31
515.64	33993.94
515.81	33549.24
515.99	33881.60
516.16	33577.33
516.33	33525.83
516.51	33284.76
516.68	33055.39
516.85	33081.13
517.03	33008.58
517.20	33729.46
517.37	34146.08
517.54	34199.91
517.72	33816.06
517.89	33507.11
518.06	33673.29
518.24	33839.47
518.41	34075.86
518.58	34288.85
518.75	33928.41
518.93	34581.42
519.10	34398.85
519.27	34728.87
519.45	34885.68
519.62	35028.46
519.79	34965.26
519.96	35086.97
520.14	35431.03
520.31	35028.46
520.48	34991.01
520.65	35007.39
520.83	35566.78
521.00	35716.58
521.17	35274.21
521.34	35967.01
521.52	35985.74
521.69	35618.27
521.86	35995.10
522.03	35742.32
522.20	35901.48
522.38	36182.34
522.55	36268.94
522.72	35847.64
522.89	36027.87
523.07	36116.81
523.24	36748.75
523.41	36524.06
523.58	36435.12
523.75	37209.84
523.92	37156.00
524.10	36978.12
524.27	36767.48
524.44	37294.10
524.61	36950.04
524.78	37195.79
524.96	36973.44
525.13	37474.32
525.30	37282.39
525.47	37408.78
525.64	37385.38
525.81	37322.18
525.98	37078.77
526.16	37567.94
526.33	37064.72
526.50	37570.28
526.67	36802.58
526.84	37055.36
527.01	36896.20
527.18	37495.38
527.36	38127.33
527.53	37792.63
527.70	38607.14
527.87	38017.32
528.04	37708.37
528.21	38316.91
528.38	38218.61
528.55	38520.54
528.72	38527.56
528.89	38590.75
529.07	38539.26
529.24	38483.09
529.41	38553.30
529.58	38204.56
529.75	38902.04
529.92	38855.23
530.09	39112.69
530.26	38487.77
530.43	39105.67
530.60	38866.94
530.77	38738.21
530.94	39026.09
531.11	38597.77
531.28	39126.74
531.46	39625.27
531.63	39646.33
531.80	39316.32
531.97	38670.33
532.14	39180.57
532.31	39234.40
532.48	39498.88
532.65	39482.50
532.82	39318.66
532.99	39667.40
533.16	39269.51
533.33	39470.79
533.50	39894.43
533.67	39522.29
533.84	39646.33
534.01	39995.07
534.18	39515.26
534.35	40203.38
534.52	39819.53
534.69	40006.78
534.86	40252.53
535.03	40114.44
535.20	40744.05
535.37	40659.79
535.54	40802.56
535.71	40198.70
535.88	40589.57
536.05	40451.48
536.22	40587.23
536.38	40430.41
536.55	39814.85
536.72	40437.44
536.89	40465.52
537.06	40437.44
537.23	40687.87
537.40	40566.16
537.57	40746.39
537.74	40690.21
537.91	41186.41
538.08	41280.03
538.25	40882.14
538.42	40765.11
538.59	41031.93
538.75	40718.30
538.92	41153.64
539.09	41539.83
539.26	41258.96
539.43	41003.85
539.60	41125.55
539.77	40638.72
539.94	40996.82
540.11	41195.77
540.28	41273.01
540.44	41371.31
540.61	41240.24
540.78	41296.41
540.95	40896.18
541.12	41036.61
541.29	41769.20
541.46	41471.95
541.62	41801.97
541.79	41897.93
541.96	41603.02
542.13	41556.21
542.30	41642.81
542.47	41776.22
542.63	41467.27
542.80	41993.89
542.97	42146.03
543.14	42124.96
543.31	42216.24
543.48	42363.70
543.64	42604.77
543.81	42656.26
543.98	42447.96
544.15	42190.50
544.32	42279.44
544.48	42897.34
544.65	42618.81
544.82	42384.76
544.99	42010.28
545.16	42185.82
545.32	42302.84
545.49	43208.63
545.66	43201.61
545.83	43145.44
546.00	43014.37
546.16	42887.98
546.33	42703.07
546.50	42801.38
546.67	42770.95
546.83	42885.64
547.00	42719.46
547.17	43157.14
547.34	42927.77
547.50	43210.97
547.67	43323.32
547.84	42787.33
548.00	43562.05
548.17	43505.88
548.34	43430.98
548.51	43798.44
548.67	43536.30
548.84	43746.95
549.01	43049.47
549.18	43365.45
549.34	43337.36
549.51	43599.50
549.68	43377.15
549.84	43112.67
550.01	43856.96
550.18	42960.53
550.34	43328.00
550.51	43466.09
550.68	43770.36
550.84	43241.40
551.01	43716.53
551.18	43622.90
551.34	43447.36
551.51	44072.29
551.68	43636.95
551.84	43730.57
552.01	43814.83
552.18	43522.26
552.34	43459.07
552.51	43821.85
552.68	44051.22
552.84	44091.01
553.01	44423.37
553.18	43964.62
553.34	44247.83
553.51	44069.95
553.67	44765.09
553.84	44371.88
554.01	44435.07
554.17	44296.98
554.34	44388.26
554.51	44161.23
554.67	44474.86
554.84	44081.65
555.00	44296.98
555.17	44582.52
555.33	44638.70
555.50	44442.09
555.67	44170.59
555.83	44638.70
556.00	44589.55
556.16	44786.15
556.33	44608.27
556.50	44437.41
556.66	44924.24
556.83	44226.76
556.99	44425.71
557.16	44978.07
557.32	44800.19
557.49	44711.25
557.65	44577.84
557.82	44566.14
557.98	44311.02
558.15	45027.23
558.32	44959.35
558.48	44690.19
558.65	44933.60
558.81	45155.96
558.98	44020.80
559.14	44968.71
559.31	44261.87
559.47	44744.02
559.64	45230.85
559.80	45081.06
559.97	44772.11
560.13	45041.27
560.30	44898.50
560.46	45141.91
560.63	45282.34
560.79	45329.16
560.96	45310.43
561.12	45235.53
561.29	44708.91
561.45	44678.49
561.61	45411.07
561.78	44814.24
561.94	44711.25
562.11	44776.79
562.27	44844.66
562.44	45457.88
562.60	45324.47
562.77	45221.49
562.93	45462.57
563.10	45518.74
563.26	44762.75
563.42	44992.12
563.59	45172.34
563.75	45411.07
563.92	45577.25
564.08	45284.68
564.24	45151.27
564.41	45560.87
564.57	45104.46
564.74	45158.30
564.90	45544.48
565.07	45254.26
565.23	45265.96
565.39	45432.14
565.56	45294.05
565.72	45099.78
565.88	45200.43
566.05	44968.71
566.21	45656.83
566.38	45160.64
566.54	45448.52
566.70	45525.76
566.87	45965.78
567.03	45530.44
567.19	46234.94
567.36	45368.94
567.52	45429.80
567.68	45432.14
567.85	45202.77
568.01	45193.40
568.17	45474.27
568.34	45507.04
568.50	45865.14
568.66	45254.26
568.83	45823.01
568.99	45083.40
569.15	45659.17
569.32	45448.52
569.48	45401.71
569.64	45830.03
569.81	45476.61
569.97	45469.59
570.13	45647.47
570.30	45394.69
570.46	45312.77
570.62	45436.82
570.78	45265.96
570.95	45013.18
571.11	45399.37
571.27	45408.73
571.43	45523.42
571.60	45846.41
571.76	45825.35
571.92	45677.90
572.09	45481.29
572.25	45612.36
572.41	45724.71
572.57	45998.55
572.74	46199.83
572.90	45710.66
573.06	45649.81
573.22	45696.62
573.38	45780.88
573.55	45177.02
573.71	45799.60
573.87	45687.26
574.03	45551.51
574.20	45757.47
574.36	45654.49
574.52	45530.44
574.68	45546.82
574.84	45792.58
575.01	45577.25
575.17	45621.72
575.33	45429.80
575.49	45556.19
575.65	46089.83
575.82	45755.13
575.98	45579.59
576.14	45895.56
576.30	45750.45
576.46	45563.21
576.62	45635.77
576.79	45612.36
576.95	45090.42
577.11	45263.62
577.27	45570.23
577.43	45373.63
577.59	45425.12
577.75	45808.96
577.92	45743.43
578.08	45237.87
578.24	45687.26
578.40	45668.53
578.56	45925.99
578.72	45893.22
578.88	46197.49
579.04	45713.00
579.21	45530.44
579.37	45640.45
579.53	45673.21
579.69	45715.34
579.85	45427.46
580.01	45696.62
580.17	45436.82
580.33	45631.08
580.49	45904.93
580.65	45705.98
580.82	45691.94
580.98	45935.35
581.14	45558.53
581.30	46253.67
581.46	45979.82
581.62	45720.02
581.78	45668.53
581.94	46178.77
582.10	46073.45
582.26	45605.34
582.42	45701.30
582.58	45638.11
582.74	45762.15
582.90	46089.83
583.06	45909.61
583.22	45755.13
583.38	45886.20
583.54	46333.24
583.70	46017.27
583.86	45989.19
584.02	45713.00
584.18	45745.77
584.34	45528.10
584.50	45886.20
584.66	45914.29
584.82	45518.74
584.98	45984.51
585.14	45687.26
585.30	45549.17
585.46	45457.88
585.62	45434.48
585.78	45998.55
585.94	46005.57
586.10	45591.30
586.26	45610.02
586.42	45841.73
586.58	45911.95
586.74	45961.10
586.90	45750.45
587.06	45673.21
587.22	46012.59
587.38	45673.21
587.54	45888.54
587.70	46012.59
587.86	46000.89
588.02	45989.19
588.18	45684.92
588.34	45406.39
588.49	45713.00
588.65	45219.15
588.81	45640.45
588.97	45001.48
589.13	45319.79
589.29	45401.71
589.45	45537.46
589.61	45591.30
589.77	46146.00
589.93	45603.00
590.08	45675.55
