SpectraSuite Data File
++++++++++++++++++++++++++++++++++++
Date: Fri Oct 25 11:25:37 EDT 2013
User: price-jones
Dark Spectrum Present: No
Reference Spectrum Present: No
Number of Sampled Component Spectra: 1
Spectrometers: USB2+H05261
Integration Time (usec): 100000 (USB2+H05261)
Spectra Averaged: 1 (USB2+H05261)
Boxcar Smoothing: 0 (USB2+H05261)
Correct for Electrical Dark: No (USB2+H05261)
Strobe/Lamp Enabled: No (USB2+H05261)
Correct for Detector Non-linearity: No (USB2+H05261)
Correct for Stray Light: No (USB2+H05261)
Number of Pixels in Processed Spectrum: 2048
>>>>>Begin Processed Spectral Data<<<<<
365.73	227.03
365.92	227.03
366.12	227.03
366.32	168.52
366.52	63.19
366.72	128.73
366.91	131.07
367.11	161.50
367.31	117.03
367.51	138.09
367.70	170.86
367.90	194.26
368.10	128.73
368.30	182.56
368.49	152.13
368.69	81.92
368.89	177.88
369.09	131.07
369.28	196.60
369.48	142.77
369.68	152.13
369.87	140.43
370.07	149.79
370.27	259.80
370.47	353.42
370.66	543.00
370.86	660.03
371.06	662.37
371.25	692.80
371.45	629.60
371.65	706.84
371.84	688.12
372.04	662.37
372.24	676.41
372.44	734.93
372.63	727.91
372.83	812.17
373.03	760.67
373.22	760.67
373.42	763.01
373.62	753.65
373.81	856.64
374.01	828.55
374.21	821.53
374.40	755.99
374.60	842.59
374.79	863.66
374.99	809.83
375.19	800.46
375.38	819.19
375.58	884.72
375.78	833.23
375.97	835.57
376.17	931.53
376.37	784.08
376.56	840.25
376.76	830.89
376.95	896.43
377.15	924.51
377.35	882.38
377.54	990.05
377.74	856.64
377.93	957.28
378.13	837.91
378.33	950.26
378.52	950.26
378.72	912.81
378.91	898.77
379.11	985.37
379.31	1001.75
379.50	882.38
379.70	985.37
379.89	957.28
380.09	987.71
380.28	997.07
380.48	926.85
380.68	943.24
380.87	990.05
381.07	1022.81
381.26	1053.24
381.46	966.64
381.65	1043.88
381.85	1074.31
382.04	1001.75
382.24	1043.88
382.43	1053.24
382.63	1078.99
382.83	1029.84
383.02	1086.01
383.22	1034.52
383.41	1104.73
383.61	1137.50
383.80	1053.24
384.00	1163.25
384.19	1100.05
384.39	1205.38
384.58	1135.16
384.78	1228.78
384.97	1170.27
385.17	1107.07
385.36	1156.22
385.56	1149.20
385.75	1172.61
385.95	1193.67
386.14	1163.25
386.34	1219.42
386.53	1240.48
386.72	1174.95
386.92	1188.99
387.11	1224.10
387.31	1221.76
387.50	1217.08
387.70	1301.34
387.89	1275.59
388.09	1174.95
388.28	1322.40
388.48	1238.14
388.67	1203.04
388.86	1345.81
389.06	1235.80
389.25	1306.02
389.45	1343.47
389.64	1322.40
389.84	1362.19
390.03	1409.00
390.22	1341.13
390.42	1392.62
390.61	1416.02
390.81	1392.62
391.00	1472.20
391.19	1380.92
391.39	1493.26
391.58	1355.17
391.78	1441.77
391.97	1490.92
392.16	1418.36
392.36	1530.71
392.55	1483.90
392.75	1490.92
392.94	1582.20
393.13	1537.73
393.33	1528.37
393.52	1547.09
393.71	1488.58
393.91	1528.37
394.10	1612.63
394.29	1577.52
394.49	1540.07
394.68	1593.90
394.88	1577.52
395.07	1664.12
395.26	1678.16
395.46	1528.37
395.65	1703.91
395.84	1710.93
396.04	1764.76
396.23	1776.47
396.42	1764.76
396.62	1804.55
396.81	1788.17
397.00	1685.19
397.19	1806.89
397.39	1706.25
397.58	1884.13
397.77	1755.40
397.97	1724.97
398.16	1706.25
398.35	1827.96
398.55	1966.05
398.74	1895.83
398.93	1933.28
399.12	1909.88
399.32	1909.88
399.51	1954.35
399.70	1989.46
399.90	1980.09
400.09	2097.12
400.28	2155.63
400.47	2059.67
400.67	1987.11
400.86	2066.69
401.05	2040.95
401.24	2115.84
401.44	2153.29
401.63	2186.06
401.82	2057.33
402.01	2125.21
402.21	2115.84
402.40	2195.42
402.59	2167.34
402.78	2193.08
402.97	2204.78
403.17	2204.78
403.36	2136.91
403.55	2361.60
403.74	2303.09
403.93	2333.51
404.13	2328.83
404.32	2300.75
404.51	2392.03
404.70	2450.54
404.89	2272.66
405.09	2457.56
405.28	2441.18
405.47	2436.50
405.66	2455.22
405.85	2555.86
406.05	2551.18
406.24	2626.08
406.43	2588.63
406.62	2642.46
406.81	2626.08
407.00	2586.29
407.20	2530.12
407.39	2602.68
407.58	2647.15
407.77	2647.15
407.96	2726.72
408.15	2820.35
408.34	2771.19
408.54	2820.35
408.73	2848.43
408.92	2878.86
409.11	2841.41
409.30	2836.73
409.49	2780.56
409.68	2995.89
409.87	2906.95
410.07	2953.76
410.26	2848.43
410.45	3094.19
410.64	3075.46
410.83	3101.21
411.02	3047.38
411.21	3098.87
411.40	3026.31
411.59	3251.00
411.78	3286.11
411.98	3159.72
412.17	3241.64
412.36	3248.66
412.55	3351.65
412.74	3393.78
412.93	3489.74
413.12	3300.16
413.31	3501.44
413.50	3494.42
413.69	3506.12
413.88	3606.77
414.07	3566.98
414.26	3571.66
414.45	3714.43
414.64	3791.67
414.83	3681.66
415.02	3854.86
415.22	3833.80
415.41	3894.65
415.60	3808.05
415.79	3974.23
415.98	3913.38
416.17	3981.25
416.36	3981.25
416.55	4084.23
416.74	4042.11
416.93	4095.94
417.12	4119.34
417.31	4154.45
417.50	4145.09
417.69	4294.88
417.88	4362.76
418.07	4208.28
418.26	4210.62
418.45	4383.82
418.64	4463.40
418.83	4425.95
419.02	4250.41
419.21	4634.26
419.39	4390.84
419.58	4437.66
419.77	4447.02
419.96	4470.42
420.15	4498.51
420.34	4561.70
420.53	4634.26
420.72	4704.48
420.91	4788.74
421.10	4615.54
421.29	4695.11
421.48	4568.73
421.67	4774.69
421.86	4737.24
422.05	4655.33
422.24	4664.69
422.43	4692.77
422.61	4947.89
422.80	4870.65
422.99	4910.44
423.18	4905.76
423.37	4968.96
423.56	4835.55
423.75	5008.75
423.94	4868.31
424.13	4547.66
424.32	4788.74
424.50	5046.20
424.69	5048.54
424.88	4868.31
425.07	4833.21
425.26	4959.60
425.45	4844.91
425.64	4903.42
425.83	4997.04
426.01	5071.94
426.20	5064.92
426.39	5172.58
426.58	5090.67
426.77	4882.36
426.96	5118.75
427.15	5090.67
427.33	5217.05
427.52	5240.46
427.71	5181.95
427.90	5282.59
428.09	5373.87
428.28	5411.32
428.46	5355.15
428.65	5270.89
428.84	5469.83
429.03	5427.70
429.22	5439.40
429.40	5544.73
429.59	5495.58
429.78	5242.80
429.97	5097.69
430.16	5423.02
430.34	5563.45
430.53	5507.28
430.72	5682.82
430.91	5696.86
431.10	5617.29
431.28	5846.66
431.47	5809.21
431.66	5771.76
431.85	5724.95
432.03	5996.45
432.22	6001.13
432.41	5881.77
432.60	5888.79
432.79	5820.91
432.97	5898.15
433.16	5928.58
433.35	5970.71
433.54	6019.86
433.72	6050.28
433.91	5987.09
434.10	6001.13
434.28	6092.41
434.47	6368.60
434.66	6361.58
434.85	6183.70
435.03	6186.04
435.22	6221.14
435.41	6408.39
435.59	6335.83
435.78	6282.00
435.97	6445.84
436.16	6511.37
436.34	6441.15
436.53	6462.22
436.72	6717.34
436.90	6413.07
437.09	6464.56
437.28	6614.35
437.46	6492.65
437.65	6644.78
437.84	6853.09
438.02	6661.16
438.21	6710.32
438.40	6595.63
438.58	7000.54
438.77	7047.35
438.96	6892.88
439.14	7115.23
439.33	7208.85
439.52	7293.11
439.70	7126.93
439.89	7405.46
440.08	7309.49
440.26	7323.54
440.45	7417.16
440.63	7478.01
440.82	7536.52
441.01	7646.53
441.19	7559.93
441.38	7679.30
441.57	7747.17
441.75	7782.28
441.94	7953.14
442.12	7878.24
442.31	7854.84
442.50	8175.49
442.68	8079.53
442.87	7801.01
443.05	8088.89
443.24	8053.78
443.43	8257.41
443.61	8049.10
443.80	8439.97
443.98	7887.61
444.17	7899.31
444.35	8135.70
444.54	8456.36
444.73	8273.79
444.91	8126.34
445.10	8416.57
445.28	8124.00
445.47	8313.58
445.65	8271.45
445.84	8472.74
446.02	8210.60
446.21	8519.55
446.39	8269.11
446.58	8540.61
446.77	8231.66
446.95	8311.24
447.14	8528.91
447.32	8465.72
447.51	8341.67
447.69	8449.33
447.88	8348.69
448.06	8475.08
448.25	8248.05
448.43	8699.77
448.62	8695.09
448.80	8442.31
448.99	8606.15
449.17	8826.16
449.36	8554.66
449.54	8748.92
449.73	8865.95
449.91	8755.94
450.10	9008.72
450.28	9015.74
450.46	9057.87
450.65	8933.82
450.83	9018.08
451.02	9186.60
451.20	9210.01
451.39	9090.64
451.57	8999.36
451.76	8905.74
451.94	9364.48
452.13	9387.89
452.31	9273.20
452.49	9198.31
452.68	9130.43
452.86	9390.23
453.05	9514.28
453.23	9521.30
453.42	9404.27
453.60	9413.63
453.78	9579.81
453.97	9446.40
454.15	9439.38
454.34	9579.81
454.52	9657.05
454.70	9509.60
454.89	9715.56
455.07	9638.33
455.26	9678.12
455.44	9902.81
455.62	9703.86
455.81	9877.06
455.99	10015.15
456.17	9905.15
456.36	9966.00
456.54	10024.51
456.73	10307.72
456.91	10429.43
457.09	10523.05
457.28	10672.84
457.46	10164.95
457.64	10586.24
457.83	10431.77
458.01	10099.41
458.19	10560.50
458.38	10590.92
458.56	10616.67
458.74	10560.50
458.93	10932.64
459.11	10799.23
459.29	10780.51
459.48	10780.51
459.66	10829.66
459.84	10637.73
460.03	11183.08
460.21	11077.76
460.39	10843.70
460.57	11087.12
460.76	11152.65
460.94	11066.05
461.12	10829.66
461.31	11084.78
461.49	11014.56
461.67	10974.77
461.85	11623.10
462.04	11187.76
462.22	11800.98
462.40	11566.93
462.59	11517.78
462.77	11274.36
462.95	11569.27
463.13	11543.52
463.32	11410.11
463.50	11646.51
463.68	11604.38
463.86	11761.19
464.05	11609.06
464.23	11623.10
464.41	11693.32
464.59	11674.59
464.78	12168.45
464.96	11974.18
465.14	11747.15
465.32	12182.49
465.50	12116.95
465.69	12116.95
465.87	12248.02
466.05	12044.40
466.23	12077.16
466.41	12266.75
466.60	12379.09
466.78	12025.67
466.96	12046.74
467.14	12037.38
467.32	12320.58
467.51	12432.93
467.69	12175.47
467.87	12372.07
468.05	12674.00
468.23	12510.16
468.41	12400.16
468.60	12353.35
468.78	12634.21
468.96	12746.56
469.14	12636.55
469.32	12835.50
469.50	12362.71
469.69	13345.73
469.87	13041.46
470.05	13184.24
470.23	13078.91
470.41	13088.28
470.59	13191.26
470.77	13095.30
470.95	13078.91
471.14	13202.96
471.32	13125.72
471.50	13439.36
471.68	13516.59
471.86	13593.83
472.04	13762.35
472.22	14017.47
472.40	13907.46
472.58	13834.91
472.77	14019.81
472.95	13905.12
473.13	14569.83
473.31	14134.50
473.49	14181.31
473.67	13865.33
473.85	14291.31
474.03	14408.34
474.21	14417.70
474.39	14649.41
474.57	14892.83
474.75	14904.53
474.93	14904.53
475.12	14700.90
475.30	15117.52
475.48	14979.43
475.66	15183.06
475.84	15321.15
476.02	15192.42
476.20	15384.34
476.38	15653.50
476.56	15922.66
476.74	15892.24
476.92	15648.82
477.10	15676.91
477.28	16072.46
477.46	16224.59
477.64	16379.07
477.82	16475.03
478.00	16709.08
478.18	16622.48
478.36	16957.18
478.54	17088.25
478.72	17193.58
478.90	17179.53
479.08	17277.83
479.26	17687.43
479.44	17675.73
479.62	17558.70
479.80	17708.49
479.98	18052.55
480.16	18567.47
480.34	18286.61
480.52	18410.65
480.70	18513.64
480.88	18164.90
481.06	18743.01
481.24	18735.99
481.41	18906.85
481.59	19330.48
481.77	19459.21
481.95	19506.02
482.13	19740.08
482.31	19859.45
482.49	19913.28
482.67	20121.59
482.85	20217.55
483.03	20547.56
483.21	20603.74
483.39	20849.49
483.57	20573.31
483.74	21310.58
483.92	21380.79
484.10	21266.11
484.28	21610.17
484.46	21745.92
484.64	22412.97
484.82	21699.11
485.00	22632.98
485.18	22518.29
485.35	22778.09
485.53	22281.90
485.71	22904.48
485.89	23587.92
486.07	23108.11
486.25	23250.88
486.43	23543.45
486.61	24030.28
486.78	24023.26
486.96	24205.82
487.14	24367.32
487.32	24453.92
487.50	24465.62
487.68	24835.42
487.85	25263.74
488.03	25298.85
488.21	25785.68
488.39	25490.77
488.57	26068.89
488.75	26223.36
488.92	26494.86
489.10	26508.91
489.28	26958.29
489.46	26810.84
489.64	27035.53
489.81	27419.38
489.99	27342.14
490.17	27697.90
490.35	27573.85
490.53	28002.17
490.70	28552.20
490.88	28168.35
491.06	28266.65
491.24	28748.80
491.41	28875.19
491.59	29324.57
491.77	28910.30
491.95	29659.27
492.13	29680.33
492.30	29883.96
492.48	29888.64
492.66	30033.75
492.84	30160.14
493.01	30375.47
493.19	30398.88
493.37	30756.98
493.54	31075.29
493.72	31335.09
493.90	31250.83
494.08	31470.84
494.25	31679.15
494.43	32149.60
494.61	32224.50
494.79	32411.74
494.96	32304.07
495.14	32484.30
495.32	33179.43
495.49	33057.73
495.67	33359.66
495.85	33385.40
496.02	33958.83
496.20	34005.64
496.38	33874.57
496.55	34005.64
496.73	34635.25
496.91	34298.21
497.09	34389.49
497.26	34621.20
497.44	34595.46
497.62	34728.87
497.79	35653.38
497.97	35189.95
498.14	35789.13
498.32	36098.08
498.50	36105.10
498.67	36486.61
498.85	36278.30
499.03	36737.05
499.20	36374.27
499.38	36638.75
499.56	36868.12
499.73	37003.87
499.91	36943.02
500.08	37376.01
500.26	37055.36
500.44	37165.37
500.61	38019.66
500.79	37680.28
500.97	37982.21
501.14	38639.90
501.32	38333.29
501.49	38092.22
501.67	38520.54
501.84	38986.30
502.02	38508.83
502.20	38747.57
502.37	39791.45
502.55	39019.07
502.72	39115.03
502.90	39335.04
503.07	39232.06
503.25	39754.00
503.43	39583.14
503.60	39711.87
503.78	40208.06
503.95	39962.31
504.13	40217.43
504.30	40498.29
504.48	40339.13
504.65	40395.31
504.83	40823.62
505.01	40924.27
505.18	40821.28
505.36	41708.35
505.53	41160.66
505.71	41415.78
505.88	41460.25
506.06	41528.13
506.23	41804.31
506.41	41556.21
506.58	42071.13
506.76	42237.31
506.93	42000.91
507.11	41907.29
507.28	42611.79
507.46	42710.10
507.63	42782.65
507.81	42848.19
507.98	42691.37
508.16	42590.73
508.33	43189.91
508.50	43281.19
508.68	43737.59
508.85	43599.50
509.03	43409.92
509.20	44116.76
509.38	44091.01
509.55	44238.47
509.73	44030.16
509.90	44119.10
510.08	44404.64
510.25	44336.77
510.42	44825.94
510.60	44921.90
510.77	44987.44
510.95	45336.18
511.12	44893.82
511.30	45195.74
511.47	45446.18
511.64	45792.58
511.82	45331.50
511.99	45408.73
512.17	46321.54
512.34	45940.04
512.51	46403.46
512.69	46469.00
512.86	46286.43
513.04	46412.82
513.21	46342.61
513.38	46417.50
513.56	46670.28
513.73	46630.49
513.90	46796.67
514.08	46976.89
514.25	47117.32
514.43	47388.83
514.60	47482.45
514.77	47234.35
514.95	47051.79
515.12	47391.17
515.29	47632.24
515.47	47915.45
515.64	47482.45
515.81	47627.56
515.99	48301.64
516.16	48376.53
516.33	47931.83
516.51	48748.68
516.68	48062.90
516.85	48121.41
517.03	48711.23
517.20	48844.64
517.37	48285.25
517.54	48821.23
517.72	48989.75
517.89	49167.63
518.06	49378.28
518.24	48956.99
518.41	49162.95
518.58	49193.38
518.75	49233.17
518.93	49450.84
519.10	49322.11
519.27	49544.46
519.45	49350.20
519.62	49982.14
519.79	49961.08
519.96	49975.12
520.14	50014.91
520.31	50148.32
520.48	50185.77
520.65	50103.85
520.83	50412.80
521.00	50607.06
521.17	50710.05
521.34	50464.29
521.52	50677.28
521.69	50265.34
521.86	50806.01
522.03	51194.54
522.20	51554.98
522.38	50986.23
522.55	51147.73
522.72	51138.36
522.89	51068.15
523.07	51550.30
523.24	51533.92
523.41	51320.93
523.58	51086.87
523.75	51784.35
523.92	51554.98
524.10	51728.18
524.27	51943.51
524.44	51838.18
524.61	52009.04
524.78	52072.24
524.96	52126.07
525.13	52107.35
525.30	52432.68
525.47	52289.91
525.64	52303.95
525.81	52460.77
525.98	52601.20
526.16	52294.59
526.33	52303.95
526.50	53200.38
526.67	52397.57
526.84	52893.77
527.01	52699.50
527.18	52844.62
527.36	52928.87
527.53	52781.42
527.70	53165.27
527.87	53223.78
528.04	53013.13
528.21	53345.49
528.38	52748.65
528.55	53291.66
528.72	53076.33
528.89	53277.61
529.07	53336.13
529.24	53254.21
529.41	53654.44
529.58	53308.04
529.75	53621.67
529.92	53436.77
530.09	53722.32
530.26	53956.37
530.43	53822.96
530.60	53825.30
530.77	53532.73
530.94	53832.32
531.11	54019.56
531.28	53883.81
531.46	54045.31
531.63	54169.36
531.80	54473.63
531.97	54426.82
532.14	54195.10
532.31	54096.80
532.48	54335.54
532.65	54700.66
532.82	54347.24
532.99	54642.15
533.16	54342.56
533.33	54707.68
533.50	54787.26
533.67	54829.39
533.84	54555.55
534.01	54494.69
534.18	54571.93
534.35	55037.70
534.52	54595.34
534.69	55093.87
534.86	55288.13
535.03	54628.10
535.20	55140.68
535.37	55033.02
535.54	55241.32
535.71	55196.85
535.88	55323.24
536.05	55194.51
536.22	55519.85
536.38	55552.62
536.55	55379.42
536.72	55533.89
536.89	55367.71
537.06	55704.75
537.23	55749.22
537.40	55702.41
537.57	55571.34
537.74	55833.48
537.91	55856.88
538.08	55899.01
538.25	55533.89
538.42	55714.11
538.59	55943.48
538.75	55803.05
538.92	55849.86
539.09	56177.54
539.26	55817.10
539.43	55842.84
539.60	56535.64
539.77	56259.46
539.94	56287.54
540.11	56193.92
540.28	56266.48
540.44	56275.84
540.61	56268.82
540.78	56266.48
540.95	56427.98
541.12	56397.55
541.29	56179.88
541.46	56355.42
541.62	56498.19
541.79	56683.09
541.96	56470.11
542.13	56584.79
542.30	56741.61
542.47	56753.31
542.63	56680.75
542.80	56868.00
542.97	57080.98
543.14	57228.44
543.31	56898.42
543.48	57158.22
543.64	57373.55
543.81	57427.38
543.98	57413.34
544.15	57336.10
544.32	57322.06
544.48	57446.11
544.65	57088.01
544.82	57202.69
544.99	57160.56
545.16	57623.99
545.32	57495.26
545.49	57649.74
545.66	57303.34
545.83	57673.14
546.00	57663.78
546.16	57551.43
546.33	57375.89
546.50	57296.31
546.67	57537.39
546.83	57378.23
547.00	57577.18
547.17	57539.73
547.34	57733.99
547.50	57909.53
547.67	57986.77
547.84	57832.30
548.00	58005.50
548.17	58164.65
548.34	58031.24
548.51	58089.76
548.67	58026.56
548.84	58089.76
549.01	57944.64
549.18	58223.17
549.34	58031.24
549.51	58225.51
549.68	58169.33
549.84	58258.27
550.01	58398.71
550.18	58394.03
550.34	58305.09
550.51	58424.45
550.68	58307.43
550.84	58143.59
551.01	58511.05
551.18	58515.73
551.34	58672.55
551.51	58426.79
551.68	58562.54
551.84	58520.41
552.01	58265.30
552.18	58485.31
552.34	58379.98
552.51	58625.74
552.68	58585.95
552.84	58576.59
553.01	58899.58
553.18	58529.78
553.34	58752.13
553.51	58775.53
553.67	58827.02
553.84	58934.69
554.01	58693.61
554.17	58967.46
554.34	58908.94
554.51	58958.09
554.67	59042.35
554.84	58894.90
555.00	59241.30
555.17	58883.20
555.33	58878.52
555.50	58873.84
555.67	58843.41
555.83	59068.10
556.00	58986.18
556.16	59360.67
556.33	59194.49
556.50	59044.69
556.66	59325.56
556.83	59025.97
556.99	59325.56
557.16	59180.45
557.32	59473.01
557.49	59334.92
557.65	59348.96
557.82	59330.24
557.98	59360.67
558.15	59063.42
558.32	59346.62
558.48	59274.07
558.65	59203.85
558.81	59426.20
558.98	59487.06
559.14	59477.69
559.31	59578.34
559.47	59664.94
559.64	59454.29
559.80	59454.29
559.97	59807.71
560.13	59643.87
560.30	59627.49
560.46	59786.64
560.63	59686.00
560.79	59671.96
560.96	59756.22
561.12	59480.03
561.29	59730.47
561.45	59749.20
561.61	59936.44
561.78	59786.64
561.94	59571.32
562.11	59629.83
562.27	59744.51
562.44	59924.74
562.60	59990.27
562.77	59877.93
562.93	59765.58
563.10	60107.30
563.26	59732.81
563.42	59980.91
563.59	59777.28
563.75	59760.90
563.92	59887.29
564.08	59852.18
564.24	60013.68
564.41	60144.75
564.57	60086.23
564.74	60062.83
564.90	59966.87
565.07	60039.42
565.23	60097.94
565.39	60041.76
565.56	59973.89
565.72	60020.70
565.88	60233.69
566.05	59910.69
566.21	60013.68
566.38	60133.04
566.54	60271.14
566.70	60416.25
566.87	60467.74
567.03	60214.96
567.19	60306.24
567.36	60168.15
567.52	60076.87
567.68	60444.33
567.85	60301.56
568.01	60390.50
568.17	60126.02
568.34	60584.77
568.50	60210.28
568.66	60392.84
568.83	60493.49
568.99	60156.45
569.15	60453.70
569.32	60327.31
569.48	60383.48
569.64	60605.83
569.81	60233.69
569.97	60207.94
570.13	60339.01
570.30	60282.84
570.46	60329.65
570.62	60437.31
570.78	60348.37
570.95	60484.12
571.11	60432.63
571.27	60299.22
571.43	60240.71
571.60	60722.86
571.76	60385.82
571.92	60399.86
572.09	60535.62
572.25	60488.80
572.41	60383.48
572.57	60458.38
572.74	60601.15
572.90	60367.10
573.06	60512.21
573.22	60430.29
573.38	60449.02
573.55	60392.84
573.71	60547.32
573.87	60477.10
574.03	60460.72
574.20	60800.10
574.36	60444.33
574.52	60722.86
574.68	60626.90
574.84	60870.31
575.01	60516.89
575.17	60699.45
575.33	60676.05
575.49	60481.78
575.65	60680.73
575.82	60891.38
575.98	60823.50
576.14	60879.67
576.30	60746.26
576.46	60654.98
576.62	60622.22
576.79	60589.45
576.95	60542.64
577.11	60849.25
577.27	60856.27
577.43	60865.63
577.59	60544.98
577.75	60786.05
577.92	60446.68
578.08	60638.60
578.24	60839.89
578.40	60793.07
578.56	60963.93
578.72	60779.03
578.88	61106.71
579.04	60858.61
579.21	60664.35
579.37	60846.91
579.53	61104.37
579.69	60863.29
579.85	60624.56
580.01	60893.72
580.17	60601.15
580.33	60996.70
580.49	60860.95
580.65	60818.82
580.82	60898.40
580.98	60701.79
581.14	60757.97
581.30	60823.50
581.46	60683.07
581.62	60867.97
581.78	60652.64
581.94	60977.98
582.10	60767.33
582.26	60842.23
582.42	60846.91
582.58	60769.67
582.74	60727.54
582.90	60818.82
583.06	60970.96
583.22	60921.80
583.38	60715.84
583.54	60839.89
583.70	60977.98
583.86	60900.74
584.02	60985.00
584.18	60980.32
584.34	60907.76
584.50	60729.88
584.66	60631.58
584.82	60769.67
584.98	61120.75
585.14	61062.24
585.30	60818.82
585.46	60879.67
585.62	60912.44
585.78	61001.38
585.94	60753.29
586.10	60903.08
586.26	61041.17
586.42	60961.59
586.58	60886.70
586.74	61141.81
586.90	61069.26
587.06	60844.57
587.22	60926.49
587.38	60924.14
587.54	61057.56
587.70	61123.09
587.86	61027.13
588.02	60947.55
588.18	60896.06
588.34	61036.49
588.49	60987.34
