SpectraSuite Data File
++++++++++++++++++++++++++++++++++++
Date: Fri Oct 25 11:23:02 EDT 2013
User: price-jones
Dark Spectrum Present: No
Reference Spectrum Present: No
Number of Sampled Component Spectra: 1
Spectrometers: USB2+H05261
Integration Time (usec): 100000 (USB2+H05261)
Spectra Averaged: 1 (USB2+H05261)
Boxcar Smoothing: 0 (USB2+H05261)
Correct for Electrical Dark: No (USB2+H05261)
Strobe/Lamp Enabled: No (USB2+H05261)
Correct for Detector Non-linearity: No (USB2+H05261)
Correct for Stray Light: No (USB2+H05261)
Number of Pixels in Processed Spectrum: 2048
>>>>>Begin Processed Spectral Data<<<<<
365.73	177.88
365.92	177.88
366.12	177.88
366.32	191.92
366.52	44.47
366.72	170.86
366.91	180.22
367.11	187.24
367.31	112.35
367.51	138.09
367.70	46.81
367.90	138.09
368.10	121.71
368.30	184.90
368.49	131.07
368.69	135.75
368.89	128.73
369.09	182.56
369.28	138.09
369.48	149.79
369.68	159.16
369.87	177.88
370.07	241.08
370.27	182.56
370.47	262.14
370.66	547.69
370.86	662.37
371.06	552.37
371.25	683.44
371.45	709.18
371.65	638.97
371.84	650.67
372.04	697.48
372.24	688.12
372.44	711.52
372.63	697.48
372.83	690.46
373.03	774.72
373.22	716.20
373.42	734.93
373.62	720.88
373.81	821.53
374.01	856.64
374.21	833.23
374.40	828.55
374.60	823.87
374.79	765.36
374.99	802.80
375.19	912.81
375.38	873.02
375.58	866.00
375.78	903.45
375.97	896.43
376.17	926.85
376.37	835.57
376.56	842.59
376.76	847.27
376.95	884.72
377.15	819.19
377.35	866.00
377.54	889.40
377.74	823.87
377.93	863.66
378.13	908.13
378.33	936.21
378.52	894.08
378.72	929.19
378.91	926.85
379.11	933.87
379.31	896.43
379.50	968.98
379.70	1004.09
379.89	1083.67
380.09	896.43
380.28	912.81
380.48	973.66
380.68	940.90
380.87	1078.99
381.07	968.98
381.26	1069.62
381.46	1078.99
381.65	1001.75
381.85	1006.43
382.04	1046.22
382.24	1116.44
382.43	1081.33
382.63	1018.13
382.83	1053.24
383.02	1121.12
383.22	1135.16
383.41	1013.45
383.61	1104.73
383.80	1132.82
384.00	1139.84
384.19	1116.44
384.39	1142.18
384.58	1086.01
384.78	1060.26
384.97	1179.63
385.17	1102.39
385.36	1116.44
385.56	1196.01
385.75	1263.89
385.95	1259.21
386.14	1254.53
386.34	1156.22
386.53	1132.82
386.72	1181.97
386.92	1174.95
387.11	1231.12
387.31	1256.87
387.50	1280.27
387.70	1233.46
387.89	1231.12
388.09	1219.42
388.28	1296.66
388.48	1308.36
388.67	1334.11
388.86	1371.55
389.06	1324.74
389.25	1355.17
389.45	1357.51
389.64	1394.96
389.84	1387.94
390.03	1390.28
390.22	1357.51
390.42	1348.15
390.61	1380.92
390.81	1409.00
391.00	1387.94
391.19	1495.60
391.39	1556.46
391.58	1434.75
391.78	1432.41
391.97	1458.15
392.16	1437.09
392.36	1504.96
392.55	1568.16
392.75	1568.16
392.94	1521.35
393.13	1521.35
393.33	1495.60
393.52	1544.75
393.71	1575.18
393.91	1600.93
394.10	1603.27
394.29	1706.25
394.49	1533.05
394.68	1680.50
394.88	1661.78
395.07	1675.82
395.26	1682.85
395.46	1708.59
395.65	1678.16
395.84	1694.55
396.04	1783.49
396.23	1804.55
396.42	1778.81
396.62	1788.17
396.81	1842.00
397.00	1757.74
397.19	1834.98
397.39	1860.73
397.58	1947.33
397.77	1795.19
397.97	1809.23
398.16	1844.34
398.35	1935.62
398.55	1940.30
398.74	1909.88
398.93	1975.41
399.12	1842.00
399.32	1834.98
399.51	1834.98
399.70	2059.67
399.90	1919.24
400.09	2104.14
400.28	2132.23
400.47	2043.29
400.67	2043.29
400.86	2115.84
401.05	2106.48
401.24	2099.46
401.44	2083.08
401.63	2188.40
401.82	2207.13
402.01	2129.89
402.21	2179.04
402.40	2200.10
402.59	2174.36
402.78	2214.15
402.97	2221.17
403.17	2256.28
403.36	2272.66
403.55	2249.25
403.74	2312.45
403.93	2452.88
404.13	2300.75
404.32	2408.41
404.51	2352.24
404.70	2312.45
404.89	2443.52
405.09	2354.58
405.28	2377.98
405.47	2567.57
405.66	2539.48
405.85	2553.52
406.05	2441.18
406.24	2546.50
406.43	2555.86
406.62	2593.31
406.81	2661.19
407.00	2684.59
407.20	2710.34
407.39	2593.31
407.58	2745.45
407.77	2775.88
407.96	2682.25
408.15	2675.23
408.34	2857.79
408.54	2850.77
408.73	2794.60
408.92	2848.43
409.11	2902.26
409.30	2778.22
409.49	2892.90
409.68	2867.16
409.87	2913.97
410.07	2935.03
410.26	3068.44
410.45	2986.52
410.64	3033.33
410.83	3066.10
411.02	3124.62
411.21	3176.11
411.40	3096.53
411.59	3206.53
411.78	3136.32
411.98	3133.98
412.17	3248.66
412.36	3243.98
412.55	3454.63
412.74	3468.67
412.93	3318.88
413.12	3403.14
413.31	3604.42
413.50	3382.07
413.69	3461.65
413.88	3627.83
414.07	3639.53
414.26	3765.92
414.45	3592.72
414.64	3716.77
414.83	3667.62
415.02	3772.94
415.22	3850.18
415.41	3889.97
415.60	3765.92
415.79	3887.63
415.98	3943.80
416.17	3840.82
416.36	3941.46
416.55	4007.00
416.74	4107.64
416.93	4117.00
417.12	4194.24
417.31	4177.86
417.50	4229.35
417.69	4285.52
417.88	4381.48
418.07	4222.33
418.26	4358.08
418.45	4425.95
418.64	4444.68
418.83	4472.76
419.02	4360.42
419.21	4552.34
419.39	4514.89
419.58	4486.81
419.77	4414.25
419.96	4461.06
420.15	4711.50
420.34	4702.14
420.53	4643.62
420.72	4720.86
420.91	4699.80
421.10	4718.52
421.29	4837.89
421.48	4873.00
421.67	4777.03
421.86	4812.14
422.05	4758.31
422.24	4868.31
422.43	4985.34
422.61	4891.72
422.80	5078.96
422.99	4999.38
423.18	5057.90
423.37	5034.49
423.56	5135.14
423.75	4889.38
423.94	4837.89
424.13	4599.15
424.32	4774.69
424.50	5036.83
424.69	5121.09
424.88	5085.98
425.07	5039.17
425.26	5043.85
425.45	5046.20
425.64	4999.38
425.83	4851.93
426.01	5224.08
426.20	5104.71
426.39	4936.19
426.58	5081.30
426.77	5088.32
426.96	5214.71
427.15	5179.61
427.33	5252.16
427.52	5104.71
427.71	5310.68
427.90	5226.42
428.09	5261.52
428.28	5284.93
428.46	5425.36
428.65	5502.60
428.84	5430.04
429.03	5589.20
429.22	5294.29
429.40	5561.11
429.59	5453.45
429.78	5256.84
429.97	5425.36
430.16	5591.54
430.34	5502.60
430.53	5607.92
430.72	5685.16
430.91	5706.23
431.10	5619.63
431.28	5710.91
431.47	5879.43
431.66	5949.64
431.85	5785.80
432.03	5877.09
432.22	6134.54
432.41	6188.38
432.60	6087.73
432.79	6024.54
432.97	5977.73
433.16	6171.99
433.35	6085.39
433.54	6108.80
433.72	6146.25
433.91	6160.29
434.10	6188.38
434.28	6197.74
434.47	6303.06
434.66	6207.10
434.85	6342.85
435.03	6389.66
435.22	6356.90
435.41	6562.86
435.59	6384.98
435.78	6502.01
435.97	6558.18
436.16	6492.65
436.34	6401.37
436.53	6597.97
436.72	6895.22
436.90	6539.46
437.09	6803.94
437.28	6452.86
437.46	6480.94
437.65	6689.25
437.84	6724.36
438.02	6846.07
438.21	6768.83
438.40	6846.07
438.58	6897.56
438.77	7178.42
438.96	6995.86
439.14	7281.41
439.33	7314.17
439.52	7260.34
439.70	7316.51
439.89	7513.12
440.08	7344.60
440.26	7382.05
440.45	7143.32
440.63	7524.82
440.82	7775.26
441.01	7557.59
441.19	7573.97
441.38	7770.58
441.57	7679.30
441.75	7836.11
441.94	8011.65
442.12	7922.71
442.31	8269.11
442.50	8035.06
442.68	8128.68
442.87	8292.52
443.05	8133.36
443.24	8205.92
443.43	8126.34
443.61	8184.85
443.80	8571.04
443.98	7985.91
444.17	7983.57
444.35	8201.24
444.54	8280.82
444.73	8318.26
444.91	8320.60
445.10	8655.30
445.28	8559.34
445.47	8472.74
445.65	8348.69
445.84	8332.31
446.02	8746.58
446.21	8596.79
446.39	8533.59
446.58	8657.64
446.77	8409.54
446.95	8402.52
447.14	8442.31
447.32	8615.51
447.51	8617.85
447.69	8428.27
447.88	8477.42
448.06	8533.59
448.25	8643.60
448.43	8681.05
448.62	8557.00
448.80	8659.98
448.99	8704.45
449.17	8674.03
449.36	8861.27
449.54	9067.24
449.73	9228.73
449.91	9022.77
450.10	9121.07
450.28	9158.52
450.46	9078.94
450.65	9074.26
450.83	9303.63
451.02	9341.08
451.20	9191.28
451.39	9317.67
451.57	9226.39
451.76	9081.28
451.94	9355.12
452.13	9446.40
452.31	9348.10
452.49	9191.28
452.68	9544.70
452.86	9380.87
453.05	9301.29
453.23	9577.47
453.42	9423.00
453.60	9355.12
453.78	9507.26
453.97	9404.27
454.15	9521.30
454.34	9729.61
454.52	9633.64
454.70	9788.12
454.89	9863.02
455.07	9947.28
455.26	9837.27
455.44	9970.68
455.62	9984.73
455.81	9996.43
455.99	9757.69
456.17	10094.73
456.36	9937.91
456.54	10188.35
456.73	10244.52
456.91	10530.07
457.09	10415.38
457.28	10565.18
457.46	10607.31
457.64	10476.24
457.83	10408.36
458.01	10462.19
458.19	10689.23
458.38	10513.69
458.56	10953.71
458.74	10787.53
458.93	10892.85
459.11	10906.90
459.29	10949.03
459.48	10707.95
459.66	10759.44
459.84	10850.72
460.03	11199.46
460.21	11091.80
460.39	10916.26
460.57	11147.97
460.76	11227.55
460.94	11419.47
461.12	11246.27
461.31	11136.27
461.49	11349.26
461.67	11218.19
461.85	11536.50
462.04	11309.47
462.22	11637.14
462.40	11559.91
462.59	11833.75
462.77	11662.89
462.95	11550.54
463.13	11735.45
463.32	11641.82
463.50	11782.26
463.68	11978.86
463.86	11915.67
464.05	11686.29
464.23	11871.20
464.41	11997.59
464.59	11791.62
464.78	12194.19
464.96	12210.57
465.14	11964.82
465.32	12126.32
465.50	12067.80
465.69	12208.23
465.87	12112.27
466.05	12009.29
466.23	12301.86
466.41	12259.73
466.60	12985.29
466.78	12116.95
466.96	12203.55
467.14	12259.73
467.32	12360.37
467.51	12748.90
467.69	12318.24
467.87	12561.66
468.05	12514.84
468.23	12465.69
468.41	12636.55
468.60	12861.24
468.78	12791.03
468.96	12734.85
469.14	13118.70
469.32	13259.13
469.50	12877.63
469.69	13144.45
469.87	13256.79
470.05	13383.18
470.23	13247.43
470.41	13191.26
470.59	13397.23
470.77	13266.16
470.95	13404.25
471.14	13774.05
471.32	13481.49
471.50	13947.25
471.68	13708.52
471.86	13666.39
472.04	13933.21
472.22	14225.78
472.40	13652.34
472.58	13909.80
472.77	14001.08
472.95	14141.52
473.13	14623.67
473.31	14146.20
473.49	14413.02
473.67	14480.89
473.85	14279.61
474.03	14628.35
474.21	14431.74
474.39	14817.93
474.57	14747.72
474.75	15073.05
474.93	15257.95
475.12	14937.30
475.30	15066.03
475.48	15199.44
475.66	15616.05
475.84	15276.68
476.02	15604.35
476.20	15377.32
476.38	15819.68
476.56	16133.31
476.74	16145.02
476.92	16229.27
477.10	15946.07
477.28	16484.39
477.46	16463.33
477.64	16570.99
477.82	17015.69
478.00	17238.05
478.18	17125.70
478.36	17153.79
478.54	17408.90
478.72	17221.66
478.90	17453.37
479.08	17675.73
479.26	17764.67
479.44	17734.24
479.62	18246.82
479.80	18064.25
479.98	17874.67
480.16	18663.43
480.34	18707.90
480.52	18841.31
480.70	18815.57
480.88	18700.88
481.06	18656.41
481.24	19281.33
481.41	19307.08
481.59	19101.11
481.77	19791.57
481.95	19850.08
482.13	19992.86
482.31	19999.88
482.49	20374.36
482.67	20273.72
482.85	20435.22
483.03	20622.46
483.21	20720.76
483.39	21397.18
483.57	21128.02
483.74	21572.72
483.92	21455.69
484.10	21390.16
484.28	21687.40
484.46	22101.68
484.64	22640.00
484.82	21970.61
485.00	22300.62
485.18	22881.08
485.35	23094.07
485.53	23138.54
485.71	23391.31
485.89	23777.50
486.07	23576.22
486.25	23810.27
486.43	23985.81
486.61	24194.12
486.78	24442.21
486.96	24517.11
487.14	24744.14
487.32	24664.57
487.50	25050.75
487.68	25118.63
487.85	25294.17
488.03	25617.16
488.21	26307.62
488.39	25928.45
488.57	26457.42
488.75	26368.48
488.92	26485.50
489.10	27187.66
489.28	26817.86
489.46	27543.42
489.64	27175.96
489.81	27967.06
489.99	27800.88
490.17	28004.51
490.35	28451.55
490.53	28322.82
490.70	28552.20
490.88	28779.23
491.06	29202.86
491.24	29252.02
491.41	29338.62
491.59	29521.18
491.77	29928.43
491.95	30000.99
492.13	29792.68
492.30	30188.23
492.48	29968.22
492.66	30455.05
492.84	30782.73
493.01	30951.24
493.19	30649.32
493.37	31400.63
493.54	31541.06
493.72	31512.97
493.90	31545.74
494.08	32133.21
494.25	32299.39
494.43	32362.59
494.61	32610.68
494.79	32992.19
494.96	32767.50
495.14	32711.33
495.32	33333.91
495.49	33462.64
495.67	33476.68
495.85	34040.75
496.02	33912.02
496.20	34171.82
496.38	34328.64
496.55	34298.21
496.73	35241.45
496.91	34822.49
497.09	34995.69
497.26	35318.68
497.44	35641.68
497.62	35461.46
497.79	36182.34
497.97	35697.85
498.14	36077.02
498.32	36348.52
498.50	36472.57
498.67	36758.11
498.85	36912.59
499.03	36910.25
499.20	36933.65
499.38	37106.85
499.56	37474.32
499.73	37839.44
499.91	37722.41
500.08	38017.32
500.26	37603.05
500.44	37727.10
500.61	38277.12
500.79	37942.42
500.97	38646.93
501.14	38843.53
501.32	38799.06
501.49	39063.54
501.67	39019.07
501.84	39131.42
502.02	39168.87
502.20	39194.61
502.37	39646.33
502.55	39611.23
502.72	39578.46
502.90	39871.03
503.07	39735.27
503.25	40058.27
503.43	40231.47
503.60	40357.86
503.78	40605.95
503.95	40552.12
504.13	40680.85
504.30	41148.96
504.48	40776.81
504.65	41139.60
504.83	41359.61
505.01	41848.78
505.18	41481.31
505.36	42089.85
505.53	41890.91
505.71	41935.38
505.88	42288.80
506.06	42038.36
506.23	41813.67
506.41	42251.35
506.58	43021.39
506.76	42806.06
506.93	42806.06
507.11	42653.92
507.28	43049.47
507.46	42801.38
507.63	43189.91
507.81	43611.20
507.98	42990.96
508.16	43402.89
508.33	44137.82
508.50	43835.89
508.68	43840.57
508.85	44273.57
509.03	43896.75
509.20	44147.18
509.38	44921.90
509.55	44615.29
509.73	44170.59
509.90	44978.07
510.08	45308.09
510.25	45319.79
510.42	45682.58
510.60	45535.12
510.77	45378.31
510.95	45720.02
511.12	45202.77
511.30	45563.21
511.47	45682.58
511.64	45708.32
511.82	46199.83
511.99	46103.87
512.17	46480.70
512.34	46134.30
512.51	46904.34
512.69	46735.82
512.86	46920.72
513.04	46902.00
513.21	46986.25
513.38	46988.60
513.56	47543.30
513.73	46724.11
513.90	47639.26
514.08	47662.67
514.25	47976.30
514.43	47552.66
514.60	47643.94
514.77	47594.79
514.95	48156.52
515.12	47849.91
515.29	47971.62
515.47	48332.06
515.64	48332.06
515.81	48233.76
515.99	48444.41
516.16	48533.35
516.33	48669.10
516.51	49017.84
516.68	48854.00
516.85	48268.87
517.03	49221.47
517.20	49626.38
517.37	49191.04
517.54	48971.03
517.72	49031.88
517.89	49776.17
518.06	49453.18
518.24	49446.16
518.41	49972.78
518.58	49750.43
518.75	49635.74
518.93	49607.65
519.10	49977.46
519.27	50035.97
519.45	50003.20
519.62	50284.07
519.79	50232.58
519.96	50373.01
520.14	50569.61
520.31	50218.53
520.48	50447.91
520.65	50541.53
520.83	51070.49
521.00	50813.03
521.17	51129.00
521.34	50691.32
521.52	51592.43
521.69	51164.11
521.86	51147.73
522.03	51356.03
522.20	51437.95
522.38	51512.85
522.55	52023.09
522.72	51873.29
522.89	51494.13
523.07	52240.76
523.24	51861.59
523.41	51805.42
523.58	51789.03
523.75	52081.60
523.92	51910.74
524.10	52273.52
524.27	52219.69
524.44	52229.05
524.61	52193.95
524.78	52713.55
524.96	52516.94
525.13	52760.36
525.30	52659.71
525.47	52680.78
525.64	52573.11
525.81	52816.53
525.98	52706.52
526.16	52975.69
526.33	52750.99
526.50	53385.28
526.67	52966.32
526.84	52938.24
527.01	53193.36
527.18	53059.94
527.36	53183.99
527.53	53059.94
527.70	53460.18
527.87	53670.82
528.04	53577.20
528.21	53511.67
528.38	53729.34
528.55	53900.20
528.72	53476.56
528.89	53932.96
529.07	53904.88
529.24	53659.12
529.41	53694.23
529.58	54031.27
529.75	53947.01
529.92	54199.79
530.09	54284.04
530.26	54057.01
530.43	54656.19
530.60	53841.68
530.77	54019.56
530.94	54302.77
531.11	54181.06
531.28	54513.42
531.46	54417.46
531.63	54475.97
531.80	54632.78
531.97	54808.32
532.14	54585.97
532.31	54674.91
532.48	54843.43
532.65	54930.03
532.82	54728.75
532.99	54908.97
533.16	54857.48
533.33	55117.28
533.50	55075.15
533.67	54803.64
533.84	54988.55
534.01	55161.75
534.18	55070.46
534.35	55772.63
534.52	55121.96
534.69	55456.65
534.86	55447.29
535.03	55344.31
535.20	55348.99
535.37	55578.36
535.54	55620.49
535.71	55260.05
535.88	55786.67
536.05	55793.69
536.22	55753.90
536.38	56037.11
536.55	55648.58
536.72	55894.33
536.89	55583.04
537.06	56004.34
537.23	55709.43
537.40	55697.73
537.57	55875.61
537.74	56135.41
537.91	56079.24
538.08	56135.41
538.25	55884.97
538.42	56222.01
538.59	56474.79
538.75	56121.37
538.92	56355.42
539.09	56484.15
539.26	56388.19
539.43	56383.51
539.60	56601.18
539.77	56643.30
539.94	56556.70
540.11	56615.22
540.28	56697.14
540.44	56697.14
540.61	56655.01
540.78	56474.79
540.95	56610.54
541.12	56500.53
541.29	56755.65
541.46	56807.14
541.62	57043.54
541.79	56907.79
541.96	56664.37
542.13	56917.15
542.30	56879.70
542.47	57041.20
542.63	57141.84
542.80	56942.89
542.97	57144.18
543.14	57516.32
543.31	57420.36
543.48	57425.04
543.64	57628.67
543.81	57492.92
543.98	57712.93
544.15	57546.75
544.32	57846.34
544.48	57567.82
544.65	57563.14
544.82	57750.38
544.99	57368.87
545.16	57666.12
545.32	57710.59
545.49	57790.17
545.66	57822.93
545.83	57853.36
546.00	57972.73
546.16	58061.67
546.33	57862.72
546.50	57750.38
546.67	57738.68
546.83	57509.30
547.00	58089.76
547.17	58026.56
547.34	58024.22
547.50	58108.48
547.67	58129.54
547.84	58101.46
548.00	58468.92
548.17	58539.14
548.34	58202.10
548.51	58511.05
548.67	58475.94
548.84	58452.54
549.01	58181.04
549.18	58443.18
549.34	58497.01
549.51	58309.77
549.68	58511.05
549.84	58567.23
550.01	58829.37
550.18	58543.82
550.34	58562.54
550.51	58672.55
550.68	58607.01
550.84	58710.00
551.01	58955.75
551.18	58944.05
551.34	58927.67
551.51	58714.68
551.68	58784.90
551.84	58784.90
552.01	58749.79
552.18	58815.32
552.34	58822.34
552.51	58827.02
552.68	58829.37
552.84	58805.96
553.01	59217.89
553.18	58754.47
553.34	59093.85
553.51	59077.46
553.67	58944.05
553.84	59264.70
554.01	59241.30
554.17	59285.77
554.34	59201.51
554.51	59103.21
554.67	59150.02
554.84	59126.61
555.00	59126.61
555.17	59044.69
555.33	59341.94
555.50	58820.00
555.67	59346.62
555.83	59157.04
556.00	59526.84
556.16	59629.83
556.33	59557.27
556.50	59557.27
556.66	59660.26
556.83	59501.10
556.99	59732.81
557.16	59767.92
557.32	59601.74
557.49	59805.37
557.65	59559.61
557.82	59669.62
557.98	59704.73
558.15	59620.47
558.32	59676.64
558.48	59339.60
558.65	59662.60
558.81	59814.73
558.98	59669.62
559.14	59798.35
559.31	59934.10
559.47	59884.95
559.64	59824.09
559.80	60116.66
559.97	59891.97
560.13	59718.77
560.30	59983.25
560.46	60128.36
560.63	60109.64
560.79	60119.00
560.96	60191.56
561.12	60048.78
561.29	60130.70
561.45	59927.08
561.61	60039.42
561.78	60013.68
561.94	59971.55
562.11	60065.17
562.27	60233.69
562.44	60020.70
562.60	60268.79
562.77	60140.07
562.93	60020.70
563.10	60104.96
563.26	60039.42
563.42	60306.24
563.59	60062.83
563.75	60212.62
563.92	60458.38
564.08	60313.26
564.24	60341.35
564.41	60214.96
564.57	60292.20
564.74	60294.54
564.90	60346.03
565.07	60289.86
565.23	60395.18
565.39	60533.28
565.56	60456.04
565.72	60203.26
565.88	60495.83
566.05	60355.39
566.21	60374.12
566.38	60392.84
566.54	60371.78
566.70	60434.97
566.87	60582.43
567.03	60090.91
567.19	60701.79
567.36	60516.89
567.52	60526.25
567.68	60757.97
567.85	60505.19
568.01	60605.83
568.17	60547.32
568.34	60662.00
568.50	60561.36
568.66	60470.08
568.83	60559.02
568.99	60439.65
569.15	60739.24
569.32	60552.00
569.48	60453.70
569.64	60598.81
569.81	60640.94
569.97	60776.69
570.13	60772.01
570.30	60708.82
570.46	60732.22
570.62	60647.96
570.78	60870.31
570.95	60704.13
571.11	60781.37
571.27	60701.79
571.43	60683.07
571.60	60926.49
571.76	60769.67
571.92	60839.89
572.09	60755.63
572.25	60879.67
572.41	60781.37
572.57	60874.99
572.74	60882.02
572.90	60914.78
573.06	60697.11
573.22	60774.35
573.38	60753.29
573.55	60846.91
573.71	61099.68
573.87	61050.53
574.03	60800.10
574.20	60811.80
574.36	61003.72
574.52	60823.50
574.68	60982.66
574.84	61148.84
575.01	60940.53
575.17	60907.76
575.33	60846.91
575.49	60748.60
575.65	61099.68
575.82	61073.94
575.98	61013.08
576.14	61268.20
576.30	61022.45
576.46	60835.20
576.62	60928.83
576.79	60823.50
576.95	60776.69
577.11	60996.70
577.27	61291.61
577.43	61087.98
577.59	60919.46
577.75	60886.70
577.92	61017.77
578.08	61137.13
578.24	61071.60
578.40	61181.60
578.56	61247.14
578.72	61008.40
578.88	61153.52
579.04	61092.66
579.21	61083.30
579.37	61158.20
579.53	61240.12
579.69	61118.41
579.85	61050.53
580.01	61071.60
580.17	60853.93
580.33	61069.26
580.49	61179.26
580.65	61104.37
580.82	61029.47
580.98	61151.18
581.14	60893.72
581.30	60905.42
581.46	61251.82
581.62	61212.03
581.78	60947.55
581.94	61212.03
582.10	61024.79
582.26	61090.32
582.42	61083.30
582.58	61073.94
582.74	61123.09
582.90	61113.73
583.06	61317.35
583.22	60940.53
583.38	61123.09
583.54	61113.73
583.70	61160.54
583.86	61359.48
584.02	60919.46
584.18	61322.04
584.34	61146.50
584.50	61151.18
584.66	61087.98
584.82	60966.27
584.98	61263.52
585.14	61195.65
585.30	61216.71
585.46	61111.39
585.62	61289.27
585.78	61331.40
585.94	61127.77
586.10	61209.69
586.26	61331.40
586.42	61399.27
586.58	61312.67
586.74	61188.63
586.90	61305.65
587.06	61125.43
587.22	61602.90
587.38	61144.16
587.54	61537.36
587.70	61366.51
587.86	61282.25
588.02	61434.38
588.18	61567.79
588.34	61176.92
588.49	61289.27
