SpectraSuite Data File
++++++++++++++++++++++++++++++++++++
Date: Fri Oct 25 11:23:10 EDT 2013
User: price-jones
Dark Spectrum Present: No
Reference Spectrum Present: No
Number of Sampled Component Spectra: 1
Spectrometers: USB2+H05261
Integration Time (usec): 100000 (USB2+H05261)
Spectra Averaged: 1 (USB2+H05261)
Boxcar Smoothing: 0 (USB2+H05261)
Correct for Electrical Dark: No (USB2+H05261)
Strobe/Lamp Enabled: No (USB2+H05261)
Correct for Detector Non-linearity: No (USB2+H05261)
Correct for Stray Light: No (USB2+H05261)
Number of Pixels in Processed Spectrum: 2048
>>>>>Begin Processed Spectral Data<<<<<
365.73	229.37
365.92	229.37
366.12	229.37
366.32	133.41
366.52	114.69
366.72	166.18
366.91	105.32
367.11	170.86
367.31	112.35
367.51	81.92
367.70	102.98
367.90	121.71
368.10	175.54
368.30	114.69
368.49	119.37
368.69	126.39
368.89	112.35
369.09	131.07
369.28	205.97
369.48	114.69
369.68	121.71
369.87	177.88
370.07	208.31
370.27	194.26
370.47	273.84
370.66	535.98
370.86	571.09
371.06	608.54
371.25	741.95
371.45	667.05
371.65	699.82
371.84	671.73
372.04	723.23
372.24	744.29
372.44	702.16
372.63	641.31
372.83	699.82
373.03	758.33
373.22	793.44
373.42	755.99
373.62	781.74
373.81	772.38
374.01	828.55
374.21	786.42
374.40	823.87
374.60	837.91
374.79	763.01
374.99	849.61
375.19	816.85
375.38	877.70
375.58	898.77
375.78	983.02
375.97	842.59
376.17	830.89
376.37	830.89
376.56	858.98
376.76	898.77
376.95	854.30
377.15	915.15
377.35	847.27
377.54	901.11
377.74	814.51
377.93	863.66
378.13	926.85
378.33	851.96
378.52	854.30
378.72	973.66
378.91	929.19
379.11	915.15
379.31	922.17
379.50	905.79
379.70	992.39
379.89	1069.62
380.09	1020.47
380.28	957.28
380.48	1041.54
380.68	1008.77
380.87	959.62
381.07	957.28
381.26	957.28
381.46	1048.56
381.65	1008.77
381.85	1029.84
382.04	1062.60
382.24	1086.01
382.43	1057.92
382.63	1064.94
382.83	1064.94
383.02	1088.35
383.22	1130.48
383.41	1102.39
383.61	1036.86
383.80	1055.58
384.00	1170.27
384.19	1128.14
384.39	1078.99
384.58	1008.77
384.78	1174.95
384.97	1163.25
385.17	1174.95
385.36	1125.80
385.56	1193.67
385.75	1078.99
385.95	1170.27
386.14	1170.27
386.34	1156.22
386.53	1245.16
386.72	1254.53
386.92	1277.93
387.11	1186.65
387.31	1214.74
387.50	1219.42
387.70	1242.82
387.89	1275.59
388.09	1214.74
388.28	1268.57
388.48	1224.10
388.67	1261.55
388.86	1371.55
389.06	1387.94
389.25	1383.26
389.45	1282.61
389.64	1317.72
389.84	1259.21
390.03	1371.55
390.22	1385.60
390.42	1404.32
390.61	1345.81
390.81	1359.85
391.00	1348.15
391.19	1446.45
391.39	1411.34
391.58	1434.75
391.78	1514.33
391.97	1526.03
392.16	1502.62
392.36	1542.41
392.55	1474.54
392.75	1519.01
392.94	1495.60
393.13	1514.33
393.33	1474.54
393.52	1502.62
393.71	1535.39
393.91	1647.74
394.10	1544.75
394.29	1603.27
394.49	1558.80
394.68	1509.65
394.88	1666.46
395.07	1724.97
395.26	1680.50
395.46	1610.29
395.65	1755.40
395.84	1739.02
396.04	1788.17
396.23	1717.95
396.42	1797.53
396.62	1785.83
396.81	1806.89
397.00	1727.32
397.19	1781.15
397.39	1839.66
397.58	1820.94
397.77	1849.02
397.97	1954.35
398.16	1895.83
398.35	1837.32
398.55	1954.35
398.74	1914.56
398.93	1961.37
399.12	2012.86
399.32	1916.90
399.51	1893.49
399.70	2026.90
399.90	1987.11
400.09	2038.61
400.28	2200.10
400.47	2064.35
400.67	2111.16
400.86	2057.33
401.05	2038.61
401.24	2150.95
401.44	2104.14
401.63	2197.76
401.82	2092.44
402.01	2200.10
402.21	2165.00
402.40	2260.96
402.59	2141.59
402.78	2239.89
402.97	2256.28
403.17	2380.32
403.36	2253.94
403.55	2256.28
403.74	2331.17
403.93	2443.52
404.13	2331.17
404.32	2403.73
404.51	2340.54
404.70	2345.22
404.89	2363.94
405.09	2513.74
405.28	2410.75
405.47	2441.18
405.66	2450.54
405.85	2569.91
406.05	2581.61
406.24	2619.06
406.43	2579.27
406.62	2555.86
406.81	2626.08
407.00	2700.98
407.20	2485.65
407.39	2565.23
407.58	2785.24
407.77	2754.81
407.96	2722.04
408.15	2864.82
408.34	2750.13
408.54	2899.92
408.73	2853.11
408.92	2796.94
409.11	2913.97
409.30	2846.09
409.49	2918.65
409.68	2904.60
409.87	2883.54
410.07	3054.40
410.26	3115.25
410.45	3122.27
410.64	3110.57
410.83	3155.04
411.02	3012.27
411.21	3171.43
411.40	3187.81
411.59	3234.62
411.78	3234.62
411.98	3199.51
412.17	3286.11
412.36	3297.81
412.55	3349.31
412.74	3445.27
412.93	3330.58
413.12	3410.16
413.31	3435.91
413.50	3585.70
413.69	3585.70
413.88	3564.64
414.07	3602.08
414.26	3726.13
414.45	3723.79
414.64	3735.50
414.83	3810.39
415.02	3772.94
415.22	3904.01
415.41	3927.42
415.60	3964.87
415.79	3904.01
415.98	3950.82
416.17	4095.94
416.36	4126.36
416.55	4021.04
416.74	4142.75
416.93	4128.70
417.12	3978.91
417.31	4257.43
417.50	4245.73
417.69	4243.39
417.88	4294.88
418.07	4219.99
418.26	4250.41
418.45	4297.22
418.64	4383.82
418.83	4496.17
419.02	4503.19
419.21	4550.00
419.39	4615.54
419.58	4524.26
419.77	4620.22
419.96	4636.60
420.15	4641.28
420.34	4772.35
420.53	4681.07
420.72	4660.01
420.91	4786.40
421.10	4648.30
421.29	4887.04
421.48	4692.77
421.67	4835.55
421.86	4807.46
422.05	4849.59
422.24	4912.78
422.43	4908.10
422.61	4922.15
422.80	4926.83
422.99	5011.09
423.18	5048.54
423.37	5006.41
423.56	4947.89
423.75	4908.10
423.94	4835.55
424.13	4599.15
424.32	4837.89
424.50	5039.17
424.69	5081.30
424.88	5137.48
425.07	4973.64
425.26	4950.23
425.45	4999.38
425.64	4957.25
425.83	5076.62
426.01	4966.62
426.20	5142.16
426.39	5121.09
426.58	5039.17
426.77	5050.88
426.96	5142.16
427.15	4966.62
427.33	5298.97
427.52	5191.31
427.71	5338.76
427.90	5329.40
428.09	5397.28
428.28	5327.06
428.46	5390.25
428.65	5427.70
428.84	5640.69
429.03	5572.82
429.22	5343.44
429.40	5628.99
429.59	5518.98
429.78	5327.06
429.97	5359.83
430.16	5643.03
430.34	5605.58
430.53	5713.25
430.72	5858.36
430.91	5671.12
431.10	5743.67
431.28	5816.23
431.47	5893.47
431.66	5858.36
431.85	5865.38
432.03	6097.10
432.22	6097.10
432.41	5975.39
432.60	5961.34
432.79	6071.35
432.97	6029.22
433.16	6054.97
433.35	6099.44
433.54	6150.93
433.72	6242.21
433.91	6132.20
434.10	6251.57
434.28	6113.48
434.47	6319.45
434.66	6480.94
434.85	6420.09
435.03	6300.72
435.22	6328.81
435.41	6534.78
435.59	6476.26
435.78	6429.45
435.97	6483.28
436.16	6497.33
436.34	6408.39
436.53	6539.46
436.72	6635.42
436.90	6480.94
437.09	6614.35
437.28	6551.16
437.46	6551.16
437.65	6597.97
437.84	6773.51
438.02	6782.87
438.21	6715.00
438.40	6815.64
438.58	7045.01
438.77	7012.24
438.96	6904.58
439.14	7176.08
439.33	7150.34
439.52	7080.12
439.70	7272.04
439.89	7304.81
440.08	7480.35
440.26	7365.67
440.45	7293.11
440.63	7508.44
440.82	7882.92
441.01	7543.55
441.19	7761.22
441.38	7719.09
441.57	7922.71
441.75	8028.04
441.94	7969.52
442.12	8131.02
442.31	8039.74
442.50	8088.89
442.68	8030.38
442.87	8166.13
443.05	8182.51
443.24	8269.11
443.43	8046.76
443.61	8285.50
443.80	8297.20
443.98	8030.38
444.17	7981.23
444.35	8507.85
444.54	8477.42
444.73	8332.31
444.91	8222.30
445.10	8355.71
445.28	8503.17
445.47	8327.63
445.65	8315.92
445.84	8451.67
446.02	8629.56
446.21	8606.15
446.39	8461.04
446.58	8552.32
446.77	8538.27
446.95	8442.31
447.14	8692.75
447.32	8601.47
447.51	8482.10
447.69	8662.32
447.88	8454.02
448.06	8720.84
448.25	8538.27
448.43	8821.48
448.62	8762.97
448.80	8718.50
448.99	8737.22
449.17	8765.31
449.36	8463.38
449.54	8926.80
449.73	9107.02
449.91	9247.46
450.10	8849.57
450.28	9193.62
450.46	9104.68
450.65	9287.25
450.83	9097.66
451.02	9191.28
451.20	9387.89
451.39	9205.33
451.57	9238.09
451.76	9050.85
451.94	9371.50
452.13	9476.83
452.31	9198.31
452.49	9067.24
452.68	9551.73
452.86	9284.91
453.05	9591.52
453.23	9586.83
453.42	9373.85
453.60	9434.70
453.78	9680.46
453.97	9516.62
454.15	9540.02
454.34	9542.36
454.52	9762.37
454.70	9692.16
454.89	9811.53
455.07	9771.74
455.26	9755.35
455.44	10157.92
455.62	9944.94
455.81	10101.75
455.99	10143.88
456.17	10068.98
456.36	10050.26
456.54	10246.87
456.73	10466.88
456.91	10626.03
457.09	10469.22
457.28	10733.70
457.46	10279.63
457.64	10562.84
457.83	10530.07
458.01	10244.52
458.19	10909.24
458.38	10672.84
458.56	10897.53
458.74	10867.11
458.93	10696.25
459.11	10820.30
459.29	10855.40
459.48	11047.33
459.66	10923.28
459.84	11150.31
460.03	11112.86
460.21	11260.32
460.39	11136.27
460.57	11143.29
460.76	11014.56
460.94	11082.44
461.12	11351.60
461.31	11314.15
461.49	11499.05
461.67	11126.91
461.85	11676.93
462.04	11463.94
462.22	11529.48
462.40	11714.38
462.59	11578.63
462.77	11281.38
462.95	11756.51
463.13	11520.12
463.32	11705.02
463.50	11658.21
463.68	11866.52
463.86	11803.32
464.05	11910.99
464.23	11782.26
464.41	11988.22
464.59	11742.47
464.78	12138.02
464.96	12187.17
465.14	12128.66
465.32	12362.71
465.50	11962.48
465.69	12250.36
465.87	12383.77
466.05	12294.83
466.23	12353.35
466.41	12444.63
466.60	12659.96
466.78	12339.30
466.96	12334.62
467.14	12360.37
467.32	12477.40
467.51	12477.40
467.69	12123.98
467.87	12463.35
468.05	12669.32
468.23	12886.99
468.41	12297.17
468.60	12695.07
468.78	12908.05
468.96	12931.46
469.14	12901.03
469.32	13224.03
469.50	12891.67
469.69	13027.42
469.87	13357.44
470.05	13373.82
470.23	13214.66
470.41	13413.61
470.59	13444.04
470.77	13177.22
470.95	13434.68
471.14	13666.39
471.32	13181.90
471.50	13692.13
471.68	13752.99
471.86	13451.06
472.04	13996.40
472.22	14115.77
472.40	13750.65
472.58	13930.87
472.77	14143.86
472.95	14333.44
473.13	14764.10
473.31	14342.80
473.49	14438.76
473.67	14396.64
473.85	14595.58
474.03	14750.06
474.21	14506.64
474.39	14778.14
474.57	14876.44
474.75	14874.10
474.93	14963.04
475.12	15255.61
475.30	15470.94
475.48	15194.76
475.66	15309.44
475.84	15272.00
476.02	15468.60
476.20	15665.21
476.38	15667.55
476.56	16327.58
476.74	16152.04
476.92	15913.30
477.10	16072.46
477.28	16308.85
477.46	16322.90
477.64	16652.91
477.82	16730.15
478.00	17078.89
478.18	16952.50
478.36	17202.94
478.54	17446.35
478.72	17322.30
478.90	17837.22
479.08	17544.66
479.26	18003.40
479.44	18010.42
479.62	18218.73
479.80	18548.75
479.98	18340.44
480.16	18518.32
480.34	18691.52
480.52	18714.92
480.70	18845.99
480.88	18654.07
481.06	19014.51
481.24	18958.34
481.41	19108.13
481.59	19557.52
481.77	19807.95
481.95	19777.53
482.13	20137.97
482.31	20154.35
482.49	20634.16
482.67	20322.87
482.85	20580.33
483.03	20772.25
483.21	20933.75
483.39	20896.30
483.57	21156.10
483.74	21312.92
483.92	21633.57
484.10	21439.31
484.28	21989.33
484.46	21937.84
484.64	22277.22
484.82	22302.96
485.00	22431.69
485.18	22867.03
485.35	23264.92
485.53	23108.11
485.71	23094.07
485.89	23700.26
486.07	23763.46
486.25	23393.65
486.43	23761.12
486.61	24130.92
486.78	24648.18
486.96	24517.11
487.14	24664.57
487.32	24805.00
487.50	25345.66
487.68	25474.39
487.85	25392.47
488.03	26178.89
488.21	26073.57
488.39	26347.41
488.57	26459.76
488.75	26541.68
488.92	26632.96
489.10	26724.24
489.28	27374.91
489.46	27372.57
489.64	27475.55
489.81	28156.64
489.99	27646.41
490.17	27639.39
490.35	28428.15
490.53	28510.07
490.70	28219.84
490.88	28603.69
491.06	29167.76
491.24	28964.13
491.41	29144.35
491.59	29593.73
491.77	29661.61
491.95	29521.18
492.13	29930.77
492.30	30321.64
492.48	30216.32
492.66	30368.45
492.84	30733.57
493.01	30892.73
493.19	30586.12
493.37	31332.75
493.54	31440.42
493.72	31960.02
493.90	31864.05
494.08	32072.36
494.25	32566.21
494.43	32196.41
494.61	32589.62
494.79	32844.74
494.96	32954.74
495.14	33275.40
495.32	33764.57
495.49	33635.84
495.67	33160.71
495.85	33947.13
496.02	34242.04
496.20	34103.95
496.38	34174.16
496.55	34426.94
496.73	35117.40
496.91	34532.26
497.09	35014.41
497.26	35182.93
497.44	35213.36
497.62	35365.49
497.79	35885.09
497.97	35978.72
498.14	36577.89
498.32	36608.32
498.50	36617.68
498.67	37104.51
498.85	36641.09
499.03	37212.18
499.20	37078.77
499.38	36982.80
499.56	37209.84
499.73	37525.81
499.91	37675.60
500.08	37867.53
500.26	37790.29
500.44	38026.68
500.61	38181.16
500.79	38162.43
500.97	38778.00
501.14	39236.74
501.32	38988.64
501.49	38958.22
501.67	38855.23
501.84	39180.57
502.02	39203.97
502.20	39683.78
502.37	39578.46
502.55	39576.12
502.72	39805.49
502.90	39983.37
503.07	39784.43
503.25	40247.85
503.43	40208.06
503.60	40437.44
503.78	40781.49
503.95	40580.21
504.13	40741.71
504.30	40849.37
504.48	41151.30
504.65	41015.55
504.83	41247.26
505.01	41471.95
505.18	41516.42
505.36	41825.37
505.53	41694.30
505.71	41907.29
505.88	42115.60
506.06	42021.98
506.23	42726.48
506.41	42335.61
506.58	42506.47
506.76	42649.24
506.93	43157.14
507.11	42443.27
507.28	42689.03
507.46	42988.62
507.63	43452.05
507.81	43763.34
507.98	43166.50
508.16	43290.55
508.33	44123.78
508.50	44130.80
508.68	43695.46
508.85	44194.00
509.03	43927.17
509.20	44535.71
509.38	44463.16
509.55	45275.32
509.73	45116.17
509.90	44978.07
510.08	44863.39
510.25	45062.33
510.42	45069.36
510.60	45481.29
510.77	44942.97
510.95	45862.80
511.12	45525.76
511.30	45329.16
511.47	45954.08
511.64	46342.61
511.82	46637.51
511.99	45963.44
512.17	46300.48
512.34	46560.28
512.51	46560.28
512.69	46761.56
512.86	47136.05
513.04	47119.66
513.21	46920.72
513.38	46958.17
513.56	47253.08
513.73	46710.07
513.90	47625.22
514.08	47185.20
514.25	47573.73
514.43	47667.35
514.60	47629.90
514.77	47896.72
514.95	48168.22
515.12	47770.33
515.29	48055.88
515.47	48062.90
515.64	48292.27
515.81	48289.93
515.99	48392.92
516.16	48533.35
516.33	48924.22
516.51	48851.66
516.68	48910.17
516.85	49069.33
517.03	49214.44
517.20	48931.24
517.37	49223.81
517.54	49638.08
517.72	49235.51
517.89	49228.49
518.06	49806.60
518.24	49492.97
518.41	49242.53
518.58	49755.11
518.75	49586.59
518.93	50000.86
519.10	49787.88
519.27	50038.31
519.45	50050.02
519.62	50305.13
519.79	49970.44
519.96	50185.77
520.14	50408.12
520.31	50244.28
520.48	50876.22
520.65	50810.69
520.83	51138.36
521.00	50969.85
521.17	50548.55
521.34	50763.88
521.52	51114.96
521.69	51217.94
521.86	51442.63
522.03	51569.02
522.20	51718.82
522.38	51950.53
522.55	51695.41
522.72	51812.44
522.89	51559.66
523.07	51676.69
523.24	51838.18
523.41	51892.02
523.58	51664.99
523.75	52193.95
523.92	51892.02
524.10	52128.41
524.27	52353.10
524.44	52453.75
524.61	52362.46
524.78	52472.47
524.96	52423.32
525.13	52622.26
525.30	52814.19
525.47	52917.17
525.64	52954.62
525.81	52989.73
525.98	53013.13
526.16	52701.84
526.33	52783.76
526.50	53261.23
526.67	53226.12
526.84	53422.73
527.01	52985.05
527.18	53361.87
527.36	53366.55
527.53	53216.76
527.70	53717.64
527.87	53581.88
528.04	53738.70
528.21	53799.55
528.38	53670.82
528.55	53787.85
528.72	53956.37
528.89	53577.20
529.07	53738.70
529.24	53734.02
529.41	53841.68
529.58	54157.66
529.75	54157.66
529.92	53872.11
530.09	54284.04
530.26	54164.68
530.43	54152.97
530.60	54129.57
530.77	54354.26
530.94	54410.43
531.11	54356.60
531.28	54333.20
531.46	54419.80
531.63	54766.20
531.80	54553.21
531.97	54857.48
532.14	54646.83
532.31	54691.30
532.48	54801.30
532.65	54972.16
532.82	54831.73
532.99	54880.88
533.16	54710.02
533.33	55292.82
533.50	55061.10
533.67	55079.83
533.84	54918.33
534.01	55138.34
534.18	55227.28
534.35	55402.82
534.52	55327.92
534.69	55210.90
534.86	55498.78
535.03	55267.07
535.20	55709.43
535.37	55409.84
535.54	55552.62
535.71	55557.30
535.88	55800.71
536.05	55674.32
536.22	55863.91
536.38	55899.01
536.55	55812.41
536.72	55999.66
536.89	55770.28
537.06	56058.17
537.23	56102.64
537.40	55880.29
537.57	55941.14
537.74	55852.20
537.91	56357.76
538.08	56226.69
538.25	55973.91
538.42	56294.56
538.59	56545.00
538.75	56313.29
538.92	56324.99
539.09	56577.77
539.26	56411.59
539.43	56378.82
539.60	56540.32
539.77	56275.84
539.94	56589.47
540.11	56530.96
540.28	56966.30
540.44	56584.79
540.61	56743.95
540.78	56530.96
540.95	56818.84
541.12	56671.39
541.29	56666.71
541.46	56818.84
541.62	57090.35
541.79	56992.04
541.96	56552.02
542.13	56828.21
542.30	56882.04
542.47	57123.11
542.63	57160.56
542.80	57127.80
542.97	57378.23
543.14	57364.19
543.31	57392.28
543.48	57329.08
543.64	57640.37
543.81	57701.23
543.98	57476.54
544.15	57511.64
544.32	57712.93
544.48	57577.18
544.65	57551.43
544.82	57724.63
544.99	57668.46
545.16	57801.87
545.32	57460.15
545.49	57764.42
545.66	57867.40
545.83	57832.30
546.00	57986.77
546.16	58089.76
546.33	57963.37
546.50	57680.16
546.67	57865.06
546.83	57748.04
547.00	57951.66
547.17	58136.57
547.34	57958.69
547.50	58183.38
547.67	58316.79
547.84	58354.24
548.00	58291.04
548.17	58365.94
548.34	58120.18
548.51	58433.81
548.67	58550.84
548.84	58525.10
549.01	58269.98
549.18	58277.00
549.34	58581.27
549.51	58564.88
549.68	58808.30
549.84	58541.48
550.01	58518.07
550.18	58536.80
550.34	58588.29
550.51	58487.65
550.68	58639.78
550.84	58705.32
551.01	58710.00
551.18	58665.53
551.34	59140.66
551.51	58735.74
551.68	58693.61
551.84	58796.60
552.01	58747.45
552.18	59030.65
552.34	58801.28
552.51	59082.14
552.68	58827.02
552.84	59035.33
553.01	59330.24
553.18	59100.87
553.34	58915.96
553.51	58974.48
553.67	58969.80
553.84	59143.00
554.01	59224.92
554.17	59175.76
554.34	59241.30
554.51	59236.62
554.67	59196.83
554.84	59180.45
555.00	59196.83
555.17	59229.60
555.33	59187.47
555.50	59171.08
555.67	59227.26
555.83	59253.00
556.00	59348.96
556.16	59592.38
556.33	59400.46
556.50	59629.83
556.66	59608.76
556.83	59398.12
556.99	59683.66
557.16	59702.38
557.32	59444.93
557.49	59788.98
557.65	59540.89
557.82	59447.27
557.98	59639.19
558.15	59721.11
558.32	59688.34
558.48	59583.02
558.65	59531.53
558.81	59681.32
558.98	59753.88
559.14	59751.54
559.31	59901.33
559.47	59957.50
559.64	60011.34
559.80	59730.47
559.97	60058.15
560.13	59817.07
560.30	59957.50
560.46	59903.67
560.63	59859.20
560.79	60074.53
560.96	59934.10
561.12	60074.53
561.29	60104.96
561.45	60123.68
561.61	60109.64
561.78	60060.49
561.94	60191.56
562.11	59936.44
562.27	60301.56
562.44	60158.79
562.60	60240.71
562.77	60186.88
562.93	60186.88
563.10	60479.44
563.26	60016.02
563.42	60472.42
563.59	60264.11
563.75	60285.18
563.92	60182.19
564.08	60142.41
564.24	60252.41
564.41	60299.22
564.57	60341.35
564.74	60374.12
564.90	60680.73
565.07	60402.21
565.23	60261.77
565.39	60200.92
565.56	60402.21
565.72	60418.59
565.88	60507.53
566.05	60399.86
566.21	60341.35
566.38	60441.99
566.54	60662.00
566.70	60624.56
566.87	60690.09
567.03	60432.63
567.19	60680.73
567.36	60350.71
567.52	60526.25
567.68	60741.58
567.85	60458.38
568.01	60718.18
568.17	60514.55
568.34	60802.44
568.50	60718.18
568.66	60484.12
568.83	60306.24
568.99	60479.44
569.15	60779.03
569.32	60570.72
569.48	60589.45
569.64	60800.10
569.81	60650.30
569.97	60673.71
570.13	60601.15
570.30	60458.38
570.46	60610.51
570.62	60935.85
570.78	60664.35
570.95	60477.10
571.11	60748.60
571.27	60732.22
571.43	60844.57
571.60	60729.88
571.76	60760.31
571.92	60772.01
572.09	60898.40
572.25	60863.29
572.41	60926.49
572.57	60821.16
572.74	61038.83
572.90	60839.89
573.06	60830.52
573.22	60896.06
573.38	60825.84
573.55	60860.95
573.71	61179.26
573.87	60917.12
574.03	60662.00
574.20	60989.68
574.36	60676.05
574.52	61034.15
574.68	60912.44
574.84	61116.07
575.01	60952.23
575.17	60837.54
575.33	60839.89
575.49	60893.72
575.65	61048.19
575.82	60999.04
575.98	61006.06
576.14	61139.47
576.30	61193.31
576.46	61062.24
576.62	60872.65
576.79	61104.37
576.95	60924.14
577.11	61226.07
577.27	61109.05
577.43	60987.34
577.59	60926.49
577.75	61059.90
577.92	60608.17
578.08	61214.37
578.24	60961.59
578.40	60992.02
578.56	61193.31
578.72	61027.13
578.88	61256.50
579.04	61298.63
579.21	61085.64
579.37	61085.64
579.53	61165.22
579.69	60987.34
579.85	61120.75
580.01	61010.74
580.17	61052.87
580.33	61240.12
580.49	61139.47
580.65	61015.43
580.82	61141.81
580.98	61062.24
581.14	60938.19
581.30	61064.58
581.46	61099.68
581.62	61111.39
581.78	60982.66
581.94	61261.18
582.10	61284.59
582.26	61200.33
582.42	61235.44
582.58	61001.38
582.74	61188.63
582.90	61099.68
583.06	61183.94
583.22	60856.27
583.38	61284.59
583.54	61303.31
583.70	61261.18
583.86	61265.86
584.02	61069.26
584.18	61277.57
584.34	61237.78
584.50	61151.18
584.66	61207.35
584.82	61052.87
584.98	61195.65
585.14	61263.52
585.30	61256.50
585.46	61137.13
585.62	61263.52
585.78	61436.72
585.94	61076.28
586.10	61401.61
586.26	61324.38
586.42	61279.91
586.58	61474.17
586.74	61240.12
586.90	61244.80
587.06	61090.32
587.22	61406.30
587.38	61240.12
587.54	61528.00
587.70	61539.71
587.86	61188.63
588.02	61155.86
588.18	61396.93
588.34	61347.78
