SpectraSuite Data File
++++++++++++++++++++++++++++++++++++
Date: Fri Oct 25 10:48:23 EDT 2013
User: price-jones
Dark Spectrum Present: No
Reference Spectrum Present: No
Number of Sampled Component Spectra: 1
Spectrometers: USB2+H05261
Integration Time (usec): 100000 (USB2+H05261)
Spectra Averaged: 1 (USB2+H05261)
Boxcar Smoothing: 0 (USB2+H05261)
Correct for Electrical Dark: No (USB2+H05261)
Strobe/Lamp Enabled: No (USB2+H05261)
Correct for Detector Non-linearity: No (USB2+H05261)
Correct for Stray Light: No (USB2+H05261)
Number of Pixels in Processed Spectrum: 2048
>>>>>Begin Processed Spectral Data<<<<<
365.73	142.77
365.92	142.77
366.12	142.77
366.32	0.00
366.52	49.15
366.72	142.77
366.91	9.36
367.11	35.11
367.31	4.68
367.51	56.17
367.70	56.17
367.90	114.69
368.10	70.22
368.30	11.70
368.49	72.56
368.69	0.00
368.89	16.38
369.09	42.13
369.28	58.51
369.48	74.90
369.68	67.88
369.87	35.11
370.07	147.45
370.27	161.50
370.47	177.88
370.66	395.55
370.86	477.47
371.06	484.49
371.25	421.30
371.45	409.59
371.65	496.19
371.84	421.30
372.04	477.47
372.24	526.62
372.44	465.77
372.63	589.82
372.83	540.66
373.03	599.18
373.22	454.06
373.42	510.24
373.62	606.20
373.81	585.13
374.01	557.05
374.21	608.54
374.40	650.67
374.60	657.69
374.79	547.69
374.99	582.79
375.19	636.63
375.38	615.56
375.58	655.35
375.78	592.16
375.97	608.54
376.17	706.84
376.37	606.20
376.56	664.71
376.76	636.63
376.95	648.33
377.15	704.50
377.35	727.91
377.54	709.18
377.74	648.33
377.93	683.44
378.13	678.76
378.33	629.60
378.52	706.84
378.72	690.46
378.91	763.01
379.11	547.69
379.31	627.26
379.50	697.48
379.70	613.22
379.89	746.63
380.09	709.18
380.28	734.93
380.48	669.39
380.68	758.33
380.87	669.39
381.07	695.14
381.26	737.27
381.46	727.91
381.65	805.14
381.85	758.33
382.04	702.16
382.24	793.44
382.43	760.67
382.63	697.48
382.83	643.65
383.02	765.36
383.22	800.46
383.41	685.78
383.61	741.95
383.80	770.04
384.00	819.19
384.19	774.72
384.39	835.57
384.58	807.48
384.78	849.61
384.97	830.89
385.17	802.80
385.36	809.83
385.56	863.66
385.75	823.87
385.95	821.53
386.14	922.17
386.34	856.64
386.53	828.55
386.72	828.55
386.92	875.36
387.11	889.40
387.31	959.62
387.50	868.34
387.70	833.23
387.89	894.08
388.09	870.68
388.28	884.72
388.48	931.53
388.67	910.47
388.86	1001.75
389.06	992.39
389.25	961.96
389.45	1057.92
389.64	1025.15
389.84	1153.88
390.03	999.41
390.22	1006.43
390.42	1025.15
390.61	1004.09
390.81	959.62
391.00	1053.24
391.19	1046.22
391.39	1053.24
391.58	1128.14
391.78	1100.05
391.97	1076.65
392.16	1039.20
392.36	1071.97
392.55	1025.15
392.75	980.68
392.94	1022.81
393.13	1076.65
393.33	994.73
393.52	1095.37
393.71	1097.71
393.91	1118.78
394.10	1090.69
394.29	1191.33
394.49	1245.16
394.68	1193.67
394.88	1249.85
395.07	1273.25
395.26	1254.53
395.46	1193.67
395.65	1256.87
395.84	1245.16
396.04	1242.82
396.23	1111.75
396.42	1221.76
396.62	1228.78
396.81	1287.29
397.00	1266.23
397.19	1273.25
397.39	1369.21
397.58	1418.36
397.77	1336.45
397.97	1394.96
398.16	1434.75
398.35	1488.58
398.55	1425.39
398.74	1460.49
398.93	1533.05
399.12	1514.33
399.32	1490.92
399.51	1547.09
399.70	1605.61
399.90	1533.05
400.09	1540.07
400.28	1596.25
400.47	1617.31
400.67	1668.80
400.86	1671.14
401.05	1652.42
401.24	1708.59
401.44	1713.27
401.63	1717.95
401.82	1650.08
402.01	1694.55
402.21	1827.96
402.40	1776.47
402.59	1703.91
402.78	1753.06
402.97	1692.21
403.17	1774.13
403.36	1757.74
403.55	1823.28
403.74	1987.11
403.93	1767.10
404.13	1884.13
404.32	1930.94
404.51	1853.70
404.70	1881.79
404.89	1912.22
405.09	1914.56
405.28	1923.92
405.47	1933.28
405.66	1980.09
405.85	1961.37
406.05	1952.01
406.24	1977.75
406.43	1930.94
406.62	2085.42
406.81	2113.50
407.00	2104.14
407.20	2108.82
407.39	1977.75
407.58	2052.65
407.77	2118.18
407.96	2157.97
408.15	2263.30
408.34	2150.95
408.54	2232.87
408.73	2190.74
408.92	2211.81
409.11	2272.66
409.30	2345.22
409.49	2307.77
409.68	2267.98
409.87	2230.53
410.07	2401.39
410.26	2298.41
410.45	2300.75
410.64	2387.35
410.83	2487.99
411.02	2464.58
411.21	2448.20
411.40	2537.14
411.59	2513.74
411.78	2516.08
411.98	2600.34
412.17	2654.17
412.36	2724.38
412.55	2614.38
412.74	2733.75
412.93	2715.02
413.12	2799.28
413.31	2916.31
413.50	2747.79
413.69	2848.43
413.88	2878.86
414.07	2949.08
414.26	2920.99
414.45	2981.84
414.64	2946.73
414.83	2939.71
415.02	3070.78
415.22	3171.43
415.41	3122.27
415.60	3061.42
415.79	3253.34
415.98	3162.06
416.17	3206.53
416.36	3082.49
416.55	3225.26
416.74	3337.60
416.93	3232.28
417.12	3365.69
417.31	3318.88
417.50	3389.10
417.69	3501.44
417.88	3382.07
418.07	3330.58
418.26	3400.80
418.45	3536.55
418.64	3550.59
418.83	3609.11
419.02	3510.80
419.21	3562.30
419.39	3599.74
419.58	3510.80
419.77	3543.57
419.96	3676.98
420.15	3742.52
420.34	3494.42
420.53	3562.30
420.72	3768.26
420.91	3810.39
421.10	3976.57
421.29	3770.60
421.48	3714.43
421.67	3819.75
421.86	3892.31
422.05	3796.35
422.24	3723.79
422.43	3805.71
422.61	3805.71
422.80	3911.04
422.99	3911.04
423.18	3936.78
423.37	3911.04
423.56	3894.65
423.75	4053.81
423.94	3833.80
424.13	3779.97
424.32	3695.71
424.50	3976.57
424.69	4042.11
424.88	3964.87
425.07	3875.93
425.26	3873.59
425.45	3922.74
425.64	3859.54
425.83	3899.33
426.01	4105.30
426.20	3960.19
426.39	4021.04
426.58	3808.05
426.77	3908.69
426.96	4018.70
427.15	3957.85
427.33	4016.36
427.52	4060.83
427.71	4121.68
427.90	4023.38
428.09	4098.28
428.28	4196.58
428.46	4133.39
428.65	4074.87
428.84	4191.90
429.03	4194.24
429.22	4067.85
429.40	4086.58
429.59	4124.02
429.78	3962.53
429.97	3852.52
430.16	3964.87
430.34	4138.07
430.53	4173.18
430.72	4203.60
430.91	4191.90
431.10	4257.43
431.28	4472.76
431.47	4496.17
431.66	4521.92
431.85	4430.63
432.03	4641.28
432.22	4629.58
432.41	4554.68
432.60	4542.98
432.79	4613.20
432.97	4702.14
433.16	4807.46
433.35	4695.11
433.54	4514.89
433.72	4660.01
433.91	4550.00
434.10	4671.71
434.28	4723.20
434.47	4816.82
434.66	4877.68
434.85	4800.44
435.03	4924.49
435.22	4807.46
435.41	5093.01
435.59	4973.64
435.78	5146.84
435.97	5130.45
436.16	5076.62
436.34	5076.62
436.53	5095.35
436.72	5172.58
436.90	5062.58
437.09	5128.11
437.28	5029.81
437.46	5181.95
437.65	5083.64
437.84	5305.99
438.02	5039.17
438.21	5123.43
438.40	5043.85
438.58	5273.23
438.77	5308.34
438.96	5406.64
439.14	5404.30
439.33	5547.07
439.52	5605.58
439.70	5659.42
439.89	5596.22
440.08	5675.80
440.26	5572.82
440.45	5771.76
440.63	5607.92
440.82	5989.43
441.01	5724.95
441.19	5858.36
441.38	5926.24
441.57	6164.97
441.75	6237.53
441.94	6272.64
442.12	6239.87
442.31	6345.19
442.50	6377.96
442.68	6345.19
442.87	6246.89
443.05	6389.66
443.24	6509.03
443.43	6401.37
443.61	6567.54
443.80	6525.41
443.98	6223.48
444.17	5984.75
444.35	6356.90
444.54	6590.95
444.73	6356.90
444.91	6607.33
445.10	6614.35
445.28	6516.05
445.47	6366.26
445.65	6415.41
445.84	6464.56
446.02	6490.31
446.21	6352.21
446.39	6590.95
446.58	6604.99
446.77	6619.04
446.95	6607.33
447.14	6450.52
447.32	6848.41
447.51	6724.36
447.69	6654.14
447.88	6619.04
448.06	6794.58
448.25	6764.15
448.43	6616.69
448.62	6675.21
448.80	6740.74
448.99	6717.34
449.17	6796.92
449.36	6731.38
449.54	6871.81
449.73	7042.67
449.91	7063.74
450.10	7047.35
450.28	7155.02
450.46	7105.87
450.65	7309.49
450.83	7220.55
451.02	7318.86
451.20	7140.97
451.39	7164.38
451.57	7108.21
451.76	7089.48
451.94	7218.21
452.13	7213.53
452.31	7234.60
452.49	6998.20
452.68	7094.16
452.86	7222.89
453.05	7279.07
453.23	7363.33
453.42	7293.11
453.60	7098.84
453.78	7337.58
453.97	7297.79
454.15	7318.86
454.34	7288.43
454.52	7442.90
454.70	7517.80
454.89	7681.64
455.07	7412.48
455.26	7541.21
455.44	7824.41
455.62	7726.11
455.81	7667.60
455.99	7693.34
456.17	7723.77
456.36	7758.88
456.54	7861.86
456.73	7934.42
456.91	8037.40
457.09	8180.17
457.28	8039.74
457.46	7894.63
457.64	8257.41
457.83	7992.93
458.01	7880.58
458.19	8226.98
458.38	8234.00
458.56	8187.19
458.74	8182.51
458.93	8184.85
459.11	8198.90
459.29	8196.56
459.48	8259.75
459.66	8376.78
459.84	8294.86
460.03	8545.30
460.21	8421.25
460.39	8458.70
460.57	8404.86
460.76	8514.87
460.94	8517.21
461.12	8596.79
461.31	8657.64
461.49	8599.13
461.67	8461.04
461.85	8844.88
462.04	8748.92
462.22	9205.33
462.40	8755.94
462.59	8858.93
462.77	8844.88
462.95	8891.70
463.13	8800.41
463.32	8872.97
463.50	8987.66
463.68	8884.67
463.86	8805.10
464.05	8814.46
464.23	8978.30
464.41	9165.54
464.59	8720.84
464.78	9284.91
464.96	9275.54
465.14	9156.18
465.32	9088.30
465.50	9221.71
465.69	9270.86
465.87	9245.12
466.05	9359.80
466.23	9111.71
466.41	9057.87
466.60	9310.65
466.78	9046.17
466.96	9174.90
467.14	9298.95
467.32	9111.71
467.51	9394.91
467.69	9270.86
467.87	9371.50
468.05	9376.19
468.23	9315.33
468.41	9329.38
468.60	9472.15
468.78	9334.06
468.96	9523.64
469.14	9640.67
469.32	9755.35
469.50	9504.92
469.69	9895.78
469.87	9879.40
470.05	9762.37
470.23	10071.33
470.41	9767.06
470.59	9991.75
470.77	9858.34
470.95	9930.89
471.14	10036.22
471.32	10017.49
471.50	10104.09
471.68	10265.59
471.86	10237.50
472.04	10401.34
472.22	10483.26
472.40	10181.33
472.58	10567.52
472.77	10656.46
472.95	10469.22
473.13	10740.72
473.31	10450.49
473.49	10501.98
473.67	10509.01
473.85	10665.82
474.03	11044.99
474.21	10822.64
474.39	11082.44
474.57	10988.82
474.75	11157.33
474.93	10981.79
475.12	11110.52
475.30	11499.05
475.48	11140.95
475.66	11351.60
475.84	11229.89
476.02	11389.05
476.20	11372.66
476.38	11564.59
476.56	11866.52
476.74	11859.49
476.92	11641.82
477.10	11756.51
477.28	12009.29
477.46	12154.40
477.64	12400.16
477.82	12409.52
478.00	12599.10
478.18	12489.10
478.36	12439.95
478.54	12671.66
478.72	12734.85
478.90	12709.11
479.08	12968.91
479.26	12961.89
479.44	13090.62
479.62	13092.96
479.80	13191.26
479.98	13364.46
480.16	13631.28
480.34	13673.41
480.52	13710.86
480.70	13760.01
480.88	13575.11
481.06	13818.52
481.24	13729.58
481.41	14083.00
481.59	14420.04
481.77	14347.48
481.95	14368.55
482.13	14492.60
482.31	14567.49
482.49	14916.23
482.67	14513.66
482.85	14846.02
483.03	15021.56
483.21	15131.56
483.39	15543.50
483.57	15431.15
483.74	15410.09
483.92	15583.29
484.10	15386.68
484.28	15796.28
484.46	15833.72
484.64	16271.40
484.82	16233.96
485.00	16229.27
485.18	16493.76
485.35	16217.57
485.53	15934.37
485.71	16219.91
485.89	16554.61
486.07	16629.51
486.25	16706.74
486.43	16903.35
486.61	16901.01
486.78	17186.55
486.96	17153.79
487.14	17830.20
487.32	17572.74
487.50	17731.90
487.68	17991.70
487.85	18101.70
488.03	18434.06
488.21	18661.09
488.39	18658.75
488.57	18757.05
488.75	18778.12
488.92	18838.97
489.10	19157.28
489.28	19124.52
489.46	19749.44
489.64	19524.75
489.81	20109.88
489.99	19936.68
490.17	19974.13
490.35	20346.28
490.53	20027.96
490.70	20273.72
490.88	20283.08
491.06	20627.14
491.24	20816.72
491.41	20673.95
491.59	20585.01
491.77	21029.71
491.95	21020.35
492.13	21095.25
492.30	21249.72
492.48	21869.97
492.66	21642.93
492.84	21635.91
493.01	22022.10
493.19	21937.84
493.37	22345.09
493.54	22221.05
493.72	22677.45
493.90	22672.77
494.08	22857.67
494.25	23243.86
494.43	23183.01
494.61	22998.10
494.79	23274.29
494.96	23075.34
495.14	23536.43
495.32	23814.95
495.49	23349.18
495.67	23534.09
495.85	23906.23
496.02	24034.96
496.20	24273.70
496.38	24182.42
496.55	24568.60
496.73	25156.08
496.91	24610.73
497.09	24929.05
497.26	24943.09
497.44	24802.66
497.62	25088.20
497.79	25289.49
497.97	24938.41
498.14	25610.14
498.32	25235.66
498.50	25387.79
498.67	26038.46
498.85	26139.10
499.03	26143.78
499.20	26129.74
499.38	26441.03
499.56	26101.65
499.73	26511.25
499.91	26675.09
500.08	26689.13
500.26	26415.29
500.44	26572.10
500.61	26651.68
500.79	26764.03
500.97	26808.50
501.14	27229.79
501.32	27110.43
501.49	27222.77
501.67	27370.22
501.84	27232.13
502.02	27264.90
502.20	27728.33
502.37	27583.21
502.55	27854.72
502.72	27758.75
502.90	28102.81
503.07	28060.68
503.25	27845.35
503.43	28025.57
503.60	28531.13
503.78	28203.46
503.95	28334.53
504.13	28079.41
504.30	28706.67
504.48	28893.91
504.65	28755.82
504.83	29067.11
505.01	29069.45
505.18	29139.67
505.36	29373.72
505.53	29139.67
505.71	29551.60
505.88	29465.00
506.06	29191.16
506.23	29647.57
506.41	29036.69
506.58	29912.05
506.76	29642.88
506.93	30319.30
507.11	29947.15
507.28	30356.75
507.46	29736.51
507.63	30094.61
507.81	30382.49
507.98	30015.03
508.16	30749.96
508.33	30206.95
508.50	31037.84
508.68	31037.84
508.85	30906.77
509.03	31278.92
509.20	31220.41
509.38	31402.97
509.55	31290.62
509.73	31292.96
509.90	31751.71
510.08	31480.21
510.25	31597.23
510.42	31562.12
510.60	32060.66
510.77	31964.70
510.95	32116.83
511.12	31945.97
511.30	31938.95
511.47	32470.25
511.64	32414.08
511.82	32416.42
511.99	32348.54
512.17	32650.47
512.34	32449.19
512.51	32645.79
512.69	32966.45
512.86	32566.21
513.04	32943.04
513.21	32603.66
513.38	32886.87
513.56	32804.95
513.73	33081.13
513.90	33034.32
514.08	32718.35
514.25	33331.57
514.43	33216.88
514.60	33156.03
514.77	33212.20
514.95	33593.71
515.12	33614.77
515.29	33795.00
515.47	33921.38
515.64	34216.29
515.81	33635.84
515.99	34043.09
516.16	34204.59
516.33	33993.94
516.51	33790.31
516.68	33661.58
516.85	33787.97
517.03	33965.85
517.20	33961.17
517.37	34284.17
517.54	34127.35
517.72	34494.82
517.89	34326.30
518.06	34237.36
518.24	34099.26
518.41	34338.00
518.58	34553.33
518.75	34618.86
518.93	34948.88
519.10	35199.32
519.27	35086.97
519.45	34522.90
519.62	35187.61
519.79	35611.25
519.96	35463.80
520.14	35662.74
520.31	35297.62
520.48	35711.89
520.65	35440.39
520.83	35920.20
521.00	36039.57
521.17	35718.92
521.34	35842.96
521.52	36341.50
521.69	36601.30
521.86	36627.04
522.03	36116.81
522.20	36411.71
522.38	36596.62
522.55	36896.20
522.72	36566.19
522.89	36432.78
523.07	36833.01
523.24	36575.55
523.41	37020.25
523.58	37010.89
523.75	37104.51
523.92	36940.68
524.10	37481.34
524.27	37275.37
524.44	37558.58
524.61	37230.90
524.78	37394.74
524.96	37247.29
525.13	37357.29
525.30	37972.85
525.47	38171.80
525.64	37963.49
525.81	37399.42
525.98	37846.46
526.16	37179.41
526.33	37378.36
526.50	37998.60
526.67	37429.85
526.84	37354.95
527.01	37729.44
527.18	37764.54
527.36	38307.55
527.53	38562.67
527.70	38965.24
527.87	38555.64
528.04	38473.73
528.21	38562.67
528.38	38759.27
528.55	38937.15
528.72	38951.20
528.89	39115.03
529.07	38724.16
529.24	38726.50
529.41	39103.33
529.58	38972.26
529.75	39044.82
529.92	39431.01
530.09	39360.79
530.26	39367.81
530.43	39447.39
530.60	38934.81
530.77	39089.29
530.94	39660.38
531.11	39674.42
531.28	39526.97
531.46	39744.64
531.63	39725.91
531.80	39196.95
531.97	39749.32
532.14	39398.24
532.31	39339.72
532.48	39807.83
532.65	39852.30
532.82	40037.20
532.99	40350.84
533.16	39634.63
533.33	40397.65
533.50	40231.47
533.67	40402.33
533.84	40135.51
534.01	40266.58
534.18	40011.46
534.35	40416.37
534.52	40203.38
534.69	40423.39
534.86	40622.34
535.03	40713.62
535.20	40926.61
535.37	40884.48
535.54	40882.14
535.71	40849.37
535.88	41137.26
536.05	40594.25
536.22	41006.19
536.38	40821.28
536.55	40744.05
536.72	41060.02
536.89	41010.87
537.06	40863.41
537.23	41027.25
537.40	40985.12
537.57	41427.48
537.74	41258.96
537.91	41710.69
538.08	41844.10
538.25	41242.58
538.42	41230.88
538.59	41755.16
538.75	40769.79
538.92	41619.41
539.09	41478.97
539.26	41455.57
539.43	41361.95
539.60	42188.16
539.77	41565.57
539.94	41773.88
540.11	41432.16
540.28	41361.95
540.44	41689.62
540.61	41607.70
540.78	41572.60
540.95	41724.73
541.12	41710.69
541.29	41834.74
541.46	42012.62
541.62	42209.22
541.79	42110.92
541.96	41759.84
542.13	41867.50
542.30	42398.80
542.47	42258.37
542.63	41949.42
542.80	42424.55
542.97	42836.48
543.14	43042.45
543.31	42674.99
543.48	42792.01
543.64	43262.46
543.81	43213.31
543.98	43246.08
544.15	42831.80
544.32	42543.92
544.48	43648.65
544.65	42752.23
544.82	43435.66
544.99	42504.13
545.16	43278.85
545.32	43089.26
545.49	43466.09
545.66	43491.83
545.83	43278.85
546.00	43695.46
546.16	43208.63
546.33	43014.37
546.50	42693.71
546.67	43784.40
546.83	43100.97
547.00	43243.74
547.17	44030.16
547.34	43920.15
547.50	43796.10
547.67	44163.57
547.84	43400.55
548.00	43938.88
548.17	44189.31
548.34	43335.02
548.51	44299.32
548.67	43924.83
548.84	44397.62
549.01	43896.75
549.18	44016.11
549.34	44350.81
549.51	44210.38
549.68	44062.93
549.84	44165.91
550.01	44245.49
550.18	43943.56
550.34	44004.41
550.51	44065.27
550.68	43983.35
550.84	43929.51
551.01	44416.35
551.18	44566.14
551.34	43866.32
551.51	44418.69
551.68	44556.78
551.84	44715.93
552.01	44531.03
552.18	44238.47
552.34	44287.62
552.51	44774.45
552.68	44137.82
552.84	44938.29
553.01	45240.21
553.18	44524.01
553.34	44814.24
553.51	44596.57
553.67	44451.45
553.84	44758.06
554.01	45378.31
554.17	45059.99
554.34	45062.33
554.51	44971.05
554.67	44910.20
554.84	44987.44
555.00	44971.05
555.17	45071.70
555.33	44992.12
555.50	44708.91
555.67	44877.43
555.83	44999.14
556.00	45492.99
556.16	45174.68
556.33	45392.35
556.50	45106.80
556.66	45137.23
556.83	45034.25
556.99	45296.39
557.16	45284.68
557.32	45338.52
557.49	45067.02
557.65	45310.43
557.82	45074.04
557.98	45272.98
558.15	44954.67
558.32	45268.30
558.48	45052.97
558.65	45312.77
558.81	45198.09
558.98	45530.44
559.14	45516.40
559.31	45340.86
559.47	45614.70
559.64	45890.88
559.80	45572.57
559.97	45778.54
560.13	45261.28
560.30	45783.22
560.46	45682.58
560.63	45371.28
560.79	45434.48
560.96	46000.89
561.12	45942.38
561.29	45907.27
561.45	45673.21
561.61	46024.29
561.78	45687.26
561.94	45652.15
562.11	45890.88
562.27	45883.86
562.44	45755.13
562.60	45844.07
562.77	46012.59
562.93	45968.12
563.10	45991.53
563.26	45478.95
563.42	46108.55
563.59	46019.61
563.75	46089.83
563.92	45895.56
564.08	45968.12
564.24	45757.47
564.41	46110.89
564.57	46433.89
564.74	46377.72
564.90	45876.84
565.07	46117.92
565.23	46213.88
565.39	46162.39
565.56	46036.00
565.72	46183.45
565.88	46096.85
566.05	46457.29
566.21	45848.75
566.38	46314.52
566.54	46162.39
566.70	46597.73
566.87	46873.91
567.03	46211.54
567.19	46295.80
567.36	46642.20
567.52	45869.82
567.68	46838.80
567.85	46162.39
568.01	45947.06
568.17	45977.48
568.34	46410.48
568.50	45879.18
568.66	45996.21
568.83	46047.70
568.99	45687.26
569.15	45993.87
569.32	45942.38
569.48	46157.70
569.64	46574.32
569.81	46607.09
569.97	46171.75
570.13	46223.24
570.30	46251.33
570.46	45827.69
570.62	45914.29
570.78	45933.01
570.95	46024.29
571.11	45977.48
571.27	46281.75
571.43	46216.22
571.60	46043.02
571.76	46302.82
571.92	46380.06
572.09	46461.97
572.25	46295.80
572.41	46539.21
572.57	46366.01
572.74	46904.34
572.90	46562.62
573.06	46363.67
573.22	46660.92
573.38	46382.40
573.55	45879.18
573.71	46506.44
573.87	46148.34
574.03	46183.45
574.20	46188.13
574.36	46440.91
574.52	46569.64
574.68	46457.29
574.84	46340.27
575.01	46665.60
575.17	46937.10
575.33	46480.70
575.49	46019.61
575.65	46679.64
575.82	46639.86
575.98	46696.03
576.14	46843.48
576.30	46902.00
576.46	46237.28
576.62	46717.09
576.79	46649.22
576.95	45876.84
577.11	46209.20
577.27	46192.81
577.43	46384.74
577.59	46476.02
577.75	46138.98
577.92	46160.05
578.08	46162.39
578.24	45813.65
578.40	46438.57
578.56	46534.53
578.72	46143.66
578.88	46546.23
579.04	46583.68
579.21	46459.63
579.37	46415.16
579.53	46363.67
579.69	46164.73
579.85	46574.32
580.01	46382.40
580.17	46948.81
580.33	46993.28
580.49	46752.20
580.65	46927.74
580.82	46604.75
580.98	46302.82
581.14	46263.03
581.30	46478.36
581.46	46155.36
581.62	46679.64
581.78	46579.00
581.94	46749.86
582.10	46567.30
582.26	46806.03
582.42	46916.04
582.58	46890.29
582.74	46525.17
582.90	46614.11
583.06	47035.41
583.22	46721.77
583.38	46906.68
583.54	46770.93
583.70	46635.17
583.86	46717.09
584.02	46199.83
584.18	46763.90
584.34	46749.86
584.50	46810.71
584.66	46597.73
584.82	46497.08
584.98	46579.00
585.14	46452.61
585.30	46433.89
585.46	46665.60
585.62	46686.67
585.78	46419.84
585.94	46131.96
586.10	46506.44
586.26	46466.66
586.42	46415.16
586.58	47065.83
586.74	46539.21
586.90	46747.52
587.06	46351.97
587.22	46422.19
587.38	46480.70
587.54	46885.61
587.70	46920.72
587.86	46604.75
588.02	46611.77
588.18	46511.13
588.34	46314.52
588.49	46431.55
588.65	46155.36
588.81	46314.52
588.97	46733.48
589.13	46288.77
589.29	46124.94
589.45	46319.20
589.61	46777.95
589.77	46674.96
589.93	46871.57
