SpectraSuite Data File
++++++++++++++++++++++++++++++++++++
Date: Fri Oct 25 11:33:10 EDT 2013
User: price-jones
Dark Spectrum Present: No
Reference Spectrum Present: No
Number of Sampled Component Spectra: 1
Spectrometers: USB2+H05261
Integration Time (usec): 100000 (USB2+H05261)
Spectra Averaged: 1 (USB2+H05261)
Boxcar Smoothing: 0 (USB2+H05261)
Correct for Electrical Dark: No (USB2+H05261)
Strobe/Lamp Enabled: No (USB2+H05261)
Correct for Detector Non-linearity: No (USB2+H05261)
Correct for Stray Light: No (USB2+H05261)
Number of Pixels in Processed Spectrum: 2048
>>>>>Begin Processed Spectral Data<<<<<
365.73	294.91
365.92	294.91
366.12	294.91
366.32	252.78
366.52	208.31
366.72	189.58
366.91	168.52
367.11	175.54
367.31	220.01
367.51	156.82
367.70	121.71
367.90	166.18
368.10	203.63
368.30	175.54
368.49	180.22
368.69	189.58
368.89	224.69
369.09	243.42
369.28	168.52
369.48	191.92
369.68	229.37
369.87	227.03
370.07	269.16
370.27	229.37
370.47	278.52
370.66	475.13
370.86	521.94
371.06	491.51
371.25	552.37
371.45	568.75
371.65	557.05
371.84	543.00
372.04	566.41
372.24	554.71
372.44	601.52
372.63	601.52
372.83	589.82
373.03	622.58
373.22	571.09
373.42	638.97
373.62	638.97
373.81	662.37
374.01	688.12
374.21	671.73
374.40	704.50
374.60	697.48
374.79	599.18
374.99	681.10
375.19	585.13
375.38	660.03
375.58	559.39
375.78	648.33
375.97	699.82
376.17	692.80
376.37	709.18
376.56	615.56
376.76	601.52
376.95	669.39
377.15	678.76
377.35	697.48
377.54	704.50
377.74	770.04
377.93	636.63
378.13	695.14
378.33	716.20
378.52	732.59
378.72	692.80
378.91	748.97
379.11	788.76
379.31	695.14
379.50	699.82
379.70	791.10
379.89	784.08
380.09	706.84
380.28	758.33
380.48	823.87
380.68	739.61
380.87	741.95
381.07	924.51
381.26	821.53
381.46	819.19
381.65	760.67
381.85	704.50
382.04	812.17
382.24	755.99
382.43	725.57
382.63	774.72
382.83	772.38
383.02	755.99
383.22	793.44
383.41	753.65
383.61	826.21
383.80	805.14
384.00	863.66
384.19	842.59
384.39	819.19
384.58	725.57
384.78	805.14
384.97	842.59
385.17	894.08
385.36	805.14
385.56	779.40
385.75	795.78
385.95	877.70
386.14	851.96
386.34	915.15
386.53	880.04
386.72	898.77
386.92	866.00
387.11	828.55
387.31	858.98
387.50	870.68
387.70	851.96
387.89	854.30
388.09	847.27
388.28	889.40
388.48	891.74
388.67	964.30
388.86	957.28
389.06	926.85
389.25	1015.79
389.45	1036.86
389.64	964.30
389.84	947.92
390.03	1050.90
390.22	994.73
390.42	931.53
390.61	971.32
390.81	1001.75
391.00	997.07
391.19	1015.79
391.39	945.58
391.58	1015.79
391.78	1001.75
391.97	1055.58
392.16	964.30
392.36	1025.15
392.55	997.07
392.75	1034.52
392.94	1069.62
393.13	1036.86
393.33	1013.45
393.52	1121.12
393.71	1088.35
393.91	1041.54
394.10	1090.69
394.29	1071.97
394.49	1128.14
394.68	1181.97
394.88	1100.05
395.07	1146.86
395.26	1107.07
395.46	1114.10
395.65	1163.25
395.84	1151.54
396.04	1217.08
396.23	1142.18
396.42	1160.91
396.62	1205.38
396.81	1177.29
397.00	1270.91
397.19	1238.14
397.39	1261.55
397.58	1203.04
397.77	1254.53
397.97	1249.85
398.16	1245.16
398.35	1254.53
398.55	1289.64
398.74	1331.76
398.93	1399.64
399.12	1385.60
399.32	1238.14
399.51	1364.53
399.70	1327.08
399.90	1261.55
400.09	1469.86
400.28	1348.15
400.47	1315.38
400.67	1451.13
400.86	1420.71
401.05	1404.32
401.24	1451.13
401.44	1493.26
401.63	1411.34
401.82	1516.67
402.01	1448.79
402.21	1446.45
402.40	1465.18
402.59	1472.20
402.78	1462.83
402.97	1488.58
403.17	1497.94
403.36	1577.52
403.55	1544.75
403.74	1603.27
403.93	1682.85
404.13	1570.50
404.32	1612.63
404.51	1605.61
404.70	1617.31
404.89	1579.86
405.09	1755.40
405.28	1685.19
405.47	1654.76
405.66	1774.13
405.85	1654.76
406.05	1650.08
406.24	1774.13
406.43	1739.02
406.62	1732.00
406.81	1827.96
407.00	1893.49
407.20	1802.21
407.39	1804.55
407.58	1849.02
407.77	1795.19
407.96	1839.66
408.15	1849.02
408.34	1877.11
408.54	1912.22
408.73	1900.52
408.92	1867.75
409.11	1984.77
409.30	1933.28
409.49	1991.80
409.68	2076.06
409.87	1947.33
410.07	2050.31
410.26	1956.69
410.45	2008.18
410.64	2036.27
410.83	2101.80
411.02	2078.40
411.21	2228.19
411.40	2155.63
411.59	2237.55
411.78	2101.80
411.98	2207.13
412.17	2232.87
412.36	2232.87
412.55	2408.41
412.74	2356.92
412.93	2366.28
413.12	2394.37
413.31	2399.05
413.50	2366.28
413.69	2520.76
413.88	2476.29
414.07	2429.48
414.26	2506.71
414.45	2562.89
414.64	2429.48
414.83	2506.71
415.02	2635.44
415.22	2544.16
415.41	2651.83
415.60	2562.89
415.79	2663.53
415.98	2672.89
416.17	2799.28
416.36	2661.19
416.55	2724.38
416.74	2834.39
416.93	2827.37
417.12	2925.67
417.31	2864.82
417.50	2857.79
417.69	2946.73
417.88	2965.46
418.07	2953.76
418.26	3026.31
418.45	2944.39
418.64	3229.94
418.83	3063.76
419.02	3103.55
419.21	3185.47
419.39	3183.13
419.58	3002.91
419.77	3045.04
419.96	3119.93
420.15	3276.75
420.34	3251.00
420.53	3300.16
420.72	3241.64
420.91	3248.66
421.10	3187.81
421.29	3405.48
421.48	3262.71
421.67	3290.79
421.86	3311.86
422.05	3297.81
422.24	3475.70
422.43	3375.05
422.61	3318.88
422.80	3391.44
422.99	3342.28
423.18	3332.92
423.37	3604.42
423.56	3253.34
423.75	3501.44
423.94	3389.10
424.13	3162.06
424.32	3279.09
424.50	3517.83
424.69	3648.90
424.88	3508.46
425.07	3363.35
425.26	3288.45
425.45	3475.70
425.64	3559.95
425.83	3435.91
426.01	3562.30
426.20	3515.48
426.39	3548.25
426.58	3400.80
426.77	3522.51
426.96	3499.10
427.15	3463.99
427.33	3520.17
427.52	3623.15
427.71	3716.77
427.90	3555.27
428.09	3536.55
428.28	3808.05
428.46	3702.73
428.65	3698.05
428.84	3786.99
429.03	3786.99
429.22	3868.91
429.40	3763.58
429.59	3812.73
429.78	3644.21
429.97	3707.41
430.16	3925.08
430.34	3845.50
430.53	3789.33
430.72	3784.65
430.91	3758.90
431.10	3758.90
431.28	3908.69
431.47	3985.93
431.66	3955.51
431.85	3932.10
432.03	4042.11
432.22	4072.53
432.41	3995.29
432.60	4011.68
432.79	4161.47
432.97	4208.28
433.16	4142.75
433.35	4175.52
433.54	4149.77
433.72	4243.39
433.91	4191.90
434.10	4311.27
434.28	4205.94
434.47	4215.30
434.66	4196.58
434.85	4311.27
435.03	4334.67
435.22	4346.37
435.41	4428.29
435.59	4449.36
435.78	4425.95
435.97	4475.10
436.16	4503.19
436.34	4528.94
436.53	4367.44
436.72	4608.51
436.90	4496.17
437.09	4599.15
437.28	4482.13
437.46	4587.45
437.65	4538.30
437.84	4652.98
438.02	4645.96
438.21	4662.35
438.40	4641.28
438.58	4746.61
438.77	4716.18
438.96	4718.52
439.14	4800.44
439.33	5004.07
439.52	4957.25
439.70	4830.87
439.89	5071.94
440.08	4938.53
440.26	4863.63
440.45	5013.43
440.63	5032.15
440.82	5327.06
441.01	5273.23
441.19	5352.81
441.38	5406.64
441.57	5268.55
441.75	5455.79
441.94	5350.46
442.12	5322.38
442.31	5458.13
442.50	5598.56
442.68	5451.11
442.87	5439.40
443.05	5509.62
443.24	5483.88
443.43	5654.73
443.61	5542.39
443.80	5750.70
443.98	5530.69
444.17	5348.12
444.35	5509.62
444.54	5687.50
444.73	5657.07
444.91	5767.08
445.10	5624.31
445.28	5640.69
445.47	5542.39
445.65	5645.37
445.84	5853.68
446.02	5785.80
446.21	5748.36
446.39	5750.70
446.58	5790.49
446.77	5783.46
446.95	5586.86
447.14	5785.80
447.32	5898.15
447.51	5708.57
447.69	5687.50
447.88	5647.71
448.06	5783.46
448.25	5907.51
448.43	5827.93
448.62	5940.28
448.80	5867.72
448.99	5984.75
449.17	5996.45
449.36	5832.62
449.54	6010.50
449.73	6083.05
449.91	6200.08
450.10	6139.23
450.28	6169.65
450.46	6181.35
450.65	6214.12
450.83	6080.71
451.02	6221.14
451.20	6235.19
451.39	6221.14
451.57	6195.40
451.76	6155.61
451.94	6228.17
452.13	6349.87
452.31	6267.95
452.49	6242.21
452.68	6373.28
452.86	6497.33
453.05	6408.39
453.23	6443.49
453.42	6363.92
453.60	6349.87
453.78	6675.21
453.97	6340.51
454.15	6384.98
454.34	6333.49
454.52	6642.44
454.70	6527.75
454.89	6656.48
455.07	6707.98
455.26	6864.79
455.44	6710.32
455.62	6820.32
455.81	6785.21
455.99	6862.45
456.17	6745.42
456.36	6846.07
456.54	6843.73
456.73	6909.26
456.91	7176.08
457.09	7052.03
457.28	7304.81
457.46	6867.13
457.64	7215.87
457.83	7213.53
458.01	7000.54
458.19	7215.87
458.38	7124.59
458.56	7187.79
458.74	7452.27
458.93	7269.70
459.11	7199.49
459.29	7286.09
459.48	7269.70
459.66	7325.88
459.84	7393.75
460.03	7639.51
460.21	7442.90
460.39	7482.69
460.57	7445.24
460.76	7618.44
460.94	7740.15
461.12	7585.68
461.31	7637.17
461.49	7541.21
461.67	7506.10
461.85	7681.64
462.04	7590.36
462.22	8276.13
462.40	7714.41
462.59	7946.12
462.77	7744.83
462.95	7845.48
463.13	7566.95
463.32	7733.13
463.50	7786.96
463.68	7992.93
463.86	7962.50
464.05	7793.98
464.23	7908.67
464.41	8053.78
464.59	7918.03
464.78	8217.62
464.96	7925.05
465.14	7880.58
465.32	8028.04
465.50	8203.58
465.69	8252.73
465.87	8264.43
466.05	8226.98
466.23	8098.25
466.41	8149.75
466.60	8535.93
466.78	8252.73
466.96	8301.88
467.14	8423.59
467.32	8362.73
467.51	8514.87
467.69	8229.32
467.87	8304.22
468.05	8573.38
468.23	8416.57
468.41	8355.71
468.60	8531.25
468.78	8585.08
468.96	8404.86
469.14	8711.47
469.32	8486.78
469.50	8540.61
469.69	8819.14
469.87	8964.25
470.05	8781.69
470.23	8870.63
470.41	8945.53
470.59	9015.74
470.77	8837.86
470.95	8891.70
471.14	9034.47
471.32	8814.46
471.50	9184.26
471.68	9191.28
471.86	9228.73
472.04	9294.27
472.22	9511.94
472.40	9263.84
472.58	9188.94
472.77	9205.33
472.95	9661.73
473.13	9926.21
473.31	9474.49
473.49	9577.47
473.67	9619.60
473.85	9659.39
474.03	9923.87
474.21	9844.29
474.39	9961.32
474.57	9944.94
474.75	9863.02
474.93	9863.02
475.12	9785.78
475.30	10076.01
475.48	10211.76
475.66	10134.52
475.84	10281.97
476.02	10399.00
476.20	10200.05
476.38	10607.31
476.56	10600.29
476.74	10539.43
476.92	10635.39
477.10	10399.00
477.28	10682.20
477.46	10766.46
477.64	11026.26
477.82	11180.74
478.00	11190.10
478.18	11103.50
478.36	11344.58
478.54	11499.05
478.72	11789.28
478.90	11536.50
479.08	11693.32
479.26	11929.71
479.44	11831.41
479.62	12133.34
479.80	11974.18
479.98	11950.78
480.16	12334.62
480.34	12212.92
480.52	12320.58
480.70	12615.49
480.88	12245.68
481.06	12606.13
481.24	12603.78
481.41	12458.67
481.59	12863.58
481.77	13046.15
481.95	12908.05
482.13	13158.49
482.31	12931.46
482.49	13415.95
482.67	13336.37
482.85	13500.21
483.03	13734.26
483.21	13752.99
483.39	13933.21
483.57	13827.88
483.74	14005.77
483.92	14157.90
484.10	14190.67
484.28	14403.66
484.46	14775.80
484.64	14986.45
484.82	14572.18
485.00	14635.37
485.18	15194.76
485.35	15384.34
485.53	15344.55
485.71	15136.24
485.89	15578.61
486.07	15466.26
486.25	15580.95
486.43	15695.63
486.61	15784.57
486.78	15953.09
486.96	15999.90
487.14	16231.62
487.32	16170.76
487.50	16521.84
487.68	16442.26
487.85	16819.09
488.03	17001.65
488.21	17184.21
488.39	16856.54
488.57	17486.14
488.75	17387.84
488.92	17734.24
489.10	17879.35
489.28	17666.36
489.46	17823.18
489.64	17933.18
489.81	18190.64
489.99	18202.35
490.17	18181.28
490.35	18576.83
490.53	18824.93
490.70	18953.66
490.88	18583.85
491.06	19204.10
491.24	19054.30
491.41	19143.24
491.59	19704.97
491.77	19358.57
491.95	19501.34
492.13	19548.15
492.30	19983.49
492.48	19735.40
492.66	20205.84
492.84	20170.74
493.01	20484.37
493.19	20716.08
493.37	20493.73
493.54	20477.35
493.72	20879.92
493.90	20596.71
494.08	21008.65
494.25	21284.83
494.43	21252.06
494.61	21333.98
494.79	21708.47
494.96	21277.81
495.14	21551.65
495.32	21678.04
495.49	21905.07
495.67	22040.82
495.85	22104.02
496.02	22228.07
496.20	22707.88
496.38	22726.60
496.55	22534.68
496.73	22944.27
496.91	22703.20
497.09	23222.80
497.26	23274.29
497.44	22948.95
497.62	23386.63
497.79	23335.14
497.97	23337.48
498.14	24011.56
498.32	24102.84
498.50	23728.35
498.67	24573.28
498.85	24070.07
499.03	24531.15
499.20	24205.82
499.38	24664.57
499.56	24386.04
499.73	24493.71
499.91	24783.93
500.08	25106.93
500.26	24629.46
500.44	24985.22
500.61	25123.31
500.79	25422.90
500.97	25390.13
501.14	25745.89
501.32	25558.65
501.49	25551.63
501.67	25607.80
501.84	25769.30
502.02	25558.65
502.20	25956.54
502.37	26099.31
502.55	26033.78
502.72	26092.29
502.90	26073.57
503.07	26249.11
503.25	26677.43
503.43	26298.26
503.60	26663.38
503.78	26815.52
503.95	26354.43
504.13	27122.13
504.30	26656.36
504.48	27009.78
504.65	27337.46
504.83	27154.90
505.01	27421.72
505.18	27578.53
505.36	27749.39
505.53	27356.18
505.71	27812.59
505.88	27967.06
506.06	28116.86
506.23	27852.38
506.41	27707.26
506.58	27957.70
506.76	28243.24
506.93	28348.57
507.11	27873.44
507.28	28231.54
507.46	28379.00
507.63	28790.93
507.81	29193.50
507.98	28418.78
508.16	28835.40
508.33	28652.84
508.50	28765.18
508.68	28655.18
508.85	28980.51
509.03	29008.60
509.20	29291.80
509.38	29617.14
509.55	29652.25
509.73	30085.25
509.90	29907.37
510.08	29785.66
510.25	29537.56
510.42	29975.24
510.60	29890.98
510.77	30134.40
510.95	30443.35
511.12	30132.06
511.30	30419.94
511.47	30438.67
511.64	30438.67
511.82	30450.37
511.99	30632.93
512.17	30541.65
512.34	30883.37
512.51	31005.08
512.69	30995.71
512.86	31316.37
513.04	31070.61
513.21	30918.48
513.38	31576.17
513.56	31424.03
513.73	31098.70
513.90	31255.51
514.08	31459.14
514.25	32023.21
514.43	31662.77
514.60	32191.73
514.77	32023.21
514.95	31920.23
515.12	32238.54
515.29	31688.51
515.47	32428.12
515.64	32755.80
515.81	31950.65
515.99	32400.04
516.16	32900.91
516.33	32762.82
516.51	32795.59
516.68	32910.27
516.85	32762.82
517.03	33275.40
517.20	33420.51
517.37	33333.91
517.54	33184.12
517.72	33212.20
517.89	33439.23
518.06	33401.79
518.24	33181.77
518.41	33443.91
518.58	33322.21
518.75	33064.75
518.93	33434.55
519.10	33567.96
519.27	33670.95
519.45	33865.21
519.62	34064.16
519.79	33787.97
519.96	34291.19
520.14	33965.85
520.31	34227.99
520.48	34251.40
520.65	33933.09
520.83	34473.75
521.00	34220.97
521.17	34836.53
521.34	34408.22
521.52	34665.67
521.69	34979.31
521.86	34820.15
522.03	34958.24
522.20	35089.31
522.38	35559.76
522.55	35187.61
522.72	35365.49
522.89	35409.96
523.07	35732.96
523.24	35798.49
523.41	35585.50
523.58	35339.75
523.75	35892.12
523.92	35548.06
524.10	35700.19
524.27	36098.08
524.44	36322.77
524.61	36287.67
524.78	35604.23
524.96	36371.92
525.13	36631.72
525.30	36371.92
525.47	36734.71
525.64	36652.79
525.81	36535.76
525.98	36655.13
526.16	36484.27
526.33	36774.50
526.50	36758.11
526.67	36456.18
526.84	37085.79
527.01	37090.47
527.18	36844.71
527.36	37013.23
527.53	37088.13
527.70	37766.88
527.87	37706.03
528.04	37273.03
528.21	37322.18
528.38	37422.83
528.55	37818.38
528.72	37303.46
528.89	37603.05
529.07	37663.90
529.24	37584.32
529.41	37818.38
529.58	38031.36
529.75	37647.52
529.92	37703.69
530.09	37998.60
530.26	37977.53
530.43	38284.14
530.60	37816.04
530.77	37912.00
530.94	38518.20
531.11	38316.91
531.28	38710.12
531.46	38274.78
531.63	38260.74
531.80	38389.47
531.97	39007.37
532.14	38508.83
532.31	38480.75
532.48	38525.22
532.65	39058.86
532.82	38682.03
532.99	38932.47
533.16	38972.26
533.33	39103.33
533.50	39271.85
533.67	39229.72
533.84	38939.49
534.01	38883.32
534.18	39140.78
534.35	39913.16
534.52	39173.55
534.69	39873.37
534.86	39695.49
535.03	39658.04
535.20	39573.78
535.37	39763.36
535.54	40016.14
535.71	40203.38
535.88	40313.39
536.05	39683.78
536.22	39889.75
536.38	40053.59
536.55	40009.12
536.72	40325.09
536.89	39995.07
537.06	40411.69
537.23	40828.30
537.40	39784.43
537.57	39782.09
537.74	40332.11
537.91	40940.65
538.08	40465.52
538.25	40154.23
538.42	40381.26
538.59	40470.20
538.75	40144.87
538.92	41048.32
539.09	41151.30
539.26	40811.92
539.43	40655.11
539.60	40921.93
539.77	40877.46
539.94	41542.17
540.11	41186.41
540.28	41659.20
540.44	41474.29
540.61	41258.96
540.78	40947.67
540.95	41326.84
541.12	41228.54
541.29	40907.88
541.46	41263.64
541.62	41354.93
541.79	41869.84
541.96	41392.37
542.13	41186.41
542.30	41413.44
542.47	42024.32
542.63	41680.26
542.80	42017.30
542.97	42223.26
543.14	42223.26
543.31	42265.39
543.48	42195.18
543.64	42604.77
543.81	42752.23
543.98	42246.67
544.15	42534.56
544.32	42237.31
544.48	42899.68
544.65	42246.67
544.82	42497.11
544.99	42684.35
545.16	42742.86
545.32	42616.47
545.49	43077.56
545.66	43423.96
545.83	43136.07
546.00	43468.43
546.16	43047.13
546.33	42337.95
546.50	42749.88
546.67	43328.00
546.83	42784.99
547.00	42761.59
547.17	43442.68
547.34	42906.70
547.50	43393.53
547.67	43601.84
547.84	43533.96
548.00	43452.05
548.17	43777.38
548.34	43854.62
548.51	43768.02
548.67	43969.30
548.84	43742.27
549.01	43751.63
549.18	43683.76
549.34	44210.38
549.51	44322.72
549.68	44360.17
549.84	43714.19
550.01	44105.06
550.18	43819.51
550.34	43782.06
550.51	44238.47
550.68	44519.33
550.84	43903.77
551.01	44442.09
551.18	43913.13
551.34	43973.98
551.51	44598.91
551.68	44673.81
551.84	44325.07
552.01	44182.29
552.18	44215.06
552.34	44624.65
552.51	44196.34
552.68	44327.41
552.84	44311.02
553.01	44634.02
553.18	44538.05
553.34	44643.38
553.51	44376.56
553.67	44362.51
553.84	44898.50
554.01	44615.29
554.17	44842.32
554.34	45144.25
554.51	44507.63
554.67	45462.57
554.84	45198.09
555.00	45167.66
555.17	45191.06
555.33	45345.54
555.50	45270.64
555.67	45170.00
555.83	44900.84
556.00	44982.76
556.16	45656.83
556.33	45067.02
556.50	45223.83
556.66	45502.35
556.83	44959.35
556.99	45371.28
557.16	45624.06
557.32	45881.52
557.49	45312.77
557.65	45191.06
557.82	45539.80
557.98	45368.94
558.15	45902.59
558.32	45525.76
558.48	45322.13
558.65	45504.70
558.81	45731.73
558.98	46019.61
559.14	45549.17
559.31	45607.68
559.47	45951.74
559.64	45666.19
559.80	46122.60
559.97	46014.93
560.13	45741.09
560.30	45713.00
560.46	46014.93
560.63	46302.82
560.79	46101.53
560.96	46452.61
561.12	45942.38
561.29	46169.41
561.45	46101.53
561.61	45904.93
561.78	45759.81
561.94	46031.32
562.11	46045.36
562.27	46103.87
562.44	45865.14
562.60	46134.30
562.77	46162.39
562.93	46555.60
563.10	46806.03
563.26	46330.90
563.42	46583.68
563.59	46131.96
563.75	46291.12
563.92	46560.28
564.08	46150.68
564.24	46405.80
564.41	46555.60
564.57	46155.36
564.74	46476.02
564.90	46485.38
565.07	46202.18
565.23	46244.30
565.39	46454.95
565.56	46803.69
565.72	46560.28
565.88	46590.70
566.05	46637.51
566.21	46902.00
566.38	47182.86
566.54	46305.16
566.70	46784.97
566.87	46911.36
567.03	46698.37
567.19	46541.55
567.36	46564.96
567.52	46487.72
567.68	47297.55
567.85	46873.91
568.01	47356.06
568.17	47192.22
568.34	47049.45
568.50	46822.42
568.66	46506.44
568.83	46962.85
568.99	47105.62
569.15	46841.14
569.32	46511.13
569.48	46876.25
569.64	47208.61
569.81	47173.50
569.97	47082.22
570.13	47040.09
570.30	46731.14
570.46	46894.97
570.62	47138.39
570.78	47084.56
570.95	47037.75
571.11	47189.88
571.27	46843.48
571.43	47049.45
571.60	47224.99
571.76	47004.98
571.92	46791.99
572.09	47110.30
572.25	47161.79
572.41	47283.50
572.57	47320.95
572.74	47405.21
572.90	47346.70
573.06	47437.98
573.22	47597.13
573.38	47042.43
573.55	47358.40
573.71	47419.25
573.87	47597.13
574.03	47114.98
574.20	47985.66
574.36	47313.93
574.52	47398.19
574.68	47405.21
574.84	47309.25
575.01	47620.54
575.17	47686.07
575.33	47426.28
575.49	47379.46
575.65	47931.83
575.82	47339.68
575.98	47239.03
576.14	48133.12
576.30	47618.20
576.46	47400.53
576.62	47412.23
576.79	47870.98
576.95	47063.49
577.11	47414.57
577.27	47510.53
577.43	47086.90
577.59	47686.07
577.75	47501.17
577.92	46969.87
578.08	47435.64
578.24	47487.13
578.40	47693.10
578.56	47459.04
578.72	47192.22
578.88	47775.02
579.04	47494.15
579.21	47241.37
579.37	47805.44
579.53	48137.80
579.69	47332.65
579.85	47325.63
580.01	47449.68
580.17	47414.57
580.33	47791.40
580.49	47398.19
580.65	47660.33
580.82	47833.53
580.98	47749.27
581.14	47332.65
581.30	47566.71
581.46	47533.94
581.62	47791.40
581.78	46855.18
581.94	47927.15
582.10	47653.31
582.26	47721.18
582.42	47725.86
582.58	48236.10
582.74	47746.93
582.90	47435.64
583.06	47339.68
583.22	47316.27
583.38	47913.11
583.54	47765.65
583.70	47894.38
583.86	47969.28
584.02	47526.92
584.18	47941.19
584.34	47674.37
584.50	48058.22
584.66	47859.27
584.82	47962.26
584.98	48570.80
585.14	47856.93
585.30	47730.54
585.46	47964.60
585.62	47510.53
585.78	47943.53
585.94	47667.35
586.10	47608.84
586.26	48069.92
586.42	48048.86
586.58	48114.39
586.74	47889.70
586.90	47777.36
587.06	47583.09
587.22	47948.21
587.38	47674.37
587.54	48081.63
587.70	47894.38
587.86	47924.81
588.02	47667.35
588.18	47641.60
588.34	47648.63
588.49	47688.42
588.65	47583.09
588.81	47910.77
588.97	47856.93
589.13	48098.01
589.29	47826.51
589.45	48020.77
589.61	48140.14
589.77	47683.73
589.93	48013.75
