SpectraSuite Data File
++++++++++++++++++++++++++++++++++++
Date: Fri Oct 25 11:33:34 EDT 2013
User: price-jones
Dark Spectrum Present: No
Reference Spectrum Present: No
Number of Sampled Component Spectra: 1
Spectrometers: USB2+H05261
Integration Time (usec): 100000 (USB2+H05261)
Spectra Averaged: 1 (USB2+H05261)
Boxcar Smoothing: 0 (USB2+H05261)
Correct for Electrical Dark: No (USB2+H05261)
Strobe/Lamp Enabled: No (USB2+H05261)
Correct for Detector Non-linearity: No (USB2+H05261)
Correct for Stray Light: No (USB2+H05261)
Number of Pixels in Processed Spectrum: 2048
>>>>>Begin Processed Spectral Data<<<<<
365.73	339.38
365.92	339.38
366.12	339.38
366.32	126.39
366.52	135.75
366.72	245.76
366.91	152.13
367.11	180.22
367.31	201.29
367.51	212.99
367.70	180.22
367.90	203.63
368.10	163.84
368.30	163.84
368.49	198.95
368.69	198.95
368.89	138.09
369.09	210.65
369.28	217.67
369.48	163.84
369.68	259.80
369.87	234.05
370.07	231.71
370.27	262.14
370.47	322.99
370.66	421.30
370.86	496.19
371.06	540.66
371.25	613.22
371.45	554.71
371.65	531.30
371.84	564.07
372.04	580.45
372.24	592.16
372.44	615.56
372.63	578.11
372.83	631.94
373.03	547.69
373.22	550.03
373.42	690.46
373.62	554.71
373.81	671.73
374.01	685.78
374.21	638.97
374.40	627.26
374.60	657.69
374.79	662.37
374.99	603.86
375.19	704.50
375.38	641.31
375.58	669.39
375.78	674.07
375.97	683.44
376.17	753.65
376.37	692.80
376.56	713.86
376.76	643.65
376.95	671.73
377.15	683.44
377.35	816.85
377.54	741.95
377.74	716.20
377.93	697.48
378.13	702.16
378.33	697.48
378.52	638.97
378.72	716.20
378.91	699.82
379.11	709.18
379.31	730.25
379.50	676.41
379.70	730.25
379.89	734.93
380.09	746.63
380.28	779.40
380.48	678.76
380.68	753.65
380.87	685.78
381.07	734.93
381.26	779.40
381.46	758.33
381.65	781.74
381.85	734.93
382.04	835.57
382.24	781.74
382.43	713.86
382.63	711.52
382.83	791.10
383.02	800.46
383.22	795.78
383.41	786.42
383.61	770.04
383.80	835.57
384.00	807.48
384.19	880.04
384.39	940.90
384.58	734.93
384.78	844.93
384.97	807.48
385.17	851.96
385.36	828.55
385.56	807.48
385.75	858.98
385.95	851.96
386.14	903.45
386.34	844.93
386.53	840.25
386.72	889.40
386.92	968.98
387.11	870.68
387.31	978.34
387.50	903.45
387.70	908.13
387.89	1001.75
388.09	861.32
388.28	912.81
388.48	873.02
388.67	980.68
388.86	964.30
389.06	947.92
389.25	917.49
389.45	922.17
389.64	947.92
389.84	940.90
390.03	957.28
390.22	950.26
390.42	954.94
390.61	1022.81
390.81	983.02
391.00	1006.43
391.19	1043.88
391.39	985.37
391.58	1020.47
391.78	1027.50
391.97	1132.82
392.16	1008.77
392.36	997.07
392.55	1107.07
392.75	1074.31
392.94	1011.11
393.13	1158.57
393.33	1041.54
393.52	1125.80
393.71	1095.37
393.91	1116.44
394.10	1029.84
394.29	1128.14
394.49	1107.07
394.68	1118.78
394.88	1179.63
395.07	1078.99
395.26	1102.39
395.46	1158.57
395.65	1160.91
395.84	1203.04
396.04	1348.15
396.23	1277.93
396.42	1170.27
396.62	1205.38
396.81	1191.33
397.00	1203.04
397.19	1259.21
397.39	1280.27
397.58	1261.55
397.77	1249.85
397.97	1163.25
398.16	1252.19
398.35	1191.33
398.55	1254.53
398.74	1294.32
398.93	1327.08
399.12	1294.32
399.32	1275.59
399.51	1294.32
399.70	1394.96
399.90	1299.00
400.09	1338.79
400.28	1399.64
400.47	1383.26
400.67	1369.21
400.86	1362.19
401.05	1313.04
401.24	1378.58
401.44	1479.22
401.63	1385.60
401.82	1437.09
402.01	1343.47
402.21	1448.79
402.40	1448.79
402.59	1495.60
402.78	1579.86
402.97	1526.03
403.17	1570.50
403.36	1591.56
403.55	1535.39
403.74	1486.24
403.93	1572.84
404.13	1593.90
404.32	1558.80
404.51	1500.28
404.70	1600.93
404.89	1591.56
405.09	1713.27
405.28	1554.12
405.47	1640.72
405.66	1755.40
405.85	1722.63
406.05	1612.63
406.24	1746.04
406.43	1746.04
406.62	1624.33
406.81	1778.81
407.00	1724.97
407.20	1764.76
407.39	1846.68
407.58	2031.58
407.77	1928.60
407.96	1874.77
408.15	1891.15
408.34	1776.47
408.54	1952.01
408.73	1837.32
408.92	1858.39
409.11	1877.11
409.30	1959.03
409.49	1944.99
409.68	1963.71
409.87	2008.18
410.07	1994.14
410.26	1977.75
410.45	2036.27
410.64	2097.12
410.83	2076.06
411.02	2289.04
411.21	2190.74
411.40	2190.74
411.59	2300.75
411.78	2242.23
411.98	2167.34
412.17	2223.51
412.36	2200.10
412.55	2230.53
412.74	2377.98
412.93	2275.00
413.12	2324.15
413.31	2452.88
413.50	2462.24
413.69	2356.92
413.88	2478.63
414.07	2504.37
414.26	2546.50
414.45	2567.57
414.64	2572.25
414.83	2588.63
415.02	2619.06
415.22	2572.25
415.41	2644.81
415.60	2574.59
415.79	2672.89
415.98	2663.53
416.17	2752.47
416.36	2710.34
416.55	2796.94
416.74	2876.52
416.93	2799.28
417.12	2956.10
417.31	2843.75
417.50	2839.07
417.69	2925.67
417.88	2965.46
418.07	2988.86
418.26	2909.29
418.45	2991.20
418.64	3061.42
418.83	3009.93
419.02	3002.91
419.21	3143.34
419.39	3082.49
419.58	3033.33
419.77	3138.66
419.96	3208.87
420.15	3124.62
420.34	3169.09
420.53	3197.17
420.72	3166.74
420.91	3267.39
421.10	3215.90
421.29	3342.28
421.48	3222.92
421.67	3293.13
421.86	3290.79
422.05	3272.07
422.24	3227.60
422.43	3485.06
422.61	3393.78
422.80	3384.41
422.99	3339.94
423.18	3442.93
423.37	3412.50
423.56	3438.25
423.75	3342.28
423.94	3358.67
424.13	3141.00
424.32	3243.98
424.50	3267.39
424.69	3466.33
424.88	3566.98
425.07	3414.84
425.26	3377.39
425.45	3456.97
425.64	3435.91
425.83	3492.08
426.01	3499.10
426.20	3562.30
426.39	3384.41
426.58	3396.12
426.77	3513.14
426.96	3576.34
427.15	3515.48
427.33	3536.55
427.52	3585.70
427.71	3590.38
427.90	3578.68
428.09	3721.45
428.28	3503.78
428.46	3712.09
428.65	3665.28
428.84	3805.71
429.03	3779.97
429.22	3597.40
429.40	3786.99
429.59	3791.67
429.78	3698.05
429.97	3463.99
430.16	3733.15
430.34	3985.93
430.53	3850.18
430.72	3988.27
430.91	3904.01
431.10	3817.41
431.28	3981.25
431.47	4100.62
431.66	4037.42
431.85	3941.46
432.03	4028.06
432.22	4175.52
432.41	4086.58
432.60	3943.80
432.79	3939.12
432.97	4051.47
433.16	4208.28
433.35	4142.75
433.54	4287.86
433.72	4205.94
433.91	4245.73
434.10	4189.56
434.28	4217.65
434.47	4294.88
434.66	4447.02
434.85	4292.54
435.03	4329.99
435.22	4512.55
435.41	4461.06
435.59	4337.01
435.78	4374.46
435.97	4306.59
436.16	4299.56
436.34	4308.93
436.53	4580.43
436.72	4535.96
436.90	4514.89
437.09	4496.17
437.28	4393.19
437.46	4538.30
437.65	4514.89
437.84	4697.46
438.02	4737.24
438.21	4638.94
438.40	4486.81
438.58	4657.67
438.77	4683.41
438.96	4870.65
439.14	4889.38
439.33	4940.87
439.52	4830.87
439.70	4959.60
439.89	4954.91
440.08	4910.44
440.26	5090.67
440.45	5018.11
440.63	5097.69
440.82	5228.76
441.01	5123.43
441.19	5165.56
441.38	5224.08
441.57	5338.76
441.75	5231.10
441.94	5399.62
442.12	5469.83
442.31	5348.12
442.50	5427.70
442.68	5394.93
442.87	5472.17
443.05	5530.69
443.24	5650.05
443.43	5404.30
443.61	5696.86
443.80	5680.48
443.98	5528.35
444.17	5355.15
444.35	5652.39
444.54	5694.52
444.73	5731.97
444.91	5654.73
445.10	5591.54
445.28	5575.16
445.47	5561.11
445.65	5778.78
445.84	5694.52
446.02	5675.80
446.21	5624.31
446.39	5603.24
446.58	5949.64
446.77	5650.05
446.95	5460.47
447.14	5781.12
447.32	5874.74
447.51	5710.91
447.69	5614.95
447.88	5841.98
448.06	5818.57
448.25	5858.36
448.43	5797.51
448.62	5832.62
448.80	5638.35
448.99	5984.75
449.17	5837.30
449.36	5844.32
449.54	6026.88
449.73	6146.25
449.91	6179.01
450.10	6040.92
450.28	6127.52
450.46	6129.86
450.65	6125.18
450.83	6150.93
451.02	6136.88
451.20	6186.04
451.39	6225.82
451.57	6160.29
451.76	6181.35
451.94	6237.53
452.13	6363.92
452.31	6305.40
452.49	6258.59
452.68	6396.68
452.86	6169.65
453.05	6445.84
453.23	6434.13
453.42	6214.12
453.60	6122.84
453.78	6520.73
453.97	6249.23
454.15	6394.34
454.34	6282.00
454.52	6576.91
454.70	6630.74
454.89	6719.68
455.07	6485.62
455.26	6616.69
455.44	6663.51
455.62	6630.74
455.81	6726.70
455.99	6857.77
456.17	6857.77
456.36	6637.76
456.54	6747.76
456.73	6864.79
456.91	7040.33
457.09	7028.63
457.28	7140.97
457.46	6808.62
457.64	7183.10
457.83	7007.56
458.01	6988.84
458.19	7211.19
458.38	7258.00
458.56	7164.38
458.74	7145.66
458.93	7068.42
459.11	7410.14
459.29	7084.80
459.48	7330.56
459.66	7276.73
459.84	7372.69
460.03	7445.24
460.21	7426.52
460.39	7403.11
460.57	7468.65
460.76	7492.05
460.94	7597.38
461.12	7496.74
461.31	7492.05
461.49	7311.83
461.67	7527.16
461.85	7854.84
462.04	7782.28
462.22	7957.82
462.40	7943.78
462.59	7922.71
462.77	7808.03
462.95	7777.60
463.13	7885.26
463.32	7735.47
463.50	7927.39
463.68	7962.50
463.86	8081.87
464.05	7953.14
464.23	7871.22
464.41	8119.32
464.59	7908.67
464.78	7985.91
464.96	8039.74
465.14	7845.48
465.32	8161.45
465.50	8187.19
465.69	8184.85
465.87	8079.53
466.05	8116.98
466.23	8201.24
466.41	8154.43
466.60	8386.14
466.78	8159.11
466.96	8177.83
467.14	8264.43
467.32	8465.72
467.51	8585.08
467.69	8283.16
467.87	8360.39
468.05	8292.52
468.23	8315.92
468.41	8173.15
468.60	8461.04
468.78	8463.38
468.96	8564.02
469.14	8564.02
469.32	8552.32
469.50	8372.10
469.69	8816.80
469.87	8800.41
470.05	8793.39
470.23	8882.33
470.41	8879.99
470.59	8868.29
470.77	8758.28
470.95	8966.59
471.14	8812.12
471.32	8819.14
471.50	9170.22
471.68	8954.89
471.86	9238.09
472.04	9008.72
472.22	9153.84
472.40	9128.09
472.58	9287.25
472.77	9165.54
472.95	9420.66
473.13	9558.75
473.31	9507.26
473.49	9579.81
473.67	9521.30
473.85	9577.47
474.03	9556.41
474.21	9650.03
474.39	9769.40
474.57	9912.17
474.75	9741.31
474.93	9928.55
475.12	9970.68
475.30	10043.24
475.48	9919.19
475.66	10183.67
475.84	9980.04
476.02	10319.42
476.20	10420.06
476.38	10396.66
476.56	10480.92
476.74	10457.51
476.92	10614.33
477.10	10396.66
477.28	10691.57
477.46	10738.38
477.64	10782.85
477.82	10918.60
478.00	11257.98
478.18	11398.41
478.36	11253.30
478.54	11433.52
478.72	11424.15
478.90	11375.00
479.08	11375.00
479.26	11672.25
479.44	11749.49
479.62	11857.15
479.80	11988.22
479.98	12072.48
480.16	12173.13
480.34	12367.39
480.52	12196.53
480.70	12491.44
480.88	12018.65
481.06	12304.20
481.24	12339.30
481.41	12725.49
481.59	12826.14
481.77	12819.11
481.95	13025.08
482.13	13018.06
482.31	13053.17
482.49	13385.52
482.67	13146.79
482.85	13373.82
483.03	13385.52
483.21	13563.40
483.39	13734.26
483.57	13673.41
483.74	13846.61
483.92	14092.37
484.10	14155.56
484.28	14398.98
484.46	14586.22
484.64	14626.01
484.82	14389.61
485.00	14686.86
485.18	14911.55
485.35	15133.90
485.53	14958.36
485.71	15133.90
485.89	15508.39
486.07	15405.41
486.25	15407.75
486.43	15454.56
486.61	15690.95
486.78	15693.29
486.96	15791.59
487.14	16339.28
487.32	15948.41
487.50	16308.85
487.68	16453.97
487.85	16620.14
488.03	16875.26
488.21	16954.84
488.39	16671.64
488.57	17268.47
488.75	16982.93
488.92	17212.30
489.10	17198.26
489.28	17549.34
489.46	17720.20
489.64	17851.27
489.81	18033.83
489.99	18197.67
490.17	18317.03
490.35	18525.34
490.53	18590.88
490.70	18841.31
490.88	18448.10
491.06	18895.14
491.24	18904.51
491.41	19307.08
491.59	19091.75
491.77	19117.50
491.95	19278.99
492.13	19522.41
492.30	19662.84
492.48	19836.04
492.66	19789.23
492.84	20091.16
493.01	20233.93
493.19	19896.89
493.37	20456.28
493.54	20299.47
493.72	20577.99
493.90	20439.90
494.08	20786.30
494.25	20837.79
494.43	20926.73
494.61	21310.58
494.79	21455.69
494.96	21476.76
495.14	21820.81
495.32	21586.76
495.49	21783.37
495.67	21879.33
495.85	21703.79
496.02	21986.99
496.20	22312.33
496.38	22101.68
496.55	22672.77
496.73	22754.69
496.91	22686.81
497.09	22852.99
497.26	22871.72
497.44	22876.40
497.62	23541.11
497.79	23498.98
497.97	23377.27
498.14	23693.24
498.32	23957.72
498.50	23756.44
498.67	23864.10
498.85	24137.94
499.03	24084.11
499.20	23946.02
499.38	24589.67
499.56	24407.11
499.73	24437.53
499.91	24758.19
500.08	24987.56
500.26	24744.14
500.44	24812.02
500.61	24573.28
500.79	24666.91
500.97	24662.22
501.14	25804.41
501.32	24741.80
501.49	25132.67
501.67	25298.85
501.84	25640.57
502.02	25495.46
502.20	25628.87
502.37	25666.31
502.55	26015.05
502.72	25809.09
502.90	25898.03
503.07	26022.08
503.25	26471.46
503.43	26118.04
503.60	26363.79
503.78	26501.89
503.95	26445.71
504.13	26490.18
504.30	26536.99
504.48	26635.30
504.65	26831.90
504.83	27047.23
505.01	27000.42
505.18	27065.96
505.36	27529.38
505.53	27124.47
505.71	27426.40
505.88	27683.86
506.06	27332.78
506.23	27744.71
506.41	27601.94
506.58	28053.66
506.76	27695.56
506.93	27735.35
507.11	27927.27
507.28	27997.49
507.46	28432.83
507.63	28285.37
507.81	28552.20
507.98	28458.57
508.16	28580.28
508.33	28400.06
508.50	28762.84
508.68	28807.31
508.85	29029.66
509.03	29057.75
509.20	28961.79
509.38	29270.74
509.55	29785.66
509.73	29392.45
509.90	29486.07
510.08	29095.20
510.25	29951.84
510.42	29656.93
510.60	29532.88
510.77	30057.16
510.95	30504.20
511.12	29996.31
511.30	30106.31
511.47	30029.07
511.64	30127.38
511.82	30202.27
511.99	30380.15
512.17	30820.17
512.34	30389.52
512.51	30724.21
512.69	30859.96
512.86	30396.54
513.04	30876.35
513.21	30642.29
513.38	31133.81
513.56	31229.77
513.73	31138.49
513.90	31089.34
514.08	31414.67
514.25	31583.19
514.43	31747.03
514.60	31669.79
514.77	31723.62
514.95	31634.68
515.12	31798.52
515.29	31852.35
515.47	32180.03
515.64	32055.98
515.81	31821.92
515.99	32491.32
516.16	32180.03
516.33	32512.38
516.51	32479.61
516.68	32116.83
516.85	32435.14
517.03	32411.74
517.20	33158.37
517.37	32594.30
517.54	33031.98
517.72	32746.44
517.89	33020.28
518.06	32690.26
518.24	33027.30
518.41	32856.44
518.58	33146.67
518.75	33181.77
518.93	33504.77
519.10	33383.06
519.27	33013.26
519.45	33383.06
519.62	33804.36
519.79	33427.53
519.96	33684.99
520.14	33909.68
520.31	33745.84
520.48	34258.42
520.65	34490.13
520.83	34597.80
521.00	33982.24
521.17	34689.08
521.34	34211.61
521.52	34244.38
521.69	34401.19
521.86	34712.49
522.03	34644.61
522.20	34398.85
522.38	35007.39
522.55	34911.43
522.72	34663.33
522.89	35683.81
523.07	35536.35
523.24	35442.73
523.41	35459.12
523.58	35639.34
523.75	35222.72
523.92	35550.40
524.10	35828.92
524.27	35763.39
524.44	35674.45
524.61	35716.58
524.78	35959.99
524.96	36093.40
525.13	36219.79
525.30	36392.99
525.47	36392.99
525.64	36180.00
525.81	36297.03
525.98	36521.72
526.16	36315.75
526.33	35742.32
526.50	36706.62
526.67	36662.15
526.84	36856.42
527.01	36587.25
527.18	36765.14
527.36	36720.66
527.53	37118.56
527.70	37350.27
527.87	37312.82
528.04	36533.42
528.21	36769.82
528.38	37099.83
528.55	37106.85
528.72	36917.27
528.89	36910.25
529.07	37067.06
529.24	37216.86
529.41	37137.28
529.58	37563.26
529.75	37645.18
529.92	37326.86
530.09	37778.59
530.26	37652.20
530.43	38092.22
530.60	37879.23
530.77	37621.77
530.94	38490.11
531.11	37787.95
531.28	38092.22
531.46	38265.42
531.63	38527.56
531.80	38302.87
531.97	38471.39
532.14	38536.92
532.31	38202.22
532.48	38595.43
532.65	38492.45
532.82	38504.15
532.99	39023.75
533.16	38309.89
533.33	38789.70
533.50	38995.67
533.67	38604.80
533.84	38625.86
534.01	38878.64
534.18	39182.91
534.35	39016.73
534.52	39260.15
534.69	39304.62
534.86	39447.39
535.03	39182.91
535.20	39325.68
535.37	39571.44
535.54	39452.07
535.71	39477.82
535.88	39576.12
536.05	39428.66
536.22	39770.38
536.38	39714.21
536.55	39899.11
536.72	40121.46
536.89	39569.10
537.06	40100.40
537.23	40252.53
537.40	39681.44
537.57	39704.85
537.74	39842.94
537.91	40245.51
538.08	40191.68
538.25	39702.51
538.42	40020.82
538.59	40161.25
538.75	40362.54
538.92	40685.53
539.09	40280.62
539.26	40568.51
539.43	40397.65
539.60	40357.86
539.77	40591.91
539.94	40898.52
540.11	40762.77
540.28	40722.98
540.44	41214.49
540.61	40594.25
540.78	40762.77
540.95	40524.04
541.12	40708.94
541.29	40786.18
541.46	41233.22
541.62	41254.28
541.79	41013.21
541.96	41031.93
542.13	41062.36
542.30	41083.42
542.47	41092.79
542.63	41280.03
542.80	41322.16
542.97	41914.31
543.14	42033.68
543.31	41984.53
543.48	41612.38
543.64	42323.91
543.81	41881.55
543.98	42169.43
544.15	42124.96
544.32	42085.17
544.48	42567.32
544.65	42534.56
544.82	42115.60
544.99	42244.33
545.16	42644.56
545.32	42602.43
545.49	42784.99
545.66	42553.28
545.83	42506.47
546.00	42614.13
546.16	42731.16
546.33	42536.90
546.50	42419.87
546.67	42845.85
546.83	42181.13
547.00	42380.08
547.17	42572.00
547.34	43012.02
547.50	43037.77
547.67	43079.90
547.84	42674.99
548.00	43075.22
548.17	43194.59
548.34	43133.73
548.51	43358.42
548.67	43559.71
548.84	43005.00
549.01	43543.33
549.18	43468.43
549.34	43665.03
549.51	43716.53
549.68	43433.32
549.84	43316.29
550.01	43728.23
550.18	43192.25
550.34	43636.95
550.51	43695.46
550.68	44144.84
550.84	43812.49
551.01	44060.58
551.18	43505.88
551.34	43943.56
551.51	43704.82
551.68	43854.62
551.84	43721.21
552.01	43693.12
552.18	44023.14
552.34	43821.85
552.51	43992.71
552.68	43763.34
552.84	44186.97
553.01	44404.64
553.18	44121.44
553.34	44491.24
553.51	44004.41
553.67	44385.92
553.84	44533.37
554.01	44502.95
554.17	44477.20
554.34	44987.44
554.51	44102.71
554.67	44896.16
554.84	44362.51
555.00	44121.44
555.17	44451.45
555.33	44512.31
555.50	44737.00
555.67	44823.60
555.83	44783.81
556.00	44753.38
556.16	45027.23
556.33	45333.84
556.50	44746.36
556.66	45074.04
556.83	45045.95
556.99	45186.38
557.16	45141.91
557.32	45198.09
557.49	45677.90
557.65	45270.64
557.82	45113.83
557.98	45460.23
558.15	45120.85
558.32	45502.35
558.48	45148.93
558.65	45123.19
558.81	45397.03
558.98	45106.80
559.14	45647.47
559.31	45530.44
559.47	45280.00
559.64	45771.52
559.80	45277.66
559.97	45731.73
560.13	45144.25
560.30	45242.56
560.46	46059.40
560.63	46106.21
560.79	45645.13
560.96	45544.48
561.12	45848.75
561.29	45743.43
561.45	45776.20
561.61	45680.24
561.78	45883.86
561.94	45832.37
562.11	45600.66
562.27	45736.41
562.44	45780.88
562.60	45876.84
562.77	46021.95
562.93	45839.39
563.10	45984.51
563.26	45846.41
563.42	46204.52
563.59	45855.78
563.75	45933.01
563.92	45935.35
564.08	46199.83
564.24	45963.44
564.41	45902.59
564.57	46087.49
564.74	45818.33
564.90	46124.94
565.07	46000.89
565.23	46298.14
565.39	46127.28
565.56	46370.69
565.72	45907.27
565.88	45993.87
566.05	46068.76
566.21	45942.38
566.38	46326.22
566.54	46501.76
566.70	46501.76
566.87	46553.26
567.03	46157.70
567.19	46735.82
567.36	46382.40
567.52	46370.69
567.68	46536.87
567.85	46616.45
568.01	46272.39
568.17	46218.56
568.34	46703.05
568.50	46646.88
568.66	45717.68
568.83	46768.58
568.99	46436.23
569.15	46501.76
569.32	46351.97
569.48	46738.16
569.64	46869.23
569.81	47070.51
569.97	46780.29
570.13	46726.46
570.30	46810.71
570.46	46480.70
570.62	46597.73
570.78	46754.54
570.95	46703.05
571.11	46763.90
571.27	46625.81
571.43	46499.42
571.60	46602.41
571.76	46621.13
571.92	46770.93
572.09	46447.93
572.25	46349.63
572.41	46946.47
572.57	46848.16
572.74	47283.50
572.90	47000.30
573.06	47054.13
573.22	46813.05
573.38	46834.12
573.55	47096.26
573.71	47061.15
573.87	46887.95
574.03	46923.06
574.20	47086.90
574.36	46691.35
574.52	47220.31
574.68	46827.10
574.84	47145.41
575.01	46986.25
575.17	47122.01
575.33	47119.66
575.49	47084.56
575.65	47054.13
575.82	47473.09
575.98	47143.07
576.14	47636.92
576.30	47416.91
576.46	47400.53
576.62	46822.42
576.79	46749.86
576.95	46534.53
577.11	46859.87
577.27	47194.56
577.43	46972.21
577.59	46759.22
577.75	46660.92
577.92	46843.48
578.08	47009.66
578.24	47248.39
578.40	47232.01
578.56	47178.18
578.72	46759.22
578.88	47290.52
579.04	47150.09
579.21	47515.22
579.37	47367.76
579.53	47283.50
579.69	46829.44
579.85	47271.80
580.01	47213.29
580.17	47196.90
580.33	47337.33
580.49	47475.43
580.65	46979.23
580.82	47196.90
580.98	47250.74
581.14	47196.90
581.30	47133.71
581.46	47035.41
581.62	47239.03
581.78	47264.78
581.94	47437.98
582.10	47386.49
582.26	47274.14
582.42	47393.51
582.58	47358.40
582.74	47765.65
582.90	47512.88
583.06	47810.12
583.22	47358.40
583.38	47189.88
583.54	47037.75
583.70	47611.18
583.86	47592.45
584.02	47250.74
584.18	47374.78
584.34	47442.66
584.50	47576.07
584.66	47732.89
584.82	47697.78
584.98	47922.47
585.14	47161.79
585.30	47459.04
585.46	47210.95
585.62	47213.29
585.78	47318.61
585.94	46997.96
586.10	47466.06
586.26	47131.37
586.42	47381.80
586.58	47473.09
586.74	47540.96
586.90	47173.50
587.06	47077.54
587.22	47807.78
587.38	47232.01
587.54	47379.46
587.70	47693.10
587.86	47482.45
588.02	47414.57
588.18	47412.23
588.34	47515.22
588.49	47620.54
588.65	47943.53
588.81	47578.41
588.97	47468.40
589.13	47866.30
589.29	47367.76
589.45	47597.13
589.61	47735.23
589.77	47938.85
589.93	47793.74
590.08	47821.83
