SpectraSuite Data File
++++++++++++++++++++++++++++++++++++
Date: Fri Oct 25 11:26:38 EDT 2013
User: price-jones
Dark Spectrum Present: No
Reference Spectrum Present: No
Number of Sampled Component Spectra: 1
Spectrometers: USB2+H05261
Integration Time (usec): 100000 (USB2+H05261)
Spectra Averaged: 1 (USB2+H05261)
Boxcar Smoothing: 0 (USB2+H05261)
Correct for Electrical Dark: No (USB2+H05261)
Strobe/Lamp Enabled: No (USB2+H05261)
Correct for Detector Non-linearity: No (USB2+H05261)
Correct for Stray Light: No (USB2+H05261)
Number of Pixels in Processed Spectrum: 2048
>>>>>Begin Processed Spectral Data<<<<<
365.73	217.67
365.92	217.67
366.12	217.67
366.32	142.77
366.52	156.82
366.72	112.35
366.91	184.90
367.11	77.24
367.31	166.18
367.51	163.84
367.70	147.45
367.90	114.69
368.10	105.32
368.30	114.69
368.49	131.07
368.69	159.16
368.89	149.79
369.09	86.60
369.28	110.01
369.48	152.13
369.68	154.48
369.87	238.73
370.07	201.29
370.27	287.89
370.47	337.04
370.66	620.24
370.86	587.47
371.06	645.99
371.25	627.26
371.45	671.73
371.65	718.54
371.84	676.41
372.04	709.18
372.24	758.33
372.44	660.03
372.63	774.72
372.83	816.85
373.03	737.27
373.22	826.21
373.42	767.70
373.62	779.40
373.81	837.91
374.01	763.01
374.21	840.25
374.40	786.42
374.60	828.55
374.79	833.23
374.99	866.00
375.19	926.85
375.38	873.02
375.58	856.64
375.78	849.61
375.97	882.38
376.17	943.24
376.37	821.53
376.56	861.32
376.76	847.27
376.95	894.08
377.15	833.23
377.35	936.21
377.54	943.24
377.74	910.47
377.93	863.66
378.13	875.36
378.33	959.62
378.52	943.24
378.72	945.58
378.91	931.53
379.11	945.58
379.31	887.06
379.50	1011.11
379.70	1043.88
379.89	980.68
380.09	1018.13
380.28	1004.09
380.48	1043.88
380.68	994.73
380.87	1032.18
381.07	1011.11
381.26	1116.44
381.46	1020.47
381.65	1011.11
381.85	1011.11
382.04	1006.43
382.24	1064.94
382.43	1013.45
382.63	978.34
382.83	1086.01
383.02	1001.75
383.22	1104.73
383.41	1100.05
383.61	1111.75
383.80	1057.92
384.00	1142.18
384.19	1193.67
384.39	1170.27
384.58	1174.95
384.78	1086.01
384.97	1165.59
385.17	1177.29
385.36	1217.08
385.56	1128.14
385.75	1086.01
385.95	1196.01
386.14	1184.31
386.34	1186.65
386.53	1160.91
386.72	1233.46
386.92	1181.97
387.11	1188.99
387.31	1282.61
387.50	1270.91
387.70	1233.46
387.89	1301.34
388.09	1224.10
388.28	1310.70
388.48	1266.23
388.67	1355.17
388.86	1392.62
389.06	1287.29
389.25	1289.64
389.45	1401.98
389.64	1345.81
389.84	1359.85
390.03	1364.53
390.22	1369.21
390.42	1430.07
390.61	1411.34
390.81	1401.98
391.00	1338.79
391.19	1425.39
391.39	1308.36
391.58	1486.24
391.78	1439.43
391.97	1416.02
392.16	1535.39
392.36	1502.62
392.55	1488.58
392.75	1448.79
392.94	1610.29
393.13	1493.26
393.33	1577.52
393.52	1643.06
393.71	1687.53
393.91	1558.80
394.10	1584.54
394.29	1647.74
394.49	1589.22
394.68	1654.76
394.88	1612.63
395.07	1600.93
395.26	1643.06
395.46	1734.34
395.65	1657.10
395.84	1694.55
396.04	1762.42
396.23	1727.32
396.42	1689.87
396.62	1811.57
396.81	1844.34
397.00	1816.26
397.19	1811.57
397.39	1795.19
397.58	1827.96
397.77	1839.66
397.97	1858.39
398.16	1830.30
398.35	1933.28
398.55	1916.90
398.74	1923.92
398.93	1942.64
399.12	1912.22
399.32	1947.33
399.51	1940.30
399.70	1961.37
399.90	1935.62
400.09	1998.82
400.28	2003.50
400.47	2071.37
400.67	2143.93
400.86	2012.86
401.05	2026.90
401.24	2033.93
401.44	2101.80
401.63	2078.40
401.82	2148.61
402.01	2193.08
402.21	2174.36
402.40	2270.32
402.59	2186.06
402.78	2174.36
402.97	2291.38
403.17	2270.32
403.36	2221.17
403.55	2363.94
403.74	2452.88
403.93	2289.04
404.13	2296.07
404.32	2434.16
404.51	2368.62
404.70	2373.30
404.89	2420.11
405.09	2403.73
405.28	2431.82
405.47	2417.77
405.66	2527.78
405.85	2579.27
406.05	2565.23
406.24	2546.50
406.43	2569.91
406.62	2583.95
406.81	2801.62
407.00	2541.82
407.20	2605.02
407.39	2511.39
407.58	2782.90
407.77	2640.12
407.96	2733.75
408.15	2621.40
408.34	2850.77
408.54	2869.50
408.73	2815.66
408.92	2733.75
409.11	2810.98
409.30	2930.35
409.49	2916.31
409.68	2918.65
409.87	3056.74
410.07	3016.95
410.26	3112.91
410.45	2998.23
410.64	3054.40
410.83	3091.85
411.02	3145.68
411.21	3229.94
411.40	3136.32
411.59	3110.57
411.78	3225.26
411.98	3218.24
412.17	3349.31
412.36	3272.07
412.55	3405.48
412.74	3478.04
412.93	3426.54
413.12	3307.18
413.31	3581.02
413.50	3447.61
413.69	3403.14
413.88	3641.87
414.07	3559.95
414.26	3709.75
414.45	3728.47
414.64	3698.05
414.83	3716.77
415.02	3868.91
415.22	3786.99
415.41	3918.06
415.60	3868.91
415.79	3850.18
415.98	4065.51
416.17	3859.54
416.36	3962.53
416.55	4100.62
416.74	4035.08
416.93	4236.37
417.12	4107.64
417.31	4224.67
417.50	4208.28
417.69	4259.78
417.88	4346.37
418.07	4187.22
418.26	4320.63
418.45	4442.34
418.64	4475.10
418.83	4367.44
419.02	4538.30
419.21	4498.51
419.39	4648.30
419.58	4432.97
419.77	4463.40
419.96	4592.13
420.15	4793.42
420.34	4709.16
420.53	4557.02
420.72	4786.40
420.91	4842.57
421.10	4690.43
421.29	4819.16
421.48	4596.81
421.67	4760.65
421.86	4823.84
422.05	4865.97
422.24	4692.77
422.43	4765.33
422.61	4802.78
422.80	5090.67
422.99	4987.68
423.18	5125.77
423.37	4952.57
423.56	4947.89
423.75	4877.68
423.94	4894.06
424.13	4723.20
424.32	4657.67
424.50	4983.00
424.69	5160.88
424.88	5102.37
425.07	5025.13
425.26	4739.58
425.45	5050.88
425.64	4863.63
425.83	4896.40
426.01	4961.94
426.20	5067.26
426.39	5069.60
426.58	5132.79
426.77	5097.69
426.96	5191.31
427.15	5144.50
427.33	5408.98
427.52	5195.99
427.71	5334.08
427.90	5352.81
428.09	5383.23
428.28	5338.76
428.46	5310.68
428.65	5460.47
428.84	5516.64
429.03	5589.20
429.22	5469.83
429.40	5540.05
429.59	5455.79
429.78	5111.73
429.97	5331.74
430.16	5467.49
430.34	5612.60
430.53	5633.67
430.72	5802.19
430.91	5607.92
431.10	5612.60
431.28	5888.79
431.47	5820.91
431.66	5914.53
431.85	5895.81
432.03	6038.58
432.22	5933.26
432.41	5802.19
432.60	5907.51
432.79	5951.98
432.97	6108.80
433.16	6038.58
433.35	5942.62
433.54	5968.37
433.72	6127.52
433.91	6239.87
434.10	6153.27
434.28	6171.99
434.47	6174.33
434.66	6370.94
434.85	6422.43
435.03	6455.20
435.22	6270.30
435.41	6523.07
435.59	6527.75
435.78	6473.92
435.97	6429.45
436.16	6345.19
436.34	6427.11
436.53	6408.39
436.72	6700.95
436.90	6562.86
437.09	6572.22
437.28	6534.78
437.46	6581.59
437.65	6700.95
437.84	6801.60
438.02	6654.14
438.21	6923.30
438.40	6780.53
438.58	7089.48
438.77	6995.86
438.96	6918.62
439.14	7042.67
439.33	7227.57
439.52	7377.37
439.70	7314.17
439.89	7300.13
440.08	7166.72
440.26	7302.47
440.45	7307.15
440.63	7442.90
440.82	7712.07
441.01	7559.93
441.19	7531.84
441.38	7754.19
441.57	7885.26
441.75	7925.05
441.94	7964.84
442.12	7906.33
442.31	8074.85
442.50	8191.88
442.68	8042.08
442.87	8100.59
443.05	8182.51
443.24	8278.47
443.43	8182.51
443.61	8269.11
443.80	8432.95
443.98	8156.77
444.17	7829.09
444.35	8189.53
444.54	8418.91
444.73	8308.90
444.91	8109.96
445.10	8458.70
445.28	8229.32
445.47	8287.84
445.65	8425.93
445.84	8468.06
446.02	8446.99
446.21	8336.99
446.39	8414.23
446.58	8669.34
446.77	8439.97
446.95	8325.29
447.14	8561.68
447.32	8557.00
447.51	8582.74
447.69	8662.32
447.88	8608.49
448.06	8528.91
448.25	8746.58
448.43	8549.98
448.62	8575.72
448.80	8585.08
448.99	8624.87
449.17	8692.75
449.36	8669.34
449.54	8905.74
449.73	9160.86
449.91	9118.73
450.10	9067.24
450.28	8931.48
450.46	9046.17
450.65	9170.22
450.83	9144.47
451.02	8784.03
451.20	9383.21
451.39	9125.75
451.57	9081.28
451.76	9050.85
451.94	9296.61
452.13	9235.75
452.31	9455.76
452.49	9139.79
452.68	9217.03
452.86	9287.25
453.05	9479.17
453.23	9284.91
453.42	9472.15
453.60	9392.57
453.78	9558.75
453.97	9317.67
454.15	9607.90
454.34	9736.63
454.52	9624.28
454.70	9727.27
454.89	9778.76
455.07	9741.31
455.26	9898.13
455.44	9895.78
455.62	9867.70
455.81	10005.79
455.99	10094.73
456.17	10080.69
456.36	10097.07
456.54	10202.40
456.73	10356.87
456.91	10424.75
457.09	10424.75
457.28	10621.35
457.46	10230.48
457.64	10469.22
457.83	10548.79
458.01	10218.78
458.19	10869.45
458.38	10686.89
458.56	10670.50
458.74	10736.04
458.93	10600.29
459.11	10794.55
459.29	10719.65
459.48	10677.52
459.66	10595.61
459.84	10827.32
460.03	11295.43
460.21	10918.60
460.39	10991.16
460.57	10839.02
460.76	11269.68
460.94	11183.08
461.12	11386.71
461.31	11124.57
461.49	11133.93
461.67	11253.30
461.85	11566.93
462.04	11356.28
462.22	11681.61
462.40	11632.46
462.59	11447.56
462.77	11599.70
462.95	11428.84
463.13	11655.87
463.32	11407.77
463.50	11655.87
463.68	11651.19
463.86	11688.64
464.05	11833.75
464.23	11822.05
464.41	11925.03
464.59	11639.48
464.78	12058.44
464.96	11901.62
465.14	12020.99
465.32	11896.94
465.50	12233.98
465.69	12077.16
465.87	12166.10
466.05	12259.73
466.23	12217.60
466.41	12196.53
466.60	12512.50
466.78	12332.28
466.96	12262.07
467.14	12414.20
467.32	12496.12
467.51	12528.89
467.69	12219.94
467.87	12498.46
468.05	12643.57
468.23	12425.90
468.41	12620.17
468.60	12533.57
468.78	12842.52
468.96	12896.35
469.14	12856.56
469.32	12945.50
469.50	12465.69
469.69	13128.06
469.87	13273.18
470.05	13200.62
470.23	13165.51
470.41	13137.43
470.59	13209.98
470.77	13486.17
470.95	13357.44
471.14	13600.85
471.32	13078.91
471.50	13640.64
471.68	13504.89
471.86	13706.18
472.04	13570.43
472.22	14052.58
472.40	13762.35
472.58	13951.93
472.77	13956.61
472.95	14307.69
473.13	14427.06
473.31	14003.43
473.49	14349.82
473.67	14242.16
473.85	14113.43
474.03	14698.56
474.21	14630.69
474.39	14925.60
474.57	14696.22
474.75	15070.71
474.93	15091.77
475.12	14904.53
475.30	15068.37
475.48	14977.09
475.66	15255.61
475.84	15166.67
476.02	15363.28
476.20	15145.61
476.38	15620.74
476.56	15910.96
476.74	16212.89
476.92	15871.17
477.10	16037.35
477.28	15978.84
477.46	16107.57
477.64	16559.29
477.82	16634.19
478.00	16802.71
478.18	16982.93
478.36	17053.14
478.54	17380.82
478.72	17233.36
478.90	17436.99
479.08	17490.82
479.26	17603.17
479.44	17738.92
479.62	17970.63
479.80	17893.40
479.98	18120.43
480.16	18551.09
480.34	17895.74
480.52	18541.72
480.70	18567.47
480.88	18333.42
481.06	18780.46
481.24	18810.89
481.41	19339.85
481.59	19220.48
481.77	19358.57
481.95	19520.07
482.13	19798.59
482.31	19969.45
482.49	20491.39
482.67	20393.09
482.85	20531.18
483.03	20669.27
483.21	21006.31
483.39	21008.65
483.57	21088.23
483.74	21338.66
483.92	21242.70
484.10	20929.07
484.28	21640.59
484.46	22019.76
484.64	22398.93
484.82	21551.65
485.00	22590.85
485.18	22668.09
485.35	23023.85
485.53	22925.55
485.71	23063.64
485.89	23321.10
486.07	23536.43
486.25	23105.77
486.43	23651.11
486.61	23805.59
486.78	24166.03
486.96	23955.38
487.14	24685.63
487.32	24580.31
487.50	24945.43
487.68	24999.26
487.85	25359.70
488.03	25467.37
488.21	26019.74
488.39	25888.67
488.57	26228.04
488.75	26506.57
488.92	26558.06
489.10	26855.31
489.28	26731.26
489.46	27494.27
489.64	27019.14
489.81	27627.68
489.99	27714.28
490.17	27601.94
490.35	27885.14
490.53	28217.50
490.70	28669.22
490.88	28095.79
491.06	28678.58
491.24	28950.09
491.41	28931.36
491.59	29411.17
491.77	29355.00
491.95	29713.10
492.13	29851.19
492.30	29942.47
492.48	30471.43
492.66	30272.49
492.84	30160.14
493.01	30869.33
493.19	30885.71
493.37	30614.21
493.54	31227.43
493.72	31826.60
493.90	31543.40
494.08	31721.28
494.25	31864.05
494.43	32053.64
494.61	31929.59
494.79	32507.70
494.96	32376.63
495.14	32641.11
495.32	33448.60
495.49	33614.77
495.67	33392.42
495.85	33560.94
496.02	33755.21
496.20	33862.87
496.38	34176.50
496.55	34153.10
496.73	34707.80
496.91	34478.43
497.09	34726.53
497.26	35239.11
497.44	34869.30
497.62	35229.74
497.79	35819.56
497.97	35730.62
498.14	36184.68
498.32	36458.52
498.50	36201.07
498.67	36762.79
498.85	36708.96
499.03	36966.42
499.20	36842.37
499.38	36760.45
499.56	37181.75
499.73	36968.76
499.91	37869.87
500.08	37785.61
500.26	37495.38
500.44	37837.10
500.61	37476.66
500.79	37848.80
500.97	38101.58
501.14	38550.96
501.32	38607.14
501.49	38590.75
501.67	38733.53
501.84	39072.90
502.02	38677.35
502.20	39243.76
502.37	39182.91
502.55	39016.73
502.72	39477.82
502.90	39379.51
503.07	39391.22
503.25	39882.73
503.43	39555.05
503.60	40498.29
503.78	40404.67
503.95	40067.63
504.13	40481.91
504.30	40573.19
504.48	40299.34
504.65	40676.17
504.83	41081.08
505.01	41308.11
505.18	41193.43
505.36	41504.72
505.53	41193.43
505.71	41202.79
505.88	41553.87
506.06	41670.90
506.23	42007.94
506.41	41893.25
506.58	42707.76
506.76	42131.98
506.93	42483.06
507.11	42822.44
507.28	42660.94
507.46	42614.13
507.63	42899.68
507.81	43185.22
507.98	42653.92
508.16	42974.58
508.33	42979.26
508.50	43711.84
508.68	43655.67
508.85	43789.08
509.03	43791.42
509.20	43728.23
509.38	44545.08
509.55	44444.43
509.73	44521.67
509.90	44540.39
510.08	44212.72
510.25	44999.14
510.42	44762.75
510.60	45158.30
510.77	45450.86
510.95	45247.24
511.12	45354.90
511.30	45680.24
511.47	45333.84
511.64	45399.37
511.82	45794.92
511.99	45785.56
512.17	46071.10
512.34	46021.95
512.51	46344.95
512.69	46288.77
512.86	46256.01
513.04	46916.04
513.21	46923.06
513.38	46902.00
513.56	46625.81
513.73	46609.43
513.90	47192.22
514.08	47042.43
514.25	47021.36
514.43	47463.72
514.60	47171.16
514.77	47480.11
514.95	47810.12
515.12	47571.39
515.29	47416.91
515.47	47543.30
515.64	48292.27
515.81	47641.60
515.99	48177.59
516.16	48292.27
516.33	48535.69
516.51	48638.67
516.68	48360.15
516.85	48458.45
517.03	48994.43
517.20	48718.25
517.37	49034.22
517.54	49090.40
517.72	49062.31
517.89	49249.55
518.06	49134.87
518.24	49380.62
518.41	49499.99
518.58	49705.96
518.75	49368.92
518.93	49528.08
519.10	49619.36
519.27	49659.15
519.45	49640.42
519.62	49858.09
519.79	49968.10
519.96	50092.15
520.14	50117.89
520.31	49893.20
520.48	50263.00
520.65	50174.06
520.83	50611.74
521.00	50890.27
521.17	50457.27
521.34	50625.79
521.52	50724.09
521.69	50983.89
521.86	50773.24
522.03	51077.51
522.20	51264.75
522.38	51529.23
522.55	51349.01
522.72	51405.19
522.89	51234.33
523.07	51639.24
523.24	51262.41
523.41	51782.01
523.58	51222.62
523.75	52034.79
523.92	51664.99
524.10	52053.51
524.27	51915.42
524.44	52250.12
524.61	52224.37
524.78	52322.68
524.96	52430.34
525.13	52105.01
525.30	52549.71
525.47	52509.92
525.64	52495.88
525.81	52523.96
525.98	52673.76
526.16	52762.70
526.33	52502.90
526.50	53291.66
526.67	52741.63
526.84	53010.79
527.01	53036.54
527.18	52713.55
527.36	52903.13
527.53	53041.22
527.70	53478.90
527.87	53354.85
528.04	53352.51
528.21	53439.11
528.38	53532.73
528.55	53661.46
528.72	53478.90
528.89	53553.80
529.07	53272.93
529.24	53485.92
529.41	53528.05
529.58	53670.82
529.75	53558.48
529.92	53731.68
530.09	54143.61
530.26	53904.88
530.43	54045.31
530.60	53897.86
530.77	53764.45
530.94	54031.27
531.11	53916.58
531.28	54213.83
531.46	53893.18
531.63	54335.54
531.80	54220.85
531.97	54447.88
532.14	54478.31
532.31	54365.96
532.48	54653.85
532.65	54677.25
532.82	54733.43
532.99	54588.31
533.16	54789.60
533.33	54745.13
533.50	54981.52
533.67	54859.82
533.84	54574.27
534.01	55171.11
534.18	55229.62
534.35	55093.87
534.52	55061.10
534.69	55201.53
534.86	55164.09
535.03	55199.19
535.20	55098.55
535.37	55295.16
535.54	55510.49
535.71	55173.45
535.88	55599.43
536.05	55618.15
536.22	55826.46
536.38	55660.28
536.55	55547.93
536.72	55674.32
536.89	55615.81
537.06	55501.12
537.23	55561.98
537.40	55557.30
537.57	55840.50
537.74	55920.08
537.91	56156.47
538.08	56299.25
538.25	56002.00
538.42	55990.30
538.59	56212.65
538.75	55952.85
538.92	56112.00
539.09	56175.20
539.26	56133.07
539.43	56214.99
539.60	56324.99
539.77	56367.12
539.94	56425.64
540.11	56259.46
540.28	56332.01
540.44	56388.19
540.61	56404.57
540.78	56488.83
540.95	56748.63
541.12	56669.05
541.29	56413.93
541.46	56545.00
541.62	56865.66
541.79	56753.31
541.96	56355.42
542.13	56481.81
542.30	56643.30
542.47	56940.55
542.63	56889.06
542.80	56963.96
542.97	57064.60
543.14	57139.50
543.31	57045.88
543.48	57270.57
543.64	57506.96
543.81	57364.19
543.98	57506.96
544.15	57193.33
544.32	57453.13
544.48	57680.16
544.65	57403.98
544.82	57268.23
544.99	57387.60
545.16	57469.51
545.32	57525.69
545.49	57846.34
545.66	57827.62
545.83	57556.11
546.00	57638.03
546.16	57474.20
546.33	57403.98
546.50	57490.58
546.67	57738.68
546.83	57333.76
547.00	57801.87
547.17	57738.68
547.34	57804.21
547.50	57853.36
547.67	57888.47
547.84	58155.29
548.00	58117.84
548.17	58162.31
548.34	58148.27
548.51	58426.79
548.67	58265.30
548.84	58202.10
549.01	58078.05
549.18	58269.98
549.34	58246.57
549.51	58323.81
549.68	58595.31
549.84	58424.45
550.01	58438.50
550.18	58272.32
550.34	58569.57
550.51	58492.33
550.68	58607.01
550.84	58190.40
551.01	58581.27
551.18	58305.09
551.34	58588.29
551.51	58651.48
551.68	58511.05
551.84	58471.26
552.01	58745.11
552.18	58611.70
552.34	58419.77
552.51	58710.00
552.68	58473.60
552.84	58684.25
553.01	58922.99
553.18	58808.30
553.34	58993.20
553.51	58536.80
553.67	59143.00
553.84	58745.11
554.01	58965.12
554.17	59217.89
554.34	59238.96
554.51	59089.16
554.67	59131.29
554.84	59194.49
555.00	59105.55
555.17	59082.14
555.33	59161.72
555.50	59023.63
555.67	58918.31
555.83	59105.55
556.00	59175.76
556.16	59351.30
556.33	59253.00
556.50	59133.63
556.66	59367.69
556.83	59030.65
556.99	59313.86
557.16	59533.87
557.32	59517.48
557.49	59716.43
557.65	59423.86
557.82	59433.22
557.98	59302.15
558.15	59515.14
558.32	59700.04
558.48	59634.51
558.65	59676.64
558.81	59707.07
558.98	59503.44
559.14	59419.18
559.31	59763.24
559.47	59669.62
559.64	59475.35
559.80	59828.77
559.97	59807.71
560.13	59580.68
560.30	59604.08
560.46	59805.37
560.63	59732.81
560.79	59833.46
560.96	59973.89
561.12	59721.11
561.29	59753.88
561.45	59910.69
561.61	59884.95
561.78	59924.74
561.94	59716.43
562.11	59957.50
562.27	59906.01
562.44	59959.84
562.60	60058.15
562.77	60034.74
562.93	59887.29
563.10	60179.85
563.26	59999.63
563.42	60271.14
563.59	59964.52
563.75	59983.25
563.92	60212.62
564.08	60027.72
564.24	60140.07
564.41	60229.01
564.57	60123.68
564.74	59882.61
564.90	60383.48
565.07	60119.00
565.23	60217.30
565.39	60308.58
565.56	60161.13
565.72	60079.21
565.88	60264.11
566.05	60116.66
566.21	60308.58
566.38	60282.84
566.54	60224.32
566.70	60308.58
566.87	60374.12
567.03	60200.92
567.19	60369.44
567.36	60259.43
567.52	60477.10
567.68	60554.34
567.85	60221.98
568.01	60385.82
568.17	60229.01
568.34	60470.08
568.50	60360.08
568.66	60336.67
568.83	60498.17
568.99	60360.08
569.15	60439.65
569.32	60575.40
569.48	60261.77
569.64	60725.20
569.81	60427.95
569.97	60418.59
570.13	60416.25
570.30	60196.24
570.46	60556.68
570.62	60441.99
570.78	60718.18
570.95	60610.51
571.11	60559.02
571.27	60427.95
571.43	60430.29
571.60	60460.72
571.76	60615.19
571.92	60537.96
572.09	60690.09
572.25	60580.09
572.41	60519.23
572.57	60446.68
572.74	60872.65
572.90	60633.92
573.06	60725.20
573.22	60727.54
573.38	60528.59
573.55	60563.70
573.71	60640.94
573.87	60711.16
574.03	60654.98
574.20	60697.11
574.36	60512.21
574.52	60788.39
574.68	60811.80
574.84	60914.78
575.01	60893.72
575.17	60786.05
575.33	60767.33
575.49	60685.41
575.65	60523.91
575.82	60816.48
575.98	60767.33
576.14	60720.52
576.30	60757.97
576.46	60725.20
576.62	60608.17
576.79	60858.61
576.95	60715.84
577.11	60893.72
577.27	60865.63
577.43	60891.38
577.59	60734.56
577.75	60839.89
577.92	60683.07
578.08	60594.13
578.24	60769.67
578.40	60898.40
578.56	60926.49
578.72	60940.53
578.88	60954.57
579.04	61027.13
579.21	60970.96
579.37	61022.45
579.53	60699.45
579.69	60846.91
579.85	60669.03
580.01	60804.78
580.17	60757.97
580.33	60809.46
580.49	61038.83
580.65	61013.08
580.82	60804.78
580.98	60781.37
581.14	60739.24
581.30	61057.56
581.46	60940.53
581.62	61013.08
581.78	60851.59
581.94	60795.42
582.10	60814.14
582.26	60830.52
582.42	60924.14
582.58	61179.26
582.74	60788.39
582.90	60914.78
583.06	61141.81
583.22	60676.05
583.38	60940.53
583.54	60788.39
583.70	61052.87
583.86	61092.66
584.02	60961.59
584.18	61197.99
584.34	60935.85
584.50	61073.94
584.66	60968.61
584.82	60865.63
584.98	61160.54
585.14	61050.53
585.30	60949.89
585.46	61116.07
585.62	60891.38
585.78	61092.66
585.94	60867.97
586.10	60982.66
586.26	60975.64
586.42	60767.33
586.58	61205.01
586.74	61057.56
586.90	60992.02
587.06	61085.64
587.22	60940.53
587.38	61003.72
587.54	61261.18
587.70	61069.26
587.86	61071.60
588.02	60996.70
588.18	61322.04
588.34	61043.51
