SpectraSuite Data File
++++++++++++++++++++++++++++++++++++
Date: Fri Oct 25 11:26:08 EDT 2013
User: price-jones
Dark Spectrum Present: No
Reference Spectrum Present: No
Number of Sampled Component Spectra: 1
Spectrometers: USB2+H05261
Integration Time (usec): 100000 (USB2+H05261)
Spectra Averaged: 1 (USB2+H05261)
Boxcar Smoothing: 0 (USB2+H05261)
Correct for Electrical Dark: No (USB2+H05261)
Strobe/Lamp Enabled: No (USB2+H05261)
Correct for Detector Non-linearity: No (USB2+H05261)
Correct for Stray Light: No (USB2+H05261)
Number of Pixels in Processed Spectrum: 2048
>>>>>Begin Processed Spectral Data<<<<<
365.73	224.69
365.92	224.69
366.12	224.69
366.32	212.99
366.52	135.75
366.72	42.13
366.91	91.28
367.11	128.73
367.31	170.86
367.51	138.09
367.70	65.54
367.90	243.42
368.10	208.31
368.30	126.39
368.49	159.16
368.69	126.39
368.89	161.50
369.09	135.75
369.28	180.22
369.48	133.41
369.68	159.16
369.87	243.42
370.07	163.84
370.27	238.73
370.47	318.31
370.66	608.54
370.86	692.80
371.06	727.91
371.25	774.72
371.45	650.67
371.65	699.82
371.84	695.14
372.04	678.76
372.24	720.88
372.44	669.39
372.63	739.61
372.83	758.33
373.03	711.52
373.22	772.38
373.42	669.39
373.62	821.53
373.81	795.78
374.01	816.85
374.21	751.31
374.40	793.44
374.60	861.32
374.79	819.19
374.99	812.17
375.19	887.06
375.38	929.19
375.58	866.00
375.78	922.17
375.97	873.02
376.17	940.90
376.37	931.53
376.56	912.81
376.76	842.59
376.95	854.30
377.15	905.79
377.35	917.49
377.54	931.53
377.74	917.49
377.93	950.26
378.13	858.98
378.33	936.21
378.52	898.77
378.72	931.53
378.91	1013.45
379.11	889.40
379.31	877.70
379.50	973.66
379.70	990.05
379.89	983.02
380.09	1004.09
380.28	973.66
380.48	973.66
380.68	938.55
380.87	1036.86
381.07	1090.69
381.26	1057.92
381.46	1018.13
381.65	992.39
381.85	1006.43
382.04	1050.90
382.24	1050.90
382.43	1076.65
382.63	1006.43
382.83	1116.44
383.02	1184.31
383.22	1196.01
383.41	1083.67
383.61	959.62
383.80	1172.61
384.00	1029.84
384.19	1095.37
384.39	1128.14
384.58	1135.16
384.78	1055.58
384.97	1107.07
385.17	1125.80
385.36	1125.80
385.56	1196.01
385.75	1121.12
385.95	1114.10
386.14	1247.51
386.34	1144.52
386.53	1259.21
386.72	1247.51
386.92	1280.27
387.11	1224.10
387.31	1331.76
387.50	1301.34
387.70	1240.48
387.89	1289.64
388.09	1334.11
388.28	1228.78
388.48	1245.16
388.67	1268.57
388.86	1277.93
389.06	1249.85
389.25	1294.32
389.45	1355.17
389.64	1355.17
389.84	1378.58
390.03	1446.45
390.22	1406.66
390.42	1380.92
390.61	1401.98
390.81	1334.11
391.00	1378.58
391.19	1511.99
391.39	1455.81
391.58	1404.32
391.78	1486.24
391.97	1476.88
392.16	1371.55
392.36	1427.73
392.55	1509.65
392.75	1544.75
392.94	1519.01
393.13	1533.05
393.33	1444.11
393.52	1577.52
393.71	1537.73
393.91	1556.46
394.10	1540.07
394.29	1540.07
394.49	1549.43
394.68	1680.50
394.88	1591.56
395.07	1652.42
395.26	1678.16
395.46	1675.82
395.65	1710.93
395.84	1776.47
396.04	1715.61
396.23	1724.97
396.42	1776.47
396.62	1846.68
396.81	1830.30
397.00	1764.76
397.19	1813.92
397.39	1820.94
397.58	1755.40
397.77	1804.55
397.97	1863.07
398.16	1909.88
398.35	1870.09
398.55	1832.64
398.74	1891.15
398.93	1987.11
399.12	1856.04
399.32	1834.98
399.51	1933.28
399.70	1966.05
399.90	2008.18
400.09	2043.29
400.28	2040.95
400.47	2071.37
400.67	2080.74
400.86	2127.55
401.05	2073.71
401.24	2038.61
401.44	1959.03
401.63	2134.57
401.82	2108.82
402.01	2047.97
402.21	2162.66
402.40	2172.02
402.59	2136.91
402.78	2141.59
402.97	2331.17
403.17	2345.22
403.36	2275.00
403.55	2228.19
403.74	2310.11
403.93	2375.64
404.13	2291.38
404.32	2422.45
404.51	2431.82
404.70	2495.01
404.89	2392.03
405.09	2406.07
405.28	2504.37
405.47	2478.63
405.66	2476.29
405.85	2520.76
406.05	2499.69
406.24	2560.55
406.43	2651.83
406.62	2675.23
406.81	2782.90
407.00	2588.63
407.20	2530.12
407.39	2612.04
407.58	2700.98
407.77	2785.24
407.96	2829.71
408.15	2750.13
408.34	2764.17
408.54	2853.11
408.73	2862.48
408.92	2818.00
409.11	2848.43
409.30	2775.88
409.49	2937.37
409.68	2925.67
409.87	2939.71
410.07	2998.23
410.26	2883.54
410.45	2899.92
410.64	2998.23
410.83	3105.89
411.02	3066.10
411.21	3211.22
411.40	3059.08
411.59	3197.17
411.78	3112.91
411.98	3073.12
412.17	3218.24
412.36	3286.11
412.55	3346.97
412.74	3400.80
412.93	3316.54
413.12	3253.34
413.31	3534.21
413.50	3471.01
413.69	3384.41
413.88	3581.02
414.07	3583.36
414.26	3529.53
414.45	3627.83
414.64	3674.64
414.83	3709.75
415.02	3763.58
415.22	3939.12
415.41	3728.47
415.60	3817.41
415.79	3887.63
415.98	3815.07
416.17	3896.99
416.36	3990.61
416.55	3941.46
416.74	4102.96
416.93	4119.34
417.12	3969.55
417.31	4191.90
417.50	4173.18
417.69	4210.62
417.88	4269.14
418.07	4304.25
418.26	4285.52
418.45	4365.10
418.64	4489.15
418.83	4374.46
419.02	4383.82
419.21	4404.89
419.39	4404.89
419.58	4517.23
419.77	4489.15
419.96	4645.96
420.15	4423.61
420.34	4514.89
420.53	4517.23
420.72	4657.67
420.91	4617.88
421.10	4777.03
421.29	4645.96
421.48	4545.32
421.67	4861.29
421.86	4587.45
422.05	4826.18
422.24	4828.53
422.43	4798.10
422.61	4922.15
422.80	4940.87
422.99	4945.55
423.18	4777.03
423.37	4971.30
423.56	4938.53
423.75	4865.97
423.94	4973.64
424.13	4552.34
424.32	4819.16
424.50	4917.47
424.69	5104.71
424.88	5107.05
425.07	4999.38
425.26	4929.17
425.45	5015.77
425.64	4898.74
425.83	4947.89
426.01	5064.92
426.20	5006.41
426.39	5104.71
426.58	5156.20
426.77	5146.84
426.96	5107.05
427.15	5025.13
427.33	5191.31
427.52	5184.29
427.71	5324.72
427.90	5193.65
428.09	5427.70
428.28	5193.65
428.46	5275.57
428.65	5235.78
428.84	5486.22
429.03	5591.54
429.22	5425.36
429.40	5476.85
429.59	5380.89
429.78	5291.95
429.97	5268.55
430.16	5540.05
430.34	5680.48
430.53	5523.66
430.72	5612.60
430.91	5596.22
431.10	5544.73
431.28	5832.62
431.47	5701.54
431.66	5858.36
431.85	5757.72
432.03	5694.52
432.22	6022.20
432.41	5909.85
432.60	5881.77
432.79	5935.60
432.97	6017.52
433.16	6080.71
433.35	5884.11
433.54	5933.26
433.72	6059.65
433.91	6097.10
434.10	6104.12
434.28	6164.97
434.47	6164.97
434.66	6340.51
434.85	6181.35
435.03	6225.82
435.22	6228.17
435.41	6403.71
435.59	6354.55
435.78	6455.20
435.97	6450.52
436.16	6305.40
436.34	6373.28
436.53	6464.56
436.72	6780.53
436.90	6389.66
437.09	6607.33
437.28	6347.53
437.46	6443.49
437.65	6530.09
437.84	6696.27
438.02	6707.98
438.21	6686.91
438.40	6579.25
438.58	6993.52
438.77	7026.29
438.96	6927.99
439.14	7091.82
439.33	7098.84
439.52	7199.49
439.70	7180.76
439.89	7239.28
440.08	7405.46
440.26	7241.62
440.45	7478.01
440.63	7435.88
440.82	7555.25
441.01	7552.91
441.19	7625.47
441.38	7672.28
441.57	7733.13
441.75	7770.58
441.94	7922.71
442.12	7735.47
442.31	8149.75
442.50	7981.23
442.68	7927.39
442.87	8032.72
443.05	8067.83
443.24	8109.96
443.43	8163.79
443.61	8166.13
443.80	8306.56
443.98	8114.64
444.17	7861.86
444.35	8215.28
444.54	8374.44
444.73	8381.46
444.91	8222.30
445.10	8269.11
445.28	8379.12
445.47	7906.33
445.65	8507.85
445.84	8435.29
446.02	8505.51
446.21	8519.55
446.39	8297.20
446.58	8435.29
446.77	8561.68
446.95	8107.62
447.14	8454.02
447.32	8465.72
447.51	8561.68
447.69	8479.76
447.88	8383.80
448.06	8519.55
448.25	8461.04
448.43	8376.78
448.62	8538.27
448.80	8641.26
448.99	8519.55
449.17	8891.70
449.36	8510.19
449.54	8812.12
449.73	8844.88
449.91	9135.11
450.10	8769.99
450.28	9163.20
450.46	9205.33
450.65	8849.57
450.83	8954.89
451.02	8957.23
451.20	9174.90
451.39	9198.31
451.57	9011.06
451.76	9036.81
451.94	9067.24
452.13	9217.03
452.31	9350.44
452.49	9114.05
452.68	9284.91
452.86	9172.56
453.05	9502.58
453.23	9376.19
453.42	9245.12
453.60	9254.48
453.78	9493.21
453.97	9418.32
454.15	9350.44
454.34	9310.65
454.52	9584.49
454.70	9717.90
454.89	9635.99
455.07	9652.37
455.26	9741.31
455.44	9788.12
455.62	9921.53
455.81	9860.68
455.99	9912.17
456.17	9991.75
456.36	10136.86
456.54	9977.70
456.73	10326.44
456.91	10293.68
457.09	10279.63
457.28	10396.66
457.46	10160.27
457.64	10523.05
457.83	10326.44
458.01	10511.35
458.19	10544.11
458.38	10286.65
458.56	10717.31
458.74	10836.68
458.93	10656.46
459.11	10705.61
459.29	10647.10
459.48	10764.12
459.66	10740.72
459.84	10754.76
460.03	10864.77
460.21	10967.75
460.39	10642.42
460.57	10766.46
460.76	10834.34
460.94	11162.01
461.12	11052.01
461.31	11262.66
461.49	11091.80
461.67	11293.08
461.85	11492.03
462.04	11456.92
462.22	11742.47
462.40	11543.52
462.59	11414.79
462.77	11604.38
462.95	11871.20
463.13	11370.32
463.32	11627.78
463.50	11520.12
463.68	11651.19
463.86	11735.45
464.05	11602.04
464.23	11613.74
464.41	11808.00
464.59	11625.44
464.78	11969.50
464.96	12109.93
465.14	11934.39
465.32	11868.86
465.50	11925.03
465.69	11976.52
465.87	11997.59
466.05	11967.16
466.23	12046.74
466.41	12180.15
466.60	12308.88
466.78	12161.42
466.96	11964.82
467.14	12334.62
467.32	12320.58
467.51	12341.64
467.69	12283.13
467.87	12355.69
468.05	12634.21
468.23	12432.93
468.41	12437.61
468.60	12360.37
468.78	12716.13
468.96	12564.00
469.14	12542.93
469.32	12762.94
469.50	12877.63
469.69	12922.10
469.87	12985.29
470.05	13071.89
470.23	13132.75
470.41	13097.64
470.59	13348.08
470.77	13130.41
470.95	13205.30
471.14	13373.82
471.32	13298.92
471.50	13544.68
471.68	13813.84
471.86	13415.95
472.04	13392.55
472.22	13895.76
472.40	13460.42
472.58	13729.58
472.77	13748.31
472.95	13956.61
473.13	14511.32
473.31	13977.68
473.49	13923.85
473.67	13902.78
473.85	14164.92
474.03	14438.76
474.21	14588.56
474.39	14558.13
474.57	14759.42
474.75	14661.12
474.93	14853.04
475.12	14724.31
475.30	15063.69
475.48	14979.43
475.66	14904.53
475.84	14958.36
476.02	15470.94
476.20	15257.95
476.38	15515.41
476.56	15915.64
476.74	15826.70
476.92	15667.55
477.10	15777.55
477.28	15894.58
477.46	16238.64
477.64	16432.90
477.82	16358.00
478.00	16699.72
478.18	16706.74
478.36	16812.07
478.54	17334.01
478.72	16989.95
478.90	17224.00
479.08	17549.34
479.26	17465.08
479.44	17589.13
479.62	17900.42
479.80	17895.74
479.98	18071.28
480.16	18443.42
480.34	18389.59
480.52	18478.53
480.70	18803.86
480.88	18359.16
481.06	18658.75
481.24	18707.90
481.41	18801.52
481.59	19234.52
481.77	19288.35
481.95	19381.98
482.13	19438.15
482.31	19440.49
482.49	20294.79
482.67	20088.82
482.85	20130.95
483.03	20247.97
483.21	20802.68
483.39	20795.66
483.57	20748.85
483.74	20903.32
483.92	21277.81
484.10	21083.55
484.28	21532.93
484.46	21900.39
484.64	22162.53
484.82	21781.03
485.00	22415.31
485.18	22586.17
485.35	22728.94
485.53	22719.58
485.71	22845.97
485.89	23211.09
486.07	23290.67
486.25	23403.02
486.43	23817.29
486.61	23845.38
486.78	23885.17
486.96	24077.09
487.14	24322.85
487.32	24425.83
487.50	24975.86
487.68	24980.54
487.85	24954.79
488.03	25259.06
488.21	25685.04
488.39	25661.63
488.57	26040.80
488.75	26134.42
488.92	26438.69
489.10	26487.84
489.28	26494.86
489.46	26977.01
489.64	26965.31
489.81	27807.90
489.99	27452.14
490.17	27388.95
490.35	27924.93
490.53	27765.78
490.70	28180.05
490.88	27880.46
491.06	28680.92
491.24	28479.64
491.41	28606.03
491.59	29048.39
491.77	29343.30
491.95	29373.72
492.13	29624.16
492.30	29851.19
492.48	29788.00
492.66	29970.56
492.84	30237.38
493.01	30551.01
493.19	30506.54
493.37	30848.26
493.54	31124.44
493.72	31292.96
493.90	31276.58
494.08	31644.04
494.25	31819.58
494.43	32126.19
494.61	32077.04
494.79	32531.11
494.96	32294.71
495.14	32226.84
495.32	32989.85
495.49	32706.65
495.67	33043.68
495.85	33509.45
496.02	33642.86
496.20	33741.16
496.38	34075.86
496.55	34153.10
496.73	34450.35
496.91	34389.49
497.09	34373.11
497.26	34618.86
497.44	34644.61
497.62	34817.81
497.79	35756.36
497.97	35049.52
498.14	35859.35
498.32	35817.22
498.50	36093.40
498.67	36336.82
498.85	36273.62
499.03	36570.87
499.20	36498.31
499.38	36821.31
499.56	36715.98
499.73	37148.98
499.91	36999.19
500.08	37418.14
500.26	36823.65
500.44	37425.17
500.61	37591.34
500.79	37605.39
500.97	37813.70
501.14	38590.75
501.32	38033.71
501.49	38387.13
501.67	38335.63
501.84	38792.04
502.02	38391.81
502.20	39150.14
502.37	39037.80
502.55	39192.27
502.72	38904.38
502.90	39292.91
503.07	39426.32
503.25	39374.83
503.43	39423.98
503.60	39681.44
503.78	39903.79
503.95	39964.65
504.13	40257.21
504.30	40149.55
504.48	40264.24
504.65	40371.90
504.83	40652.76
505.01	40868.09
505.18	40910.22
505.36	41127.89
505.53	41088.10
505.71	41497.70
505.88	41724.73
506.06	41467.27
506.23	41471.95
506.41	41607.70
506.58	42066.45
506.76	41830.05
506.93	42073.47
507.11	42096.88
507.28	41844.10
507.46	42490.09
507.63	42635.20
507.81	42946.49
507.98	42951.17
508.16	43166.50
508.33	43152.46
508.50	42890.32
508.68	43531.62
508.85	43704.82
509.03	43718.87
509.20	43758.66
509.38	44048.88
509.55	43702.48
509.73	44219.74
509.90	44411.67
510.08	44360.17
510.25	44243.15
510.42	44397.62
510.60	44954.67
510.77	44760.40
510.95	45228.51
511.12	44748.70
511.30	45432.14
511.47	45099.78
511.64	45041.27
511.82	45792.58
511.99	45432.14
512.17	45642.79
512.34	45565.55
512.51	45741.09
512.69	46478.36
512.86	46050.04
513.04	46185.79
513.21	46057.06
513.38	46789.65
513.56	46735.82
513.73	46405.80
513.90	46527.51
514.08	46799.01
514.25	47004.98
514.43	47285.84
514.60	47196.90
514.77	46822.42
514.95	47650.97
515.12	47351.38
515.29	47533.94
515.47	47906.08
515.64	47819.49
515.81	47760.97
515.99	47962.26
516.16	48259.51
516.33	47887.36
516.51	48430.36
516.68	48182.27
516.85	48032.47
517.03	48479.52
517.20	48947.62
517.37	48151.84
517.54	48755.70
517.72	48516.96
517.89	48645.69
518.06	49034.22
518.24	49413.39
518.41	49167.63
518.58	49212.10
518.75	49120.82
518.93	49448.50
519.10	49207.42
519.27	49279.98
519.45	49570.21
519.62	49635.74
519.79	49907.24
519.96	49532.76
520.14	50255.98
520.31	49649.78
520.48	50141.30
520.65	49998.52
520.83	49928.31
521.00	50698.34
521.17	50483.01
521.34	50445.57
521.52	50719.41
521.69	50518.12
521.86	50438.54
522.03	51124.32
522.20	51255.39
522.38	51529.23
522.55	51468.38
522.72	51477.74
522.89	51444.98
523.07	51384.12
523.24	51295.18
523.41	51323.27
523.58	51119.64
523.75	51559.66
523.92	51510.51
524.10	51611.15
524.27	51910.74
524.44	51756.27
524.61	51999.68
524.78	51910.74
524.96	51831.16
525.13	52135.43
525.30	51704.77
525.47	52416.30
525.64	52449.06
525.81	52381.19
525.98	52378.85
526.16	52568.43
526.33	52505.24
526.50	53198.04
526.67	52484.17
526.84	52671.42
527.01	52573.11
527.18	52743.97
527.36	52676.10
527.53	52809.51
527.70	53153.57
527.87	53193.36
528.04	53249.53
528.21	53439.11
528.38	53029.52
528.55	53621.67
528.72	53340.81
528.89	53504.65
529.07	53326.77
529.24	53455.50
529.41	53633.38
529.58	53511.67
529.75	53701.25
529.92	53694.23
530.09	53705.93
530.26	53771.47
530.43	53853.39
530.60	53750.40
530.77	53642.74
530.94	53801.89
531.11	53776.15
531.28	53925.94
531.46	54003.18
531.63	54000.84
531.80	54138.93
531.97	54141.27
532.14	54293.41
532.31	54157.66
532.48	54487.67
532.65	54419.80
532.82	54300.43
532.99	54590.66
533.16	54588.31
533.33	54433.84
533.50	54834.07
533.67	54534.48
533.84	54497.03
534.01	54906.63
534.18	54639.81
534.35	55409.84
534.52	54899.61
534.69	54993.23
534.86	55047.06
535.03	54873.86
535.20	55093.87
535.37	55061.10
535.54	55246.00
535.71	55283.45
535.88	55189.83
536.05	55412.18
536.22	55414.52
536.38	55473.04
536.55	55145.36
536.72	55554.96
536.89	55435.59
537.06	55550.27
537.23	55489.42
537.40	55344.31
537.57	55880.29
537.74	55517.51
537.91	55688.37
538.08	56030.08
538.25	55559.64
538.42	55573.68
538.59	56013.70
538.75	55826.46
538.92	55971.57
539.09	56081.58
539.26	56191.58
539.43	56109.66
539.60	56236.05
539.77	56090.94
539.94	56296.91
540.11	56058.17
540.28	56112.00
540.44	56287.54
540.61	56219.67
540.78	56189.24
540.95	56423.29
541.12	56275.84
541.29	56329.67
541.46	56247.75
541.62	56633.94
541.79	56423.29
541.96	56240.73
542.13	56430.32
542.30	56369.46
542.47	56823.53
542.63	56882.04
542.80	56949.92
542.97	57013.11
543.14	57125.46
543.31	57088.01
543.48	56830.55
543.64	57233.12
543.81	57090.35
543.98	56978.00
544.15	57172.27
544.32	57181.63
544.48	57324.40
544.65	57240.14
544.82	57420.36
544.99	57137.16
545.16	57298.65
545.32	57286.95
545.49	57518.67
545.66	57399.30
545.83	57312.70
546.00	57640.37
546.16	57724.63
546.33	57513.98
546.50	57333.76
546.67	57518.67
546.83	57425.04
547.00	57806.55
547.17	57532.71
547.34	57631.01
547.50	57708.25
547.67	57930.60
547.84	57883.79
548.00	57844.00
548.17	58054.65
548.34	58019.54
548.51	58150.61
548.67	58190.40
548.84	58166.99
549.01	58038.26
549.18	58152.95
549.34	58064.01
549.51	57977.41
549.68	58157.63
549.84	58220.83
550.01	58389.34
550.18	58138.91
550.34	58145.93
550.51	58284.02
550.68	58192.74
550.84	58197.42
551.01	58351.90
551.18	58501.69
551.34	58609.35
551.51	58679.57
551.68	58611.70
551.84	58492.33
552.01	58464.24
552.18	58518.07
552.34	58230.19
552.51	58595.31
552.68	58466.58
552.84	58639.78
553.01	58822.34
553.18	58466.58
553.34	58569.57
553.51	58630.42
553.67	58504.03
553.84	58733.40
554.01	58777.87
554.17	58801.28
554.34	58759.15
554.51	58983.84
554.67	58967.46
554.84	58955.75
555.00	58773.19
555.17	58855.11
555.33	59063.42
555.50	58822.34
555.67	58894.90
555.83	58953.41
556.00	59004.91
556.16	59187.47
556.33	59135.98
556.50	59271.73
556.66	59194.49
556.83	59054.06
556.99	59313.86
557.16	59355.99
557.32	59316.20
557.49	59578.34
557.65	58990.86
557.82	59377.05
557.98	59292.79
558.15	59292.79
558.32	59442.59
558.48	59208.53
558.65	59295.13
558.81	59442.59
558.98	59381.73
559.14	59533.87
559.31	59678.98
559.47	59636.85
559.64	59267.05
559.80	59594.72
559.97	59592.38
560.13	59295.13
560.30	59557.27
560.46	59568.97
560.63	59564.29
560.79	59767.92
560.96	59557.27
561.12	59791.33
561.29	59688.34
561.45	59784.30
561.61	59760.90
561.78	59774.94
561.94	59758.56
562.11	59714.09
562.27	59540.89
562.44	59952.82
562.60	59915.37
562.77	59870.90
562.93	59709.41
563.10	60016.02
563.26	59732.81
563.42	60069.85
563.59	60016.02
563.75	59873.24
563.92	59891.97
564.08	59908.35
564.24	60062.83
564.41	59976.23
564.57	60048.78
564.74	59922.40
564.90	60027.72
565.07	60186.88
565.23	60009.00
565.39	60072.19
565.56	60182.19
565.72	59952.82
565.88	60104.96
566.05	60074.53
566.21	60088.57
566.38	59915.37
566.54	60121.34
566.70	60161.13
566.87	60219.64
567.03	60053.47
567.19	60364.76
567.36	60104.96
567.52	60025.38
567.68	60367.10
567.85	60287.52
568.01	60261.77
568.17	60226.66
568.34	60247.73
568.50	60355.39
568.66	60121.34
568.83	60280.50
568.99	60083.89
569.15	60416.25
569.32	60240.71
569.48	60331.99
569.64	60458.38
569.81	60275.82
569.97	60238.37
570.13	60266.45
570.30	60116.66
570.46	60444.33
570.62	60378.80
570.78	60198.58
570.95	60477.10
571.11	60434.97
571.27	60348.37
571.43	60261.77
571.60	60626.90
571.76	60383.48
571.92	60570.72
572.09	60509.87
572.25	60451.36
572.41	60341.35
572.57	60381.14
572.74	60741.58
572.90	60430.29
573.06	60498.17
573.22	60390.50
573.38	60523.91
573.55	60552.00
573.71	60598.81
573.87	60601.15
574.03	60514.55
574.20	60610.51
574.36	60322.63
574.52	60608.17
574.68	60657.32
574.84	60769.67
575.01	60811.80
575.17	60685.41
575.33	60444.33
575.49	60502.85
575.65	60629.24
575.82	60624.56
575.98	60444.33
576.14	60837.54
576.30	60687.75
576.46	60720.52
576.62	60552.00
576.79	60669.03
576.95	60570.72
577.11	60722.86
577.27	60664.35
577.43	60603.49
577.59	60680.73
577.75	60610.51
577.92	60512.21
578.08	60654.98
578.24	60783.71
578.40	60807.12
578.56	60823.50
578.72	60718.18
578.88	60853.93
579.04	60935.85
579.21	60786.05
579.37	60654.98
579.53	60945.21
579.69	60701.79
579.85	60521.57
580.01	60500.51
580.17	60554.34
580.33	60816.48
580.49	60896.06
580.65	60605.83
580.82	60542.64
580.98	60755.63
581.14	60687.75
581.30	60959.25
581.46	60767.33
581.62	60704.13
581.78	60619.88
581.94	61057.56
582.10	60762.65
582.26	60842.23
582.42	60823.50
582.58	60713.50
582.74	60846.91
582.90	60762.65
583.06	60774.35
583.22	60500.51
583.38	60566.04
583.54	60853.93
583.70	60837.54
583.86	60858.61
584.02	60669.03
584.18	60947.55
584.34	60891.38
584.50	60652.64
584.66	60669.03
584.82	60795.42
584.98	61038.83
585.14	61031.81
585.30	60846.91
585.46	60788.39
585.62	60858.61
585.78	60980.32
585.94	60502.85
586.10	60839.89
586.26	61013.08
586.42	60891.38
586.58	60811.80
586.74	60982.66
586.90	61020.11
587.06	61017.77
587.22	61066.92
587.38	60907.76
587.54	60853.93
587.70	61073.94
587.86	60982.66
588.02	60811.80
588.18	61244.80
588.34	60942.87
588.49	60910.10
