SpectraSuite Data File
++++++++++++++++++++++++++++++++++++
Date: Fri Oct 25 11:23:33 EDT 2013
User: price-jones
Dark Spectrum Present: No
Reference Spectrum Present: No
Number of Sampled Component Spectra: 1
Spectrometers: USB2+H05261
Integration Time (usec): 100000 (USB2+H05261)
Spectra Averaged: 1 (USB2+H05261)
Boxcar Smoothing: 0 (USB2+H05261)
Correct for Electrical Dark: No (USB2+H05261)
Strobe/Lamp Enabled: No (USB2+H05261)
Correct for Detector Non-linearity: No (USB2+H05261)
Correct for Stray Light: No (USB2+H05261)
Number of Pixels in Processed Spectrum: 2048
>>>>>Begin Processed Spectral Data<<<<<
365.73	278.52
365.92	278.52
366.12	278.52
366.32	138.09
366.52	100.64
366.72	114.69
366.91	98.30
367.11	126.39
367.31	126.39
367.51	182.56
367.70	63.19
367.90	159.16
368.10	119.37
368.30	149.79
368.49	100.64
368.69	145.11
368.89	149.79
369.09	102.98
369.28	187.24
369.48	154.48
369.68	124.05
369.87	147.45
370.07	201.29
370.27	205.97
370.47	320.65
370.66	594.50
370.86	613.22
371.06	669.39
371.25	613.22
371.45	603.86
371.65	638.97
371.84	678.76
372.04	711.52
372.24	681.10
372.44	732.59
372.63	753.65
372.83	716.20
373.03	704.50
373.22	767.70
373.42	788.76
373.62	770.04
373.81	788.76
374.01	847.27
374.21	840.25
374.40	791.10
374.60	809.83
374.79	800.46
374.99	896.43
375.19	844.93
375.38	851.96
375.58	835.57
375.78	833.23
375.97	840.25
376.17	849.61
376.37	833.23
376.56	847.27
376.76	793.44
376.95	835.57
377.15	943.24
377.35	798.12
377.54	891.74
377.74	849.61
377.93	842.59
378.13	936.21
378.33	929.19
378.52	931.53
378.72	917.49
378.91	936.21
379.11	912.81
379.31	980.68
379.50	870.68
379.70	983.02
379.89	968.98
380.09	961.96
380.28	947.92
380.48	1039.20
380.68	971.32
380.87	971.32
381.07	1067.28
381.26	994.73
381.46	1074.31
381.65	1071.97
381.85	1100.05
382.04	1090.69
382.24	1025.15
382.43	1071.97
382.63	1048.56
382.83	1139.84
383.02	1114.10
383.22	1109.41
383.41	1069.62
383.61	1156.22
383.80	1163.25
384.00	1144.52
384.19	1062.60
384.39	1111.75
384.58	1139.84
384.78	1170.27
384.97	1193.67
385.17	1137.50
385.36	1191.33
385.56	1097.71
385.75	1121.12
385.95	1205.38
386.14	1200.69
386.34	1240.48
386.53	1207.72
386.72	1158.57
386.92	1196.01
387.11	1212.40
387.31	1275.59
387.50	1196.01
387.70	1188.99
387.89	1287.29
388.09	1210.06
388.28	1254.53
388.48	1327.08
388.67	1376.24
388.86	1277.93
389.06	1242.82
389.25	1404.32
389.45	1324.74
389.64	1390.28
389.84	1385.60
390.03	1369.21
390.22	1369.21
390.42	1331.76
390.61	1296.66
390.81	1411.34
391.00	1420.71
391.19	1502.62
391.39	1493.26
391.58	1383.26
391.78	1495.60
391.97	1469.86
392.16	1451.13
392.36	1458.15
392.55	1533.05
392.75	1596.25
392.94	1558.80
393.13	1526.03
393.33	1488.58
393.52	1596.25
393.71	1647.74
393.91	1544.75
394.10	1507.30
394.29	1584.54
394.49	1710.93
394.68	1650.08
394.88	1565.82
395.07	1598.59
395.26	1603.27
395.46	1673.48
395.65	1610.29
395.84	1748.38
396.04	1771.79
396.23	1673.48
396.42	1717.95
396.62	1743.70
396.81	1717.95
397.00	1746.04
397.19	1865.41
397.39	1888.81
397.58	1858.39
397.77	1778.81
397.97	1844.34
398.16	1795.19
398.35	1954.35
398.55	1900.52
398.74	1989.46
398.93	1996.48
399.12	1839.66
399.32	2005.84
399.51	1996.48
399.70	2054.99
399.90	2059.67
400.09	1940.30
400.28	2064.35
400.47	1963.71
400.67	2047.97
400.86	2108.82
401.05	2008.18
401.24	2071.37
401.44	2059.67
401.63	2111.16
401.82	2122.87
402.01	2036.27
402.21	2275.00
402.40	2251.60
402.59	2155.63
402.78	2174.36
402.97	2193.08
403.17	2251.60
403.36	2312.45
403.55	2340.54
403.74	2363.94
403.93	2333.51
404.13	2349.90
404.32	2438.84
404.51	2377.98
404.70	2387.35
404.89	2455.22
405.09	2544.16
405.28	2403.73
405.47	2504.37
405.66	2441.18
405.85	2476.29
406.05	2438.84
406.24	2562.89
406.43	2661.19
406.62	2506.71
406.81	2576.93
407.00	2583.95
407.20	2516.08
407.39	2621.40
407.58	2773.53
407.77	2768.85
407.96	2794.60
408.15	2754.81
408.34	2745.45
408.54	2757.15
408.73	2803.96
408.92	2855.45
409.11	2846.09
409.30	2995.89
409.49	2949.08
409.68	2972.48
409.87	2766.51
410.07	2939.71
410.26	2977.16
410.45	3023.97
410.64	3066.10
410.83	3087.17
411.02	3033.33
411.21	3119.93
411.40	3192.49
411.59	3262.71
411.78	3122.27
411.98	3183.13
412.17	3180.79
412.36	3262.71
412.55	3398.46
412.74	3300.16
412.93	3417.18
413.12	3407.82
413.31	3557.61
413.50	3386.76
413.69	3555.27
413.88	3695.71
414.07	3513.14
414.26	3571.66
414.45	3700.39
414.64	3632.51
414.83	3686.34
415.02	3770.60
415.22	3918.06
415.41	3817.41
415.60	3798.69
415.79	3850.18
415.98	3983.59
416.17	4037.42
416.36	3925.08
416.55	3988.27
416.74	4217.65
416.93	4037.42
417.12	4098.28
417.31	4058.49
417.50	4187.22
417.69	4245.73
417.88	4271.48
418.07	4255.09
418.26	4290.20
418.45	4255.09
418.64	4489.15
418.83	4425.95
419.02	4304.25
419.21	4582.77
419.39	4512.55
419.58	4545.32
419.77	4400.21
419.96	4573.41
420.15	4657.67
420.34	4599.15
420.53	4528.94
420.72	4709.16
420.91	4926.83
421.10	4709.16
421.29	4765.33
421.48	4826.18
421.67	4795.76
421.86	4624.90
422.05	4887.04
422.24	4830.87
422.43	4779.37
422.61	4896.40
422.80	4919.81
422.99	5027.47
423.18	4919.81
423.37	4990.02
423.56	4835.55
423.75	4851.93
423.94	4762.99
424.13	4608.51
424.32	4828.53
424.50	4950.23
424.69	5085.98
424.88	5060.24
425.07	5011.09
425.26	4933.85
425.45	5034.49
425.64	5053.22
425.83	5004.07
426.01	5071.94
426.20	5078.96
426.39	4968.96
426.58	4999.38
426.77	5046.20
426.96	5153.86
427.15	5116.41
427.33	5097.69
427.52	5231.10
427.71	5275.57
427.90	5076.62
428.09	5352.81
428.28	5289.61
428.46	5446.43
428.65	5219.39
428.84	5533.03
429.03	5561.11
429.22	5427.70
429.40	5540.05
429.59	5640.69
429.78	5109.39
429.97	5284.93
430.16	5619.63
430.34	5469.83
430.53	5797.51
430.72	5823.25
430.91	5682.82
431.10	5668.78
431.28	5816.23
431.47	5841.98
431.66	5715.59
431.85	5741.33
432.03	5841.98
432.22	6029.22
432.41	5888.79
432.60	6061.99
432.79	5975.39
432.97	5933.26
433.16	6108.80
433.35	6078.37
433.54	6017.52
433.72	6106.46
433.91	6092.41
434.10	5989.43
434.28	5977.73
434.47	6253.91
434.66	6193.06
434.85	6345.19
435.03	6239.87
435.22	6242.21
435.41	6373.28
435.59	6523.07
435.78	6530.09
435.97	6417.75
436.16	6368.60
436.34	6396.68
436.53	6551.16
436.72	6480.94
436.90	6438.81
437.09	6719.68
437.28	6555.84
437.46	6478.60
437.65	6480.94
437.84	6827.34
438.02	6726.70
438.21	6813.30
438.40	6677.55
438.58	6892.88
438.77	6963.09
438.96	6991.18
439.14	7023.95
439.33	7148.00
439.52	7295.45
439.70	7150.34
439.89	7150.34
440.08	7311.83
440.26	7508.44
440.45	7478.01
440.63	7386.73
440.82	7581.00
441.01	7674.62
441.19	7625.47
441.38	7763.56
441.57	7611.42
441.75	7836.11
441.94	8116.98
442.12	8067.83
442.31	7948.46
442.50	8116.98
442.68	8074.85
442.87	8168.47
443.05	8030.38
443.24	8166.13
443.43	8257.41
443.61	8224.64
443.80	8442.31
443.98	8109.96
444.17	7908.67
444.35	8182.51
444.54	8381.46
444.73	8372.10
444.91	8379.12
445.10	8301.88
445.28	8280.82
445.47	8187.19
445.65	8435.29
445.84	8365.07
446.02	8517.21
446.21	8397.84
446.39	8482.10
446.58	8472.74
446.77	8634.24
446.95	8170.81
447.14	8400.18
447.32	8662.32
447.51	8636.58
447.69	8379.12
447.88	8446.99
448.06	8601.47
448.25	8573.38
448.43	8538.27
448.62	8582.74
448.80	8662.32
448.99	8636.58
449.17	8676.37
449.36	8496.14
449.54	8816.80
449.73	8865.95
449.91	8992.34
450.10	9006.38
450.28	8947.87
450.46	8987.66
450.65	8952.55
450.83	9074.26
451.02	9130.43
451.20	9125.75
451.39	9221.71
451.57	9121.07
451.76	8924.46
451.94	9247.46
452.13	9296.61
452.31	9268.52
452.49	9277.88
452.68	9514.28
452.86	9387.89
453.05	9547.05
453.23	9495.55
453.42	9280.22
453.60	9280.22
453.78	9310.65
453.97	9298.95
454.15	9582.15
454.34	9423.00
454.52	10005.79
454.70	9542.36
454.89	9879.40
455.07	9799.82
455.26	9987.07
455.44	9757.69
455.62	9827.91
455.81	9933.23
455.99	10059.62
456.17	9923.87
456.36	10202.40
456.54	10239.84
456.73	10204.74
456.91	10525.39
457.09	10427.09
457.28	10616.67
457.46	10129.84
457.64	10466.88
457.83	10459.85
458.01	10300.70
458.19	10920.94
458.38	10553.48
458.56	10682.20
458.74	10700.93
458.93	10644.76
459.11	10869.45
459.29	10553.48
459.48	10855.40
459.66	10768.80
459.84	10934.98
460.03	11112.86
460.21	10995.84
460.39	11138.61
460.57	10876.47
460.76	11227.55
460.94	11403.09
461.12	11297.77
461.31	10953.71
461.49	11033.29
461.67	11297.77
461.85	11358.62
462.04	11463.94
462.22	11810.34
462.40	11473.31
462.59	11702.68
462.77	11595.01
462.95	11587.99
463.13	11351.60
463.32	11522.46
463.50	11859.49
463.68	11988.22
463.86	11775.24
464.05	11871.20
464.23	11721.40
464.41	11829.07
464.59	11749.49
464.78	11953.12
464.96	11967.16
465.14	11929.71
465.32	12278.45
465.50	11981.20
465.69	12147.38
465.87	12088.87
466.05	12231.64
466.23	12107.59
466.41	12329.94
466.60	12470.37
466.78	12182.49
466.96	11985.88
467.14	12159.08
467.32	12414.20
467.51	12599.10
467.69	12201.21
467.87	12468.03
468.05	12622.51
468.23	12547.61
468.41	12472.71
468.60	12746.56
468.78	12830.82
468.96	12765.28
469.14	12879.97
469.32	12975.93
469.50	12610.81
469.69	13123.38
469.87	13186.58
470.05	13135.09
470.23	13266.16
470.41	13378.50
470.59	13156.15
470.77	13004.02
470.95	13144.45
471.14	13554.04
471.32	13125.72
471.50	13607.87
471.68	13549.36
471.86	13832.57
472.04	13820.86
472.22	14195.35
472.40	13664.05
472.58	13795.12
472.77	13989.38
472.95	14101.73
473.13	14621.33
473.31	13912.14
473.49	14207.05
473.67	14188.33
473.85	14249.18
474.03	14548.77
474.21	14548.77
474.39	14773.46
474.57	14808.57
474.75	14822.61
474.93	14977.09
475.12	14909.21
475.30	15248.59
475.48	15138.58
475.66	15503.71
475.84	15157.31
476.02	15583.29
476.20	15241.57
476.38	15676.91
476.56	15901.60
476.74	15960.11
476.92	16032.67
477.10	15985.86
477.28	16065.44
477.46	16271.40
477.64	16566.31
477.82	16362.69
478.00	17025.06
478.18	17167.83
478.36	16849.52
478.54	17029.74
478.72	17231.02
478.90	17266.13
479.08	17582.10
479.26	17645.30
479.44	17617.21
479.62	17771.69
479.80	17951.91
479.98	18237.45
480.16	18534.70
480.34	18473.85
480.52	18586.19
480.70	18670.45
480.88	18291.29
481.06	18897.49
481.24	18794.50
481.41	19456.87
481.59	19084.73
481.77	19447.51
481.95	19321.12
482.13	19594.96
482.31	19871.15
482.49	20116.90
482.67	20175.42
482.85	20491.39
483.03	20531.18
483.21	21013.33
483.39	20882.26
483.57	20648.21
483.74	21163.12
483.92	21614.85
484.10	21369.09
484.28	21830.18
484.46	22045.51
484.64	22141.47
484.82	22202.32
485.00	22286.58
485.18	22986.40
485.35	23012.15
485.53	22925.55
485.71	23264.92
485.89	23564.51
486.07	23475.57
486.25	23763.46
486.43	23414.72
486.61	23828.99
486.78	23990.49
486.96	24135.60
487.14	24800.32
487.32	24622.44
487.50	24786.27
487.68	25317.57
487.85	25455.67
488.03	25177.14
488.21	25823.13
488.39	25823.13
488.57	26267.83
488.75	26204.64
488.92	26689.13
489.10	26967.65
489.28	26766.37
489.46	27150.21
489.64	27175.96
489.81	27868.76
489.99	27639.39
490.17	28156.64
490.35	28371.97
490.53	28290.06
490.70	28395.38
490.88	28236.22
491.06	28945.41
491.24	28891.57
491.41	29158.39
491.59	29420.53
491.77	29493.09
491.95	29560.97
492.13	30286.53
492.30	29900.34
492.48	30094.61
492.66	30129.72
492.84	30551.01
493.01	31026.14
493.19	30918.48
493.37	30864.64
493.54	31063.59
493.72	31735.32
493.90	31505.95
494.08	31950.65
494.25	31943.63
494.43	31859.37
494.61	32470.25
494.79	32521.74
494.96	32411.74
495.14	32814.31
495.32	33132.62
495.49	33118.58
495.67	33322.21
495.85	33329.23
496.02	34019.69
496.20	33851.17
496.38	33799.68
496.55	34387.15
496.73	35110.38
496.91	34848.24
497.09	34555.67
497.26	35271.87
497.44	35365.49
497.62	35608.91
497.79	35840.62
497.97	35405.28
498.14	36088.72
498.32	36336.82
498.50	36156.60
498.67	36723.01
498.85	36730.03
499.03	36645.77
499.20	36746.41
499.38	36727.69
499.56	37352.61
499.73	37462.61
499.91	37212.18
500.08	37813.70
500.26	37565.60
500.44	37736.46
500.61	37996.26
500.79	38005.62
500.97	38417.55
501.14	38506.49
501.32	38735.87
501.49	38621.18
501.67	38660.97
501.84	39035.45
502.02	38810.76
502.20	38906.73
502.37	39346.75
502.55	39669.74
502.72	39622.93
502.90	39552.71
503.07	39704.85
503.25	39597.18
503.43	39746.98
503.60	40091.04
503.78	40114.44
503.95	40488.93
504.13	40421.05
504.30	40507.65
504.48	40737.02
504.65	40832.99
504.83	40903.20
505.01	41448.55
505.18	41193.43
505.36	41324.50
505.53	41216.83
505.71	42010.28
505.88	41579.62
506.06	41998.57
506.23	41982.19
506.41	42029.00
506.58	42466.68
506.76	42305.18
506.93	42440.93
507.11	42122.62
507.28	42171.77
507.46	42387.10
507.63	43285.87
507.81	43112.67
507.98	42995.64
508.16	43061.18
508.33	42948.83
508.50	43742.27
508.68	43627.59
508.85	43885.04
509.03	43957.60
509.20	43964.62
509.38	44353.15
509.55	44720.62
509.73	44683.17
509.90	44673.81
510.08	44535.71
510.25	44493.58
510.42	44861.05
510.60	44971.05
510.77	45542.14
510.95	45366.60
511.12	45584.27
511.30	45593.64
511.47	45666.19
511.64	45310.43
511.82	45755.13
511.99	46021.95
512.17	46389.42
512.34	45703.64
512.51	46766.24
512.69	46438.57
512.86	46553.26
513.04	46808.37
513.21	46848.16
513.38	46525.17
513.56	46864.55
513.73	46955.83
513.90	47075.19
514.08	47220.31
514.25	47021.36
514.43	47426.28
514.60	47171.16
514.77	47758.63
514.95	47489.47
515.12	47583.09
515.29	47571.39
515.47	48151.84
515.64	48362.49
515.81	48219.72
515.99	48051.20
516.16	48685.48
516.33	48435.05
516.51	48495.90
516.68	48655.06
516.85	48222.06
517.03	48615.27
517.20	49209.76
517.37	48648.03
517.54	49200.40
517.72	49345.51
517.89	49450.84
518.06	48865.70
518.24	49439.14
518.41	49081.03
518.58	49778.51
518.75	49265.94
518.93	49787.88
519.10	49233.17
519.27	49666.17
519.45	49638.08
519.62	49982.14
519.79	49900.22
519.96	50564.93
520.14	50054.70
520.31	50272.37
520.48	50293.43
520.65	50288.75
520.83	50703.03
521.00	50829.41
521.17	50667.92
521.34	50623.45
521.52	50934.74
521.69	51454.34
521.86	51145.39
522.03	51274.12
522.20	51363.06
522.38	51653.28
522.55	51650.94
522.72	51409.87
522.89	51243.69
523.07	51725.84
523.24	51632.22
523.41	51803.08
523.58	51505.83
523.75	51908.40
523.92	51927.13
524.10	52196.29
524.27	52334.38
524.44	52121.39
524.61	52268.84
524.78	52275.87
524.96	52158.84
525.13	52381.19
525.30	52493.54
525.47	52463.11
525.64	52435.02
525.81	52907.81
525.98	52931.22
526.16	52617.58
526.33	52582.48
526.50	53284.64
526.67	52687.80
526.84	53022.50
527.01	52992.07
527.18	52926.53
527.36	53109.10
527.53	53340.81
527.70	53193.36
527.87	53324.43
528.04	53460.18
528.21	53467.20
528.38	53413.37
528.55	53542.10
528.72	53282.30
528.89	53553.80
529.07	53296.34
529.24	53553.80
529.41	54007.86
529.58	53797.21
529.75	53963.39
529.92	53673.16
530.09	54124.89
530.26	53904.88
530.43	53951.69
530.60	53855.73
530.77	53722.32
530.94	54120.21
531.11	54171.70
531.28	53984.46
531.46	54150.63
531.63	54209.15
531.80	54141.27
531.97	54335.54
532.14	54365.96
532.31	54789.60
532.48	54621.08
532.65	54803.64
532.82	54637.47
532.99	54740.45
533.16	54937.05
533.33	54824.71
533.50	55079.83
533.67	54993.23
533.84	54738.11
534.01	55011.95
534.18	55161.75
534.35	55365.37
534.52	54986.21
534.69	55295.16
534.86	55346.65
535.03	55199.19
535.20	55388.78
535.37	54986.21
535.54	55285.79
535.71	55480.06
535.88	55564.32
536.05	55503.46
536.22	55629.85
536.38	55463.67
536.55	55803.05
536.72	55693.05
536.89	55611.13
537.06	55522.19
537.23	55711.77
537.40	55646.24
537.57	55674.32
537.74	55456.65
537.91	56009.02
538.08	56055.83
538.25	55774.97
538.42	56184.56
538.59	56158.81
538.75	55629.85
538.92	56280.52
539.09	56233.71
539.26	56151.79
539.43	56214.99
539.60	56521.60
539.77	56432.66
539.94	56292.22
540.11	56406.91
540.28	56671.39
540.44	56640.96
540.61	56451.38
540.78	56147.11
540.95	56320.31
541.12	56303.93
541.29	56629.26
541.46	56816.50
541.62	56732.25
541.79	56776.72
541.96	56470.11
542.13	56540.32
542.30	56631.60
542.47	57010.77
542.63	56968.64
542.80	56963.96
542.97	57207.37
543.14	57284.61
543.31	57010.77
543.48	57095.03
543.64	57719.95
543.81	57420.36
543.98	57352.49
544.15	57315.04
544.32	57506.96
544.48	57652.08
544.65	57602.92
544.82	57389.94
544.99	57155.88
545.16	57705.91
545.32	57420.36
545.49	57593.56
545.66	57616.97
545.83	57722.29
546.00	57717.61
546.16	57696.55
546.33	57598.24
546.50	57544.41
546.67	57741.02
546.83	57511.64
547.00	58089.76
547.17	57645.05
547.34	57855.70
547.50	57717.61
547.67	58159.97
547.84	57989.11
548.00	58244.23
548.17	58281.68
548.34	58351.90
548.51	58384.66
548.67	58218.49
548.84	58148.27
549.01	58363.60
549.18	58162.31
549.34	58120.18
549.51	58281.68
549.68	58504.03
549.84	58340.19
550.01	58525.10
550.18	58351.90
550.34	58660.85
550.51	58478.28
550.68	58471.26
550.84	58335.51
551.01	58431.47
551.18	58592.97
551.34	58499.35
551.51	58475.94
551.68	58607.01
551.84	58681.91
552.01	58309.77
552.18	58726.38
552.34	58525.10
552.51	58848.09
552.68	58487.65
552.84	58890.22
553.01	59004.91
553.18	58974.48
553.34	58993.20
553.51	58845.75
553.67	58829.37
553.84	59084.48
554.01	59283.43
554.17	58915.96
554.34	59110.23
554.51	58838.73
554.67	59086.82
554.84	58803.62
555.00	59028.31
555.17	59002.56
555.33	59164.06
555.50	59014.27
555.67	59032.99
555.83	59206.19
556.00	59213.21
556.16	59491.74
556.33	59344.28
556.50	59274.07
556.66	59430.88
556.83	59047.04
556.99	59552.59
557.16	59503.44
557.32	59557.27
557.49	59634.51
557.65	59318.54
557.82	59367.69
557.98	59451.95
558.15	59629.83
558.32	59510.46
558.48	59262.36
558.65	59491.74
558.81	59501.10
558.98	59491.74
559.14	59634.51
559.31	59756.22
559.47	59732.81
559.64	59852.18
559.80	59838.14
559.97	59936.44
560.13	59690.68
560.30	59760.90
560.46	59807.71
560.63	59765.58
560.79	59777.28
560.96	59927.08
561.12	59978.57
561.29	59896.65
561.45	59913.03
561.61	59751.54
561.78	59999.63
561.94	59957.50
562.11	59877.93
562.27	60184.54
562.44	60109.64
562.60	60041.76
562.77	60058.15
562.93	59774.94
563.10	60158.79
563.26	60011.34
563.42	60048.78
563.59	59971.55
563.75	60060.49
563.92	59924.74
564.08	60006.65
564.24	60076.87
564.41	60109.64
564.57	60074.53
564.74	60097.94
564.90	60266.45
565.07	60065.17
565.23	60175.17
565.39	60186.88
565.56	60355.39
565.72	60411.57
565.88	60095.60
566.05	60254.75
566.21	60119.00
566.38	60301.56
566.54	60301.56
566.70	60624.56
566.87	60526.25
567.03	60315.61
567.19	60577.75
567.36	60449.02
567.52	60289.86
567.68	60500.51
567.85	60383.48
568.01	60577.75
568.17	60493.49
568.34	60559.02
568.50	60404.55
568.66	60437.31
568.83	60577.75
568.99	60364.76
569.15	60589.45
569.32	60341.35
569.48	60329.65
569.64	60573.06
569.81	60477.10
569.97	60229.01
570.13	60252.41
570.30	60601.15
570.46	60671.37
570.62	60633.92
570.78	60453.70
570.95	60573.06
571.11	60491.15
571.27	60619.88
571.43	60559.02
571.60	60842.23
571.76	60533.28
571.92	60678.39
572.09	60526.25
572.25	60622.22
572.41	60626.90
572.57	60619.88
572.74	60912.44
572.90	60629.24
573.06	60547.32
573.22	60706.47
573.38	60587.11
573.55	60694.77
573.71	60910.10
573.87	60779.03
574.03	60654.98
574.20	60643.28
574.36	60760.31
574.52	60807.12
574.68	60921.80
574.84	60757.97
575.01	60772.01
575.17	60697.11
575.33	60720.52
575.49	60760.31
575.65	61090.32
575.82	60664.35
575.98	60860.95
576.14	61015.43
576.30	60718.18
576.46	60797.76
576.62	60659.66
576.79	60662.00
576.95	60762.65
577.11	60891.38
577.27	60867.97
577.43	60769.67
577.59	60795.42
577.75	60907.76
577.92	60612.85
578.08	60786.05
578.24	60996.70
578.40	60816.48
578.56	61073.94
578.72	60985.00
578.88	60882.02
579.04	61015.43
579.21	60772.01
579.37	60992.02
579.53	61307.99
579.69	60662.00
579.85	61050.53
580.01	60966.27
580.17	60755.63
580.33	61008.40
580.49	61071.60
580.65	60851.59
580.82	60940.53
580.98	60729.88
581.14	60795.42
581.30	61186.28
581.46	60832.86
581.62	61169.90
581.78	60935.85
581.94	60912.44
582.10	61064.58
582.26	60732.22
582.42	60856.27
582.58	60970.96
582.74	60921.80
582.90	60853.93
583.06	60886.70
583.22	60647.96
583.38	61003.72
583.54	60907.76
583.70	61057.56
583.86	61195.65
584.02	60956.91
584.18	60945.21
584.34	60940.53
584.50	60970.96
584.66	60872.65
584.82	60900.74
584.98	61174.58
585.14	61013.08
585.30	60970.96
585.46	61148.84
585.62	60942.87
585.78	61104.37
585.94	61024.79
586.10	61036.49
586.26	61041.17
586.42	61167.56
586.58	61010.74
586.74	61036.49
586.90	61069.26
587.06	60973.30
587.22	61153.52
587.38	61322.04
587.54	61188.63
587.70	61352.46
587.86	61151.18
588.02	61127.77
588.18	61179.26
588.34	60996.70
588.49	60940.53
