SpectraSuite Data File
++++++++++++++++++++++++++++++++++++
Date: Fri Oct 25 10:43:35 EDT 2013
User: price-jones
Dark Spectrum Present: No
Reference Spectrum Present: No
Number of Sampled Component Spectra: 1
Spectrometers: USB2+H05261
Integration Time (usec): 100000 (USB2+H05261)
Spectra Averaged: 1 (USB2+H05261)
Boxcar Smoothing: 0 (USB2+H05261)
Correct for Electrical Dark: No (USB2+H05261)
Strobe/Lamp Enabled: No (USB2+H05261)
Correct for Detector Non-linearity: No (USB2+H05261)
Correct for Stray Light: No (USB2+H05261)
Number of Pixels in Processed Spectrum: 2048
>>>>>Begin Processed Spectral Data<<<<<
365.73	156.82
365.92	156.82
366.12	156.82
366.32	84.26
366.52	0.00
366.72	107.66
366.91	0.00
367.11	46.81
367.31	0.00
367.51	0.00
367.70	0.00
367.90	25.75
368.10	0.00
368.30	37.45
368.49	0.00
368.69	70.22
368.89	0.00
369.09	28.09
369.28	79.58
369.48	53.83
369.68	70.22
369.87	91.28
370.07	86.60
370.27	138.09
370.47	180.22
370.66	339.38
370.86	418.96
371.06	517.26
371.25	440.02
371.45	449.38
371.65	395.55
371.84	451.72
372.04	454.06
372.24	514.92
372.44	500.87
372.63	489.17
372.83	512.58
373.03	456.40
373.22	486.83
373.42	479.81
373.62	538.32
373.81	512.58
374.01	517.26
374.21	564.07
374.40	543.00
374.60	594.50
374.79	578.11
374.99	524.28
375.19	610.88
375.38	510.24
375.58	671.73
375.78	582.79
375.97	610.88
376.17	641.31
376.37	550.03
376.56	662.37
376.76	617.90
376.95	571.09
377.15	568.75
377.35	627.26
377.54	660.03
377.74	657.69
377.93	674.07
378.13	664.71
378.33	685.78
378.52	629.60
378.72	641.31
378.91	610.88
379.11	580.45
379.31	589.82
379.50	627.26
379.70	713.86
379.89	755.99
380.09	664.71
380.28	648.33
380.48	739.61
380.68	702.16
380.87	669.39
381.07	791.10
381.26	751.31
381.46	805.14
381.65	744.29
381.85	699.82
382.04	777.06
382.24	660.03
382.43	723.23
382.63	753.65
382.83	688.12
383.02	697.48
383.22	720.88
383.41	739.61
383.61	814.51
383.80	863.66
384.00	702.16
384.19	823.87
384.39	816.85
384.58	802.80
384.78	819.19
384.97	819.19
385.17	793.44
385.36	681.10
385.56	882.38
385.75	758.33
385.95	812.17
386.14	816.85
386.34	861.32
386.53	751.31
386.72	833.23
386.92	847.27
387.11	894.08
387.31	877.70
387.50	781.74
387.70	741.95
387.89	854.30
388.09	889.40
388.28	873.02
388.48	905.79
388.67	964.30
388.86	966.64
389.06	889.40
389.25	940.90
389.45	1039.20
389.64	999.41
389.84	950.26
390.03	1029.84
390.22	966.64
390.42	1015.79
390.61	1004.09
390.81	1048.56
391.00	1032.18
391.19	1191.33
391.39	983.02
391.58	1111.75
391.78	1114.10
391.97	1006.43
392.16	1062.60
392.36	1086.01
392.55	1062.60
392.75	1025.15
392.94	1020.47
393.13	1060.26
393.33	940.90
393.52	1013.45
393.71	1156.22
393.91	1050.90
394.10	1123.46
394.29	1160.91
394.49	1172.61
394.68	1231.12
394.88	1217.08
395.07	1315.38
395.26	1273.25
395.46	1296.66
395.65	1277.93
395.84	1287.29
396.04	1310.70
396.23	1181.97
396.42	1139.84
396.62	1174.95
396.81	1210.06
397.00	1268.57
397.19	1310.70
397.39	1315.38
397.58	1390.28
397.77	1341.13
397.97	1411.34
398.16	1507.30
398.35	1430.07
398.55	1453.47
398.74	1479.22
398.93	1579.86
399.12	1570.50
399.32	1486.24
399.51	1502.62
399.70	1645.40
399.90	1575.18
400.09	1610.29
400.28	1624.33
400.47	1657.10
400.67	1650.08
400.86	1633.69
401.05	1666.46
401.24	1736.68
401.44	1813.92
401.63	1757.74
401.82	1785.83
402.01	1834.98
402.21	1739.02
402.40	1830.30
402.59	1813.92
402.78	1776.47
402.97	1881.79
403.17	1849.02
403.36	1893.49
403.55	1928.60
403.74	1881.79
403.93	1813.92
404.13	1947.33
404.32	1842.00
404.51	1954.35
404.70	1952.01
404.89	1900.52
405.09	2033.93
405.28	1961.37
405.47	2087.76
405.66	1987.11
405.85	1942.64
406.05	2017.54
406.24	1952.01
406.43	2029.24
406.62	2155.63
406.81	2228.19
407.00	1940.30
407.20	2181.38
407.39	2080.74
407.58	2181.38
407.77	2155.63
407.96	2244.57
408.15	2293.72
408.34	2392.03
408.54	2345.22
408.73	2394.37
408.92	2284.36
409.11	2352.24
409.30	2289.04
409.49	2326.49
409.68	2349.90
409.87	2232.87
410.07	2399.05
410.26	2429.48
410.45	2399.05
410.64	2513.74
410.83	2609.70
411.02	2609.70
411.21	2597.99
411.40	2621.40
411.59	2651.83
411.78	2614.38
411.98	2799.28
412.17	2672.89
412.36	2628.42
412.55	2780.56
412.74	2825.03
412.93	2946.73
413.12	2825.03
413.31	2918.65
413.50	2876.52
413.69	2960.78
413.88	3054.40
414.07	2932.69
414.26	2995.89
414.45	3059.08
414.64	3023.97
414.83	3105.89
415.02	3155.04
415.22	3110.57
415.41	3201.85
415.60	3152.70
415.79	3262.71
415.98	3307.18
416.17	3243.98
416.36	3260.37
416.55	3321.22
416.74	3431.23
416.93	3325.90
417.12	3353.99
417.31	3356.33
417.50	3258.03
417.69	3449.95
417.88	3513.14
418.07	3454.63
418.26	3585.70
418.45	3489.74
418.64	3625.49
418.83	3522.51
419.02	3716.77
419.21	3637.19
419.39	3623.15
419.58	3613.79
419.77	3672.30
419.96	3623.15
420.15	3786.99
420.34	3775.28
420.53	3794.01
420.72	3871.25
420.91	3749.54
421.10	3878.27
421.29	3885.29
421.48	3857.20
421.67	3854.86
421.86	3817.41
422.05	3978.91
422.24	3927.42
422.43	3826.78
422.61	3985.93
422.80	4011.68
422.99	4051.47
423.18	4037.42
423.37	3936.78
423.56	4093.60
423.75	3941.46
423.94	3941.46
424.13	3627.83
424.32	3852.52
424.50	3957.85
424.69	4021.04
424.88	4149.77
425.07	3976.57
425.26	4046.79
425.45	4028.06
425.64	4060.83
425.83	3983.59
426.01	4138.07
426.20	4070.19
426.39	3957.85
426.58	4079.55
426.77	3990.61
426.96	4028.06
427.15	4079.55
427.33	4056.15
427.52	4105.30
427.71	4248.07
427.90	4315.95
428.09	4376.80
428.28	4372.12
428.46	4131.05
428.65	4210.62
428.84	4198.92
429.03	4332.33
429.22	4102.96
429.40	4248.07
429.59	4308.93
429.78	4114.66
429.97	3850.18
430.16	4217.65
430.34	4018.70
430.53	4152.11
430.72	4205.94
430.91	4227.01
431.10	4514.89
431.28	4477.44
431.47	4660.01
431.66	4779.37
431.85	4552.34
432.03	4657.67
432.22	4624.90
432.41	4695.11
432.60	4636.60
432.79	4826.18
432.97	4767.67
433.16	4791.08
433.35	4683.41
433.54	4713.84
433.72	4718.52
433.91	4777.03
434.10	4833.21
434.28	4854.27
434.47	4842.57
434.66	4985.34
434.85	5006.41
435.03	5085.98
435.22	4992.36
435.41	5172.58
435.59	5121.09
435.78	5282.59
435.97	5245.14
436.16	5121.09
436.34	5165.56
436.53	5207.69
436.72	5303.65
436.90	5219.39
437.09	5198.33
437.28	5252.16
437.46	5240.46
437.65	5181.95
437.84	5249.82
438.02	5394.93
438.21	5252.16
438.40	5247.48
438.58	5465.15
438.77	5472.17
438.96	5483.88
439.14	5703.89
439.33	5713.25
439.52	5738.99
439.70	5724.95
439.89	5750.70
440.08	5879.43
440.26	5713.25
440.45	5795.17
440.63	5823.25
440.82	6061.99
441.01	6078.37
441.19	6019.86
441.38	6251.57
441.57	6366.26
441.75	6345.19
441.94	6342.85
442.12	6436.47
442.31	6506.69
442.50	6267.95
442.68	6455.20
442.87	6422.43
443.05	6436.47
443.24	6539.46
443.43	6459.88
443.61	6546.48
443.80	6801.60
443.98	6476.26
444.17	6244.55
444.35	6719.68
444.54	6853.09
444.73	6750.10
444.91	6518.39
445.10	6590.95
445.28	6473.92
445.47	6506.69
445.65	6595.63
445.84	6590.95
446.02	6626.06
446.21	6670.53
446.39	6700.95
446.58	6876.49
446.77	6715.00
446.95	6656.48
447.14	6787.55
447.32	6899.90
447.51	6864.79
447.69	6761.81
447.88	6796.92
448.06	6883.52
448.25	6710.32
448.43	6902.24
448.62	6860.11
448.80	6834.36
448.99	6848.41
449.17	6970.12
449.36	6843.73
449.54	7208.85
449.73	7290.77
449.91	7220.55
450.10	7140.97
450.28	7384.39
450.46	7557.59
450.65	7241.62
450.83	7335.24
451.02	7122.25
451.20	7438.22
451.39	7410.14
451.57	7232.26
451.76	7445.24
451.94	7325.88
452.13	7391.41
452.31	7384.39
452.49	7152.68
452.68	7194.81
452.86	7204.17
453.05	7295.45
453.23	7515.46
453.42	7695.68
453.60	7541.21
453.78	7407.80
453.97	7417.16
454.15	7414.82
454.34	7426.52
454.52	7543.55
454.70	7489.71
454.89	7779.94
455.07	7536.52
455.26	7726.11
455.44	7927.39
455.62	7864.20
455.81	7803.35
455.99	7948.46
456.17	7906.33
456.36	8063.15
456.54	8210.60
456.73	8065.49
456.91	8257.41
457.09	8432.95
457.28	8329.97
457.46	8042.08
457.64	8250.39
457.83	8184.85
458.01	8194.22
458.19	8599.13
458.38	8236.35
458.56	8451.67
458.74	8266.77
458.93	8297.20
459.11	8266.77
459.29	8376.78
459.48	8528.91
459.66	8465.72
459.84	8507.85
460.03	8727.86
460.21	8510.19
460.39	8777.01
460.57	8669.34
460.76	8812.12
460.94	8891.70
461.12	8683.39
461.31	9013.40
461.49	8889.35
461.67	8765.31
461.85	8985.32
462.04	8702.11
462.22	9589.17
462.40	9128.09
462.59	9048.51
462.77	9170.22
462.95	9060.21
463.13	9062.55
463.32	9174.90
463.50	9104.68
463.68	9235.75
463.86	8964.25
464.05	8828.50
464.23	9067.24
464.41	9188.94
464.59	9011.06
464.78	9137.45
464.96	9174.90
465.14	9174.90
465.32	9490.87
465.50	9504.92
465.69	9467.47
465.87	9312.99
466.05	9259.16
466.23	9193.62
466.41	9420.66
466.60	9551.73
466.78	9474.49
466.96	9404.27
467.14	9486.19
467.32	9561.09
467.51	9455.76
467.69	9451.08
467.87	9696.84
468.05	9755.35
468.23	9544.70
468.41	9434.70
468.60	9811.53
468.78	9720.24
468.96	9565.77
469.14	9834.93
469.32	9933.23
469.50	9563.43
469.69	9944.94
469.87	9872.38
470.05	10003.45
470.23	9935.57
470.41	9895.78
470.59	10097.07
470.77	10244.52
470.95	10136.86
471.14	10221.12
471.32	10225.80
471.50	10609.65
471.68	10338.15
471.86	10501.98
472.04	10506.66
472.22	10738.38
472.40	10377.94
472.58	10623.69
472.77	10513.69
472.95	10846.04
473.13	11026.26
473.31	10794.55
473.49	10478.58
473.67	10759.44
473.85	10895.19
474.03	11115.20
474.21	11115.20
474.39	11087.12
474.57	11204.14
474.75	11447.56
474.93	11445.22
475.12	11330.53
475.30	11288.40
475.48	11370.32
475.66	11290.74
475.84	11185.42
476.02	11452.24
476.20	11477.99
476.38	11770.55
476.56	11992.90
476.74	11915.67
476.92	11992.90
477.10	12142.70
477.28	12273.77
477.46	12393.14
477.64	12325.26
477.82	12538.25
478.00	12847.20
478.18	12613.15
478.36	12781.67
478.54	13013.38
478.72	13050.83
478.90	12879.97
479.08	13172.54
479.26	13296.58
479.44	13502.55
479.62	13439.36
479.80	13507.23
479.98	13628.94
480.16	14101.73
480.34	13598.51
480.52	13886.40
480.70	14057.26
480.88	13839.59
481.06	13895.76
481.24	14417.70
481.41	14272.59
481.59	14441.11
481.77	14682.18
481.95	14586.22
482.13	14909.21
482.31	14609.62
482.49	15082.41
482.67	15232.21
482.85	15264.97
483.03	15473.28
483.21	15578.61
483.39	15566.90
483.57	15651.16
483.74	15545.84
483.92	15749.46
484.10	15763.51
484.28	16292.47
484.46	16339.28
484.64	16491.41
484.82	16262.04
485.00	16280.77
485.18	16388.43
485.35	16645.89
485.53	16453.97
485.71	16514.82
485.89	16634.19
486.07	16594.40
486.25	16774.62
486.43	17114.00
486.61	17432.31
486.78	17362.09
486.96	17516.57
487.14	17736.58
487.32	17954.25
487.50	18459.81
487.68	18553.43
487.85	18546.40
488.03	18586.19
488.21	18759.39
488.39	18630.66
488.57	19077.71
488.75	19054.30
488.92	19658.16
489.10	19548.15
489.28	19566.88
489.46	20189.46
489.64	19665.18
489.81	20484.37
489.99	20205.84
490.17	20355.64
490.35	20645.87
490.53	20549.90
490.70	20577.99
490.88	20776.94
491.06	21259.09
491.24	21219.30
491.41	20783.96
491.59	20676.29
491.77	20898.64
491.95	21439.31
492.13	21715.49
492.30	21687.40
492.48	21841.88
492.66	21982.31
492.84	22073.59
493.01	22309.99
493.19	22207.00
493.37	22562.76
493.54	22157.85
493.72	22916.19
493.90	22607.23
494.08	23311.74
494.25	23405.36
494.43	23030.87
494.61	23623.03
494.79	24088.79
494.96	23538.77
495.14	23662.82
495.32	23789.20
495.49	23828.99
495.67	24264.33
495.85	24212.84
496.02	24400.08
496.20	24760.53
496.38	24652.86
496.55	25113.95
496.73	25036.71
496.91	24753.51
497.09	25027.35
497.26	25280.13
497.44	25127.99
497.62	25724.83
497.79	25671.00
497.97	25528.22
498.14	25869.94
498.32	25881.64
498.50	25799.73
498.67	26192.94
498.85	26272.51
499.03	26752.32
499.20	26487.84
499.38	26434.01
499.56	26492.52
499.73	26684.45
499.91	26768.71
500.08	26590.83
500.26	26452.73
500.44	26984.04
500.61	26948.93
500.79	26731.26
500.97	26836.58
501.14	27468.53
501.32	27424.06
501.49	27021.48
501.67	27426.40
501.84	27814.93
502.02	27784.50
502.20	27875.78
502.37	28098.13
502.55	27819.61
502.72	28315.80
502.90	28416.44
503.07	28505.38
503.25	28360.27
503.43	28077.07
503.60	28250.27
503.78	28421.13
503.95	28329.84
504.13	28877.53
504.30	28666.88
504.48	28989.88
504.65	28900.94
504.83	29909.71
505.01	29586.71
505.18	29383.09
505.36	29528.20
505.53	29832.47
505.71	30061.84
505.88	30192.91
506.06	29851.19
506.23	30134.40
506.41	30157.80
506.58	29703.74
506.76	30155.46
506.93	30181.21
507.11	29902.68
507.28	30024.39
507.46	29886.30
507.63	30054.82
507.81	30342.70
507.98	30279.51
508.16	30836.56
508.33	30522.93
508.50	30756.98
508.68	31311.69
508.85	31571.49
509.03	30838.90
509.20	31140.83
509.38	31601.91
509.55	31548.08
509.73	31744.69
509.90	31512.97
510.08	31517.65
510.25	31606.59
510.42	32034.91
510.60	32212.79
510.77	32425.78
510.95	32144.92
511.12	32250.24
511.30	32360.25
511.47	32411.74
511.64	32414.08
511.82	33095.18
511.99	32409.40
512.17	32629.41
512.34	32510.04
512.51	32606.00
512.69	32893.89
512.86	32893.89
513.04	33071.77
513.21	33083.47
513.38	32989.85
513.56	33390.08
513.73	33055.39
513.90	33359.66
514.08	33397.10
514.25	33371.36
514.43	33476.68
514.60	33804.36
514.77	33853.51
514.95	34043.09
515.12	33223.90
515.29	33593.71
515.47	34550.99
515.64	34237.36
515.81	33937.77
515.99	33989.26
516.16	34017.35
516.33	33905.00
516.51	33832.44
516.68	33366.68
516.85	33593.71
517.03	33862.87
517.20	34403.53
517.37	34227.99
517.54	34799.08
517.72	34270.12
517.89	34309.91
518.06	34162.46
518.24	34721.85
518.41	34213.95
518.58	34625.89
518.75	34761.64
518.93	35323.36
519.10	35056.54
519.27	35321.02
519.45	35555.08
519.62	35632.32
519.79	35550.40
519.96	36053.61
520.14	35655.72
520.31	35955.31
520.48	35861.69
520.65	35732.96
520.83	35995.10
521.00	36425.76
521.17	36224.47
521.34	36617.68
521.52	36397.67
521.69	36470.23
521.86	36437.46
522.03	36631.72
522.20	36549.81
522.38	36711.30
522.55	36802.58
522.72	36723.01
522.89	36683.22
523.07	37060.04
523.24	36804.92
523.41	37165.37
523.58	37305.80
523.75	37500.06
523.92	37352.61
524.10	37612.41
524.27	37464.96
524.44	37282.39
524.61	37366.65
524.78	37354.95
524.96	37750.50
525.13	37446.23
525.30	37834.76
525.47	38766.29
525.64	38153.07
525.81	38155.41
525.98	37809.01
526.16	37680.28
526.33	37516.45
526.50	37841.78
526.67	37418.14
526.84	37778.59
527.01	37785.61
527.18	37823.06
527.36	38450.32
527.53	38384.79
527.70	38799.06
527.87	38675.01
528.04	38501.81
528.21	38415.21
528.38	38522.88
528.55	39342.06
528.72	39365.47
528.89	39124.40
529.07	39051.84
529.24	38733.53
529.41	39215.68
529.58	39187.59
529.75	39206.31
529.92	39269.51
530.09	39505.90
530.26	39262.49
530.43	39648.68
530.60	39379.51
530.77	39208.65
530.94	40109.76
531.11	39538.67
531.28	39997.41
531.46	39952.94
531.63	40732.34
531.80	40292.32
531.97	39440.37
532.14	39379.51
532.31	39365.47
532.48	39917.84
532.65	40074.65
532.82	40041.88
532.99	40086.36
533.16	39803.15
533.33	40306.37
533.50	40289.98
533.67	40322.75
533.84	39421.64
534.01	40271.26
534.18	40238.49
534.35	40886.82
534.52	40531.06
534.69	40559.14
534.86	40449.14
535.03	40215.08
535.20	41109.17
535.37	41291.73
535.54	41481.31
535.71	40847.03
535.88	40924.27
536.05	40737.02
536.22	41104.49
536.38	40961.72
536.55	40687.87
536.72	40964.06
536.89	40957.03
537.06	40704.26
537.23	41361.95
537.40	41223.86
537.57	41268.33
537.74	41710.69
537.91	41867.50
538.08	41560.89
538.25	41163.00
538.42	41542.17
538.59	41633.45
538.75	41120.87
538.92	41331.52
539.09	41790.27
539.26	41563.23
539.43	41883.89
539.60	41273.01
539.77	41600.68
539.94	41942.40
540.11	41486.00
540.28	41539.83
540.44	42036.02
540.61	42038.36
540.78	41708.35
540.95	41743.45
541.12	41818.35
541.29	41706.01
541.46	41811.33
541.62	41949.42
541.79	42199.86
541.96	41762.18
542.13	42363.70
542.30	41991.55
542.47	42087.51
542.63	42286.46
542.80	42682.01
542.97	42913.72
543.14	42752.23
543.31	42862.23
543.48	42724.14
543.64	43225.01
543.81	42962.87
543.98	43037.77
544.15	42494.77
544.32	43517.58
544.48	43136.07
544.65	43164.16
544.82	43421.62
544.99	42885.64
545.16	43206.29
545.32	43320.98
545.49	43636.95
545.66	43391.19
545.83	43372.47
546.00	43571.41
546.16	43367.79
546.33	43033.09
546.50	42904.36
546.67	43681.42
546.83	43145.44
547.00	43384.17
547.17	43594.82
547.34	43388.85
547.50	43477.79
547.67	43842.92
547.84	43440.34
548.00	43896.75
548.17	44112.08
548.34	43791.42
548.51	44135.48
548.67	44507.63
548.84	43903.77
549.01	43992.71
549.18	44191.65
549.34	43945.90
549.51	44140.16
549.68	44067.61
549.84	44030.16
550.01	44495.92
550.18	43920.15
550.34	44009.09
550.51	43966.96
550.68	44044.20
550.84	43585.46
551.01	44615.29
551.18	43957.60
551.34	43983.35
551.51	44582.52
551.68	44842.32
551.84	44636.36
552.01	44474.86
552.18	44528.69
552.34	44414.01
552.51	44179.95
552.68	44119.10
552.84	44671.46
553.01	45001.48
553.18	44793.17
553.34	44561.46
553.51	44727.64
553.67	44713.59
553.84	45059.99
554.01	45106.80
554.17	44650.40
554.34	44744.02
554.51	44973.39
554.67	45242.56
554.84	45153.62
555.00	44369.54
555.17	45125.53
555.33	44671.46
555.50	44839.98
555.67	44729.98
555.83	45366.60
556.00	44877.43
556.16	45668.53
556.33	45020.20
556.50	45167.66
556.66	44968.71
556.83	44432.73
556.99	44573.16
557.16	45022.54
557.32	45235.53
557.49	45514.06
557.65	45034.25
557.82	45333.84
557.98	45385.33
558.15	45544.48
558.32	45034.25
558.48	44912.54
558.65	45467.25
558.81	45352.56
558.98	45642.79
559.14	45226.17
559.31	45081.06
559.47	45294.05
559.64	45251.92
559.80	45521.08
559.97	45544.48
560.13	45500.01
560.30	45467.25
560.46	45776.20
560.63	45979.82
560.79	45645.13
560.96	45565.55
561.12	45794.92
561.29	45249.58
561.45	45614.70
561.61	45310.43
561.78	45434.48
561.94	45024.89
562.11	45368.94
562.27	45333.84
562.44	45654.49
562.60	45944.72
562.77	45858.12
562.93	45621.72
563.10	46000.89
563.26	45415.76
563.42	45893.22
563.59	45771.52
563.75	46078.13
563.92	45897.91
564.08	46099.19
564.24	45635.77
564.41	45963.44
564.57	45815.99
564.74	45673.21
564.90	45797.26
565.07	45834.71
565.23	45956.42
565.39	45607.68
565.56	45914.29
565.72	45572.57
565.88	45825.35
566.05	45844.07
566.21	45883.86
566.38	45727.05
566.54	46014.93
566.70	46176.43
566.87	45806.62
567.03	45787.90
567.19	46461.97
567.36	46117.92
567.52	46064.08
567.68	46082.81
567.85	45780.88
568.01	45881.52
568.17	45638.11
568.34	46110.89
568.50	45844.07
568.66	45415.76
568.83	46096.85
568.99	45902.59
569.15	45844.07
569.32	45792.58
569.48	45535.12
569.64	46190.47
569.81	46185.79
569.97	45998.55
570.13	45769.18
570.30	45909.61
570.46	45776.20
570.62	45855.78
570.78	45502.35
570.95	46059.40
571.11	45762.15
571.27	45563.21
571.43	45614.70
571.60	46019.61
571.76	46117.92
571.92	46143.66
572.09	46129.62
572.25	46253.67
572.41	46195.15
572.57	46417.50
572.74	46153.02
572.90	46202.18
573.06	46340.27
573.22	46211.54
573.38	46305.16
573.55	45937.69
573.71	46380.06
573.87	46153.02
574.03	46174.09
574.20	45813.65
574.36	46068.76
574.52	46373.03
574.68	46382.40
574.84	46181.11
575.01	46354.31
575.17	45797.26
575.33	45937.69
575.49	45687.26
575.65	46677.30
575.82	46562.62
575.98	45956.42
576.14	46005.57
576.30	46412.82
576.46	46422.19
576.62	46237.28
576.79	46127.28
576.95	46101.53
577.11	46108.55
577.27	46232.60
577.43	46096.85
577.59	46195.15
577.75	46073.45
577.92	45806.62
578.08	45832.37
578.24	46195.15
578.40	45982.16
578.56	46050.04
578.72	46010.25
578.88	46246.65
579.04	46934.76
579.21	46138.98
579.37	46181.11
579.53	46101.53
579.69	45813.65
579.85	46204.52
580.01	46190.47
580.17	46164.73
580.33	46291.12
580.49	46117.92
580.65	46082.81
580.82	46141.32
580.98	45914.29
581.14	45776.20
581.30	46363.67
581.46	45984.51
581.62	45944.72
581.78	45907.27
581.94	46789.65
582.10	46639.86
582.26	46347.29
582.42	46216.22
582.58	46218.56
582.74	45951.74
582.90	46742.84
583.06	46829.44
583.22	46274.73
583.38	46499.42
583.54	46747.52
583.70	46239.62
583.86	46342.61
584.02	45977.48
584.18	46335.59
584.34	46141.32
584.50	46323.88
584.66	46253.67
584.82	46347.29
584.98	46131.96
585.14	45940.04
585.30	45914.29
585.46	46005.57
585.62	46026.63
585.78	46241.96
585.94	45879.18
586.10	46138.98
586.26	45993.87
586.42	46429.21
586.58	46106.21
586.74	46099.19
586.90	46600.07
587.06	46284.09
587.22	46653.90
587.38	46394.10
587.54	46192.81
587.70	46576.66
587.86	46066.42
588.02	45724.71
588.18	46597.73
588.34	46225.58
588.49	45741.09
588.65	45631.08
588.81	45656.83
588.97	45495.33
589.13	45624.06
589.29	45872.16
589.45	45921.31
589.61	46258.35
589.77	46227.92
589.93	46248.99
