SpectraSuite Data File
++++++++++++++++++++++++++++++++++++
Date: Fri Oct 25 10:44:25 EDT 2013
User: price-jones
Dark Spectrum Present: No
Reference Spectrum Present: No
Number of Sampled Component Spectra: 1
Spectrometers: USB2+H05261
Integration Time (usec): 100000 (USB2+H05261)
Spectra Averaged: 1 (USB2+H05261)
Boxcar Smoothing: 0 (USB2+H05261)
Correct for Electrical Dark: No (USB2+H05261)
Strobe/Lamp Enabled: No (USB2+H05261)
Correct for Detector Non-linearity: No (USB2+H05261)
Correct for Stray Light: No (USB2+H05261)
Number of Pixels in Processed Spectrum: 2048
>>>>>Begin Processed Spectral Data<<<<<
365.73	140.43
365.92	140.43
366.12	140.43
366.32	0.00
366.52	0.00
366.72	53.83
366.91	16.38
367.11	4.68
367.31	0.00
367.51	0.00
367.70	4.68
367.90	25.75
368.10	16.38
368.30	11.70
368.49	16.38
368.69	18.72
368.89	37.45
369.09	72.56
369.28	77.24
369.48	23.41
369.68	25.75
369.87	37.45
370.07	49.15
370.27	74.90
370.47	154.48
370.66	435.34
370.86	463.43
371.06	425.98
371.25	491.51
371.45	440.02
371.65	496.19
371.84	449.38
372.04	479.81
372.24	517.26
372.44	402.57
372.63	505.56
372.83	528.96
373.03	475.13
373.22	470.45
373.42	524.28
373.62	638.97
373.81	617.90
374.01	571.09
374.21	578.11
374.40	554.71
374.60	575.77
374.79	566.41
374.99	580.45
375.19	610.88
375.38	589.82
375.58	573.43
375.78	676.41
375.97	617.90
376.17	615.56
376.37	615.56
376.56	645.99
376.76	571.09
376.95	592.16
377.15	664.71
377.35	596.84
377.54	641.31
377.74	617.90
377.93	695.14
378.13	744.29
378.33	720.88
378.52	704.50
378.72	608.54
378.91	767.70
379.11	648.33
379.31	718.54
379.50	667.05
379.70	748.97
379.89	688.12
380.09	638.97
380.28	711.52
380.48	748.97
380.68	774.72
380.87	650.67
381.07	690.46
381.26	901.11
381.46	725.57
381.65	688.12
381.85	676.41
382.04	641.31
382.24	746.63
382.43	671.73
382.63	641.31
382.83	734.93
383.02	709.18
383.22	730.25
383.41	765.36
383.61	760.67
383.80	802.80
384.00	793.44
384.19	784.08
384.39	844.93
384.58	802.80
384.78	807.48
384.97	793.44
385.17	812.17
385.36	875.36
385.56	847.27
385.75	774.72
385.95	826.21
386.14	847.27
386.34	889.40
386.53	849.61
386.72	816.85
386.92	830.89
387.11	903.45
387.31	945.58
387.50	858.98
387.70	891.74
387.89	880.04
388.09	912.81
388.28	931.53
388.48	903.45
388.67	919.83
388.86	1011.11
389.06	983.02
389.25	889.40
389.45	1036.86
389.64	999.41
389.84	983.02
390.03	1015.79
390.22	1055.58
390.42	1039.20
390.61	1039.20
390.81	1095.37
391.00	1118.78
391.19	1151.54
391.39	1032.18
391.58	1261.55
391.78	1144.52
391.97	1027.50
392.16	1001.75
392.36	1172.61
392.55	1011.11
392.75	1064.94
392.94	1008.77
393.13	990.05
393.33	924.51
393.52	1018.13
393.71	1100.05
393.91	1109.41
394.10	1214.74
394.29	1224.10
394.49	1240.48
394.68	1263.89
394.88	1310.70
395.07	1287.29
395.26	1345.81
395.46	1313.04
395.65	1165.59
395.84	1263.89
396.04	1233.46
396.23	1240.48
396.42	1191.33
396.62	1167.93
396.81	1184.31
397.00	1240.48
397.19	1186.65
397.39	1263.89
397.58	1451.13
397.77	1348.15
397.97	1542.41
398.16	1469.86
398.35	1535.39
398.55	1432.41
398.74	1568.16
398.93	1582.20
399.12	1481.56
399.32	1493.26
399.51	1568.16
399.70	1647.74
399.90	1671.14
400.09	1689.87
400.28	1640.72
400.47	1605.61
400.67	1668.80
400.86	1664.12
401.05	1750.72
401.24	1792.85
401.44	1764.76
401.63	1739.02
401.82	1816.26
402.01	1881.79
402.21	1797.53
402.40	1842.00
402.59	1888.81
402.78	1799.87
402.97	1825.62
403.17	1853.70
403.36	1771.79
403.55	1949.67
403.74	2033.93
403.93	2008.18
404.13	1907.54
404.32	1966.05
404.51	1870.09
404.70	2003.50
404.89	1952.01
405.09	2043.29
405.28	2106.48
405.47	2015.20
405.66	2172.02
405.85	2080.74
406.05	2078.40
406.24	2050.31
406.43	2099.46
406.62	2165.00
406.81	2155.63
407.00	2129.89
407.20	2106.48
407.39	2139.25
407.58	2232.87
407.77	2190.74
407.96	2246.91
408.15	2293.72
408.34	2310.11
408.54	2354.58
408.73	2361.60
408.92	2368.62
409.11	2459.90
409.30	2429.48
409.49	2319.47
409.68	2349.90
409.87	2312.45
410.07	2466.92
410.26	2408.41
410.45	2583.95
410.64	2544.16
410.83	2614.38
411.02	2562.89
411.21	2759.49
411.40	2722.04
411.59	2658.85
411.78	2717.36
411.98	2677.57
412.17	2792.26
412.36	2731.41
412.55	2808.64
412.74	2876.52
412.93	2780.56
413.12	2729.06
413.31	2984.18
413.50	2906.95
413.69	2930.35
413.88	3052.06
414.07	3094.19
414.26	3023.97
414.45	3112.91
414.64	3030.99
414.83	3133.98
415.02	3155.04
415.22	3199.51
415.41	3274.41
415.60	3318.88
415.79	3206.53
415.98	3419.52
416.17	3166.74
416.36	3358.67
416.55	3391.44
416.74	3438.25
416.93	3311.86
417.12	3438.25
417.31	3548.25
417.50	3265.05
417.69	3515.48
417.88	3595.06
418.07	3478.04
418.26	3550.59
418.45	3653.58
418.64	3794.01
418.83	3751.88
419.02	3569.32
419.21	3932.10
419.39	3660.60
419.58	3646.55
419.77	3555.27
419.96	3733.15
420.15	3819.75
420.34	3878.27
420.53	3705.07
420.72	3936.78
420.91	3978.91
421.10	3969.55
421.29	3971.89
421.48	3859.54
421.67	4042.11
421.86	3922.74
422.05	3822.09
422.24	3852.52
422.43	3967.21
422.61	4114.66
422.80	3974.23
422.99	4044.45
423.18	4107.64
423.37	4175.52
423.56	4042.11
423.75	4072.53
423.94	4018.70
424.13	3794.01
424.32	3880.61
424.50	3948.48
424.69	4074.87
424.88	4063.17
425.07	3953.16
425.26	3911.04
425.45	4067.85
425.64	4016.36
425.83	3988.27
426.01	4245.73
426.20	4121.68
426.39	4145.09
426.58	4070.19
426.77	4109.98
426.96	4152.11
427.15	4107.64
427.33	4219.99
427.52	4252.75
427.71	4208.28
427.90	4255.09
428.09	4264.46
428.28	4372.12
428.46	4236.37
428.65	4231.69
428.84	4421.27
429.03	4440.00
429.22	4201.26
429.40	4283.18
429.59	4259.78
429.78	4081.89
429.97	3939.12
430.16	4128.70
430.34	4198.92
430.53	4184.88
430.72	4236.37
430.91	4432.97
431.10	4381.48
431.28	4620.22
431.47	4716.18
431.66	4882.36
431.85	4667.03
432.03	4723.20
432.22	4833.21
432.41	4634.26
432.60	4802.78
432.79	4945.55
432.97	4880.02
433.16	4877.68
433.35	4767.67
433.54	4727.88
433.72	4779.37
433.91	4887.04
434.10	5032.15
434.28	5018.11
434.47	4983.00
434.66	5032.15
434.85	4884.70
435.03	5132.79
435.22	5125.77
435.41	5174.92
435.59	5078.96
435.78	5238.12
435.97	5303.65
436.16	5165.56
436.34	5408.98
436.53	5373.87
436.72	5369.19
436.90	5341.10
437.09	5350.46
437.28	5207.69
437.46	5572.82
437.65	5425.36
437.84	5427.70
438.02	5224.08
438.21	5320.04
438.40	5130.45
438.58	5399.62
438.77	5621.97
438.96	5582.18
439.14	5696.86
439.33	5860.70
439.52	5975.39
439.70	5736.65
439.89	5802.19
440.08	5769.42
440.26	5816.23
440.45	5874.74
440.63	6003.47
440.82	6171.99
441.01	6162.63
441.19	6207.10
441.38	6263.27
441.57	6471.58
441.75	6434.13
441.94	6487.96
442.12	6396.68
442.31	6637.76
442.50	6623.72
442.68	6415.41
442.87	6569.88
443.05	6548.82
443.24	6649.46
443.43	6518.39
443.61	6527.75
443.80	6754.79
443.98	6623.72
444.17	6427.11
444.35	6621.38
444.54	6958.41
444.73	6689.25
444.91	6750.10
445.10	6560.52
445.28	6640.10
445.47	6696.27
445.65	6654.14
445.84	6764.15
446.02	6878.83
446.21	6817.98
446.39	6609.67
446.58	6892.88
446.77	6822.66
446.95	6743.08
447.14	6932.67
447.32	6925.65
447.51	6747.76
447.69	6801.60
447.88	6897.56
448.06	6848.41
448.25	6949.05
448.43	6993.52
448.62	6832.02
448.80	7052.03
448.99	7105.87
449.17	7204.17
449.36	6925.65
449.54	7173.74
449.73	7337.58
449.91	7478.01
450.10	7335.24
450.28	7426.52
450.46	7492.05
450.65	7541.21
450.83	7480.35
451.02	7358.64
451.20	7389.07
451.39	7573.97
451.57	7386.73
451.76	7529.50
451.94	7410.14
452.13	7620.78
452.31	7414.82
452.49	7295.45
452.68	7318.86
452.86	7442.90
453.05	7569.29
453.23	7646.53
453.42	7445.24
453.60	7559.93
453.78	7779.94
453.97	7557.59
454.15	7548.23
454.34	7669.94
454.52	7805.69
454.70	7772.92
454.89	7679.30
455.07	7864.20
455.26	7592.70
455.44	7948.46
455.62	7929.74
455.81	7838.45
455.99	8229.32
456.17	8109.96
456.36	8039.74
456.54	8236.35
456.73	8292.52
456.91	8418.91
457.09	8491.46
457.28	8458.70
457.46	8252.73
457.64	8620.19
457.83	8280.82
458.01	8250.39
458.19	8332.31
458.38	8425.93
458.56	8554.66
458.74	8620.19
458.93	8327.63
459.11	8498.49
459.29	8538.27
459.48	8753.60
459.66	8634.24
459.84	8737.22
460.03	8723.18
460.21	8954.89
460.39	8884.67
460.57	8659.98
460.76	8781.69
460.94	8840.20
461.12	8767.65
461.31	9027.45
461.49	9013.40
461.67	8870.63
461.85	9123.41
462.04	8975.95
462.22	9167.88
462.40	9284.91
462.59	9310.65
462.77	9270.86
462.95	9301.29
463.13	9202.99
463.32	9378.53
463.50	9341.08
463.68	9331.72
463.86	9219.37
464.05	9130.43
464.23	9240.44
464.41	9345.76
464.59	9071.92
464.78	9483.85
464.96	9256.82
465.14	9273.20
465.32	9334.06
465.50	9659.39
465.69	9795.14
465.87	9673.43
466.05	9495.55
466.23	9497.89
466.41	9509.60
466.60	9612.58
466.78	9448.74
466.96	9486.19
467.14	9385.55
467.32	9856.00
467.51	9783.44
467.69	9584.49
467.87	9902.81
468.05	9987.07
468.23	9774.08
468.41	9736.63
468.60	9909.83
468.78	9738.97
468.96	9792.80
469.14	9970.68
469.32	9926.21
469.50	9722.59
469.69	10008.13
469.87	10113.45
470.05	10148.56
470.23	10068.98
470.41	10279.63
470.59	10326.44
470.77	10162.61
470.95	10286.65
471.14	10539.43
471.32	10235.16
471.50	10642.42
471.68	10705.61
471.86	10740.72
472.04	10579.22
472.22	11094.14
472.40	10438.79
472.58	10569.86
472.77	10773.49
472.95	10799.23
473.13	11171.38
473.31	10675.18
473.49	10719.65
473.67	10902.22
473.85	11016.90
474.03	11044.99
474.21	11316.49
474.39	11370.32
474.57	11314.15
474.75	11473.31
474.93	11466.28
475.12	11510.75
475.30	11456.92
475.48	11580.97
475.66	11693.32
475.84	11627.78
476.02	11889.92
476.20	11683.95
476.38	11843.11
476.56	12163.76
476.74	12203.55
476.92	12046.74
477.10	12264.41
477.28	12393.14
477.46	12343.99
477.64	12521.87
477.82	12669.32
478.00	13067.21
478.18	12774.64
478.36	12828.48
478.54	12973.59
478.72	12779.32
478.90	13240.41
479.08	13486.17
479.26	13736.60
479.44	13589.15
479.62	13654.69
479.80	13687.45
479.98	13872.36
480.16	13909.80
480.34	14120.45
480.52	14019.81
480.70	14134.50
480.88	14237.48
481.06	14120.45
481.24	14665.80
481.41	14768.78
481.59	14689.20
481.77	15374.98
481.95	14757.08
482.13	15246.25
482.31	14984.11
482.49	15131.56
482.67	15370.30
482.85	15522.43
483.03	15482.64
483.21	15875.85
483.39	15829.04
483.57	15932.03
483.74	16086.50
483.92	16203.53
484.10	15815.00
484.28	16486.73
484.46	16444.60
484.64	16847.18
484.82	16744.19
485.00	16407.16
485.18	16526.52
485.35	17046.12
485.53	16578.01
485.71	16657.59
485.89	16886.97
486.07	16847.18
486.25	16985.27
486.43	17296.56
486.61	17561.04
486.78	17715.51
486.96	17909.78
487.14	18153.20
487.32	18429.38
487.50	18480.87
487.68	18665.77
487.85	18745.35
488.03	18920.89
488.21	19185.37
488.39	19154.94
488.57	18988.77
488.75	19234.52
488.92	19499.00
489.10	19772.85
489.28	19791.57
489.46	20336.91
489.64	20332.23
489.81	20975.88
489.99	20795.66
490.17	20669.27
490.35	21018.01
490.53	20882.26
490.70	20877.58
490.88	20943.11
491.06	21481.44
491.24	21324.62
491.41	21261.43
491.59	21500.16
491.77	21193.55
491.95	21701.45
492.13	21975.29
492.30	22281.90
492.48	22197.64
492.66	22717.24
492.84	22541.70
493.01	22951.29
493.19	22473.82
493.37	23021.51
493.54	23115.13
493.72	23297.69
493.90	23035.55
494.08	23709.63
494.25	23819.63
494.43	23711.97
494.61	24327.53
494.79	24283.06
494.96	23939.00
495.14	24009.22
495.32	24467.96
495.49	24430.51
495.67	24247.95
495.85	24734.78
496.02	24926.71
496.20	25366.73
496.38	24950.11
496.55	25252.04
496.73	25645.25
496.91	25584.40
497.09	25905.05
497.26	25659.29
497.44	25675.68
497.62	25970.58
497.79	25713.13
497.97	25963.56
498.14	26211.66
498.32	26375.50
498.50	26176.55
498.67	26824.88
498.85	26841.26
499.03	26937.23
499.20	26939.57
499.38	26883.39
499.56	27140.85
499.73	27250.86
499.91	26916.16
500.08	27239.15
500.26	27147.87
500.44	27461.51
500.61	27225.11
500.79	27349.16
500.97	27564.49
501.14	27688.54
501.32	27496.61
501.49	27608.96
501.67	28133.24
501.84	27995.15
502.02	28318.14
502.20	28215.16
502.37	28573.26
502.55	28706.67
502.72	28561.56
502.90	28849.44
503.07	28364.95
503.25	28741.78
503.43	28797.95
503.60	28924.34
503.78	28891.57
503.95	28870.51
504.13	29528.20
504.30	29394.79
504.48	29392.45
504.65	29509.47
504.83	29759.91
505.01	30000.99
505.18	29883.96
505.36	30122.69
505.53	30164.82
505.71	30609.53
505.88	30719.53
506.06	30010.35
506.23	30300.58
506.41	30515.90
506.58	30480.80
506.76	30663.36
506.93	30738.26
507.11	30560.37
507.28	30775.70
507.46	30583.78
507.63	30410.58
507.81	31000.40
507.98	30855.28
508.16	31040.18
508.33	31321.05
508.50	31653.40
508.68	31496.59
508.85	31798.52
509.03	31842.99
509.20	32048.96
509.38	31913.20
509.55	32067.68
509.73	31728.30
509.90	32252.58
510.08	32205.77
510.25	31985.76
510.42	31983.42
510.60	32648.13
510.77	32868.14
510.95	32746.44
511.12	33127.94
511.30	32837.72
511.47	33261.35
511.64	33277.74
511.82	33207.52
511.99	33095.18
512.17	32940.70
512.34	32936.02
512.51	33319.87
512.69	33656.90
512.86	33450.94
513.04	33759.89
513.21	33256.67
513.38	33677.97
513.56	33539.88
513.73	33441.57
513.90	34106.29
514.08	33766.91
514.25	33886.28
514.43	34295.87
514.60	34099.26
514.77	34099.26
514.95	34431.62
515.12	34335.66
515.29	34015.01
515.47	34417.58
515.64	34569.71
515.81	34572.05
515.99	34532.26
516.16	34553.33
516.33	34497.16
516.51	34253.74
516.68	33916.70
516.85	34120.33
517.03	34462.05
517.20	34494.82
517.37	35157.19
517.54	35124.42
517.72	34810.79
517.89	34892.71
518.06	34761.64
518.24	34476.09
518.41	35175.91
518.58	35276.55
518.75	35344.43
518.93	35571.46
519.10	35449.75
519.27	35484.86
519.45	36013.82
519.62	36233.83
519.79	35976.37
519.96	35842.96
520.14	36411.71
520.31	35931.90
520.48	36437.46
520.65	36285.33
520.83	36879.82
521.00	36821.31
521.17	36605.98
521.34	36996.85
521.52	36957.06
521.69	37354.95
521.86	37326.86
522.03	36959.40
522.20	37762.20
522.38	37102.17
522.55	37165.37
522.72	37329.20
522.89	37422.83
523.07	37530.49
523.24	37200.47
523.41	37972.85
523.58	37675.60
523.75	37825.40
523.92	38031.36
524.10	38225.63
524.27	37951.79
524.44	38546.28
524.61	38162.43
524.78	38506.49
524.96	38129.67
525.13	38576.71
525.30	38733.53
525.47	38569.69
525.64	38373.08
525.81	38089.88
525.98	38260.74
526.16	38380.10
526.33	37991.58
526.50	38403.51
526.67	37940.08
526.84	38045.41
527.01	38251.38
527.18	38574.37
527.36	39068.22
527.53	39037.80
527.70	39431.01
527.87	39545.69
528.04	39019.07
528.21	39370.15
528.38	39440.37
528.55	39845.28
528.72	39379.51
528.89	39662.72
529.07	39761.02
529.24	39033.11
529.41	39676.76
529.58	39636.97
529.75	39501.22
529.92	39868.69
530.09	40304.02
530.26	40428.07
530.43	40006.78
530.60	40088.70
530.77	40191.68
530.94	40966.40
531.11	40231.47
531.28	39941.24
531.46	40474.88
531.63	40435.10
531.80	40451.48
531.97	40634.04
532.14	40140.19
532.31	39995.07
532.48	40556.80
532.65	40069.97
532.82	40868.09
532.99	40676.17
533.16	40250.19
533.33	40823.62
533.50	41282.37
533.67	40699.58
533.84	40500.63
534.01	40999.16
534.18	40954.69
534.35	41455.57
534.52	41209.81
534.69	41212.15
534.86	41493.02
535.03	41544.51
535.20	41394.71
535.37	41844.10
535.54	41738.77
535.71	41776.22
535.88	41574.94
536.05	41572.60
536.22	41710.69
536.38	41436.84
536.55	41645.15
536.72	41490.68
536.89	41464.93
537.06	41694.30
537.23	42096.88
537.40	41804.31
537.57	41834.74
537.74	41869.84
537.91	42298.16
538.08	42120.28
538.25	41907.29
538.42	42054.75
538.59	42197.52
538.75	41961.12
538.92	42169.43
539.09	42220.92
539.26	42071.13
539.43	42197.52
539.60	42527.53
539.77	42422.21
539.94	41947.08
540.11	41907.29
540.28	42356.67
540.44	42689.03
540.61	42085.17
540.78	42422.21
540.95	41867.50
541.12	42389.44
541.29	42031.34
541.46	42508.81
541.62	42993.30
541.79	43019.05
541.96	42600.09
542.13	42705.41
542.30	42738.18
542.47	42827.12
542.63	43065.86
542.80	43342.04
542.97	43115.01
543.14	43295.23
543.31	43496.52
543.48	43292.89
543.64	43873.34
543.81	43791.42
543.98	44179.95
544.15	43849.94
544.32	43732.91
544.48	43798.44
544.65	44109.74
544.82	43903.77
544.99	43957.60
545.16	43566.73
545.32	43611.20
545.49	44346.13
545.66	44463.16
545.83	44013.77
546.00	44058.24
546.16	44304.00
546.33	44184.63
546.50	43992.71
546.67	44289.96
546.83	43948.24
547.00	44282.94
547.17	44114.42
547.34	44500.61
547.50	44495.92
547.67	44224.42
547.84	44479.54
548.00	44451.45
548.17	44825.94
548.34	44268.89
548.51	44816.58
548.67	44648.06
548.84	44374.22
549.01	44439.75
549.18	44301.66
549.34	44924.24
549.51	44769.77
549.68	44966.37
549.84	44437.41
550.01	44851.69
550.18	45097.44
550.34	44587.21
550.51	44708.91
550.68	44882.11
550.84	44793.17
551.01	45212.13
551.18	44947.65
551.34	45099.78
551.51	45284.68
551.68	45258.94
551.84	45244.90
552.01	44872.75
552.18	44823.60
552.34	44699.55
552.51	45357.24
552.68	45144.25
552.84	45799.60
553.01	45144.25
553.18	45352.56
553.34	45331.50
553.51	44701.89
553.67	45359.58
553.84	45394.69
554.01	45605.34
554.17	45455.54
554.34	45668.53
554.51	45570.23
554.67	45930.67
554.84	45830.03
555.00	45815.99
555.17	45251.92
555.33	45729.39
555.50	45198.09
555.67	45619.38
555.83	45560.87
556.00	46052.38
556.16	46000.89
556.33	45567.89
556.50	45645.13
556.66	45495.33
556.83	45294.05
556.99	45895.56
557.16	46337.93
557.32	45785.56
557.49	45759.81
557.65	45359.58
557.82	45642.79
557.98	45914.29
558.15	46028.98
558.32	45947.06
558.48	46003.23
558.65	45603.00
558.81	45752.79
558.98	45450.86
559.14	45450.86
559.31	45778.54
559.47	45909.61
559.64	46251.33
559.80	46113.23
559.97	46239.62
560.13	46162.39
560.30	45883.86
560.46	46164.73
560.63	46043.02
560.79	46358.99
560.96	46487.72
561.12	46047.70
561.29	46092.17
561.45	45991.53
561.61	46192.81
561.78	46291.12
561.94	46244.30
562.11	46403.46
562.27	46010.25
562.44	46199.83
562.60	46380.06
562.77	46508.79
562.93	46321.54
563.10	46700.71
563.26	45954.08
563.42	46466.66
563.59	45961.10
563.75	46167.07
563.92	46309.84
564.08	46522.83
564.24	46820.08
564.41	46178.77
564.57	46595.38
564.74	46522.83
564.90	46167.07
565.07	46422.19
565.23	46373.03
565.39	46092.17
565.56	46777.95
565.72	46164.73
565.88	46740.50
566.05	46298.14
566.21	46930.08
566.38	46689.01
566.54	46707.73
566.70	46557.94
566.87	47079.88
567.03	46433.89
567.19	46794.33
567.36	46885.61
567.52	46113.23
567.68	46396.44
567.85	46586.02
568.01	46433.89
568.17	46391.76
568.34	46815.40
568.50	46017.27
568.66	46230.26
568.83	46707.73
568.99	46492.40
569.15	46401.12
569.32	46791.99
569.48	46665.60
569.64	46913.70
569.81	46850.50
569.97	46419.84
570.13	47009.66
570.30	46260.69
570.46	46340.27
570.62	46642.20
570.78	46625.81
570.95	46389.42
571.11	47103.28
571.27	46265.37
571.43	46480.70
571.60	47173.50
571.76	46974.55
571.92	46660.92
572.09	46794.33
572.25	46543.89
572.41	46520.49
572.57	46836.46
572.74	47161.79
572.90	46698.37
573.06	46684.33
573.22	46866.89
573.38	46909.02
573.55	46670.28
573.71	47154.77
573.87	46539.21
574.03	46471.34
574.20	46632.83
574.36	46281.75
574.52	46827.10
574.68	46476.02
574.84	46820.08
575.01	46724.11
575.17	46993.28
575.33	46120.26
575.49	46382.40
575.65	46838.80
575.82	46883.27
575.98	46749.86
576.14	46742.84
576.30	46911.36
576.46	46679.64
576.62	46766.24
576.79	46894.97
576.95	46717.09
577.11	46571.98
577.27	46686.67
577.43	46873.91
577.59	47203.92
577.75	46522.83
577.92	46321.54
578.08	46146.00
578.24	46595.38
578.40	46197.49
578.56	46593.04
578.72	46911.36
578.88	47002.64
579.04	46693.69
579.21	46871.57
579.37	46995.62
579.53	46965.19
579.69	46995.62
579.85	46955.83
580.01	47072.85
580.17	46923.06
580.33	47255.42
580.49	46431.55
580.65	47047.11
580.82	46995.62
580.98	46581.34
581.14	46843.48
581.30	47119.66
581.46	46782.63
581.62	47257.76
581.78	46944.12
581.94	47222.65
582.10	47030.72
582.26	46724.11
582.42	46728.80
582.58	46904.34
582.74	47145.41
582.90	46873.91
583.06	47447.34
583.22	47456.70
583.38	46808.37
583.54	47107.96
583.70	47381.80
583.86	47002.64
584.02	46342.61
584.18	47215.63
584.34	47173.50
584.50	46787.31
584.66	46843.48
584.82	47114.98
584.98	46960.51
585.14	46703.05
585.30	46794.33
585.46	47313.93
585.62	46747.52
585.78	46836.46
585.94	46464.32
586.10	46799.01
586.26	46906.68
586.42	46983.91
586.58	47220.31
586.74	47147.75
586.90	46951.15
587.06	47283.50
587.22	46703.05
587.38	46815.40
587.54	47688.42
587.70	47210.95
587.86	46733.48
588.02	47021.36
588.18	46906.68
588.34	47159.45
588.49	46635.17
588.65	46225.58
588.81	46344.95
588.97	46534.53
589.13	46550.91
589.29	46375.37
589.45	46319.20
589.61	46724.11
589.77	47131.37
589.93	46873.91
