SpectraSuite Data File
++++++++++++++++++++++++++++++++++++
Date: Fri Oct 25 10:48:02 EDT 2013
User: price-jones
Dark Spectrum Present: No
Reference Spectrum Present: No
Number of Sampled Component Spectra: 1
Spectrometers: USB2+H05261
Integration Time (usec): 100000 (USB2+H05261)
Spectra Averaged: 1 (USB2+H05261)
Boxcar Smoothing: 0 (USB2+H05261)
Correct for Electrical Dark: No (USB2+H05261)
Strobe/Lamp Enabled: No (USB2+H05261)
Correct for Detector Non-linearity: No (USB2+H05261)
Correct for Stray Light: No (USB2+H05261)
Number of Pixels in Processed Spectrum: 2048
>>>>>Begin Processed Spectral Data<<<<<
365.73	175.54
365.92	175.54
366.12	175.54
366.32	135.75
366.52	58.51
366.72	100.64
366.91	0.00
367.11	86.60
367.31	74.90
367.51	56.17
367.70	23.41
367.90	0.00
368.10	44.47
368.30	58.51
368.49	14.04
368.69	77.24
368.89	121.71
369.09	39.79
369.28	86.60
369.48	107.66
369.68	110.01
369.87	79.58
370.07	121.71
370.27	131.07
370.47	222.35
370.66	362.78
370.86	400.23
371.06	416.62
371.25	505.56
371.45	444.70
371.65	463.43
371.84	440.02
372.04	451.72
372.24	465.77
372.44	479.81
372.63	454.06
372.83	468.11
373.03	440.02
373.22	517.26
373.42	493.85
373.62	599.18
373.81	528.96
374.01	589.82
374.21	578.11
374.40	486.83
374.60	463.43
374.79	636.63
374.99	538.32
375.19	608.54
375.38	662.37
375.58	573.43
375.78	561.73
375.97	575.77
376.17	624.92
376.37	589.82
376.56	645.99
376.76	608.54
376.95	608.54
377.15	582.79
377.35	594.50
377.54	564.07
377.74	573.43
377.93	622.58
378.13	606.20
378.33	716.20
378.52	643.65
378.72	739.61
378.91	645.99
379.11	613.22
379.31	589.82
379.50	566.41
379.70	641.31
379.89	615.56
380.09	603.86
380.28	634.29
380.48	685.78
380.68	748.97
380.87	582.79
381.07	594.50
381.26	653.01
381.46	613.22
381.65	634.29
381.85	788.76
382.04	627.26
382.24	674.07
382.43	667.05
382.63	683.44
382.83	692.80
383.02	690.46
383.22	739.61
383.41	627.26
383.61	704.50
383.80	828.55
384.00	835.57
384.19	716.20
384.39	648.33
384.58	807.48
384.78	760.67
384.97	739.61
385.17	741.95
385.36	720.88
385.56	858.98
385.75	741.95
385.95	823.87
386.14	777.06
386.34	814.51
386.53	819.19
386.72	774.72
386.92	910.47
387.11	791.10
387.31	760.67
387.50	896.43
387.70	755.99
387.89	793.44
388.09	767.70
388.28	805.14
388.48	840.25
388.67	791.10
388.86	873.02
389.06	903.45
389.25	807.48
389.45	980.68
389.64	898.77
389.84	947.92
390.03	891.74
390.22	880.04
390.42	819.19
390.61	950.26
390.81	830.89
391.00	915.15
391.19	964.30
391.39	950.26
391.58	980.68
391.78	971.32
391.97	987.71
392.16	891.74
392.36	968.98
392.55	919.83
392.75	976.00
392.94	973.66
393.13	959.62
393.33	961.96
393.52	968.98
393.71	990.05
393.91	1034.52
394.10	973.66
394.29	1057.92
394.49	976.00
394.68	1011.11
394.88	1067.28
395.07	1053.24
395.26	1034.52
395.46	1170.27
395.65	1160.91
395.84	1158.57
396.04	1160.91
396.23	1109.41
396.42	1151.54
396.62	1081.33
396.81	1203.04
397.00	1132.82
397.19	1198.35
397.39	1217.08
397.58	1348.15
397.77	1228.78
397.97	1263.89
398.16	1219.42
398.35	1385.60
398.55	1249.85
398.74	1277.93
398.93	1336.45
399.12	1345.81
399.32	1322.40
399.51	1345.81
399.70	1411.34
399.90	1413.68
400.09	1352.83
400.28	1338.79
400.47	1397.30
400.67	1439.43
400.86	1472.20
401.05	1425.39
401.24	1474.54
401.44	1420.71
401.63	1441.77
401.82	1451.13
402.01	1369.21
402.21	1598.59
402.40	1535.39
402.59	1418.36
402.78	1502.62
402.97	1514.33
403.17	1425.39
403.36	1483.90
403.55	1565.82
403.74	1554.12
403.93	1614.97
404.13	1720.29
404.32	1610.29
404.51	1596.25
404.70	1722.63
404.89	1610.29
405.09	1727.32
405.28	1633.69
405.47	1650.08
405.66	1678.16
405.85	1823.28
406.05	1708.59
406.24	1715.61
406.43	1696.89
406.62	1799.87
406.81	1853.70
407.00	1795.19
407.20	1858.39
407.39	1764.76
407.58	1888.81
407.77	1902.86
407.96	1856.04
408.15	1940.30
408.34	1853.70
408.54	1907.54
408.73	1959.03
408.92	1944.99
409.11	2043.29
409.30	2015.20
409.49	2010.52
409.68	2085.42
409.87	2057.33
410.07	2094.78
410.26	2054.99
410.45	2083.08
410.64	2073.71
410.83	2242.23
411.02	2090.10
411.21	2258.62
411.40	2188.40
411.59	2270.32
411.78	2251.60
411.98	2237.55
412.17	2328.83
412.36	2202.44
412.55	2462.24
412.74	2457.56
412.93	2457.56
413.12	2347.56
413.31	2417.77
413.50	2389.69
413.69	2462.24
413.88	2485.65
414.07	2492.67
414.26	2600.34
414.45	2619.06
414.64	2499.69
414.83	2700.98
415.02	2696.30
415.22	2605.02
415.41	2778.22
415.60	2682.25
415.79	2759.49
415.98	2895.24
416.17	2726.72
416.36	2825.03
416.55	2766.51
416.74	2834.39
416.93	2813.32
417.12	2977.16
417.31	2923.33
417.50	2848.43
417.69	2984.18
417.88	2892.90
418.07	3002.91
418.26	3148.02
418.45	3080.14
418.64	3185.47
418.83	3180.79
419.02	3155.04
419.21	3141.00
419.39	3094.19
419.58	3080.14
419.77	3080.14
419.96	3258.03
420.15	3192.49
420.34	3283.77
420.53	3332.92
420.72	3311.86
420.91	3241.64
421.10	3304.84
421.29	3370.37
421.48	3246.32
421.67	3243.98
421.86	3304.84
422.05	3405.48
422.24	3297.81
422.43	3267.39
422.61	3410.16
422.80	3489.74
422.99	3414.84
423.18	3438.25
423.37	3524.85
423.56	3531.87
423.75	3463.99
423.94	3506.12
424.13	3311.86
424.32	3201.85
424.50	3574.00
424.69	3651.24
424.88	3562.30
425.07	3620.81
425.26	3466.33
425.45	3393.78
425.64	3478.04
425.83	3407.82
426.01	3562.30
426.20	3562.30
426.39	3571.66
426.58	3564.64
426.77	3508.46
426.96	3562.30
427.15	3522.51
427.33	3557.61
427.52	3578.68
427.71	3620.81
427.90	3702.73
428.09	3620.81
428.28	3691.02
428.46	3747.20
428.65	3758.90
428.84	3845.50
429.03	3850.18
429.22	3688.68
429.40	3705.07
429.59	3644.21
429.78	3658.26
429.97	3688.68
430.16	3751.88
430.34	3824.44
430.53	3784.65
430.72	3871.25
430.91	3772.94
431.10	3969.55
431.28	3887.63
431.47	4063.17
431.66	4154.45
431.85	4028.06
432.03	4098.28
432.22	3981.25
432.41	4079.55
432.60	4084.23
432.79	4166.15
432.97	4234.03
433.16	4259.78
433.35	4067.85
433.54	4086.58
433.72	4142.75
433.91	4142.75
434.10	4217.65
434.28	4147.43
434.47	4224.67
434.66	4365.10
434.85	4346.37
435.03	4362.76
435.22	4257.43
435.41	4521.92
435.59	4400.21
435.78	4397.87
435.97	4596.81
436.16	4521.92
436.34	4376.80
436.53	4603.83
436.72	4699.80
436.90	4486.81
437.09	4449.36
437.28	4561.70
437.46	4519.57
437.65	4596.81
437.84	4641.28
438.02	4561.70
438.21	4676.39
438.40	4629.58
438.58	4765.33
438.77	4748.95
438.96	4758.31
439.14	4926.83
439.33	4943.21
439.52	4915.12
439.70	5046.20
439.89	4973.64
440.08	5034.49
440.26	5167.90
440.45	5123.43
440.63	5298.97
440.82	5305.99
441.01	5142.16
441.19	5287.27
441.38	5362.17
441.57	5472.17
441.75	5467.49
441.94	5460.47
442.12	5500.26
442.31	5605.58
442.50	5516.64
442.68	5582.18
442.87	5579.84
443.05	5518.98
443.24	5717.93
443.43	5788.14
443.61	5591.54
443.80	5846.66
443.98	5612.60
444.17	5451.11
444.35	5764.74
444.54	5731.97
444.73	5729.63
444.91	5694.52
445.10	5701.54
445.28	5612.60
445.47	5671.12
445.65	5696.86
445.84	5893.47
446.02	5809.21
446.21	5804.53
446.39	5832.62
446.58	5851.34
446.77	5942.62
446.95	5834.96
447.14	5937.94
447.32	5975.39
447.51	5769.42
447.69	5825.59
447.88	5987.09
448.06	5856.02
448.25	5867.72
448.43	6101.78
448.62	5860.70
448.80	5954.32
448.99	5968.37
449.17	6169.65
449.36	6080.71
449.54	5966.03
449.73	6349.87
449.91	6345.19
450.10	6319.45
450.28	6282.00
450.46	6120.50
450.65	6090.07
450.83	6347.53
451.02	6188.38
451.20	6249.23
451.39	6249.23
451.57	6289.02
451.76	6174.33
451.94	6401.37
452.13	6553.50
452.31	6523.07
452.49	6242.21
452.68	6303.06
452.86	6436.47
453.05	6455.20
453.23	6555.84
453.42	6415.41
453.60	6483.28
453.78	6576.91
453.97	6380.30
454.15	6427.11
454.34	6352.21
454.52	6527.75
454.70	6642.44
454.89	6679.89
455.07	6717.34
455.26	6733.72
455.44	6836.70
455.62	6864.79
455.81	6860.11
455.99	6892.88
456.17	7014.59
456.36	6803.94
456.54	6850.75
456.73	7023.95
456.91	7136.29
457.09	7124.59
457.28	7133.95
457.46	7045.01
457.64	7176.08
457.83	7061.40
458.01	7040.33
458.19	7274.38
458.38	7096.50
458.56	7440.56
458.74	7164.38
458.93	7386.73
459.11	7349.28
459.29	7370.35
459.48	7599.72
459.66	7316.51
459.84	7438.22
460.03	7328.22
460.21	7644.19
460.39	7616.10
460.57	7639.51
460.76	7632.49
460.94	7538.87
461.12	7658.23
461.31	7669.94
461.49	7597.38
461.67	7698.02
461.85	7751.85
462.04	7740.15
462.22	8276.13
462.40	8091.23
462.59	7843.14
462.77	7887.61
462.95	8004.63
463.13	8011.65
463.32	7974.21
463.50	7913.35
463.68	7992.93
463.86	8004.63
464.05	7939.10
464.23	7962.50
464.41	7985.91
464.59	7899.31
464.78	8271.45
464.96	8271.45
465.14	8173.15
465.32	8100.59
465.50	8362.73
465.69	8217.62
465.87	8189.53
466.05	8145.06
466.23	8198.90
466.41	8187.19
466.60	8446.99
466.78	8198.90
466.96	8358.05
467.14	8348.69
467.32	8461.04
467.51	8404.86
467.69	8201.24
467.87	8545.30
468.05	8594.45
468.23	8362.73
468.41	8421.25
468.60	8615.51
468.78	8475.08
468.96	8578.06
469.14	8587.43
469.32	8636.58
469.50	8273.79
469.69	8758.28
469.87	8821.48
470.05	8835.52
470.23	8870.63
470.41	8975.95
470.59	8945.53
470.77	8851.91
470.95	8973.61
471.14	9132.77
471.32	8917.44
471.50	9104.68
471.68	9212.35
471.86	9289.59
472.04	9207.67
472.22	9385.55
472.40	9214.69
472.58	9359.80
472.77	9294.27
472.95	9345.76
473.13	9727.27
473.31	9432.36
473.49	9605.56
473.67	9605.56
473.85	9476.83
474.03	9671.09
474.21	9605.56
474.39	9914.51
474.57	9874.72
474.75	9823.23
474.93	10167.29
475.12	9982.38
475.30	10335.81
475.48	10349.85
475.66	10167.29
475.84	10146.22
476.02	10284.31
476.20	10438.79
476.38	10506.66
476.56	10766.46
476.74	10630.71
476.92	10593.26
477.10	10658.80
477.28	10846.04
477.46	10892.85
477.64	11068.39
477.82	11180.74
478.00	11236.91
478.18	11176.06
478.36	11382.03
478.54	11288.40
478.72	11499.05
478.90	11768.21
479.08	11580.97
479.26	11730.76
479.44	11833.75
479.62	11922.69
479.80	11999.93
479.98	11915.67
480.16	12217.60
480.34	12163.76
480.52	12343.99
480.70	12259.73
480.88	12250.36
481.06	12397.82
481.24	12484.42
481.41	12725.49
481.59	12674.00
481.77	12877.63
481.95	12786.35
482.13	13233.39
482.31	12968.91
482.49	13348.08
482.67	13568.09
482.85	13345.73
483.03	13418.29
483.21	13593.83
483.39	13797.46
483.57	14031.51
483.74	14003.43
483.92	14150.88
484.10	13998.74
484.28	14321.74
484.46	14647.07
484.64	14815.59
484.82	14356.85
485.00	14834.32
485.18	15056.67
485.35	14998.15
485.53	14843.68
485.71	14874.10
485.89	15147.95
486.07	15061.35
486.25	15264.97
486.43	15580.95
486.61	15531.80
486.78	15620.74
486.96	15499.03
487.14	15910.96
487.32	15887.56
487.50	16116.93
487.68	16507.80
487.85	16582.70
488.03	16570.99
488.21	16725.47
488.39	16678.66
488.57	16915.05
488.75	16964.20
488.92	17343.37
489.10	17408.90
489.28	17666.36
489.46	17593.81
489.64	17792.75
489.81	18150.85
489.99	18139.15
490.17	18235.11
490.35	18429.38
490.53	18654.07
490.70	18525.34
490.88	18614.28
491.06	18867.06
491.24	18586.19
491.41	18904.51
491.59	19190.05
491.77	18750.03
491.95	19229.84
492.13	19360.91
492.30	19690.93
492.48	19541.13
492.66	19541.13
492.84	19702.63
493.01	20135.63
493.19	20056.05
493.37	20140.31
493.54	20301.81
493.72	20638.84
493.90	20549.90
494.08	20638.84
494.25	21130.36
494.43	21132.70
494.61	21132.70
494.79	21369.09
494.96	21191.21
495.14	21223.98
495.32	21427.60
495.49	21551.65
495.67	21635.91
495.85	21701.45
496.02	21972.95
496.20	22195.30
496.38	22265.52
496.55	22335.73
496.73	22808.52
496.91	22457.44
497.09	22750.01
497.26	22841.29
497.44	22808.52
497.62	23173.64
497.79	23440.47
497.97	23431.10
498.14	23323.44
498.32	23288.33
498.50	23274.29
498.67	23697.92
498.85	23908.57
499.03	24002.19
499.20	23854.74
499.38	23957.72
499.56	23915.59
499.73	23983.47
499.91	24161.35
500.08	24332.21
500.26	24135.60
500.44	24418.81
500.61	24673.93
500.79	24194.12
500.97	24886.92
501.14	25160.76
501.32	24849.47
501.49	25228.63
501.67	24554.56
501.84	25043.73
502.02	24872.87
502.20	25411.20
502.37	25556.31
502.55	25380.77
502.72	25560.99
502.90	25809.09
503.07	25769.30
503.25	25448.64
503.43	25549.29
503.60	25577.37
503.78	26190.59
503.95	25996.33
504.13	26490.18
504.30	26380.18
504.48	25724.83
504.65	26417.63
504.83	26824.88
505.01	26471.46
505.18	26326.35
505.36	26948.93
505.53	26972.33
505.71	27318.73
505.88	27122.13
506.06	26979.36
506.23	27243.84
506.41	26960.63
506.58	27309.37
506.76	27590.24
506.93	27330.44
507.11	27770.46
507.28	27667.47
507.46	27648.75
507.63	28006.85
507.81	27697.90
507.98	27709.60
508.16	27950.68
508.33	28374.31
508.50	28016.21
508.68	28166.01
508.85	28950.09
509.03	28526.45
509.20	28601.35
509.38	28964.13
509.55	28521.77
509.73	28676.24
509.90	28971.15
510.08	28786.25
510.25	28669.22
510.42	29146.69
510.60	28907.96
510.77	29132.65
510.95	29514.16
511.12	29237.97
511.30	29731.83
511.47	29340.96
511.64	29656.93
511.82	29968.22
511.99	29659.27
512.17	29970.56
512.34	30008.01
512.51	29993.97
512.69	30471.43
512.86	30349.73
513.04	30511.22
513.21	30270.15
513.38	30850.60
513.56	30235.04
513.73	30253.76
513.90	30766.34
514.08	30410.58
514.25	30951.24
514.43	30733.57
514.60	30834.22
514.77	30532.29
514.95	31180.62
515.12	30808.47
515.29	31290.62
515.47	31576.17
515.64	31288.28
515.81	31292.96
515.99	31152.53
516.16	31763.41
516.33	31213.38
516.51	31597.23
516.68	31307.01
516.85	31344.45
517.03	31381.90
517.20	32004.49
517.37	31934.27
517.54	31833.63
517.72	31828.95
517.89	31899.16
518.06	31866.39
518.24	32173.00
518.41	32027.89
518.58	32079.38
518.75	32222.16
518.93	32376.63
519.10	32545.15
519.27	32659.84
519.45	32432.80
519.62	32957.08
519.79	32917.29
519.96	33141.99
520.14	33106.88
520.31	33085.81
520.48	33191.14
520.65	33172.41
520.83	33692.01
521.00	33291.78
521.17	33406.47
521.34	33556.26
521.52	33518.81
521.69	33549.24
521.86	33530.51
522.03	33764.57
522.20	33825.42
522.38	34022.03
522.55	34096.92
522.72	33558.60
522.89	33406.47
523.07	34167.14
523.24	33837.12
523.41	34265.44
523.58	34120.33
523.75	34806.11
523.92	34520.56
524.10	34628.23
524.27	34836.53
524.44	34630.57
524.61	34550.99
524.78	34841.21
524.96	34845.90
525.13	35218.04
525.30	35108.04
525.47	35110.38
525.64	34792.06
525.81	34897.39
525.98	35110.38
526.16	35309.32
526.33	35133.78
526.50	35541.03
526.67	35229.74
526.84	35653.38
527.01	34937.18
527.18	35126.76
527.36	35840.62
527.53	35599.55
527.70	35995.10
527.87	35938.93
528.04	36002.12
528.21	36147.23
528.38	36414.05
528.55	36273.62
528.72	35859.35
528.89	36161.28
529.07	35931.90
529.24	36364.90
529.41	36233.83
529.58	36048.93
529.75	36774.50
529.92	36495.97
530.09	36519.38
530.26	36886.84
530.43	36425.76
530.60	36201.07
530.77	36713.64
530.94	37116.22
531.11	36964.08
531.28	36622.36
531.46	37219.20
531.63	37371.33
531.80	36905.57
531.97	36844.71
532.14	37507.08
532.31	37212.18
532.48	37289.42
532.65	37024.93
532.82	37418.14
532.99	37572.62
533.16	37291.76
533.33	37631.13
533.50	37684.97
533.67	37708.37
533.84	37570.28
534.01	37663.90
534.18	37448.57
534.35	38242.01
534.52	37748.16
534.69	37986.89
534.86	38419.89
535.03	37677.94
535.20	37851.14
535.37	38127.33
535.54	38192.86
535.71	37949.45
535.88	38148.39
536.05	38171.80
536.22	38319.25
536.38	38464.36
536.55	38092.22
536.72	38246.69
536.89	38349.68
537.06	38398.83
537.23	38618.84
537.40	38288.82
537.57	38436.28
537.74	38258.40
537.91	38831.83
538.08	38700.76
538.25	38583.73
538.42	38447.98
538.59	38829.49
538.75	38387.13
538.92	39131.42
539.09	38939.49
539.26	38911.41
539.43	38888.00
539.60	39131.42
539.77	39154.82
539.94	39187.59
540.11	39271.85
540.28	39405.26
540.44	39100.99
540.61	39150.14
540.78	39250.78
540.95	39187.59
541.12	38941.83
541.29	39564.42
541.46	39522.29
541.62	39798.47
541.79	39669.74
541.96	39524.63
542.13	39807.83
542.30	39777.40
542.47	39903.79
542.63	39721.23
542.80	40261.90
542.97	40182.32
543.14	40289.98
543.31	40289.98
543.48	40156.57
543.64	40048.91
543.81	40495.95
543.98	40453.82
544.15	40509.99
544.32	40823.62
544.48	40882.14
544.65	40395.31
544.82	40734.68
544.99	40432.75
545.16	40343.81
545.32	40259.55
545.49	40809.58
545.66	40886.82
545.83	41083.42
546.00	40982.78
546.16	40825.96
546.33	40622.34
546.50	40371.90
546.67	40491.27
546.83	40474.88
547.00	41280.03
547.17	40418.71
547.34	40627.02
547.50	41219.17
547.67	41139.60
547.84	41347.90
548.00	41539.83
548.17	41249.60
548.34	41177.04
548.51	41256.62
548.67	41596.00
548.84	41270.67
549.01	41443.87
549.18	40985.12
549.34	41640.47
549.51	41343.22
549.68	41633.45
549.84	41469.61
550.01	41776.22
550.18	41677.92
550.34	41453.23
550.51	41282.37
550.68	41771.54
550.84	41359.61
551.01	41528.13
551.18	41675.58
551.34	41593.66
551.51	41645.15
551.68	41797.29
551.84	42052.41
552.01	41642.81
552.18	42115.60
552.34	42080.49
552.51	41968.15
552.68	42036.02
552.84	42410.51
553.01	42703.07
553.18	42478.38
553.34	41876.86
553.51	41904.95
553.67	42139.00
553.84	42274.76
554.01	42562.64
554.17	42553.28
554.34	42665.63
554.51	42649.24
554.67	42724.14
554.84	42241.99
555.00	42335.61
555.17	42380.08
555.33	42763.93
555.50	42263.05
555.67	42635.20
555.83	42609.45
556.00	42752.23
556.16	43107.99
556.33	43063.52
556.50	43182.88
556.66	42944.15
556.83	42848.19
556.99	43194.59
557.16	42986.28
557.32	42841.17
557.49	43180.54
557.65	43002.66
557.82	42522.85
557.98	42876.27
558.15	42965.21
558.32	43089.26
558.48	42609.45
558.65	43119.69
558.81	43009.68
558.98	43166.50
559.14	42969.90
559.31	43281.19
559.47	43531.62
559.64	43739.93
559.80	43559.71
559.97	43063.52
560.13	43047.13
560.30	43290.55
560.46	43440.34
560.63	43377.15
560.79	43285.87
560.96	43470.77
561.12	43632.27
561.29	43217.99
561.45	43529.28
561.61	43374.81
561.78	42995.64
561.94	43178.20
562.11	43777.38
562.27	43491.83
562.44	43569.07
562.60	43702.48
562.77	43817.17
562.93	43241.40
563.10	43758.66
563.26	43232.04
563.42	44287.62
563.59	43920.15
563.75	43679.08
563.92	43966.96
564.08	44360.17
564.24	43606.52
564.41	44013.77
564.57	43749.29
564.74	43613.54
564.90	44285.28
565.07	44009.09
565.23	43636.95
565.39	43775.04
565.56	43882.70
565.72	43835.89
565.88	43702.48
566.05	43929.51
566.21	44018.46
566.38	43365.45
566.54	43737.59
566.70	43868.66
566.87	44498.26
567.03	44336.77
567.19	44601.25
567.36	44123.78
567.52	44065.27
567.68	44495.92
567.85	44486.56
568.01	44046.54
568.17	44072.29
568.34	43622.90
568.50	44121.44
568.66	43807.81
568.83	43927.17
568.99	44058.24
569.15	43899.09
569.32	43938.88
569.48	44060.58
569.64	44636.36
569.81	44561.46
569.97	44224.42
570.13	44016.11
570.30	43981.01
570.46	44048.88
570.62	43681.42
570.78	43950.58
570.95	43828.87
571.11	44278.25
571.27	44172.93
571.43	44399.96
571.60	44142.50
571.76	44247.83
571.92	44156.55
572.09	44266.55
572.25	43931.86
572.41	44002.07
572.57	44086.33
572.74	44444.43
572.90	44275.91
573.06	44233.78
573.22	44425.71
573.38	44301.66
573.55	44341.45
573.71	44472.52
573.87	44257.19
574.03	44119.10
574.20	44168.25
574.36	43973.98
574.52	44212.72
574.68	44577.84
574.84	44615.29
575.01	44336.77
575.17	44437.41
575.33	43927.17
575.49	43917.81
575.65	44765.09
575.82	44500.61
575.98	44325.07
576.14	44769.77
576.30	44238.47
576.46	44271.23
576.62	44137.82
576.79	44430.39
576.95	43840.57
577.11	44037.18
577.27	44182.29
577.43	44329.75
577.59	44552.10
577.75	44055.90
577.92	43580.78
578.08	44004.41
578.24	44004.41
578.40	44161.23
578.56	44676.15
578.72	44285.28
578.88	44399.96
579.04	44692.53
579.21	44161.23
579.37	44694.87
579.53	44694.87
579.69	44107.40
579.85	44292.30
580.01	44643.38
580.17	44575.50
580.33	44369.54
580.49	44514.65
580.65	44573.16
580.82	44582.52
580.98	44313.36
581.14	44205.70
581.30	44842.32
581.46	44442.09
581.62	44615.29
581.78	44474.86
581.94	44615.29
582.10	44617.63
582.26	44603.59
582.42	44622.31
582.58	44362.51
582.74	44058.24
582.90	44701.89
583.06	44903.18
583.22	44641.04
583.38	44875.09
583.54	44100.37
583.70	44631.68
583.86	44364.85
584.02	44449.11
584.18	44622.31
584.34	44666.78
584.50	44514.65
584.66	44451.45
584.82	44406.98
584.98	45202.77
585.14	44870.41
585.30	44507.63
585.46	44524.01
585.62	44376.56
585.78	44399.96
585.94	44121.44
586.10	44601.25
586.26	44493.58
586.42	44765.09
586.58	44626.99
586.74	44540.39
586.90	44264.21
587.06	44498.26
587.22	44727.64
587.38	44374.22
587.54	45134.89
587.70	45120.85
587.86	44912.54
588.02	44612.95
588.18	44818.92
588.34	44414.01
588.49	44509.97
588.65	44250.17
588.81	44449.11
588.97	44563.80
589.13	44390.60
589.29	44446.77
589.45	44935.95
589.61	44971.05
589.77	45099.78
589.93	44577.84
590.08	45141.91
590.24	44987.44
