SpectraSuite Data File
++++++++++++++++++++++++++++++++++++
Date: Fri Oct 25 10:47:01 EDT 2013
User: price-jones
Dark Spectrum Present: No
Reference Spectrum Present: No
Number of Sampled Component Spectra: 1
Spectrometers: USB2+H05261
Integration Time (usec): 100000 (USB2+H05261)
Spectra Averaged: 1 (USB2+H05261)
Boxcar Smoothing: 0 (USB2+H05261)
Correct for Electrical Dark: No (USB2+H05261)
Strobe/Lamp Enabled: No (USB2+H05261)
Correct for Detector Non-linearity: No (USB2+H05261)
Correct for Stray Light: No (USB2+H05261)
Number of Pixels in Processed Spectrum: 2048
>>>>>Begin Processed Spectral Data<<<<<
365.73	231.71
365.92	231.71
366.12	231.71
366.32	58.51
366.52	9.36
366.72	42.13
366.91	65.54
367.11	35.11
367.31	44.47
367.51	0.00
367.70	28.09
367.90	42.13
368.10	63.19
368.30	145.11
368.49	18.72
368.69	18.72
368.89	0.00
369.09	65.54
369.28	46.81
369.48	74.90
369.68	121.71
369.87	98.30
370.07	11.70
370.27	98.30
370.47	173.20
370.66	374.49
370.86	433.00
371.06	414.27
371.25	543.00
371.45	423.64
371.65	477.47
371.84	423.64
372.04	526.62
372.24	489.17
372.44	545.34
372.63	521.94
372.83	493.85
373.03	566.41
373.22	468.11
373.42	493.85
373.62	463.43
373.81	603.86
374.01	571.09
374.21	580.45
374.40	564.07
374.60	631.94
374.79	596.84
374.99	610.88
375.19	568.75
375.38	648.33
375.58	585.13
375.78	559.39
375.97	641.31
376.17	564.07
376.37	524.28
376.56	526.62
376.76	606.20
376.95	578.11
377.15	662.37
377.35	622.58
377.54	603.86
377.74	613.22
377.93	667.05
378.13	580.45
378.33	601.52
378.52	667.05
378.72	655.35
378.91	643.65
379.11	538.32
379.31	692.80
379.50	655.35
379.70	641.31
379.89	667.05
380.09	667.05
380.28	655.35
380.48	641.31
380.68	671.73
380.87	622.58
381.07	629.60
381.26	704.50
381.46	599.18
381.65	709.18
381.85	751.31
382.04	688.12
382.24	753.65
382.43	718.54
382.63	678.76
382.83	638.97
383.02	725.57
383.22	720.88
383.41	791.10
383.61	791.10
383.80	772.38
384.00	711.52
384.19	758.33
384.39	725.57
384.58	748.97
384.78	746.63
384.97	819.19
385.17	746.63
385.36	767.70
385.56	774.72
385.75	812.17
385.95	786.42
386.14	753.65
386.34	795.78
386.53	697.48
386.72	835.57
386.92	805.14
387.11	821.53
387.31	725.57
387.50	753.65
387.70	856.64
387.89	809.83
388.09	866.00
388.28	821.53
388.48	821.53
388.67	858.98
388.86	950.26
389.06	917.49
389.25	936.21
389.45	912.81
389.64	940.90
389.84	938.55
390.03	940.90
390.22	919.83
390.42	940.90
390.61	924.51
390.81	919.83
391.00	983.02
391.19	933.87
391.39	1022.81
391.58	1013.45
391.78	961.96
391.97	931.53
392.16	1008.77
392.36	954.94
392.55	978.34
392.75	966.64
392.94	950.26
393.13	964.30
393.33	971.32
393.52	1088.35
393.71	1076.65
393.91	1139.84
394.10	1083.67
394.29	1095.37
394.49	1139.84
394.68	1083.67
394.88	1196.01
395.07	1233.46
395.26	1217.08
395.46	1144.52
395.65	1196.01
395.84	1207.72
396.04	1224.10
396.23	1200.69
396.42	1188.99
396.62	1076.65
396.81	1226.44
397.00	1170.27
397.19	1231.12
397.39	1224.10
397.58	1249.85
397.77	1301.34
397.97	1366.87
398.16	1324.74
398.35	1357.51
398.55	1329.42
398.74	1343.47
398.93	1462.83
399.12	1444.11
399.32	1366.87
399.51	1359.85
399.70	1437.09
399.90	1469.86
400.09	1416.02
400.28	1483.90
400.47	1476.88
400.67	1509.65
400.86	1514.33
401.05	1558.80
401.24	1540.07
401.44	1516.67
401.63	1537.73
401.82	1465.18
402.01	1582.20
402.21	1652.42
402.40	1657.10
402.59	1528.37
402.78	1593.90
402.97	1636.03
403.17	1645.40
403.36	1612.63
403.55	1701.57
403.74	1689.87
403.93	1774.13
404.13	1640.72
404.32	1701.57
404.51	1746.04
404.70	1867.75
404.89	1753.06
405.09	1806.89
405.28	1799.87
405.47	1811.57
405.66	1741.36
405.85	1762.42
406.05	1778.81
406.24	1898.17
406.43	1811.57
406.62	1886.47
406.81	1954.35
407.00	1888.81
407.20	1867.75
407.39	1930.94
407.58	1994.14
407.77	1984.77
407.96	2057.33
408.15	2026.90
408.34	2012.86
408.54	2099.46
408.73	2157.97
408.92	2115.84
409.11	2104.14
409.30	2129.89
409.49	2073.71
409.68	2160.31
409.87	2092.44
410.07	2270.32
410.26	2246.91
410.45	2321.81
410.64	2244.57
410.83	2312.45
411.02	2225.85
411.21	2403.73
411.40	2335.85
411.59	2429.48
411.78	2317.13
411.98	2389.69
412.17	2455.22
412.36	2417.77
412.55	2487.99
412.74	2520.76
412.93	2476.29
413.12	2520.76
413.31	2705.66
413.50	2590.97
413.69	2520.76
413.88	2546.50
414.07	2600.34
414.26	2658.85
414.45	2665.87
414.64	2668.21
414.83	2874.18
415.02	2832.05
415.22	2862.48
415.41	2813.32
415.60	2722.04
415.79	2775.88
415.98	2860.13
416.17	3005.25
416.36	2899.92
416.55	3049.72
416.74	3035.67
416.93	3141.00
417.12	3105.89
417.31	2963.12
417.50	3131.64
417.69	3136.32
417.88	3229.94
418.07	3199.51
418.26	3152.70
418.45	3185.47
418.64	3297.81
418.83	3297.81
419.02	3213.56
419.21	3487.40
419.39	3255.69
419.58	3274.41
419.77	3133.98
419.96	3304.84
420.15	3337.60
420.34	3463.99
420.53	3330.58
420.72	3428.88
420.91	3426.54
421.10	3503.78
421.29	3646.55
421.48	3658.26
421.67	3674.64
421.86	3501.44
422.05	3489.74
422.24	3426.54
422.43	3517.83
422.61	3534.21
422.80	3681.66
422.99	3627.83
423.18	3726.13
423.37	3721.45
423.56	3620.81
423.75	3637.19
423.94	3508.46
424.13	3421.86
424.32	3613.79
424.50	3681.66
424.69	3733.15
424.88	3737.84
425.07	3611.45
425.26	3508.46
425.45	3674.64
425.64	3693.37
425.83	3716.77
426.01	3861.88
426.20	3845.50
426.39	3751.88
426.58	3665.28
426.77	3653.58
426.96	3796.35
427.15	3730.81
427.33	3794.01
427.52	3859.54
427.71	3901.67
427.90	3838.48
428.09	3929.76
428.28	3859.54
428.46	3761.24
428.65	3899.33
428.84	4091.26
429.03	3918.06
429.22	3948.48
429.40	4042.11
429.59	3957.85
429.78	3716.77
429.97	3721.45
430.16	3803.37
430.34	3960.19
430.53	3920.40
430.72	3964.87
430.91	3983.59
431.10	3943.80
431.28	4135.73
431.47	4154.45
431.66	4212.96
431.85	4271.48
432.03	4311.27
432.22	4360.42
432.41	4360.42
432.60	4418.93
432.79	4461.06
432.97	4437.66
433.16	4351.06
433.35	4348.72
433.54	4414.25
433.72	4325.31
433.91	4269.14
434.10	4458.72
434.28	4329.99
434.47	4512.55
434.66	4514.89
434.85	4655.33
435.03	4765.33
435.22	4472.76
435.41	4777.03
435.59	4676.39
435.78	4706.82
435.97	4678.73
436.16	4807.46
436.34	4683.41
436.53	4690.43
436.72	4807.46
436.90	4713.84
437.09	4779.37
437.28	4823.84
437.46	4713.84
437.65	4844.91
437.84	4947.89
438.02	4819.16
438.21	4863.63
438.40	4840.23
438.58	4837.89
438.77	5158.54
438.96	5097.69
439.14	5165.56
439.33	5156.20
439.52	5179.61
439.70	5254.50
439.89	5380.89
440.08	5320.04
440.26	5348.12
440.45	5317.70
440.63	5425.36
440.82	5528.35
441.01	5628.99
441.19	5376.21
441.38	5647.71
441.57	5710.91
441.75	5755.38
441.94	5870.06
442.12	5834.96
442.31	5844.32
442.50	5963.68
442.68	5947.30
442.87	6033.90
443.05	5860.70
443.24	6012.84
443.43	5872.40
443.61	5905.17
443.80	6146.25
443.98	5940.28
444.17	5673.46
444.35	5923.90
444.54	6092.41
444.73	6024.54
444.91	5966.03
445.10	5923.90
445.28	6160.29
445.47	6008.16
445.65	6003.47
445.84	6148.59
446.02	6267.95
446.21	6218.80
446.39	6228.17
446.58	6221.14
446.77	6169.65
446.95	6090.07
447.14	6064.33
447.32	6209.44
447.51	6239.87
447.69	6335.83
447.88	6232.85
448.06	6293.70
448.25	6174.33
448.43	6394.34
448.62	6265.61
448.80	6188.38
448.99	6382.64
449.17	6373.28
449.36	6457.54
449.54	6443.49
449.73	6434.13
449.91	6502.01
450.10	6609.67
450.28	6513.71
450.46	6801.60
450.65	6689.25
450.83	6661.16
451.02	6579.25
451.20	6773.51
451.39	6668.19
451.57	6464.56
451.76	6602.65
451.94	6848.41
452.13	6743.08
452.31	6883.52
452.49	6546.48
452.68	6649.46
452.86	6675.21
453.05	6782.87
453.23	6885.86
453.42	6801.60
453.60	6677.55
453.78	6890.54
453.97	6820.32
454.15	6862.45
454.34	6916.28
454.52	6960.75
454.70	7028.63
454.89	7000.54
455.07	7009.90
455.26	7047.35
455.44	6991.18
455.62	7262.68
455.81	7162.04
455.99	7190.13
456.17	7281.41
456.36	7288.43
456.54	7433.54
456.73	7293.11
456.91	7536.52
457.09	7426.52
457.28	7555.25
457.46	7426.52
457.64	7686.32
457.83	7501.42
458.01	7360.98
458.19	7735.47
458.38	7543.55
458.56	7737.81
458.74	7686.32
458.93	7569.29
459.11	7810.37
459.29	7728.45
459.48	7801.01
459.66	7808.03
459.84	7808.03
460.03	7810.37
460.21	7969.52
460.39	7978.89
460.57	7822.07
460.76	7992.93
460.94	8056.12
461.12	7857.18
461.31	8126.34
461.49	8210.60
461.67	8065.49
461.85	8351.03
462.04	8187.19
462.22	8762.97
462.40	8250.39
462.59	8489.12
462.77	8224.64
462.95	8322.94
463.13	8203.58
463.32	8236.35
463.50	8271.45
463.68	8306.56
463.86	8470.40
464.05	8416.57
464.23	8299.54
464.41	8498.49
464.59	8456.36
464.78	8580.40
464.96	8383.80
465.14	8219.96
465.32	8564.02
465.50	8561.68
465.69	8688.07
465.87	8709.13
466.05	8454.02
466.23	8514.87
466.41	8505.51
466.60	8945.53
466.78	8482.10
466.96	8720.84
467.14	8795.73
467.32	8814.46
467.51	8777.01
467.69	8657.64
467.87	8692.75
468.05	8879.99
468.23	8865.95
468.41	8746.58
468.60	8798.07
468.78	8863.61
468.96	8987.66
469.14	9008.72
469.32	9188.94
469.50	8950.21
469.69	9107.02
469.87	9090.64
470.05	9078.94
470.23	9156.18
470.41	9184.26
470.59	9385.55
470.77	9167.88
470.95	9366.82
471.14	9476.83
471.32	9364.48
471.50	9591.52
471.68	9607.90
471.86	9640.67
472.04	9790.46
472.22	9816.21
472.40	9603.22
472.58	9940.26
472.77	9895.78
472.95	9968.34
473.13	10293.68
473.31	9856.00
473.49	9696.84
473.67	9848.97
473.85	10115.80
474.03	10221.12
474.21	10490.28
474.39	10127.50
474.57	10345.17
474.75	10239.84
474.93	10312.40
475.12	10497.30
475.30	10424.75
475.48	10279.63
475.66	10574.54
475.84	10623.69
476.02	10597.95
476.20	10808.59
476.38	10949.03
476.56	11040.31
476.74	11103.50
476.92	11185.42
477.10	11152.65
477.28	11314.15
477.46	11026.26
477.64	11403.09
477.82	11342.24
478.00	11719.06
478.18	11700.34
478.36	11826.73
478.54	11967.16
478.72	12079.50
478.90	12112.27
479.08	12084.19
479.26	12510.16
479.44	12531.23
479.62	12468.03
479.80	12475.06
479.98	12458.67
480.16	12800.39
480.34	12453.99
480.52	12879.97
480.70	12833.16
480.88	12800.39
481.06	12999.34
481.24	13139.77
481.41	13387.86
481.59	13572.77
481.77	13603.19
481.95	13516.59
482.13	13647.66
482.31	13502.55
482.49	14073.64
482.67	13872.36
482.85	14073.64
483.03	14218.75
483.21	14342.80
483.39	14420.04
483.57	14494.94
483.74	14682.18
483.92	14841.34
484.10	14588.56
484.28	14883.47
484.46	15208.80
484.64	15133.90
484.82	14883.47
485.00	15321.15
485.18	15555.20
485.35	15735.42
485.53	15405.41
485.71	15576.27
485.89	15906.28
486.07	15648.82
486.25	15971.82
486.43	16072.46
486.61	16393.11
486.78	16561.63
486.96	16456.31
487.14	17029.74
487.32	16596.74
487.50	16943.14
487.68	17261.45
487.85	17376.14
488.03	17495.50
488.21	17699.13
488.39	17661.68
488.57	17743.60
488.75	17500.19
488.92	18047.87
489.10	18113.41
489.28	18588.53
489.46	18541.72
489.64	18483.21
489.81	19014.51
489.99	18845.99
490.17	19206.44
490.35	19056.64
490.53	19122.18
490.70	19358.57
490.88	19290.70
491.06	19908.60
491.24	19796.25
491.41	19463.90
491.59	19391.34
491.77	19688.59
491.95	20013.92
492.13	20121.59
492.30	20355.64
492.48	20393.09
492.66	20886.94
492.84	20769.91
493.01	20830.77
493.19	21113.97
493.37	21041.42
493.54	21319.94
493.72	21209.93
493.90	21238.02
494.08	21418.24
494.25	21816.13
494.43	22087.64
494.61	22066.57
494.79	22471.48
494.96	22319.35
495.14	21881.67
495.32	22487.87
495.49	22527.66
495.67	22693.83
495.85	22977.04
496.02	22677.45
496.20	23063.64
496.38	23077.68
496.55	23276.63
496.73	23751.76
496.91	23154.92
497.09	23552.81
497.26	23791.55
497.44	23665.16
497.62	23690.90
497.79	23768.14
497.97	23955.38
498.14	24126.24
498.32	24299.44
498.50	24226.89
498.67	24383.70
498.85	24414.13
499.03	24629.46
499.20	24816.70
499.38	25106.93
499.56	24900.96
499.73	24725.42
499.91	25149.06
500.08	25081.18
500.26	25493.12
500.44	25649.93
500.61	25350.34
500.79	25387.79
500.97	25568.01
501.14	25813.77
501.32	26253.79
501.49	25961.22
501.67	26017.40
501.84	26221.02
502.02	26286.56
502.20	26387.20
502.37	26548.70
502.55	26944.25
502.72	26415.29
502.90	26375.50
503.07	26466.78
503.25	26553.38
503.43	26501.89
503.60	27002.76
503.78	26829.56
503.95	26883.39
504.13	27351.50
504.30	27393.63
504.48	26902.12
504.65	27473.21
504.83	27721.30
505.01	27662.79
505.18	27749.39
505.36	28189.41
505.53	27962.38
505.71	28222.18
505.88	28217.50
506.06	28175.37
506.23	28151.96
506.41	28173.03
506.58	28381.34
506.76	28627.09
506.93	28723.05
507.11	28292.40
507.28	28811.99
507.46	28280.69
507.63	28556.88
507.81	28751.14
507.98	28727.74
508.16	29067.11
508.33	29223.93
508.50	29118.60
508.68	29453.30
508.85	29448.62
509.03	29699.06
509.20	29989.28
509.38	29689.70
509.55	29900.34
509.73	30188.23
509.90	29607.78
510.08	29907.37
510.25	30120.35
510.42	30352.07
510.60	30139.08
510.77	30101.63
510.95	30569.74
511.12	30181.21
511.30	30663.36
511.47	30649.32
511.64	30609.53
511.82	31208.70
511.99	30600.16
512.17	31248.49
512.34	30646.97
512.51	31012.10
512.69	31049.55
512.86	31314.03
513.04	31637.02
513.21	31459.14
513.38	31241.47
513.56	31140.83
513.73	31344.45
513.90	32013.85
514.08	31299.98
514.25	31515.31
514.43	31915.54
514.60	31770.43
514.77	32168.32
514.95	32350.88
515.12	31962.36
515.29	31824.26
515.47	32327.48
515.64	32418.76
515.81	32360.25
515.99	32481.95
516.16	32531.11
516.33	32407.06
516.51	32542.81
516.68	32147.26
516.85	32023.21
517.03	32748.78
517.20	32610.68
517.37	33312.84
517.54	33017.94
517.72	33251.99
517.89	32996.87
518.06	32891.55
518.24	33263.69
518.41	33055.39
518.58	33282.42
518.75	33195.82
518.93	33558.60
519.10	33570.30
519.27	33584.35
519.45	33528.17
519.62	34071.18
519.79	33759.89
519.96	33879.25
520.14	34314.59
520.31	34068.84
520.48	34242.04
520.65	34059.48
520.83	34639.93
521.00	34532.26
521.17	34410.56
521.34	34513.54
521.52	34550.99
521.69	34672.70
521.86	34593.12
522.03	34721.85
522.20	35180.59
522.38	35276.55
522.55	35035.48
522.72	34625.89
522.89	35086.97
523.07	35744.66
523.24	35180.59
523.41	35229.74
523.58	35330.39
523.75	35796.15
523.92	35587.85
524.10	35922.54
524.27	35688.49
524.44	35679.13
524.61	36444.48
524.78	35840.62
524.96	36100.42
525.13	36271.28
525.30	36294.69
525.47	36346.18
525.64	36247.88
525.81	36287.67
525.98	36030.21
526.16	36062.97
526.33	35779.77
526.50	36343.84
526.67	36364.90
526.84	36275.96
527.01	36165.96
527.18	36364.90
527.36	36451.50
527.53	36758.11
527.70	36830.67
527.87	37081.11
528.04	37235.58
528.21	36879.82
528.38	36547.47
528.55	37406.44
528.72	37064.72
528.89	37193.45
529.07	37214.52
529.24	37219.20
529.41	37612.41
529.58	37177.07
529.75	37535.17
529.92	38031.36
530.09	37734.12
530.26	37890.93
530.43	37944.76
530.60	37893.27
530.77	37839.44
530.94	37975.19
531.11	38246.69
531.28	38110.94
531.46	38040.73
531.63	38380.10
531.80	38101.58
531.97	37879.23
532.14	38323.93
532.31	38087.54
532.48	38167.12
532.65	38742.89
532.82	38022.00
532.99	38352.02
533.16	38132.01
533.33	38719.48
533.50	38443.30
533.67	38785.02
533.84	38569.69
534.01	38815.44
534.18	39007.37
534.35	38925.45
534.52	38625.86
534.69	39002.69
534.86	39255.46
535.03	38822.47
535.20	39124.40
535.37	39203.97
535.54	39498.88
535.71	39168.87
535.88	39203.97
536.05	38955.88
536.22	39304.62
536.38	39515.26
536.55	39372.49
536.72	39061.20
536.89	38770.97
537.06	39398.24
537.23	39915.50
537.40	39821.87
537.57	39735.27
537.74	39552.71
537.91	40137.85
538.08	40048.91
538.25	39817.19
538.42	39702.51
538.59	39660.38
538.75	40032.52
538.92	40048.91
539.09	40528.72
539.26	40194.02
539.43	40039.54
539.60	40250.19
539.77	39756.34
539.94	40020.82
540.11	40133.17
540.28	40350.84
540.44	40212.74
540.61	40226.79
540.78	40271.26
540.95	40603.61
541.12	40142.53
541.29	40226.79
541.46	40423.39
541.62	40442.12
541.79	40924.27
541.96	40346.15
542.13	40409.35
542.30	40416.37
542.47	40730.00
542.63	40648.08
542.80	40938.31
542.97	41677.92
543.14	41331.52
543.31	41043.63
543.48	41141.94
543.64	41418.12
543.81	41251.94
543.98	41670.90
544.15	41504.72
544.32	41799.63
544.48	41914.31
544.65	41631.11
544.82	41645.15
544.99	41518.76
545.16	41523.44
545.32	41661.54
545.49	41827.71
545.66	42115.60
545.83	41897.93
546.00	42038.36
546.16	41670.90
546.33	41497.70
546.50	41546.85
546.67	41860.48
546.83	41380.67
547.00	41926.02
547.17	41940.06
547.34	41813.67
547.50	42005.59
547.67	42323.91
547.84	42246.67
548.00	42417.53
548.17	42464.34
548.34	42710.10
548.51	42689.03
548.67	42103.90
548.84	42335.61
549.01	42403.49
549.18	42682.01
549.34	42686.69
549.51	42621.16
549.68	42611.79
549.84	42225.60
550.01	43159.48
550.18	42895.00
550.34	42536.90
550.51	42752.23
550.68	42492.43
550.84	42632.86
551.01	42871.59
551.18	42789.67
551.34	42895.00
551.51	42749.88
551.68	43023.73
551.84	43297.57
552.01	42859.89
552.18	43210.97
552.34	42913.72
552.51	43540.99
552.68	43213.31
552.84	43358.42
553.01	43606.52
553.18	43683.76
553.34	43356.08
553.51	42899.68
553.67	42756.91
553.84	43730.57
554.01	43777.38
554.17	43496.52
554.34	43800.79
554.51	43470.77
554.67	43365.45
554.84	43370.13
555.00	43646.31
555.17	43381.83
555.33	43384.17
555.50	43835.89
555.67	43721.21
555.83	43749.29
556.00	43618.22
556.16	43952.92
556.33	43821.85
556.50	44151.87
556.66	44041.86
556.83	43711.84
556.99	43941.22
557.16	44156.55
557.32	43791.42
557.49	44002.07
557.65	43927.17
557.82	43683.76
557.98	44025.48
558.15	44027.82
558.32	43807.81
558.48	43978.67
558.65	44460.82
558.81	43978.67
558.98	44121.44
559.14	44280.60
559.31	43995.05
559.47	44554.44
559.64	44306.34
559.80	44032.50
559.97	44615.29
560.13	44278.25
560.30	44102.71
560.46	44463.16
560.63	44275.91
560.79	44837.64
560.96	44818.92
561.12	43992.71
561.29	44926.58
561.45	44847.00
561.61	44383.58
561.78	44107.40
561.94	44116.76
562.11	44151.87
562.27	44540.39
562.44	44741.68
562.60	44575.50
562.77	44947.65
562.93	44435.07
563.10	44800.19
563.26	44538.05
563.42	44493.58
563.59	44392.94
563.75	44589.55
563.92	44690.19
564.08	44720.62
564.24	44722.96
564.41	44519.33
564.57	44814.24
564.74	44828.28
564.90	44882.11
565.07	44856.37
565.23	44683.17
565.39	44783.81
565.56	44938.29
565.72	44973.39
565.88	44781.47
566.05	44727.64
566.21	44816.58
566.38	44624.65
566.54	44612.95
566.70	45188.72
566.87	45207.45
567.03	45125.53
567.19	45177.02
567.36	44884.45
567.52	44706.57
567.68	45109.14
567.85	45078.72
568.01	45170.00
568.17	44699.55
568.34	44868.07
568.50	45097.44
568.66	44383.58
568.83	44905.52
568.99	44634.02
569.15	44832.96
569.32	44612.95
569.48	44985.10
569.64	45228.51
569.81	45181.70
569.97	44957.01
570.13	45116.17
570.30	44589.55
570.46	44683.17
570.62	44760.40
570.78	44964.03
570.95	44516.99
571.11	45338.52
571.27	44598.91
571.43	44989.78
571.60	45216.81
571.76	45010.84
571.92	44727.64
572.09	44968.71
572.25	44835.30
572.41	45095.10
572.57	45050.63
572.74	45518.74
572.90	44886.79
573.06	44959.35
573.22	45270.64
573.38	44931.26
573.55	44818.92
573.71	45567.89
573.87	44900.84
574.03	44708.91
574.20	45226.17
574.36	45263.62
574.52	45532.78
574.68	45249.58
574.84	45144.25
575.01	45045.95
575.17	45137.23
575.33	44823.60
575.49	44975.73
575.65	45860.46
575.82	45743.43
575.98	45052.97
576.14	45591.30
576.30	45631.08
576.46	44898.50
576.62	45343.20
576.79	45228.51
576.95	45020.20
577.11	45221.49
577.27	45436.82
577.43	45511.72
577.59	45502.35
577.75	45272.98
577.92	45502.35
578.08	45132.55
578.24	44949.99
578.40	44835.30
578.56	44987.44
578.72	45104.46
578.88	45603.00
579.04	45270.64
579.21	45289.37
579.37	45146.59
579.53	45364.26
579.69	44856.37
579.85	45160.64
580.01	45504.70
580.17	45455.54
580.33	45067.02
580.49	45560.87
580.65	45888.54
580.82	45642.79
580.98	45301.07
581.14	45722.37
581.30	45282.34
581.46	45067.02
581.62	45268.30
581.78	45289.37
581.94	45509.38
582.10	45532.78
582.26	45401.71
582.42	45074.04
582.58	45514.06
582.74	45130.21
582.90	45471.93
583.06	45525.76
583.22	45378.31
583.38	45502.35
583.54	45556.19
583.70	45282.34
583.86	45474.27
584.02	45186.38
584.18	45069.36
584.34	45624.06
584.50	45619.38
584.66	45256.60
584.82	44975.73
584.98	45715.34
585.14	45563.21
585.30	45090.42
585.46	45277.66
585.62	44989.78
585.78	45668.53
585.94	45132.55
586.10	45104.46
586.26	45612.36
586.42	45502.35
586.58	45603.00
586.74	45371.28
586.90	45235.53
587.06	44980.42
587.22	45579.59
587.38	45202.77
587.54	45432.14
587.70	45336.18
587.86	45500.01
588.02	45399.37
588.18	45701.30
588.34	44924.24
588.49	45031.91
588.65	45258.94
588.81	44987.44
588.97	44942.97
589.13	44601.25
589.29	45172.34
589.45	45563.21
589.61	45361.92
589.77	45640.45
589.93	45815.99
590.08	45518.74
590.24	45516.40
