SpectraSuite Data File
++++++++++++++++++++++++++++++++++++
Date: Fri Oct 25 11:26:27 EDT 2013
User: price-jones
Dark Spectrum Present: No
Reference Spectrum Present: No
Number of Sampled Component Spectra: 1
Spectrometers: USB2+H05261
Integration Time (usec): 100000 (USB2+H05261)
Spectra Averaged: 1 (USB2+H05261)
Boxcar Smoothing: 0 (USB2+H05261)
Correct for Electrical Dark: No (USB2+H05261)
Strobe/Lamp Enabled: No (USB2+H05261)
Correct for Detector Non-linearity: No (USB2+H05261)
Correct for Stray Light: No (USB2+H05261)
Number of Pixels in Processed Spectrum: 2048
>>>>>Begin Processed Spectral Data<<<<<
365.73	248.10
365.92	248.10
366.12	248.10
366.32	119.37
366.52	128.73
366.72	114.69
366.91	152.13
367.11	208.31
367.31	184.90
367.51	194.26
367.70	131.07
367.90	117.03
368.10	159.16
368.30	191.92
368.49	124.05
368.69	133.41
368.89	166.18
369.09	220.01
369.28	173.20
369.48	243.42
369.68	166.18
369.87	194.26
370.07	191.92
370.27	205.97
370.47	301.93
370.66	601.52
370.86	592.16
371.06	702.16
371.25	725.57
371.45	678.76
371.65	765.36
371.84	709.18
372.04	725.57
372.24	692.80
372.44	802.80
372.63	751.31
372.83	732.59
373.03	678.76
373.22	795.78
373.42	734.93
373.62	795.78
373.81	770.04
374.01	830.89
374.21	835.57
374.40	737.27
374.60	849.61
374.79	856.64
374.99	793.44
375.19	798.12
375.38	910.47
375.58	849.61
375.78	835.57
375.97	847.27
376.17	826.21
376.37	823.87
376.56	961.96
376.76	826.21
376.95	819.19
377.15	940.90
377.35	814.51
377.54	968.98
377.74	898.77
377.93	950.26
378.13	950.26
378.33	922.17
378.52	954.94
378.72	961.96
378.91	903.45
379.11	954.94
379.31	971.32
379.50	912.81
379.70	1039.20
379.89	973.66
380.09	931.53
380.28	1053.24
380.48	1029.84
380.68	987.71
380.87	950.26
381.07	1071.97
381.26	1011.11
381.46	1039.20
381.65	1048.56
381.85	1018.13
382.04	1083.67
382.24	1064.94
382.43	1036.86
382.63	1100.05
382.83	1076.65
383.02	1022.81
383.22	1130.48
383.41	1064.94
383.61	1067.28
383.80	1165.59
384.00	1137.50
384.19	1179.63
384.39	1132.82
384.58	1172.61
384.78	1200.69
384.97	1144.52
385.17	1170.27
385.36	1200.69
385.56	1196.01
385.75	1259.21
385.95	1191.33
386.14	1231.12
386.34	1242.82
386.53	1149.20
386.72	1165.59
386.92	1121.12
387.11	1226.44
387.31	1266.23
387.50	1252.19
387.70	1238.14
387.89	1219.42
388.09	1401.98
388.28	1266.23
388.48	1249.85
388.67	1345.81
388.86	1334.11
389.06	1259.21
389.25	1404.32
389.45	1322.40
389.64	1327.08
389.84	1331.76
390.03	1270.91
390.22	1362.19
390.42	1420.71
390.61	1416.02
390.81	1420.71
391.00	1401.98
391.19	1406.66
391.39	1348.15
391.58	1493.26
391.78	1458.15
391.97	1516.67
392.16	1476.88
392.36	1533.05
392.55	1598.59
392.75	1465.18
392.94	1542.41
393.13	1511.99
393.33	1629.01
393.52	1556.46
393.71	1584.54
393.91	1591.56
394.10	1540.07
394.29	1577.52
394.49	1617.31
394.68	1694.55
394.88	1701.57
395.07	1713.27
395.26	1741.36
395.46	1689.87
395.65	1647.74
395.84	1811.57
396.04	1746.04
396.23	1870.09
396.42	1722.63
396.62	1713.27
396.81	1823.28
397.00	1797.53
397.19	1708.59
397.39	1818.60
397.58	1757.74
397.77	1760.08
397.97	1830.30
398.16	1942.64
398.35	1893.49
398.55	1940.30
398.74	1842.00
398.93	1980.09
399.12	1902.86
399.32	1912.22
399.51	1947.33
399.70	1987.11
399.90	1956.69
400.09	1989.46
400.28	1984.77
400.47	1980.09
400.67	2064.35
400.86	1961.37
401.05	2045.63
401.24	2106.48
401.44	2090.10
401.63	2225.85
401.82	2197.76
402.01	2204.78
402.21	2162.66
402.40	2230.53
402.59	2190.74
402.78	2190.74
402.97	2134.57
403.17	2277.34
403.36	2190.74
403.55	2179.04
403.74	2282.02
403.93	2237.55
404.13	2296.07
404.32	2352.24
404.51	2338.20
404.70	2361.60
404.89	2436.50
405.09	2427.14
405.28	2424.80
405.47	2392.03
405.66	2555.86
405.85	2562.89
406.05	2527.78
406.24	2593.31
406.43	2654.17
406.62	2612.04
406.81	2689.28
407.00	2593.31
407.20	2642.46
407.39	2553.52
407.58	2815.66
407.77	2773.53
407.96	2696.30
408.15	2789.92
408.34	2726.72
408.54	2839.07
408.73	2745.45
408.92	2780.56
409.11	2794.60
409.30	2937.37
409.49	2937.37
409.68	2949.08
409.87	2883.54
410.07	3063.76
410.26	2993.55
410.45	3077.80
410.64	2953.76
410.83	3101.21
411.02	3005.25
411.21	3185.47
411.40	3171.43
411.59	3098.87
411.78	3073.12
411.98	3225.26
412.17	3260.37
412.36	3335.26
412.55	3269.73
412.74	3473.36
412.93	3407.82
413.12	3302.50
413.31	3506.12
413.50	3349.31
413.69	3426.54
413.88	3644.21
414.07	3576.34
414.26	3595.06
414.45	3679.32
414.64	3723.79
414.83	3618.47
415.02	3768.26
415.22	3695.71
415.41	3838.48
415.60	3772.94
415.79	3854.86
415.98	3896.99
416.17	3913.38
416.36	4065.51
416.55	3990.61
416.74	4093.60
416.93	3925.08
417.12	4245.73
417.31	4112.32
417.50	4152.11
417.69	4212.96
417.88	4334.67
418.07	4269.14
418.26	4259.78
418.45	4283.18
418.64	4437.66
418.83	4329.99
419.02	4430.63
419.21	4606.17
419.39	4454.04
419.58	4346.37
419.77	4423.61
419.96	4409.57
420.15	4423.61
420.34	4423.61
420.53	4638.94
420.72	4617.88
420.91	4713.84
421.10	4674.05
421.29	4730.22
421.48	4660.01
421.67	4748.95
421.86	4727.88
422.05	4821.50
422.24	4800.44
422.43	4772.35
422.61	4983.00
422.80	4903.42
422.99	4992.36
423.18	4760.65
423.37	4975.98
423.56	4924.49
423.75	4929.17
423.94	4816.82
424.13	4643.62
424.32	4692.77
424.50	4983.00
424.69	5139.82
424.88	4933.85
425.07	5177.26
425.26	4896.40
425.45	4987.68
425.64	4994.70
425.83	5015.77
426.01	5078.96
426.20	5142.16
426.39	5146.84
426.58	5060.24
426.77	4985.34
426.96	5245.14
427.15	5188.97
427.33	5331.74
427.52	5179.61
427.71	5137.48
427.90	5376.21
428.09	5282.59
428.28	5401.96
428.46	5165.56
428.65	5315.36
428.84	5437.06
429.03	5516.64
429.22	5320.04
429.40	5305.99
429.59	5509.62
429.78	5294.29
429.97	5210.03
430.16	5502.60
430.34	5568.13
430.53	5619.63
430.72	5610.26
430.91	5621.97
431.10	5685.16
431.28	5689.84
431.47	5764.74
431.66	5860.70
431.85	5809.21
432.03	5884.11
432.22	5834.96
432.41	5907.51
432.60	5888.79
432.79	5851.34
432.97	5963.68
433.16	5989.43
433.35	6066.67
433.54	6104.12
433.72	6141.57
433.91	5926.24
434.10	6003.47
434.28	6054.97
434.47	6188.38
434.66	6427.11
434.85	6188.38
435.03	6434.13
435.22	6197.74
435.41	6382.64
435.59	6326.47
435.78	6251.57
435.97	6497.33
436.16	6328.81
436.34	6401.37
436.53	6480.94
436.72	6630.74
436.90	6464.56
437.09	6628.40
437.28	6551.16
437.46	6590.95
437.65	6651.80
437.84	6745.42
438.02	6715.00
438.21	6890.54
438.40	6588.61
438.58	6972.46
438.77	6967.77
438.96	6822.66
439.14	7073.10
439.33	7089.48
439.52	7410.14
439.70	7243.96
439.89	7232.26
440.08	7316.51
440.26	7330.56
440.45	7445.24
440.63	7492.05
440.82	7541.21
441.01	7492.05
441.19	7508.44
441.38	7852.50
441.57	7674.62
441.75	7798.66
441.94	7929.74
442.12	7889.95
442.31	8065.49
442.50	7915.69
442.68	7911.01
442.87	7765.90
443.05	8004.63
443.24	8219.96
443.43	8231.66
443.61	8182.51
443.80	8315.92
443.98	7976.55
444.17	7969.52
444.35	8276.13
444.54	8100.59
444.73	8201.24
444.91	8318.26
445.10	8217.62
445.28	8208.26
445.47	8283.16
445.65	8327.63
445.84	8322.94
446.02	8407.20
446.21	8409.54
446.39	8334.65
446.58	8355.71
446.77	8498.49
446.95	8318.26
447.14	8650.62
447.32	8503.17
447.51	8439.97
447.69	8582.74
447.88	8561.68
448.06	8596.79
448.25	8561.68
448.43	8477.42
448.62	8634.24
448.80	8407.20
448.99	8629.56
449.17	8645.94
449.36	8753.60
449.54	8781.69
449.73	8978.30
449.91	9025.11
450.10	8863.61
450.28	9018.08
450.46	9025.11
450.65	9034.47
450.83	9085.96
451.02	8926.80
451.20	9130.43
451.39	8961.91
451.57	9039.15
451.76	9128.09
451.94	9240.44
452.13	9401.93
452.31	9242.78
452.49	9156.18
452.68	9458.10
452.86	9172.56
453.05	9254.48
453.23	9549.39
453.42	9327.03
453.60	9476.83
453.78	9446.40
453.97	9387.89
454.15	9542.36
454.34	9345.76
454.52	9661.73
454.70	9624.28
454.89	9605.56
455.07	9839.61
455.26	9717.90
455.44	9888.76
455.62	9905.15
455.81	9907.49
455.99	10162.61
456.17	10024.51
456.36	9980.04
456.54	10068.98
456.73	10321.76
456.91	10370.91
457.09	10377.94
457.28	10586.24
457.46	10324.10
457.64	10576.88
457.83	10593.26
458.01	10363.89
458.19	10761.78
458.38	10370.91
458.56	10537.09
458.74	10719.65
458.93	10691.57
459.11	10803.91
459.29	10738.38
459.48	10789.87
459.66	10841.36
459.84	10806.25
460.03	10984.13
460.21	11066.05
460.39	10916.26
460.57	10834.34
460.76	10953.71
460.94	11159.67
461.12	11152.65
461.31	10972.43
461.49	11152.65
461.67	11063.71
461.85	11496.71
462.04	11136.27
462.22	11721.40
462.40	11342.24
462.59	11531.82
462.77	11323.51
462.95	11576.29
463.13	11550.54
463.32	11763.53
463.50	11786.94
463.68	11580.97
463.86	11784.60
464.05	11705.02
464.23	11606.72
464.41	11864.18
464.59	11702.68
464.78	12091.21
464.96	11721.40
465.14	11782.26
465.32	12058.44
465.50	12191.85
465.69	12147.38
465.87	12189.51
466.05	11819.71
466.23	12250.36
466.41	11948.43
466.60	12393.14
466.78	12149.72
466.96	12177.81
467.14	12224.62
467.32	12301.86
467.51	12491.44
467.69	12175.47
467.87	12561.66
468.05	12510.16
468.23	12360.37
468.41	12648.26
468.60	12411.86
468.78	12659.96
468.96	12386.12
469.14	12713.79
469.32	12685.70
469.50	12765.28
469.69	13156.15
469.87	12950.18
470.05	12936.14
470.23	13050.83
470.41	13158.49
470.59	13350.42
470.77	13069.55
470.95	13170.19
471.14	13628.94
471.32	13195.94
471.50	13657.03
471.68	13727.24
471.86	13701.50
472.04	13647.66
472.22	14298.33
472.40	13516.59
472.58	13708.52
472.77	13912.14
472.95	14136.84
473.13	14548.77
473.31	14047.90
473.49	13970.66
473.67	14029.17
473.85	14197.69
474.03	14527.71
474.21	14403.66
474.39	14450.47
474.57	14595.58
474.75	14984.11
474.93	15007.52
475.12	15115.18
475.30	15171.35
475.48	15028.58
475.66	15201.78
475.84	15185.40
476.02	15304.76
476.20	15246.25
476.38	15646.48
476.56	15761.17
476.74	15925.00
476.92	15730.74
477.10	15466.26
477.28	16271.40
477.46	15976.50
477.64	16109.91
477.82	16343.96
478.00	16985.27
478.18	17039.10
478.36	16596.74
478.54	17003.99
478.72	17081.23
478.90	17130.38
479.08	17551.68
479.26	17465.08
479.44	17811.48
479.62	17778.71
479.80	17743.60
479.98	18232.77
480.16	18625.98
480.34	18274.90
480.52	18530.02
480.70	18464.49
480.88	18253.84
481.06	18871.74
481.24	18422.36
481.41	18972.38
481.59	19257.93
481.77	19817.32
481.95	19358.57
482.13	19550.49
482.31	19566.88
482.49	20180.10
482.67	20456.28
482.85	20596.71
483.03	20631.82
483.21	20603.74
483.39	20865.88
483.57	20978.22
483.74	21041.42
483.92	21216.96
484.10	20872.90
484.28	21383.13
484.46	21884.01
484.64	22321.69
484.82	21986.99
485.00	22106.36
485.18	22815.54
485.35	22775.75
485.53	22773.41
485.71	22939.59
485.89	23552.81
486.07	23145.56
486.25	23253.22
486.43	23344.50
486.61	23826.65
486.78	24109.86
486.96	23878.15
487.14	24280.72
487.32	24430.51
487.50	24854.15
487.68	24758.19
487.85	25027.35
488.03	25275.45
488.21	25816.11
488.39	25752.91
488.57	25781.00
488.75	26190.59
488.92	26679.77
489.10	26787.43
489.28	26576.78
489.46	27288.31
489.64	26925.52
489.81	26864.67
489.99	27510.66
490.17	27763.43
490.35	28088.77
490.53	27962.38
490.70	28320.48
490.88	27983.44
491.06	28872.85
491.24	28591.98
491.41	29041.37
491.59	28725.39
491.77	29350.32
491.95	29184.14
492.13	29593.73
492.30	30115.67
492.48	29858.21
492.66	30190.57
492.84	30225.68
493.01	30644.63
493.19	30883.37
493.37	30911.46
493.54	31019.12
493.72	31309.35
493.90	30848.26
494.08	31534.04
494.25	31840.65
494.43	32177.68
494.61	32357.91
494.79	32121.51
494.96	32437.48
495.14	32257.26
495.32	33322.21
495.49	33022.62
495.67	33251.99
495.85	33406.47
496.02	33605.41
496.20	34103.95
496.38	34003.30
496.55	34237.36
496.73	34852.92
496.91	34700.78
497.09	34625.89
497.26	34707.80
497.44	34801.43
497.62	35161.87
497.79	35503.59
497.97	35309.32
498.14	35838.28
498.32	35676.79
498.50	36147.23
498.67	36400.01
498.85	36306.39
499.03	36514.70
499.20	36697.26
499.38	36477.25
499.56	36856.42
499.73	36781.52
499.91	37137.28
500.08	37399.42
500.26	36720.66
500.44	37722.41
500.61	37544.53
500.79	37603.05
500.97	38548.62
501.14	38457.34
501.32	38066.47
501.49	38272.44
501.67	38632.88
501.84	38181.16
502.02	38639.90
502.20	39157.16
502.37	38841.19
502.55	39068.22
502.72	39405.26
502.90	39491.86
503.07	39398.24
503.25	39810.17
503.43	39438.03
503.60	39805.49
503.78	40332.11
503.95	40191.68
504.13	39966.99
504.30	40554.46
504.48	40353.18
504.65	40179.98
504.83	40800.22
505.01	41535.15
505.18	41258.96
505.36	41085.76
505.53	41242.58
505.71	41476.63
505.88	41418.12
506.06	41364.29
506.23	41755.16
506.41	41785.58
506.58	42155.39
506.76	42017.30
506.93	42092.19
507.11	42279.44
507.28	42752.23
507.46	42494.77
507.63	42740.52
507.81	42904.36
507.98	42614.13
508.16	43063.52
508.33	43227.35
508.50	43332.68
508.68	43325.66
508.85	43580.78
509.03	43606.52
509.20	44161.23
509.38	44556.78
509.55	43957.60
509.73	44329.75
509.90	44091.01
510.08	44474.86
510.25	44636.36
510.42	44271.23
510.60	44573.16
510.77	45261.28
510.95	45064.67
511.12	44912.54
511.30	44683.17
511.47	45184.04
511.64	45277.66
511.82	45645.13
511.99	45469.59
512.17	45837.05
512.34	45834.71
512.51	46204.52
512.69	46366.01
512.86	46138.98
513.04	46494.74
513.21	46501.76
513.38	46199.83
513.56	46969.87
513.73	46389.42
513.90	47089.24
514.08	46476.02
514.25	47255.42
514.43	47145.41
514.60	47196.90
514.77	47484.79
514.95	47896.72
515.12	47552.66
515.29	47332.65
515.47	47597.13
515.64	47824.17
515.81	47723.52
515.99	47920.13
516.16	48238.44
516.33	48477.18
516.51	48467.81
516.68	48121.41
516.85	48540.37
517.03	48633.99
517.20	48631.65
517.37	48664.42
517.54	48486.54
517.72	48715.91
517.89	48776.76
518.06	48975.71
518.24	49134.87
518.41	49048.27
518.58	49406.37
518.75	49216.78
518.93	49041.24
519.10	49167.63
519.27	49581.91
519.45	49492.97
519.62	49783.19
519.79	49478.92
519.96	49806.60
520.14	50066.40
520.31	49956.39
520.48	50183.43
520.65	50080.44
520.83	50452.59
521.00	50536.85
521.17	50174.06
521.34	50454.93
521.52	50658.56
521.69	50911.33
521.86	50700.68
522.03	50899.63
522.20	51049.42
522.38	51587.75
522.55	51075.17
522.72	51384.12
522.89	51070.49
523.07	51206.24
523.24	51248.37
523.41	51702.43
523.58	51386.46
523.75	51473.06
523.92	51697.75
524.10	51510.51
524.27	51924.78
524.44	51702.43
524.61	51999.68
524.78	52058.20
524.96	51950.53
525.13	52215.01
525.30	52346.08
525.47	52247.78
525.64	52458.43
525.81	52615.24
525.98	52715.89
526.16	52273.52
526.33	52519.28
526.50	52711.20
526.67	52692.48
526.84	52687.80
527.01	52933.56
527.18	52713.55
527.36	52861.00
527.53	52900.79
527.70	53279.96
527.87	53357.19
528.04	53066.97
528.21	53340.81
528.38	53396.98
528.55	53308.04
528.72	53081.01
528.89	53432.09
529.07	53237.83
529.24	53577.20
529.41	53411.02
529.58	53492.94
529.75	53626.35
529.92	53574.86
530.09	53577.20
530.26	53911.90
530.43	54005.52
530.60	53778.49
530.77	53661.46
530.94	54005.52
531.11	53939.99
531.28	54078.08
531.46	54012.54
531.63	54595.34
531.80	54010.20
531.97	53832.32
532.14	54209.15
532.31	54314.47
532.48	54410.43
532.65	54548.53
532.82	54375.33
532.99	54623.42
533.16	54337.88
533.33	54791.94
533.50	54698.32
533.67	54590.66
533.84	54487.67
534.01	54691.30
534.18	54827.05
534.35	55178.13
534.52	55075.15
534.69	55079.83
534.86	55213.24
535.03	54923.01
535.20	55154.72
535.37	55346.65
535.54	55241.32
535.71	54976.84
535.88	55114.94
536.05	55330.26
536.22	55604.11
536.38	55587.72
536.55	55615.81
536.72	55524.53
536.89	55246.00
537.06	55620.49
537.23	55512.83
537.40	55576.02
537.57	55674.32
537.74	55796.03
537.91	55847.52
538.08	55894.33
538.25	55554.96
538.42	55737.52
538.59	56179.88
538.75	55835.82
538.92	55990.30
539.09	56210.31
539.26	56023.06
539.43	55992.64
539.60	56053.49
539.77	56184.56
539.94	56432.66
540.11	56229.03
540.28	56472.45
540.44	56320.31
540.61	56156.47
540.78	56236.05
540.95	56278.18
541.12	56425.64
541.29	56313.29
541.46	56502.87
541.62	56601.18
541.79	56636.28
541.96	56233.71
542.13	56446.70
542.30	56491.17
542.47	56652.67
542.63	56802.46
542.80	56879.70
542.97	57031.83
543.14	57123.11
543.31	57118.43
543.48	56877.36
543.64	57495.26
543.81	57319.72
543.98	57331.42
544.15	57237.80
544.32	57324.40
544.48	57382.91
544.65	57352.49
544.82	57286.95
544.99	57139.50
545.16	57677.82
545.32	57193.33
545.49	57567.82
545.66	57689.52
545.83	57331.42
546.00	57521.01
546.16	57336.10
546.33	57443.77
546.50	57588.88
546.67	57586.54
546.83	57429.72
547.00	57755.06
547.17	57574.84
547.34	57762.08
547.50	57799.53
547.67	57909.53
547.84	57827.62
548.00	57956.35
548.17	58049.97
548.34	58024.22
548.51	58094.44
548.67	57893.15
548.84	58052.31
549.01	58054.65
549.18	57996.13
549.34	57921.24
549.51	58274.66
549.68	58323.81
549.84	58202.10
550.01	58113.16
550.18	58042.95
550.34	58382.32
550.51	58478.28
550.68	58099.12
550.84	58129.54
551.01	58342.53
551.18	58248.91
551.34	58239.55
551.51	58422.11
551.68	58515.73
551.84	58670.21
552.01	58096.78
552.18	58394.03
552.34	58368.28
552.51	58604.67
552.68	58370.62
552.84	58651.48
553.01	58941.71
553.18	58511.05
553.34	58925.33
553.51	58529.78
553.67	58946.39
553.84	58880.86
554.01	58958.09
554.17	59124.27
554.34	58775.53
554.51	58777.87
554.67	58864.47
554.84	58960.44
555.00	58749.79
555.17	58688.93
555.33	59028.31
555.50	58571.91
555.67	58925.33
555.83	58873.84
556.00	59028.31
556.16	59248.32
556.33	59290.45
556.50	59009.59
556.66	59299.81
556.83	59112.57
556.99	59388.75
557.16	59292.79
557.32	59330.24
557.49	59295.13
557.65	59215.55
557.82	59351.30
557.98	59332.58
558.15	59161.72
558.32	59533.87
558.48	59323.22
558.65	59451.95
558.81	59475.35
558.98	59405.14
559.14	59489.40
559.31	59634.51
559.47	59447.27
559.64	59554.93
559.80	59423.86
559.97	59643.87
560.13	59618.13
560.30	59468.33
560.46	59695.36
560.63	59739.83
560.79	59622.81
560.96	59690.68
561.12	59615.79
561.29	59781.96
561.45	59634.51
561.61	59702.38
561.78	59618.13
561.94	59700.04
562.11	59725.79
562.27	59913.03
562.44	59798.35
562.60	59910.69
562.77	59700.04
562.93	59744.51
563.10	60104.96
563.26	59723.45
563.42	60100.28
563.59	59873.24
563.75	59810.05
563.92	59898.99
564.08	59906.01
564.24	60102.62
564.41	59948.14
564.57	60119.00
564.74	59952.82
564.90	60079.21
565.07	60020.70
565.23	59983.25
565.39	60023.04
565.56	60081.55
565.72	60196.24
565.88	60023.04
566.05	60076.87
566.21	60041.76
566.38	60041.76
566.54	60191.56
566.70	60058.15
566.87	60214.96
567.03	60001.97
567.19	60350.71
567.36	60186.88
567.52	60128.36
567.68	60451.36
567.85	60140.07
568.01	60369.44
568.17	60149.43
568.34	60275.82
568.50	60411.57
568.66	60285.18
568.83	60301.56
568.99	60219.64
569.15	60341.35
569.32	60196.24
569.48	60086.23
569.64	60357.74
569.81	60341.35
569.97	60165.81
570.13	60334.33
570.30	60210.28
570.46	60331.99
570.62	60207.94
570.78	60133.04
570.95	60303.90
571.11	60395.18
571.27	60329.65
571.43	60423.27
571.60	60423.27
571.76	60399.86
571.92	60619.88
572.09	60350.71
572.25	60453.70
572.41	60629.24
572.57	60357.74
572.74	60587.11
572.90	60495.83
573.06	60317.95
573.22	60500.51
573.38	60697.11
573.55	60769.67
573.71	60540.30
573.87	60542.64
574.03	60521.57
574.20	60626.90
574.36	60502.85
574.52	60786.05
574.68	60596.47
574.84	60739.24
575.01	60722.86
575.17	60704.13
575.33	60547.32
575.49	60552.00
575.65	60605.83
575.82	60722.86
575.98	60823.50
576.14	60856.27
576.30	60828.18
576.46	60612.85
576.62	60500.51
576.79	60603.49
576.95	60519.23
577.11	60633.92
577.27	60809.46
577.43	60631.58
577.59	60699.45
577.75	60463.06
577.92	60411.57
578.08	60692.43
578.24	60587.11
578.40	60966.27
578.56	60790.73
578.72	60774.35
578.88	60952.23
579.04	61212.03
579.21	60865.63
579.37	60711.16
579.53	60961.59
579.69	60413.91
579.85	60715.84
580.01	60580.09
580.17	60594.13
580.33	60708.82
580.49	60755.63
580.65	61109.05
580.82	60919.46
580.98	60643.28
581.14	60692.43
581.30	61083.30
581.46	60917.12
581.62	60797.76
581.78	60610.51
581.94	60849.25
582.10	60870.31
582.26	60650.30
582.42	60893.72
582.58	60858.61
582.74	60725.20
582.90	60659.66
583.06	60884.36
583.22	60767.33
583.38	60809.46
583.54	60772.01
583.70	60867.97
583.86	60823.50
584.02	60807.12
584.18	60835.20
584.34	60727.54
584.50	60776.69
584.66	60865.63
584.82	60509.87
584.98	60994.36
585.14	60980.32
585.30	60947.55
585.46	60914.78
585.62	60926.49
585.78	61027.13
585.94	60797.76
586.10	60924.14
586.26	60924.14
586.42	61034.15
586.58	61008.40
586.74	61013.08
586.90	60921.80
587.06	60884.36
587.22	60809.46
587.38	60886.70
587.54	60996.70
587.70	61228.41
587.86	61130.11
588.02	60919.46
588.18	61064.58
588.34	60926.49
