SpectraSuite Data File
++++++++++++++++++++++++++++++++++++
Date: Fri Oct 25 11:23:19 EDT 2013
User: price-jones
Dark Spectrum Present: No
Reference Spectrum Present: No
Number of Sampled Component Spectra: 1
Spectrometers: USB2+H05261
Integration Time (usec): 100000 (USB2+H05261)
Spectra Averaged: 1 (USB2+H05261)
Boxcar Smoothing: 0 (USB2+H05261)
Correct for Electrical Dark: No (USB2+H05261)
Strobe/Lamp Enabled: No (USB2+H05261)
Correct for Detector Non-linearity: No (USB2+H05261)
Correct for Stray Light: No (USB2+H05261)
Number of Pixels in Processed Spectrum: 2048
>>>>>Begin Processed Spectral Data<<<<<
365.73	234.05
365.92	234.05
366.12	234.05
366.32	107.66
366.52	102.98
366.72	98.30
366.91	198.95
367.11	102.98
367.31	161.50
367.51	119.37
367.70	166.18
367.90	212.99
368.10	126.39
368.30	110.01
368.49	79.58
368.69	133.41
368.89	140.43
369.09	138.09
369.28	203.63
369.48	124.05
369.68	212.99
369.87	173.20
370.07	231.71
370.27	255.12
370.47	348.74
370.66	491.51
370.86	631.94
371.06	578.11
371.25	617.90
371.45	620.24
371.65	662.37
371.84	638.97
372.04	627.26
372.24	702.16
372.44	770.04
372.63	746.63
372.83	772.38
373.03	727.91
373.22	720.88
373.42	739.61
373.62	833.23
373.81	823.87
374.01	793.44
374.21	774.72
374.40	844.93
374.60	870.68
374.79	870.68
374.99	821.53
375.19	723.23
375.38	802.80
375.58	840.25
375.78	835.57
375.97	917.49
376.17	884.72
376.37	915.15
376.56	901.11
376.76	800.46
376.95	924.51
377.15	896.43
377.35	873.02
377.54	964.30
377.74	903.45
377.93	994.73
378.13	952.60
378.33	950.26
378.52	961.96
378.72	1032.18
378.91	936.21
379.11	999.41
379.31	973.66
379.50	940.90
379.70	915.15
379.89	987.71
380.09	947.92
380.28	990.05
380.48	1043.88
380.68	1011.11
380.87	987.71
381.07	1043.88
381.26	1050.90
381.46	1006.43
381.65	983.02
381.85	1107.07
382.04	1060.26
382.24	961.96
382.43	997.07
382.63	994.73
382.83	1032.18
383.02	1118.78
383.22	1109.41
383.41	1100.05
383.61	1062.60
383.80	1107.07
384.00	1205.38
384.19	1146.86
384.39	1270.91
384.58	1200.69
384.78	1149.20
384.97	1186.65
385.17	1156.22
385.36	1172.61
385.56	1158.57
385.75	1160.91
385.95	1221.76
386.14	1221.76
386.34	1226.44
386.53	1291.98
386.72	1137.50
386.92	1198.35
387.11	1231.12
387.31	1240.48
387.50	1205.38
387.70	1268.57
387.89	1270.91
388.09	1341.13
388.28	1289.64
388.48	1348.15
388.67	1425.39
388.86	1418.36
389.06	1308.36
389.25	1315.38
389.45	1430.07
389.64	1331.76
389.84	1366.87
390.03	1364.53
390.22	1352.83
390.42	1369.21
390.61	1479.22
390.81	1364.53
391.00	1418.36
391.19	1387.94
391.39	1383.26
391.58	1472.20
391.78	1394.96
391.97	1434.75
392.16	1488.58
392.36	1483.90
392.55	1511.99
392.75	1523.69
392.94	1500.28
393.13	1519.01
393.33	1500.28
393.52	1614.97
393.71	1659.44
393.91	1636.03
394.10	1652.42
394.29	1680.50
394.49	1598.59
394.68	1727.32
394.88	1720.29
395.07	1734.34
395.26	1724.97
395.46	1675.82
395.65	1774.13
395.84	1820.94
396.04	1778.81
396.23	1827.96
396.42	1825.62
396.62	1668.80
396.81	1792.85
397.00	1909.88
397.19	1750.72
397.39	1818.60
397.58	1764.76
397.77	1816.26
397.97	1940.30
398.16	1870.09
398.35	1781.15
398.55	1923.92
398.74	1916.90
398.93	1996.48
399.12	1902.86
399.32	1926.26
399.51	1944.99
399.70	2078.40
399.90	1956.69
400.09	2052.65
400.28	2064.35
400.47	2073.71
400.67	2172.02
400.86	2134.57
401.05	2076.06
401.24	2113.50
401.44	2172.02
401.63	2157.97
401.82	2090.10
402.01	2153.29
402.21	2193.08
402.40	2300.75
402.59	2204.78
402.78	2244.57
402.97	2270.32
403.17	2232.87
403.36	2303.09
403.55	2221.17
403.74	2352.24
403.93	2396.71
404.13	2305.43
404.32	2232.87
404.51	2377.98
404.70	2457.56
404.89	2305.43
405.09	2506.71
405.28	2502.03
405.47	2436.50
405.66	2462.24
405.85	2527.78
406.05	2520.76
406.24	2520.76
406.43	2600.34
406.62	2628.42
406.81	2689.28
407.00	2544.16
407.20	2658.85
407.39	2670.55
407.58	2752.47
407.77	2761.83
407.96	2888.22
408.15	2998.23
408.34	2827.37
408.54	2850.77
408.73	2782.90
408.92	2855.45
409.11	2925.67
409.30	2881.20
409.49	2878.86
409.68	2892.90
409.87	3007.59
410.07	2892.90
410.26	3035.67
410.45	3068.44
410.64	3045.04
410.83	3129.30
411.02	3138.66
411.21	3290.79
411.40	3105.89
411.59	3258.03
411.78	3265.05
411.98	3251.00
412.17	3281.43
412.36	3145.68
412.55	3309.52
412.74	3372.71
412.93	3339.94
413.12	3253.34
413.31	3721.45
413.50	3454.63
413.69	3536.55
413.88	3686.34
414.07	3698.05
414.26	3693.37
414.45	3758.90
414.64	3754.22
414.83	3749.54
415.02	3824.44
415.22	3805.71
415.41	4002.32
415.60	3840.82
415.79	3925.08
415.98	3927.42
416.17	3885.29
416.36	4025.72
416.55	4051.47
416.74	4091.26
416.93	4166.15
417.12	4053.81
417.31	4283.18
417.50	4306.59
417.69	4482.13
417.88	4290.20
418.07	4327.65
418.26	4315.95
418.45	4503.19
418.64	4435.32
418.83	4414.25
419.02	4409.57
419.21	4638.94
419.39	4514.89
419.58	4491.49
419.77	4418.93
419.96	4599.15
420.15	4873.00
420.34	4685.75
420.53	4706.82
420.72	4636.60
420.91	4695.11
421.10	4751.29
421.29	4896.40
421.48	4631.92
421.67	4903.42
421.86	4709.16
422.05	5015.77
422.24	4814.48
422.43	4858.95
422.61	4919.81
422.80	5083.64
422.99	4807.46
423.18	4968.96
423.37	5095.35
423.56	5004.07
423.75	4952.57
423.94	4997.04
424.13	4657.67
424.32	4779.37
424.50	4947.89
424.69	5081.30
424.88	5238.12
425.07	5048.54
425.26	5048.54
425.45	5011.09
425.64	4966.62
425.83	5048.54
426.01	5013.43
426.20	5043.85
426.39	5231.10
426.58	5097.69
426.77	5142.16
426.96	5191.31
427.15	5207.69
427.33	5273.23
427.52	5313.02
427.71	5404.30
427.90	5146.84
428.09	5291.95
428.28	5568.13
428.46	5313.02
428.65	5331.74
428.84	5420.68
429.03	5572.82
429.22	5507.28
429.40	5486.22
429.59	5518.98
429.78	5504.94
429.97	5406.64
430.16	5631.33
430.34	5666.44
430.53	5680.48
430.72	5893.47
430.91	5640.69
431.10	5671.12
431.28	5891.13
431.47	5947.30
431.66	5853.68
431.85	5783.46
432.03	5867.72
432.22	5994.11
432.41	5874.74
432.60	6010.50
432.79	6015.18
432.97	5928.58
433.16	6005.81
433.35	6155.61
433.54	6136.88
433.72	6164.97
433.91	6200.08
434.10	6225.82
434.28	6139.23
434.47	6190.72
434.66	6410.73
434.85	6314.77
435.03	6239.87
435.22	6370.94
435.41	6544.14
435.59	6389.66
435.78	6621.38
435.97	6567.54
436.16	6562.86
436.34	6349.87
436.53	6499.67
436.72	6717.34
436.90	6619.04
437.09	6715.00
437.28	6532.44
437.46	6665.85
437.65	6609.67
437.84	6935.01
438.02	6771.17
438.21	7042.67
438.40	6750.10
438.58	6972.46
438.77	7080.12
438.96	7096.50
439.14	7241.62
439.33	7239.28
439.52	7346.94
439.70	7016.93
439.89	7253.32
440.08	7391.41
440.26	7485.03
440.45	7470.99
440.63	7581.00
440.82	7644.19
441.01	7571.63
441.19	7639.51
441.38	7768.24
441.57	7911.01
441.75	7950.80
441.94	7962.50
442.12	8025.70
442.31	7964.84
442.50	8147.40
442.68	8032.72
442.87	8203.58
443.05	7929.74
443.24	8255.07
443.43	8205.92
443.61	8299.54
443.80	8332.31
443.98	8241.03
444.17	7868.88
444.35	8484.44
444.54	8339.33
444.73	8484.44
444.91	8535.93
445.10	8358.05
445.28	8596.79
445.47	8477.42
445.65	8496.14
445.84	8709.13
446.02	8659.98
446.21	8449.33
446.39	8463.38
446.58	8659.98
446.77	8592.11
446.95	8510.19
447.14	8678.71
447.32	8821.48
447.51	8514.87
447.69	8596.79
447.88	8744.24
448.06	8699.77
448.25	8643.60
448.43	8753.60
448.62	8788.71
448.80	8727.86
448.99	9001.70
449.17	8894.04
449.36	8622.53
449.54	8992.34
449.73	9167.88
449.91	9064.89
450.10	9053.19
450.28	9064.89
450.46	9188.94
450.65	9025.11
450.83	9085.96
451.02	9095.32
451.20	9469.81
451.39	9305.97
451.57	9195.96
451.76	9057.87
451.94	9156.18
452.13	9404.27
452.31	9191.28
452.49	9263.84
452.68	9453.42
452.86	9296.61
453.05	9708.54
453.23	9771.74
453.42	9493.21
453.60	9404.27
453.78	9596.20
453.97	9584.49
454.15	9518.96
454.34	9834.93
454.52	9858.34
454.70	9703.86
454.89	9783.44
455.07	9699.18
455.26	9886.42
455.44	10073.67
455.62	10052.60
455.81	9902.81
455.99	10289.00
456.17	10108.77
456.36	10136.86
456.54	10129.84
456.73	10450.49
456.91	10473.90
457.09	10684.55
457.28	10614.33
457.46	10335.81
457.64	10670.50
457.83	10799.23
458.01	10602.63
458.19	10862.43
458.38	10761.78
458.56	10834.34
458.74	11042.65
458.93	10942.00
459.11	10766.46
459.29	10813.28
459.48	11014.56
459.66	10775.83
459.84	11084.78
460.03	11091.80
460.21	11126.91
460.39	11000.52
460.57	11138.61
460.76	11346.92
460.94	11311.81
461.12	11400.75
461.31	11386.71
461.49	11475.65
461.67	11187.76
461.85	11398.41
462.04	11332.87
462.22	11564.59
462.40	11782.26
462.59	11585.65
462.77	11770.55
462.95	11812.68
463.13	11555.22
463.32	11983.54
463.50	11997.59
463.68	11852.47
463.86	11896.94
464.05	11854.81
464.23	11683.95
464.41	11985.88
464.59	11936.73
464.78	12241.00
464.96	12241.00
465.14	12264.41
465.32	12395.48
465.50	12135.68
465.69	12348.67
465.87	12198.87
466.05	12198.87
466.23	12299.52
466.41	12573.36
466.60	12638.89
466.78	12189.51
466.96	12266.75
467.14	12276.11
467.32	12339.30
467.51	12648.26
467.69	12505.48
467.87	12528.89
468.05	12751.24
468.23	12603.78
468.41	12400.16
468.60	12711.45
468.78	12922.10
468.96	12884.65
469.14	12980.61
469.32	13114.02
469.50	12945.50
469.69	13301.26
469.87	13310.63
470.05	13348.08
470.23	13336.37
470.41	13146.79
470.59	13380.84
470.77	13209.98
470.95	13619.58
471.14	13757.67
471.32	13312.97
471.50	13556.38
471.68	13575.11
471.86	14040.87
472.04	13834.91
472.22	14403.66
472.40	13797.46
472.58	13884.06
472.77	14162.58
472.95	14455.15
473.13	14626.01
473.31	14270.25
473.49	14487.92
473.67	14286.63
473.85	14817.93
474.03	14698.56
474.21	14829.63
474.39	14836.66
474.57	14839.00
474.75	15047.30
474.93	15140.93
475.12	15084.75
475.30	15396.04
475.48	15262.63
475.66	15510.73
475.84	15393.70
476.02	15634.78
476.20	15365.62
476.38	16002.24
476.56	16154.38
476.74	16360.34
476.92	16133.31
477.10	16177.78
477.28	16126.29
477.46	16533.54
477.64	16655.25
477.82	16617.80
478.00	16989.95
478.18	16706.74
478.36	17238.05
478.54	17479.12
478.72	17359.75
478.90	17813.82
479.08	17841.90
479.26	17930.84
479.44	17907.44
479.62	18031.49
479.80	18012.76
479.98	18429.38
480.16	18883.44
480.34	18768.76
480.52	18967.70
480.70	18965.36
480.88	18633.00
481.06	18970.04
481.24	19183.03
481.41	19283.67
481.59	19484.96
481.77	19882.85
481.95	19843.06
482.13	20056.05
482.31	20067.75
482.49	20535.86
482.67	20381.38
482.85	20465.64
483.03	20741.83
483.21	20936.09
483.39	21359.73
483.57	21160.78
483.74	21055.46
483.92	21338.66
484.10	21741.24
484.28	22228.07
484.46	22272.54
484.64	22679.79
484.82	22586.17
485.00	22799.16
485.18	23033.21
485.35	23531.75
485.53	23204.07
485.71	23384.29
485.89	23929.64
486.07	23529.41
486.25	23641.75
486.43	24156.67
486.61	24074.75
486.78	24252.63
486.96	24077.09
487.14	24833.08
487.32	24725.42
487.50	24945.43
487.68	25303.53
487.85	25507.16
488.03	25708.44
488.21	26120.38
488.39	26403.58
488.57	26614.23
488.75	26403.58
488.92	26808.50
489.10	27005.10
489.28	27094.04
489.46	27468.53
489.64	27440.44
489.81	28046.64
489.99	27779.82
490.17	28063.02
490.35	28460.91
490.53	28409.42
490.70	29144.35
490.88	28360.27
491.06	29069.45
491.24	29078.82
491.41	29429.90
491.59	29631.18
491.77	29619.48
491.95	29881.62
492.13	30340.36
492.30	30333.34
492.48	30221.00
492.66	31197.00
492.84	30586.12
493.01	31180.62
493.19	31180.62
493.37	31580.85
493.54	31576.17
493.72	31927.25
493.90	31875.76
494.08	32048.96
494.25	32439.82
494.43	32224.50
494.61	32568.55
494.79	32779.20
494.96	32889.21
495.14	33174.75
495.32	33364.34
495.49	33504.77
495.67	33605.41
495.85	33867.55
496.02	34375.45
496.20	34401.19
496.38	34096.92
496.55	34389.49
496.73	35199.32
496.91	34628.23
497.09	35096.33
497.26	35061.22
497.44	35281.24
497.62	35576.14
497.79	35917.86
497.97	36404.69
498.14	36353.20
498.32	36701.94
498.50	36662.15
498.67	36987.49
498.85	36753.43
499.03	37156.00
499.20	37235.58
499.38	37574.96
499.56	37434.53
499.73	37572.62
499.91	38029.02
500.08	37993.92
500.26	38040.73
500.44	38120.31
500.61	38466.70
500.79	38010.30
500.97	38550.96
501.14	38799.06
501.32	39070.56
501.49	38756.93
501.67	38939.49
501.84	39206.31
502.02	39299.94
502.20	39646.33
502.37	39522.29
502.55	39859.32
502.72	39957.63
502.90	40137.85
503.07	39770.38
503.25	40130.83
503.43	40116.78
503.60	40458.50
503.78	40928.95
503.95	40615.32
504.13	41165.34
504.30	41322.16
504.48	40570.85
504.65	41628.77
504.83	41350.24
505.01	41921.34
505.18	41661.54
505.36	41645.15
505.53	41509.40
505.71	41963.46
505.88	42356.67
506.06	42265.39
506.23	42784.99
506.41	42354.33
506.58	42934.79
506.76	42658.60
506.93	42852.87
507.11	42904.36
507.28	42817.76
507.46	42780.31
507.63	43140.75
507.81	43625.25
507.98	43690.78
508.16	43494.18
508.33	43908.45
508.50	43828.87
508.68	43966.96
508.85	44226.76
509.03	44287.62
509.20	44322.72
509.38	44907.86
509.55	44957.01
509.73	45226.17
509.90	45125.53
510.08	45310.43
510.25	44877.43
510.42	45064.67
510.60	45118.51
510.77	45689.60
510.95	45530.44
511.12	45574.91
511.30	45661.51
511.47	46218.56
511.64	45862.80
511.82	46478.36
511.99	45865.14
512.17	46106.21
512.34	46440.91
512.51	46571.98
512.69	46391.76
512.86	47040.09
513.04	47384.15
513.21	47079.88
513.38	47063.49
513.56	47508.19
513.73	47241.37
513.90	47290.52
514.08	47796.08
514.25	47842.89
514.43	48048.86
514.60	47753.95
514.77	47971.62
514.95	47934.17
515.12	48168.22
515.29	48025.45
515.47	48488.88
515.64	48727.61
515.81	48591.86
515.99	48619.95
516.16	48739.32
516.33	48708.89
516.51	49010.82
516.68	49162.95
516.85	49130.19
517.03	49394.67
517.20	49420.41
517.37	49406.37
517.54	49556.16
517.72	49420.41
517.89	49507.01
518.06	49874.48
518.24	49397.01
518.41	49549.14
518.58	49745.75
518.75	49649.78
518.93	50169.38
519.10	50026.61
519.27	50255.98
519.45	50497.06
519.62	50574.30
519.79	50260.66
519.96	50590.68
520.14	50438.54
520.31	50637.49
520.48	50852.82
520.65	50908.99
520.83	51037.72
521.00	51033.04
521.17	50923.04
521.34	51002.61
521.52	51164.11
521.69	51313.90
521.86	51327.95
522.03	51437.95
522.20	51779.67
522.38	51924.78
522.55	52011.38
522.72	51613.49
522.89	51793.71
523.07	52133.09
523.24	52175.22
523.41	52086.28
523.58	51899.04
523.75	52458.43
523.92	52280.55
524.10	52484.17
524.27	52296.93
524.44	52346.08
524.61	52432.68
524.78	52418.64
524.96	52619.92
525.13	52549.71
525.30	52954.62
525.47	52858.66
525.64	52861.00
525.81	53137.18
525.98	52802.49
526.16	53003.77
526.33	53099.73
526.50	53354.85
526.67	53188.67
526.84	53340.81
527.01	53261.23
527.18	53317.40
527.36	53116.12
527.53	53607.63
527.70	53883.81
527.87	53563.16
528.04	53476.56
528.21	53511.67
528.38	53729.34
528.55	53932.96
528.72	53586.57
528.89	53701.25
529.07	53848.71
529.24	53848.71
529.41	54265.32
529.58	53982.12
529.75	54099.14
529.92	54019.56
530.09	54068.72
530.26	54344.90
530.43	54405.75
530.60	54124.89
530.77	54284.04
530.94	54621.08
531.11	54342.56
531.28	54337.88
531.46	54529.80
531.63	54588.31
531.80	54646.83
531.97	54653.85
532.14	54869.18
532.31	54953.44
532.48	55114.94
532.65	54791.94
532.82	54656.19
532.99	55037.70
533.16	55011.95
533.33	54925.35
533.50	55344.31
533.67	55131.32
533.84	55044.72
534.01	55367.71
534.18	55175.79
534.35	55365.37
534.52	55292.82
534.69	55608.79
534.86	55592.40
535.03	55505.80
535.20	55529.21
535.37	55444.95
535.54	55810.07
535.71	55707.09
535.88	55756.24
536.05	55920.08
536.22	55817.10
536.38	55943.48
536.55	55859.23
536.72	55882.63
536.89	55838.16
537.06	55950.51
537.23	56273.50
537.40	55653.26
537.57	55875.61
537.74	56196.26
537.91	56392.87
538.08	56189.24
538.25	55987.95
538.42	56219.67
538.59	56474.79
538.75	56217.33
538.92	56261.80
539.09	56437.34
539.26	56442.02
539.43	56439.68
539.60	56619.90
539.77	56608.20
539.94	56865.66
540.11	56711.18
540.28	56753.31
540.44	56549.68
540.61	56704.16
540.78	56772.03
540.95	56945.23
541.12	56671.39
541.29	56622.24
541.46	56788.42
541.62	56893.74
541.79	57092.69
541.96	56650.33
542.13	56788.42
542.30	57020.13
542.47	57052.90
542.63	57116.09
542.80	57106.73
542.97	57432.07
543.14	57345.47
543.31	57286.95
543.48	57612.29
543.64	57567.82
543.81	57818.25
543.98	57570.16
544.15	57483.56
544.32	57780.81
544.48	57965.71
544.65	57738.68
544.82	57839.32
544.99	57570.16
545.16	57874.43
545.32	57504.62
545.49	57811.23
545.66	58059.33
545.83	57961.03
546.00	58101.46
546.16	57879.11
546.33	57914.22
546.50	57748.04
546.67	58005.50
546.83	57729.31
547.00	58265.30
547.17	57726.97
547.34	58176.36
547.50	58368.28
547.67	58513.39
547.84	58150.61
548.00	58452.54
548.17	58527.44
548.34	58532.12
548.51	58501.69
548.67	58403.39
548.84	58564.88
549.01	58464.24
549.18	58401.05
549.34	58482.97
549.51	58368.28
549.68	58707.66
549.84	58548.50
550.01	58740.42
550.18	58688.93
550.34	58773.19
550.51	58915.96
550.68	58766.17
550.84	58693.61
551.01	58808.30
551.18	58822.34
551.34	58768.51
551.51	58953.41
551.68	58944.05
551.84	58674.89
552.01	58934.69
552.18	58782.55
552.34	58850.43
552.51	58983.84
552.68	58773.19
552.84	58897.24
553.01	59409.82
553.18	59213.21
553.34	59159.38
553.51	59056.40
553.67	59203.85
553.84	59185.13
554.01	59395.77
554.17	59213.21
554.34	59257.68
554.51	59395.77
554.67	59051.72
554.84	59309.18
555.00	59274.07
555.17	59250.66
555.33	59217.89
555.50	59334.92
555.67	59327.90
555.83	59341.94
556.00	59435.56
556.16	59664.94
556.33	59604.08
556.50	59430.88
556.66	59615.79
556.83	59531.53
556.99	59730.47
557.16	59770.26
557.32	59898.99
557.49	59718.77
557.65	59611.10
557.82	59597.06
557.98	59910.69
558.15	59728.13
558.32	59667.28
558.48	59639.19
558.65	59866.22
558.81	59817.07
558.98	59882.61
559.14	60074.53
559.31	59980.91
559.47	60142.41
559.64	60116.66
559.80	59777.28
559.97	59917.71
560.13	59805.37
560.30	59915.37
560.46	60175.17
560.63	60034.74
560.79	60189.22
560.96	60016.02
561.12	60053.47
561.29	60060.49
561.45	60355.39
561.61	60175.17
561.78	59929.42
561.94	60128.36
562.11	60205.60
562.27	60119.00
562.44	60170.49
562.60	60245.39
562.77	60322.63
562.93	59875.58
563.10	60556.68
563.26	60072.19
563.42	60566.04
563.59	60409.23
563.75	60336.67
563.92	60528.59
564.08	60104.96
564.24	60423.27
564.41	60542.64
564.57	60378.80
564.74	60331.99
564.90	60523.91
565.07	60378.80
565.23	60456.04
565.39	60364.76
565.56	60491.15
565.72	60411.57
565.88	60481.78
566.05	60299.22
566.21	60554.34
566.38	60584.77
566.54	60561.36
566.70	60643.28
566.87	60687.75
567.03	60254.75
567.19	60669.03
567.36	60594.13
567.52	60376.46
567.68	60872.65
567.85	60582.43
568.01	60654.98
568.17	60479.44
568.34	60589.45
568.50	60617.53
568.66	60706.47
568.83	60603.49
568.99	60652.64
569.15	60650.30
569.32	60523.91
569.48	60612.85
569.64	60640.94
569.81	60633.92
569.97	60481.78
570.13	60701.79
570.30	60444.33
570.46	60767.33
570.62	60790.73
570.78	60554.34
570.95	60767.33
571.11	60949.89
571.27	60828.18
571.43	60851.59
571.60	60926.49
571.76	60917.12
571.92	61069.26
572.09	60992.02
572.25	60860.95
572.41	60713.50
572.57	60975.64
572.74	60982.66
572.90	60734.56
573.06	60940.53
573.22	61013.08
573.38	60849.25
573.55	60947.55
573.71	61020.11
573.87	60837.54
574.03	60757.97
574.20	60779.03
574.36	60935.85
574.52	61022.45
574.68	61057.56
574.84	61106.71
575.01	61017.77
575.17	60804.78
575.33	61109.05
575.49	60692.43
575.65	61043.51
575.82	61008.40
575.98	61078.62
576.14	61085.64
576.30	60980.32
576.46	60985.00
576.62	60919.46
576.79	60982.66
576.95	60853.93
577.11	61165.22
577.27	61116.07
577.43	60982.66
577.59	60954.57
577.75	60952.23
577.92	61104.37
578.08	61080.96
578.24	61038.83
578.40	61158.20
578.56	61279.91
578.72	61202.67
578.88	61216.71
579.04	61174.58
579.21	61275.22
579.37	61169.90
579.53	61275.22
579.69	60846.91
579.85	61076.28
580.01	61059.90
580.17	61052.87
580.33	61338.42
580.49	61265.86
580.65	61186.28
580.82	61015.43
580.98	61001.38
581.14	61034.15
581.30	61200.33
581.46	61202.67
581.62	61158.20
581.78	61251.82
581.94	61151.18
582.10	61289.27
582.26	61111.39
582.42	61205.01
582.58	61188.63
582.74	61408.64
582.90	61097.34
583.06	61043.51
583.22	61167.56
583.38	61221.39
583.54	61378.21
583.70	61193.31
583.86	61233.10
584.02	61214.37
584.18	61256.50
584.34	61305.65
584.50	61233.10
584.66	61038.83
584.82	61003.72
584.98	61476.51
585.14	61289.27
585.30	61165.22
585.46	61300.97
585.62	61186.28
585.78	61680.14
585.94	61190.97
586.10	61364.17
586.26	61235.44
586.42	61221.39
586.58	61312.67
586.74	61427.36
586.90	61329.06
587.06	61317.35
587.22	61415.66
587.38	61408.64
587.54	61546.73
587.70	61523.32
587.86	61319.70
588.02	61408.64
588.18	61464.81
588.34	61322.04
588.49	61401.61
