SpectraSuite Data File
++++++++++++++++++++++++++++++++++++
Date: Fri Oct 25 11:25:47 EDT 2013
User: price-jones
Dark Spectrum Present: No
Reference Spectrum Present: No
Number of Sampled Component Spectra: 1
Spectrometers: USB2+H05261
Integration Time (usec): 100000 (USB2+H05261)
Spectra Averaged: 1 (USB2+H05261)
Boxcar Smoothing: 0 (USB2+H05261)
Correct for Electrical Dark: No (USB2+H05261)
Strobe/Lamp Enabled: No (USB2+H05261)
Correct for Detector Non-linearity: No (USB2+H05261)
Correct for Stray Light: No (USB2+H05261)
Number of Pixels in Processed Spectrum: 2048
>>>>>Begin Processed Spectral Data<<<<<
365.73	203.63
365.92	203.63
366.12	203.63
366.32	131.07
366.52	124.05
366.72	135.75
366.91	102.98
367.11	154.48
367.31	121.71
367.51	152.13
367.70	142.77
367.90	145.11
368.10	138.09
368.30	102.98
368.49	170.86
368.69	227.03
368.89	133.41
369.09	119.37
369.28	222.35
369.48	166.18
369.68	194.26
369.87	138.09
370.07	217.67
370.27	215.33
370.47	318.31
370.66	587.47
370.86	688.12
371.06	650.67
371.25	688.12
371.45	669.39
371.65	718.54
371.84	667.05
372.04	671.73
372.24	692.80
372.44	711.52
372.63	732.59
372.83	695.14
373.03	781.74
373.22	809.83
373.42	718.54
373.62	777.06
373.81	905.79
374.01	784.08
374.21	741.95
374.40	809.83
374.60	882.38
374.79	755.99
374.99	777.06
375.19	858.98
375.38	868.34
375.58	758.33
375.78	880.04
375.97	856.64
376.17	887.06
376.37	863.66
376.56	919.83
376.76	889.40
376.95	802.80
377.15	854.30
377.35	954.94
377.54	919.83
377.74	856.64
377.93	931.53
378.13	915.15
378.33	985.37
378.52	828.55
378.72	968.98
378.91	1020.47
379.11	978.34
379.31	910.47
379.50	903.45
379.70	968.98
379.89	929.19
380.09	1020.47
380.28	931.53
380.48	992.39
380.68	964.30
380.87	973.66
381.07	999.41
381.26	978.34
381.46	940.90
381.65	1081.33
381.85	1071.97
382.04	1069.62
382.24	1100.05
382.43	1018.13
382.63	1083.67
382.83	1088.35
383.02	1090.69
383.22	1149.20
383.41	1142.18
383.61	1001.75
383.80	1153.88
384.00	1107.07
384.19	1146.86
384.39	1149.20
384.58	1130.48
384.78	1137.50
384.97	1123.46
385.17	1100.05
385.36	1186.65
385.56	1135.16
385.75	1158.57
385.95	1170.27
386.14	1149.20
386.34	1177.29
386.53	1231.12
386.72	1149.20
386.92	1217.08
387.11	1254.53
387.31	1219.42
387.50	1280.27
387.70	1231.12
387.89	1299.00
388.09	1280.27
388.28	1245.16
388.48	1364.53
388.67	1226.44
388.86	1322.40
389.06	1390.28
389.25	1362.19
389.45	1362.19
389.64	1273.25
389.84	1394.96
390.03	1373.89
390.22	1371.55
390.42	1329.42
390.61	1390.28
390.81	1446.45
391.00	1364.53
391.19	1465.18
391.39	1453.47
391.58	1526.03
391.78	1507.30
391.97	1500.28
392.16	1425.39
392.36	1514.33
392.55	1467.52
392.75	1481.56
392.94	1439.43
393.13	1483.90
393.33	1661.78
393.52	1542.41
393.71	1577.52
393.91	1579.86
394.10	1636.03
394.29	1547.09
394.49	1561.14
394.68	1568.16
394.88	1598.59
395.07	1687.53
395.26	1650.08
395.46	1643.06
395.65	1650.08
395.84	1734.34
396.04	1842.00
396.23	1778.81
396.42	1795.19
396.62	1753.06
396.81	1732.00
397.00	1802.21
397.19	1811.57
397.39	1839.66
397.58	1877.11
397.77	1799.87
397.97	1970.73
398.16	1949.67
398.35	1842.00
398.55	1872.43
398.74	1902.86
398.93	1856.04
399.12	1933.28
399.32	1907.54
399.51	1863.07
399.70	2026.90
399.90	1930.94
400.09	2054.99
400.28	2108.82
400.47	2015.20
400.67	2059.67
400.86	2113.50
401.05	2106.48
401.24	2148.61
401.44	2193.08
401.63	2195.42
401.82	2129.89
402.01	2033.93
402.21	2242.23
402.40	2165.00
402.59	2146.27
402.78	2043.29
402.97	2282.02
403.17	2293.72
403.36	2211.81
403.55	2275.00
403.74	2272.66
403.93	2399.05
404.13	2293.72
404.32	2345.22
404.51	2385.01
404.70	2450.54
404.89	2389.69
405.09	2399.05
405.28	2441.18
405.47	2525.44
405.66	2499.69
405.85	2483.31
406.05	2497.35
406.24	2490.33
406.43	2553.52
406.62	2637.78
406.81	2637.78
407.00	2553.52
407.20	2441.18
407.39	2576.93
407.58	2773.53
407.77	2764.17
407.96	2710.34
408.15	2794.60
408.34	2717.36
408.54	2841.41
408.73	2815.66
408.92	2815.66
409.11	2899.92
409.30	2944.39
409.49	2895.24
409.68	3007.59
409.87	2836.73
410.07	3070.78
410.26	2998.23
410.45	3075.46
410.64	3091.85
410.83	2995.89
411.02	3087.17
411.21	3171.43
411.40	3112.91
411.59	3213.56
411.78	3185.47
411.98	3080.14
412.17	3384.41
412.36	3272.07
412.55	3349.31
412.74	3384.41
412.93	3384.41
413.12	3218.24
413.31	3599.74
413.50	3358.67
413.69	3447.61
413.88	3510.80
414.07	3700.39
414.26	3620.81
414.45	3646.55
414.64	3627.83
414.83	3709.75
415.02	3651.24
415.22	3735.50
415.41	3875.93
415.60	3871.25
415.79	3929.76
415.98	3962.53
416.17	4051.47
416.36	3960.19
416.55	3976.57
416.74	3997.64
416.93	3957.85
417.12	4056.15
417.31	4156.79
417.50	4093.60
417.69	4264.46
417.88	4241.05
418.07	4306.59
418.26	4224.67
418.45	4374.46
418.64	4470.42
418.83	4348.72
419.02	4465.74
419.21	4353.40
419.39	4397.87
419.58	4334.67
419.77	4564.04
419.96	4524.26
420.15	4594.47
420.34	4744.27
420.53	4589.79
420.72	4657.67
420.91	4634.26
421.10	4667.03
421.29	4795.76
421.48	4631.92
421.67	4816.82
421.86	4704.48
422.05	4844.91
422.24	4781.71
422.43	4840.23
422.61	4994.70
422.80	5060.24
422.99	4830.87
423.18	4802.78
423.37	5043.85
423.56	4954.91
423.75	4961.94
423.94	4751.29
424.13	4479.79
424.32	4765.33
424.50	4945.55
424.69	5046.20
424.88	5071.94
425.07	4922.15
425.26	4966.62
425.45	4945.55
425.64	4891.72
425.83	4990.02
426.01	5060.24
426.20	5027.47
426.39	5057.90
426.58	5156.20
426.77	4865.97
426.96	5004.07
427.15	5095.35
427.33	5252.16
427.52	5071.94
427.71	5287.27
427.90	5224.08
428.09	5203.01
428.28	5352.81
428.46	5444.09
428.65	5327.06
428.84	5460.47
429.03	5523.66
429.22	5366.85
429.40	5465.15
429.59	5502.60
429.78	5284.93
429.97	5186.63
430.16	5441.75
430.34	5558.77
430.53	5614.95
430.72	5659.42
430.91	5692.18
431.10	5575.16
431.28	5748.36
431.47	5736.65
431.66	5682.82
431.85	5675.80
432.03	5888.79
432.22	5987.09
432.41	5837.30
432.60	5949.64
432.79	5912.19
432.97	5944.96
433.16	6031.56
433.35	5874.74
433.54	6012.84
433.72	6120.50
433.91	6078.37
434.10	6061.99
434.28	6176.67
434.47	6193.06
434.66	6249.23
434.85	6171.99
435.03	6232.85
435.22	6366.26
435.41	6347.53
435.59	6487.96
435.78	6574.56
435.97	6562.86
436.16	6551.16
436.34	6284.34
436.53	6469.24
436.72	6633.08
436.90	6277.32
437.09	6654.14
437.28	6567.54
437.46	6626.06
437.65	6745.42
437.84	6773.51
438.02	6754.79
438.21	6764.15
438.40	6485.62
438.58	7143.32
438.77	6963.09
438.96	6743.08
439.14	7344.60
439.33	7155.02
439.52	7265.02
439.70	7321.20
439.89	7138.63
440.08	7414.82
440.26	7323.54
440.45	7372.69
440.63	7473.33
440.82	7559.93
441.01	7398.43
441.19	7618.44
441.38	7723.77
441.57	7892.29
441.75	7908.67
441.94	7859.52
442.12	7955.48
442.31	7932.08
442.50	7892.29
442.68	8002.29
442.87	8025.70
443.05	8156.77
443.24	8278.47
443.43	8105.28
443.61	8184.85
443.80	8379.12
443.98	8166.13
444.17	7754.19
444.35	8386.14
444.54	8517.21
444.73	8126.34
444.91	8161.45
445.10	8344.01
445.28	8365.07
445.47	8051.44
445.65	8266.77
445.84	8367.42
446.02	8360.39
446.21	8262.09
446.39	8205.92
446.58	8582.74
446.77	8524.23
446.95	8250.39
447.14	8348.69
447.32	8498.49
447.51	8514.87
447.69	8418.91
447.88	8512.53
448.06	8617.85
448.25	8383.80
448.43	8489.12
448.62	8542.96
448.80	8549.98
448.99	8674.03
449.17	8685.73
449.36	8442.31
449.54	8704.45
449.73	8695.09
449.91	9011.06
450.10	8973.61
450.28	9144.47
450.46	8903.40
450.65	9083.62
450.83	8966.59
451.02	8674.03
451.20	9198.31
451.39	9090.64
451.57	9247.46
451.76	9270.86
451.94	9280.22
452.13	9317.67
452.31	9233.41
452.49	9228.73
452.68	9219.37
452.86	9198.31
453.05	9455.76
453.23	9437.04
453.42	9210.01
453.60	9488.53
453.78	9434.70
453.97	9200.65
454.15	9500.23
454.34	9640.67
454.52	9701.52
454.70	9797.48
454.89	9832.59
455.07	9713.22
455.26	9820.89
455.44	9928.55
455.62	9928.55
455.81	10036.22
455.99	9736.63
456.17	10040.90
456.36	9947.28
456.54	10260.91
456.73	10382.62
456.91	10363.89
457.09	10354.53
457.28	10572.20
457.46	10415.38
457.64	10490.28
457.83	10565.18
458.01	10363.89
458.19	10609.65
458.38	10583.90
458.56	10675.18
458.74	10750.08
458.93	10548.79
459.11	10640.08
459.29	10846.04
459.48	10934.98
459.66	10619.01
459.84	10874.13
460.03	10869.45
460.21	10909.24
460.39	10883.49
460.57	10890.51
460.76	10974.77
460.94	11115.20
461.12	11162.01
461.31	11358.62
461.49	11157.33
461.67	11227.55
461.85	11602.04
462.04	11131.59
462.22	11894.60
462.40	11566.93
462.59	11442.88
462.77	11527.14
462.95	11595.01
463.13	11489.69
463.32	11712.04
463.50	11782.26
463.68	11798.64
463.86	11843.11
464.05	11651.19
464.23	11609.06
464.41	11990.56
464.59	11606.72
464.78	12149.72
464.96	12053.76
465.14	11686.29
465.32	12184.83
465.50	12145.04
465.69	11997.59
465.87	12105.25
466.05	12236.32
466.23	12126.32
466.41	12135.68
466.60	12381.43
466.78	12079.50
466.96	12177.81
467.14	12287.81
467.32	12444.63
467.51	12313.56
467.69	12191.85
467.87	12496.12
468.05	12592.08
468.23	12627.19
468.41	12386.12
468.60	12798.05
468.78	12760.60
468.96	12671.66
469.14	12849.54
469.32	12835.50
469.50	12659.96
469.69	13163.17
469.87	13118.70
470.05	12959.55
470.23	13273.18
470.41	13275.52
470.59	13041.46
470.77	13366.80
470.95	13259.13
471.14	13432.33
471.32	13245.09
471.50	13614.90
471.68	13305.95
471.86	13865.33
472.04	13891.08
472.22	14085.34
472.40	13561.06
472.58	13881.72
472.77	13811.50
472.95	14059.60
473.13	14434.08
473.31	13951.93
473.49	14136.84
473.67	14263.22
473.85	14024.49
474.03	14743.03
474.21	14555.79
474.39	14696.22
474.57	14677.50
474.75	14668.14
474.93	15030.92
475.12	14841.34
475.30	15012.20
475.48	15150.29
475.66	15101.14
475.84	15047.30
476.02	15169.01
476.20	15063.69
476.38	15449.88
476.56	15887.56
476.74	15683.93
476.92	15637.12
477.10	15569.24
477.28	16456.31
477.46	16198.85
477.64	16208.21
477.82	16596.74
478.00	16727.81
478.18	16662.27
478.36	17092.93
478.54	17317.62
478.72	16992.29
478.90	17453.37
479.08	17511.89
479.26	17626.57
479.44	17495.50
479.62	17947.23
479.80	18057.23
479.98	18209.37
480.16	18415.34
480.34	18104.04
480.52	18679.82
480.70	18977.06
480.88	18525.34
481.06	18541.72
481.24	18672.79
481.41	19070.68
481.59	19234.52
481.77	19620.71
481.95	19566.88
482.13	19763.48
482.31	19566.88
482.49	20006.90
482.67	20194.14
482.85	20449.26
483.03	20304.15
483.21	20638.84
483.39	20758.21
483.57	20491.39
483.74	20947.79
483.92	21275.47
484.10	21022.69
484.28	21514.20
484.46	21848.90
484.64	21942.52
484.82	21727.19
485.00	22445.74
485.18	22537.02
485.35	23016.83
485.53	22799.16
485.71	22752.35
485.89	23545.79
486.07	22806.18
486.25	23461.53
486.43	23339.82
486.61	23594.94
486.78	23812.61
486.96	24437.53
487.14	24432.85
487.32	24407.11
487.50	24690.31
487.68	24985.22
487.85	25205.23
488.03	25343.32
488.21	26050.16
488.39	25612.48
488.57	25785.68
488.75	26316.98
488.92	26462.10
489.10	26560.40
489.28	26572.10
489.46	27314.05
489.64	27213.41
489.81	27302.35
489.99	27377.25
490.17	27538.74
490.35	28107.49
490.53	28224.52
490.70	28304.10
490.88	27899.19
491.06	28769.86
491.24	28664.54
491.41	28914.98
491.59	29134.99
491.77	29057.75
491.95	29502.45
492.13	29598.41
492.30	29933.11
492.48	30221.00
492.66	30171.85
492.84	30504.20
493.01	30691.44
493.19	30450.37
493.37	30759.32
493.54	30906.77
493.72	31211.04
493.90	31398.29
494.08	31765.75
494.25	32116.83
494.43	31945.97
494.61	32521.74
494.79	32088.74
494.96	32100.45
495.14	32587.28
495.32	32868.14
495.49	32807.29
495.67	33291.78
495.85	33376.04
496.02	33443.91
496.20	33928.41
496.38	34007.98
496.55	34019.69
496.73	34726.53
496.91	34398.85
497.09	34689.08
497.26	34983.99
497.44	35000.37
497.62	35194.64
497.79	35627.63
497.97	35288.26
498.14	36006.80
498.32	35735.30
498.50	36093.40
498.67	36282.98
498.85	36297.03
499.03	36526.40
499.20	36561.51
499.38	36622.36
499.56	37263.67
499.73	37156.00
499.91	37158.34
500.08	37624.11
500.26	37141.96
500.44	37699.01
500.61	38218.61
500.79	37778.59
500.97	38113.28
501.14	38789.70
501.32	38752.25
501.49	38476.07
501.67	38600.12
501.84	38309.89
502.02	38595.43
502.20	38838.85
502.37	39173.55
502.55	38923.11
502.72	39482.50
502.90	39522.29
503.07	39580.80
503.25	39700.17
503.43	39590.16
503.60	39922.52
503.78	40287.64
503.95	40247.85
504.13	40187.00
504.30	40612.98
504.48	40282.96
504.65	40554.46
504.83	40783.83
505.01	41034.27
505.18	41155.98
505.36	41612.38
505.53	41008.53
505.71	41668.56
505.88	41453.23
506.06	41319.82
506.23	41991.55
506.41	41675.58
506.58	42038.36
506.76	42213.90
506.93	42511.15
507.11	42436.25
507.28	42553.28
507.46	42932.45
507.63	42927.77
507.81	42932.45
507.98	42852.87
508.16	43356.08
508.33	43302.25
508.50	42904.36
508.68	43749.29
508.85	43863.98
509.03	43693.12
509.20	43721.21
509.38	43973.98
509.55	44156.55
509.73	44301.66
509.90	44629.34
510.08	44208.04
510.25	45001.48
510.42	44388.26
510.60	44479.54
510.77	45237.87
510.95	45263.62
511.12	45226.17
511.30	45251.92
511.47	45483.63
511.64	45525.76
511.82	45970.46
511.99	45193.40
512.17	45762.15
512.34	45698.96
512.51	46368.35
512.69	46398.78
512.86	46059.40
513.04	46670.28
513.21	46894.97
513.38	46873.91
513.56	46941.78
513.73	46887.95
513.90	46955.83
514.08	46808.37
514.25	47042.43
514.43	47358.40
514.60	47693.10
514.77	47580.75
514.95	47519.90
515.12	47384.15
515.29	47592.45
515.47	47704.80
515.64	47821.83
515.81	47702.46
515.99	47835.87
516.16	48418.66
516.33	47999.71
516.51	48521.65
516.68	48088.65
516.85	48924.22
517.03	48839.96
517.20	49031.88
517.37	48617.61
517.54	48795.49
517.72	49205.08
517.89	48641.01
518.06	49205.08
518.24	49291.68
518.41	48973.37
518.58	49319.77
518.75	49095.08
518.93	49404.03
519.10	49656.81
519.27	49797.24
519.45	49560.84
519.62	49425.09
519.79	50230.24
519.96	49975.12
520.14	49785.54
520.31	49867.45
520.48	50216.19
520.65	50035.97
520.83	50384.71
521.00	50478.33
521.17	50234.92
521.34	50487.70
521.52	50628.13
521.69	50953.46
521.86	50609.40
522.03	51124.32
522.20	51330.29
522.38	51494.13
522.55	51463.70
522.72	51171.13
522.89	51391.14
523.07	51606.47
523.24	51538.60
523.41	51377.10
523.58	51697.75
523.75	51739.88
523.92	51700.09
524.10	51796.06
524.27	51777.33
524.44	52289.91
524.61	51910.74
524.78	51978.62
524.96	52060.54
525.13	52016.07
525.30	51985.64
525.47	52680.78
525.64	52395.23
525.81	52210.33
525.98	52484.17
526.16	52603.54
526.33	52645.67
526.50	52542.69
526.67	52332.04
526.84	52924.19
527.01	52631.63
527.18	52814.19
527.36	52772.06
527.53	52821.21
527.70	53338.47
527.87	53258.89
528.04	52903.13
528.21	53506.99
528.38	53359.53
528.55	53605.29
528.72	53083.35
528.89	53188.67
529.07	53212.08
529.24	53326.77
529.41	53441.45
529.58	53422.73
529.75	53670.82
529.92	53656.78
530.09	53886.15
530.26	53829.98
530.43	53869.77
530.60	53624.01
530.77	53822.96
530.94	53783.17
531.11	54108.50
531.28	54117.87
531.46	54356.60
531.63	54279.36
531.80	54082.76
531.97	54539.16
532.14	54244.26
532.31	54319.15
532.48	54358.94
532.65	54487.67
532.82	54358.94
532.99	54630.44
533.16	54497.03
533.33	54621.08
533.50	54728.75
533.67	54742.79
533.84	54691.30
534.01	54880.88
534.18	54897.27
534.35	55168.77
534.52	55126.64
534.69	55044.72
534.86	55255.37
535.03	54887.90
535.20	55058.76
535.37	55238.98
535.54	55501.12
535.71	55295.16
535.88	55288.13
536.05	55096.21
536.22	55646.24
536.38	55608.79
536.55	55576.02
536.72	55348.99
536.89	55327.92
537.06	55430.91
537.23	55473.04
537.40	55700.07
537.57	55786.67
537.74	55835.82
537.91	55980.93
538.08	55625.17
538.25	55643.90
538.42	55772.63
538.59	55964.55
538.75	55725.81
538.92	56051.15
539.09	56329.67
539.26	56137.75
539.43	55992.64
539.60	56112.00
539.77	56016.04
539.94	56404.57
540.11	56163.50
540.28	56420.95
540.44	56465.42
540.61	56172.86
540.78	56093.28
540.95	56257.12
541.12	56411.59
541.29	56245.41
541.46	56430.32
541.62	56549.68
541.79	56622.24
541.96	56341.38
542.13	56357.76
542.30	56725.22
542.47	56821.19
542.63	56697.14
542.80	56980.34
542.97	56947.57
543.14	57134.82
543.31	56954.60
543.48	57139.50
543.64	57315.04
543.81	57172.27
543.98	57169.93
544.15	57052.90
544.32	57403.98
544.48	57726.97
544.65	57078.64
544.82	57289.29
544.99	57338.44
545.16	57298.65
545.32	57373.55
545.49	57502.28
545.66	57677.82
545.83	57687.18
546.00	57677.82
546.16	57567.82
546.33	57460.15
546.50	57317.38
546.67	57647.39
546.83	57420.36
547.00	57733.99
547.17	57504.62
547.34	57836.98
547.50	57961.03
547.67	58220.83
547.84	57930.60
548.00	57963.37
548.17	58005.50
548.34	57883.79
548.51	58246.57
548.67	58035.92
548.84	58113.16
549.01	58026.56
549.18	57975.07
549.34	58127.20
549.51	58269.98
549.68	58211.46
549.84	58251.25
550.01	58464.24
550.18	58129.54
550.34	58504.03
550.51	58295.72
550.68	58309.77
550.84	58223.17
551.01	58436.16
551.18	58431.47
551.34	58265.30
551.51	58422.11
551.68	58515.73
551.84	58443.18
552.01	58614.04
552.18	58581.27
552.34	58375.30
552.51	58749.79
552.68	58489.99
552.84	58660.85
553.01	58824.68
553.18	58754.47
553.34	58906.60
553.51	58817.66
553.67	58614.04
553.84	58965.12
554.01	58752.13
554.17	58801.28
554.34	58726.38
554.51	58993.20
554.67	58925.33
554.84	58993.20
555.00	59007.25
555.17	58967.46
555.33	58995.54
555.50	58885.54
555.67	58784.90
555.83	58960.44
556.00	59100.87
556.16	59402.80
556.33	59187.47
556.50	59192.15
556.66	59290.45
556.83	58770.85
556.99	59262.36
557.16	59171.08
557.32	59636.85
557.49	59655.57
557.65	59278.75
557.82	59161.72
557.98	59323.22
558.15	59379.39
558.32	59318.54
558.48	59313.86
558.65	59580.68
558.81	59461.31
558.98	59428.54
559.14	59412.16
559.31	59526.84
559.47	59585.36
559.64	59643.87
559.80	59552.59
559.97	59718.77
560.13	59470.67
560.30	59510.46
560.46	59620.47
560.63	59962.18
560.79	59627.49
560.96	59674.30
561.12	59674.30
561.29	59861.54
561.45	59772.60
561.61	59667.28
561.78	59704.73
561.94	59831.11
562.11	59814.73
562.27	59735.15
562.44	59985.59
562.60	59920.05
562.77	59910.69
562.93	59639.19
563.10	60018.36
563.26	59695.36
563.42	59901.33
563.59	59849.84
563.75	59985.59
563.92	59863.88
564.08	60009.00
564.24	60032.40
564.41	60053.47
564.57	60020.70
564.74	60123.68
564.90	60189.22
565.07	59990.27
565.23	60083.89
565.39	59992.61
565.56	60137.72
565.72	60051.12
565.88	59908.35
566.05	60039.42
566.21	60086.23
566.38	60093.25
566.54	60196.24
566.70	60315.61
566.87	60413.91
567.03	60100.28
567.19	60285.18
567.36	60381.14
567.52	60214.96
567.68	60250.07
567.85	60243.05
568.01	60247.73
568.17	60460.72
568.34	60383.48
568.50	60287.52
568.66	60434.97
568.83	60350.71
568.99	60250.07
569.15	60512.21
569.32	60331.99
569.48	60149.43
569.64	60308.58
569.81	60406.89
569.97	60254.75
570.13	60296.88
570.30	60037.08
570.46	60519.23
570.62	60413.91
570.78	60512.21
570.95	60357.74
571.11	60603.49
571.27	60629.24
571.43	60427.95
571.60	60411.57
571.76	60505.19
571.92	60650.30
572.09	60320.29
572.25	60587.11
572.41	60493.49
572.57	60409.23
572.74	60640.94
572.90	60659.66
573.06	60690.09
573.22	60472.42
573.38	60587.11
573.55	60573.06
573.71	60973.30
573.87	60570.72
574.03	60507.53
574.20	60685.41
574.36	60402.21
574.52	60786.05
574.68	60559.02
574.84	60640.94
575.01	60743.92
575.17	60516.89
575.33	60619.88
575.49	60598.81
575.65	60683.07
575.82	60617.53
575.98	60809.46
576.14	60713.50
576.30	60783.71
576.46	60608.17
576.62	60608.17
576.79	60566.04
576.95	60472.42
577.11	60566.04
577.27	60926.49
577.43	60865.63
577.59	60516.89
577.75	60659.66
577.92	60680.73
578.08	60685.41
578.24	60849.25
578.40	60891.38
578.56	60945.21
578.72	60865.63
578.88	61024.79
579.04	60858.61
579.21	60753.29
579.37	60837.54
579.53	61027.13
579.69	60566.04
579.85	60654.98
580.01	60601.15
580.17	60601.15
580.33	60898.40
580.49	60975.64
580.65	60973.30
580.82	60823.50
580.98	60811.80
581.14	60739.24
581.30	60973.30
581.46	60879.67
581.62	60748.60
581.78	60694.77
581.94	61010.74
582.10	60846.91
582.26	60797.76
582.42	60685.41
582.58	60814.14
582.74	60748.60
582.90	60797.76
583.06	60860.95
583.22	60594.13
583.38	60926.49
583.54	60844.57
583.70	60968.61
583.86	61113.73
584.02	60760.31
584.18	60891.38
584.34	60992.02
584.50	60921.80
584.66	60739.24
584.82	60666.69
584.98	61024.79
585.14	60917.12
585.30	60912.44
585.46	60858.61
585.62	61066.92
585.78	60914.78
585.94	60750.94
586.10	61057.56
586.26	60860.95
586.42	60940.53
586.58	60928.83
586.74	61029.47
586.90	60945.21
587.06	60912.44
587.22	61083.30
587.38	60961.59
587.54	61010.74
587.70	61099.68
587.86	61078.62
588.02	61080.96
588.18	61085.64
588.34	60933.51
588.49	61038.83
