SpectraSuite Data File
++++++++++++++++++++++++++++++++++++
Date: Fri Oct 25 11:25:36 EDT 2013
User: price-jones
Dark Spectrum Present: No
Reference Spectrum Present: No
Number of Sampled Component Spectra: 1
Spectrometers: USB2+H05261
Integration Time (usec): 100000 (USB2+H05261)
Spectra Averaged: 1 (USB2+H05261)
Boxcar Smoothing: 0 (USB2+H05261)
Correct for Electrical Dark: No (USB2+H05261)
Strobe/Lamp Enabled: No (USB2+H05261)
Correct for Detector Non-linearity: No (USB2+H05261)
Correct for Stray Light: No (USB2+H05261)
Number of Pixels in Processed Spectrum: 2048
>>>>>Begin Processed Spectral Data<<<<<
365.73	273.84
365.92	273.84
366.12	273.84
366.32	154.48
366.52	140.43
366.72	154.48
366.91	124.05
367.11	149.79
367.31	98.30
367.51	140.43
367.70	138.09
367.90	217.67
368.10	173.20
368.30	170.86
368.49	77.24
368.69	145.11
368.89	161.50
369.09	147.45
369.28	142.77
369.48	170.86
369.68	208.31
369.87	217.67
370.07	184.90
370.27	250.44
370.47	332.36
370.66	596.84
370.86	603.86
371.06	657.69
371.25	678.76
371.45	596.84
371.65	669.39
371.84	645.99
372.04	676.41
372.24	746.63
372.44	683.44
372.63	770.04
372.83	667.05
373.03	718.54
373.22	805.14
373.42	809.83
373.62	741.95
373.81	828.55
374.01	835.57
374.21	760.67
374.40	760.67
374.60	833.23
374.79	753.65
374.99	856.64
375.19	851.96
375.38	856.64
375.58	770.04
375.78	830.89
375.97	819.19
376.17	875.36
376.37	849.61
376.56	814.51
376.76	873.02
376.95	922.17
377.15	971.32
377.35	910.47
377.54	887.06
377.74	896.43
377.93	835.57
378.13	910.47
378.33	952.60
378.52	870.68
378.72	1027.50
378.91	987.71
379.11	894.08
379.31	929.19
379.50	891.74
379.70	1020.47
379.89	1015.79
380.09	983.02
380.28	903.45
380.48	980.68
380.68	954.94
380.87	868.34
381.07	1006.43
381.26	1093.03
381.46	1020.47
381.65	1123.46
381.85	1043.88
382.04	1062.60
382.24	1060.26
382.43	1093.03
382.63	943.24
382.83	1111.75
383.02	1048.56
383.22	1097.71
383.41	1050.90
383.61	1050.90
383.80	1053.24
384.00	1160.91
384.19	1313.04
384.39	1109.41
384.58	1121.12
384.78	1245.16
384.97	1179.63
385.17	1174.95
385.36	1184.31
385.56	1128.14
385.75	1196.01
385.95	1191.33
386.14	1249.85
386.34	1149.20
386.53	1198.35
386.72	1231.12
386.92	1174.95
387.11	1205.38
387.31	1193.67
387.50	1205.38
387.70	1228.78
387.89	1280.27
388.09	1287.29
388.28	1289.64
388.48	1179.63
388.67	1364.53
388.86	1327.08
389.06	1336.45
389.25	1390.28
389.45	1357.51
389.64	1329.42
389.84	1350.49
390.03	1357.51
390.22	1359.85
390.42	1343.47
390.61	1446.45
390.81	1296.66
391.00	1439.43
391.19	1451.13
391.39	1341.13
391.58	1441.77
391.78	1399.64
391.97	1521.35
392.16	1423.05
392.36	1526.03
392.55	1371.55
392.75	1504.96
392.94	1434.75
393.13	1434.75
393.33	1488.58
393.52	1523.69
393.71	1547.09
393.91	1554.12
394.10	1462.83
394.29	1582.20
394.49	1619.65
394.68	1600.93
394.88	1593.90
395.07	1575.18
395.26	1631.35
395.46	1650.08
395.65	1692.21
395.84	1708.59
396.04	1739.02
396.23	1755.40
396.42	1685.19
396.62	1673.48
396.81	1799.87
397.00	1757.74
397.19	1753.06
397.39	1811.57
397.58	1872.43
397.77	1764.76
397.97	1849.02
398.16	1771.79
398.35	1818.60
398.55	1783.49
398.74	1849.02
398.93	1888.81
399.12	1888.81
399.32	1893.49
399.51	1863.07
399.70	2017.54
399.90	1982.43
400.09	2036.27
400.28	2040.95
400.47	2054.99
400.67	2097.12
400.86	2106.48
401.05	2146.27
401.24	2005.84
401.44	1989.46
401.63	2204.78
401.82	2146.27
402.01	2064.35
402.21	2087.76
402.40	2244.57
402.59	2047.97
402.78	2125.21
402.97	2225.85
403.17	2188.40
403.36	2298.41
403.55	2296.07
403.74	2347.56
403.93	2401.39
404.13	2305.43
404.32	2284.36
404.51	2347.56
404.70	2420.11
404.89	2326.49
405.09	2450.54
405.28	2410.75
405.47	2352.24
405.66	2516.08
405.85	2478.63
406.05	2595.65
406.24	2546.50
406.43	2441.18
406.62	2640.12
406.81	2562.89
407.00	2483.31
407.20	2705.66
407.39	2626.08
407.58	2668.21
407.77	2679.91
407.96	2745.45
408.15	2815.66
408.34	2747.79
408.54	2782.90
408.73	2843.75
408.92	2855.45
409.11	2853.11
409.30	2843.75
409.49	3014.61
409.68	2930.35
409.87	2796.94
410.07	2949.08
410.26	2913.97
410.45	2949.08
410.64	2939.71
410.83	3108.23
411.02	3117.59
411.21	3141.00
411.40	3218.24
411.59	3159.72
411.78	3187.81
411.98	3262.71
412.17	3213.56
412.36	3346.97
412.55	3503.78
412.74	3531.87
412.93	3382.07
413.12	3353.99
413.31	3468.67
413.50	3400.80
413.69	3487.40
413.88	3559.95
414.07	3623.15
414.26	3569.32
414.45	3581.02
414.64	3517.83
414.83	3613.79
415.02	3705.07
415.22	3882.95
415.41	3794.01
415.60	3728.47
415.79	3894.65
415.98	3929.76
416.17	3964.87
416.36	3962.53
416.55	4053.81
416.74	4124.02
416.93	4112.32
417.12	4086.58
417.31	4060.83
417.50	4243.39
417.69	4372.12
417.88	4334.67
418.07	4234.03
418.26	4112.32
418.45	4079.55
418.64	4421.27
418.83	4360.42
419.02	4318.29
419.21	4423.61
419.39	4535.96
419.58	4418.93
419.77	4521.92
419.96	4554.68
420.15	4540.64
420.34	4608.51
420.53	4660.01
420.72	4798.10
420.91	4777.03
421.10	4727.88
421.29	4727.88
421.48	4699.80
421.67	4732.56
421.86	4772.35
422.05	4709.16
422.24	4812.14
422.43	4938.53
422.61	4887.04
422.80	4950.23
422.99	4910.44
423.18	4889.38
423.37	5018.11
423.56	4926.83
423.75	4971.30
423.94	4933.85
424.13	4592.13
424.32	4777.03
424.50	5039.17
424.69	5043.85
424.88	5055.56
425.07	4795.76
425.26	4851.93
425.45	5088.32
425.64	4898.74
425.83	5006.41
426.01	4966.62
426.20	4992.36
426.39	5043.85
426.58	4992.36
426.77	4997.04
426.96	5151.52
427.15	5011.09
427.33	5055.56
427.52	5121.09
427.71	5167.90
427.90	5200.67
428.09	5383.23
428.28	5121.09
428.46	5427.70
428.65	5303.65
428.84	5544.73
429.03	5486.22
429.22	5282.59
429.40	5266.21
429.59	5404.30
429.78	5198.33
429.97	5385.57
430.16	5439.40
430.34	5413.66
430.53	5643.03
430.72	5586.86
430.91	5551.75
431.10	5610.26
431.28	5603.24
431.47	5827.93
431.66	5834.96
431.85	5600.90
432.03	5870.06
432.22	6015.18
432.41	5900.49
432.60	6097.10
432.79	5884.11
432.97	6083.05
433.16	5881.77
433.35	5856.02
433.54	5809.21
433.72	6101.78
433.91	6218.80
434.10	6106.46
434.28	6108.80
434.47	6087.73
434.66	6150.93
434.85	6293.70
435.03	6342.85
435.22	6366.26
435.41	6415.41
435.59	6431.79
435.78	6338.17
435.97	6487.96
436.16	6427.11
436.34	6246.89
436.53	6324.13
436.72	6775.85
436.90	6331.15
437.09	6513.71
437.28	6513.71
437.46	6569.88
437.65	6642.44
437.84	6555.84
438.02	6644.78
438.21	6747.76
438.40	6623.72
438.58	7002.88
438.77	6918.62
438.96	7061.40
439.14	6991.18
439.33	7211.19
439.52	7140.97
439.70	6998.20
439.89	7454.61
440.08	7421.84
440.26	7466.31
440.45	7351.62
440.63	7407.80
440.82	7482.69
441.01	7496.74
441.19	7590.36
441.38	7698.02
441.57	7798.66
441.75	7693.34
441.94	7915.69
442.12	7735.47
442.31	8105.28
442.50	7939.10
442.68	7836.11
442.87	8058.46
443.05	8248.05
443.24	8079.53
443.43	8173.15
443.61	8145.06
443.80	8301.88
443.98	7964.84
444.17	7662.91
444.35	8046.76
444.54	8219.96
444.73	8404.86
444.91	8294.86
445.10	8152.09
445.28	8294.86
445.47	8189.53
445.65	8184.85
445.84	8215.28
446.02	8465.72
446.21	8521.89
446.39	8432.95
446.58	8353.37
446.77	8393.16
446.95	8313.58
447.14	8582.74
447.32	8664.66
447.51	8210.60
447.69	8182.51
447.88	8444.65
448.06	8528.91
448.25	8542.96
448.43	8610.83
448.62	8454.02
448.80	8486.78
448.99	8489.12
449.17	8627.21
449.36	8557.00
449.54	8748.92
449.73	8952.55
449.91	8760.63
450.10	8870.63
450.28	9025.11
450.46	9067.24
450.65	8980.64
450.83	9064.89
451.02	8964.25
451.20	9151.49
451.39	9170.22
451.57	9135.11
451.76	8973.61
451.94	9247.46
452.13	9132.77
452.31	9231.07
452.49	9125.75
452.68	9277.88
452.86	9261.50
453.05	9462.79
453.23	9348.10
453.42	9336.40
453.60	9320.01
453.78	9373.85
453.97	9235.75
454.15	9282.56
454.34	9537.68
454.52	9715.56
454.70	9589.17
454.89	9652.37
455.07	9657.05
455.26	9657.05
455.44	9643.01
455.62	9905.15
455.81	9797.48
455.99	10141.54
456.17	9841.95
456.36	10057.28
456.54	10083.03
456.73	10221.12
456.91	10267.93
457.09	10319.42
457.28	10499.64
457.46	10342.83
457.64	10406.02
457.83	10661.14
458.01	10399.00
458.19	10642.42
458.38	10565.18
458.56	10614.33
458.74	10560.50
458.93	10602.63
459.11	10668.16
459.29	10649.44
459.48	10675.18
459.66	10813.28
459.84	10897.53
460.03	11014.56
460.21	11042.65
460.39	11007.54
460.57	10932.64
460.76	11147.97
460.94	11323.51
461.12	11066.05
461.31	11073.07
461.49	11007.54
461.67	10970.09
461.85	11234.57
462.04	11302.45
462.22	11953.12
462.40	11562.25
462.59	11503.73
462.77	11267.34
462.95	11438.20
463.13	11520.12
463.32	11445.22
463.50	11632.46
463.68	11810.34
463.86	11754.17
464.05	11623.10
464.23	11644.17
464.41	11941.41
464.59	11707.36
464.78	12037.38
464.96	12060.78
465.14	11597.35
465.32	12009.29
465.50	12189.51
465.69	12236.32
465.87	11812.68
466.05	12013.97
466.23	12135.68
466.41	11920.35
466.60	12425.90
466.78	11880.56
466.96	12119.29
467.14	12156.74
467.32	12353.35
467.51	12706.77
467.69	12152.06
467.87	12423.56
468.05	12205.89
468.23	12341.64
468.41	12332.28
468.60	12751.24
468.78	12709.11
468.96	12732.51
469.14	12627.19
469.32	13057.85
469.50	12676.34
469.69	12996.99
469.87	13111.68
470.05	13064.87
470.23	13200.62
470.41	13078.91
470.59	13291.90
470.77	13116.36
470.95	13041.46
471.14	13528.30
471.32	13125.72
471.50	13675.75
471.68	13589.15
471.86	13523.62
472.04	13434.68
472.22	13884.06
472.40	13427.65
472.58	13596.17
472.77	13703.84
472.95	13958.96
473.13	14590.90
473.31	13998.74
473.49	14024.49
473.67	13855.97
473.85	14277.27
474.03	14483.24
474.21	14216.41
474.39	14523.02
474.57	14604.94
474.75	14836.66
474.93	14862.40
475.12	14949.00
475.30	14998.15
475.48	14902.19
475.66	15110.50
475.84	14904.53
476.02	15517.75
476.20	15344.55
476.38	15421.79
476.56	15976.50
476.74	16025.65
476.92	15910.96
477.10	15681.59
477.28	16182.46
477.46	16114.59
477.64	16325.24
477.82	16365.03
478.00	16718.45
478.18	16744.19
478.36	16908.03
478.54	17125.70
478.72	16844.84
478.90	17011.01
479.08	17369.12
479.26	17289.54
479.44	17462.74
479.62	17668.70
479.80	17912.12
479.98	18073.62
480.16	18434.06
480.34	17844.24
480.52	18485.55
480.70	18448.10
480.88	18019.78
481.06	18817.91
481.24	18848.33
481.41	19297.72
481.59	19321.12
481.77	19281.33
481.95	19250.91
482.13	19639.44
482.31	19721.35
482.49	20177.76
482.67	19667.52
482.85	20325.21
483.03	20439.90
483.21	20610.76
483.39	21193.55
483.57	20552.24
483.74	21301.22
483.92	21088.23
484.10	21200.57
484.28	21439.31
484.46	21675.70
484.64	22082.95
484.82	22097.00
485.00	21862.94
485.18	22773.41
485.35	22771.07
485.53	22724.26
485.71	22745.33
485.89	23435.78
486.07	23087.04
486.25	23349.18
486.43	23534.09
486.61	23520.04
486.78	24023.26
486.96	24053.69
487.14	24671.59
487.32	24687.97
487.50	24779.25
487.68	25020.33
487.85	25083.52
488.03	25095.22
488.21	25420.56
488.39	25799.73
488.57	25986.97
488.75	26106.34
488.92	26235.06
489.10	26654.02
489.28	26661.04
489.46	26831.90
489.64	26749.98
489.81	27508.32
489.99	27302.35
490.17	27623.00
490.35	27901.53
490.53	28222.18
490.70	28250.27
490.88	28362.61
491.06	28496.02
491.24	28552.20
491.41	29399.47
491.59	28914.98
491.77	28968.81
491.95	29553.94
492.13	29617.14
492.30	30012.69
492.48	29937.79
492.66	29905.02
492.84	30209.29
493.01	30551.01
493.19	30391.86
493.37	30754.64
493.54	31283.60
493.72	31290.62
493.90	31248.49
494.08	31672.13
494.25	32009.17
494.43	31529.36
494.61	31957.67
494.79	32048.96
494.96	32278.33
495.14	32322.80
495.32	32533.45
495.49	32793.25
495.67	32950.06
495.85	33589.03
496.02	33649.88
496.20	33645.20
496.38	33806.70
496.55	33846.49
496.73	34518.22
496.91	34265.44
497.09	34576.73
497.26	34459.71
497.44	34740.57
497.62	35072.93
497.79	35227.40
497.97	35122.08
498.14	35707.21
498.32	35868.71
498.50	35658.06
498.67	35868.71
498.85	36636.41
499.03	36727.69
499.20	36184.68
499.38	36954.72
499.56	37134.94
499.73	36917.27
499.91	37399.42
500.08	37567.94
500.26	37017.91
500.44	37219.20
500.61	37710.71
500.79	37167.71
500.97	37820.72
501.14	37935.40
501.32	38672.67
501.49	38127.33
501.67	38295.85
501.84	38579.05
502.02	38773.31
502.20	38705.44
502.37	39035.45
502.55	39105.67
502.72	39152.48
502.90	39695.49
503.07	39206.31
503.25	39576.12
503.43	39129.08
503.60	39866.34
503.78	39948.26
503.95	40240.83
504.13	40257.21
504.30	40603.61
504.48	40191.68
504.65	40502.97
504.83	40975.76
505.01	41471.95
505.18	41188.75
505.36	40898.52
505.53	40645.74
505.71	41205.13
505.88	41621.75
506.06	41816.01
506.23	41406.42
506.41	42087.51
506.58	41918.99
506.76	41886.23
506.93	42321.57
507.11	41764.52
507.28	42218.58
507.46	41954.10
507.63	42567.32
507.81	42754.57
507.98	42529.87
508.16	42768.61
508.33	43175.86
508.50	43473.11
508.68	43178.20
508.85	43732.91
509.03	43377.15
509.20	43768.02
509.38	44128.46
509.55	43821.85
509.73	44294.64
509.90	44664.44
510.08	44163.57
510.25	44196.34
510.42	44053.56
510.60	44847.00
510.77	44896.16
510.95	44978.07
511.12	44964.03
511.30	44790.83
511.47	45289.37
511.64	45221.49
511.82	45607.68
511.99	45343.20
512.17	45825.35
512.34	45689.60
512.51	46216.22
512.69	45897.91
512.86	46525.17
513.04	46351.97
513.21	46307.50
513.38	46579.00
513.56	46394.10
513.73	46780.29
513.90	47021.36
514.08	46457.29
514.25	47318.61
514.43	46899.65
514.60	46981.57
514.77	46693.69
514.95	47505.85
515.12	47295.21
515.29	47234.35
515.47	48025.45
515.64	47615.86
515.81	47501.17
515.99	47892.04
516.16	48004.39
516.33	47672.03
516.51	48184.61
516.68	48301.64
516.85	48112.05
517.03	48690.16
517.20	48364.83
517.37	48435.05
517.54	48725.27
517.72	48872.73
517.89	49104.44
518.06	49261.26
518.24	49254.23
518.41	48999.12
518.58	48926.56
518.75	48896.13
518.93	49258.91
519.10	48978.05
519.27	49340.83
519.45	49237.85
519.62	49605.31
519.79	50068.74
519.96	49996.18
520.14	49841.71
520.31	49649.78
520.48	49975.12
520.65	50356.63
520.83	50321.52
521.00	50454.93
521.17	50075.76
521.34	50588.34
521.52	50810.69
521.69	50504.08
521.86	50981.55
522.03	50911.33
522.20	50953.46
522.38	51297.52
522.55	51140.71
522.72	51030.70
522.89	50794.31
523.07	51423.91
523.24	51372.42
523.41	51625.20
523.58	51089.21
523.75	51796.06
523.92	51416.89
524.10	51594.77
524.27	52168.20
524.44	51688.39
524.61	51990.32
524.78	52086.28
524.96	52154.16
525.13	52128.41
525.30	52172.88
525.47	52509.92
525.64	52390.55
525.81	52278.21
525.98	52238.42
526.16	52310.97
526.33	52573.11
526.50	52879.72
526.67	52402.25
526.84	52601.20
527.01	52685.46
527.18	52442.04
527.36	52816.53
527.53	53050.58
527.70	53078.67
527.87	53265.91
528.04	52982.71
528.21	53071.65
528.38	53219.10
528.55	53434.43
528.72	53249.53
528.89	53375.92
529.07	53249.53
529.24	53263.57
529.41	53359.53
529.58	53567.84
529.75	53619.33
529.92	53305.70
530.09	53703.59
530.26	53757.42
530.43	54045.31
530.60	53525.71
530.77	53624.01
530.94	54080.42
531.11	53741.04
531.28	54103.82
531.46	54124.89
531.63	54241.92
531.80	54169.36
531.97	54225.53
532.14	54120.21
532.31	54028.93
532.48	54450.22
532.65	54323.83
532.82	54401.07
532.99	54405.75
533.16	54354.26
533.33	54630.44
533.50	54740.45
533.67	54808.32
533.84	54227.87
534.01	54841.09
534.18	54932.37
534.35	55061.10
534.52	54871.52
534.69	54979.18
534.86	55091.53
535.03	54794.28
535.20	55133.66
535.37	55089.19
535.54	55267.07
535.71	54824.71
535.88	55028.34
536.05	55339.63
536.22	55505.80
536.38	55283.45
536.55	55496.44
536.72	55545.59
536.89	55590.06
537.06	55395.80
537.23	55430.91
537.40	55344.31
537.57	55426.23
537.74	55592.40
537.91	56058.17
538.08	55693.05
538.25	55545.59
538.42	55767.94
538.59	55814.76
538.75	55664.96
538.92	55950.51
539.09	56112.00
539.26	55842.84
539.43	55835.82
539.60	56203.28
539.77	55894.33
539.94	56268.82
540.11	56067.53
540.28	56371.80
540.44	56437.34
540.61	56100.30
540.78	56254.78
540.95	56294.56
541.12	56273.50
541.29	56130.73
541.46	56254.78
541.62	56214.99
541.79	56432.66
541.96	56254.78
542.13	56418.61
542.30	56582.45
542.47	56626.92
542.63	56692.46
542.80	56743.95
542.97	56879.70
543.14	56919.49
543.31	56959.28
543.48	57125.46
543.64	57394.62
543.81	57331.42
543.98	57085.67
544.15	57221.42
544.32	57279.93
544.48	57453.13
544.65	57242.48
544.82	57340.78
544.99	57148.86
545.16	57499.94
545.32	57286.95
545.49	57628.67
545.66	57544.41
545.83	57378.23
546.00	57776.12
546.16	57485.90
546.33	57429.72
546.50	57298.65
546.67	57698.89
546.83	57387.60
547.00	57804.21
547.17	57460.15
547.34	57450.79
547.50	57663.78
547.67	57946.98
547.84	57876.77
548.00	57907.19
548.17	58122.52
548.34	57951.66
548.51	58056.99
548.67	58108.48
548.84	57874.43
549.01	57921.24
549.18	57975.07
549.34	57876.77
549.51	58216.14
549.68	58284.02
549.84	58323.81
550.01	58475.94
550.18	58169.33
550.34	58321.47
550.51	58326.15
550.68	58136.57
550.84	58216.14
551.01	58412.75
551.18	58244.23
551.34	58218.49
551.51	58562.54
551.68	58417.43
551.84	58635.10
552.01	58475.94
552.18	58398.71
552.34	58365.94
552.51	58438.50
552.68	58237.21
552.84	58560.20
553.01	58930.01
553.18	58705.32
553.34	58791.92
553.51	58349.56
553.67	58827.02
553.84	58766.17
554.01	58904.26
554.17	58967.46
554.34	58855.11
554.51	58925.33
554.67	58922.99
554.84	58834.05
555.00	58976.82
555.17	58836.39
555.33	58852.77
555.50	58752.13
555.67	58749.79
555.83	58927.67
556.00	58803.62
556.16	59140.66
556.33	59063.42
556.50	58780.21
556.66	59327.90
556.83	58871.49
556.99	59320.88
557.16	59435.56
557.32	59428.54
557.49	59484.72
557.65	59028.31
557.82	59257.68
557.98	59309.18
558.15	59243.64
558.32	59344.28
558.48	59236.62
558.65	59398.12
558.81	59475.35
558.98	59398.12
559.14	59688.34
559.31	59505.78
559.47	59346.62
559.64	59543.23
559.80	59639.19
559.97	59613.44
560.13	59435.56
560.30	59508.12
560.46	59498.76
560.63	59484.72
560.79	59601.74
560.96	59821.75
561.12	59765.58
561.29	59597.06
561.45	59461.31
561.61	59482.37
561.78	59604.08
561.94	59358.33
562.11	59709.41
562.27	59863.88
562.44	59880.27
562.60	59997.29
562.77	59901.33
562.93	59678.98
563.10	59983.25
563.26	59774.94
563.42	59903.67
563.59	59884.95
563.75	59838.14
563.92	59891.97
564.08	59807.71
564.24	60111.98
564.41	59875.58
564.57	60060.49
564.74	60025.38
564.90	59915.37
565.07	59873.24
565.23	59927.08
565.39	59992.61
565.56	60144.75
565.72	60151.77
565.88	60018.36
566.05	60044.10
566.21	59774.94
566.38	59980.91
566.54	60207.94
566.70	60317.95
566.87	60350.71
567.03	60236.03
567.19	60566.04
567.36	60048.78
567.52	60102.62
567.68	60388.16
567.85	60191.56
568.01	60196.24
568.17	60175.17
568.34	60425.61
568.50	60418.59
568.66	60247.73
568.83	60406.89
568.99	60193.90
569.15	60357.74
569.32	60341.35
569.48	60191.56
569.64	60418.59
569.81	60383.48
569.97	60126.02
570.13	60282.84
570.30	60203.26
570.46	60193.90
570.62	60327.31
570.78	60362.42
570.95	60327.31
571.11	60322.63
571.27	60226.66
571.43	60292.20
571.60	60584.77
571.76	60460.72
571.92	60388.16
572.09	60364.76
572.25	60528.59
572.41	60357.74
572.57	60189.22
572.74	60617.53
572.90	60369.44
573.06	60472.42
573.22	60465.40
573.38	60535.62
573.55	60493.49
573.71	60697.11
573.87	60554.34
574.03	60364.76
574.20	60673.71
574.36	60257.09
574.52	60631.58
574.68	60683.07
574.84	60610.51
575.01	60659.66
575.17	60437.31
575.33	60664.35
575.49	60687.75
575.65	60647.96
575.82	60640.94
575.98	60697.11
576.14	60594.13
576.30	60732.22
576.46	60652.64
576.62	60430.29
576.79	60725.20
576.95	60587.11
577.11	60683.07
577.27	60690.09
577.43	60921.80
577.59	60739.24
577.75	60734.56
577.92	60615.19
578.08	60601.15
578.24	60666.69
578.40	60970.96
578.56	60753.29
578.72	60659.66
578.88	60889.04
579.04	60500.51
579.21	61073.94
579.37	60783.71
579.53	60769.67
579.69	60528.59
579.85	60736.90
580.01	60598.81
580.17	60540.30
580.33	60839.89
580.49	60985.00
580.65	60797.76
580.82	60748.60
580.98	60631.58
581.14	60900.74
581.30	60893.72
581.46	60659.66
581.62	60846.91
581.78	60860.95
581.94	60835.20
582.10	60678.39
582.26	60807.12
582.42	60743.92
582.58	60982.66
582.74	60907.76
582.90	60664.35
583.06	60996.70
583.22	60767.33
583.38	60837.54
583.54	60750.94
583.70	60741.58
583.86	60842.23
584.02	60697.11
584.18	60860.95
584.34	60781.37
584.50	60764.99
584.66	60750.94
584.82	60591.79
584.98	61064.58
585.14	60919.46
585.30	60617.53
585.46	60919.46
585.62	61029.47
585.78	61066.92
585.94	60619.88
586.10	60992.02
586.26	60912.44
586.42	60975.64
586.58	60956.91
586.74	60865.63
586.90	60992.02
587.06	60921.80
587.22	60830.52
587.38	60985.00
587.54	61118.41
587.70	61085.64
587.86	61059.90
588.02	60889.04
588.18	60987.34
588.34	60793.07
588.49	60992.02
