SpectraSuite Data File
++++++++++++++++++++++++++++++++++++
Date: Fri Oct 25 11:23:51 EDT 2013
User: price-jones
Dark Spectrum Present: No
Reference Spectrum Present: No
Number of Sampled Component Spectra: 1
Spectrometers: USB2+H05261
Integration Time (usec): 100000 (USB2+H05261)
Spectra Averaged: 1 (USB2+H05261)
Boxcar Smoothing: 0 (USB2+H05261)
Correct for Electrical Dark: No (USB2+H05261)
Strobe/Lamp Enabled: No (USB2+H05261)
Correct for Detector Non-linearity: No (USB2+H05261)
Correct for Stray Light: No (USB2+H05261)
Number of Pixels in Processed Spectrum: 2048
>>>>>Begin Processed Spectral Data<<<<<
365.73	290.23
365.92	290.23
366.12	290.23
366.32	138.09
366.52	114.69
366.72	84.26
366.91	133.41
367.11	131.07
367.31	117.03
367.51	175.54
367.70	49.15
367.90	88.94
368.10	156.82
368.30	119.37
368.49	145.11
368.69	145.11
368.89	264.48
369.09	156.82
369.28	177.88
369.48	102.98
369.68	210.65
369.87	210.65
370.07	248.10
370.27	187.24
370.47	344.06
370.66	566.41
370.86	655.35
371.06	674.07
371.25	690.46
371.45	685.78
371.65	660.03
371.84	629.60
372.04	793.44
372.24	741.95
372.44	746.63
372.63	697.48
372.83	748.97
373.03	713.86
373.22	779.40
373.42	748.97
373.62	634.29
373.81	788.76
374.01	898.77
374.21	823.87
374.40	781.74
374.60	802.80
374.79	765.36
374.99	772.38
375.19	823.87
375.38	828.55
375.58	826.21
375.78	802.80
375.97	896.43
376.17	919.83
376.37	889.40
376.56	849.61
376.76	842.59
376.95	809.83
377.15	887.06
377.35	901.11
377.54	847.27
377.74	887.06
377.93	922.17
378.13	968.98
378.33	973.66
378.52	1004.09
378.72	961.96
378.91	964.30
379.11	929.19
379.31	994.73
379.50	980.68
379.70	1001.75
379.89	1022.81
380.09	959.62
380.28	968.98
380.48	1022.81
380.68	1004.09
380.87	1057.92
381.07	1004.09
381.26	999.41
381.46	936.21
381.65	1062.60
381.85	1062.60
382.04	1022.81
382.24	1057.92
382.43	1008.77
382.63	1057.92
382.83	971.32
383.02	1130.48
383.22	1022.81
383.41	1020.47
383.61	1074.31
383.80	1121.12
384.00	1116.44
384.19	1146.86
384.39	1116.44
384.58	1137.50
384.78	1076.65
384.97	1191.33
385.17	1219.42
385.36	1135.16
385.56	1137.50
385.75	1228.78
385.95	1149.20
386.14	1097.71
386.34	1219.42
386.53	1205.38
386.72	1160.91
386.92	1324.74
387.11	1308.36
387.31	1233.46
387.50	1221.76
387.70	1315.38
387.89	1268.57
388.09	1331.76
388.28	1299.00
388.48	1245.16
388.67	1387.94
388.86	1296.66
389.06	1350.49
389.25	1320.06
389.45	1327.08
389.64	1406.66
389.84	1366.87
390.03	1362.19
390.22	1350.49
390.42	1418.36
390.61	1359.85
390.81	1383.26
391.00	1324.74
391.19	1376.24
391.39	1453.47
391.58	1404.32
391.78	1483.90
391.97	1441.77
392.16	1493.26
392.36	1526.03
392.55	1549.43
392.75	1472.20
392.94	1483.90
393.13	1474.54
393.33	1526.03
393.52	1600.93
393.71	1624.33
393.91	1495.60
394.10	1610.29
394.29	1533.05
394.49	1561.14
394.68	1647.74
394.88	1591.56
395.07	1746.04
395.26	1757.74
395.46	1795.19
395.65	1710.93
395.84	1713.27
396.04	1790.51
396.23	1769.44
396.42	1774.13
396.62	1687.53
396.81	1795.19
397.00	1760.08
397.19	1771.79
397.39	1788.17
397.58	1851.36
397.77	1867.75
397.97	1851.36
398.16	1891.15
398.35	1954.35
398.55	1919.24
398.74	1949.67
398.93	1902.86
399.12	1825.62
399.32	1872.43
399.51	1973.07
399.70	2094.78
399.90	1905.20
400.09	2040.95
400.28	2069.03
400.47	2054.99
400.67	2005.84
400.86	2054.99
401.05	2232.87
401.24	2146.27
401.44	2099.46
401.63	2122.87
401.82	2040.95
402.01	2188.40
402.21	2092.44
402.40	2176.70
402.59	2251.60
402.78	2260.96
402.97	2225.85
403.17	2286.70
403.36	2303.09
403.55	2246.91
403.74	2373.30
403.93	2265.64
404.13	2394.37
404.32	2347.56
404.51	2427.14
404.70	2392.03
404.89	2417.77
405.09	2581.61
405.28	2441.18
405.47	2431.82
405.66	2492.67
405.85	2492.67
406.05	2504.37
406.24	2534.80
406.43	2593.31
406.62	2712.68
406.81	2710.34
407.00	2523.10
407.20	2548.84
407.39	2614.38
407.58	2609.70
407.77	2708.00
407.96	2885.88
408.15	2754.81
408.34	2672.89
408.54	2815.66
408.73	2829.71
408.92	2881.20
409.11	2850.77
409.30	2937.37
409.49	2984.18
409.68	2986.52
409.87	2930.35
410.07	3033.33
410.26	2942.05
410.45	3052.06
410.64	3040.36
410.83	3091.85
411.02	3103.55
411.21	3173.77
411.40	3204.19
411.59	3321.22
411.78	3213.56
411.98	3295.47
412.17	3176.11
412.36	3290.79
412.55	3412.50
412.74	3342.28
412.93	3410.16
413.12	3316.54
413.31	3581.02
413.50	3438.25
413.69	3564.64
413.88	3665.28
414.07	3550.59
414.26	3653.58
414.45	3726.13
414.64	3676.98
414.83	3801.03
415.02	3721.45
415.22	3892.31
415.41	3889.97
415.60	3885.29
415.79	3810.39
415.98	3988.27
416.17	4046.79
416.36	3988.27
416.55	3932.10
416.74	4072.53
416.93	3946.14
417.12	4028.06
417.31	4156.79
417.50	4147.43
417.69	4255.09
417.88	4374.46
418.07	4219.99
418.26	4210.62
418.45	4252.75
418.64	4566.39
418.83	4409.57
419.02	4535.96
419.21	4503.19
419.39	4629.58
419.58	4493.83
419.77	4531.28
419.96	4669.37
420.15	4631.92
420.34	4662.35
420.53	4568.73
420.72	4744.27
420.91	4720.86
421.10	4669.37
421.29	4807.46
421.48	4821.50
421.67	4842.57
421.86	4870.65
422.05	4847.25
422.24	4751.29
422.43	4870.65
422.61	4884.70
422.80	4847.25
422.99	4997.04
423.18	5015.77
423.37	5067.26
423.56	5022.79
423.75	4908.10
423.94	4833.21
424.13	4774.69
424.32	4706.82
424.50	5060.24
424.69	5186.63
424.88	5053.22
425.07	4933.85
425.26	5006.41
425.45	4968.96
425.64	5022.79
425.83	4997.04
426.01	4936.19
426.20	5135.14
426.39	4933.85
426.58	5104.71
426.77	5085.98
426.96	5114.07
427.15	5142.16
427.33	5224.08
427.52	5205.35
427.71	5160.88
427.90	5224.08
428.09	5423.02
428.28	5399.62
428.46	5401.96
428.65	5324.72
428.84	5357.49
429.03	5390.25
429.22	5336.42
429.40	5526.00
429.59	5460.47
429.78	5310.68
429.97	5242.80
430.16	5521.32
430.34	5612.60
430.53	5645.37
430.72	5776.44
430.91	5591.54
431.10	5614.95
431.28	5769.42
431.47	5849.00
431.66	5806.87
431.85	5717.93
432.03	6061.99
432.22	5933.26
432.41	5951.98
432.60	5921.56
432.79	6076.03
432.97	5987.09
433.16	6050.28
433.35	5928.58
433.54	6118.16
433.72	6150.93
433.91	6125.18
434.10	6251.57
434.28	6010.50
434.47	6186.04
434.66	6204.76
434.85	6326.47
435.03	6328.81
435.22	6354.55
435.41	6562.86
435.59	6256.25
435.78	6513.71
435.97	6466.90
436.16	6478.60
436.34	6392.00
436.53	6623.72
436.72	6785.21
436.90	6518.39
437.09	6593.29
437.28	6551.16
437.46	6841.39
437.65	6642.44
437.84	6799.26
438.02	6623.72
438.21	6778.19
438.40	6691.59
438.58	6944.37
438.77	7108.21
438.96	6888.20
439.14	7124.59
439.33	7162.04
439.52	7258.00
439.70	7180.76
439.89	7351.62
440.08	7234.60
440.26	7389.07
440.45	7419.50
440.63	7534.18
440.82	7801.01
441.01	7520.14
441.19	7658.23
441.38	7721.43
441.57	7611.42
441.75	7833.77
441.94	7845.48
442.12	8079.53
442.31	8056.12
442.50	8035.06
442.68	7969.52
442.87	8091.23
443.05	8224.64
443.24	8222.30
443.43	8257.41
443.61	8393.16
443.80	8264.43
443.98	8124.00
444.17	7964.84
444.35	8046.76
444.54	8400.18
444.73	8271.45
444.91	8374.44
445.10	8360.39
445.28	8315.92
445.47	8198.90
445.65	8397.84
445.84	8641.26
446.02	8585.08
446.21	8294.86
446.39	8393.16
446.58	8540.61
446.77	8517.21
446.95	8121.66
447.14	8454.02
447.32	8430.61
447.51	8739.56
447.69	8512.53
447.88	8643.60
448.06	8580.40
448.25	8542.96
448.43	8650.62
448.62	8524.23
448.80	8664.66
448.99	8650.62
449.17	8786.37
449.36	8816.80
449.54	8879.99
449.73	9125.75
449.91	9142.13
450.10	8999.36
450.28	9191.28
450.46	9153.84
450.65	9062.55
450.83	9022.77
451.02	9137.45
451.20	9008.72
451.39	9128.09
451.57	9116.39
451.76	9139.79
451.94	9125.75
452.13	9254.48
452.31	9408.95
452.49	9406.61
452.68	9305.97
452.86	9284.91
453.05	9589.17
453.23	9703.86
453.42	9376.19
453.60	9366.82
453.78	9451.08
453.97	9483.85
454.15	9572.79
454.34	9493.21
454.52	9703.86
454.70	9626.62
454.89	9935.57
455.07	9610.24
455.26	10054.94
455.44	9884.08
455.62	9745.99
455.81	9877.06
455.99	10068.98
456.17	10057.28
456.36	10120.48
456.54	10073.67
456.73	10258.57
456.91	10279.63
457.09	10595.61
457.28	10541.77
457.46	10513.69
457.64	10537.09
457.83	10471.56
458.01	10525.39
458.19	10775.83
458.38	10520.71
458.56	10705.61
458.74	10593.26
458.93	10745.40
459.11	10593.26
459.29	10827.32
459.48	10827.32
459.66	10822.64
459.84	10995.84
460.03	10925.62
460.21	11253.30
460.39	11052.01
460.57	11140.95
460.76	11019.24
460.94	11297.77
461.12	11475.65
461.31	11257.98
461.49	11314.15
461.67	11194.78
461.85	11576.29
462.04	11414.79
462.22	11477.99
462.40	11536.50
462.59	11550.54
462.77	11534.16
462.95	11688.64
463.13	11665.23
463.32	11751.83
463.50	11918.01
463.68	11800.98
463.86	11971.84
464.05	11873.54
464.23	11819.71
464.41	11878.22
464.59	11459.26
464.78	11920.35
464.96	12081.85
465.14	11955.46
465.32	12023.33
465.50	11936.73
465.69	12306.54
465.87	12353.35
466.05	12430.59
466.23	12208.23
466.41	12484.42
466.60	12645.91
466.78	12013.97
466.96	12226.96
467.14	12269.09
467.32	12343.99
467.51	12606.13
467.69	12147.38
467.87	12622.51
468.05	12727.83
468.23	12322.92
468.41	12395.48
468.60	12566.34
468.78	12498.46
468.96	12601.44
469.14	12699.75
469.32	13114.02
469.50	12730.17
469.69	12746.56
469.87	13205.30
470.05	13303.60
470.23	13088.28
470.41	13202.96
470.59	13394.89
470.77	13322.33
470.95	13319.99
471.14	13769.37
471.32	13238.07
471.50	13532.98
471.68	13680.43
471.86	13778.73
472.04	13542.34
472.22	14232.80
472.40	13783.41
472.58	13947.25
472.77	14043.21
472.95	14120.45
473.13	14630.69
473.31	13767.03
473.49	14141.52
473.67	14005.77
473.85	14333.44
474.03	14668.14
474.21	14733.67
474.39	14628.35
474.57	14532.39
474.75	15080.07
474.93	15063.69
475.12	15009.86
475.30	15269.66
475.48	15339.87
475.66	15126.88
475.84	15360.94
476.02	15410.09
476.20	15272.00
476.38	15641.80
476.56	16046.71
476.74	16177.78
476.92	15742.44
477.10	15988.20
477.28	16116.93
477.46	16177.78
477.64	16374.39
477.82	16624.83
478.00	16713.77
478.18	16741.85
478.36	17331.67
478.54	17305.92
478.72	17153.79
478.90	17476.78
479.08	17516.57
479.26	17872.33
479.44	17902.76
479.62	18047.87
479.80	18434.06
479.98	18218.73
480.16	18558.11
480.34	18218.73
480.52	18663.43
480.70	18862.38
480.88	18398.95
481.06	18967.70
481.24	18913.87
481.41	19068.34
481.59	19398.36
481.77	19730.72
481.95	19641.78
482.13	19744.76
482.31	19864.13
482.49	20236.27
482.67	20510.11
482.85	20477.35
483.03	20753.53
483.21	21025.03
483.39	21357.39
483.57	21149.08
483.74	21039.08
483.92	21247.38
484.10	21504.84
484.28	21380.79
484.46	21855.92
484.64	22309.99
484.82	22104.02
485.00	22565.10
485.18	22904.48
485.35	23084.70
485.53	22829.59
485.71	23159.60
485.89	23648.77
486.07	23400.68
486.25	23564.51
486.43	23571.54
486.61	23894.53
486.78	23840.70
486.96	24313.48
487.14	25053.09
487.32	24657.54
487.50	24835.42
487.68	25296.51
487.85	25268.42
488.03	25666.31
488.21	25900.37
488.39	26125.06
488.57	26539.33
488.75	26263.15
488.92	26562.74
489.10	26862.33
489.28	26934.88
489.46	27253.20
489.64	27070.64
489.81	28004.51
489.99	27667.47
490.17	27709.60
490.35	27988.13
490.53	28182.39
490.70	28641.14
490.88	28060.68
491.06	28718.37
491.24	29024.98
491.41	29270.74
491.59	29153.71
491.77	29624.16
491.95	29963.54
492.13	29752.89
492.30	30272.49
492.48	30316.96
492.66	30621.23
492.84	30665.70
493.01	30892.73
493.19	31068.27
493.37	31126.78
493.54	31199.34
493.72	31852.35
493.90	31732.98
494.08	31576.17
494.25	31948.31
494.43	32107.47
494.61	32430.46
494.79	32491.32
494.96	32549.83
495.14	33003.89
495.32	33558.60
495.49	33174.75
495.67	33546.90
495.85	33223.90
496.02	34195.23
496.20	34307.57
496.38	34040.75
496.55	34305.23
496.73	34932.50
496.91	34602.48
497.09	35047.18
497.26	35182.93
497.44	34946.54
497.62	35377.20
497.79	35789.13
497.97	35889.77
498.14	35681.47
498.32	36315.75
498.50	36584.91
498.67	36683.22
498.85	36519.38
499.03	36893.86
499.20	36849.39
499.38	36928.97
499.56	37177.07
499.73	37160.69
499.91	37202.82
500.08	37383.04
500.26	37528.15
500.44	37883.91
500.61	38146.05
500.79	38183.50
500.97	38277.12
501.14	39194.61
501.32	38738.21
501.49	38794.38
501.67	39042.48
501.84	38888.00
502.02	39070.56
502.20	39440.37
502.37	39318.66
502.55	39044.82
502.72	39587.82
502.90	39658.04
503.07	39744.64
503.25	40285.30
503.43	40062.95
503.60	40559.14
503.78	40652.76
503.95	41053.00
504.13	40423.39
504.30	40931.29
504.48	40811.92
504.65	41172.36
504.83	41406.42
505.01	41273.01
505.18	41411.10
505.36	41677.92
505.53	41394.71
505.71	41581.96
505.88	41750.48
506.06	41872.18
506.23	42099.22
506.41	42115.60
506.58	42286.46
506.76	42286.46
506.93	42691.37
507.11	42689.03
507.28	42588.39
507.46	42909.04
507.63	42932.45
507.81	43201.61
507.98	43070.54
508.16	43168.84
508.33	43276.51
508.50	43817.17
508.68	43594.82
508.85	44151.87
509.03	44067.61
509.20	44397.62
509.38	44528.69
509.55	44891.48
509.73	44772.11
509.90	44760.40
510.08	44807.22
510.25	44617.63
510.42	44573.16
510.60	45256.60
510.77	45357.24
510.95	45729.39
511.12	45315.11
511.30	45221.49
511.47	45750.45
511.64	45895.56
511.82	46241.96
511.99	45645.13
512.17	46291.12
512.34	46155.36
512.51	46492.40
512.69	46997.96
512.86	46759.22
513.04	47140.73
513.21	46373.03
513.38	46752.20
513.56	47012.00
513.73	46890.29
513.90	47065.83
514.08	46803.69
514.25	47264.78
514.43	47555.00
514.60	47702.46
514.77	47625.22
514.95	47728.20
515.12	47594.79
515.29	47973.96
515.47	47952.90
515.64	48282.91
515.81	47889.70
515.99	47973.96
516.16	48432.71
516.33	48612.93
516.51	49017.84
516.68	48582.50
516.85	48617.61
517.03	49057.63
517.20	49385.30
517.37	48821.23
517.54	48870.39
517.72	49418.07
517.89	49418.07
518.06	49221.47
518.24	49397.01
518.41	49242.53
518.58	49593.61
518.75	49642.76
518.93	49783.19
519.10	50089.80
519.27	50019.59
519.45	49691.91
519.62	50190.45
519.79	50141.30
519.96	50087.46
520.14	50703.03
520.31	50253.64
520.48	50426.84
520.65	50595.36
520.83	50897.29
521.00	50862.18
521.17	50604.72
521.34	50960.48
521.52	50906.65
521.69	50836.44
521.86	51180.49
522.03	51309.22
522.20	51269.43
522.38	51805.42
522.55	51901.38
522.72	51634.56
522.89	51716.48
523.07	51730.52
523.24	51613.49
523.41	51920.10
523.58	51789.03
523.75	51927.13
523.92	51885.00
524.10	51983.30
524.27	52243.10
524.44	52392.89
524.61	52310.97
524.78	52383.53
524.96	52130.75
525.13	52388.21
525.30	52640.99
525.47	52713.55
525.64	52652.69
525.81	52612.90
525.98	52868.02
526.16	52575.45
526.33	53010.79
526.50	52982.71
526.67	52849.30
526.84	53158.25
527.01	52945.26
527.18	53062.29
527.36	52971.00
527.53	53172.29
527.70	53563.16
527.87	53506.99
528.04	53174.63
528.21	53668.48
528.38	53556.14
528.55	53731.68
528.72	53357.19
528.89	53542.10
529.07	53762.11
529.24	53504.65
529.41	54160.00
529.58	53647.42
529.75	53879.13
529.92	53801.89
530.09	54073.40
530.26	54136.59
530.43	54145.95
530.60	54021.90
530.77	53586.57
530.94	54281.70
531.11	53762.11
531.28	54246.60
531.46	54260.64
531.63	54431.50
531.80	54436.18
531.97	54396.39
532.14	54824.71
532.31	54747.47
532.48	54880.88
532.65	54707.68
532.82	54794.28
532.99	54801.30
533.16	54738.11
533.33	54700.66
533.50	55311.54
533.67	55126.64
533.84	54672.57
534.01	55023.65
534.18	54965.14
534.35	55426.23
534.52	55234.30
534.69	55203.88
534.86	55220.26
535.03	55178.13
535.20	55318.56
535.37	55491.76
535.54	55430.91
535.71	55159.41
535.88	55688.37
536.05	55267.07
536.22	55505.80
536.38	55814.76
536.55	55557.30
536.72	55758.58
536.89	55674.32
537.06	55803.05
537.23	55786.67
537.40	55828.80
537.57	55732.84
537.74	55978.59
537.91	55957.53
538.08	56154.13
538.25	55980.93
538.42	56013.70
538.59	56243.07
538.75	56119.02
538.92	56030.08
539.09	56296.91
539.26	56376.48
539.43	56327.33
539.60	56367.12
539.77	56275.84
539.94	56500.53
540.11	56390.53
540.28	56554.36
540.44	56666.71
540.61	56456.06
540.78	56467.76
540.95	56399.89
541.12	56324.99
541.29	56655.01
541.46	56594.15
541.62	56711.18
541.79	56823.53
541.96	56521.60
542.13	56619.90
542.30	56605.86
542.47	56919.49
542.63	56865.66
542.80	56825.87
542.97	57207.37
543.14	57315.04
543.31	57176.95
543.48	57209.71
543.64	57549.09
543.81	57415.68
543.98	57485.90
544.15	57357.17
544.32	57787.83
544.48	57748.04
544.65	57696.55
544.82	57612.29
544.99	57439.09
545.16	57546.75
545.32	57642.71
545.49	57750.38
545.66	57858.04
545.83	57771.44
546.00	58073.37
546.16	57701.23
546.33	57516.32
546.50	57528.03
546.67	57883.79
546.83	57691.86
547.00	58045.29
547.17	58014.86
547.34	57937.62
547.50	58028.90
547.67	58141.25
547.84	58223.17
548.00	58337.85
548.17	58319.13
548.34	58340.19
548.51	58333.17
548.67	58466.58
548.84	58534.46
549.01	58340.19
549.18	58319.13
549.34	58508.71
549.51	58284.02
549.68	58534.46
549.84	58361.26
550.01	58401.05
550.18	58436.16
550.34	58653.82
550.51	58775.53
550.68	58405.73
550.84	58487.65
551.01	58740.42
551.18	58768.51
551.34	58656.17
551.51	58663.19
551.68	58623.40
551.84	58595.31
552.01	58621.06
552.18	58681.91
552.34	58642.12
552.51	58997.88
552.68	58670.21
552.84	58880.86
553.01	59178.10
553.18	59040.01
553.34	58803.62
553.51	58862.13
553.67	58756.81
553.84	59194.49
554.01	58983.84
554.17	59114.91
554.34	59208.53
554.51	59161.72
554.67	59227.26
554.84	59159.38
555.00	59206.19
555.17	59143.00
555.33	59234.28
555.50	58967.46
555.67	59124.27
555.83	59288.11
556.00	59257.68
556.16	59341.94
556.33	59505.78
556.50	59444.93
556.66	59355.99
556.83	59370.03
556.99	59463.65
557.16	59531.53
557.32	59451.95
557.49	59592.38
557.65	59133.63
557.82	59494.08
557.98	59594.72
558.15	59449.61
558.32	59891.97
558.48	59409.82
558.65	59716.43
558.81	59779.62
558.98	59884.95
559.14	59735.15
559.31	59700.04
559.47	59803.03
559.64	59877.93
559.80	59725.79
559.97	59763.24
560.13	59643.87
560.30	59976.23
560.46	59847.50
560.63	59875.58
560.79	59784.30
560.96	60025.38
561.12	59950.48
561.29	59990.27
561.45	60198.58
561.61	59934.10
561.78	59859.20
561.94	59805.37
562.11	59985.59
562.27	59999.63
562.44	59913.03
562.60	60198.58
562.77	60100.28
562.93	60100.28
563.10	60233.69
563.26	60114.32
563.42	60327.31
563.59	60238.37
563.75	60009.00
563.92	60292.20
564.08	60240.71
564.24	60287.52
564.41	60301.56
564.57	60245.39
564.74	60107.30
564.90	60247.73
565.07	60294.54
565.23	60336.67
565.39	60179.85
565.56	60411.57
565.72	60165.81
565.88	60268.79
566.05	60289.86
566.21	60292.20
566.38	60463.06
566.54	60322.63
566.70	60399.86
566.87	60465.40
567.03	60250.07
567.19	60385.82
567.36	60463.06
567.52	60474.76
567.68	60559.02
567.85	60406.89
568.01	60561.36
568.17	60303.90
568.34	60430.29
568.50	60474.76
568.66	60229.01
568.83	60395.18
568.99	60446.68
569.15	60512.21
569.32	60493.49
569.48	60491.15
569.64	60523.91
569.81	60575.40
569.97	60530.93
570.13	60523.91
570.30	60491.15
570.46	60718.18
570.62	60629.24
570.78	60544.98
570.95	60739.24
571.11	60790.73
571.27	60523.91
571.43	60547.32
571.60	60772.01
571.76	60608.17
571.92	60671.37
572.09	60566.04
572.25	60790.73
572.41	60921.80
572.57	60573.06
572.74	60678.39
572.90	60779.03
573.06	60736.90
573.22	60617.53
573.38	60816.48
573.55	60769.67
573.71	60959.25
573.87	60846.91
574.03	60734.56
574.20	60757.97
574.36	60757.97
574.52	60757.97
574.68	60975.64
574.84	60764.99
575.01	60821.16
575.17	60772.01
575.33	60793.07
575.49	60750.94
575.65	60870.31
575.82	61085.64
575.98	60917.12
576.14	60900.74
576.30	61151.18
576.46	60727.54
576.62	60942.87
576.79	60811.80
576.95	60790.73
577.11	60882.02
577.27	60999.04
577.43	60757.97
577.59	60807.12
577.75	60912.44
577.92	60788.39
578.08	60669.03
578.24	61031.81
578.40	61181.60
578.56	61038.83
578.72	60987.34
578.88	60996.70
579.04	61095.00
579.21	60928.83
579.37	61202.67
579.53	61272.88
579.69	60856.27
579.85	60959.25
580.01	60898.40
580.17	60722.86
580.33	61027.13
580.49	60807.12
580.65	61193.31
580.82	60985.00
580.98	61006.06
581.14	60818.82
581.30	61188.63
581.46	61097.34
581.62	61029.47
581.78	61134.79
581.94	61020.11
582.10	61052.87
582.26	60966.27
582.42	61226.07
582.58	60989.68
582.74	61104.37
582.90	60996.70
583.06	60992.02
583.22	60973.30
583.38	61064.58
583.54	61078.62
583.70	60994.36
583.86	61050.53
584.02	61099.68
584.18	60996.70
584.34	61174.58
584.50	61052.87
584.66	61146.50
584.82	60842.23
584.98	61279.91
585.14	61345.44
585.30	60886.70
585.46	60973.30
585.62	61165.22
585.78	61190.97
585.94	60917.12
586.10	61261.18
586.26	61197.99
586.42	61139.47
586.58	61282.25
586.74	61230.75
586.90	61263.52
587.06	61237.78
587.22	61284.59
587.38	61202.67
587.54	61251.82
587.70	61160.54
587.86	61197.99
588.02	61216.71
588.18	61249.48
588.34	61258.84
588.49	61188.63
