SpectraSuite Data File
++++++++++++++++++++++++++++++++++++
Date: Fri Oct 25 10:44:50 EDT 2013
User: price-jones
Dark Spectrum Present: No
Reference Spectrum Present: No
Number of Sampled Component Spectra: 1
Spectrometers: USB2+H05261
Integration Time (usec): 100000 (USB2+H05261)
Spectra Averaged: 1 (USB2+H05261)
Boxcar Smoothing: 0 (USB2+H05261)
Correct for Electrical Dark: No (USB2+H05261)
Strobe/Lamp Enabled: No (USB2+H05261)
Correct for Detector Non-linearity: No (USB2+H05261)
Correct for Stray Light: No (USB2+H05261)
Number of Pixels in Processed Spectrum: 2048
>>>>>Begin Processed Spectral Data<<<<<
365.73	159.16
365.92	159.16
366.12	159.16
366.32	11.70
366.52	11.70
366.72	0.00
366.91	44.47
367.11	32.77
367.31	53.83
367.51	58.51
367.70	30.43
367.90	0.00
368.10	79.58
368.30	7.02
368.49	2.34
368.69	105.32
368.89	74.90
369.09	0.00
369.28	21.06
369.48	23.41
369.68	95.96
369.87	18.72
370.07	102.98
370.27	184.90
370.47	212.99
370.66	404.91
370.86	315.97
371.06	423.64
371.25	440.02
371.45	400.23
371.65	383.85
371.84	397.89
372.04	411.93
372.24	472.79
372.44	461.09
372.63	493.85
372.83	503.22
373.03	442.36
373.22	461.09
373.42	475.13
373.62	475.13
373.81	458.74
374.01	535.98
374.21	512.58
374.40	489.17
374.60	477.47
374.79	564.07
374.99	510.24
375.19	479.81
375.38	596.84
375.58	552.37
375.78	629.60
375.97	606.20
376.17	550.03
376.37	653.01
376.56	566.41
376.76	622.58
376.95	519.60
377.15	585.13
377.35	636.63
377.54	671.73
377.74	557.05
377.93	568.75
378.13	636.63
378.33	650.67
378.52	629.60
378.72	685.78
378.91	554.71
379.11	589.82
379.31	613.22
379.50	601.52
379.70	727.91
379.89	662.37
380.09	662.37
380.28	664.71
380.48	653.01
380.68	683.44
380.87	613.22
381.07	690.46
381.26	758.33
381.46	697.48
381.65	664.71
381.85	627.26
382.04	613.22
382.24	638.97
382.43	643.65
382.63	681.10
382.83	636.63
383.02	737.27
383.22	678.76
383.41	624.92
383.61	683.44
383.80	737.27
384.00	702.16
384.19	741.95
384.39	763.01
384.58	758.33
384.78	690.46
384.97	706.84
385.17	760.67
385.36	723.23
385.56	727.91
385.75	744.29
385.95	739.61
386.14	730.25
386.34	683.44
386.53	753.65
386.72	791.10
386.92	870.68
387.11	774.72
387.31	744.29
387.50	793.44
387.70	828.55
387.89	861.32
388.09	753.65
388.28	826.21
388.48	805.14
388.67	835.57
388.86	826.21
389.06	802.80
389.25	847.27
389.45	835.57
389.64	861.32
389.84	945.58
390.03	905.79
390.22	926.85
390.42	894.08
390.61	910.47
390.81	922.17
391.00	861.32
391.19	1015.79
391.39	880.04
391.58	945.58
391.78	910.47
391.97	959.62
392.16	940.90
392.36	903.45
392.55	940.90
392.75	912.81
392.94	903.45
393.13	994.73
393.33	844.93
393.52	973.66
393.71	943.24
393.91	1071.97
394.10	1081.33
394.29	1029.84
394.49	1018.13
394.68	1177.29
394.88	1111.75
395.07	1142.18
395.26	1165.59
395.46	1053.24
395.65	1121.12
395.84	1142.18
396.04	1135.16
396.23	1135.16
396.42	1177.29
396.62	1064.94
396.81	1156.22
397.00	1060.26
397.19	1172.61
397.39	1156.22
397.58	1299.00
397.77	1350.49
397.97	1249.85
398.16	1256.87
398.35	1306.02
398.55	1355.17
398.74	1373.89
398.93	1343.47
399.12	1280.27
399.32	1287.29
399.51	1378.58
399.70	1465.18
399.90	1341.13
400.09	1394.96
400.28	1362.19
400.47	1423.05
400.67	1416.02
400.86	1392.62
401.05	1411.34
401.24	1479.22
401.44	1535.39
401.63	1474.54
401.82	1530.71
402.01	1598.59
402.21	1516.67
402.40	1481.56
402.59	1448.79
402.78	1542.41
402.97	1544.75
403.17	1614.97
403.36	1514.33
403.55	1678.16
403.74	1643.06
403.93	1633.69
404.13	1715.61
404.32	1647.74
404.51	1507.30
404.70	1650.08
404.89	1647.74
405.09	1776.47
405.28	1678.16
405.47	1577.52
405.66	1654.76
405.85	1727.32
406.05	1785.83
406.24	1816.26
406.43	1769.44
406.62	1783.49
406.81	1898.17
407.00	1778.81
407.20	1774.13
407.39	1886.47
407.58	1944.99
407.77	1760.08
407.96	1970.73
408.15	1930.94
408.34	2010.52
408.54	1902.86
408.73	2019.88
408.92	2045.63
409.11	2036.27
409.30	2129.89
409.49	1914.56
409.68	1905.20
409.87	2019.88
410.07	2120.53
410.26	2118.18
410.45	2120.53
410.64	2237.55
410.83	2106.48
411.02	2132.23
411.21	2385.01
411.40	2279.68
411.59	2331.17
411.78	2359.26
411.98	2279.68
412.17	2413.09
412.36	2321.81
412.55	2392.03
412.74	2410.75
412.93	2420.11
413.12	2396.71
413.31	2485.65
413.50	2443.52
413.69	2518.42
413.88	2562.89
414.07	2605.02
414.26	2621.40
414.45	2588.63
414.64	2644.81
414.83	2640.12
415.02	2614.38
415.22	2616.72
415.41	2897.58
415.60	2757.15
415.79	2867.16
415.98	2932.69
416.17	2956.10
416.36	2862.48
416.55	2871.84
416.74	2825.03
416.93	2902.26
417.12	3016.95
417.31	2979.50
417.50	2958.44
417.69	3126.96
417.88	3157.38
418.07	3049.72
418.26	3124.62
418.45	3204.19
418.64	3103.55
418.83	3206.53
419.02	3194.83
419.21	3162.06
419.39	3248.66
419.58	3117.59
419.77	3150.36
419.96	3279.09
420.15	3307.18
420.34	3229.94
420.53	3421.86
420.72	3372.71
420.91	3375.05
421.10	3358.67
421.29	3489.74
421.48	3492.08
421.67	3566.98
421.86	3356.33
422.05	3365.69
422.24	3398.46
422.43	3529.53
422.61	3417.18
422.80	3452.29
422.99	3555.27
423.18	3557.61
423.37	3646.55
423.56	3447.61
423.75	3613.79
423.94	3473.36
424.13	3309.52
424.32	3435.91
424.50	3536.55
424.69	3541.23
424.88	3632.51
425.07	3545.91
425.26	3496.76
425.45	3562.30
425.64	3534.21
425.83	3641.87
426.01	3522.51
426.20	3531.87
426.39	3588.04
426.58	3719.11
426.77	3541.23
426.96	3473.36
427.15	3641.87
427.33	3681.66
427.52	3691.02
427.71	3805.71
427.90	3754.22
428.09	3730.81
428.28	3705.07
428.46	3784.65
428.65	3733.15
428.84	3733.15
429.03	3815.07
429.22	3777.62
429.40	3756.56
429.59	3712.09
429.78	3637.19
429.97	3726.13
430.16	3728.47
430.34	3789.33
430.53	3850.18
430.72	3871.25
430.91	3911.04
431.10	3941.46
431.28	4025.72
431.47	4245.73
431.66	4166.15
431.85	4222.33
432.03	4070.19
432.22	4205.94
432.41	4107.64
432.60	4156.79
432.79	4257.43
432.97	4388.50
433.16	4278.50
433.35	4149.77
433.54	4344.03
433.72	4208.28
433.91	4175.52
434.10	4318.29
434.28	4306.59
434.47	4353.40
434.66	4409.57
434.85	4470.42
435.03	4454.04
435.22	4550.00
435.41	4568.73
435.59	4559.36
435.78	4489.15
435.97	4620.22
436.16	4638.94
436.34	4599.15
436.53	4603.83
436.72	4730.22
436.90	4629.58
437.09	4753.63
437.28	4568.73
437.46	4498.51
437.65	4545.32
437.84	4760.65
438.02	4615.54
438.21	4762.99
438.40	4552.34
438.58	4826.18
438.77	4908.10
438.96	4957.25
439.14	5081.30
439.33	5046.20
439.52	5226.42
439.70	5018.11
439.89	5177.26
440.08	5095.35
440.26	5160.88
440.45	5177.26
440.63	5252.16
440.82	5331.74
441.01	5270.89
441.19	5425.36
441.38	5533.03
441.57	5448.77
441.75	5462.81
441.94	5600.90
442.12	5748.36
442.31	5788.14
442.50	5736.65
442.68	5647.71
442.87	5528.35
443.05	5757.72
443.24	5762.40
443.43	5790.49
443.61	5956.66
443.80	5994.11
443.98	5657.07
444.17	5645.37
444.35	5907.51
444.54	6012.84
444.73	5921.56
444.91	5832.62
445.10	5832.62
445.28	5647.71
445.47	5820.91
445.65	5746.02
445.84	5820.91
446.02	5923.90
446.21	5816.23
446.39	5884.11
446.58	6031.56
446.77	5912.19
446.95	5916.87
447.14	5926.24
447.32	6080.71
447.51	5944.96
447.69	6038.58
447.88	6136.88
448.06	5858.36
448.25	6005.81
448.43	5984.75
448.62	6015.18
448.80	5973.05
448.99	6097.10
449.17	6113.48
449.36	6125.18
449.54	6186.04
449.73	6221.14
449.91	6246.89
450.10	6417.75
450.28	6317.11
450.46	6382.64
450.65	6370.94
450.83	6551.16
451.02	6438.81
451.20	6597.97
451.39	6452.86
451.57	6513.71
451.76	6403.71
451.94	6452.86
452.13	6682.23
452.31	6560.52
452.49	6567.54
452.68	6246.89
452.86	6534.78
453.05	6441.15
453.23	6668.19
453.42	6520.73
453.60	6406.05
453.78	6644.78
453.97	6450.52
454.15	6712.66
454.34	6516.05
454.52	6986.50
454.70	6808.62
454.89	6876.49
455.07	6944.37
455.26	6794.58
455.44	6855.43
455.62	6902.24
455.81	6984.16
455.99	6993.52
456.17	6874.15
456.36	6925.65
456.54	7091.82
456.73	7199.49
456.91	7176.08
457.09	7229.91
457.28	7410.14
457.46	7272.04
457.64	7393.75
457.83	7344.60
458.01	7126.93
458.19	7431.20
458.38	7274.38
458.56	7370.35
458.74	7456.95
458.93	7389.07
459.11	7627.81
459.29	7592.70
459.48	7583.34
459.66	7337.58
459.84	7583.34
460.03	7756.54
460.21	7438.22
460.39	7590.36
460.57	7714.41
460.76	7705.04
460.94	7838.45
461.12	7662.91
461.31	7906.33
461.49	7688.66
461.67	7747.17
461.85	7941.44
462.04	7936.76
462.22	8030.38
462.40	8009.31
462.59	7786.96
462.77	8044.42
462.95	8119.32
463.13	8049.10
463.32	8081.87
463.50	8023.36
463.68	8205.92
463.86	8072.51
464.05	8252.73
464.23	7873.56
464.41	8182.51
464.59	7950.80
464.78	8372.10
464.96	8074.85
465.14	8222.30
465.32	8332.31
465.50	8421.25
465.69	8325.29
465.87	8297.20
466.05	8402.52
466.23	8276.13
466.41	8163.79
466.60	8557.00
466.78	8449.33
466.96	8549.98
467.14	8285.50
467.32	8564.02
467.51	8601.47
467.69	8416.57
467.87	8517.21
468.05	8704.45
468.23	8795.73
468.41	8620.19
468.60	8713.81
468.78	8596.79
468.96	8788.71
469.14	8676.37
469.32	8830.84
469.50	8580.40
469.69	8891.70
469.87	8767.65
470.05	9081.28
470.23	8966.59
470.41	8805.10
470.59	9067.24
470.77	8954.89
470.95	8894.04
471.14	9256.82
471.32	9022.77
471.50	9373.85
471.68	9254.48
471.86	9401.93
472.04	9448.74
472.22	9577.47
472.40	9401.93
472.58	9247.46
472.77	9399.59
472.95	9577.47
473.13	9949.62
473.31	9575.13
473.49	9338.74
473.67	9699.18
473.85	9736.63
474.03	9858.34
474.21	10153.24
474.39	9783.44
474.57	9898.13
474.75	9942.60
474.93	10258.57
475.12	10029.20
475.30	10202.40
475.48	9966.00
475.66	10113.45
475.84	10111.11
476.02	10333.47
476.20	10537.09
476.38	10611.99
476.56	10916.26
476.74	10972.43
476.92	10656.46
477.10	10747.74
477.28	11030.94
477.46	10829.66
477.64	10927.96
477.82	11246.27
478.00	11431.18
478.18	11192.44
478.36	11243.93
478.54	11414.79
478.72	11375.00
478.90	11728.42
479.08	11861.84
479.26	11803.32
479.44	11925.03
479.62	11950.78
479.80	12011.63
479.98	12285.47
480.16	12486.76
480.34	12322.92
480.52	12554.63
480.70	12540.59
480.88	12453.99
481.06	12659.96
481.24	12634.21
481.41	12795.71
481.59	13153.81
481.77	13032.10
481.95	13004.02
482.13	13116.36
482.31	13107.00
482.49	13722.56
482.67	13614.90
482.85	13799.80
483.03	13813.84
483.21	13778.73
483.39	13965.98
483.57	14075.98
483.74	13996.40
483.92	14335.78
484.10	14174.28
484.28	14314.72
484.46	14668.14
484.64	15154.97
484.82	14778.14
485.00	14572.18
485.18	14867.08
485.35	15300.08
485.53	15129.22
485.71	14836.66
485.89	15377.32
486.07	15122.20
486.25	15660.52
486.43	15632.44
486.61	15744.78
486.78	15770.53
486.96	15903.94
487.14	16137.99
487.32	16294.81
487.50	16596.74
487.68	16575.67
487.85	16554.61
488.03	17048.46
488.21	17067.19
488.39	16924.41
488.57	17247.41
488.75	17305.92
488.92	17474.44
489.10	17816.16
489.28	17867.65
489.46	17649.98
489.64	18073.62
489.81	18520.66
489.99	18506.62
490.17	18518.32
490.35	18728.97
490.53	18621.30
490.70	18824.93
490.88	18841.31
491.06	19346.87
491.24	18972.38
491.41	18960.68
491.59	19098.77
491.77	19321.12
491.95	19229.84
492.13	19590.28
492.30	19522.41
492.48	19634.75
492.66	20058.39
492.84	19845.40
493.01	20133.29
493.19	19971.79
493.37	20540.54
493.54	20425.86
493.72	20568.63
493.90	20638.84
494.08	20966.52
494.25	21376.11
494.43	21530.59
494.61	21439.31
494.79	21553.99
494.96	21570.38
495.14	21458.03
495.32	21790.39
495.49	21539.95
495.67	21956.57
495.85	22029.12
496.02	22108.70
496.20	22347.44
496.38	22361.48
496.55	22462.12
496.73	22778.09
496.91	22843.63
497.09	22951.29
497.26	23075.34
497.44	23154.92
497.62	23183.01
497.79	23365.57
497.97	23236.84
498.14	23716.65
498.32	23658.14
498.50	23407.70
498.67	23761.12
498.85	23836.02
499.03	24257.31
499.20	24086.45
499.38	24095.82
499.56	24425.83
499.73	24360.30
499.91	24112.20
500.08	24793.29
500.26	24360.30
500.44	24732.44
500.61	24507.75
500.79	24783.93
500.97	24788.61
501.14	25247.36
501.32	25333.96
501.49	25596.10
501.67	25238.00
501.84	25120.97
502.02	25385.45
502.20	25759.94
502.37	26038.46
502.55	25245.02
502.72	25743.55
502.90	25617.16
503.07	25820.79
503.25	26389.54
503.43	26181.23
503.60	26024.42
503.78	26267.83
503.95	26462.10
504.13	26333.37
504.30	26260.81
504.48	26635.30
504.65	26969.99
504.83	26471.46
505.01	27007.44
505.18	26897.44
505.36	27166.60
505.53	27126.81
505.71	27009.78
505.88	27110.43
506.06	27185.32
506.23	27721.30
506.41	27267.24
506.58	27648.75
506.76	27946.00
506.93	27793.86
507.11	27452.14
507.28	27641.73
507.46	27896.85
507.63	27721.30
507.81	28098.13
507.98	28065.36
508.16	28332.18
508.33	28425.81
508.50	28573.26
508.68	28383.68
508.85	29144.35
509.03	28765.18
509.20	29160.73
509.38	29111.58
509.55	28858.81
509.73	28669.22
509.90	29308.19
510.08	29282.44
510.25	29291.80
510.42	29284.78
510.60	29151.37
510.77	29659.27
510.95	29771.61
511.12	29535.22
511.30	29628.84
511.47	29841.83
511.64	29853.53
511.82	30391.86
511.99	30146.10
512.17	30511.22
512.34	30085.25
512.51	30450.37
512.69	30593.14
512.86	30529.95
513.04	30855.28
513.21	30572.08
513.38	30558.03
513.56	30981.67
513.73	30614.21
513.90	30941.88
514.08	30920.82
514.25	30883.37
514.43	31129.12
514.60	30885.71
514.77	31096.36
514.95	31660.43
515.12	31445.10
515.29	31248.49
515.47	31590.21
515.64	31936.61
515.81	31246.15
515.99	31667.45
516.16	31826.60
516.33	31613.62
516.51	31632.34
516.68	31487.23
516.85	31402.97
517.03	31440.42
517.20	32297.05
517.37	31737.66
517.54	31892.14
517.72	32130.87
517.89	31758.73
518.06	32371.95
518.24	32013.85
518.41	32215.13
518.58	32084.06
518.75	32552.17
518.93	32545.15
519.10	32697.28
519.27	32641.11
519.45	32786.22
519.62	32982.83
519.79	33055.39
519.96	33090.49
520.14	32982.83
520.31	33116.24
520.48	33193.48
520.65	33127.94
520.83	33539.88
521.00	33745.84
521.17	33834.78
521.34	33902.66
521.52	33680.31
521.69	33727.12
521.86	33860.53
522.03	33881.60
522.20	34110.97
522.38	34127.35
522.55	34422.26
522.72	34394.17
522.89	34375.45
523.07	34330.98
523.24	34616.52
523.41	34401.19
523.58	34412.90
523.75	35075.27
523.92	34925.47
524.10	35009.73
524.27	34497.16
524.44	34981.65
524.61	35290.60
524.78	35566.78
524.96	35370.18
525.13	35321.02
525.30	35510.61
525.47	35204.00
525.64	35431.03
525.81	35283.58
525.98	35421.67
526.16	35110.38
526.33	35084.63
526.50	35831.26
526.67	35241.45
526.84	35236.77
527.01	35204.00
527.18	35761.05
527.36	35931.90
527.53	35662.74
527.70	36264.26
527.87	36254.90
528.04	36191.70
528.21	36493.63
528.38	36610.66
528.55	36294.69
528.72	36755.77
528.89	36861.10
529.07	36301.71
529.24	36505.34
529.41	36091.06
529.58	36524.06
529.75	36437.46
529.92	36484.27
530.09	36395.33
530.26	36811.95
530.43	37064.72
530.60	36673.85
530.77	36980.46
530.94	36903.23
531.11	37188.77
531.28	36985.15
531.46	37085.79
531.63	37137.28
531.80	36856.42
531.97	37301.12
532.14	36938.33
532.31	37219.20
532.48	37202.82
532.65	37570.28
532.82	37551.56
532.99	37879.23
533.16	37514.11
533.33	37801.99
533.50	37867.53
533.67	38036.05
533.84	37626.45
534.01	37631.13
534.18	37467.30
534.35	38134.35
534.52	37626.45
534.69	38054.77
534.86	38223.29
535.03	38022.00
535.20	38548.62
535.37	38291.16
535.54	38735.87
535.71	38604.80
535.88	38129.67
536.05	38258.40
536.22	38164.78
536.38	38733.53
536.55	38518.20
536.72	38862.26
536.89	38405.85
537.06	38635.22
537.23	38845.87
537.40	38850.55
537.57	38703.10
537.74	38710.12
537.91	39175.89
538.08	39093.97
538.25	38639.90
538.42	38981.62
538.59	39168.87
538.75	38735.87
538.92	39133.76
539.09	39157.16
539.26	38932.47
539.43	38937.15
539.60	39070.56
539.77	38904.38
539.94	39129.08
540.11	39093.97
540.28	38965.24
540.44	39154.82
540.61	39119.71
540.78	39140.78
540.95	39573.78
541.12	39225.04
541.29	39548.03
541.46	39529.31
541.62	39709.53
541.79	40116.78
541.96	39365.47
542.13	39824.22
542.30	39697.83
542.47	40025.50
542.63	39871.03
542.80	39983.37
542.97	40247.85
543.14	40624.68
543.31	40430.41
543.48	40254.87
543.64	40973.42
543.81	40622.34
543.98	40636.38
544.15	40814.26
544.32	40858.73
544.48	40907.88
544.65	40919.59
544.82	40713.62
544.99	40921.93
545.16	40528.72
545.32	40610.64
545.49	41411.10
545.66	41116.19
545.83	40900.86
546.00	41078.74
546.16	40884.48
546.33	41069.38
546.50	40697.24
546.67	40975.76
546.83	40425.73
547.00	41284.71
547.17	40905.54
547.34	41038.95
547.50	41228.54
547.67	41771.54
547.84	41308.11
548.00	41661.54
548.17	41439.18
548.34	41511.74
548.51	42040.70
548.67	41642.81
548.84	41879.21
549.01	41207.47
549.18	41731.75
549.34	41617.07
549.51	41572.60
549.68	41556.21
549.84	41867.50
550.01	41869.84
550.18	41628.77
550.34	42087.51
550.51	41448.55
550.68	42057.09
550.84	41303.43
551.01	42335.61
551.18	42050.06
551.34	41764.52
551.51	41911.97
551.68	41724.73
551.84	42096.88
552.01	42195.18
552.18	42054.75
552.34	42122.62
552.51	42094.53
552.68	42478.38
552.84	42312.20
553.01	42136.66
553.18	42209.22
553.34	42403.49
553.51	42181.13
553.67	42490.09
553.84	42850.53
554.01	42405.83
554.17	42735.84
554.34	42808.40
554.51	42848.19
554.67	42611.79
554.84	42902.02
555.00	42656.26
555.17	42787.33
555.33	42270.08
555.50	42693.71
555.67	42892.66
555.83	42799.04
556.00	42997.98
556.16	43349.06
556.33	42899.68
556.50	42724.14
556.66	42967.55
556.83	42604.77
556.99	43292.89
557.16	43548.01
557.32	43330.34
557.49	43023.73
557.65	42653.92
557.82	43136.07
557.98	43199.27
558.15	43164.16
558.32	43501.20
558.48	42745.20
558.65	43178.20
558.81	42918.40
558.98	43166.50
559.14	43550.35
559.31	42932.45
559.47	43323.32
559.64	43466.09
559.80	43608.86
559.97	43070.54
560.13	43082.24
560.30	42848.19
560.46	43309.27
560.63	43536.30
560.79	43349.06
560.96	43800.79
561.12	43793.76
561.29	43639.29
561.45	43543.33
561.61	43400.55
561.78	43370.13
561.94	43370.13
562.11	43463.75
562.27	43356.08
562.44	43409.92
562.60	43597.16
562.77	43861.64
562.93	43655.67
563.10	43356.08
563.26	43187.56
563.42	43430.98
563.59	43508.22
563.75	43540.99
563.92	43758.66
564.08	43782.06
564.24	44027.82
564.41	43812.49
564.57	43739.93
564.74	43770.36
564.90	43784.40
565.07	43491.83
565.23	43927.17
565.39	43325.66
565.56	43978.67
565.72	43405.23
565.88	43494.18
566.05	44025.48
566.21	43826.53
566.38	44044.20
566.54	43524.60
566.70	43971.64
566.87	44002.07
567.03	43803.13
567.19	44039.52
567.36	44126.12
567.52	43828.87
567.68	44109.74
567.85	43683.76
568.01	44278.25
568.17	43805.47
568.34	43660.35
568.50	43852.28
568.66	44229.10
568.83	44219.74
568.99	43552.69
569.15	43922.49
569.32	44041.86
569.48	43576.09
569.64	43896.75
569.81	43800.79
569.97	44058.24
570.13	44154.21
570.30	43744.61
570.46	44034.84
570.62	43908.45
570.78	43849.94
570.95	43791.42
571.11	44706.57
571.27	43966.96
571.43	44460.82
571.60	43931.86
571.76	44086.33
571.92	44463.16
572.09	44051.22
572.25	44165.91
572.41	44130.80
572.57	44402.30
572.74	44374.22
572.90	44123.78
573.06	44498.26
573.22	44112.08
573.38	43938.88
573.55	43917.81
573.71	44383.58
573.87	44130.80
574.03	44238.47
574.20	44233.78
574.36	44062.93
574.52	44521.67
574.68	44367.20
574.84	44458.48
575.01	44168.25
575.17	44315.70
575.33	43653.33
575.49	44069.95
575.65	44451.45
575.82	44168.25
575.98	44619.97
576.14	44371.88
576.30	44275.91
576.46	44107.40
576.62	43924.83
576.79	44556.78
576.95	43936.54
577.11	44100.37
577.27	44652.74
577.43	44491.24
577.59	44172.93
577.75	44168.25
577.92	43889.73
578.08	44039.52
578.24	44046.54
578.40	44196.34
578.56	44451.45
578.72	44205.70
578.88	44364.85
579.04	44699.55
579.21	44692.53
579.37	43999.73
579.53	44638.70
579.69	43676.74
579.85	44664.44
580.01	44542.74
580.17	44397.62
580.33	44292.30
580.49	44046.54
580.65	44659.76
580.82	44243.15
580.98	44296.98
581.14	44114.42
581.30	44800.19
581.46	44870.41
581.62	44779.13
581.78	44488.90
581.94	44355.49
582.10	44421.03
582.26	44381.24
582.42	43945.90
582.58	44355.49
582.74	43988.03
582.90	44287.62
583.06	44734.66
583.22	44505.29
583.38	44690.19
583.54	44673.81
583.70	44566.14
583.86	44481.88
584.02	44397.62
584.18	44271.23
584.34	44304.00
584.50	44236.12
584.66	43908.45
584.82	43887.39
584.98	44615.29
585.14	44594.23
585.30	44027.82
585.46	44645.72
585.62	44622.31
585.78	44360.17
585.94	44414.01
586.10	44296.98
586.26	43901.43
586.42	44664.44
586.58	44919.56
586.74	44652.74
586.90	44563.80
587.06	44416.35
587.22	44645.72
587.38	44432.73
587.54	44608.27
587.70	44570.82
587.86	44367.20
588.02	44179.95
588.18	44849.35
588.34	44474.86
588.49	44250.17
588.65	44208.04
588.81	44233.78
588.97	44676.15
589.13	44769.77
589.29	44549.76
589.45	44657.42
589.61	44739.34
589.77	44591.89
589.93	44797.85
590.08	44493.58
590.24	44933.60
590.40	44945.31
