SpectraSuite Data File
++++++++++++++++++++++++++++++++++++
Date: Fri Oct 25 10:44:38 EDT 2013
User: price-jones
Dark Spectrum Present: No
Reference Spectrum Present: No
Number of Sampled Component Spectra: 1
Spectrometers: USB2+H05261
Integration Time (usec): 100000 (USB2+H05261)
Spectra Averaged: 1 (USB2+H05261)
Boxcar Smoothing: 0 (USB2+H05261)
Correct for Electrical Dark: No (USB2+H05261)
Strobe/Lamp Enabled: No (USB2+H05261)
Correct for Detector Non-linearity: No (USB2+H05261)
Correct for Stray Light: No (USB2+H05261)
Number of Pixels in Processed Spectrum: 2048
>>>>>Begin Processed Spectral Data<<<<<
365.73	220.01
365.92	220.01
366.12	220.01
366.32	0.00
366.52	0.00
366.72	2.34
366.91	81.92
367.11	14.04
367.31	0.00
367.51	0.00
367.70	37.45
367.90	84.26
368.10	4.68
368.30	11.70
368.49	9.36
368.69	60.85
368.89	74.90
369.09	4.68
369.28	93.62
369.48	14.04
369.68	30.43
369.87	39.79
370.07	88.94
370.27	159.16
370.47	140.43
370.66	311.29
370.86	428.32
371.06	411.93
371.25	369.80
371.45	383.85
371.65	472.79
371.84	465.77
372.04	528.96
372.24	416.62
372.44	435.34
372.63	454.06
372.83	416.62
373.03	430.66
373.22	428.32
373.42	463.43
373.62	517.26
373.81	430.66
374.01	550.03
374.21	559.39
374.40	479.81
374.60	514.92
374.79	608.54
374.99	550.03
375.19	561.73
375.38	641.31
375.58	547.69
375.78	582.79
375.97	559.39
376.17	543.00
376.37	575.77
376.56	589.82
376.76	552.37
376.95	547.69
377.15	629.60
377.35	641.31
377.54	641.31
377.74	662.37
377.93	521.94
378.13	624.92
378.33	669.39
378.52	648.33
378.72	617.90
378.91	631.94
379.11	580.45
379.31	587.47
379.50	599.18
379.70	645.99
379.89	643.65
380.09	564.07
380.28	589.82
380.48	650.67
380.68	624.92
380.87	615.56
381.07	641.31
381.26	737.27
381.46	664.71
381.65	711.52
381.85	631.94
382.04	636.63
382.24	631.94
382.43	725.57
382.63	592.16
382.83	739.61
383.02	645.99
383.22	744.29
383.41	669.39
383.61	653.01
383.80	751.31
384.00	720.88
384.19	699.82
384.39	744.29
384.58	748.97
384.78	709.18
384.97	741.95
385.17	725.57
385.36	767.70
385.56	690.46
385.75	702.16
385.95	716.20
386.14	746.63
386.34	777.06
386.53	833.23
386.72	819.19
386.92	795.78
387.11	800.46
387.31	809.83
387.50	833.23
387.70	819.19
387.89	800.46
388.09	798.12
388.28	856.64
388.48	837.91
388.67	889.40
388.86	821.53
389.06	844.93
389.25	788.76
389.45	912.81
389.64	926.85
389.84	877.70
390.03	802.80
390.22	945.58
390.42	936.21
390.61	894.08
390.81	809.83
391.00	997.07
391.19	950.26
391.39	931.53
391.58	1020.47
391.78	1006.43
391.97	936.21
392.16	957.28
392.36	947.92
392.55	917.49
392.75	926.85
392.94	940.90
393.13	1071.97
393.33	990.05
393.52	992.39
393.71	959.62
393.91	985.37
394.10	1111.75
394.29	1081.33
394.49	990.05
394.68	1011.11
394.88	985.37
395.07	1095.37
395.26	1130.48
395.46	1004.09
395.65	1104.73
395.84	1128.14
396.04	1118.78
396.23	1125.80
396.42	1083.67
396.62	1165.59
396.81	1158.57
397.00	1160.91
397.19	1160.91
397.39	1212.40
397.58	1217.08
397.77	1249.85
397.97	1221.76
398.16	1301.34
398.35	1235.80
398.55	1275.59
398.74	1329.42
398.93	1294.32
399.12	1303.68
399.32	1296.66
399.51	1299.00
399.70	1420.71
399.90	1511.99
400.09	1380.92
400.28	1423.05
400.47	1444.11
400.67	1380.92
400.86	1366.87
401.05	1390.28
401.24	1469.86
401.44	1448.79
401.63	1509.65
401.82	1547.09
402.01	1448.79
402.21	1568.16
402.40	1547.09
402.59	1444.11
402.78	1643.06
402.97	1624.33
403.17	1551.78
403.36	1607.95
403.55	1568.16
403.74	1617.31
403.93	1558.80
404.13	1619.65
404.32	1617.31
404.51	1701.57
404.70	1717.95
404.89	1619.65
405.09	1741.36
405.28	1680.50
405.47	1722.63
405.66	1687.53
405.85	1734.34
406.05	1785.83
406.24	1680.50
406.43	1760.08
406.62	1804.55
406.81	1867.75
407.00	1799.87
407.20	1818.60
407.39	1891.15
407.58	1849.02
407.77	1898.17
407.96	2057.33
408.15	1961.37
408.34	1944.99
408.54	1949.67
408.73	2040.95
408.92	1947.33
409.11	2031.58
409.30	2150.95
409.49	1973.07
409.68	2017.54
409.87	2052.65
410.07	2031.58
410.26	2106.48
410.45	2141.59
410.64	2155.63
410.83	2157.97
411.02	2228.19
411.21	2190.74
411.40	2211.81
411.59	2267.98
411.78	2228.19
411.98	2326.49
412.17	2253.94
412.36	2356.92
412.55	2408.41
412.74	2382.67
412.93	2349.90
413.12	2345.22
413.31	2502.03
413.50	2480.97
413.69	2539.48
413.88	2516.08
414.07	2623.74
414.26	2583.95
414.45	2712.68
414.64	2544.16
414.83	2607.36
415.02	2677.57
415.22	2773.53
415.41	2754.81
415.60	2733.75
415.79	2778.22
415.98	2794.60
416.17	2876.52
416.36	2771.19
416.55	2810.98
416.74	2883.54
416.93	2974.82
417.12	2913.97
417.31	2899.92
417.50	2918.65
417.69	3234.62
417.88	3091.85
418.07	3002.91
418.26	2986.52
418.45	3119.93
418.64	3148.02
418.83	3030.99
419.02	3042.70
419.21	3150.36
419.39	3180.79
419.58	3225.26
419.77	3141.00
419.96	3281.43
420.15	3269.73
420.34	3229.94
420.53	3274.41
420.72	3335.26
420.91	3496.76
421.10	3361.01
421.29	3576.34
421.48	3403.14
421.67	3463.99
421.86	3426.54
422.05	3382.07
422.24	3330.58
422.43	3375.05
422.61	3382.07
422.80	3499.10
422.99	3522.51
423.18	3503.78
423.37	3555.27
423.56	3548.25
423.75	3463.99
423.94	3482.72
424.13	3269.73
424.32	3461.65
424.50	3623.15
424.69	3552.93
424.88	3684.00
425.07	3536.55
425.26	3482.72
425.45	3463.99
425.64	3396.12
425.83	3618.47
426.01	3646.55
426.20	3531.87
426.39	3510.80
426.58	3492.08
426.77	3538.89
426.96	3606.77
427.15	3480.38
427.33	3789.33
427.52	3620.81
427.71	3662.94
427.90	3620.81
428.09	3894.65
428.28	3794.01
428.46	3712.09
428.65	3810.39
428.84	3859.54
429.03	3873.59
429.22	3728.47
429.40	3765.92
429.59	3681.66
429.78	3597.40
429.97	3723.79
430.16	3698.05
430.34	3742.52
430.53	3920.40
430.72	3918.06
430.91	3859.54
431.10	4011.68
431.28	4053.81
431.47	4067.85
431.66	4109.98
431.85	4105.30
432.03	4191.90
432.22	4234.03
432.41	4194.24
432.60	4271.48
432.79	4170.83
432.97	4339.35
433.16	4201.26
433.35	4166.15
433.54	4376.80
433.72	4201.26
433.91	4166.15
434.10	4264.46
434.28	4444.68
434.47	4362.76
434.66	4421.27
434.85	4432.97
435.03	4503.19
435.22	4381.48
435.41	4463.40
435.59	4468.08
435.78	4533.62
435.97	4606.17
436.16	4578.09
436.34	4587.45
436.53	4519.57
436.72	4617.88
436.90	4608.51
437.09	4662.35
437.28	4627.24
437.46	4681.07
437.65	4718.52
437.84	4671.71
438.02	4711.50
438.21	4770.01
438.40	4746.61
438.58	4795.76
438.77	4908.10
438.96	4751.29
439.14	4968.96
439.33	5008.75
439.52	5191.31
439.70	5015.77
439.89	5057.90
440.08	5097.69
440.26	5093.01
440.45	5078.96
440.63	5226.42
440.82	5369.19
441.01	5315.36
441.19	5322.38
441.38	5343.44
441.57	5352.81
441.75	5547.07
441.94	5612.60
442.12	5605.58
442.31	5685.16
442.50	5675.80
442.68	5521.32
442.87	5558.77
443.05	5675.80
443.24	5760.06
443.43	5738.99
443.61	5912.19
443.80	5884.11
443.98	5724.95
444.17	5540.05
444.35	5886.45
444.54	5919.21
444.73	6001.13
444.91	5825.59
445.10	5734.31
445.28	5860.70
445.47	5724.95
445.65	5785.80
445.84	5764.74
446.02	5949.64
446.21	5884.11
446.39	5778.78
446.58	5825.59
446.77	5980.07
446.95	5930.92
447.14	5998.79
447.32	6113.48
447.51	5846.66
447.69	5860.70
447.88	6038.58
448.06	6012.84
448.25	5994.11
448.43	6022.20
448.62	6012.84
448.80	5921.56
448.99	6181.35
449.17	6186.04
449.36	6239.87
449.54	6136.88
449.73	6326.47
449.91	6237.53
450.10	6235.19
450.28	6462.22
450.46	6457.54
450.65	6396.68
450.83	6384.98
451.02	6326.47
451.20	6476.26
451.39	6490.31
451.57	6410.73
451.76	6363.92
451.94	6668.19
452.13	6459.88
452.31	6487.96
452.49	6298.38
452.68	6347.53
452.86	6480.94
453.05	6626.06
453.23	6513.71
453.42	6555.84
453.60	6604.99
453.78	6647.12
453.97	6518.39
454.15	6476.26
454.34	6579.25
454.52	6700.95
454.70	6726.70
454.89	6864.79
455.07	6539.46
455.26	6951.39
455.44	7026.29
455.62	6829.68
455.81	6963.09
455.99	6906.92
456.17	7002.88
456.36	7002.88
456.54	7042.67
456.73	7213.53
456.91	7353.96
457.09	7176.08
457.28	7571.63
457.46	7178.42
457.64	7344.60
457.83	7316.51
458.01	7145.66
458.19	7557.59
458.38	7222.89
458.56	7360.98
458.74	7377.37
458.93	7332.90
459.11	7356.30
459.29	7466.31
459.48	7330.56
459.66	7386.73
459.84	7536.52
460.03	7660.57
460.21	7793.98
460.39	7646.53
460.57	7541.21
460.76	7634.83
460.94	7660.57
461.12	7805.69
461.31	7786.96
461.49	7782.28
461.67	7662.91
461.85	8063.15
462.04	7698.02
462.22	8063.15
462.40	7873.56
462.59	8013.99
462.77	7999.95
462.95	7791.64
463.13	7918.03
463.32	7918.03
463.50	8072.51
463.68	8002.29
463.86	8098.25
464.05	8021.02
464.23	7992.93
464.41	8255.07
464.59	8006.97
464.78	8381.46
464.96	8175.49
465.14	8238.69
465.32	8140.38
465.50	8468.06
465.69	8360.39
465.87	8210.60
466.05	8365.07
466.23	8386.14
466.41	8283.16
466.60	8400.18
466.78	8322.94
466.96	8320.60
467.14	8383.80
467.32	8491.46
467.51	8615.51
467.69	8231.66
467.87	8397.84
468.05	8512.53
468.23	8617.85
468.41	8341.67
468.60	8439.97
468.78	8573.38
468.96	8634.24
469.14	8950.21
469.32	8865.95
469.50	8608.49
469.69	8870.63
469.87	8879.99
470.05	8828.50
470.23	8844.88
470.41	8926.80
470.59	9200.65
470.77	8889.35
470.95	9069.58
471.14	9184.26
471.32	9032.13
471.50	9266.18
471.68	9394.91
471.86	9294.27
472.04	9425.34
472.22	9399.59
472.40	9301.29
472.58	9336.40
472.77	9338.74
472.95	9444.06
473.13	9820.89
473.31	9500.23
473.49	9479.17
473.67	9593.86
473.85	9589.17
474.03	9778.76
474.21	9867.70
474.39	9886.42
474.57	9966.00
474.75	10015.15
474.93	9893.44
475.12	10249.21
475.30	10101.75
475.48	10036.22
475.66	10211.76
475.84	10029.20
476.02	10473.90
476.20	10181.33
476.38	10771.15
476.56	10731.36
476.74	10864.77
476.92	10628.37
477.10	10558.16
477.28	10848.38
477.46	10899.87
477.64	10920.94
477.82	11162.01
478.00	11421.81
478.18	11290.74
478.36	11456.92
478.54	11515.44
478.72	11297.77
478.90	11576.29
479.08	11756.51
479.26	11793.96
479.44	11899.28
479.62	11943.75
479.80	12133.34
479.98	12037.38
480.16	12397.82
480.34	12304.20
480.52	12159.08
480.70	12688.04
480.88	12428.24
481.06	12463.35
481.24	12681.02
481.41	13011.04
481.59	12886.99
481.77	12954.87
481.95	12898.69
482.13	13327.01
482.31	13104.66
482.49	13394.89
482.67	13479.15
482.85	13378.50
483.03	13741.29
483.21	13778.73
483.39	14127.47
483.57	14087.68
483.74	13909.80
483.92	14239.82
484.10	14080.66
484.28	14611.96
484.46	14555.79
484.64	14963.04
484.82	14869.42
485.00	14867.08
485.18	14998.15
485.35	15183.06
485.53	14684.52
485.71	15042.62
485.89	15463.92
486.07	15211.14
486.25	15377.32
486.43	15702.65
486.61	15541.16
486.78	15749.46
486.96	15749.46
487.14	16238.64
487.32	16147.36
487.50	16697.38
487.68	16479.71
487.85	16662.27
488.03	16758.24
488.21	17078.89
488.39	16938.46
488.57	17181.87
488.75	17312.94
488.92	17317.62
489.10	17584.44
489.28	17776.37
489.46	17668.70
489.64	17919.14
489.81	18335.76
489.99	18288.95
490.17	18363.84
490.35	18752.37
490.53	18324.05
490.70	18572.15
490.88	18338.10
491.06	19147.92
491.24	19096.43
491.41	18953.66
491.59	18899.83
491.77	19328.14
491.95	19314.10
492.13	19276.65
492.30	19817.32
492.48	19892.21
492.66	19623.05
492.84	19917.96
493.01	20137.97
493.19	20025.62
493.37	20269.04
493.54	20662.25
493.72	20711.40
493.90	20477.35
494.08	20929.07
494.25	21191.21
494.43	21090.57
494.61	21539.95
494.79	21310.58
494.96	21305.90
495.14	21586.76
495.32	21666.34
495.49	21874.65
495.67	21785.71
495.85	21855.92
496.02	22562.76
496.20	22209.34
496.38	22373.18
496.55	22410.63
496.73	22831.93
496.91	22478.50
497.09	22796.82
497.26	22735.96
497.44	23005.13
497.62	22801.50
497.79	23061.30
497.97	23152.58
498.14	23477.91
498.32	23468.55
498.50	23700.26
498.67	24257.31
498.85	23672.18
499.03	23730.69
499.20	23976.45
499.38	24353.27
499.56	24161.35
499.73	24250.29
499.91	24418.81
500.08	24442.21
500.26	23915.59
500.44	24727.76
500.61	24505.41
500.79	24428.17
500.97	24879.89
501.14	25085.86
501.32	25036.71
501.49	25282.47
501.67	25242.68
501.84	25296.51
502.02	25282.47
502.20	25617.16
502.37	25563.33
502.55	25757.60
502.72	25577.37
502.90	25837.17
503.07	25568.01
503.25	25937.82
503.43	25874.62
503.60	26206.98
503.78	25893.35
503.95	25970.58
504.13	26260.81
504.30	26558.06
504.48	26789.77
504.65	26794.45
504.83	26960.63
505.01	27054.25
505.18	26878.71
505.36	26878.71
505.53	26803.82
505.71	27407.67
505.88	27173.62
506.06	27087.02
506.23	27194.68
506.41	27381.93
506.58	27704.92
506.76	27655.77
506.93	27367.88
507.11	27583.21
507.28	27662.79
507.46	28032.60
507.63	27981.10
507.81	28070.04
507.98	27742.37
508.16	27981.10
508.33	28414.10
508.50	28189.41
508.68	28753.48
508.85	28994.56
509.03	28723.05
509.20	28425.81
509.38	28701.99
509.55	29034.35
509.73	29034.35
509.90	29186.48
510.08	28870.51
510.25	29284.78
510.42	29266.06
510.60	29418.19
510.77	29331.59
510.95	29425.22
511.12	29291.80
511.30	29670.97
511.47	29989.28
511.64	29909.71
511.82	30050.14
511.99	29839.49
512.17	29867.58
512.34	29722.46
512.51	30431.65
512.69	30408.24
512.86	30522.93
513.04	30541.65
513.21	30185.89
513.38	30951.24
513.56	30246.74
513.73	30534.63
513.90	30625.91
514.08	30848.26
514.25	30939.54
514.43	30852.94
514.60	30866.98
514.77	31248.49
514.95	31187.64
515.12	31295.30
515.29	30806.13
515.47	31314.03
515.64	31337.43
515.81	31129.12
515.99	31438.08
516.16	31140.83
516.33	31405.31
516.51	31611.28
516.68	31335.09
516.85	31599.57
517.03	31819.58
517.20	31489.57
517.37	31683.83
517.54	32215.13
517.72	31885.12
517.89	31931.93
518.06	32341.52
518.24	31910.86
518.41	32128.53
518.58	31992.78
518.75	32676.22
518.93	32875.16
519.10	32339.18
519.27	32535.79
519.45	32521.74
519.62	33069.43
519.79	32395.35
519.96	33081.13
520.14	33167.73
520.31	32816.65
520.48	33130.28
520.65	33097.52
520.83	33647.54
521.00	33673.29
521.17	33266.03
521.34	33720.10
521.52	33708.40
521.69	33900.32
521.86	33490.73
522.03	33806.70
522.20	34122.67
522.38	33720.10
522.55	34103.95
522.72	33930.75
522.89	34377.79
523.07	34178.84
523.24	34260.76
523.41	34511.20
523.58	34293.53
523.75	34869.30
523.92	34752.27
524.10	34897.39
524.27	34600.14
524.44	34595.46
524.61	35150.17
524.78	34913.77
524.96	35189.95
525.13	35049.52
525.30	35522.31
525.47	35344.43
525.64	35185.27
525.81	35452.09
525.98	35344.43
526.16	34878.66
526.33	34644.61
526.50	35477.84
526.67	35002.71
526.84	34962.92
527.01	35529.33
527.18	35426.35
527.36	35545.72
527.53	35697.85
527.70	36105.10
527.87	36114.47
528.04	35950.63
528.21	35988.08
528.38	35700.19
528.55	36128.51
528.72	36641.09
528.89	36589.59
529.07	36512.36
529.24	36210.43
529.41	36453.84
529.58	36060.63
529.75	36451.50
529.92	36568.53
530.09	36563.85
530.26	36517.04
530.43	36900.89
530.60	36430.44
530.77	36840.03
530.94	36903.23
531.11	36863.44
531.28	36746.41
531.46	37415.80
531.63	36994.51
531.80	36975.78
531.97	37078.77
532.14	37034.30
532.31	36669.17
532.48	37046.00
532.65	37275.37
532.82	37247.29
532.99	37378.36
533.16	37177.07
533.33	37787.95
533.50	37673.26
533.67	37460.27
533.84	37324.52
534.01	37621.77
534.18	37511.77
534.35	38089.88
534.52	38031.36
534.69	37893.27
534.86	38213.93
535.03	37872.21
535.20	37961.15
535.37	38267.76
535.54	38213.93
535.71	38178.82
535.88	38085.20
536.05	38066.47
536.22	38733.53
536.38	38007.96
536.55	38375.42
536.72	38396.49
536.89	38471.39
537.06	38300.53
537.23	38462.02
537.40	38562.67
537.57	38562.67
537.74	38691.40
537.91	39023.75
538.08	38955.88
538.25	38829.49
538.42	38342.66
538.59	39126.74
538.75	39012.05
538.92	38691.40
539.09	38782.68
539.26	39119.71
539.43	38686.71
539.60	38990.98
539.77	39136.10
539.94	38913.75
540.11	38932.47
540.28	39339.72
540.44	39014.39
540.61	39676.76
540.78	39070.56
540.95	39449.73
541.12	38983.96
541.29	38953.54
541.46	39522.29
541.62	39328.02
541.79	39318.66
541.96	39166.52
542.13	39866.34
542.30	39377.17
542.47	39480.16
542.63	39856.98
542.80	39852.30
542.97	40191.68
543.14	40402.33
543.31	40341.47
543.48	40243.17
543.64	41134.92
543.81	40292.32
543.98	40498.29
544.15	40240.83
544.32	40357.86
544.48	41083.42
544.65	40037.20
544.82	40694.89
544.99	40381.26
545.16	40582.55
545.32	40451.48
545.49	40947.67
545.66	41085.76
545.83	41436.84
546.00	40931.29
546.16	41280.03
546.33	40357.86
546.50	40215.08
546.67	40795.54
546.83	40650.42
547.00	40622.34
547.17	41104.49
547.34	41184.07
547.50	41111.51
547.67	41413.44
547.84	41265.99
548.00	41486.00
548.17	41722.39
548.34	41331.52
548.51	41588.98
548.67	41787.92
548.84	41523.44
549.01	41717.71
549.18	41406.42
549.34	41261.30
549.51	41806.65
549.68	41696.64
549.84	41610.04
550.01	41851.12
550.18	41654.51
550.34	41273.01
550.51	41617.07
550.68	41778.56
550.84	41233.22
551.01	41766.86
551.18	42092.19
551.34	41797.29
551.51	41631.11
551.68	41991.55
551.84	41715.37
552.01	41918.99
552.18	42309.86
552.34	41738.77
552.51	41883.89
552.68	42005.59
552.84	42258.37
553.01	42602.43
553.18	42094.53
553.34	41902.61
553.51	41684.94
553.67	41949.42
553.84	42679.67
554.01	42410.51
554.17	42373.06
554.34	42667.97
554.51	42539.24
554.67	42752.23
554.84	42389.44
555.00	42625.84
555.17	42155.39
555.33	42532.22
555.50	42480.72
555.67	42799.04
555.83	42628.18
556.00	42995.64
556.16	43248.42
556.33	42759.25
556.50	43131.39
556.66	43147.78
556.83	42534.56
556.99	42782.65
557.16	43178.20
557.32	42918.40
557.49	43189.91
557.65	42550.94
557.82	42855.21
557.98	42981.60
558.15	42562.64
558.32	43217.99
558.48	42916.06
558.65	42705.41
558.81	43246.08
558.98	42862.23
559.14	43047.13
559.31	43007.34
559.47	43232.04
559.64	43573.75
559.80	43419.28
559.97	43194.59
560.13	42817.76
560.30	42883.30
560.46	43267.14
560.63	43236.72
560.79	43620.56
560.96	43519.92
561.12	43646.31
561.29	43063.52
561.45	43428.64
561.61	43384.17
561.78	43173.52
561.94	43159.48
562.11	43079.90
562.27	43356.08
562.44	43157.14
562.60	43580.78
562.77	43323.32
562.93	43367.79
563.10	43653.33
563.26	43100.97
563.42	43365.45
563.59	43650.99
563.75	43770.36
563.92	43604.18
564.08	44165.91
564.24	43592.48
564.41	43725.89
564.57	43835.89
564.74	43604.18
564.90	43559.71
565.07	43803.13
565.23	43817.17
565.39	43199.27
565.56	43805.47
565.72	44140.16
565.88	43320.98
566.05	43695.46
566.21	43772.70
566.38	43828.87
566.54	44041.86
566.70	43976.33
566.87	44498.26
567.03	43749.29
567.19	44154.21
567.36	44198.68
567.52	43917.81
567.68	43873.34
567.85	43732.91
568.01	44032.50
568.17	43650.99
568.34	43885.04
568.50	43931.86
568.66	43903.77
568.83	43718.87
568.99	43648.65
569.15	43810.15
569.32	43648.65
569.48	43784.40
569.64	44460.82
569.81	43892.07
569.97	44044.20
570.13	43477.79
570.30	43859.30
570.46	43718.87
570.62	43494.18
570.78	43508.22
570.95	43618.22
571.11	44360.17
571.27	43786.74
571.43	43810.15
571.60	43878.02
571.76	43557.37
571.92	43688.44
572.09	44238.47
572.25	43973.98
572.41	43943.56
572.57	44271.23
572.74	44540.39
572.90	43435.66
573.06	43969.30
573.22	43784.40
573.38	44336.77
573.55	43941.22
573.71	44327.41
573.87	44395.28
574.03	44385.92
574.20	44184.63
574.36	43901.43
574.52	44540.39
574.68	44013.77
574.84	44409.32
575.01	44107.40
575.17	43814.83
575.33	43650.99
575.49	43749.29
575.65	44217.40
575.82	44322.72
575.98	44439.75
576.14	44044.20
576.30	44458.48
576.46	44243.15
576.62	43667.37
576.79	44198.68
576.95	43871.00
577.11	43908.45
577.27	44397.62
577.43	44392.94
577.59	44406.98
577.75	44261.87
577.92	43711.84
578.08	43910.79
578.24	44250.17
578.40	43945.90
578.56	44102.71
578.72	44161.23
578.88	44811.90
579.04	44306.34
579.21	43955.26
579.37	44706.57
579.53	44385.92
579.69	44065.27
579.85	44102.71
580.01	44755.72
580.17	44472.52
580.33	44254.85
580.49	43978.67
580.65	44961.69
580.82	44460.82
580.98	43978.67
581.14	43873.34
581.30	44521.67
581.46	44219.74
581.62	44465.50
581.78	44198.68
581.94	44416.35
582.10	44364.85
582.26	44182.29
582.42	44329.75
582.58	44561.46
582.74	44423.37
582.90	44650.40
583.06	44596.57
583.22	44591.89
583.38	44933.60
583.54	44350.81
583.70	44240.81
583.86	44807.22
584.02	43957.60
584.18	44053.56
584.34	44238.47
584.50	44147.18
584.66	44605.93
584.82	44509.97
584.98	44507.63
585.14	44355.49
585.30	44275.91
585.46	44582.52
585.62	44114.42
585.78	44825.94
585.94	44128.46
586.10	44432.73
586.26	44025.48
586.42	44388.26
586.58	44678.49
586.74	43966.96
586.90	44222.08
587.06	44481.88
587.22	44264.21
587.38	44296.98
587.54	44446.77
587.70	45071.70
587.86	44318.04
588.02	44648.06
588.18	45235.53
588.34	44353.15
588.49	43557.37
588.65	44238.47
588.81	44016.11
588.97	44488.90
589.13	44378.90
589.29	44067.61
589.45	44533.37
589.61	45118.51
589.77	44299.32
589.93	44701.89
590.08	44643.38
590.24	44432.73
590.40	44409.32
