SpectraSuite Data File
++++++++++++++++++++++++++++++++++++
Date: Fri Oct 25 11:23:55 EDT 2013
User: price-jones
Dark Spectrum Present: No
Reference Spectrum Present: No
Number of Sampled Component Spectra: 1
Spectrometers: USB2+H05261
Integration Time (usec): 100000 (USB2+H05261)
Spectra Averaged: 1 (USB2+H05261)
Boxcar Smoothing: 0 (USB2+H05261)
Correct for Electrical Dark: No (USB2+H05261)
Strobe/Lamp Enabled: No (USB2+H05261)
Correct for Detector Non-linearity: No (USB2+H05261)
Correct for Stray Light: No (USB2+H05261)
Number of Pixels in Processed Spectrum: 2048
>>>>>Begin Processed Spectral Data<<<<<
365.73	194.26
365.92	194.26
366.12	194.26
366.32	18.72
366.52	93.62
366.72	166.18
366.91	74.90
367.11	112.35
367.31	95.96
367.51	142.77
367.70	91.28
367.90	84.26
368.10	138.09
368.30	93.62
368.49	70.22
368.69	138.09
368.89	119.37
369.09	173.20
369.28	128.73
369.48	79.58
369.68	173.20
369.87	234.05
370.07	170.86
370.27	203.63
370.47	287.89
370.66	620.24
370.86	667.05
371.06	755.99
371.25	615.56
371.45	685.78
371.65	777.06
371.84	702.16
372.04	716.20
372.24	767.70
372.44	788.76
372.63	786.42
372.83	713.86
373.03	727.91
373.22	709.18
373.42	851.96
373.62	669.39
373.81	739.61
374.01	833.23
374.21	763.01
374.40	802.80
374.60	842.59
374.79	844.93
374.99	800.46
375.19	809.83
375.38	858.98
375.58	819.19
375.78	851.96
375.97	851.96
376.17	887.06
376.37	903.45
376.56	926.85
376.76	880.04
376.95	851.96
377.15	870.68
377.35	929.19
377.54	812.17
377.74	851.96
377.93	903.45
378.13	908.13
378.33	968.98
378.52	990.05
378.72	882.38
378.91	952.60
379.11	903.45
379.31	957.28
379.50	978.34
379.70	1027.50
379.89	950.26
380.09	990.05
380.28	973.66
380.48	961.96
380.68	903.45
380.87	994.73
381.07	940.90
381.26	933.87
381.46	1048.56
381.65	1013.45
381.85	1151.54
382.04	1022.81
382.24	1086.01
382.43	1034.52
382.63	1095.37
382.83	968.98
383.02	1156.22
383.22	1053.24
383.41	1062.60
383.61	1090.69
383.80	1151.54
384.00	1174.95
384.19	1053.24
384.39	1102.39
384.58	1142.18
384.78	1135.16
384.97	1191.33
385.17	1160.91
385.36	1207.72
385.56	1125.80
385.75	1097.71
385.95	1198.35
386.14	1177.29
386.34	1198.35
386.53	1149.20
386.72	1158.57
386.92	1252.19
387.11	1261.55
387.31	1266.23
387.50	1287.29
387.70	1259.21
387.89	1273.25
388.09	1317.72
388.28	1191.33
388.48	1153.88
388.67	1310.70
388.86	1214.74
389.06	1348.15
389.25	1350.49
389.45	1359.85
389.64	1392.62
389.84	1320.06
390.03	1350.49
390.22	1460.49
390.42	1416.02
390.61	1394.96
390.81	1282.61
391.00	1313.04
391.19	1315.38
391.39	1458.15
391.58	1465.18
391.78	1528.37
391.97	1497.94
392.16	1469.86
392.36	1451.13
392.55	1593.90
392.75	1465.18
392.94	1394.96
393.13	1558.80
393.33	1507.30
393.52	1551.78
393.71	1593.90
393.91	1687.53
394.10	1547.09
394.29	1610.29
394.49	1504.96
394.68	1652.42
394.88	1703.91
395.07	1675.82
395.26	1593.90
395.46	1741.36
395.65	1724.97
395.84	1717.95
396.04	1736.68
396.23	1675.82
396.42	1797.53
396.62	1743.70
396.81	1874.77
397.00	1799.87
397.19	1905.20
397.39	1750.72
397.58	1776.47
397.77	1877.11
397.97	1802.21
398.16	1830.30
398.35	1921.58
398.55	1837.32
398.74	1923.92
398.93	1933.28
399.12	1947.33
399.32	1818.60
399.51	1912.22
399.70	2050.31
399.90	1991.80
400.09	1968.39
400.28	1982.43
400.47	2019.88
400.67	2080.74
400.86	1998.82
401.05	1980.09
401.24	2064.35
401.44	2069.03
401.63	2139.25
401.82	2134.57
402.01	2050.31
402.21	2230.53
402.40	2146.27
402.59	2148.61
402.78	2186.06
402.97	2139.25
403.17	2179.04
403.36	2193.08
403.55	2310.11
403.74	2345.22
403.93	2373.30
404.13	2340.54
404.32	2272.66
404.51	2289.04
404.70	2424.80
404.89	2354.58
405.09	2427.14
405.28	2466.92
405.47	2485.65
405.66	2532.46
405.85	2532.46
406.05	2511.39
406.24	2689.28
406.43	2581.61
406.62	2637.78
406.81	2628.42
407.00	2616.72
407.20	2635.44
407.39	2642.46
407.58	2686.94
407.77	2724.38
407.96	2848.43
408.15	2813.32
408.34	2700.98
408.54	2752.47
408.73	2766.51
408.92	2890.56
409.11	2815.66
409.30	2850.77
409.49	2895.24
409.68	2923.33
409.87	2935.03
410.07	3021.63
410.26	3124.62
410.45	3126.96
410.64	3047.38
410.83	3061.42
411.02	2995.89
411.21	3197.17
411.40	3166.74
411.59	3211.22
411.78	3218.24
411.98	3255.69
412.17	3232.28
412.36	3304.84
412.55	3372.71
412.74	3321.22
412.93	3328.24
413.12	3307.18
413.31	3468.67
413.50	3515.48
413.69	3398.46
413.88	3590.38
414.07	3641.87
414.26	3662.94
414.45	3599.74
414.64	3574.00
414.83	3733.15
415.02	3688.68
415.22	3782.31
415.41	3789.33
415.60	3911.04
415.79	3822.09
415.98	3836.14
416.17	3838.48
416.36	3911.04
416.55	3983.59
416.74	3892.31
416.93	4025.72
417.12	4044.45
417.31	4184.88
417.50	4170.83
417.69	4222.33
417.88	4262.12
418.07	4257.43
418.26	4308.93
418.45	4294.88
418.64	4648.30
418.83	4454.04
419.02	4430.63
419.21	4484.47
419.39	4498.51
419.58	4500.85
419.77	4383.82
419.96	4582.77
420.15	4582.77
420.34	4561.70
420.53	4601.49
420.72	4655.33
420.91	4643.62
421.10	4645.96
421.29	4826.18
421.48	4723.20
421.67	4690.43
421.86	4723.20
422.05	4608.51
422.24	4720.86
422.43	4959.60
422.61	4894.06
422.80	5020.45
422.99	4992.36
423.18	4830.87
423.37	4844.91
423.56	4915.12
423.75	4929.17
423.94	4840.23
424.13	4734.90
424.32	4650.64
424.50	4858.95
424.69	5135.14
424.88	5071.94
425.07	4800.44
425.26	4844.91
425.45	4959.60
425.64	5018.11
425.83	5015.77
426.01	5041.51
426.20	5114.07
426.39	5104.71
426.58	5041.51
426.77	5093.01
426.96	5041.51
427.15	5156.20
427.33	5345.78
427.52	5195.99
427.71	5287.27
427.90	5193.65
428.09	5261.52
428.28	5390.25
428.46	5301.31
428.65	5397.28
428.84	5542.39
429.03	5460.47
429.22	5390.25
429.40	5345.78
429.59	5437.06
429.78	5242.80
429.97	5385.57
430.16	5432.38
430.34	5579.84
430.53	5575.16
430.72	5685.16
430.91	5638.35
431.10	5479.19
431.28	5689.84
431.47	5631.33
431.66	5750.70
431.85	5743.67
432.03	5771.76
432.22	5989.43
432.41	5914.53
432.60	5916.87
432.79	5987.09
432.97	5980.07
433.16	5849.00
433.35	6097.10
433.54	6033.90
433.72	6157.95
433.91	5977.73
434.10	6057.31
434.28	6155.61
434.47	6090.07
434.66	6253.91
434.85	6317.11
435.03	6319.45
435.22	6366.26
435.41	6506.69
435.59	6293.70
435.78	6375.62
435.97	6413.07
436.16	6293.70
436.34	6312.42
436.53	6579.25
436.72	6602.65
436.90	6361.58
437.09	6574.56
437.28	6375.62
437.46	6633.08
437.65	6628.40
437.84	6740.74
438.02	6581.59
438.21	6724.36
438.40	6846.07
438.58	6857.77
438.77	7073.10
438.96	6888.20
439.14	7103.53
439.33	7215.87
439.52	7300.13
439.70	7234.60
439.89	7169.06
440.08	7288.43
440.26	7398.43
440.45	7227.57
440.63	7396.09
440.82	7494.40
441.01	7648.87
441.19	7515.46
441.38	7709.72
441.57	7630.15
441.75	7850.16
441.94	7875.90
442.12	8102.93
442.31	8011.65
442.50	7882.92
442.68	8147.40
442.87	7819.73
443.05	8259.75
443.24	8285.50
443.43	8210.60
443.61	8236.35
443.80	8339.33
443.98	8077.19
444.17	8023.36
444.35	8299.54
444.54	8280.82
444.73	8276.13
444.91	7992.93
445.10	8280.82
445.28	8210.60
445.47	8196.56
445.65	8142.72
445.84	8470.40
446.02	8332.31
446.21	8421.25
446.39	8294.86
446.58	8477.42
446.77	8608.49
446.95	8266.77
447.14	8458.70
447.32	8564.02
447.51	8514.87
447.69	8332.31
447.88	8491.46
448.06	8311.24
448.25	8538.27
448.43	8479.76
448.62	8531.25
448.80	8552.32
448.99	8477.42
449.17	8685.73
449.36	8519.55
449.54	8741.90
449.73	8800.41
449.91	9020.42
450.10	8950.21
450.28	9128.09
450.46	9034.47
450.65	9085.96
450.83	8961.91
451.02	9193.62
451.20	9104.68
451.39	9104.68
451.57	9048.51
451.76	8957.23
451.94	9132.77
452.13	9359.80
452.31	9095.32
452.49	9364.48
452.68	9423.00
452.86	9268.52
453.05	9397.25
453.23	9647.69
453.42	9425.34
453.60	9411.29
453.78	9256.82
453.97	9490.87
454.15	9514.28
454.34	9355.12
454.52	9689.82
454.70	9628.96
454.89	9654.71
455.07	9736.63
455.26	9731.95
455.44	9858.34
455.62	10092.39
455.81	9942.60
455.99	10078.35
456.17	10190.69
456.36	10113.45
456.54	10017.49
456.73	10183.67
456.91	10424.75
457.09	10284.31
457.28	10511.35
457.46	10471.56
457.64	10590.92
457.83	10518.37
458.01	10441.13
458.19	10621.35
458.38	10572.20
458.56	10764.12
458.74	10677.52
458.93	10626.03
459.11	10581.56
459.29	10808.59
459.48	10700.93
459.66	10712.63
459.84	10841.36
460.03	11105.84
460.21	11075.42
460.39	10934.98
460.57	11002.86
460.76	11386.71
460.94	11030.94
461.12	11042.65
461.31	11063.71
461.49	11138.61
461.67	11091.80
461.85	11470.97
462.04	11229.89
462.22	11473.31
462.40	11604.38
462.59	11468.62
462.77	11346.92
462.95	11442.88
463.13	11599.70
463.32	11768.21
463.50	11800.98
463.68	11845.45
463.86	11929.71
464.05	11852.47
464.23	11768.21
464.41	11756.51
464.59	11784.60
464.78	12098.23
464.96	12088.87
465.14	11948.43
465.32	12006.95
465.50	12156.74
465.69	12297.17
465.87	12084.19
466.05	12142.70
466.23	11999.93
466.41	12133.34
466.60	12446.97
466.78	12128.66
466.96	12264.41
467.14	12287.81
467.32	12327.60
467.51	12503.14
467.69	12334.62
467.87	12681.02
468.05	12446.97
468.23	12257.39
468.41	12468.03
468.60	12489.10
468.78	12772.30
468.96	12381.43
469.14	12854.22
469.32	12959.55
469.50	12765.28
469.69	12973.59
469.87	13050.83
470.05	13085.94
470.23	12879.97
470.41	13130.41
470.59	13275.52
470.77	13025.08
470.95	13186.58
471.14	13549.36
471.32	13165.51
471.50	13387.86
471.68	13607.87
471.86	13654.69
472.04	13600.85
472.22	13926.19
472.40	13635.96
472.58	13542.34
472.77	14185.99
472.95	14244.50
473.13	14602.60
473.31	14075.98
473.49	14176.62
473.67	14326.42
473.85	14295.99
474.03	14516.00
474.21	14689.20
474.39	14747.72
474.57	14719.63
474.75	15005.17
474.93	14972.41
475.12	15002.83
475.30	15033.26
475.48	15005.17
475.66	15014.54
475.84	15400.72
476.02	15377.32
476.20	15489.67
476.38	15726.06
476.56	15929.69
476.74	15625.42
476.92	15910.96
477.10	15920.32
477.28	16140.33
477.46	16184.80
477.64	16180.12
477.82	16430.56
478.00	16833.13
478.18	16699.72
478.36	17018.04
478.54	17156.13
478.72	17296.56
478.90	17284.86
479.08	17418.27
479.26	17364.43
479.44	18111.07
479.62	17989.36
479.80	18033.83
479.98	18113.41
480.16	18511.30
480.34	18195.32
480.52	18586.19
480.70	18728.97
480.88	18118.09
481.06	18820.25
481.24	18853.02
481.41	19014.51
481.59	19136.22
481.77	19367.93
481.95	19447.51
482.13	19662.84
482.31	19758.80
482.49	20367.34
482.67	20100.52
482.85	20631.82
483.03	20709.06
483.21	20776.94
483.39	20992.26
483.57	20479.69
483.74	21448.67
483.92	21158.44
484.10	21242.70
484.28	21675.70
484.46	21937.84
484.64	22244.45
484.82	22167.21
485.00	22338.07
485.18	22712.56
485.35	22836.61
485.53	22824.90
485.71	22892.78
485.89	23377.27
486.07	23494.30
486.25	23599.62
486.43	23604.30
486.61	23936.66
486.78	24067.73
486.96	24091.13
487.14	23953.04
487.32	24491.37
487.50	24673.93
487.68	24959.47
487.85	25724.83
488.03	25488.43
488.21	25986.97
488.39	25762.28
488.57	26066.55
488.75	25947.18
488.92	26181.23
489.10	26658.70
489.28	26700.83
489.46	27225.11
489.64	27117.45
489.81	27344.48
489.99	27882.80
490.17	27676.83
490.35	28077.07
490.53	28573.26
490.70	28797.95
490.88	28367.29
491.06	28893.91
491.24	28877.53
491.41	29364.36
491.59	29364.36
491.77	29275.42
491.95	29818.42
492.13	29865.24
492.30	30202.27
492.48	30113.33
492.66	30073.54
492.84	30471.43
493.01	30864.64
493.19	30778.04
493.37	31269.56
493.54	31061.25
493.72	31587.87
493.90	31864.05
494.08	31826.60
494.25	32116.83
494.43	32713.67
494.61	32346.20
494.79	32383.65
494.96	32496.00
495.14	32783.88
495.32	33223.90
495.49	33226.24
495.67	33102.20
495.85	33406.47
496.02	34129.69
496.20	34363.75
496.38	34031.39
496.55	34101.61
496.73	34773.34
496.91	34796.74
497.09	34497.16
497.26	34902.07
497.44	34883.34
497.62	35353.79
497.79	35751.68
497.97	35297.62
498.14	35866.37
498.32	36243.20
498.50	36037.23
498.67	36804.92
498.85	36510.02
499.03	36809.61
499.20	36776.84
499.38	36954.72
499.56	37216.86
499.73	37427.51
499.91	37312.82
500.08	37827.74
500.26	37549.21
500.44	37778.59
500.61	37558.58
500.79	38127.33
500.97	38190.52
501.14	38562.67
501.32	38466.70
501.49	38153.07
501.67	38302.87
501.84	38988.64
502.02	39119.71
502.20	39077.58
502.37	39065.88
502.55	39292.91
502.72	39178.23
502.90	39873.37
503.07	39386.54
503.25	39873.37
503.43	39234.40
503.60	39789.11
503.78	40107.42
503.95	40191.68
504.13	40222.11
504.30	40722.98
504.48	40091.04
504.65	40526.38
504.83	40753.41
505.01	41083.42
505.18	41448.55
505.36	41682.60
505.53	41317.48
505.71	42071.13
505.88	42160.07
506.06	41724.73
506.23	41710.69
506.41	41783.24
506.58	42171.77
506.76	42417.53
506.93	42272.42
507.11	42436.25
507.28	42731.16
507.46	42576.69
507.63	42902.02
507.81	43363.11
507.98	43103.31
508.16	42969.90
508.33	43512.90
508.50	43217.99
508.68	43725.89
508.85	44046.54
509.03	43929.51
509.20	44163.57
509.38	43840.57
509.55	44348.47
509.73	44535.71
509.90	44837.64
510.08	44563.80
510.25	44568.48
510.42	44863.39
510.60	44861.05
510.77	45268.30
510.95	45420.44
511.12	44821.26
511.30	45399.37
511.47	45537.46
511.64	45621.72
511.82	45914.29
511.99	46195.15
512.17	45738.75
512.34	45794.92
512.51	46429.21
512.69	46679.64
512.86	46780.29
513.04	46614.11
513.21	46850.50
513.38	46499.42
513.56	47114.98
513.73	47040.09
513.90	46773.27
514.08	46866.89
514.25	47082.22
514.43	47004.98
514.60	47129.03
514.77	47093.92
514.95	48076.94
515.12	47456.70
515.29	47662.67
515.47	48271.21
515.64	47819.49
515.81	48060.56
515.99	48355.47
516.16	48636.33
516.33	48193.97
516.51	48884.43
516.68	48591.86
516.85	48182.27
517.03	48966.35
517.20	48804.85
517.37	48626.97
517.54	49158.27
517.72	48795.49
517.89	49074.01
518.06	49113.80
518.24	48959.33
518.41	49144.23
518.58	49467.22
518.75	49113.80
518.93	49455.52
519.10	49485.95
519.27	49787.88
519.45	49780.85
519.62	50075.76
519.79	49588.93
519.96	49862.77
520.14	49862.77
520.31	49982.14
520.48	50396.42
520.65	50328.54
520.83	50674.94
521.00	50876.22
521.17	50602.38
521.34	50691.32
521.52	50747.50
521.69	50866.86
521.86	51110.28
522.03	51107.94
522.20	51381.78
522.38	51522.21
522.55	51215.60
522.72	51386.46
522.89	51065.81
523.07	51613.49
523.24	51290.50
523.41	51695.41
523.58	51285.82
523.75	51772.65
523.92	51807.76
524.10	51992.66
524.27	52137.77
524.44	52119.05
524.61	51798.40
524.78	52229.05
524.96	52282.89
525.13	52530.98
525.30	52512.26
525.47	52299.27
525.64	52460.77
525.81	52903.13
525.98	52533.32
526.16	52509.92
526.33	52755.68
526.50	52935.90
526.67	52694.82
526.84	52835.25
527.01	52575.45
527.18	53095.05
527.36	53024.84
527.53	53045.90
527.70	53366.55
527.87	53616.99
528.04	53371.24
528.21	53261.23
528.38	53382.94
528.55	53408.68
528.72	53586.57
528.89	53148.88
529.07	53734.02
529.24	53387.62
529.41	53698.91
529.58	53776.15
529.75	53485.92
529.92	53921.26
530.09	53759.76
530.26	54148.29
530.43	54096.80
530.60	53813.60
530.77	53860.41
530.94	54258.30
531.11	53951.69
531.28	53895.52
531.46	54094.46
531.63	54464.27
531.80	54412.77
531.97	54534.48
532.14	54473.63
532.31	54508.74
532.48	54536.82
532.65	54815.35
532.82	54380.01
532.99	54927.69
533.16	54602.36
533.33	54946.42
533.50	55098.55
533.67	54892.58
533.84	54862.16
534.01	54986.21
534.18	55056.42
534.35	55143.02
534.52	55161.75
534.69	55229.62
534.86	55400.48
535.03	54747.47
535.20	55168.77
535.37	55110.25
535.54	55393.46
535.71	55175.79
535.88	55414.52
536.05	55533.89
536.22	55524.53
536.38	55428.57
536.55	55412.18
536.72	55515.17
536.89	55463.67
537.06	55405.16
537.23	55913.06
537.40	55641.56
537.57	55543.25
537.74	55931.78
537.91	56083.92
538.08	55983.27
538.25	55550.27
538.42	55955.19
538.59	55863.91
538.75	56020.72
538.92	56041.79
539.09	56142.43
539.26	56123.71
539.43	55875.61
539.60	56133.07
539.77	56299.25
539.94	56498.19
540.11	56254.78
540.28	56481.81
540.44	56346.06
540.61	56306.27
540.78	56395.21
540.95	56313.29
541.12	56493.51
541.29	56303.93
541.46	56559.05
541.62	56353.08
541.79	56287.54
541.96	56486.49
542.13	56303.93
542.30	56587.13
542.47	56828.21
542.63	56804.80
542.80	56708.84
542.97	57013.11
543.14	57235.46
543.31	57186.31
543.48	57235.46
543.64	57453.13
543.81	57382.91
543.98	57406.32
544.15	57382.91
544.32	57364.19
544.48	57359.51
544.65	57378.23
544.82	57464.83
544.99	57088.01
545.16	57331.42
545.32	57567.82
545.49	57593.56
545.66	57623.99
545.83	57553.77
546.00	57815.91
546.16	57638.03
546.33	57724.63
546.50	57403.98
546.67	57752.72
546.83	57291.63
547.00	57961.03
547.17	57724.63
547.34	57808.89
547.50	57729.31
547.67	58071.03
547.84	58120.18
548.00	58227.85
548.17	58220.83
548.34	58134.23
548.51	58356.58
548.67	58171.67
548.84	58326.15
549.01	58141.25
549.18	58019.54
549.34	58092.10
549.51	58258.27
549.68	58555.52
549.84	58468.92
550.01	58452.54
550.18	58227.85
550.34	58295.72
550.51	58578.93
550.68	58347.21
550.84	58117.84
551.01	58599.99
551.18	58309.77
551.34	58719.36
551.51	58459.56
551.68	58592.97
551.84	58658.51
552.01	58426.79
552.18	58787.24
552.34	58672.55
552.51	58663.19
552.68	58635.10
552.84	58574.25
553.01	58939.37
553.18	58852.77
553.34	58873.84
553.51	58801.28
553.67	58979.16
553.84	58869.15
554.01	58988.52
554.17	59117.25
554.34	59030.65
554.51	58838.73
554.67	59089.16
554.84	58838.73
555.00	58941.71
555.17	58927.67
555.33	58937.03
555.50	58817.66
555.67	59000.22
555.83	59025.97
556.00	59133.63
556.16	59526.84
556.33	59250.66
556.50	59152.36
556.66	59332.58
556.83	59143.00
556.99	59465.99
557.16	59372.37
557.32	59590.04
557.49	59634.51
557.65	59433.22
557.82	59414.50
557.98	59573.66
558.15	59473.01
558.32	59470.67
558.48	59178.10
558.65	59545.57
558.81	59435.56
558.98	59330.24
559.14	59559.61
559.31	59475.35
559.47	59365.35
559.64	59772.60
559.80	59737.49
559.97	59758.56
560.13	59540.89
560.30	59587.70
560.46	59880.27
560.63	59756.22
560.79	60079.21
560.96	59863.88
561.12	59978.57
561.29	59805.37
561.45	59906.01
561.61	59826.43
561.78	59861.54
561.94	59772.60
562.11	59767.92
562.27	59760.90
562.44	60107.30
562.60	60214.96
562.77	59774.94
562.93	59519.82
563.10	60023.04
563.26	59913.03
563.42	60247.73
563.59	60032.40
563.75	60088.57
563.92	59962.18
564.08	60079.21
564.24	60116.66
564.41	60193.90
564.57	60006.65
564.74	60062.83
564.90	60130.70
565.07	60137.72
565.23	60126.02
565.39	60212.62
565.56	60144.75
565.72	60364.76
565.88	60287.52
566.05	59997.29
566.21	60423.27
566.38	60231.35
566.54	60243.05
566.70	60264.11
566.87	60357.74
567.03	60247.73
567.19	60395.18
567.36	60463.06
567.52	60385.82
567.68	60446.68
567.85	60444.33
568.01	60409.23
568.17	60069.85
568.34	60516.89
568.50	60439.65
568.66	60301.56
568.83	60327.31
568.99	60109.64
569.15	60385.82
569.32	60289.86
569.48	60589.45
569.64	60542.64
569.81	60439.65
569.97	60322.63
570.13	60406.89
570.30	60404.55
570.46	60650.30
570.62	60659.66
570.78	60512.21
570.95	60484.12
571.11	60795.42
571.27	60568.38
571.43	60563.70
571.60	60615.19
571.76	60315.61
571.92	60664.35
572.09	60528.59
572.25	60453.70
572.41	60594.13
572.57	60612.85
572.74	60797.76
572.90	60645.62
573.06	60680.73
573.22	60556.68
573.38	60596.47
573.55	60615.19
573.71	60767.33
573.87	60720.52
574.03	60584.77
574.20	60762.65
574.36	60786.05
574.52	60846.91
574.68	60741.58
574.84	60825.84
575.01	60711.16
575.17	60640.94
575.33	60788.39
575.49	60371.78
575.65	60598.81
575.82	60858.61
575.98	60882.02
576.14	60973.30
576.30	60739.24
576.46	60659.66
576.62	60708.82
576.79	60711.16
576.95	60687.75
577.11	60896.06
577.27	60786.05
577.43	60652.64
577.59	60392.84
577.75	60762.65
577.92	60781.37
578.08	60748.60
578.24	60727.54
578.40	60994.36
578.56	61041.17
578.72	60746.26
578.88	61116.07
579.04	60926.49
579.21	60779.03
579.37	60982.66
579.53	61125.43
579.69	60750.94
579.85	60842.23
580.01	60903.08
580.17	60933.51
580.33	61041.17
580.49	61052.87
580.65	60870.31
580.82	60874.99
580.98	60982.66
581.14	61013.08
581.30	61092.66
581.46	60896.06
581.62	60870.31
581.78	60816.48
581.94	60924.14
582.10	61017.77
582.26	60931.17
582.42	60865.63
582.58	61006.06
582.74	60914.78
582.90	60877.33
583.06	61038.83
583.22	60903.08
583.38	60837.54
583.54	61123.09
583.70	61015.43
583.86	61073.94
584.02	60844.57
584.18	61010.74
584.34	61036.49
584.50	60954.57
584.66	60959.25
584.82	60907.76
584.98	61041.17
585.14	60919.46
585.30	61034.15
585.46	61102.03
585.62	61172.24
585.78	61097.34
585.94	60683.07
586.10	61062.24
586.26	61062.24
586.42	61118.41
586.58	61183.94
586.74	60907.76
586.90	61057.56
587.06	60954.57
587.22	61137.13
587.38	61169.90
587.54	60987.34
587.70	61146.50
587.86	61158.20
588.02	61125.43
588.18	61361.82
588.34	60968.61
588.49	61261.18
