SpectraSuite Data File
++++++++++++++++++++++++++++++++++++
Date: Fri Oct 25 10:43:52 EDT 2013
User: price-jones
Dark Spectrum Present: No
Reference Spectrum Present: No
Number of Sampled Component Spectra: 1
Spectrometers: USB2+H05261
Integration Time (usec): 100000 (USB2+H05261)
Spectra Averaged: 1 (USB2+H05261)
Boxcar Smoothing: 0 (USB2+H05261)
Correct for Electrical Dark: No (USB2+H05261)
Strobe/Lamp Enabled: No (USB2+H05261)
Correct for Detector Non-linearity: No (USB2+H05261)
Correct for Stray Light: No (USB2+H05261)
Number of Pixels in Processed Spectrum: 2048
>>>>>Begin Processed Spectral Data<<<<<
365.73	25.75
365.92	25.75
366.12	25.75
366.32	28.09
366.52	18.72
366.72	119.37
366.91	32.77
367.11	86.60
367.31	44.47
367.51	7.02
367.70	25.75
367.90	49.15
368.10	49.15
368.30	91.28
368.49	51.49
368.69	112.35
368.89	74.90
369.09	49.15
369.28	63.19
369.48	119.37
369.68	79.58
369.87	42.13
370.07	65.54
370.27	107.66
370.47	212.99
370.66	442.36
370.86	435.34
371.06	430.66
371.25	519.60
371.45	440.02
371.65	477.47
371.84	418.96
372.04	461.09
372.24	521.94
372.44	512.58
372.63	472.79
372.83	526.62
373.03	528.96
373.22	561.73
373.42	580.45
373.62	521.94
373.81	587.47
374.01	587.47
374.21	589.82
374.40	514.92
374.60	559.39
374.79	491.51
374.99	568.75
375.19	587.47
375.38	613.22
375.58	594.50
375.78	580.45
375.97	704.50
376.17	650.67
376.37	608.54
376.56	706.84
376.76	627.26
376.95	622.58
377.15	538.32
377.35	645.99
377.54	585.13
377.74	634.29
377.93	655.35
378.13	634.29
378.33	657.69
378.52	648.33
378.72	730.25
378.91	641.31
379.11	669.39
379.31	676.41
379.50	622.58
379.70	791.10
379.89	763.01
380.09	603.86
380.28	664.71
380.48	741.95
380.68	709.18
380.87	641.31
381.07	704.50
381.26	770.04
381.46	709.18
381.65	744.29
381.85	683.44
382.04	713.86
382.24	674.07
382.43	699.82
382.63	739.61
382.83	699.82
383.02	751.31
383.22	819.19
383.41	706.84
383.61	727.91
383.80	894.08
384.00	814.51
384.19	816.85
384.39	779.40
384.58	753.65
384.78	812.17
384.97	795.78
385.17	753.65
385.36	887.06
385.56	793.44
385.75	805.14
385.95	910.47
386.14	844.93
386.34	889.40
386.53	870.68
386.72	919.83
386.92	842.59
387.11	898.77
387.31	903.45
387.50	866.00
387.70	924.51
387.89	903.45
388.09	889.40
388.28	919.83
388.48	875.36
388.67	1011.11
388.86	933.87
389.06	1022.81
389.25	983.02
389.45	1006.43
389.64	971.32
389.84	1013.45
390.03	1006.43
390.22	1020.47
390.42	990.05
390.61	1004.09
390.81	1053.24
391.00	1064.94
391.19	1090.69
391.39	1060.26
391.58	1116.44
391.78	1083.67
391.97	1076.65
392.16	1074.31
392.36	1097.71
392.55	994.73
392.75	1090.69
392.94	938.55
393.13	985.37
393.33	926.85
393.52	1029.84
393.71	1125.80
393.91	1146.86
394.10	1046.22
394.29	1179.63
394.49	1203.04
394.68	1174.95
394.88	1235.80
395.07	1273.25
395.26	1294.32
395.46	1306.02
395.65	1252.19
395.84	1233.46
396.04	1317.72
396.23	1179.63
396.42	1067.28
396.62	1200.69
396.81	1172.61
397.00	1256.87
397.19	1376.24
397.39	1329.42
397.58	1350.49
397.77	1352.83
397.97	1460.49
398.16	1432.41
398.35	1451.13
398.55	1430.07
398.74	1467.52
398.93	1657.10
399.12	1544.75
399.32	1509.65
399.51	1528.37
399.70	1659.44
399.90	1619.65
400.09	1612.63
400.28	1645.40
400.47	1685.19
400.67	1701.57
400.86	1657.10
401.05	1717.95
401.24	1631.35
401.44	1750.72
401.63	1753.06
401.82	1732.00
402.01	1774.13
402.21	1626.67
402.40	1767.10
402.59	1699.23
402.78	1795.19
402.97	1802.21
403.17	1706.25
403.36	1877.11
403.55	1795.19
403.74	1877.11
403.93	1856.04
404.13	1844.34
404.32	1813.92
404.51	1921.58
404.70	1886.47
404.89	1989.46
405.09	2010.52
405.28	2015.20
405.47	2122.87
405.66	1923.92
405.85	2043.29
406.05	2047.97
406.24	2090.10
406.43	2064.35
406.62	2153.29
406.81	2104.14
407.00	1919.24
407.20	2104.14
407.39	2157.97
407.58	2193.08
407.77	2267.98
407.96	2246.91
408.15	2298.41
408.34	2253.94
408.54	2328.83
408.73	2298.41
408.92	2370.96
409.11	2345.22
409.30	2235.21
409.49	2382.67
409.68	2317.13
409.87	2361.60
410.07	2417.77
410.26	2410.75
410.45	2459.90
410.64	2495.01
410.83	2605.02
411.02	2525.44
411.21	2572.25
411.40	2495.01
411.59	2736.09
411.78	2644.81
411.98	2665.87
412.17	2679.91
412.36	2654.17
412.55	2846.09
412.74	2726.72
412.93	2810.98
413.12	2708.00
413.31	3019.29
413.50	2869.50
413.69	2780.56
413.88	2942.05
414.07	2984.18
414.26	2925.67
414.45	2995.89
414.64	2920.99
414.83	3119.93
415.02	3054.40
415.22	3126.96
415.41	3185.47
415.60	3169.09
415.79	3117.59
415.98	3332.92
416.17	3351.65
416.36	3391.44
416.55	3353.99
416.74	3386.76
416.93	3372.71
417.12	3531.87
417.31	3496.76
417.50	3431.23
417.69	3597.40
417.88	3510.80
418.07	3517.83
418.26	3562.30
418.45	3536.55
418.64	3688.68
418.83	3543.57
419.02	3595.06
419.21	3712.09
419.39	3700.39
419.58	3702.73
419.77	3515.48
419.96	3770.60
420.15	3740.18
420.34	3648.90
420.53	3836.14
420.72	4007.00
420.91	3840.82
421.10	3953.16
421.29	3929.76
421.48	3857.20
421.67	3948.48
421.86	3925.08
422.05	3784.65
422.24	3894.65
422.43	3798.69
422.61	3920.40
422.80	4028.06
422.99	4023.38
423.18	4079.55
423.37	4037.42
423.56	4065.51
423.75	4011.68
423.94	3885.29
424.13	3758.90
424.32	3960.19
424.50	3960.19
424.69	4187.22
424.88	4081.89
425.07	4067.85
425.26	3913.38
425.45	3918.06
425.64	3911.04
425.83	4044.45
426.01	4102.96
426.20	4128.70
426.39	4117.00
426.58	4128.70
426.77	4011.68
426.96	3990.61
427.15	4039.76
427.33	4250.41
427.52	4072.53
427.71	4203.60
427.90	4166.15
428.09	4196.58
428.28	4388.50
428.46	4292.54
428.65	4194.24
428.84	4292.54
429.03	4402.55
429.22	4175.52
429.40	4219.99
429.59	4334.67
429.78	3981.25
429.97	4016.36
430.16	4227.01
430.34	4105.30
430.53	4163.81
430.72	4273.82
430.91	4243.39
431.10	4456.38
431.28	4751.29
431.47	4652.98
431.66	4711.50
431.85	4585.11
432.03	4720.86
432.22	4898.74
432.41	4610.86
432.60	4739.58
432.79	4826.18
432.97	4910.44
433.16	4795.76
433.35	4847.25
433.54	4669.37
433.72	4819.16
433.91	4931.51
434.10	4861.29
434.28	4877.68
434.47	4823.84
434.66	4987.68
434.85	4924.49
435.03	5095.35
435.22	5128.11
435.41	5144.50
435.59	5240.46
435.78	5104.71
435.97	5317.70
436.16	5205.35
436.34	5100.03
436.53	5289.61
436.72	5324.72
436.90	5174.92
437.09	5273.23
437.28	5284.93
437.46	5191.31
437.65	5263.86
437.84	5345.78
438.02	5263.86
438.21	5221.74
438.40	5247.48
438.58	5352.81
438.77	5561.11
438.96	5530.69
439.14	5621.97
439.33	5746.02
439.52	5839.64
439.70	5851.34
439.89	5813.89
440.08	5830.27
440.26	5771.76
440.45	5865.38
440.63	5994.11
440.82	6239.87
441.01	6141.57
441.19	6263.27
441.38	6230.51
441.57	6171.99
441.75	6319.45
441.94	6431.79
442.12	6452.86
442.31	6436.47
442.50	6593.29
442.68	6424.77
442.87	6443.49
443.05	6480.94
443.24	6492.65
443.43	6616.69
443.61	6506.69
443.80	6707.98
443.98	6471.58
444.17	6441.15
444.35	6480.94
444.54	6626.06
444.73	6551.16
444.91	6696.27
445.10	6635.42
445.28	6637.76
445.47	6574.56
445.65	6457.54
445.84	6712.66
446.02	6801.60
446.21	6853.09
446.39	6626.06
446.58	6869.47
446.77	6733.72
446.95	6731.38
447.14	6839.05
447.32	6972.46
447.51	6759.47
447.69	6731.38
447.88	6689.25
448.06	6871.81
448.25	6867.13
448.43	7026.29
448.62	6998.20
448.80	6843.73
448.99	7098.84
449.17	7042.67
449.36	7105.87
449.54	6986.50
449.73	7227.57
449.91	7169.06
450.10	7241.62
450.28	7290.77
450.46	7393.75
450.65	7328.22
450.83	7250.98
451.02	7180.76
451.20	7569.29
451.39	7400.77
451.57	7520.14
451.76	7351.62
451.94	7489.71
452.13	7459.29
452.31	7337.58
452.49	7148.00
452.68	7382.05
452.86	7286.09
453.05	7375.03
453.23	7665.25
453.42	7269.70
453.60	7501.42
453.78	7597.38
453.97	7419.50
454.15	7499.08
454.34	7698.02
454.52	7508.44
454.70	7510.78
454.89	7669.94
455.07	7751.85
455.26	7686.32
455.44	8006.97
455.62	7974.21
455.81	7903.99
455.99	7875.90
456.17	7894.63
456.36	7847.82
456.54	8013.99
456.73	7953.14
456.91	8245.71
457.09	8229.32
457.28	8559.34
457.46	8315.92
457.64	8234.00
457.83	8229.32
458.01	8063.15
458.19	8568.70
458.38	8273.79
458.56	8287.84
458.74	8517.21
458.93	8369.76
459.11	8472.74
459.29	8360.39
459.48	8325.29
459.66	8365.07
459.84	8517.21
460.03	8723.18
460.21	8540.61
460.39	8636.58
460.57	8503.17
460.76	8676.37
460.94	8734.88
461.12	8713.81
461.31	8833.18
461.49	8917.44
461.67	8664.66
461.85	8854.25
462.04	8894.04
462.22	9135.11
462.40	8903.40
462.59	9352.78
462.77	9006.38
462.95	9198.31
463.13	9135.11
463.32	8901.06
463.50	9020.42
463.68	9483.85
463.86	8950.21
464.05	9067.24
464.23	9053.19
464.41	9116.39
464.59	9102.34
464.78	9570.45
464.96	9287.25
465.14	9130.43
465.32	9284.91
465.50	9537.68
465.69	9268.52
465.87	9542.36
466.05	9287.25
466.23	9219.37
466.41	9387.89
466.60	9415.98
466.78	9497.89
466.96	9504.92
467.14	9448.74
467.32	9589.17
467.51	9668.75
467.69	9488.53
467.87	9628.96
468.05	9851.31
468.23	9507.26
468.41	9551.73
468.60	9551.73
468.78	9907.49
468.96	9902.81
469.14	9919.19
469.32	9874.72
469.50	9610.24
469.69	10010.47
469.87	10061.96
470.05	10015.15
470.23	10003.45
470.41	10068.98
470.59	9973.02
470.77	10146.22
470.95	10092.39
471.14	10403.68
471.32	10169.63
471.50	10141.54
471.68	10415.38
471.86	10565.18
472.04	10523.05
472.22	10787.53
472.40	10310.06
472.58	10406.02
472.77	10527.73
472.95	10654.12
473.13	10839.02
473.31	10925.62
473.49	10824.98
473.67	10862.43
473.85	10885.83
474.03	11164.36
474.21	11171.38
474.39	11103.50
474.57	11126.91
474.75	11400.75
474.93	11534.16
475.12	11279.04
475.30	11389.05
475.48	11379.68
475.66	11740.13
475.84	11414.79
476.02	11538.84
476.20	11541.18
476.38	11913.33
476.56	12046.74
476.74	12133.34
476.92	12023.33
477.10	11885.24
477.28	12322.92
477.46	12116.95
477.64	12294.83
477.82	12734.85
478.00	13034.44
478.18	12809.75
478.36	12891.67
478.54	12746.56
478.72	12950.18
478.90	13221.69
479.08	13296.58
479.26	13308.29
479.44	13371.48
479.62	13760.01
479.80	13582.13
479.98	13556.38
480.16	13944.91
480.34	13846.61
480.52	14010.45
480.70	14106.41
480.88	14256.20
481.06	14319.40
481.24	14106.41
481.41	14553.45
481.59	14628.35
481.77	14410.68
481.95	14703.25
482.13	14892.83
482.31	14824.95
482.49	15082.41
482.67	15255.61
482.85	15295.40
483.03	15342.21
483.21	15316.47
483.39	15683.93
483.57	15866.49
483.74	15669.89
483.92	15976.50
484.10	15786.91
484.28	16278.43
484.46	16177.78
484.64	16498.44
484.82	16262.04
485.00	16369.71
485.18	16840.15
485.35	16634.19
485.53	16369.71
485.71	16168.42
485.89	16828.45
486.07	16737.17
486.25	16835.47
486.43	17338.69
486.61	17387.84
486.78	17355.07
486.96	17692.11
487.14	17977.65
487.32	18068.94
487.50	18452.78
487.68	18459.81
487.85	18558.11
488.03	19140.90
488.21	19037.92
488.39	18700.88
488.57	19030.90
488.75	19150.26
488.92	19241.54
489.10	19566.88
489.28	19648.80
489.46	19934.34
489.64	19817.32
489.81	20524.16
489.99	20414.15
490.17	20542.88
490.35	20648.21
490.53	20592.03
490.70	20886.94
490.88	20851.83
491.06	21062.48
491.24	20898.64
491.41	20879.92
491.59	21518.89
491.77	21249.72
491.95	21476.76
492.13	21834.86
492.30	21696.77
492.48	21869.97
492.66	22265.52
492.84	22178.92
493.01	22522.98
493.19	22324.03
493.37	22443.40
493.54	22408.29
493.72	22986.40
493.90	23138.54
494.08	22993.42
494.25	23543.45
494.43	23424.08
494.61	23646.43
494.79	23697.92
494.96	23667.50
495.14	23751.76
495.32	23882.83
495.49	24290.08
495.67	24144.97
495.85	24606.05
496.02	24519.45
496.20	24788.61
496.38	24912.66
496.55	24713.72
496.73	25254.38
496.91	25376.09
497.09	25467.37
497.26	25340.98
497.44	25619.50
497.62	25762.28
497.79	25797.38
497.97	25509.50
498.14	25645.25
498.32	26038.46
498.50	26139.10
498.67	26567.42
498.85	26370.82
499.03	26801.47
499.20	26960.63
499.38	26689.13
499.56	26827.22
499.73	27365.54
499.91	26934.88
500.08	27112.77
500.26	26806.16
500.44	27033.19
500.61	26855.31
500.79	26920.84
500.97	26984.04
501.14	27529.38
501.32	27744.71
501.49	27604.28
501.67	27295.33
501.84	27786.84
502.02	28070.04
502.20	28678.58
502.37	28362.61
502.55	28268.99
502.72	28496.02
502.90	28816.68
503.07	28140.26
503.25	28863.49
503.43	28692.63
503.60	28517.09
503.78	28650.50
503.95	28498.36
504.13	28968.81
504.30	29039.03
504.48	29261.38
504.65	29362.02
504.83	29656.93
505.01	29439.26
505.18	29783.32
505.36	30038.44
505.53	30157.80
505.71	30059.50
505.88	29694.38
506.06	29834.81
506.23	29919.07
506.41	29848.85
506.58	30246.74
506.76	30218.66
506.93	30089.93
507.11	30412.92
507.28	30539.31
507.46	30602.50
507.63	30206.95
507.81	30417.60
507.98	30616.55
508.16	31157.21
508.33	31110.40
508.50	31105.72
508.68	31365.52
508.85	31751.71
509.03	31709.58
509.20	31695.53
509.38	31768.09
509.55	31763.41
509.73	31871.07
509.90	31742.35
510.08	31828.95
510.25	31838.31
510.42	31821.92
510.60	32147.26
510.77	32238.54
510.95	32748.78
511.12	31887.46
511.30	32411.74
511.47	33329.23
511.64	32896.23
511.82	32985.17
511.99	32802.61
512.17	32699.62
512.34	33137.30
512.51	33062.41
512.69	32868.14
512.86	33027.30
513.04	33266.03
513.21	33343.27
513.38	33373.70
513.56	33617.11
513.73	33001.55
513.90	33965.85
514.08	33706.05
514.25	33596.05
514.43	33715.42
514.60	33792.65
514.77	33914.36
514.95	34232.68
515.12	33923.72
515.29	34253.74
515.47	34450.35
515.64	34555.67
515.81	34382.47
515.99	34471.41
516.16	34480.77
516.33	33607.75
516.51	33757.55
516.68	34068.84
516.85	33603.07
517.03	34192.89
517.20	34330.98
517.37	34761.64
517.54	35168.89
517.72	34672.70
517.89	34485.45
518.06	34855.26
518.24	34822.49
518.41	34782.70
518.58	35072.93
518.75	35056.54
518.93	34962.92
519.10	35534.01
519.27	35386.56
519.45	35468.48
519.62	35604.23
519.79	35992.76
519.96	35924.88
520.14	35889.77
520.31	35400.60
520.48	36128.51
520.65	35819.56
520.83	36299.37
521.00	35983.40
521.17	36205.75
521.34	36486.61
521.52	36570.87
521.69	36629.38
521.86	36776.84
522.03	36900.89
522.20	36510.02
522.38	37125.58
522.55	37055.36
522.72	36629.38
522.89	36964.08
523.07	37411.12
523.24	36978.12
523.41	37759.86
523.58	37273.03
523.75	37771.57
523.92	37603.05
524.10	37333.89
524.27	37895.61
524.44	37872.21
524.61	37982.21
524.78	37977.53
524.96	38239.67
525.13	38061.79
525.30	38384.79
525.47	38604.80
525.64	37914.34
525.81	38078.18
525.98	37797.31
526.16	37471.98
526.33	37979.87
526.50	37790.29
526.67	37448.57
526.84	37902.64
527.01	37848.80
527.18	38211.59
527.36	38490.11
527.53	38738.21
527.70	38981.62
527.87	39030.77
528.04	38780.34
528.21	38808.42
528.38	38724.16
528.55	39063.54
528.72	39597.18
528.89	39964.65
529.07	39147.80
529.24	39599.52
529.41	39515.26
529.58	39246.10
529.75	39098.65
529.92	39842.94
530.09	39578.46
530.26	39590.16
530.43	39735.27
530.60	39889.75
530.77	39587.82
530.94	39896.77
531.11	39906.13
531.28	40414.03
531.46	39840.60
531.63	40191.68
531.80	40032.52
531.97	39667.40
532.14	40016.14
532.31	39817.19
532.48	39952.94
532.65	40226.79
532.82	40130.83
532.99	40055.93
533.16	40135.51
533.33	40194.02
533.50	40533.40
533.67	40687.87
533.84	40179.98
534.01	40580.21
534.18	40175.30
534.35	40666.81
534.52	40875.12
534.69	41174.70
534.86	41193.43
535.03	41235.56
535.20	41392.37
535.37	41366.63
535.54	41717.71
535.71	41188.75
535.88	41530.47
536.05	41141.94
536.22	41338.54
536.38	41380.67
536.55	41488.34
536.72	41216.83
536.89	40926.61
537.06	41193.43
537.23	41509.40
537.40	41244.92
537.57	41675.58
537.74	41792.61
537.91	42195.18
538.08	41755.16
538.25	41668.56
538.42	41741.11
538.59	41757.50
538.75	41804.31
538.92	41818.35
539.09	41954.10
539.26	42321.57
539.43	41752.82
539.60	41675.58
539.77	41790.27
539.94	42099.22
540.11	41745.80
540.28	42136.66
540.44	41914.31
540.61	41895.59
540.78	41593.66
540.95	42040.70
541.12	42335.61
541.29	42478.38
541.46	42071.13
541.62	42600.09
541.79	42368.38
541.96	41965.81
542.13	42454.98
542.30	42436.25
542.47	42555.62
542.63	42717.12
542.80	42693.71
542.97	42976.92
543.14	43278.85
543.31	43075.22
543.48	43328.00
543.64	43548.01
543.81	43728.23
543.98	43548.01
544.15	43253.10
544.32	43435.66
544.48	43405.23
544.65	43442.68
544.82	43047.13
544.99	43295.23
545.16	43838.23
545.32	43494.18
545.49	43943.56
545.66	44086.33
545.83	43978.67
546.00	43957.60
546.16	43449.70
546.33	43442.68
546.50	43374.81
546.67	43587.80
546.83	43182.88
547.00	43768.02
547.17	43941.22
547.34	43672.06
547.50	43784.40
547.67	43992.71
547.84	44037.18
548.00	44470.18
548.17	44381.24
548.34	44542.74
548.51	44102.71
548.67	44362.51
548.84	44793.17
549.01	43906.11
549.18	44304.00
549.34	44285.28
549.51	44362.51
549.68	44519.33
549.84	44676.15
550.01	44634.02
550.18	44451.45
550.34	44137.82
550.51	44500.61
550.68	44493.58
550.84	44144.84
551.01	44371.88
551.18	44414.01
551.34	44273.57
551.51	44512.31
551.68	44676.15
551.84	45195.74
552.01	44772.11
552.18	44568.48
552.34	44533.37
552.51	44910.20
552.68	44753.38
552.84	44882.11
553.01	44893.82
553.18	45120.85
553.34	45076.38
553.51	44814.24
553.67	45111.49
553.84	45928.33
554.01	44964.03
554.17	45209.79
554.34	45492.99
554.51	45076.38
554.67	44809.56
554.84	45450.86
555.00	44889.13
555.17	44868.07
555.33	45237.87
555.50	45228.51
555.67	45600.66
555.83	44903.18
556.00	45043.61
556.16	45591.30
556.33	45624.06
556.50	45132.55
556.66	45619.38
556.83	45436.82
556.99	45518.74
557.16	45797.26
557.32	45244.90
557.49	45481.29
557.65	45464.91
557.82	45298.73
557.98	45485.97
558.15	45771.52
558.32	45600.66
558.48	45492.99
558.65	45542.14
558.81	45462.57
558.98	45476.61
559.14	45736.41
559.31	45748.11
559.47	45624.06
559.64	45991.53
559.80	45546.82
559.97	45874.50
560.13	45469.59
560.30	45752.79
560.46	45748.11
560.63	45670.87
560.79	45689.60
560.96	46101.53
561.12	45771.52
561.29	45727.05
561.45	45811.31
561.61	45483.63
561.78	45736.41
561.94	45743.43
562.11	45404.05
562.27	45457.88
562.44	45949.40
562.60	46518.15
562.77	45715.34
562.93	45886.20
563.10	45886.20
563.26	45813.65
563.42	46071.10
563.59	45792.58
563.75	45787.90
563.92	46096.85
564.08	46174.09
564.24	46370.69
564.41	46216.22
564.57	46131.96
564.74	45865.14
564.90	46426.87
565.07	46146.00
565.23	46155.36
565.39	45916.63
565.56	46258.35
565.72	45811.31
565.88	46504.10
566.05	45853.44
566.21	46073.45
566.38	46342.61
566.54	46043.02
566.70	46586.02
566.87	46555.60
567.03	46330.90
567.19	47089.24
567.36	46066.42
567.52	46508.79
567.68	46195.15
567.85	46157.70
568.01	46534.53
568.17	46225.58
568.34	46363.67
568.50	45799.60
568.66	46216.22
568.83	46712.41
568.99	46024.29
569.15	46155.36
569.32	46167.07
569.48	46263.03
569.64	46717.09
569.81	46450.27
569.97	46373.03
570.13	46267.71
570.30	45675.55
570.46	45511.72
570.62	45815.99
570.78	45942.38
570.95	45876.84
571.11	46256.01
571.27	46124.94
571.43	46082.81
571.60	46380.06
571.76	46403.46
571.92	46227.92
572.09	46251.33
572.25	46174.09
572.41	46735.82
572.57	46293.46
572.74	46845.82
572.90	46075.79
573.06	46672.62
573.22	46621.13
573.38	46588.36
573.55	46487.72
573.71	46356.65
573.87	46518.15
574.03	46174.09
574.20	46225.58
574.36	46422.19
574.52	46230.26
574.68	46642.20
574.84	46525.17
575.01	46323.88
575.17	46314.52
575.33	46316.86
575.49	45984.51
575.65	46501.76
575.82	46461.97
575.98	46883.27
576.14	46520.49
576.30	46564.96
576.46	46731.14
576.62	46513.47
576.79	46579.00
576.95	46014.93
577.11	46300.48
577.27	46618.79
577.43	46394.10
577.59	46314.52
577.75	46270.05
577.92	46124.94
578.08	45928.33
578.24	46094.51
578.40	46600.07
578.56	46328.56
578.72	46728.80
578.88	46637.51
579.04	46714.75
579.21	46595.38
579.37	46583.68
579.53	46326.22
579.69	46426.87
579.85	46583.68
580.01	46459.63
580.17	46380.06
580.33	46415.16
580.49	46408.14
580.65	46581.34
580.82	46506.44
580.98	46155.36
581.14	46012.59
581.30	46906.68
581.46	46754.54
581.62	46597.73
581.78	46703.05
581.94	46534.53
582.10	46726.46
582.26	47070.51
582.42	47152.43
582.58	46663.26
582.74	46698.37
582.90	46630.49
583.06	46852.84
583.22	46911.36
583.38	46649.22
583.54	46780.29
583.70	46326.22
583.86	46969.87
584.02	46085.15
584.18	46607.09
584.34	46429.21
584.50	46518.15
584.66	46508.79
584.82	46328.56
584.98	46862.21
585.14	46454.95
585.30	46696.03
585.46	46705.39
585.62	46312.18
585.78	46424.53
585.94	46382.40
586.10	46691.35
586.26	46630.49
586.42	47412.23
586.58	46955.83
586.74	46784.97
586.90	46522.83
587.06	46438.57
587.22	46794.33
587.38	46859.87
587.54	46988.60
587.70	46586.02
587.86	46424.53
588.02	46911.36
588.18	46894.97
588.34	46642.20
588.49	46028.98
588.65	45762.15
588.81	46092.17
588.97	46368.35
589.13	45951.74
589.29	46384.74
589.45	46485.38
589.61	46370.69
589.77	46761.56
589.93	46745.18
