SpectraSuite Data File
++++++++++++++++++++++++++++++++++++
Date: Fri Oct 25 11:23:00 EDT 2013
User: price-jones
Dark Spectrum Present: No
Reference Spectrum Present: No
Number of Sampled Component Spectra: 1
Spectrometers: USB2+H05261
Integration Time (usec): 100000 (USB2+H05261)
Spectra Averaged: 1 (USB2+H05261)
Boxcar Smoothing: 0 (USB2+H05261)
Correct for Electrical Dark: No (USB2+H05261)
Strobe/Lamp Enabled: No (USB2+H05261)
Correct for Detector Non-linearity: No (USB2+H05261)
Correct for Stray Light: No (USB2+H05261)
Number of Pixels in Processed Spectrum: 2048
>>>>>Begin Processed Spectral Data<<<<<
365.73	241.08
365.92	241.08
366.12	241.08
366.32	163.84
366.52	152.13
366.72	124.05
366.91	100.64
367.11	105.32
367.31	124.05
367.51	142.77
367.70	84.26
367.90	56.17
368.10	119.37
368.30	102.98
368.49	126.39
368.69	149.79
368.89	114.69
369.09	187.24
369.28	210.65
369.48	124.05
369.68	236.39
369.87	203.63
370.07	166.18
370.27	255.12
370.47	318.31
370.66	599.18
370.86	685.78
371.06	660.03
371.25	699.82
371.45	573.43
371.65	692.80
371.84	723.23
372.04	650.67
372.24	671.73
372.44	674.07
372.63	767.70
372.83	767.70
373.03	695.14
373.22	741.95
373.42	826.21
373.62	737.27
373.81	772.38
374.01	858.98
374.21	828.55
374.40	781.74
374.60	851.96
374.79	858.98
374.99	777.06
375.19	868.34
375.38	847.27
375.58	873.02
375.78	903.45
375.97	833.23
376.17	894.08
376.37	875.36
376.56	863.66
376.76	884.72
376.95	844.93
377.15	936.21
377.35	945.58
377.54	877.70
377.74	917.49
377.93	868.34
378.13	851.96
378.33	849.61
378.52	889.40
378.72	964.30
378.91	926.85
379.11	936.21
379.31	964.30
379.50	877.70
379.70	1001.75
379.89	1011.11
380.09	901.11
380.28	961.96
380.48	954.94
380.68	968.98
380.87	992.39
381.07	1034.52
381.26	1029.84
381.46	976.00
381.65	1036.86
381.85	1076.65
382.04	1018.13
382.24	1086.01
382.43	1109.41
382.63	1071.97
382.83	1090.69
383.02	1076.65
383.22	1111.75
383.41	992.39
383.61	1083.67
383.80	1006.43
384.00	1158.57
384.19	1078.99
384.39	1095.37
384.58	1074.31
384.78	1104.73
384.97	1167.93
385.17	1214.74
385.36	1116.44
385.56	1167.93
385.75	1160.91
385.95	1095.37
386.14	1200.69
386.34	1088.35
386.53	1142.18
386.72	1191.33
386.92	1224.10
387.11	1184.31
387.31	1221.76
387.50	1296.66
387.70	1284.95
387.89	1214.74
388.09	1350.49
388.28	1217.08
388.48	1343.47
388.67	1362.19
388.86	1409.00
389.06	1380.92
389.25	1418.36
389.45	1338.79
389.64	1334.11
389.84	1362.19
390.03	1409.00
390.22	1392.62
390.42	1348.15
390.61	1458.15
390.81	1434.75
391.00	1371.55
391.19	1486.24
391.39	1455.81
391.58	1425.39
391.78	1479.22
391.97	1507.30
392.16	1441.77
392.36	1490.92
392.55	1509.65
392.75	1558.80
392.94	1516.67
393.13	1607.95
393.33	1488.58
393.52	1638.38
393.71	1507.30
393.91	1582.20
394.10	1607.95
394.29	1554.12
394.49	1633.69
394.68	1682.85
394.88	1605.61
395.07	1781.15
395.26	1638.38
395.46	1668.80
395.65	1790.51
395.84	1729.66
396.04	1769.44
396.23	1778.81
396.42	1727.32
396.62	1776.47
396.81	1797.53
397.00	1802.21
397.19	1809.23
397.39	1804.55
397.58	1891.15
397.77	1830.30
397.97	1879.45
398.16	1858.39
398.35	1987.11
398.55	1785.83
398.74	1877.11
398.93	2008.18
399.12	1858.39
399.32	1877.11
399.51	1961.37
399.70	1989.46
399.90	1912.22
400.09	2090.10
400.28	2015.20
400.47	2073.71
400.67	2157.97
400.86	1977.75
401.05	2083.08
401.24	2019.88
401.44	2118.18
401.63	2242.23
401.82	2162.66
402.01	2083.08
402.21	2230.53
402.40	2127.55
402.59	2282.02
402.78	2251.60
402.97	2258.62
403.17	2237.55
403.36	2216.49
403.55	2275.00
403.74	2204.78
403.93	2382.67
404.13	2415.43
404.32	2382.67
404.51	2417.77
404.70	2471.61
404.89	2438.84
405.09	2497.35
405.28	2363.94
405.47	2495.01
405.66	2537.14
405.85	2541.82
406.05	2499.69
406.24	2635.44
406.43	2492.67
406.62	2633.10
406.81	2679.91
407.00	2586.29
407.20	2499.69
407.39	2623.74
407.58	2745.45
407.77	2761.83
407.96	2647.15
408.15	2848.43
408.34	2806.30
408.54	2829.71
408.73	2803.96
408.92	2839.07
409.11	2871.84
409.30	2808.64
409.49	2881.20
409.68	2956.10
409.87	2981.84
410.07	3075.46
410.26	3056.74
410.45	3080.14
410.64	3030.99
410.83	3145.68
411.02	3075.46
411.21	3337.60
411.40	3038.02
411.59	3253.34
411.78	3101.21
411.98	3293.13
412.17	3353.99
412.36	3269.73
412.55	3368.03
412.74	3452.29
412.93	3471.01
413.12	3431.23
413.31	3698.05
413.50	3461.65
413.69	3412.50
413.88	3618.47
414.07	3599.74
414.26	3716.77
414.45	3653.58
414.64	3662.94
414.83	3911.04
415.02	3936.78
415.22	3791.67
415.41	3887.63
415.60	3948.48
415.79	3934.44
415.98	3941.46
416.17	3950.82
416.36	3782.31
416.55	4109.98
416.74	4086.58
416.93	4081.89
417.12	4112.32
417.31	4299.56
417.50	4374.46
417.69	4283.18
417.88	4449.36
418.07	4271.48
418.26	4311.27
418.45	4428.29
418.64	4517.23
418.83	4491.49
419.02	4479.79
419.21	4468.08
419.39	4477.44
419.58	4528.94
419.77	4540.64
419.96	4634.26
420.15	4765.33
420.34	4638.94
420.53	4711.50
420.72	4737.24
420.91	4774.69
421.10	4837.89
421.29	4887.04
421.48	4692.77
421.67	4847.25
421.86	4858.95
422.05	4779.37
422.24	4873.00
422.43	4917.47
422.61	4762.99
422.80	5006.41
422.99	4908.10
423.18	4868.31
423.37	5048.54
423.56	4924.49
423.75	5062.58
423.94	4884.70
424.13	4521.92
424.32	4788.74
424.50	4980.66
424.69	5170.24
424.88	5095.35
425.07	4947.89
425.26	4889.38
425.45	4983.00
425.64	5095.35
425.83	5078.96
426.01	4987.68
426.20	5193.65
426.39	5111.73
426.58	5083.64
426.77	5083.64
426.96	5263.86
427.15	5205.35
427.33	5217.05
427.52	5249.82
427.71	5205.35
427.90	5226.42
428.09	5481.53
428.28	5434.72
428.46	5373.87
428.65	5490.90
428.84	5652.39
429.03	5497.92
429.22	5434.72
429.40	5507.28
429.59	5549.41
429.78	5434.72
429.97	5303.65
430.16	5497.92
430.34	5570.48
430.53	5673.46
430.72	5701.54
430.91	5774.10
431.10	5699.20
431.28	5673.46
431.47	5963.68
431.66	5823.25
431.85	5795.17
432.03	5956.66
432.22	6066.67
432.41	6003.47
432.60	5895.81
432.79	5916.87
432.97	6010.50
433.16	6050.28
433.35	5907.51
433.54	6153.27
433.72	6216.46
433.91	6256.25
434.10	6157.95
434.28	6289.02
434.47	6230.51
434.66	6576.91
434.85	6263.27
435.03	6338.17
435.22	6272.64
435.41	6527.75
435.59	6581.59
435.78	6342.85
435.97	6436.47
436.16	6450.52
436.34	6232.85
436.53	6614.35
436.72	6633.08
436.90	6506.69
437.09	6473.92
437.28	6452.86
437.46	6576.91
437.65	6619.04
437.84	6736.06
438.02	6745.42
438.21	6658.82
438.40	6668.19
438.58	7138.63
438.77	7063.74
438.96	7082.46
439.14	6923.30
439.33	7339.92
439.52	7248.64
439.70	7176.08
439.89	7562.27
440.08	7400.77
440.26	7433.54
440.45	7396.09
440.63	7407.80
440.82	7557.59
441.01	7599.72
441.19	7630.15
441.38	7808.03
441.57	7723.77
441.75	7829.09
441.94	8074.85
442.12	8044.42
442.31	8056.12
442.50	8030.38
442.68	8018.68
442.87	7899.31
443.05	8210.60
443.24	8411.89
443.43	8156.77
443.61	8215.28
443.80	8432.95
443.98	8161.45
444.17	7889.95
444.35	8313.58
444.54	8432.95
444.73	8456.36
444.91	8325.29
445.10	8322.94
445.28	8320.60
445.47	8383.80
445.65	8458.70
445.84	8599.13
446.02	8568.70
446.21	8313.58
446.39	8580.40
446.58	8566.36
446.77	8580.40
446.95	8386.14
447.14	8531.25
447.32	8610.83
447.51	8662.32
447.69	8533.59
447.88	8472.74
448.06	8678.71
448.25	8561.68
448.43	8741.90
448.62	8608.49
448.80	8664.66
448.99	8636.58
449.17	8727.86
449.36	8620.19
449.54	8978.30
449.73	9025.11
449.91	9125.75
450.10	9015.74
450.28	9128.09
450.46	8961.91
450.65	9172.56
450.83	9069.58
451.02	9109.36
451.20	9282.56
451.39	9067.24
451.57	9308.31
451.76	9320.01
451.94	9296.61
452.13	9488.53
452.31	9331.72
452.49	9179.58
452.68	9357.46
452.86	9530.66
453.05	9217.03
453.23	9516.62
453.42	9418.32
453.60	9584.49
453.78	9481.51
453.97	9694.50
454.15	9479.17
454.34	9404.27
454.52	9799.82
454.70	9650.03
454.89	9774.08
455.07	10092.39
455.26	9942.60
455.44	10008.13
455.62	10052.60
455.81	9832.59
455.99	10026.86
456.17	10061.96
456.36	10174.31
456.54	10342.83
456.73	10244.52
456.91	10607.31
457.09	10408.36
457.28	10623.69
457.46	10417.72
457.64	10619.01
457.83	10443.47
458.01	10525.39
458.19	10593.26
458.38	10471.56
458.56	10899.87
458.74	10714.97
458.93	10710.29
459.11	10981.79
459.29	10860.09
459.48	11009.88
459.66	10771.15
459.84	11026.26
460.03	10939.66
460.21	11016.90
460.39	11124.57
460.57	10988.82
460.76	11052.01
460.94	11475.65
461.12	11382.03
461.31	11269.68
461.49	11190.10
461.67	11236.91
461.85	11702.68
462.04	11506.07
462.22	11765.87
462.40	11492.03
462.59	11793.96
462.77	11616.08
462.95	11793.96
463.13	11604.38
463.32	11611.40
463.50	11770.55
463.68	11765.87
463.86	11878.22
464.05	11850.13
464.23	11798.64
464.41	12039.72
464.59	11817.36
464.78	12182.49
464.96	12042.06
465.14	11864.18
465.32	12217.60
465.50	12079.50
465.69	12184.83
465.87	12386.12
466.05	12311.22
466.23	12397.82
466.41	12379.09
466.60	12498.46
466.78	12461.01
466.96	12365.05
467.14	12226.96
467.32	12521.87
467.51	12610.81
467.69	12320.58
467.87	12737.20
468.05	12430.59
468.23	12622.51
468.41	12383.77
468.60	12809.75
468.78	12814.43
468.96	12554.63
469.14	12870.61
469.32	13064.87
469.50	12678.68
469.69	13029.76
469.87	13186.58
470.05	13107.00
470.23	13263.82
470.41	13245.09
470.59	13362.12
470.77	13240.41
470.95	13214.66
471.14	13699.16
471.32	13217.01
471.50	13654.69
471.68	13762.35
471.86	13731.92
472.04	13813.84
472.22	14087.68
472.40	13944.91
472.58	13760.01
472.77	14129.81
472.95	14125.13
473.13	14707.93
473.31	14235.14
473.49	14314.72
473.67	14204.71
473.85	14242.16
474.03	14883.47
474.21	14862.40
474.39	14623.67
474.57	14902.19
474.75	15077.73
474.93	15279.02
475.12	15192.42
475.30	15194.76
475.48	15363.28
475.66	15279.02
475.84	15417.11
476.02	15578.61
476.20	15543.50
476.38	15857.13
476.56	16189.49
476.74	16056.08
476.92	16056.08
477.10	16091.18
477.28	16301.83
477.46	16716.11
477.64	16608.44
477.82	16709.08
478.00	17095.27
478.18	16652.91
478.36	17266.13
478.54	17163.15
478.72	17130.38
478.90	17317.62
479.08	17750.62
479.26	17858.29
479.44	18019.78
479.62	17820.84
479.80	18237.45
479.98	18228.09
480.16	18782.80
480.34	18492.57
480.52	18904.51
480.70	18998.13
480.88	18572.15
481.06	19082.39
481.24	18850.67
481.41	19302.40
481.59	19384.32
481.77	19880.51
481.95	20053.71
482.13	20065.41
482.31	20147.33
482.49	20528.84
482.67	20505.43
482.85	20575.65
483.03	20690.34
483.21	20847.15
483.39	21088.23
483.57	21245.04
483.74	21263.77
483.92	21289.51
484.10	21305.90
484.28	22115.72
484.46	21928.48
484.64	22546.38
484.82	22239.77
485.00	22803.84
485.18	22764.05
485.35	23175.98
485.53	23271.95
485.71	23477.91
485.89	23704.95
486.07	23332.80
486.25	23613.66
486.43	23711.97
486.61	23859.42
486.78	24376.68
486.96	24252.63
487.14	24755.85
487.32	24662.22
487.50	25230.98
487.68	25450.99
487.85	25376.09
488.03	25642.91
488.21	25923.77
488.39	25989.31
488.57	26513.59
488.75	26843.60
488.92	26700.83
489.10	26675.09
489.28	27185.32
489.46	27583.21
489.64	27410.01
489.81	28053.66
489.99	28093.45
490.17	28051.32
490.35	28620.07
490.53	28381.34
490.70	28690.29
490.88	28549.85
491.06	29083.50
491.24	28940.72
491.41	29378.40
491.59	29207.55
491.77	29392.45
491.95	30068.86
492.13	30022.05
492.30	30054.82
492.48	30089.93
492.66	30333.34
492.84	30932.52
493.01	30827.20
493.19	31159.55
493.37	31487.23
493.54	31150.19
493.72	31798.52
493.90	31861.71
494.08	32229.18
494.25	32521.74
494.43	32137.90
494.61	32760.48
494.79	32926.66
494.96	32877.51
495.14	33003.89
495.32	33497.75
495.49	33413.49
495.67	33460.30
495.85	33556.26
496.02	33935.43
496.20	34080.54
496.38	34092.24
496.55	34595.46
496.73	35302.30
496.91	34675.04
497.09	35232.08
497.26	35632.32
497.44	35026.12
497.62	35475.50
497.79	35821.90
497.97	35988.08
498.14	36449.16
498.32	36645.77
498.50	36779.18
498.67	36842.37
498.85	37301.12
499.03	37078.77
499.20	37151.32
499.38	37156.00
499.56	37551.56
499.73	37289.42
499.91	37612.41
500.08	37738.80
500.26	38040.73
500.44	37783.27
500.61	38494.79
500.79	37956.47
500.97	38822.47
501.14	39208.65
501.32	39028.43
501.49	38953.54
501.67	38871.62
501.84	39405.26
502.02	39318.66
502.20	39196.95
502.37	39746.98
502.55	39594.84
502.72	40219.77
502.90	40229.13
503.07	39948.26
503.25	40116.78
503.43	40353.18
503.60	40055.93
503.78	41013.21
503.95	40725.32
504.13	40715.96
504.30	40779.15
504.48	40964.06
504.65	40980.44
504.83	41748.14
505.01	41738.77
505.18	41179.39
505.36	41799.63
505.53	41464.93
505.71	41860.48
505.88	42139.00
506.06	41954.10
506.23	42211.56
506.41	42017.30
506.58	42752.23
506.76	42646.90
506.93	42979.26
507.11	43168.84
507.28	42918.40
507.46	42995.64
507.63	43328.00
507.81	43681.42
507.98	43178.20
508.16	43145.44
508.33	43824.19
508.50	43522.26
508.68	44023.14
508.85	44201.02
509.03	44210.38
509.20	44357.83
509.38	44701.89
509.55	44678.49
509.73	44872.75
509.90	44657.42
510.08	44828.28
510.25	44737.00
510.42	45024.89
510.60	45542.14
510.77	45380.65
510.95	45715.34
511.12	45284.68
511.30	45757.47
511.47	45708.32
511.64	46232.60
511.82	46295.80
511.99	45757.47
512.17	45986.85
512.34	46635.17
512.51	46754.54
512.69	46705.39
512.86	46782.63
513.04	46770.93
513.21	46777.95
513.38	47082.22
513.56	47009.66
513.73	47122.01
513.90	47395.85
514.08	47269.46
514.25	47564.37
514.43	47522.24
514.60	48027.79
514.77	47693.10
514.95	48156.52
515.12	47971.62
515.29	47992.68
515.47	48587.18
515.64	48182.27
515.81	48074.60
515.99	48329.72
516.16	48678.46
516.33	48694.85
516.51	48956.99
516.68	48772.08
516.85	48765.06
517.03	48978.05
517.20	49102.10
517.37	49605.31
517.54	49099.76
517.72	49090.40
517.89	49242.53
518.06	49778.51
518.24	49469.56
518.41	49654.47
518.58	49593.61
518.75	49785.54
518.93	49698.94
519.10	49773.83
519.27	49743.41
519.45	49696.59
519.62	50178.75
519.79	50401.10
519.96	50316.84
520.14	50234.92
520.31	50555.57
520.48	50838.78
520.65	50513.44
520.83	50939.42
521.00	51210.92
521.17	51011.98
521.34	50876.22
521.52	50960.48
521.69	51454.34
521.86	51503.49
522.03	51398.16
522.20	51559.66
522.38	51877.97
522.55	51758.61
522.72	51826.48
522.89	52013.73
523.07	52198.63
523.24	51611.15
523.41	52034.79
523.58	51613.49
523.75	52268.84
523.92	52051.17
524.10	52175.22
524.27	52491.19
524.44	51814.78
524.61	52301.61
524.78	52683.12
524.96	52446.72
525.13	52636.31
525.30	52594.18
525.47	52989.73
525.64	52575.45
525.81	52889.09
525.98	53113.78
526.16	52973.34
526.33	52851.64
526.50	53272.93
526.67	53179.31
526.84	53200.38
527.01	53240.17
527.18	53127.82
527.36	53399.32
527.53	53167.61
527.70	53586.57
527.87	53743.38
528.04	53469.54
528.21	53476.56
528.38	53752.74
528.55	53939.99
528.72	53666.14
528.89	53722.32
529.07	53858.07
529.24	53811.26
529.41	53895.52
529.58	54005.52
529.75	53829.98
529.92	53764.45
530.09	54129.57
530.26	54358.94
530.43	54248.94
530.60	54087.44
530.77	54342.56
530.94	54340.22
531.11	54429.16
531.28	54115.53
531.46	54335.54
531.63	54391.71
531.80	54529.80
531.97	54780.24
532.14	54841.09
532.31	54588.31
532.48	54761.51
532.65	54913.65
532.82	54621.08
532.99	55063.44
533.16	54770.88
533.33	54972.16
533.50	55175.79
533.67	54983.86
533.84	55007.27
534.01	55203.88
534.18	55271.75
534.35	55679.00
534.52	55206.22
534.69	55569.00
534.86	55430.91
535.03	55220.26
535.20	55430.91
535.37	55580.70
535.54	55510.49
535.71	55751.56
535.88	55636.87
536.05	55812.41
536.22	55990.30
536.38	55962.21
536.55	55915.40
536.72	55920.08
536.89	56016.04
537.06	55929.44
537.23	56088.60
537.40	55964.55
537.57	55770.28
537.74	56034.77
537.91	56313.29
538.08	56303.93
538.25	56104.98
538.42	56128.39
538.59	56519.26
538.75	56219.67
538.92	56214.99
539.09	56535.64
539.26	56591.81
539.43	56477.13
539.60	56542.66
539.77	56374.14
539.94	56788.42
540.11	56762.67
540.28	56640.96
540.44	56832.89
540.61	56678.41
540.78	56556.70
540.95	56460.74
541.12	56493.51
541.29	56638.62
541.46	56631.60
541.62	56839.91
541.79	56828.21
541.96	56762.67
542.13	56552.02
542.30	57078.64
542.47	57073.96
542.63	57015.45
542.80	57226.10
542.97	57322.06
543.14	57593.56
543.31	57436.75
543.48	57308.02
543.64	57764.42
543.81	57462.49
543.98	57577.18
544.15	57495.26
544.32	57532.71
544.48	57745.70
544.65	57607.61
544.82	57649.74
544.99	57521.01
545.16	57729.31
545.32	57595.90
545.49	57855.70
545.66	58085.07
545.83	57762.08
546.00	58056.99
546.16	58007.84
546.33	57757.40
546.50	57623.99
546.67	57942.30
546.83	57635.69
547.00	57900.17
547.17	58127.20
547.34	58045.29
547.50	58052.31
547.67	58251.25
547.84	58073.37
548.00	58436.16
548.17	58319.13
548.34	58246.57
548.51	58578.93
548.67	58630.42
548.84	58513.39
549.01	58511.05
549.18	58396.37
549.34	58429.13
549.51	58494.67
549.68	58649.14
549.84	58443.18
550.01	58466.58
550.18	58520.41
550.34	58607.01
550.51	58897.24
550.68	58777.87
550.84	58532.12
551.01	58960.44
551.18	58791.92
551.34	58651.48
551.51	58773.19
551.68	58702.98
551.84	58948.73
552.01	58796.60
552.18	58951.07
552.34	58864.47
552.51	58941.71
552.68	58794.26
552.84	58695.95
553.01	59353.65
553.18	58972.14
553.34	59229.60
553.51	59061.08
553.67	59018.95
553.84	59154.70
554.01	59231.94
554.17	59440.24
554.34	59185.13
554.51	59042.35
554.67	59517.48
554.84	59306.83
555.00	59187.47
555.17	59084.48
555.33	59292.79
555.50	59292.79
555.67	58981.50
555.83	59213.21
556.00	59353.65
556.16	59547.91
556.33	59367.69
556.50	59587.70
556.66	59540.89
556.83	59283.43
556.99	59625.15
557.16	59632.17
557.32	59648.55
557.49	59693.02
557.65	59587.70
557.82	59657.91
557.98	59721.11
558.15	59700.04
558.32	59772.60
558.48	59632.17
558.65	59604.08
558.81	59758.56
558.98	59634.51
559.14	59868.56
559.31	59896.65
559.47	59859.20
559.64	59945.80
559.80	59880.27
559.97	59854.52
560.13	59739.83
560.30	59922.40
560.46	59877.93
560.63	60116.66
560.79	59901.33
560.96	60158.79
561.12	60081.55
561.29	60034.74
561.45	60144.75
561.61	60093.25
561.78	60086.23
561.94	59896.65
562.11	60065.17
562.27	60273.48
562.44	60142.41
562.60	60104.96
562.77	60294.54
562.93	60100.28
563.10	60212.62
563.26	60079.21
563.42	60467.74
563.59	60200.92
563.75	60217.30
563.92	60317.95
564.08	60158.79
564.24	60474.76
564.41	60418.59
564.57	60334.33
564.74	60451.36
564.90	60353.05
565.07	60308.58
565.23	60303.90
565.39	60320.29
565.56	60301.56
565.72	60390.50
565.88	60399.86
566.05	60371.78
566.21	60477.10
566.38	60430.29
566.54	60603.49
566.70	60554.34
566.87	60481.78
567.03	60348.37
567.19	60685.41
567.36	60488.80
567.52	60444.33
567.68	60687.75
567.85	60596.47
568.01	60591.79
568.17	60495.83
568.34	60598.81
568.50	60556.68
568.66	60617.53
568.83	60577.75
568.99	60430.29
569.15	60636.26
569.32	60762.65
569.48	60542.64
569.64	60711.16
569.81	60676.05
569.97	60554.34
570.13	60713.50
570.30	60619.88
570.46	60612.85
570.62	60701.79
570.78	60879.67
570.95	60676.05
571.11	61036.49
571.27	60526.25
571.43	60853.93
571.60	60816.48
571.76	60699.45
571.92	60736.90
572.09	60718.18
572.25	60830.52
572.41	60779.03
572.57	60860.95
572.74	61043.51
572.90	60839.89
573.06	60872.65
573.22	60903.08
573.38	61022.45
573.55	60809.46
573.71	60877.33
573.87	60816.48
574.03	60715.84
574.20	60931.17
574.36	60715.84
574.52	60992.02
574.68	60877.33
574.84	60912.44
575.01	60973.30
575.17	60977.98
575.33	60685.41
575.49	60940.53
575.65	60956.91
575.82	60863.29
575.98	60734.56
576.14	61127.77
576.30	61167.56
576.46	60919.46
576.62	60786.05
576.79	60863.29
576.95	61181.60
577.11	60989.68
577.27	61118.41
577.43	60914.78
577.59	60996.70
577.75	60996.70
577.92	61015.43
578.08	60985.00
578.24	61045.85
578.40	61041.17
578.56	61141.81
578.72	61059.90
578.88	61099.68
579.04	61275.22
579.21	61069.26
579.37	61186.28
579.53	61172.24
579.69	61036.49
579.85	61038.83
580.01	61141.81
580.17	60793.07
580.33	61247.14
580.49	61275.22
580.65	61066.92
580.82	61083.30
580.98	61048.19
581.14	60804.78
581.30	61289.27
581.46	61104.37
581.62	61389.91
581.78	61083.30
581.94	60959.25
582.10	61109.05
582.26	61172.24
582.42	61202.67
582.58	61174.58
582.74	60970.96
582.90	61190.97
583.06	61209.69
583.22	60914.78
583.38	61153.52
583.54	61127.77
583.70	61172.24
583.86	61071.60
584.02	60954.57
584.18	61111.39
584.34	61172.24
584.50	61099.68
584.66	60999.04
584.82	61022.45
584.98	61293.95
585.14	61382.89
585.30	60863.29
585.46	61109.05
585.62	61104.37
585.78	61453.11
585.94	61099.68
586.10	61034.15
586.26	61340.76
586.42	61347.78
586.58	61160.54
586.74	61221.39
586.90	61197.99
587.06	61270.54
587.22	61387.57
587.38	61263.52
587.54	61457.79
587.70	61366.51
587.86	61242.46
588.02	61415.66
588.18	61394.59
588.34	61429.70
588.49	61041.17
