SpectraSuite Data File
++++++++++++++++++++++++++++++++++++
Date: Fri Oct 25 11:25:48 EDT 2013
User: price-jones
Dark Spectrum Present: No
Reference Spectrum Present: No
Number of Sampled Component Spectra: 1
Spectrometers: USB2+H05261
Integration Time (usec): 100000 (USB2+H05261)
Spectra Averaged: 1 (USB2+H05261)
Boxcar Smoothing: 0 (USB2+H05261)
Correct for Electrical Dark: No (USB2+H05261)
Strobe/Lamp Enabled: No (USB2+H05261)
Correct for Detector Non-linearity: No (USB2+H05261)
Correct for Stray Light: No (USB2+H05261)
Number of Pixels in Processed Spectrum: 2048
>>>>>Begin Processed Spectral Data<<<<<
365.73	217.67
365.92	217.67
366.12	217.67
366.32	159.16
366.52	126.39
366.72	187.24
366.91	217.67
367.11	133.41
367.31	140.43
367.51	140.43
367.70	100.64
367.90	124.05
368.10	107.66
368.30	110.01
368.49	161.50
368.69	135.75
368.89	196.60
369.09	198.95
369.28	163.84
369.48	149.79
369.68	175.54
369.87	224.69
370.07	231.71
370.27	262.14
370.47	322.99
370.66	528.96
370.86	667.05
371.06	662.37
371.25	741.95
371.45	718.54
371.65	706.84
371.84	653.01
372.04	767.70
372.24	725.57
372.44	641.31
372.63	809.83
372.83	753.65
373.03	737.27
373.22	798.12
373.42	807.48
373.62	739.61
373.81	716.20
374.01	863.66
374.21	833.23
374.40	842.59
374.60	788.76
374.79	807.48
374.99	814.51
375.19	856.64
375.38	863.66
375.58	870.68
375.78	877.70
375.97	851.96
376.17	931.53
376.37	847.27
376.56	856.64
376.76	870.68
376.95	901.11
377.15	926.85
377.35	823.87
377.54	891.74
377.74	887.06
377.93	938.55
378.13	933.87
378.33	908.13
378.52	950.26
378.72	992.39
378.91	987.71
379.11	947.92
379.31	959.62
379.50	894.08
379.70	973.66
379.89	964.30
380.09	933.87
380.28	1139.84
380.48	1053.24
380.68	1011.11
380.87	1013.45
381.07	954.94
381.26	997.07
381.46	1036.86
381.65	1060.26
381.85	1160.91
382.04	1123.46
382.24	1123.46
382.43	1034.52
382.63	1046.22
382.83	1034.52
383.02	1006.43
383.22	1158.57
383.41	1151.54
383.61	1034.52
383.80	1125.80
384.00	1097.71
384.19	1114.10
384.39	1123.46
384.58	1121.12
384.78	1111.75
384.97	1116.44
385.17	1158.57
385.36	1109.41
385.56	1156.22
385.75	1188.99
385.95	1151.54
386.14	1205.38
386.34	1165.59
386.53	1266.23
386.72	1179.63
386.92	1259.21
387.11	1240.48
387.31	1242.82
387.50	1233.46
387.70	1219.42
387.89	1256.87
388.09	1235.80
388.28	1329.42
388.48	1310.70
388.67	1320.06
388.86	1299.00
389.06	1310.70
389.25	1284.95
389.45	1275.59
389.64	1392.62
389.84	1416.02
390.03	1390.28
390.22	1467.52
390.42	1324.74
390.61	1301.34
390.81	1458.15
391.00	1401.98
391.19	1411.34
391.39	1420.71
391.58	1502.62
391.78	1458.15
391.97	1467.52
392.16	1364.53
392.36	1497.94
392.55	1540.07
392.75	1474.54
392.94	1488.58
393.13	1481.56
393.33	1495.60
393.52	1661.78
393.71	1610.29
393.91	1626.67
394.10	1582.20
394.29	1556.46
394.49	1554.12
394.68	1643.06
394.88	1605.61
395.07	1596.25
395.26	1689.87
395.46	1675.82
395.65	1739.02
395.84	1785.83
396.04	1696.89
396.23	1685.19
396.42	1687.53
396.62	1778.81
396.81	1727.32
397.00	1839.66
397.19	1900.52
397.39	1806.89
397.58	1778.81
397.77	1827.96
397.97	1867.75
398.16	1886.47
398.35	1825.62
398.55	1839.66
398.74	1867.75
398.93	2008.18
399.12	2001.16
399.32	1961.37
399.51	1940.30
399.70	1989.46
399.90	1961.37
400.09	1952.01
400.28	2099.46
400.47	1919.24
400.67	2111.16
400.86	1944.99
401.05	2094.78
401.24	2125.21
401.44	2146.27
401.63	2146.27
401.82	2113.50
402.01	2127.55
402.21	2195.42
402.40	2183.72
402.59	2235.21
402.78	2265.64
402.97	2181.38
403.17	2272.66
403.36	2279.68
403.55	2242.23
403.74	2349.90
403.93	2382.67
404.13	2450.54
404.32	2326.49
404.51	2375.64
404.70	2420.11
404.89	2361.60
405.09	2553.52
405.28	2502.03
405.47	2459.90
405.66	2457.56
405.85	2502.03
406.05	2516.08
406.24	2635.44
406.43	2567.57
406.62	2583.95
406.81	2672.89
407.00	2581.61
407.20	2597.99
407.39	2539.48
407.58	2759.49
407.77	2747.79
407.96	2743.11
408.15	2825.03
408.34	2658.85
408.54	2803.96
408.73	2726.72
408.92	2705.66
409.11	2895.24
409.30	2883.54
409.49	2869.50
409.68	2867.16
409.87	2860.13
410.07	3005.25
410.26	3049.72
410.45	2902.26
410.64	3098.87
410.83	2965.46
411.02	3042.70
411.21	3119.93
411.40	3145.68
411.59	3105.89
411.78	3138.66
411.98	3255.69
412.17	3178.45
412.36	3358.67
412.55	3407.82
412.74	3375.05
412.93	3314.20
413.12	3349.31
413.31	3475.70
413.50	3435.91
413.69	3454.63
413.88	3588.04
414.07	3597.40
414.26	3698.05
414.45	3712.09
414.64	3681.66
414.83	3691.02
415.02	3815.07
415.22	3698.05
415.41	3873.59
415.60	3868.91
415.79	4007.00
415.98	3904.01
416.17	3852.52
416.36	3974.23
416.55	3932.10
416.74	4102.96
416.93	3985.93
417.12	4070.19
417.31	4004.66
417.50	4102.96
417.69	4320.63
417.88	4264.46
418.07	4395.53
418.26	4285.52
418.45	4327.65
418.64	4344.03
418.83	4395.53
419.02	4397.87
419.21	4582.77
419.39	4617.88
419.58	4465.74
419.77	4388.50
419.96	4505.53
420.15	4575.75
420.34	4678.73
420.53	4660.01
420.72	4695.11
420.91	4594.47
421.10	4751.29
421.29	4767.67
421.48	4660.01
421.67	4901.08
421.86	4727.88
422.05	4819.16
422.24	4744.27
422.43	4835.55
422.61	4751.29
422.80	4971.30
422.99	4889.38
423.18	4915.12
423.37	4961.94
423.56	4798.10
423.75	4844.91
423.94	4875.34
424.13	4713.84
424.32	4709.16
424.50	4873.00
424.69	5104.71
424.88	5057.90
425.07	4915.12
425.26	4940.87
425.45	4975.98
425.64	4926.83
425.83	5018.11
426.01	5011.09
426.20	4964.28
426.39	5130.45
426.58	5156.20
426.77	5203.01
426.96	5139.82
427.15	5088.32
427.33	5252.16
427.52	5081.30
427.71	5259.18
427.90	5205.35
428.09	5303.65
428.28	5430.04
428.46	5479.19
428.65	5291.95
428.84	5535.37
429.03	5418.34
429.22	5371.53
429.40	5423.02
429.59	5554.09
429.78	5401.96
429.97	5385.57
430.16	5453.45
430.34	5277.91
430.53	5598.56
430.72	5631.33
430.91	5570.48
431.10	5591.54
431.28	5652.39
431.47	5755.38
431.66	5853.68
431.85	5722.61
432.03	5844.32
432.22	5980.07
432.41	5872.40
432.60	5966.03
432.79	5839.64
432.97	5923.90
433.16	6015.18
433.35	6003.47
433.54	6073.69
433.72	6052.63
433.91	6139.23
434.10	6024.54
434.28	6113.48
434.47	6129.86
434.66	6244.55
434.85	6251.57
435.03	6312.42
435.22	6253.91
435.41	6513.71
435.59	6347.53
435.78	6300.72
435.97	6347.53
436.16	6443.49
436.34	6328.81
436.53	6473.92
436.72	6775.85
436.90	6457.54
437.09	6623.72
437.28	6462.22
437.46	6586.27
437.65	6705.63
437.84	6785.21
438.02	6855.43
438.21	6832.02
438.40	6731.38
438.58	6722.02
438.77	6988.84
438.96	6857.77
439.14	7194.81
439.33	7143.32
439.52	7309.49
439.70	7211.19
439.89	7281.41
440.08	7316.51
440.26	7330.56
440.45	7262.68
440.63	7229.91
440.82	7564.61
441.01	7414.82
441.19	7658.23
441.38	7683.98
441.57	7857.18
441.75	7735.47
441.94	7899.31
442.12	7747.17
442.31	8079.53
442.50	8091.23
442.68	8070.17
442.87	7946.12
443.05	8301.88
443.24	8161.45
443.43	8049.10
443.61	8292.52
443.80	8388.48
443.98	8088.89
444.17	7861.86
444.35	8161.45
444.54	8372.10
444.73	8262.09
444.91	8294.86
445.10	8280.82
445.28	8400.18
445.47	8236.35
445.65	8475.08
445.84	8358.05
446.02	8313.58
446.21	8564.02
446.39	8308.90
446.58	8402.52
446.77	8519.55
446.95	8290.18
447.14	8376.78
447.32	8554.66
447.51	8458.70
447.69	8549.98
447.88	8582.74
448.06	8531.25
448.25	8648.28
448.43	8669.34
448.62	8650.62
448.80	8552.32
448.99	8636.58
449.17	8580.40
449.36	8629.56
449.54	8943.19
449.73	8840.20
449.91	8875.31
450.10	9076.60
450.28	8959.57
450.46	9008.72
450.65	8938.51
450.83	9027.45
451.02	8992.34
451.20	9174.90
451.39	9226.39
451.57	9146.81
451.76	8879.99
451.94	9404.27
452.13	9146.81
452.31	9294.27
452.49	9163.20
452.68	9231.07
452.86	9441.72
453.05	9502.58
453.23	9322.35
453.42	9343.42
453.60	9298.95
453.78	9345.76
453.97	9561.09
454.15	9736.63
454.34	9437.04
454.52	9853.66
454.70	9666.41
454.89	9717.90
455.07	9947.28
455.26	9804.50
455.44	10010.47
455.62	9865.36
455.81	9886.42
455.99	9900.47
456.17	9902.81
456.36	9874.72
456.54	10207.08
456.73	10228.14
456.91	10541.77
457.09	10256.23
457.28	10560.50
457.46	10394.32
457.64	10668.16
457.83	10427.09
458.01	10239.84
458.19	10810.93
458.38	10445.81
458.56	10836.68
458.74	10630.71
458.93	10382.62
459.11	10611.99
459.29	10801.57
459.48	10712.63
459.66	10817.96
459.84	10860.09
460.03	11059.03
460.21	11014.56
460.39	10841.36
460.57	11002.86
460.76	10939.66
460.94	11014.56
461.12	11335.21
461.31	11283.72
461.49	11276.70
461.67	11129.25
461.85	11379.68
462.04	11115.20
462.22	11765.87
462.40	11489.69
462.59	11414.79
462.77	11522.46
462.95	11440.54
463.13	11522.46
463.32	11683.95
463.50	11597.35
463.68	11676.93
463.86	11747.15
464.05	11566.93
464.23	11730.76
464.41	11751.83
464.59	11562.25
464.78	11913.33
464.96	11953.12
465.14	11866.52
465.32	12177.81
465.50	11967.16
465.69	12020.99
465.87	12168.45
466.05	12086.53
466.23	12079.50
466.41	11913.33
466.60	12465.69
466.78	12205.89
466.96	12306.54
467.14	12381.43
467.32	12334.62
467.51	12496.12
467.69	12191.85
467.87	12472.71
468.05	12601.44
468.23	12355.69
468.41	12559.31
468.60	12634.21
468.78	12758.26
468.96	12339.30
469.14	12786.35
469.32	13018.06
469.50	12805.07
469.69	12903.37
469.87	13188.92
470.05	13011.04
470.23	13177.22
470.41	13139.77
470.59	13263.82
470.77	13319.99
470.95	13062.53
471.14	13671.07
471.32	13432.33
471.50	13387.86
471.68	13385.52
471.86	13748.31
472.04	13664.05
472.22	14127.47
472.40	13535.32
472.58	13605.53
472.77	13886.40
472.95	14045.55
473.13	14539.41
473.31	14036.19
473.49	14099.39
473.67	14216.41
473.85	14403.66
474.03	14640.05
474.21	14637.71
474.39	14817.93
474.57	14305.35
474.75	14932.62
474.93	15084.75
475.12	14867.08
475.30	15009.86
475.48	14920.92
475.66	15358.60
475.84	15164.33
476.02	15194.76
476.20	15421.79
476.38	15683.93
476.56	15906.28
476.74	16079.48
476.92	15543.50
477.10	15859.47
477.28	15939.05
477.46	16173.10
477.64	16332.26
477.82	16388.43
478.00	16774.62
478.18	16755.90
478.36	16865.90
478.54	17055.48
478.72	17319.96
478.90	17273.15
479.08	17376.14
479.26	17575.08
479.44	17729.56
479.62	17610.19
479.80	18176.60
479.98	18293.63
480.16	18724.29
480.34	18228.09
480.52	18459.81
480.70	18579.17
480.88	18389.59
481.06	18661.09
481.24	19002.81
481.41	19089.41
481.59	19030.90
481.77	19262.61
481.95	19470.92
482.13	19676.88
482.31	19510.71
482.49	20140.31
482.67	20135.63
482.85	20465.64
483.03	20540.54
483.21	20339.26
483.39	20793.32
483.57	20896.30
483.74	21039.08
483.92	21455.69
484.10	20680.97
484.28	21628.89
484.46	22019.76
484.64	22363.82
484.82	21848.90
485.00	22279.56
485.18	22855.33
485.35	22771.07
485.53	22974.70
485.71	22925.55
485.89	23367.91
486.07	23295.35
486.25	23213.43
486.43	23377.27
486.61	23955.38
486.78	24079.43
486.96	23971.77
487.14	24353.27
487.32	24362.64
487.50	24987.56
487.68	24622.44
487.85	25130.33
488.03	25401.83
488.21	25919.09
488.39	25811.43
488.57	25895.69
488.75	26026.76
488.92	26483.16
489.10	26726.58
489.28	26581.46
489.46	26787.43
489.64	26897.44
489.81	27271.92
489.99	27524.70
490.17	27491.93
490.35	27992.81
490.53	28060.68
490.70	28067.70
490.88	28467.94
491.06	28905.62
491.24	28599.01
491.41	28975.83
491.59	28975.83
491.77	29308.19
491.95	29383.09
492.13	29883.96
492.30	29872.26
492.48	29813.74
492.66	30029.07
492.84	30113.33
493.01	30799.11
493.19	30801.45
493.37	31049.55
493.54	31075.29
493.72	31505.95
493.90	31124.44
494.08	31580.85
494.25	31735.32
494.43	31627.66
494.61	32034.91
494.79	32025.55
494.96	32198.75
495.14	32762.82
495.32	33123.26
495.49	33092.83
495.67	33338.59
495.85	33392.42
496.02	33839.47
496.20	34000.96
496.38	33731.80
496.55	34265.44
496.73	34775.68
496.91	34649.29
497.09	34810.79
497.26	35026.12
497.44	34995.69
497.62	34925.47
497.79	35386.56
497.97	35622.95
498.14	35903.82
498.32	36112.13
498.50	35892.12
498.67	36329.80
498.85	36208.09
499.03	36500.65
499.20	36821.31
499.38	36320.43
499.56	36992.17
499.73	37038.98
499.91	37579.64
500.08	37287.07
500.26	37301.12
500.44	37488.36
500.61	37907.32
500.79	37720.07
500.97	38124.99
501.14	38541.60
501.32	38609.48
501.49	38359.04
501.67	38352.02
501.84	38529.90
502.02	38789.70
502.20	38588.41
502.37	39365.47
502.55	39185.25
502.72	39484.84
502.90	39477.82
503.07	39782.09
503.25	39824.22
503.43	39611.23
503.60	39789.11
503.78	40048.91
503.95	40273.60
504.13	40432.75
504.30	40868.09
504.48	40369.56
504.65	40341.47
504.83	41027.25
505.01	41432.16
505.18	40849.37
505.36	41645.15
505.53	41031.93
505.71	41759.84
505.88	42057.09
506.06	41837.08
506.23	42052.41
506.41	41881.55
506.58	42181.13
506.76	42026.66
506.93	42850.53
507.11	41956.44
507.28	42497.11
507.46	42560.30
507.63	43269.48
507.81	43147.78
507.98	42810.74
508.16	43433.32
508.33	43002.66
508.50	43400.55
508.68	43412.26
508.85	44147.18
509.03	43749.29
509.20	43641.63
509.38	44392.94
509.55	44179.95
509.73	44168.25
509.90	44879.77
510.08	44573.16
510.25	44692.53
510.42	44659.76
510.60	44985.10
510.77	45198.09
510.95	45598.32
511.12	44900.84
511.30	45338.52
511.47	45186.38
511.64	45387.67
511.82	45820.67
511.99	45553.85
512.17	45607.68
512.34	46089.83
512.51	46476.02
512.69	46520.49
512.86	46038.34
513.04	46471.34
513.21	46878.59
513.38	46485.38
513.56	46850.50
513.73	46761.56
513.90	47004.98
514.08	46417.50
514.25	47316.27
514.43	47304.57
514.60	47636.92
514.77	47555.00
514.95	47641.60
515.12	47821.83
515.29	47316.27
515.47	47842.89
515.64	48275.89
515.81	47571.39
515.99	48144.82
516.16	48170.57
516.33	48090.99
516.51	48650.38
516.68	48671.44
516.85	48137.80
517.03	48849.32
517.20	48676.12
517.37	48584.84
517.54	49020.18
517.72	48811.87
517.89	49078.69
518.06	49244.87
518.24	49331.47
518.41	49263.60
518.58	49291.68
518.75	49230.83
518.93	49385.30
519.10	49146.57
519.27	49846.39
519.45	49673.19
519.62	49764.47
519.79	49932.99
519.96	49883.84
520.14	50183.43
520.31	50057.04
520.48	50213.85
520.65	49883.84
520.83	50773.24
521.00	50501.74
521.17	50461.95
521.34	50822.39
521.52	50522.80
521.69	50808.35
521.86	50885.59
522.03	50946.44
522.20	51164.11
522.38	51639.24
522.55	51030.70
522.72	51166.45
522.89	51180.49
523.07	51496.47
523.24	50986.23
523.41	51550.30
523.58	51550.30
523.75	51777.33
523.92	51526.89
524.10	51751.59
524.27	52079.26
524.44	51959.89
524.61	51786.69
524.78	52196.29
524.96	52039.47
525.13	52266.50
525.30	52610.56
525.47	52622.26
525.64	52559.07
525.81	52736.95
525.98	52655.03
526.16	52671.42
526.33	52711.20
526.50	52835.25
526.67	52765.04
526.84	53027.18
527.01	52734.61
527.18	52772.06
527.36	52905.47
527.53	52921.85
527.70	52875.04
527.87	53336.13
528.04	53001.43
528.21	53368.90
528.38	53191.01
528.55	53514.01
528.72	53254.21
528.89	53155.91
529.07	53120.80
529.24	53516.35
529.41	53719.98
529.58	53415.71
529.75	53492.94
529.92	53942.33
530.09	53848.71
530.26	53757.42
530.43	54066.38
530.60	53535.07
530.77	53621.67
530.94	53986.80
531.11	53738.70
531.28	53977.43
531.46	54075.74
531.63	54162.34
531.80	54323.83
531.97	54466.61
532.14	54387.03
532.31	54274.68
532.48	54314.47
532.65	54440.86
532.82	54260.64
532.99	54646.83
533.16	54424.48
533.33	54759.17
533.50	54827.05
533.67	54937.05
533.84	54768.54
534.01	54738.11
534.18	54684.28
534.35	54948.76
534.52	55161.75
534.69	55065.78
534.86	55290.48
535.03	55002.59
535.20	55014.29
535.37	55388.78
535.54	55220.26
535.71	55238.98
535.88	55466.02
536.05	55501.12
536.22	55569.00
536.38	55482.40
536.55	55334.95
536.72	55571.34
536.89	55238.98
537.06	55690.71
537.23	55824.12
537.40	55447.29
537.57	55777.31
537.74	55393.46
537.91	55927.10
538.08	55774.97
538.25	55601.77
538.42	55627.51
538.59	55969.23
538.75	55859.23
538.92	55842.84
539.09	55906.04
539.26	56137.75
539.43	56102.64
539.60	56044.13
539.77	56247.75
539.94	56334.35
540.11	56320.31
540.28	56147.11
540.44	56399.89
540.61	56594.15
540.78	56357.76
540.95	56357.76
541.12	56430.32
541.29	56406.91
541.46	56451.38
541.62	56488.83
541.79	56793.10
541.96	56348.40
542.13	56566.07
542.30	56615.22
542.47	56772.03
542.63	56631.60
542.80	56760.33
542.97	56954.60
543.14	57029.49
543.31	57097.37
543.48	57233.12
543.64	57455.47
543.81	57188.65
543.98	57303.34
544.15	57045.88
544.32	57289.29
544.48	57380.57
544.65	57380.57
544.82	57303.34
544.99	57403.98
545.16	57401.64
545.32	57240.14
545.49	57516.32
545.66	57439.09
545.83	57485.90
546.00	57616.97
546.16	57483.56
546.33	57396.96
546.50	57270.57
546.67	57586.54
546.83	57542.07
547.00	57705.91
547.17	57448.45
547.34	57759.74
547.50	57991.45
547.67	58000.82
547.84	57748.04
548.00	58138.91
548.17	58230.19
548.34	57862.72
548.51	58122.52
548.67	58248.91
548.84	57961.03
549.01	58089.76
549.18	58073.37
549.34	58124.86
549.51	58213.80
549.68	58279.34
549.84	58262.96
550.01	58305.09
550.18	58166.99
550.34	58464.24
550.51	58518.07
550.68	58244.23
550.84	58255.93
551.01	58478.28
551.18	58382.32
551.34	58440.84
551.51	58365.94
551.68	58438.50
551.84	58550.84
552.01	58234.87
552.18	58578.93
552.34	58347.21
552.51	58805.96
552.68	58417.43
552.84	58623.40
553.01	58768.51
553.18	58707.66
553.34	58791.92
553.51	58602.33
553.67	58688.93
553.84	58979.16
554.01	58789.58
554.17	58862.13
554.34	58941.71
554.51	58960.44
554.67	59002.56
554.84	59011.93
555.00	59121.93
555.17	58735.74
555.33	59040.01
555.50	58967.46
555.67	58951.07
555.83	58941.71
556.00	58953.41
556.16	59358.33
556.33	58986.18
556.50	59145.34
556.66	59337.26
556.83	58993.20
556.99	59400.46
557.16	59426.20
557.32	59435.56
557.49	59774.94
557.65	59430.88
557.82	59140.66
557.98	59416.84
558.15	59458.97
558.32	59423.86
558.48	59482.37
558.65	59236.62
558.81	59510.46
558.98	59386.41
559.14	59288.11
559.31	59604.08
559.47	59643.87
559.64	59564.29
559.80	59674.30
559.97	59608.76
560.13	59583.02
560.30	59728.13
560.46	59732.81
560.63	59840.48
560.79	59648.55
560.96	59793.67
561.12	59821.75
561.29	59700.04
561.45	59709.41
561.61	59718.77
561.78	59884.95
561.94	59590.04
562.11	59894.31
562.27	59929.42
562.44	59812.39
562.60	59924.74
562.77	59955.16
562.93	59723.45
563.10	59924.74
563.26	59838.14
563.42	60116.66
563.59	60027.72
563.75	60081.55
563.92	59817.07
564.08	59854.52
564.24	60168.15
564.41	60205.60
564.57	60079.21
564.74	60109.64
564.90	60140.07
565.07	60116.66
565.23	59910.69
565.39	60116.66
565.56	60299.22
565.72	60069.85
565.88	60048.78
566.05	60013.68
566.21	60006.65
566.38	60186.88
566.54	59987.93
566.70	60259.43
566.87	60217.30
567.03	60065.17
567.19	60530.93
567.36	60165.81
567.52	60172.83
567.68	60371.78
567.85	60341.35
568.01	60399.86
568.17	60310.92
568.34	60360.08
568.50	60203.26
568.66	60104.96
568.83	60346.03
568.99	60362.42
569.15	60294.54
569.32	60397.52
569.48	60535.62
569.64	60544.98
569.81	60577.75
569.97	60540.30
570.13	60495.83
570.30	60353.05
570.46	60390.50
570.62	60378.80
570.78	60413.91
570.95	60413.91
571.11	60170.49
571.27	60463.06
571.43	60299.22
571.60	60516.89
571.76	60280.50
571.92	60439.65
572.09	60481.78
572.25	60631.58
572.41	60423.27
572.57	60488.80
572.74	60790.73
572.90	60596.47
573.06	60329.65
573.22	60458.38
573.38	60357.74
573.55	60631.58
573.71	60837.54
573.87	60664.35
574.03	60299.22
574.20	60729.88
574.36	60411.57
574.52	60535.62
574.68	60624.56
574.84	60425.61
575.01	60657.32
575.17	60624.56
575.33	60673.71
575.49	60486.46
575.65	60587.11
575.82	60706.47
575.98	60828.18
576.14	60903.08
576.30	60757.97
576.46	60509.87
576.62	60591.79
576.79	60636.26
576.95	60561.36
577.11	60711.16
577.27	60659.66
577.43	60736.90
577.59	60788.39
577.75	60898.40
577.92	60640.94
578.08	60713.50
578.24	60970.96
578.40	60900.74
578.56	60935.85
578.72	60762.65
578.88	60954.57
579.04	60729.88
579.21	60856.27
579.37	60921.80
579.53	60767.33
579.69	60587.11
579.85	60549.66
580.01	60804.78
580.17	60664.35
580.33	60898.40
580.49	60926.49
580.65	61109.05
580.82	60750.94
580.98	60781.37
581.14	60898.40
581.30	60970.96
581.46	60928.83
581.62	60867.97
581.78	60624.56
581.94	60931.17
582.10	60870.31
582.26	60811.80
582.42	60842.23
582.58	60832.86
582.74	60851.59
582.90	60898.40
583.06	60877.33
583.22	60420.93
583.38	60893.72
583.54	60973.30
583.70	60797.76
583.86	60867.97
584.02	60715.84
584.18	60900.74
584.34	60982.66
584.50	61001.38
584.66	60830.52
584.82	60870.31
584.98	61034.15
585.14	60800.10
585.30	60945.21
585.46	60933.51
585.62	60769.67
585.78	61195.65
585.94	60816.48
586.10	60938.19
586.26	60970.96
586.42	61010.74
586.58	60989.68
586.74	61062.24
586.90	60846.91
587.06	61095.00
587.22	61057.56
587.38	61090.32
587.54	60898.40
587.70	61179.26
587.86	61097.34
588.02	61041.17
588.18	60938.19
588.34	61013.08
588.49	61015.43
