SpectraSuite Data File
++++++++++++++++++++++++++++++++++++
Date: Fri Oct 25 11:23:45 EDT 2013
User: price-jones
Dark Spectrum Present: No
Reference Spectrum Present: No
Number of Sampled Component Spectra: 1
Spectrometers: USB2+H05261
Integration Time (usec): 100000 (USB2+H05261)
Spectra Averaged: 1 (USB2+H05261)
Boxcar Smoothing: 0 (USB2+H05261)
Correct for Electrical Dark: No (USB2+H05261)
Strobe/Lamp Enabled: No (USB2+H05261)
Correct for Detector Non-linearity: No (USB2+H05261)
Correct for Stray Light: No (USB2+H05261)
Number of Pixels in Processed Spectrum: 2048
>>>>>Begin Processed Spectral Data<<<<<
365.73	222.35
365.92	222.35
366.12	222.35
366.32	117.03
366.52	131.07
366.72	149.79
366.91	102.98
367.11	107.66
367.31	126.39
367.51	117.03
367.70	128.73
367.90	46.81
368.10	77.24
368.30	147.45
368.49	147.45
368.69	194.26
368.89	154.48
369.09	180.22
369.28	177.88
369.48	133.41
369.68	140.43
369.87	177.88
370.07	236.39
370.27	224.69
370.47	297.25
370.66	535.98
370.86	636.63
371.06	671.73
371.25	692.80
371.45	631.94
371.65	615.56
371.84	732.59
372.04	704.50
372.24	685.78
372.44	695.14
372.63	737.27
372.83	709.18
373.03	798.12
373.22	725.57
373.42	772.38
373.62	821.53
373.81	779.40
374.01	844.93
374.21	847.27
374.40	814.51
374.60	908.13
374.79	788.76
374.99	816.85
375.19	828.55
375.38	805.14
375.58	844.93
375.78	844.93
375.97	826.21
376.17	856.64
376.37	828.55
376.56	835.57
376.76	873.02
376.95	929.19
377.15	784.08
377.35	816.85
377.54	891.74
377.74	847.27
377.93	854.30
378.13	875.36
378.33	922.17
378.52	938.55
378.72	947.92
378.91	940.90
379.11	938.55
379.31	943.24
379.50	980.68
379.70	1020.47
379.89	978.34
380.09	992.39
380.28	976.00
380.48	959.62
380.68	997.07
380.87	966.64
381.07	1011.11
381.26	1067.28
381.46	1006.43
381.65	985.37
381.85	1090.69
382.04	1086.01
382.24	1020.47
382.43	1036.86
382.63	990.05
382.83	1153.88
383.02	1102.39
383.22	1022.81
383.41	1104.73
383.61	1137.50
383.80	1151.54
384.00	1139.84
384.19	1095.37
384.39	1203.04
384.58	1135.16
384.78	1177.29
384.97	1167.93
385.17	1221.76
385.36	1139.84
385.56	1198.35
385.75	1196.01
385.95	1205.38
386.14	1196.01
386.34	1167.93
386.53	1280.27
386.72	1205.38
386.92	1275.59
387.11	1252.19
387.31	1315.38
387.50	1219.42
387.70	1263.89
387.89	1331.76
388.09	1291.98
388.28	1249.85
388.48	1284.95
388.67	1306.02
388.86	1259.21
389.06	1308.36
389.25	1327.08
389.45	1444.11
389.64	1413.68
389.84	1371.55
390.03	1406.66
390.22	1390.28
390.42	1366.87
390.61	1399.64
390.81	1341.13
391.00	1460.49
391.19	1467.52
391.39	1406.66
391.58	1446.45
391.78	1472.20
391.97	1451.13
392.16	1493.26
392.36	1526.03
392.55	1502.62
392.75	1434.75
392.94	1504.96
393.13	1514.33
393.33	1514.33
393.52	1584.54
393.71	1652.42
393.91	1507.30
394.10	1626.67
394.29	1593.90
394.49	1605.61
394.68	1687.53
394.88	1643.06
395.07	1689.87
395.26	1607.95
395.46	1739.02
395.65	1661.78
395.84	1680.50
396.04	1797.53
396.23	1753.06
396.42	1659.44
396.62	1771.79
396.81	1750.72
397.00	1839.66
397.19	1809.23
397.39	1839.66
397.58	1914.56
397.77	1813.92
397.97	1849.02
398.16	1834.98
398.35	1933.28
398.55	1907.54
398.74	1909.88
398.93	1963.71
399.12	1977.75
399.32	1881.79
399.51	1902.86
399.70	2017.54
399.90	1980.09
400.09	2097.12
400.28	2054.99
400.47	2069.03
400.67	2057.33
400.86	2066.69
401.05	2104.14
401.24	2054.99
401.44	2106.48
401.63	2190.74
401.82	2197.76
402.01	2228.19
402.21	2253.94
402.40	2172.02
402.59	2230.53
402.78	2216.49
402.97	2289.04
403.17	2263.30
403.36	2342.88
403.55	2361.60
403.74	2324.15
403.93	2324.15
404.13	2356.92
404.32	2361.60
404.51	2310.11
404.70	2457.56
404.89	2413.09
405.09	2363.94
405.28	2466.92
405.47	2583.95
405.66	2506.71
405.85	2562.89
406.05	2539.48
406.24	2602.68
406.43	2579.27
406.62	2698.64
406.81	2691.62
407.00	2644.81
407.20	2602.68
407.39	2647.15
407.58	2651.83
407.77	2736.09
407.96	2614.38
408.15	2928.01
408.34	2803.96
408.54	2733.75
408.73	2895.24
408.92	2892.90
409.11	2944.39
409.30	2939.71
409.49	3124.62
409.68	2895.24
409.87	3002.91
410.07	3042.70
410.26	2988.86
410.45	2993.55
410.64	3126.96
410.83	3112.91
411.02	3091.85
411.21	3145.68
411.40	3033.33
411.59	3138.66
411.78	3159.72
411.98	3295.47
412.17	3246.32
412.36	3337.60
412.55	3396.12
412.74	3496.76
412.93	3365.69
413.12	3321.22
413.31	3482.72
413.50	3529.53
413.69	3562.30
413.88	3700.39
414.07	3662.94
414.26	3557.61
414.45	3679.32
414.64	3733.15
414.83	3758.90
415.02	3815.07
415.22	3833.80
415.41	3847.84
415.60	3798.69
415.79	3845.50
415.98	4053.81
416.17	4063.17
416.36	4009.34
416.55	3929.76
416.74	4187.22
416.93	4018.70
417.12	4128.70
417.31	4222.33
417.50	4243.39
417.69	4381.48
417.88	4311.27
418.07	4280.84
418.26	4411.91
418.45	4414.25
418.64	4578.09
418.83	4484.47
419.02	4493.83
419.21	4451.70
419.39	4470.42
419.58	4550.00
419.77	4493.83
419.96	4638.94
420.15	4704.48
420.34	4519.57
420.53	4636.60
420.72	4793.42
420.91	4720.86
421.10	4601.49
421.29	4795.76
421.48	4798.10
421.67	4812.14
421.86	4758.31
422.05	4849.59
422.24	4828.53
422.43	4800.44
422.61	4945.55
422.80	4952.57
422.99	4926.83
423.18	5022.79
423.37	5153.86
423.56	4968.96
423.75	5036.83
423.94	4835.55
424.13	4547.66
424.32	4821.50
424.50	4980.66
424.69	5158.54
424.88	5076.62
425.07	5043.85
425.26	4891.72
425.45	4926.83
425.64	5085.98
425.83	5083.64
426.01	5001.72
426.20	5142.16
426.39	5107.05
426.58	5093.01
426.77	5170.24
426.96	5043.85
427.15	5034.49
427.33	5210.03
427.52	5144.50
427.71	5228.76
427.90	5247.48
428.09	5516.64
428.28	5329.40
428.46	5355.15
428.65	5434.72
428.84	5486.22
429.03	5399.62
429.22	5359.83
429.40	5633.67
429.59	5664.10
429.78	5261.52
429.97	5320.04
430.16	5397.28
430.34	5706.23
430.53	5762.40
430.72	5708.57
430.91	5820.91
431.10	5706.23
431.28	5664.10
431.47	5863.04
431.66	5933.26
431.85	5902.83
432.03	5930.92
432.22	6080.71
432.41	6017.52
432.60	6024.54
432.79	5935.60
432.97	6157.95
433.16	6204.76
433.35	6099.44
433.54	6134.54
433.72	6038.58
433.91	6094.76
434.10	6111.14
434.28	6101.78
434.47	6249.23
434.66	6384.98
434.85	6326.47
435.03	6480.94
435.22	6307.74
435.41	6373.28
435.59	6494.99
435.78	6473.92
435.97	6595.63
436.16	6455.20
436.34	6338.17
436.53	6614.35
436.72	6778.19
436.90	6527.75
437.09	6682.23
437.28	6736.06
437.46	6635.42
437.65	6705.63
437.84	6691.59
438.02	6707.98
438.21	6731.38
438.40	6602.65
438.58	6860.11
438.77	7171.40
438.96	7140.97
439.14	7087.14
439.33	7351.62
439.52	7250.98
439.70	7318.86
439.89	7449.93
440.08	7410.14
440.26	7503.76
440.45	7414.82
440.63	7545.89
440.82	7604.40
441.01	7545.89
441.19	7695.68
441.38	7705.04
441.57	7761.22
441.75	7852.50
441.94	7995.27
442.12	7953.14
442.31	8063.15
442.50	8166.13
442.68	7892.29
442.87	8116.98
443.05	8283.16
443.24	8360.39
443.43	8325.29
443.61	8241.03
443.80	8439.97
443.98	8028.04
444.17	7896.97
444.35	8250.39
444.54	8334.65
444.73	8241.03
444.91	8407.20
445.10	8271.45
445.28	8245.71
445.47	8283.16
445.65	8348.69
445.84	8498.49
446.02	8662.32
446.21	8362.73
446.39	8315.92
446.58	8564.02
446.77	8510.19
446.95	8292.52
447.14	8437.63
447.32	8664.66
447.51	8542.96
447.69	8512.53
447.88	8421.25
448.06	8695.09
448.25	8510.19
448.43	8674.03
448.62	8702.11
448.80	8674.03
448.99	8599.13
449.17	8617.85
449.36	8669.34
449.54	9029.79
449.73	9104.68
449.91	9085.96
450.10	9029.79
450.28	9022.77
450.46	8987.66
450.65	9050.85
450.83	9006.38
451.02	9041.49
451.20	9430.02
451.39	9266.18
451.57	9355.12
451.76	9092.98
451.94	9254.48
452.13	9341.08
452.31	9233.41
452.49	9394.91
452.68	9518.96
452.86	9533.00
453.05	9605.56
453.23	9647.69
453.42	9371.50
453.60	9324.69
453.78	9720.24
453.97	9671.09
454.15	9493.21
454.34	9692.16
454.52	9722.59
454.70	9907.49
454.89	9916.85
455.07	9848.97
455.26	9905.15
455.44	10059.62
455.62	9902.81
455.81	10148.56
455.99	10200.05
456.17	10045.58
456.36	10125.16
456.54	10190.69
456.73	10279.63
456.91	10663.48
457.09	10382.62
457.28	10551.14
457.46	10384.96
457.64	10476.24
457.83	10815.62
458.01	10321.76
458.19	10703.27
458.38	10747.74
458.56	10909.24
458.74	10731.36
458.93	10897.53
459.11	10881.15
459.29	10689.23
459.48	10913.92
459.66	10937.32
459.84	10808.59
460.03	11124.57
460.21	11145.63
460.39	11094.14
460.57	11091.80
460.76	11274.36
460.94	11346.92
461.12	11377.34
461.31	11129.25
461.49	11459.26
461.67	11145.63
461.85	11480.33
462.04	11534.16
462.22	11714.38
462.40	11690.98
462.59	11559.91
462.77	11536.50
462.95	11709.70
463.13	11705.02
463.32	11548.20
463.50	11840.77
463.68	11749.49
463.86	11864.18
464.05	11768.21
464.23	11913.33
464.41	11824.39
464.59	11798.64
464.78	11990.56
464.96	12161.42
465.14	11854.81
465.32	12184.83
465.50	12264.41
465.69	12287.81
465.87	12325.26
466.05	12250.36
466.23	12376.75
466.41	12599.10
466.60	12592.08
466.78	12262.07
466.96	12304.20
467.14	12280.79
467.32	12276.11
467.51	12627.19
467.69	12264.41
467.87	12615.49
468.05	12762.94
468.23	12486.76
468.41	12400.16
468.60	12442.29
468.78	12985.29
468.96	12674.00
469.14	12807.41
469.32	13064.87
469.50	12809.75
469.69	13198.28
469.87	13247.43
470.05	13270.84
470.23	13282.54
470.41	13336.37
470.59	13207.64
470.77	13561.06
470.95	13298.92
471.14	13603.19
471.32	13006.36
471.50	13755.33
471.68	13701.50
471.86	13748.31
472.04	13987.04
472.22	13977.68
472.40	13558.72
472.58	13881.72
472.77	14274.93
472.95	14143.86
473.13	14658.78
473.31	14085.34
473.49	14347.48
473.67	14214.07
473.85	14345.14
474.03	14508.98
474.21	14766.44
474.39	14843.68
474.57	14801.55
474.75	14988.79
474.93	14960.70
475.12	15105.82
475.30	15353.91
475.48	15176.03
475.66	15183.06
475.84	15208.80
476.02	15424.13
476.20	15417.11
476.38	15829.04
476.56	16215.23
476.74	16056.08
476.92	16058.42
477.10	15936.71
477.28	16435.24
477.46	16065.44
477.64	16416.52
477.82	16641.21
478.00	16940.80
478.18	16849.52
478.36	17025.06
478.54	17114.00
478.72	17343.37
478.90	17806.80
479.08	17862.97
479.26	17687.43
479.44	17788.07
479.62	17912.12
479.80	18183.62
479.98	18284.26
480.16	18759.39
480.34	18160.22
480.52	18771.10
480.70	18946.64
480.88	18562.79
481.06	18724.29
481.24	18878.76
481.41	18965.36
481.59	19573.90
481.77	19793.91
481.95	19838.38
482.13	20004.56
482.31	19777.53
482.49	20306.49
482.67	20386.07
482.85	20493.73
483.03	20676.29
483.21	20746.51
483.39	21034.39
483.57	21509.52
483.74	21530.59
483.92	21612.51
484.10	21561.02
484.28	21823.16
484.46	22043.17
484.64	22457.44
484.82	22190.62
485.00	22764.05
485.18	22995.76
485.35	22981.72
485.53	22960.66
485.71	23094.07
485.89	23470.89
486.07	23440.47
486.25	23733.03
486.43	23999.85
486.61	24077.09
486.78	24184.76
486.96	24517.11
487.14	24760.53
487.32	24826.06
487.50	25392.47
487.68	25357.36
487.85	25666.31
488.03	25797.38
488.21	25982.29
488.39	26125.06
488.57	26328.69
488.75	26672.74
488.92	26742.96
489.10	26728.92
489.28	26878.71
489.46	27665.13
489.64	27087.02
489.81	27407.67
489.99	27733.01
490.17	28112.17
490.35	28261.97
490.53	28271.33
490.70	28954.77
490.88	28407.08
491.06	28580.28
491.24	29048.39
491.41	29467.34
491.59	29612.46
491.77	29469.69
491.95	30026.73
492.13	29881.62
492.30	30267.81
492.48	30190.57
492.66	30410.58
492.84	30740.60
493.01	30796.77
493.19	31194.66
493.37	31255.51
493.54	31161.89
493.72	31587.87
493.90	31318.71
494.08	32016.19
494.25	32266.63
494.43	31878.10
494.61	32711.33
494.79	32624.73
494.96	32268.97
495.14	33146.67
495.32	33163.05
495.49	33024.96
495.67	33511.79
495.85	33537.54
496.02	33731.80
496.20	34117.99
496.38	34272.46
496.55	34340.34
496.73	35068.25
496.91	34799.08
497.09	35260.17
497.26	34927.81
497.44	35082.29
497.62	35314.00
497.79	36004.46
497.97	35505.93
498.14	36123.83
498.32	36692.58
498.50	36638.75
498.67	36935.99
498.85	36800.24
499.03	37015.57
499.20	36477.25
499.38	37429.85
499.56	37514.11
499.73	37263.67
499.91	37654.54
500.08	38043.07
500.26	37654.54
500.44	38113.28
500.61	38366.06
500.79	38061.79
500.97	38579.05
501.14	38939.49
501.32	39070.56
501.49	38871.62
501.67	39014.39
501.84	39178.23
502.02	39124.40
502.20	39564.42
502.37	39412.28
502.55	39679.10
502.72	39744.64
502.90	39419.30
503.07	39571.44
503.25	40479.57
503.43	39997.41
503.60	40556.80
503.78	40428.07
503.95	40662.13
504.13	40847.03
504.30	40629.36
504.48	40737.02
504.65	41067.04
504.83	41081.08
505.01	41244.92
505.18	41345.56
505.36	42059.43
505.53	41713.03
505.71	41909.63
505.88	42202.20
506.06	41874.52
506.23	42389.44
506.41	42316.89
506.58	42749.88
506.76	42141.35
506.93	42887.98
507.11	42686.69
507.28	42665.63
507.46	42944.15
507.63	43330.34
507.81	43676.74
507.98	43477.79
508.16	43112.67
508.33	43634.61
508.50	43569.07
508.68	43714.19
508.85	44212.72
509.03	43686.10
509.20	44626.99
509.38	44357.83
509.55	44294.64
509.73	44994.46
509.90	44896.16
510.08	44800.19
510.25	45034.25
510.42	44732.32
510.60	45411.07
510.77	45076.38
510.95	45659.17
511.12	45460.23
511.30	45684.92
511.47	45696.62
511.64	45647.47
511.82	45869.82
511.99	45727.05
512.17	46635.17
512.34	46183.45
512.51	46670.28
512.69	46518.15
512.86	46761.56
513.04	46733.48
513.21	46777.95
513.38	46595.38
513.56	47042.43
513.73	47157.11
513.90	47257.76
514.08	46773.27
514.25	47693.10
514.43	47648.63
514.60	47732.89
514.77	47379.46
514.95	48100.35
515.12	47943.53
515.29	47814.80
515.47	48397.60
515.64	48425.68
515.81	48247.80
515.99	48355.47
516.16	48879.75
516.33	49029.54
516.51	48800.17
516.68	48809.53
516.85	48788.47
517.03	49406.37
517.20	49308.07
517.37	49127.84
517.54	49181.68
517.72	49177.00
517.89	49336.15
518.06	49317.43
518.24	49333.81
518.41	49605.31
518.58	49694.25
518.75	49413.39
518.93	49638.08
519.10	49998.52
519.27	50089.80
519.45	49928.31
519.62	50155.34
519.79	50445.57
519.96	50302.79
520.14	50630.47
520.31	50504.08
520.48	50831.75
520.65	50600.04
520.83	51030.70
521.00	51175.81
521.17	50375.35
521.34	50871.54
521.52	51007.29
521.69	51470.72
521.86	51089.21
522.03	51262.41
522.20	51697.75
522.38	51831.16
522.55	51936.49
522.72	51374.76
522.89	51444.98
523.07	52051.17
523.24	51835.84
523.41	51629.88
523.58	51714.14
523.75	52512.26
523.92	51723.50
524.10	52453.75
524.27	52428.00
524.44	52341.40
524.61	52243.10
524.78	52067.56
524.96	52467.79
525.13	52348.42
525.30	52776.74
525.47	52708.86
525.64	52622.26
525.81	52814.19
525.98	52718.23
526.16	53055.26
526.33	52853.98
526.50	53165.27
526.67	53146.54
526.84	52933.56
527.01	53038.88
527.18	52872.70
527.36	53303.36
527.53	53139.52
527.70	53385.28
527.87	53633.38
528.04	53399.32
528.21	53757.42
528.38	53488.26
528.55	53719.98
528.72	53605.29
528.89	53537.41
529.07	53947.01
529.24	53904.88
529.41	53951.69
529.58	53715.29
529.75	53939.99
529.92	54071.06
530.09	54204.47
530.26	53993.82
530.43	54382.35
530.60	54113.19
530.77	54087.44
530.94	54237.23
531.11	54401.07
531.28	54415.11
531.46	54019.56
531.63	54667.89
531.80	54494.69
531.97	54630.44
532.14	54738.11
532.31	54468.95
532.48	54857.48
532.65	54770.88
532.82	54672.57
532.99	54962.80
533.16	54808.32
533.33	54747.47
533.50	55306.86
533.67	54925.35
533.84	54913.65
534.01	54890.24
534.18	55164.09
534.35	55222.60
534.52	55234.30
534.69	55379.42
534.86	55348.99
535.03	55363.03
535.20	55402.82
535.37	55529.21
535.54	55583.04
535.71	55402.82
535.88	55786.67
536.05	55657.94
536.22	55732.84
536.38	55824.12
536.55	55807.73
536.72	55861.57
536.89	55849.86
537.06	55615.81
537.23	56186.90
537.40	55618.15
537.57	56083.92
537.74	56133.07
537.91	56261.80
538.08	56086.26
538.25	55819.44
538.42	55987.95
538.59	56233.71
538.75	56224.35
538.92	56322.65
539.09	56280.52
539.26	56554.36
539.43	56449.04
539.60	56432.66
539.77	56552.02
539.94	56685.43
540.11	56580.11
540.28	56453.72
540.44	56638.62
540.61	56882.04
540.78	56533.30
540.95	56769.69
541.12	56624.58
541.29	56587.13
541.46	56664.37
541.62	56835.23
541.79	56952.26
541.96	56491.17
542.13	56816.50
542.30	56849.27
542.47	56956.94
542.63	57137.16
542.80	56982.68
542.97	57446.11
543.14	57382.91
543.31	57219.08
543.48	57324.40
543.64	57652.08
543.81	57462.49
543.98	57401.64
544.15	57483.56
544.32	57696.55
544.48	57682.50
544.65	57546.75
544.82	57663.78
544.99	57343.12
545.16	57787.83
545.32	57696.55
545.49	57813.57
545.66	57904.85
545.83	57741.02
546.00	57867.40
546.16	57876.77
546.33	57752.72
546.50	57411.00
546.67	57832.30
546.83	57567.82
547.00	58087.42
547.17	57848.68
547.34	57998.48
547.50	58056.99
547.67	58342.53
547.84	58244.23
548.00	58361.26
548.17	58459.56
548.34	58286.36
548.51	58248.91
548.67	58286.36
548.84	58230.19
549.01	58433.81
549.18	58162.31
549.34	58363.60
549.51	58621.06
549.68	58674.89
549.84	58614.04
550.01	58525.10
550.18	58480.63
550.34	58550.84
550.51	58511.05
550.68	58611.70
550.84	58361.26
551.01	58789.58
551.18	58721.70
551.34	58646.80
551.51	58700.64
551.68	58988.52
551.84	58415.09
552.01	58717.02
552.18	58745.11
552.34	58770.85
552.51	58960.44
552.68	58637.44
552.84	58866.81
553.01	59007.25
553.18	58941.71
553.34	59105.55
553.51	58988.52
553.67	58904.26
553.84	59075.12
554.01	59096.19
554.17	58986.18
554.34	59281.09
554.51	59222.58
554.67	59068.10
554.84	59386.41
555.00	59187.47
555.17	59124.27
555.33	59337.26
555.50	59145.34
555.67	59267.05
555.83	59264.70
556.00	59236.62
556.16	59657.91
556.33	59437.90
556.50	59339.60
556.66	59473.01
556.83	59295.13
556.99	59454.29
557.16	59484.72
557.32	59765.58
557.49	59793.67
557.65	59559.61
557.82	59576.00
557.98	59552.59
558.15	59735.15
558.32	59693.02
558.48	59533.87
558.65	59678.98
558.81	59714.09
558.98	59615.79
559.14	59824.09
559.31	59758.56
559.47	59760.90
559.64	59875.58
559.80	59964.52
559.97	59870.90
560.13	59653.23
560.30	59929.42
560.46	59814.73
560.63	59922.40
560.79	59842.82
560.96	59952.82
561.12	59959.84
561.29	60041.76
561.45	59994.95
561.61	60095.60
561.78	59831.11
561.94	59915.37
562.11	59913.03
562.27	60273.48
562.44	60221.98
562.60	60388.16
562.77	59994.95
562.93	60081.55
563.10	60189.22
563.26	60236.03
563.42	60498.17
563.59	60191.56
563.75	60189.22
563.92	60231.35
564.08	60266.45
564.24	60247.73
564.41	60250.07
564.57	60149.43
564.74	60343.69
564.90	60219.64
565.07	60245.39
565.23	60294.54
565.39	60240.71
565.56	60240.71
565.72	60229.01
565.88	60252.41
566.05	60474.76
566.21	60432.63
566.38	60353.05
566.54	60441.99
566.70	60622.22
566.87	60465.40
567.03	60404.55
567.19	60591.79
567.36	60481.78
567.52	60601.15
567.68	60711.16
567.85	60521.57
568.01	60645.62
568.17	60402.21
568.34	60722.86
568.50	60566.04
568.66	60423.27
568.83	60669.03
568.99	60617.53
569.15	60659.66
569.32	60601.15
569.48	60444.33
569.64	60582.43
569.81	60493.49
569.97	60683.07
570.13	60680.73
570.30	60472.42
570.46	60605.83
570.62	60823.50
570.78	60720.52
570.95	60811.80
571.11	60891.38
571.27	60631.58
571.43	60741.58
571.60	60865.63
571.76	60863.29
571.92	60877.33
572.09	60580.09
572.25	60783.71
572.41	60830.52
572.57	60624.56
572.74	61027.13
572.90	60818.82
573.06	60903.08
573.22	60863.29
573.38	60722.86
573.55	60856.27
573.71	61116.07
573.87	60776.69
574.03	60622.22
574.20	60748.60
574.36	60720.52
574.52	60921.80
574.68	60980.32
574.84	61087.98
575.01	60898.40
575.17	60846.91
575.33	60781.37
575.49	60889.04
575.65	60959.25
575.82	60912.44
575.98	61176.92
576.14	61034.15
576.30	60877.33
576.46	60851.59
576.62	60856.27
576.79	60645.62
576.95	60779.03
577.11	61048.19
577.27	61085.64
577.43	61048.19
577.59	60865.63
577.75	61057.56
577.92	60849.25
578.08	60924.14
578.24	61003.72
578.40	61221.39
578.56	61095.00
578.72	60884.36
578.88	61057.56
579.04	61291.61
579.21	61146.50
579.37	61090.32
579.53	61041.17
579.69	60961.59
579.85	61010.74
580.01	61052.87
580.17	60764.99
580.33	61270.54
580.49	61052.87
580.65	61099.68
580.82	61085.64
580.98	60973.30
581.14	61104.37
581.30	61036.49
581.46	60975.64
581.62	61050.53
581.78	61127.77
581.94	61312.67
582.10	61106.71
582.26	61193.31
582.42	61095.00
582.58	61008.40
582.74	61043.51
582.90	60882.02
583.06	61207.35
583.22	61036.49
583.38	61085.64
583.54	61233.10
583.70	61254.16
583.86	61272.88
584.02	60954.57
584.18	61092.66
584.34	61216.71
584.50	61034.15
584.66	61062.24
584.82	60963.93
584.98	61340.76
585.14	61172.24
585.30	60919.46
585.46	61059.90
585.62	61275.22
585.78	61221.39
585.94	60952.23
586.10	61338.42
586.26	61272.88
586.42	61078.62
586.58	61207.35
586.74	61272.88
586.90	61265.86
587.06	61099.68
587.22	61289.27
587.38	61057.56
587.54	61361.82
587.70	61352.46
587.86	61190.97
588.02	61256.50
588.18	61432.04
588.34	60968.61
588.49	61195.65
