SpectraSuite Data File
++++++++++++++++++++++++++++++++++++
Date: Fri Oct 25 10:47:40 EDT 2013
User: price-jones
Dark Spectrum Present: No
Reference Spectrum Present: No
Number of Sampled Component Spectra: 1
Spectrometers: USB2+H05261
Integration Time (usec): 100000 (USB2+H05261)
Spectra Averaged: 1 (USB2+H05261)
Boxcar Smoothing: 0 (USB2+H05261)
Correct for Electrical Dark: No (USB2+H05261)
Strobe/Lamp Enabled: No (USB2+H05261)
Correct for Detector Non-linearity: No (USB2+H05261)
Correct for Stray Light: No (USB2+H05261)
Number of Pixels in Processed Spectrum: 2048
>>>>>Begin Processed Spectral Data<<<<<
365.73	152.13
365.92	152.13
366.12	152.13
366.32	16.38
366.52	56.17
366.72	100.64
366.91	0.00
367.11	39.79
367.31	102.98
367.51	21.06
367.70	9.36
367.90	60.85
368.10	51.49
368.30	63.19
368.49	0.00
368.69	58.51
368.89	53.83
369.09	63.19
369.28	105.32
369.48	58.51
369.68	46.81
369.87	74.90
370.07	74.90
370.27	128.73
370.47	191.92
370.66	381.51
370.86	327.68
371.06	491.51
371.25	421.30
371.45	383.85
371.65	510.24
371.84	456.40
372.04	449.38
372.24	486.83
372.44	517.26
372.63	454.06
372.83	526.62
373.03	528.96
373.22	538.32
373.42	477.47
373.62	557.05
373.81	566.41
374.01	524.28
374.21	594.50
374.40	489.17
374.60	554.71
374.79	608.54
374.99	566.41
375.19	500.87
375.38	599.18
375.58	720.88
375.78	622.58
375.97	622.58
376.17	599.18
376.37	615.56
376.56	638.97
376.76	573.43
376.95	641.31
377.15	601.52
377.35	638.97
377.54	561.73
377.74	610.88
377.93	645.99
378.13	641.31
378.33	643.65
378.52	596.84
378.72	629.60
378.91	608.54
379.11	589.82
379.31	543.00
379.50	664.71
379.70	669.39
379.89	695.14
380.09	601.52
380.28	638.97
380.48	648.33
380.68	667.05
380.87	676.41
381.07	643.65
381.26	629.60
381.46	634.29
381.65	718.54
381.85	636.63
382.04	620.24
382.24	718.54
382.43	592.16
382.63	606.20
382.83	704.50
383.02	716.20
383.22	678.76
383.41	695.14
383.61	704.50
383.80	791.10
384.00	751.31
384.19	744.29
384.39	791.10
384.58	697.48
384.78	772.38
384.97	753.65
385.17	784.08
385.36	697.48
385.56	793.44
385.75	781.74
385.95	791.10
386.14	727.91
386.34	842.59
386.53	753.65
386.72	802.80
386.92	847.27
387.11	833.23
387.31	819.19
387.50	812.17
387.70	821.53
387.89	905.79
388.09	837.91
388.28	840.25
388.48	823.87
388.67	952.60
388.86	940.90
389.06	844.93
389.25	912.81
389.45	929.19
389.64	861.32
389.84	1004.09
390.03	947.92
390.22	1006.43
390.42	880.04
390.61	978.34
390.81	861.32
391.00	908.13
391.19	1029.84
391.39	943.24
391.58	997.07
391.78	915.15
391.97	901.11
392.16	978.34
392.36	1048.56
392.55	931.53
392.75	994.73
392.94	971.32
393.13	1027.50
393.33	987.71
393.52	1046.22
393.71	1039.20
393.91	1069.62
394.10	1088.35
394.29	1062.60
394.49	1025.15
394.68	1043.88
394.88	987.71
395.07	1151.54
395.26	1104.73
395.46	1088.35
395.65	1074.31
395.84	1114.10
396.04	1259.21
396.23	1125.80
396.42	1100.05
396.62	1144.52
396.81	1191.33
397.00	1149.20
397.19	1118.78
397.39	1228.78
397.58	1327.08
397.77	1296.66
397.97	1306.02
398.16	1303.68
398.35	1275.59
398.55	1266.23
398.74	1282.61
398.93	1392.62
399.12	1249.85
399.32	1308.36
399.51	1315.38
399.70	1394.96
399.90	1462.83
400.09	1413.68
400.28	1432.41
400.47	1441.77
400.67	1504.96
400.86	1446.45
401.05	1357.51
401.24	1460.49
401.44	1551.78
401.63	1472.20
401.82	1549.43
402.01	1495.60
402.21	1537.73
402.40	1650.08
402.59	1497.94
402.78	1537.73
402.97	1589.22
403.17	1542.41
403.36	1572.84
403.55	1624.33
403.74	1577.52
403.93	1687.53
404.13	1631.35
404.32	1692.21
404.51	1657.10
404.70	1713.27
404.89	1650.08
405.09	1809.23
405.28	1860.73
405.47	1774.13
405.66	1715.61
405.85	1806.89
406.05	1748.38
406.24	1818.60
406.43	1769.44
406.62	1820.94
406.81	1928.60
407.00	1813.92
407.20	1827.96
407.39	1851.36
407.58	1926.26
407.77	1956.69
407.96	1891.15
408.15	1947.33
408.34	2005.84
408.54	1909.88
408.73	2001.16
408.92	2066.69
409.11	2045.63
409.30	2050.31
409.49	1994.14
409.68	2214.15
409.87	2071.37
410.07	2083.08
410.26	2155.63
410.45	2129.89
410.64	2122.87
410.83	2033.93
411.02	2162.66
411.21	2356.92
411.40	2253.94
411.59	2244.57
411.78	2307.77
411.98	2286.70
412.17	2366.28
412.36	2338.20
412.55	2382.67
412.74	2462.24
412.93	2569.91
413.12	2469.27
413.31	2551.18
413.50	2443.52
413.69	2534.80
413.88	2525.44
414.07	2583.95
414.26	2663.53
414.45	2623.74
414.64	2553.52
414.83	2740.77
415.02	2740.77
415.22	2590.97
415.41	2803.96
415.60	2803.96
415.79	2782.90
415.98	2808.64
416.17	2780.56
416.36	2745.45
416.55	2883.54
416.74	2984.18
416.93	2932.69
417.12	2949.08
417.31	2920.99
417.50	2960.78
417.69	3080.14
417.88	2956.10
418.07	2932.69
418.26	3035.67
418.45	3222.92
418.64	3098.87
418.83	3066.10
419.02	3194.83
419.21	3260.37
419.39	3281.43
419.58	3255.69
419.77	3218.24
419.96	3126.96
420.15	3281.43
420.34	3178.45
420.53	3386.76
420.72	3337.60
420.91	3318.88
421.10	3431.23
421.29	3541.23
421.48	3471.01
421.67	3485.06
421.86	3410.16
422.05	3342.28
422.24	3515.48
422.43	3487.40
422.61	3625.49
422.80	3569.32
422.99	3545.91
423.18	3522.51
423.37	3543.57
423.56	3492.08
423.75	3602.08
423.94	3583.36
424.13	3276.75
424.32	3485.06
424.50	3564.64
424.69	3435.91
424.88	3550.59
425.07	3674.64
425.26	3487.40
425.45	3562.30
425.64	3527.19
425.83	3632.51
426.01	3740.18
426.20	3623.15
426.39	3655.92
426.58	3524.85
426.77	3597.40
426.96	3665.28
427.15	3627.83
427.33	3658.26
427.52	3756.56
427.71	3765.92
427.90	3786.99
428.09	3805.71
428.28	3684.00
428.46	3723.79
428.65	3765.92
428.84	3871.25
429.03	3859.54
429.22	3808.05
429.40	3864.22
429.59	3754.22
429.78	3592.72
429.97	3618.47
430.16	3817.41
430.34	3815.07
430.53	3838.48
430.72	3889.97
430.91	3932.10
431.10	4093.60
431.28	4131.05
431.47	4243.39
431.66	4098.28
431.85	4128.70
432.03	4205.94
432.22	4077.21
432.41	4166.15
432.60	4271.48
432.79	4280.84
432.97	4212.96
433.16	4182.54
433.35	4194.24
433.54	4271.48
433.72	4299.56
433.91	4334.67
434.10	4360.42
434.28	4311.27
434.47	4528.94
434.66	4479.79
434.85	4475.10
435.03	4512.55
435.22	4573.41
435.41	4540.64
435.59	4498.51
435.78	4685.75
435.97	4592.13
436.16	4620.22
436.34	4678.73
436.53	4739.58
436.72	4840.23
436.90	4617.88
437.09	4793.42
437.28	4734.90
437.46	4585.11
437.65	4739.58
437.84	4578.09
438.02	4617.88
438.21	4610.86
438.40	4587.45
438.58	4870.65
438.77	4940.87
438.96	4978.32
439.14	4999.38
439.33	5186.63
439.52	5060.24
439.70	5219.39
439.89	5240.46
440.08	5240.46
440.26	5310.68
440.45	5228.76
440.63	5336.42
440.82	5509.62
441.01	5425.36
441.19	5444.09
441.38	5366.85
441.57	5488.56
441.75	5689.84
441.94	5607.92
442.12	5593.88
442.31	5685.16
442.50	5820.91
442.68	5743.67
442.87	5746.02
443.05	5799.85
443.24	5865.38
443.43	5886.45
443.61	5788.14
443.80	5884.11
443.98	5666.44
444.17	5699.20
444.35	5977.73
444.54	6033.90
444.73	5888.79
444.91	5867.72
445.10	5893.47
445.28	5893.47
445.47	5816.23
445.65	5799.85
445.84	5820.91
446.02	5839.64
446.21	5778.78
446.39	6019.86
446.58	5912.19
446.77	5956.66
446.95	5872.40
447.14	6010.50
447.32	6059.65
447.51	5907.51
447.69	5921.56
447.88	6029.22
448.06	6097.10
448.25	6162.63
448.43	5996.45
448.62	5966.03
448.80	6078.37
448.99	6239.87
449.17	6167.31
449.36	6050.28
449.54	6272.64
449.73	6373.28
449.91	6239.87
450.10	6342.85
450.28	6473.92
450.46	6436.47
450.65	6300.72
450.83	6300.72
451.02	6403.71
451.20	6668.19
451.39	6466.90
451.57	6272.64
451.76	6438.81
451.94	6317.11
452.13	6555.84
452.31	6604.99
452.49	6382.64
452.68	6719.68
452.86	6562.86
453.05	6712.66
453.23	6633.08
453.42	6637.76
453.60	6686.91
453.78	6682.23
453.97	6539.46
454.15	6904.58
454.34	6487.96
454.52	6710.32
454.70	6892.88
454.89	6974.80
455.07	6773.51
455.26	6932.67
455.44	6911.60
455.62	7028.63
455.81	6949.05
455.99	7098.84
456.17	7117.57
456.36	7143.32
456.54	7073.10
456.73	7176.08
456.91	7370.35
457.09	7337.58
457.28	7365.67
457.46	7225.23
457.64	7442.90
457.83	7438.22
458.01	7417.16
458.19	7316.51
458.38	7421.84
458.56	7449.93
458.74	7353.96
458.93	7468.65
459.11	7515.46
459.29	7566.95
459.48	7700.36
459.66	7632.49
459.84	7419.50
460.03	7796.32
460.21	7672.28
460.39	7655.89
460.57	7482.69
460.76	7747.17
460.94	7686.32
461.12	7655.89
461.31	7843.14
461.49	7742.49
461.67	7716.75
461.85	7941.44
462.04	7903.99
462.22	8500.83
462.40	8217.62
462.59	7981.23
462.77	8056.12
462.95	8168.47
463.13	7999.95
463.32	8032.72
463.50	8053.78
463.68	8189.53
463.86	8180.17
464.05	7971.86
464.23	8060.80
464.41	8252.73
464.59	8063.15
464.78	8416.57
464.96	8308.90
465.14	8109.96
465.32	8388.48
465.50	8322.94
465.69	8540.61
465.87	8355.71
466.05	8313.58
466.23	8365.07
466.41	8402.52
466.60	8802.75
466.78	8245.71
466.96	8358.05
467.14	8482.10
467.32	8512.53
467.51	8727.86
467.69	8372.10
467.87	8615.51
468.05	8725.52
468.23	8461.04
468.41	8573.38
468.60	8645.94
468.78	8638.92
468.96	8622.53
469.14	8624.87
469.32	8945.53
469.50	8561.68
469.69	9034.47
469.87	8936.17
470.05	8959.57
470.23	8973.61
470.41	9039.15
470.59	8947.87
470.77	9022.77
470.95	9078.94
471.14	9139.79
471.32	9177.24
471.50	9266.18
471.68	9366.82
471.86	9458.10
472.04	9451.08
472.22	9703.86
472.40	9336.40
472.58	9465.13
472.77	9563.43
472.95	9696.84
473.13	9856.00
473.31	9666.41
473.49	9701.52
473.67	9750.67
473.85	9565.77
474.03	10022.17
474.21	9893.44
474.39	10127.50
474.57	9923.87
474.75	10373.25
474.93	10171.97
475.12	10092.39
475.30	10375.59
475.48	10270.27
475.66	10279.63
475.84	10408.36
476.02	10415.38
476.20	10204.74
476.38	10623.69
476.56	10934.98
476.74	10668.16
476.92	10698.59
477.10	10836.68
477.28	11052.01
477.46	10923.28
477.64	11283.72
477.82	11267.34
478.00	11527.14
478.18	11241.59
478.36	11286.06
478.54	11644.17
478.72	11747.15
478.90	11873.54
479.08	11908.65
479.26	11946.09
479.44	11932.05
479.62	11988.22
479.80	12131.00
479.98	12072.48
480.16	12421.22
480.34	12395.48
480.52	12456.33
480.70	12461.01
480.88	12561.66
481.06	12760.60
481.24	12856.56
481.41	12629.53
481.59	13195.94
481.77	13102.32
481.95	13327.01
482.13	13233.39
482.31	13275.52
482.49	13633.62
482.67	13509.57
482.85	13589.15
483.03	14073.64
483.21	13888.74
483.39	14106.41
483.57	14054.92
483.74	14099.39
483.92	14487.92
484.10	14260.88
484.28	14387.27
484.46	14675.16
484.64	15014.54
484.82	14466.85
485.00	15098.80
485.18	15075.39
485.35	15384.34
485.53	14932.62
485.71	15126.88
485.89	15578.61
486.07	15405.41
486.25	15527.11
486.43	15241.57
486.61	15620.74
486.78	16145.02
486.96	16081.82
487.14	16458.65
487.32	16444.60
487.50	16615.46
487.68	16446.94
487.85	17235.70
488.03	16924.41
488.21	17205.28
488.39	17181.87
488.57	17254.43
488.75	17259.11
488.92	17659.34
489.10	17743.60
489.28	17584.44
489.46	18115.75
489.64	18122.77
489.81	18600.24
489.99	18431.72
490.17	18469.17
490.35	18647.05
490.53	18965.36
490.70	19009.83
490.88	18941.96
491.06	19110.47
491.24	19227.50
491.41	19290.70
491.59	19117.50
491.77	19147.92
491.95	19627.73
492.13	19723.69
492.30	19852.42
492.48	19983.49
492.66	19889.87
492.84	20053.71
493.01	20381.38
493.19	20393.09
493.37	20460.96
493.54	20559.27
493.72	20994.61
493.90	20762.89
494.08	21022.69
494.25	21348.03
494.43	21495.48
494.61	21891.03
494.79	21745.92
494.96	21575.06
495.14	21497.82
495.32	21893.37
495.49	21900.39
495.67	22033.80
495.85	22118.06
496.02	22309.99
496.20	22335.73
496.38	22553.40
496.55	22726.60
496.73	23091.73
496.91	22771.07
497.09	23300.03
497.26	23484.94
497.44	23204.07
497.62	23154.92
497.79	23131.51
497.97	23452.17
498.14	23655.79
498.32	23800.91
498.50	23847.72
498.67	24049.00
498.85	24072.41
499.03	24329.87
499.20	24332.21
499.38	24510.09
499.56	24233.91
499.73	24505.41
499.91	24898.62
500.08	24805.00
500.26	24573.28
500.44	24744.14
500.61	24844.79
500.79	24723.08
500.97	25153.74
501.14	25757.60
501.32	25017.99
501.49	25125.65
501.67	25322.26
501.84	25399.49
502.02	25516.52
502.20	25956.54
502.37	25783.34
502.55	26279.54
502.72	26153.15
502.90	26164.85
503.07	25841.85
503.25	26209.32
503.43	25853.56
503.60	26113.36
503.78	26363.79
503.95	26345.07
504.13	26565.08
504.30	26656.36
504.48	26623.59
504.65	27012.12
504.83	27126.81
505.01	27227.45
505.18	27105.74
505.36	27206.39
505.53	27131.49
505.71	27466.19
505.88	27555.13
506.06	27477.89
506.23	27520.02
506.41	27234.47
506.58	27686.20
506.76	27803.22
506.93	27625.34
507.11	28114.52
507.28	28259.63
507.46	28292.40
507.63	28318.14
507.81	28334.53
507.98	28252.61
508.16	28283.03
508.33	28528.79
508.50	28615.39
508.68	28786.25
508.85	29046.05
509.03	28622.41
509.20	28905.62
509.38	29092.86
509.55	29020.30
509.73	29191.16
509.90	29228.61
510.08	29188.82
510.25	29034.35
510.42	29947.15
510.60	29769.27
510.77	29780.98
510.95	30078.22
511.12	29685.01
511.30	29883.96
511.47	30426.96
511.64	30349.73
511.82	30235.04
511.99	29893.32
512.17	30183.55
512.34	30600.16
512.51	30314.62
512.69	30733.57
512.86	30506.54
513.04	30235.04
513.21	30668.04
513.38	30639.95
513.56	30897.41
513.73	30623.57
513.90	31143.17
514.08	30499.52
514.25	31199.34
514.43	30920.82
514.60	31136.15
514.77	31274.24
514.95	31751.71
515.12	31309.35
515.29	31201.68
515.47	31971.72
515.64	32034.91
515.81	31454.46
515.99	31704.90
516.16	31824.26
516.33	31952.99
516.51	31938.95
516.68	31573.83
516.85	31913.20
517.03	32280.67
517.20	32212.79
517.37	32009.17
517.54	32208.11
517.72	32416.42
517.89	32165.98
518.06	32304.07
518.24	32205.77
518.41	32341.52
518.58	32545.15
518.75	32781.54
518.93	33013.26
519.10	32636.43
519.27	32975.81
519.45	33010.92
519.62	33216.88
519.79	33425.19
519.96	33376.04
520.14	33198.16
520.31	33268.37
520.48	33373.70
520.65	33202.84
520.83	33886.28
521.00	34087.56
521.17	33436.89
521.34	33895.64
521.52	34125.01
521.69	34286.51
521.86	34370.77
522.03	34192.89
522.20	34125.01
522.38	34227.99
522.55	34438.64
522.72	34616.52
522.89	34328.64
523.07	34668.02
523.24	34656.31
523.41	34710.14
523.58	34375.45
523.75	35014.41
523.92	34981.65
524.10	34621.20
524.27	35154.85
524.44	35292.94
524.61	35044.84
524.78	35772.75
524.96	35407.62
525.13	35367.84
525.30	35969.35
525.47	35749.34
525.64	35538.69
525.81	35864.03
525.98	35477.84
526.16	35138.46
526.33	34909.09
526.50	35763.39
526.67	35534.01
526.84	35669.76
527.01	35686.15
527.18	35906.16
527.36	36144.89
527.53	36299.37
527.70	36650.45
527.87	36842.37
528.04	35997.44
528.21	36304.05
528.38	36678.54
528.55	36825.99
528.72	36343.84
528.89	36968.76
529.07	36378.95
529.24	36605.98
529.41	36833.01
529.58	36730.03
529.75	36573.21
529.92	36769.82
530.09	37071.75
530.26	36950.04
530.43	37118.56
530.60	36851.73
530.77	37177.07
530.94	37502.40
531.11	37242.60
531.28	37425.17
531.46	37170.05
531.63	37937.74
531.80	37621.77
531.97	37406.44
532.14	37397.08
532.31	37467.30
532.48	37413.46
532.65	37773.91
532.82	37750.50
532.99	37759.86
533.16	37687.31
533.33	37722.41
533.50	38007.96
533.67	38000.94
533.84	37766.88
534.01	37944.76
534.18	37741.14
534.35	38373.08
534.52	38265.42
534.69	38103.92
534.86	38415.21
535.03	38057.11
535.20	38443.30
535.37	38745.23
535.54	38864.60
535.71	38473.73
535.88	38527.56
536.05	38642.24
536.22	39000.35
536.38	39077.58
536.55	38600.12
536.72	38787.36
536.89	38457.34
537.06	38735.87
537.23	38958.22
537.40	38979.28
537.57	38796.72
537.74	39105.67
537.91	39257.81
538.08	38925.45
538.25	39044.82
538.42	39199.29
538.59	39730.59
538.75	38946.51
538.92	38754.59
539.09	39707.19
539.26	39611.23
539.43	39503.56
539.60	39468.45
539.77	39311.64
539.94	39522.29
540.11	39199.29
540.28	39274.19
540.44	39615.91
540.61	39498.88
540.78	39505.90
540.95	39433.35
541.12	39611.23
541.29	40093.38
541.46	39604.20
541.62	40084.01
541.79	40177.64
541.96	39845.28
542.13	39796.13
542.30	39920.18
542.47	40046.57
542.63	40198.70
542.80	39976.35
542.97	40472.54
543.14	40678.51
543.31	40620.00
543.48	41184.07
543.64	41263.64
543.81	41148.96
543.98	40655.11
544.15	40507.65
544.32	41085.76
544.48	41312.80
544.65	40797.88
544.82	40945.33
544.99	40357.86
545.16	41228.54
545.32	40514.67
545.49	41560.89
545.66	41097.47
545.83	41273.01
546.00	41783.24
546.16	41207.47
546.33	40840.01
546.50	40797.88
546.67	41439.18
546.83	40811.92
547.00	41219.17
547.17	41043.63
547.34	41385.35
547.50	41488.34
547.67	41551.53
547.84	41893.25
548.00	41666.22
548.17	41748.14
548.34	41591.32
548.51	42113.26
548.67	42087.51
548.84	42199.86
549.01	41865.16
549.18	41408.76
549.34	41626.43
549.51	42312.20
549.68	42134.32
549.84	41958.78
550.01	42183.48
550.18	41914.31
550.34	42387.10
550.51	42447.96
550.68	42249.01
550.84	41762.18
551.01	42717.12
551.18	41883.89
551.34	41656.85
551.51	42368.38
551.68	42185.82
551.84	42043.04
552.01	42382.42
552.18	42302.84
552.34	41909.63
552.51	42426.89
552.68	42480.72
552.84	42836.48
553.01	42717.12
553.18	42572.00
553.34	42499.45
553.51	42199.86
553.67	42527.53
553.84	43105.65
554.01	42749.88
554.17	43133.73
554.34	43047.13
554.51	42796.70
554.67	43150.12
554.84	43021.39
555.00	43075.22
555.17	42660.94
555.33	42997.98
555.50	43332.68
555.67	43344.38
555.83	42656.26
556.00	43241.40
556.16	43885.04
556.33	43278.85
556.50	43072.88
556.66	43323.32
556.83	42707.76
556.99	43316.29
557.16	43459.07
557.32	43229.69
557.49	43311.61
557.65	43189.91
557.82	42969.90
557.98	43232.04
558.15	43274.16
558.32	43529.28
558.48	42948.83
558.65	43400.55
558.81	43384.17
558.98	43728.23
559.14	43601.84
559.31	43863.98
559.47	43538.65
559.64	43758.66
559.80	43899.09
559.97	43583.12
560.13	43725.89
560.30	43473.11
560.46	43718.87
560.63	43658.01
560.79	43976.33
560.96	44037.18
561.12	43728.23
561.29	43440.34
561.45	43714.19
561.61	43613.54
561.78	43669.72
561.94	43243.74
562.11	43810.15
562.27	43267.14
562.44	43899.09
562.60	43917.81
562.77	44074.63
562.93	43768.02
563.10	44306.34
563.26	43901.43
563.42	44273.57
563.59	43468.43
563.75	43768.02
563.92	44229.10
564.08	44215.06
564.24	44158.89
564.41	43941.22
564.57	44161.23
564.74	44030.16
564.90	44098.03
565.07	44308.68
565.23	43735.25
565.39	44278.25
565.56	44261.87
565.72	44294.64
565.88	44404.64
566.05	44147.18
566.21	44266.55
566.38	43868.66
566.54	44273.57
566.70	44612.95
566.87	44760.40
567.03	44238.47
567.19	44751.04
567.36	44662.10
567.52	44037.18
567.68	44495.92
567.85	44252.51
568.01	44140.16
568.17	44598.91
568.34	44617.63
568.50	44374.22
568.66	44287.62
568.83	44830.62
568.99	44268.89
569.15	44098.03
569.32	44086.33
569.48	44105.06
569.64	44732.32
569.81	44774.45
569.97	44488.90
570.13	44697.21
570.30	44266.55
570.46	44505.29
570.62	43978.67
570.78	44531.03
570.95	43725.89
571.11	44208.04
571.27	44538.05
571.43	44753.38
571.60	44561.46
571.76	44502.95
571.92	44112.08
572.09	44215.06
572.25	44264.21
572.41	44842.32
572.57	44795.51
572.74	45008.50
572.90	44435.07
573.06	44825.94
573.22	44692.53
573.38	44542.74
573.55	44168.25
573.71	44821.26
573.87	44591.89
574.03	44741.68
574.20	44149.53
574.36	44718.28
574.52	44582.52
574.68	44481.88
574.84	44797.85
575.01	44760.40
575.17	44753.38
575.33	44397.62
575.49	44444.43
575.65	45216.81
575.82	44861.05
575.98	44657.42
576.14	44793.17
576.30	44954.67
576.46	44538.05
576.62	44509.97
576.79	44713.59
576.95	44030.16
577.11	44704.23
577.27	44449.11
577.43	44580.18
577.59	44914.88
577.75	44690.19
577.92	44147.18
578.08	44158.89
578.24	44596.57
578.40	44711.25
578.56	45235.53
578.72	44524.01
578.88	44414.01
579.04	44851.69
579.21	44687.85
579.37	44514.65
579.53	44657.42
579.69	44449.11
579.85	44760.40
580.01	44488.90
580.17	44596.57
580.33	45052.97
580.49	44847.00
580.65	45062.33
580.82	44467.84
580.98	44545.08
581.14	44713.59
581.30	45034.25
581.46	45148.93
581.62	44727.64
581.78	44589.55
581.94	45008.50
582.10	44797.85
582.26	44905.52
582.42	44982.76
582.58	44779.13
582.74	45036.59
582.90	44980.42
583.06	44921.90
583.22	44495.92
583.38	45106.80
583.54	44666.78
583.70	44914.88
583.86	44568.48
584.02	44776.79
584.18	45069.36
584.34	44842.32
584.50	45153.62
584.66	45052.97
584.82	44856.37
584.98	44851.69
585.14	44973.39
585.30	44357.83
585.46	44851.69
585.62	44587.21
585.78	44804.88
585.94	44439.75
586.10	44580.18
586.26	44879.77
586.42	45216.81
586.58	45064.67
586.74	45036.59
586.90	44760.40
587.06	44765.09
587.22	44949.99
587.38	44479.54
587.54	44942.97
587.70	45130.21
587.86	44683.17
588.02	45291.71
588.18	45109.14
588.34	45069.36
588.49	44671.46
588.65	44830.62
588.81	44086.33
588.97	44900.84
589.13	44671.46
589.29	44769.77
589.45	44942.97
589.61	45265.96
589.77	45118.51
589.93	45275.32
590.08	45219.15
590.24	45254.26
