SpectraSuite Data File
++++++++++++++++++++++++++++++++++++
Date: Fri Oct 25 11:23:39 EDT 2013
User: price-jones
Dark Spectrum Present: No
Reference Spectrum Present: No
Number of Sampled Component Spectra: 1
Spectrometers: USB2+H05261
Integration Time (usec): 100000 (USB2+H05261)
Spectra Averaged: 1 (USB2+H05261)
Boxcar Smoothing: 0 (USB2+H05261)
Correct for Electrical Dark: No (USB2+H05261)
Strobe/Lamp Enabled: No (USB2+H05261)
Correct for Detector Non-linearity: No (USB2+H05261)
Correct for Stray Light: No (USB2+H05261)
Number of Pixels in Processed Spectrum: 2048
>>>>>Begin Processed Spectral Data<<<<<
365.73	276.18
365.92	276.18
366.12	276.18
366.32	201.29
366.52	177.88
366.72	39.79
366.91	154.48
367.11	110.01
367.31	121.71
367.51	119.37
367.70	126.39
367.90	84.26
368.10	152.13
368.30	140.43
368.49	107.66
368.69	191.92
368.89	124.05
369.09	147.45
369.28	105.32
369.48	154.48
369.68	147.45
369.87	163.84
370.07	175.54
370.27	255.12
370.47	311.29
370.66	613.22
370.86	662.37
371.06	550.03
371.25	699.82
371.45	692.80
371.65	641.31
371.84	638.97
372.04	587.47
372.24	638.97
372.44	734.93
372.63	767.70
372.83	748.97
373.03	793.44
373.22	760.67
373.42	767.70
373.62	823.87
373.81	734.93
374.01	781.74
374.21	779.40
374.40	884.72
374.60	851.96
374.79	805.14
374.99	844.93
375.19	891.74
375.38	751.31
375.58	751.31
375.78	891.74
375.97	844.93
376.17	952.60
376.37	844.93
376.56	821.53
376.76	912.81
376.95	924.51
377.15	894.08
377.35	978.34
377.54	959.62
377.74	891.74
377.93	894.08
378.13	842.59
378.33	922.17
378.52	917.49
378.72	952.60
378.91	887.06
379.11	929.19
379.31	830.89
379.50	858.98
379.70	863.66
379.89	945.58
380.09	994.73
380.28	1013.45
380.48	1006.43
380.68	971.32
380.87	964.30
381.07	971.32
381.26	1011.11
381.46	1043.88
381.65	1078.99
381.85	1050.90
382.04	1039.20
382.24	1083.67
382.43	1118.78
382.63	1022.81
382.83	1174.95
383.02	1135.16
383.22	1088.35
383.41	1125.80
383.61	1167.93
383.80	1177.29
384.00	1109.41
384.19	1156.22
384.39	1111.75
384.58	1121.12
384.78	1170.27
384.97	1160.91
385.17	1142.18
385.36	1160.91
385.56	1128.14
385.75	1146.86
385.95	1128.14
386.14	1207.72
386.34	1130.48
386.53	1240.48
386.72	1137.50
386.92	1193.67
387.11	1249.85
387.31	1247.51
387.50	1261.55
387.70	1198.35
387.89	1231.12
388.09	1334.11
388.28	1263.89
388.48	1266.23
388.67	1331.76
388.86	1364.53
389.06	1266.23
389.25	1390.28
389.45	1303.68
389.64	1364.53
389.84	1418.36
390.03	1409.00
390.22	1392.62
390.42	1282.61
390.61	1345.81
390.81	1376.24
391.00	1380.92
391.19	1455.81
391.39	1427.73
391.58	1493.26
391.78	1474.54
391.97	1444.11
392.16	1441.77
392.36	1533.05
392.55	1516.67
392.75	1511.99
392.94	1462.83
393.13	1465.18
393.33	1500.28
393.52	1465.18
393.71	1519.01
393.91	1629.01
394.10	1549.43
394.29	1572.84
394.49	1605.61
394.68	1593.90
394.88	1640.72
395.07	1701.57
395.26	1753.06
395.46	1647.74
395.65	1771.79
395.84	1739.02
396.04	1769.44
396.23	1739.02
396.42	1746.04
396.62	1774.13
396.81	1722.63
397.00	1717.95
397.19	1797.53
397.39	1755.40
397.58	1710.93
397.77	1774.13
397.97	1844.34
398.16	1895.83
398.35	1792.85
398.55	1792.85
398.74	1956.69
398.93	1818.60
399.12	1884.13
399.32	1930.94
399.51	1947.33
399.70	2127.55
399.90	1926.26
400.09	1956.69
400.28	2001.16
400.47	2008.18
400.67	2087.76
400.86	1961.37
401.05	2017.54
401.24	2080.74
401.44	2120.53
401.63	2101.80
401.82	2111.16
402.01	2022.22
402.21	2186.06
402.40	2097.12
402.59	2167.34
402.78	2120.53
402.97	2188.40
403.17	2326.49
403.36	2253.94
403.55	2160.31
403.74	2340.54
403.93	2375.64
404.13	2279.68
404.32	2326.49
404.51	2345.22
404.70	2368.62
404.89	2396.71
405.09	2480.97
405.28	2424.80
405.47	2448.20
405.66	2506.71
405.85	2612.04
406.05	2480.97
406.24	2544.16
406.43	2509.05
406.62	2576.93
406.81	2719.70
407.00	2668.21
407.20	2609.70
407.39	2750.13
407.58	2722.04
407.77	2836.73
407.96	2820.35
408.15	2731.41
408.34	2696.30
408.54	2892.90
408.73	2782.90
408.92	2729.06
409.11	2916.31
409.30	2813.32
409.49	2860.13
409.68	2850.77
409.87	3014.61
410.07	2963.12
410.26	2946.73
410.45	2995.89
410.64	3030.99
410.83	2984.18
411.02	3023.97
411.21	3178.45
411.40	3171.43
411.59	3206.53
411.78	3218.24
411.98	3052.06
412.17	3225.26
412.36	3197.17
412.55	3351.65
412.74	3304.84
412.93	3466.33
413.12	3269.73
413.31	3557.61
413.50	3506.12
413.69	3492.08
413.88	3564.64
414.07	3536.55
414.26	3679.32
414.45	3550.59
414.64	3684.00
414.83	3892.31
415.02	3801.03
415.22	3758.90
415.41	3833.80
415.60	3887.63
415.79	3946.14
415.98	3922.74
416.17	4030.40
416.36	4032.74
416.55	4007.00
416.74	4049.13
416.93	4016.36
417.12	4102.96
417.31	4053.81
417.50	4238.71
417.69	4257.43
417.88	4229.35
418.07	4222.33
418.26	4346.37
418.45	4386.16
418.64	4437.66
418.83	4355.74
419.02	4531.28
419.21	4493.83
419.39	4463.40
419.58	4472.76
419.77	4561.70
419.96	4540.64
420.15	4498.51
420.34	4554.68
420.53	4608.51
420.72	4620.22
420.91	4695.11
421.10	4751.29
421.29	4912.78
421.48	4585.11
421.67	4748.95
421.86	4833.21
422.05	4809.80
422.24	4762.99
422.43	4805.12
422.61	4870.65
422.80	4908.10
422.99	4844.91
423.18	4915.12
423.37	5043.85
423.56	5022.79
423.75	4870.65
423.94	4858.95
424.13	4582.77
424.32	4865.97
424.50	5128.11
424.69	5130.45
424.88	5057.90
425.07	4959.60
425.26	4896.40
425.45	5139.82
425.64	5046.20
425.83	4887.04
426.01	5298.97
426.20	5018.11
426.39	5013.43
426.58	5104.71
426.77	5146.84
426.96	5093.01
427.15	5093.01
427.33	5184.29
427.52	5158.54
427.71	5100.03
427.90	5179.61
428.09	5369.19
428.28	5455.79
428.46	5350.46
428.65	5179.61
428.84	5514.30
429.03	5547.07
429.22	5310.68
429.40	5476.85
429.59	5467.49
429.78	5327.06
429.97	5284.93
430.16	5673.46
430.34	5692.18
430.53	5554.09
430.72	5724.95
430.91	5610.26
431.10	5465.15
431.28	5717.93
431.47	5612.60
431.66	5823.25
431.85	5774.10
432.03	5963.68
432.22	5956.66
432.41	5832.62
432.60	5902.83
432.79	6022.20
432.97	5902.83
433.16	5980.07
433.35	6031.56
433.54	6146.25
433.72	6141.57
433.91	6029.22
434.10	6155.61
434.28	6122.84
434.47	6305.40
434.66	6155.61
434.85	6228.17
435.03	6143.91
435.22	6274.98
435.41	6562.86
435.59	6202.42
435.78	6555.84
435.97	6445.84
436.16	6406.05
436.34	6415.41
436.53	6593.29
436.72	6722.02
436.90	6431.79
437.09	6656.48
437.28	6562.86
437.46	6686.91
437.65	6623.72
437.84	6813.30
438.02	6607.33
438.21	6841.39
438.40	6637.76
438.58	6942.03
438.77	7066.08
438.96	6956.07
439.14	6988.84
439.33	7068.42
439.52	7433.54
439.70	7358.64
439.89	7449.93
440.08	7332.90
440.26	7417.16
440.45	7197.15
440.63	7513.12
440.82	7461.63
441.01	7557.59
441.19	7660.57
441.38	7798.66
441.57	7747.17
441.75	7754.19
441.94	7840.79
442.12	7903.99
442.31	8091.23
442.50	7918.03
442.68	8002.29
442.87	8116.98
443.05	7997.61
443.24	8243.37
443.43	8191.88
443.61	8135.70
443.80	8421.25
443.98	8058.46
444.17	7880.58
444.35	8238.69
444.54	8510.19
444.73	8259.75
444.91	8231.66
445.10	8435.29
445.28	8416.57
445.47	8241.03
445.65	8346.35
445.84	8430.61
446.02	8414.23
446.21	8500.83
446.39	8470.40
446.58	8322.94
446.77	8379.12
446.95	8341.67
447.14	8493.80
447.32	8552.32
447.51	8589.77
447.69	8308.90
447.88	8482.10
448.06	8449.33
448.25	8540.61
448.43	8676.37
448.62	8713.81
448.80	8458.70
448.99	8779.35
449.17	8678.71
449.36	8549.98
449.54	8645.94
449.73	8809.78
449.91	9085.96
450.10	8737.22
450.28	9025.11
450.46	9071.92
450.65	8957.23
450.83	9188.94
451.02	9048.51
451.20	9163.20
451.39	9156.18
451.57	9291.93
451.76	9100.00
451.94	9336.40
452.13	9345.76
452.31	9434.70
452.49	9088.30
452.68	9366.82
452.86	9352.78
453.05	9394.91
453.23	9502.58
453.42	9465.13
453.60	9107.02
453.78	9544.70
453.97	9455.76
454.15	9561.09
454.34	9530.66
454.52	9664.07
454.70	9582.15
454.89	9657.05
455.07	9577.47
455.26	9895.78
455.44	9900.47
455.62	9930.89
455.81	9886.42
455.99	10022.17
456.17	10040.90
456.36	10024.51
456.54	10120.48
456.73	10448.15
456.91	10513.69
457.09	10413.04
457.28	10532.41
457.46	10319.42
457.64	10609.65
457.83	10499.64
458.01	10520.71
458.19	10773.49
458.38	10527.73
458.56	10665.82
458.74	10595.61
458.93	10867.11
459.11	10801.57
459.29	10684.55
459.48	10817.96
459.66	10874.13
459.84	10920.94
460.03	11119.89
460.21	11014.56
460.39	10956.05
460.57	11005.20
460.76	10979.45
460.94	11054.35
461.12	11300.11
461.31	11384.37
461.49	11281.38
461.67	11133.93
461.85	11489.69
462.04	11286.06
462.22	11679.27
462.40	11674.59
462.59	11552.88
462.77	11377.34
462.95	11587.99
463.13	11564.59
463.32	11854.81
463.50	11758.85
463.68	11791.62
463.86	11990.56
464.05	11644.17
464.23	11595.01
464.41	11857.15
464.59	11784.60
464.78	12018.65
464.96	12135.68
465.14	11662.89
465.32	12018.65
465.50	11836.09
465.69	12231.64
465.87	12109.93
466.05	12088.87
466.23	12238.66
466.41	12170.79
466.60	12444.63
466.78	12084.19
466.96	12091.21
467.14	12219.94
467.32	12252.70
467.51	12451.65
467.69	12114.61
467.87	12414.20
468.05	12755.92
468.23	12510.16
468.41	12442.29
468.60	12725.49
468.78	12858.90
468.96	12554.63
469.14	12786.35
469.32	13128.06
469.50	12519.53
469.69	13167.85
469.87	13240.41
470.05	13032.10
470.23	13172.54
470.41	13095.30
470.59	13245.09
470.77	13455.74
470.95	13415.95
471.14	13467.44
471.32	13263.82
471.50	13554.04
471.68	13633.62
471.86	13820.86
472.04	13818.52
472.22	14209.39
472.40	13532.98
472.58	13816.18
472.77	13909.80
472.95	14146.20
473.13	14553.45
473.31	14097.05
473.49	14066.62
473.67	14218.75
473.85	14183.65
474.03	14771.12
474.21	14656.43
474.39	14771.12
474.57	14740.69
474.75	14986.45
474.93	14986.45
475.12	14934.96
475.30	15096.46
475.48	15300.08
475.66	15269.66
475.84	15290.72
476.02	15632.44
476.20	15330.51
476.38	15461.58
476.56	15894.58
476.74	15974.16
476.92	16116.93
477.10	15543.50
477.28	15962.45
477.46	16540.57
477.64	16294.81
477.82	16507.80
478.00	16933.78
478.18	16662.27
478.36	16943.14
478.54	17289.54
478.72	17209.96
478.90	17467.42
479.08	17535.29
479.26	17603.17
479.44	17680.41
479.62	17975.31
479.80	18026.81
479.98	18256.18
480.16	18272.56
480.34	18462.15
480.52	18548.75
480.70	18410.65
480.88	18494.91
481.06	18689.18
481.24	18445.76
481.41	19126.86
481.59	19370.27
481.77	19662.84
481.95	19761.14
482.13	19562.20
482.31	19791.57
482.49	20191.80
482.67	20182.44
482.85	20046.69
483.03	20535.86
483.21	20896.30
483.39	20877.58
483.57	20795.66
483.74	21259.09
483.92	21635.91
484.10	21247.38
484.28	21907.41
484.46	21916.78
484.64	22324.03
484.82	21965.93
485.00	22539.36
485.18	22778.09
485.35	22857.67
485.53	22778.09
485.71	23026.19
485.89	23363.23
486.07	23431.10
486.25	23571.54
486.43	23669.84
486.61	23541.11
486.78	23908.57
486.96	23964.75
487.14	24311.14
487.32	24620.10
487.50	24975.86
487.68	24933.73
487.85	25287.15
488.03	25523.54
488.21	26015.05
488.39	25886.32
488.57	25940.16
488.75	25975.27
488.92	26419.97
489.10	26618.91
489.28	26647.00
489.46	27065.96
489.64	26986.38
489.81	27749.39
489.99	27742.37
490.17	27576.19
490.35	28140.26
490.53	28093.45
490.70	28285.37
490.88	28451.55
491.06	28870.51
491.24	29146.69
491.41	29144.35
491.59	29326.91
491.77	29221.59
491.95	29890.98
492.13	30239.72
492.30	29802.04
492.48	30003.33
492.66	30148.44
492.84	30244.40
493.01	30682.08
493.19	30742.94
493.37	31164.23
493.54	30913.80
493.72	31508.29
493.90	31665.11
494.08	31936.61
494.25	32023.21
494.43	31915.54
494.61	32451.53
494.79	32844.74
494.96	32690.26
495.14	32968.79
495.32	33390.08
495.49	33354.97
495.67	33195.82
495.85	33397.10
496.02	33589.03
496.20	33909.68
496.38	34153.10
496.55	33951.81
496.73	34689.08
496.91	34529.92
497.09	34902.07
497.26	35016.75
497.44	34965.26
497.62	35442.73
497.79	35929.56
497.97	35274.21
498.14	36151.91
498.32	36119.15
498.50	36278.30
498.67	36339.16
498.85	36596.62
499.03	36762.79
499.20	36598.96
499.38	37003.87
499.56	36800.24
499.73	36662.15
499.91	37464.96
500.08	38099.24
500.26	37455.59
500.44	37792.63
500.61	38220.95
500.79	38167.12
500.97	38110.94
501.14	38415.21
501.32	38424.57
501.49	38675.01
501.67	38967.58
501.84	38876.30
502.02	38876.30
502.20	39260.15
502.37	39239.08
502.55	39498.88
502.72	39454.41
502.90	39562.08
503.07	39283.55
503.25	39660.38
503.43	39639.31
503.60	39974.01
503.78	40315.73
503.95	40320.41
504.13	40732.34
504.30	40935.97
504.48	40456.16
504.65	40676.17
504.83	41172.36
505.01	41478.97
505.18	41532.81
505.36	41565.57
505.53	41347.90
505.71	41574.94
505.88	41750.48
506.06	41448.55
506.23	42279.44
506.41	41663.88
506.58	42354.33
506.76	41937.72
506.93	42546.26
507.11	42380.08
507.28	42328.59
507.46	42752.23
507.63	42890.32
507.81	42852.87
507.98	42927.77
508.16	42913.72
508.33	43370.13
508.50	43861.64
508.68	43665.03
508.85	44093.35
509.03	43456.73
509.20	44114.42
509.38	44531.03
509.55	44093.35
509.73	44458.48
509.90	44809.56
510.08	44790.83
510.25	44353.15
510.42	44935.95
510.60	45249.58
510.77	45008.50
510.95	45317.45
511.12	45247.24
511.30	45268.30
511.47	45619.38
511.64	45696.62
511.82	45914.29
511.99	45539.80
512.17	45818.33
512.34	45720.02
512.51	46511.13
512.69	46389.42
512.86	46300.48
513.04	46635.17
513.21	46658.58
513.38	46927.74
513.56	46960.51
513.73	46487.72
513.90	46724.11
514.08	46784.97
514.25	46948.81
514.43	47131.37
514.60	47428.62
514.77	47475.43
514.95	47501.17
515.12	47906.08
515.29	47601.82
515.47	48250.14
515.64	48266.53
515.81	48055.88
515.99	48109.71
516.16	48552.07
516.33	48486.54
516.51	48633.99
516.68	48222.06
516.85	48402.28
517.03	49123.16
517.20	48896.13
517.37	48898.47
517.54	48849.32
517.72	49022.52
517.89	48804.85
518.06	49008.48
518.24	49432.11
518.41	49006.14
518.58	49382.96
518.75	49090.40
518.93	49954.05
519.10	49413.39
519.27	49731.70
519.45	49684.89
519.62	50061.72
519.79	50195.13
519.96	50010.23
520.14	50190.45
520.31	50218.53
520.48	50174.06
520.65	50590.68
520.83	50801.33
521.00	50616.43
521.17	50508.76
521.34	50227.90
521.52	51063.47
521.69	51026.02
521.86	51199.22
522.03	51187.52
522.20	51461.36
522.38	51283.48
522.55	51629.88
522.72	51409.87
522.89	51622.86
523.07	51522.21
523.24	51334.97
523.41	51917.76
523.58	51517.53
523.75	51714.14
523.92	51969.26
524.10	51962.23
524.27	52392.89
524.44	52247.78
524.61	52037.13
524.78	52072.24
524.96	52357.78
525.13	52371.83
525.30	52596.52
525.47	52474.81
525.64	52495.88
525.81	52587.16
525.98	52809.51
526.16	52519.28
526.33	52736.95
526.50	53071.65
526.67	52711.20
526.84	53186.33
527.01	52900.79
527.18	52797.80
527.36	52973.34
527.53	53165.27
527.70	53338.47
527.87	53483.58
528.04	52910.15
528.21	53523.37
528.38	53478.90
528.55	53537.41
528.72	53347.83
528.89	53577.20
529.07	53214.42
529.24	53256.55
529.41	53764.45
529.58	53825.30
529.75	53701.25
529.92	53921.26
530.09	53808.92
530.26	54017.22
530.43	54057.01
530.60	53602.95
530.77	53844.02
530.94	54049.99
531.11	54157.66
531.28	54164.68
531.46	54162.34
531.63	54578.95
531.80	54106.16
531.97	54375.33
532.14	54312.13
532.31	54335.54
532.48	54768.54
532.65	54597.68
532.82	54419.80
532.99	54733.43
533.16	54431.50
533.33	54890.24
533.50	54958.12
533.67	54719.38
533.84	54445.54
534.01	55199.19
534.18	55037.70
534.35	55236.64
534.52	55077.49
534.69	55313.88
534.86	55299.84
535.03	55210.90
535.20	55337.29
535.37	55405.16
535.54	55433.25
535.71	55302.18
535.88	55267.07
536.05	55447.29
536.22	55704.75
536.38	55711.77
536.55	55756.24
536.72	55634.53
536.89	55746.88
537.06	55847.52
537.23	55805.39
537.40	55444.95
537.57	55824.12
537.74	55683.69
537.91	56060.51
538.08	56189.24
538.25	55770.28
538.42	55997.32
538.59	56210.31
538.75	55983.27
538.92	56086.26
539.09	56402.23
539.26	56144.77
539.43	56149.45
539.60	56587.13
539.77	56430.32
539.94	56238.39
540.11	56339.04
540.28	56397.55
540.44	56212.65
540.61	56369.46
540.78	56308.61
540.95	56432.66
541.12	56392.87
541.29	56537.98
541.46	56460.74
541.62	56474.79
541.79	56769.69
541.96	56362.44
542.13	56795.44
542.30	56657.35
542.47	57017.79
542.63	56982.68
542.80	56868.00
542.97	57097.37
543.14	57109.07
543.31	57179.29
543.48	57399.30
543.64	57301.00
543.81	57336.10
543.98	57181.63
544.15	57406.32
544.32	57605.26
544.48	57504.62
544.65	57364.19
544.82	57474.20
544.99	57293.97
545.16	57392.28
545.32	57446.11
545.49	57621.65
545.66	57673.14
545.83	57858.04
546.00	57666.12
546.16	57717.61
546.33	57708.25
546.50	57441.43
546.67	57661.44
546.83	57411.00
547.00	57736.34
547.17	57942.30
547.34	57939.96
547.50	57914.22
547.67	58234.87
547.84	58080.39
548.00	58014.86
548.17	58480.63
548.34	57996.13
548.51	58293.38
548.67	58094.44
548.84	58120.18
549.01	58040.60
549.18	58239.55
549.34	58330.83
549.51	58174.02
549.68	58342.53
549.84	58192.74
550.01	58609.35
550.18	58192.74
550.34	58511.05
550.51	58347.21
550.68	58436.16
550.84	58347.21
551.01	58618.72
551.18	58525.10
551.34	58595.31
551.51	58726.38
551.68	58459.56
551.84	58543.82
552.01	58314.45
552.18	58684.25
552.34	58628.08
552.51	58674.89
552.68	58695.95
552.84	58702.98
553.01	58930.01
553.18	58770.85
553.34	58752.13
553.51	58937.03
553.67	58752.13
553.84	59112.57
554.01	59091.51
554.17	59100.87
554.34	59030.65
554.51	59093.85
554.67	59032.99
554.84	58899.58
555.00	58859.79
555.17	59011.93
555.33	58986.18
555.50	58838.73
555.67	59077.46
555.83	59100.87
556.00	59238.96
556.16	59468.33
556.33	59168.74
556.50	59414.50
556.66	59353.65
556.83	59313.86
556.99	59484.72
557.16	59473.01
557.32	59381.73
557.49	59791.33
557.65	59360.67
557.82	59540.89
557.98	59363.01
558.15	59199.17
558.32	59304.49
558.48	59133.63
558.65	59437.90
558.81	59538.55
558.98	59540.89
559.14	59606.42
559.31	59667.28
559.47	59737.49
559.64	59798.35
559.80	59660.26
559.97	59517.48
560.13	59613.44
560.30	59826.43
560.46	59756.22
560.63	59758.56
560.79	59955.16
560.96	60039.42
561.12	59887.29
561.29	59796.01
561.45	59796.01
561.61	59798.35
561.78	59934.10
561.94	59697.70
562.11	59870.90
562.27	60128.36
562.44	59922.40
562.60	59987.93
562.77	60041.76
562.93	59849.84
563.10	60254.75
563.26	59997.29
563.42	60126.02
563.59	59917.71
563.75	60041.76
563.92	59849.84
564.08	60072.19
564.24	60245.39
564.41	60051.12
564.57	60214.96
564.74	60097.94
564.90	60151.77
565.07	60039.42
565.23	60018.36
565.39	60083.89
565.56	60128.36
565.72	60193.90
565.88	59985.59
566.05	60240.71
566.21	60264.11
566.38	60142.41
566.54	60451.36
566.70	60350.71
566.87	60299.22
567.03	60116.66
567.19	60491.15
567.36	60301.56
567.52	60341.35
567.68	60495.83
567.85	60399.86
568.01	60315.61
568.17	60353.05
568.34	60549.66
568.50	60294.54
568.66	60376.46
568.83	60444.33
568.99	60495.83
569.15	60502.85
569.32	60554.34
569.48	60552.00
569.64	60402.21
569.81	60746.26
569.97	60519.23
570.13	60425.61
570.30	60430.29
570.46	60547.32
570.62	60645.62
570.78	60514.55
570.95	60439.65
571.11	60610.51
571.27	60420.93
571.43	60535.62
571.60	60544.98
571.76	60591.79
571.92	60711.16
572.09	60552.00
572.25	60381.14
572.41	60610.51
572.57	60516.89
572.74	60788.39
572.90	60568.38
573.06	60680.73
573.22	60636.26
573.38	60650.30
573.55	60612.85
573.71	60865.63
573.87	60830.52
574.03	60552.00
574.20	60795.42
574.36	60692.43
574.52	60856.27
574.68	60830.52
574.84	60870.31
575.01	60760.31
575.17	60800.10
575.33	60491.15
575.49	60657.32
575.65	60786.05
575.82	60809.46
575.98	60828.18
576.14	60867.97
576.30	60849.25
576.46	60896.06
576.62	60612.85
576.79	60718.18
576.95	60783.71
577.11	60802.44
577.27	60956.91
577.43	60863.29
577.59	60671.37
577.75	60732.22
577.92	60715.84
578.08	60947.55
578.24	60811.80
578.40	60900.74
578.56	61038.83
578.72	60692.43
578.88	60949.89
579.04	61055.21
579.21	60956.91
579.37	61153.52
579.53	61013.08
579.69	60580.09
579.85	60797.76
580.01	60912.44
580.17	60760.31
580.33	60898.40
580.49	60921.80
580.65	61151.18
580.82	60718.18
580.98	60666.69
581.14	61052.87
581.30	61036.49
581.46	60914.78
581.62	61029.47
581.78	61024.79
581.94	60992.02
582.10	60985.00
582.26	60961.59
582.42	60912.44
582.58	60945.21
582.74	60797.76
582.90	61017.77
583.06	61209.69
583.22	60671.37
583.38	61029.47
583.54	60942.87
583.70	60952.23
583.86	61073.94
584.02	60893.72
584.18	60907.76
584.34	61013.08
584.50	61006.06
584.66	60772.01
584.82	60797.76
584.98	61183.94
585.14	60940.53
585.30	60893.72
585.46	61226.07
585.62	61052.87
585.78	61205.01
585.94	60882.02
586.10	60898.40
586.26	61078.62
586.42	61130.11
586.58	61085.64
586.74	61069.26
586.90	60992.02
587.06	61181.60
587.22	61036.49
587.38	61092.66
587.54	61165.22
587.70	61247.14
587.86	61127.77
588.02	61031.81
588.18	61144.16
588.34	61099.68
588.49	61111.39
