SpectraSuite Data File
++++++++++++++++++++++++++++++++++++
Date: Fri Oct 25 11:23:09 EDT 2013
User: price-jones
Dark Spectrum Present: No
Reference Spectrum Present: No
Number of Sampled Component Spectra: 1
Spectrometers: USB2+H05261
Integration Time (usec): 100000 (USB2+H05261)
Spectra Averaged: 1 (USB2+H05261)
Boxcar Smoothing: 0 (USB2+H05261)
Correct for Electrical Dark: No (USB2+H05261)
Strobe/Lamp Enabled: No (USB2+H05261)
Correct for Detector Non-linearity: No (USB2+H05261)
Correct for Stray Light: No (USB2+H05261)
Number of Pixels in Processed Spectrum: 2048
>>>>>Begin Processed Spectral Data<<<<<
365.73	220.01
365.92	220.01
366.12	220.01
366.32	208.31
366.52	102.98
366.72	121.71
366.91	161.50
367.11	196.60
367.31	124.05
367.51	91.28
367.70	100.64
367.90	182.56
368.10	142.77
368.30	114.69
368.49	224.69
368.69	177.88
368.89	98.30
369.09	131.07
369.28	110.01
369.48	196.60
369.68	205.97
369.87	212.99
370.07	119.37
370.27	220.01
370.47	337.04
370.66	573.43
370.86	526.62
371.06	596.84
371.25	650.67
371.45	601.52
371.65	690.46
371.84	692.80
372.04	671.73
372.24	638.97
372.44	702.16
372.63	772.38
372.83	709.18
373.03	786.42
373.22	786.42
373.42	807.48
373.62	800.46
373.81	847.27
374.01	751.31
374.21	744.29
374.40	849.61
374.60	805.14
374.79	777.06
374.99	866.00
375.19	873.02
375.38	858.98
375.58	889.40
375.78	788.76
375.97	866.00
376.17	938.55
376.37	819.19
376.56	938.55
376.76	919.83
376.95	767.70
377.15	826.21
377.35	884.72
377.54	976.00
377.74	978.34
377.93	910.47
378.13	950.26
378.33	894.08
378.52	966.64
378.72	929.19
378.91	887.06
379.11	926.85
379.31	943.24
379.50	1034.52
379.70	978.34
379.89	1013.45
380.09	992.39
380.28	938.55
380.48	1004.09
380.68	905.79
380.87	1025.15
381.07	1041.54
381.26	1095.37
381.46	1011.11
381.65	1039.20
381.85	1090.69
382.04	1043.88
382.24	1086.01
382.43	997.07
382.63	1057.92
382.83	1071.97
383.02	1088.35
383.22	1114.10
383.41	1116.44
383.61	1064.94
383.80	1146.86
384.00	1151.54
384.19	1086.01
384.39	1114.10
384.58	1090.69
384.78	1191.33
384.97	1151.54
385.17	1097.71
385.36	1121.12
385.56	1121.12
385.75	1200.69
385.95	1205.38
386.14	1252.19
386.34	1221.76
386.53	1261.55
386.72	1205.38
386.92	1224.10
387.11	1247.51
387.31	1355.17
387.50	1261.55
387.70	1254.53
387.89	1212.40
388.09	1310.70
388.28	1266.23
388.48	1355.17
388.67	1387.94
388.86	1373.89
389.06	1322.40
389.25	1329.42
389.45	1341.13
389.64	1320.06
389.84	1369.21
390.03	1416.02
390.22	1413.68
390.42	1387.94
390.61	1406.66
390.81	1430.07
391.00	1472.20
391.19	1509.65
391.39	1409.00
391.58	1516.67
391.78	1507.30
391.97	1418.36
392.16	1511.99
392.36	1511.99
392.55	1540.07
392.75	1493.26
392.94	1549.43
393.13	1533.05
393.33	1427.73
393.52	1511.99
393.71	1551.78
393.91	1624.33
394.10	1603.27
394.29	1678.16
394.49	1582.20
394.68	1689.87
394.88	1551.78
395.07	1720.29
395.26	1727.32
395.46	1600.93
395.65	1654.76
395.84	1750.72
396.04	1757.74
396.23	1795.19
396.42	1757.74
396.62	1785.83
396.81	1781.15
397.00	1816.26
397.19	1799.87
397.39	1799.87
397.58	1926.26
397.77	1886.47
397.97	1863.07
398.16	1792.85
398.35	1926.26
398.55	1809.23
398.74	1935.62
398.93	1998.82
399.12	1942.64
399.32	1961.37
399.51	1839.66
399.70	1970.73
399.90	1982.43
400.09	2029.24
400.28	2019.88
400.47	1963.71
400.67	2054.99
400.86	2054.99
401.05	2097.12
401.24	2129.89
401.44	2120.53
401.63	2129.89
401.82	2211.81
402.01	2129.89
402.21	2197.76
402.40	2207.13
402.59	2162.66
402.78	2263.30
402.97	2188.40
403.17	2202.44
403.36	2324.15
403.55	2410.75
403.74	2312.45
403.93	2408.41
404.13	2422.45
404.32	2478.63
404.51	2443.52
404.70	2441.18
404.89	2328.83
405.09	2497.35
405.28	2464.58
405.47	2530.12
405.66	2534.80
405.85	2513.74
406.05	2553.52
406.24	2595.65
406.43	2499.69
406.62	2654.17
406.81	2768.85
407.00	2605.02
407.20	2630.76
407.39	2647.15
407.58	2726.72
407.77	2768.85
407.96	2752.47
408.15	2750.13
408.34	2771.19
408.54	2848.43
408.73	2850.77
408.92	2911.63
409.11	2920.99
409.30	2843.75
409.49	2794.60
409.68	2892.90
409.87	2984.18
410.07	2939.71
410.26	3033.33
410.45	3023.97
410.64	3047.38
410.83	3152.70
411.02	3126.96
411.21	3206.53
411.40	3192.49
411.59	3190.15
411.78	3258.03
411.98	3358.67
412.17	3356.33
412.36	3473.36
412.55	3452.29
412.74	3503.78
412.93	3405.48
413.12	3314.20
413.31	3611.45
413.50	3421.86
413.69	3735.50
413.88	3747.20
414.07	3529.53
414.26	3613.79
414.45	3742.52
414.64	3768.26
414.83	3878.27
415.02	3815.07
415.22	4004.66
415.41	3864.22
415.60	3887.63
415.79	3845.50
415.98	4058.49
416.17	3946.14
416.36	4037.42
416.55	4093.60
416.74	4093.60
416.93	4016.36
417.12	4145.09
417.31	4264.46
417.50	4184.88
417.69	4269.14
417.88	4297.22
418.07	4344.03
418.26	4229.35
418.45	4325.31
418.64	4585.11
418.83	4369.78
419.02	4561.70
419.21	4592.13
419.39	4432.97
419.58	4571.07
419.77	4477.44
419.96	4564.04
420.15	4608.51
420.34	4648.30
420.53	4727.88
420.72	4737.24
420.91	4713.84
421.10	4765.33
421.29	4720.86
421.48	4620.22
421.67	4643.62
421.86	4842.57
422.05	4723.20
422.24	4959.60
422.43	4933.85
422.61	4807.46
422.80	5060.24
422.99	4823.84
423.18	5060.24
423.37	5139.82
423.56	5001.72
423.75	4966.62
423.94	4938.53
424.13	4624.90
424.32	4784.06
424.50	5158.54
424.69	5097.69
424.88	5181.95
425.07	4992.36
425.26	5043.85
425.45	5076.62
425.64	5062.58
425.83	5008.75
426.01	4980.66
426.20	5153.86
426.39	5018.11
426.58	5060.24
426.77	5027.47
426.96	5163.22
427.15	5210.03
427.33	5174.92
427.52	5167.90
427.71	5221.74
427.90	5188.97
428.09	5357.49
428.28	5355.15
428.46	5359.83
428.65	5500.26
428.84	5636.01
429.03	5633.67
429.22	5605.58
429.40	5596.22
429.59	5659.42
429.78	5252.16
429.97	5427.70
430.16	5526.00
430.34	5729.63
430.53	5832.62
430.72	5774.10
430.91	5795.17
431.10	5628.99
431.28	5863.04
431.47	5930.92
431.66	5935.60
431.85	5839.64
432.03	5891.13
432.22	6183.70
432.41	5916.87
432.60	5963.68
432.79	6019.86
432.97	6122.84
433.16	5949.64
433.35	6167.31
433.54	6164.97
433.72	6153.27
433.91	6092.41
434.10	6134.54
434.28	6085.39
434.47	6232.85
434.66	6251.57
434.85	6370.94
435.03	6270.30
435.22	6317.11
435.41	6698.61
435.59	6520.73
435.78	6506.69
435.97	6546.48
436.16	6431.79
436.34	6588.61
436.53	6537.12
436.72	6768.83
436.90	6494.99
437.09	6829.68
437.28	6623.72
437.46	6551.16
437.65	6619.04
437.84	6761.81
438.02	6686.91
438.21	6834.36
438.40	6654.14
438.58	7117.57
438.77	7059.06
438.96	7016.93
439.14	7199.49
439.33	7290.77
439.52	7325.88
439.70	7295.45
439.89	7466.31
440.08	7302.47
440.26	7606.74
440.45	7506.10
440.63	7613.76
440.82	7616.10
441.01	7606.74
441.19	7691.00
441.38	7866.54
441.57	7815.05
441.75	7892.29
441.94	8102.93
442.12	8063.15
442.31	8060.80
442.50	7990.59
442.68	8187.19
442.87	7915.69
443.05	8039.74
443.24	8306.56
443.43	8184.85
443.61	8367.42
443.80	8676.37
443.98	8116.98
444.17	8006.97
444.35	8395.50
444.54	8299.54
444.73	8421.25
444.91	8615.51
445.10	8353.37
445.28	8559.34
445.47	8339.33
445.65	8627.21
445.84	8655.30
446.02	8657.64
446.21	8535.93
446.39	8383.80
446.58	8835.52
446.77	8425.93
446.95	8266.77
447.14	8290.18
447.32	8631.90
447.51	8402.52
447.69	8470.40
447.88	8524.23
448.06	8505.51
448.25	8503.17
448.43	8697.43
448.62	8678.71
448.80	8627.21
448.99	8652.96
449.17	8685.73
449.36	8643.60
449.54	9156.18
449.73	9071.92
449.91	9139.79
450.10	9043.83
450.28	9312.99
450.46	9348.10
450.65	9088.30
450.83	9219.37
451.02	9247.46
451.20	9291.93
451.39	9359.80
451.57	9165.54
451.76	9371.50
451.94	9235.75
452.13	9528.32
452.31	9535.34
452.49	9064.89
452.68	9315.33
452.86	9521.30
453.05	9502.58
453.23	9696.84
453.42	9350.44
453.60	9488.53
453.78	9736.63
453.97	9240.44
454.15	9415.98
454.34	9619.60
454.52	10111.11
454.70	9717.90
454.89	9745.99
455.07	9830.25
455.26	9958.98
455.44	9954.30
455.62	10076.01
455.81	10181.33
455.99	10307.72
456.17	10113.45
456.36	10204.74
456.54	10186.01
456.73	10317.08
456.91	10548.79
457.09	10604.97
457.28	10766.46
457.46	10534.75
457.64	10759.44
457.83	10670.50
458.01	10408.36
458.19	10754.76
458.38	10764.12
458.56	10991.16
458.74	10986.47
458.93	10602.63
459.11	10995.84
459.29	10958.39
459.48	11009.88
459.66	10913.92
459.84	11213.51
460.03	11236.91
460.21	11180.74
460.39	11171.38
460.57	11197.12
460.76	11119.89
460.94	11206.48
461.12	11375.00
461.31	11283.72
461.49	11033.29
461.67	11332.87
461.85	11690.98
462.04	11449.90
462.22	11735.45
462.40	11592.67
462.59	11534.16
462.77	11365.64
462.95	11765.87
463.13	11592.67
463.32	11702.68
463.50	11817.36
463.68	11936.73
463.86	11793.96
464.05	11688.64
464.23	11929.71
464.41	12044.40
464.59	11824.39
464.78	12074.82
464.96	12100.57
465.14	12205.89
465.32	12058.44
465.50	12161.42
465.69	12397.82
465.87	12243.34
466.05	12407.18
466.23	12343.99
466.41	12271.43
466.60	12425.90
466.78	12498.46
466.96	12418.88
467.14	12510.16
467.32	12458.67
467.51	12587.40
467.69	12437.61
467.87	12453.99
468.05	12725.49
468.23	12657.62
468.41	12549.95
468.60	12910.40
468.78	12856.56
468.96	12638.89
469.14	12807.41
469.32	13282.54
469.50	12798.05
469.69	13055.51
469.87	13107.00
470.05	13109.34
470.23	13352.76
470.41	13207.64
470.59	13437.02
470.77	13369.14
470.95	13364.46
471.14	13619.58
471.32	13572.77
471.50	13724.90
471.68	13919.17
471.86	13860.65
472.04	13706.18
472.22	14047.90
472.40	13806.82
472.58	13802.14
472.77	14214.07
472.95	14569.83
473.13	14874.10
473.31	14319.40
473.49	14354.51
473.67	14281.95
473.85	14366.21
474.03	14934.96
474.21	14993.47
474.39	14677.50
474.57	14916.23
474.75	15206.46
474.93	15147.95
475.12	15059.01
475.30	15403.07
475.48	15398.38
475.66	15466.26
475.84	15332.85
476.02	15580.95
476.20	15655.84
476.38	15887.56
476.56	15925.00
476.74	15992.88
476.92	16058.42
477.10	15927.35
477.28	16482.05
477.46	16634.19
477.64	16631.85
477.82	16982.93
478.00	17088.25
478.18	16919.73
478.36	17224.00
478.54	17418.27
478.72	17429.97
478.90	17607.85
479.08	17743.60
479.26	18097.02
479.44	17844.24
479.62	18015.10
479.80	18050.21
479.98	18256.18
480.16	18803.86
480.34	18504.28
480.52	18888.12
480.70	18789.82
480.88	18857.70
481.06	18764.07
481.24	19192.39
481.41	19496.66
481.59	19639.44
481.77	19623.05
481.95	20173.08
482.13	19838.38
482.31	20156.69
482.49	20507.77
482.67	20493.73
482.85	20802.68
483.03	20807.36
483.21	21123.33
483.39	21345.69
483.57	21036.74
483.74	21479.10
483.92	21638.25
484.10	21675.70
484.28	22099.34
484.46	22455.10
484.64	22511.27
484.82	22288.92
485.00	22480.85
485.18	23005.13
485.35	23063.64
485.53	22752.35
485.71	23433.44
485.89	23791.55
486.07	23803.25
486.25	23646.43
486.43	23632.39
486.61	23894.53
486.78	24397.74
486.96	24470.30
487.14	24964.15
487.32	24835.42
487.50	25050.75
487.68	25247.36
487.85	25495.46
488.03	25633.55
488.21	25933.14
488.39	26047.82
488.57	26452.73
488.75	26911.48
488.92	26941.91
489.10	27335.12
489.28	27091.70
489.46	27424.06
489.64	27494.27
489.81	27735.35
489.99	27997.49
490.17	28369.63
490.35	28568.58
490.53	28477.30
490.70	29174.78
490.88	28788.59
491.06	29212.23
491.24	28978.17
491.41	29530.54
491.59	29600.76
491.77	29802.04
491.95	29855.87
492.13	30110.99
492.30	30419.94
492.48	30043.12
492.66	30522.93
492.84	30642.29
493.01	31054.23
493.19	31358.50
493.37	31435.74
493.54	31391.26
493.72	31747.03
493.90	31765.75
494.08	31594.89
494.25	32315.78
494.43	32416.42
494.61	32793.25
494.79	32910.27
494.96	32603.66
495.14	33481.36
495.32	33469.66
495.49	33525.83
495.67	33560.94
495.85	33589.03
496.02	34513.54
496.20	34417.58
496.38	34265.44
496.55	34345.02
496.73	35075.27
496.91	34490.13
497.09	35412.31
497.26	35295.28
497.44	35110.38
497.62	35321.02
497.79	35920.20
497.97	36046.59
498.14	36477.25
498.32	36437.46
498.50	36730.03
498.67	37060.04
498.85	37127.92
499.03	37083.45
499.20	37116.22
499.38	37141.96
499.56	37364.31
499.73	37811.35
499.91	37596.03
500.08	38120.31
500.26	38096.90
500.44	38230.31
500.61	37979.87
500.79	38267.76
500.97	38157.75
501.14	38983.96
501.32	38939.49
501.49	38394.15
501.67	39398.24
501.84	39807.83
502.02	38918.43
502.20	39297.59
502.37	39482.50
502.55	39992.73
502.72	39690.80
502.90	39814.85
503.07	40194.02
503.25	40299.34
503.43	39782.09
503.60	40137.85
503.78	40521.69
503.95	40800.22
504.13	40800.22
504.30	40739.36
504.48	40861.07
504.65	41645.15
504.83	40957.03
505.01	41811.33
505.18	42146.03
505.36	41895.59
505.53	41539.83
505.71	41977.51
505.88	42246.67
506.06	41670.90
506.23	42396.46
506.41	42632.86
506.58	42878.61
506.76	42272.42
506.93	42925.42
507.11	43131.39
507.28	43143.09
507.46	42756.91
507.63	43377.15
507.81	43791.42
507.98	43536.30
508.16	43351.40
508.33	43796.10
508.50	44025.48
508.68	44074.63
508.85	44318.04
509.03	44158.89
509.20	44582.52
509.38	44399.96
509.55	44491.24
509.73	45371.28
509.90	45020.20
510.08	44776.79
510.25	45155.96
510.42	44926.58
510.60	45511.72
510.77	45647.47
510.95	46174.09
511.12	45511.72
511.30	45649.81
511.47	45771.52
511.64	45855.78
511.82	46583.68
511.99	45853.44
512.17	46419.84
512.34	46057.06
512.51	46852.84
512.69	46918.38
512.86	46810.71
513.04	47154.77
513.21	47040.09
513.38	47236.69
513.56	47124.35
513.73	47168.82
513.90	47402.87
514.08	47136.05
514.25	47845.23
514.43	47728.20
514.60	47730.54
514.77	47526.92
514.95	47934.17
515.12	47861.61
515.29	48053.54
515.47	48334.40
515.64	48648.03
515.81	48322.70
515.99	48758.04
516.16	48751.02
516.33	48612.93
516.51	48846.98
516.68	48921.88
516.85	49017.84
517.03	49099.76
517.20	49631.06
517.37	49181.68
517.54	49134.87
517.72	49605.31
517.89	49378.28
518.06	49570.21
518.24	49670.85
518.41	49635.74
518.58	49822.98
518.75	49783.19
518.93	49970.44
519.10	49965.76
519.27	50232.58
519.45	50258.32
519.62	50686.64
519.79	50440.89
519.96	50452.59
520.14	50607.06
520.31	50487.70
520.48	50623.45
520.65	51023.68
520.83	51175.81
521.00	51007.29
521.17	50822.39
521.34	51222.62
521.52	51166.45
521.69	51206.24
521.86	51091.55
522.03	51189.86
522.20	51814.78
522.38	51688.39
522.55	51714.14
522.72	51758.61
522.89	51889.68
523.07	51952.87
523.24	52013.73
523.41	51861.59
523.58	51847.55
523.75	52463.11
523.92	52137.77
524.10	52322.68
524.27	52341.40
524.44	52357.78
524.61	52640.99
524.78	52554.39
524.96	52758.02
525.13	52449.06
525.30	52680.78
525.47	52760.36
525.64	52758.02
525.81	52776.74
525.98	53305.70
526.16	53153.57
526.33	53102.07
526.50	53200.38
526.67	53279.96
526.84	53228.46
527.01	52963.98
527.18	53073.99
527.36	53352.51
527.53	53345.49
527.70	53544.44
527.87	53759.76
528.04	53165.27
528.21	53790.19
528.38	53570.18
528.55	53853.39
528.72	53553.80
528.89	53741.04
529.07	53439.11
529.24	53694.23
529.41	54129.57
529.58	53965.73
529.75	53911.90
529.92	53872.11
530.09	54176.38
530.26	54227.87
530.43	54403.41
530.60	54365.96
530.77	54370.64
530.94	54468.95
531.11	54363.62
531.28	54564.91
531.46	54532.14
531.63	54831.73
531.80	54529.80
531.97	54632.78
532.14	54457.24
532.31	54838.75
532.48	54616.40
532.65	54873.86
532.82	54656.19
532.99	55004.93
533.16	55047.06
533.33	55110.25
533.50	55077.49
533.67	55042.38
533.84	54770.88
534.01	55140.68
534.18	55379.42
534.35	55402.82
534.52	55288.13
534.69	55477.72
534.86	55604.11
535.03	55409.84
535.20	55519.85
535.37	55718.79
535.54	56074.55
535.71	55620.49
535.88	55805.39
536.05	55629.85
536.22	55875.61
536.38	55931.78
536.55	56072.21
536.72	55990.30
536.89	55861.57
537.06	56081.58
537.23	56186.90
537.40	55983.27
537.57	56268.82
537.74	55978.59
537.91	56163.50
538.08	56231.37
538.25	55931.78
538.42	56119.02
538.59	56549.68
538.75	56299.25
538.92	56250.09
539.09	56699.48
539.26	56575.43
539.43	56259.46
539.60	56456.06
539.77	56484.15
539.94	56774.37
540.11	56797.78
540.28	56884.38
540.44	56786.08
540.61	56662.03
540.78	56608.20
540.95	56694.80
541.12	56570.75
541.29	56722.88
541.46	57076.30
541.62	57069.28
541.79	56954.60
541.96	56617.56
542.13	56765.01
542.30	56884.38
542.47	56942.89
542.63	57205.03
542.80	57155.88
542.97	57272.91
543.14	57544.41
543.31	57521.01
543.48	57539.73
543.64	57481.22
543.81	57572.50
543.98	57478.88
544.15	57642.71
544.32	57741.02
544.48	57820.59
544.65	57780.81
544.82	57766.76
544.99	57666.12
545.16	57808.89
545.32	57736.34
545.49	57813.57
545.66	57923.58
545.83	57872.09
546.00	58012.52
546.16	57867.40
546.33	57865.06
546.50	57848.68
546.67	57893.15
546.83	57733.99
547.00	58110.82
547.17	58045.29
547.34	57956.35
547.50	58181.04
547.67	58501.69
547.84	58316.79
548.00	58230.19
548.17	58644.46
548.34	58131.89
548.51	58443.18
548.67	58419.77
548.84	58351.90
549.01	58375.30
549.18	58489.99
549.34	58253.59
549.51	58695.95
549.68	58553.18
549.84	58546.16
550.01	58777.87
550.18	58520.41
550.34	58831.71
550.51	58859.79
550.68	58588.29
550.84	58506.37
551.01	58710.00
551.18	58623.40
551.34	58831.71
551.51	58913.62
551.68	58726.38
551.84	59014.27
552.01	58665.53
552.18	58960.44
552.34	58801.28
552.51	58979.16
552.68	58873.84
552.84	58777.87
553.01	59206.19
553.18	58892.56
553.34	59224.92
553.51	59068.10
553.67	59145.34
553.84	59360.67
554.01	59110.23
554.17	59203.85
554.34	59002.56
554.51	59255.34
554.67	59175.76
554.84	59143.00
555.00	59316.20
555.17	59065.76
555.33	59189.81
555.50	59250.66
555.67	59231.94
555.83	59234.28
556.00	59236.62
556.16	59561.95
556.33	59547.91
556.50	59428.54
556.66	59447.27
556.83	59400.46
556.99	59566.63
557.16	59777.28
557.32	59852.18
557.49	59866.22
557.65	59700.04
557.82	59503.44
557.98	59498.76
558.15	59674.30
558.32	59753.88
558.48	59597.06
558.65	59707.07
558.81	59540.89
558.98	59700.04
559.14	59931.76
559.31	59985.59
559.47	59824.09
559.64	59952.82
559.80	60009.00
559.97	59814.73
560.13	59964.52
560.30	59943.46
560.46	60207.94
560.63	59922.40
560.79	60067.51
560.96	60111.98
561.12	60104.96
561.29	60158.79
561.45	60030.06
561.61	60072.19
561.78	60069.85
561.94	60020.70
562.11	60231.35
562.27	60217.30
562.44	60074.53
562.60	60221.98
562.77	60357.74
562.93	60058.15
563.10	60353.05
563.26	60025.38
563.42	60434.97
563.59	60168.15
563.75	60226.66
563.92	60168.15
564.08	60308.58
564.24	60458.38
564.41	60285.18
564.57	60388.16
564.74	60500.51
564.90	60444.33
565.07	60198.58
565.23	60257.09
565.39	60406.89
565.56	60376.46
565.72	60383.48
565.88	60580.09
566.05	60385.82
566.21	60512.21
566.38	60633.92
566.54	60523.91
566.70	60453.70
566.87	60547.32
567.03	60477.10
567.19	60743.92
567.36	60715.84
567.52	60439.65
567.68	60753.29
567.85	60734.56
568.01	60685.41
568.17	60374.12
568.34	60591.79
568.50	60434.97
568.66	60580.09
568.83	60591.79
568.99	60690.09
569.15	60559.02
569.32	60669.03
569.48	60734.56
569.64	60977.98
569.81	60736.90
569.97	60451.36
570.13	60727.54
570.30	60673.71
570.46	60664.35
570.62	60636.26
570.78	60762.65
570.95	60790.73
571.11	60893.72
571.27	60811.80
571.43	60865.63
571.60	60973.30
571.76	60753.29
571.92	60762.65
572.09	60893.72
572.25	60816.48
572.41	60903.08
572.57	60903.08
572.74	61097.34
572.90	60896.06
573.06	60863.29
573.22	60891.38
573.38	60992.02
573.55	60924.14
573.71	61095.00
573.87	60872.65
574.03	60802.44
574.20	60853.93
574.36	60804.78
574.52	60856.27
574.68	60825.84
574.84	61200.33
575.01	61015.43
575.17	60699.45
575.33	60882.02
575.49	60788.39
575.65	61076.28
575.82	61242.46
575.98	61087.98
576.14	61162.88
576.30	61109.05
576.46	60743.92
576.62	60905.42
576.79	60860.95
576.95	61034.15
577.11	60996.70
577.27	61087.98
577.43	60931.17
577.59	60907.76
577.75	61071.60
577.92	61059.90
578.08	61057.56
578.24	61123.09
578.40	61279.91
578.56	61160.54
578.72	60924.14
578.88	61263.52
579.04	61467.15
579.21	61251.82
579.37	61188.63
579.53	61207.35
579.69	60926.49
579.85	61169.90
580.01	61080.96
580.17	61134.79
580.33	61123.09
580.49	61230.75
580.65	61125.43
580.82	61080.96
580.98	61104.37
581.14	60952.23
581.30	61366.51
581.46	61080.96
581.62	61125.43
581.78	61286.93
581.94	61139.47
582.10	61071.60
582.26	61111.39
582.42	61090.32
582.58	61268.20
582.74	61048.19
582.90	61329.06
583.06	61247.14
583.22	61029.47
583.38	61254.16
583.54	61293.95
583.70	61160.54
583.86	61176.92
584.02	61078.62
584.18	61441.40
584.34	61406.30
584.50	61251.82
584.66	61176.92
584.82	61195.65
584.98	61338.42
585.14	61216.71
585.30	61176.92
585.46	61160.54
585.62	61396.93
585.78	61354.80
585.94	61041.17
586.10	61455.45
586.26	61291.61
586.42	61282.25
586.58	61240.12
586.74	61408.64
586.90	61324.38
587.06	61242.46
587.22	61528.00
587.38	61300.97
587.54	61539.71
587.70	61460.13
587.86	61399.27
588.02	61450.77
588.18	61530.34
588.34	61286.93
