SpectraSuite Data File
++++++++++++++++++++++++++++++++++++
Date: Fri Oct 25 10:48:22 EDT 2013
User: price-jones
Dark Spectrum Present: No
Reference Spectrum Present: No
Number of Sampled Component Spectra: 1
Spectrometers: USB2+H05261
Integration Time (usec): 100000 (USB2+H05261)
Spectra Averaged: 1 (USB2+H05261)
Boxcar Smoothing: 0 (USB2+H05261)
Correct for Electrical Dark: No (USB2+H05261)
Strobe/Lamp Enabled: No (USB2+H05261)
Correct for Detector Non-linearity: No (USB2+H05261)
Correct for Stray Light: No (USB2+H05261)
Number of Pixels in Processed Spectrum: 2048
>>>>>Begin Processed Spectral Data<<<<<
365.73	131.07
365.92	131.07
366.12	131.07
366.32	39.79
366.52	70.22
366.72	49.15
366.91	56.17
367.11	0.00
367.31	0.00
367.51	9.36
367.70	9.36
367.90	14.04
368.10	81.92
368.30	9.36
368.49	46.81
368.69	51.49
368.89	25.75
369.09	93.62
369.28	133.41
369.48	95.96
369.68	49.15
369.87	124.05
370.07	138.09
370.27	121.71
370.47	212.99
370.66	386.19
370.86	472.79
371.06	521.94
371.25	503.22
371.45	435.34
371.65	482.15
371.84	442.36
372.04	465.77
372.24	519.60
372.44	517.26
372.63	472.79
372.83	566.41
373.03	512.58
373.22	550.03
373.42	545.34
373.62	554.71
373.81	573.43
374.01	566.41
374.21	603.86
374.40	636.63
374.60	594.50
374.79	657.69
374.99	535.98
375.19	578.11
375.38	634.29
375.58	580.45
375.78	641.31
375.97	648.33
376.17	664.71
376.37	566.41
376.56	653.01
376.76	615.56
376.95	606.20
377.15	718.54
377.35	711.52
377.54	739.61
377.74	662.37
377.93	622.58
378.13	692.80
378.33	683.44
378.52	699.82
378.72	718.54
378.91	737.27
379.11	688.12
379.31	692.80
379.50	690.46
379.70	788.76
379.89	791.10
380.09	667.05
380.28	636.63
380.48	702.16
380.68	662.37
380.87	800.46
381.07	688.12
381.26	746.63
381.46	755.99
381.65	753.65
381.85	741.95
382.04	781.74
382.24	699.82
382.43	695.14
382.63	732.59
382.83	713.86
383.02	727.91
383.22	774.72
383.41	720.88
383.61	758.33
383.80	807.48
384.00	807.48
384.19	814.51
384.39	716.20
384.58	875.36
384.78	837.91
384.97	835.57
385.17	732.59
385.36	774.72
385.56	765.36
385.75	840.25
385.95	866.00
386.14	840.25
386.34	835.57
386.53	793.44
386.72	842.59
386.92	870.68
387.11	896.43
387.31	961.96
387.50	887.06
387.70	910.47
387.89	889.40
388.09	903.45
388.28	940.90
388.48	945.58
388.67	917.49
388.86	978.34
389.06	997.07
389.25	950.26
389.45	908.13
389.64	959.62
389.84	1078.99
390.03	1015.79
390.22	971.32
390.42	983.02
390.61	971.32
390.81	1076.65
391.00	1046.22
391.19	1053.24
391.39	1078.99
391.58	1013.45
391.78	1001.75
391.97	1144.52
392.16	1095.37
392.36	1123.46
392.55	931.53
392.75	1025.15
392.94	1011.11
393.13	1011.11
393.33	1060.26
393.52	1076.65
393.71	1125.80
393.91	1128.14
394.10	1067.28
394.29	1121.12
394.49	1205.38
394.68	1149.20
394.88	1306.02
395.07	1308.36
395.26	1240.48
395.46	1275.59
395.65	1296.66
395.84	1242.82
396.04	1385.60
396.23	1212.40
396.42	1186.65
396.62	1130.48
396.81	1219.42
397.00	1259.21
397.19	1256.87
397.39	1369.21
397.58	1362.19
397.77	1369.21
397.97	1514.33
398.16	1446.45
398.35	1488.58
398.55	1600.93
398.74	1554.12
398.93	1547.09
399.12	1589.22
399.32	1469.86
399.51	1617.31
399.70	1633.69
399.90	1603.27
400.09	1610.29
400.28	1624.33
400.47	1547.09
400.67	1584.54
400.86	1570.50
401.05	1638.38
401.24	1769.44
401.44	1734.34
401.63	1753.06
401.82	1713.27
402.01	1844.34
402.21	1722.63
402.40	1799.87
402.59	1736.68
402.78	1699.23
402.97	1839.66
403.17	1830.30
403.36	1811.57
403.55	1867.75
403.74	1902.86
403.93	1842.00
404.13	1893.49
404.32	1968.39
404.51	1849.02
404.70	1914.56
404.89	1785.83
405.09	1989.46
405.28	1940.30
405.47	2045.63
405.66	1926.26
405.85	1940.30
406.05	2064.35
406.24	1970.73
406.43	2010.52
406.62	2085.42
406.81	2155.63
407.00	2066.69
407.20	2003.50
407.39	2127.55
407.58	2099.46
407.77	2083.08
407.96	2242.23
408.15	2223.51
408.34	2282.02
408.54	2349.90
408.73	2291.38
408.92	2277.34
409.11	2293.72
409.30	2347.56
409.49	2256.28
409.68	2291.38
409.87	2340.54
410.07	2525.44
410.26	2420.11
410.45	2338.20
410.64	2459.90
410.83	2513.74
411.02	2464.58
411.21	2619.06
411.40	2581.61
411.59	2649.49
411.78	2569.91
411.98	2619.06
412.17	2605.02
412.36	2752.47
412.55	2534.80
412.74	2726.72
412.93	2738.43
413.12	2825.03
413.31	2836.73
413.50	2871.84
413.69	2843.75
413.88	2944.39
414.07	2899.92
414.26	2967.80
414.45	3098.87
414.64	3082.49
414.83	3021.63
415.02	3059.08
415.22	3197.17
415.41	3206.53
415.60	3199.51
415.79	3091.85
415.98	3197.17
416.17	3164.40
416.36	3339.94
416.55	3108.23
416.74	3204.19
416.93	3098.87
417.12	3328.24
417.31	3356.33
417.50	3356.33
417.69	3461.65
417.88	3494.42
418.07	3435.91
418.26	3370.37
418.45	3489.74
418.64	3569.32
418.83	3700.39
419.02	3571.66
419.21	3508.46
419.39	3623.15
419.58	3620.81
419.77	3606.77
419.96	3688.68
420.15	3784.65
420.34	3613.79
420.53	3754.22
420.72	3892.31
420.91	3744.86
421.10	3740.18
421.29	3913.38
421.48	3810.39
421.67	3894.65
421.86	3698.05
422.05	3913.38
422.24	3794.01
422.43	3880.61
422.61	3918.06
422.80	3859.54
422.99	4095.94
423.18	4145.09
423.37	4056.15
423.56	3929.76
423.75	3889.97
423.94	3854.86
424.13	3758.90
424.32	3857.20
424.50	3997.64
424.69	4042.11
424.88	4053.81
425.07	3995.29
425.26	3948.48
425.45	3922.74
425.64	4021.04
425.83	3798.69
426.01	4180.20
426.20	3969.55
426.39	4088.92
426.58	4067.85
426.77	3960.19
426.96	3983.59
427.15	4046.79
427.33	4042.11
427.52	4187.22
427.71	4304.25
427.90	4219.99
428.09	4007.00
428.28	4184.88
428.46	4037.42
428.65	4180.20
428.84	4259.78
429.03	4250.41
429.22	4095.94
429.40	4138.07
429.59	4250.41
429.78	3981.25
429.97	4133.39
430.16	4154.45
430.34	4112.32
430.53	4184.88
430.72	4245.73
430.91	4236.37
431.10	4500.85
431.28	4559.36
431.47	4720.86
431.66	4793.42
431.85	4491.49
432.03	4498.51
432.22	4643.62
432.41	4585.11
432.60	4798.10
432.79	4615.54
432.97	4791.08
433.16	4760.65
433.35	4781.71
433.54	4683.41
433.72	4786.40
433.91	4741.93
434.10	4882.36
434.28	4823.84
434.47	4973.64
434.66	5050.88
434.85	5001.72
435.03	5081.30
435.22	5032.15
435.41	4950.23
435.59	5022.79
435.78	5142.16
435.97	5308.34
436.16	5057.90
436.34	5231.10
436.53	5219.39
436.72	5284.93
436.90	5057.90
437.09	5139.82
437.28	5018.11
437.46	5203.01
437.65	5298.97
437.84	5235.78
438.02	5144.50
438.21	5266.21
438.40	5123.43
438.58	5432.38
438.77	5504.94
438.96	5476.85
439.14	5572.82
439.33	5540.05
439.52	5701.54
439.70	5621.97
439.89	5694.52
440.08	5767.08
440.26	5701.54
440.45	5818.57
440.63	5839.64
440.82	6001.13
441.01	5921.56
441.19	6019.86
441.38	6136.88
441.57	6038.58
441.75	6363.92
441.94	6356.90
442.12	6338.17
442.31	6345.19
442.50	6310.08
442.68	6333.49
442.87	6436.47
443.05	6476.26
443.24	6539.46
443.43	6317.11
443.61	6532.44
443.80	6502.01
443.98	6279.66
444.17	6181.35
444.35	6604.99
444.54	6647.12
444.73	6635.42
444.91	6565.20
445.10	6480.94
445.28	6373.28
445.47	6293.70
445.65	6626.06
445.84	6523.07
446.02	6534.78
446.21	6560.52
446.39	6511.37
446.58	6693.93
446.77	6747.76
446.95	6682.23
447.14	6738.40
447.32	6853.09
447.51	6892.88
447.69	6558.18
447.88	6590.95
448.06	6672.87
448.25	6829.68
448.43	6853.09
448.62	6810.96
448.80	6602.65
448.99	6787.55
449.17	6909.26
449.36	6817.98
449.54	7002.88
449.73	6974.80
449.91	7110.55
450.10	7316.51
450.28	7236.94
450.46	7262.68
450.65	7325.88
450.83	7103.53
451.02	7239.28
451.20	7412.48
451.39	7274.38
451.57	7143.32
451.76	7185.44
451.94	7330.56
452.13	7169.06
452.31	7297.79
452.49	7255.66
452.68	7208.85
452.86	7190.13
453.05	7325.88
453.23	7396.09
453.42	7379.71
453.60	7480.35
453.78	7468.65
453.97	7426.52
454.15	7538.87
454.34	7468.65
454.52	7730.79
454.70	7454.61
454.89	7709.72
455.07	7573.97
455.26	7674.62
455.44	7819.73
455.62	7672.28
455.81	7932.08
455.99	7801.01
456.17	7981.23
456.36	7882.92
456.54	7925.05
456.73	7962.50
456.91	8161.45
457.09	8173.15
457.28	8390.82
457.46	8056.12
457.64	8248.05
457.83	8250.39
458.01	8196.56
458.19	8400.18
458.38	8285.50
458.56	8573.38
458.74	8238.69
458.93	8336.99
459.11	8376.78
459.29	8465.72
459.48	8243.37
459.66	8372.10
459.84	8456.36
460.03	8552.32
460.21	8547.64
460.39	8514.87
460.57	8538.27
460.76	8652.96
460.94	8617.85
461.12	8676.37
461.31	8798.07
461.49	8695.09
461.67	8758.28
461.85	8971.27
462.04	8753.60
462.22	9226.39
462.40	8786.37
462.59	8856.59
462.77	8994.68
462.95	9273.20
463.13	8978.30
463.32	9210.01
463.50	9240.44
463.68	8961.91
463.86	9018.08
464.05	8898.72
464.23	8905.74
464.41	9144.47
464.59	8912.76
464.78	9130.43
464.96	9149.15
465.14	9114.05
465.32	9387.89
465.50	9338.74
465.69	9245.12
465.87	9418.32
466.05	9193.62
466.23	9240.44
466.41	9343.42
466.60	9439.38
466.78	9191.28
466.96	9261.50
467.14	9408.95
467.32	9266.18
467.51	9558.75
467.69	9280.22
467.87	9448.74
468.05	9603.22
468.23	9621.94
468.41	9387.89
468.60	9430.02
468.78	9621.94
468.96	9565.77
469.14	9769.40
469.32	9729.61
469.50	9568.11
469.69	9645.35
469.87	9851.31
470.05	9949.62
470.23	9731.95
470.41	9661.73
470.59	10068.98
470.77	10071.33
470.95	9921.53
471.14	10178.99
471.32	10080.69
471.50	10253.89
471.68	10415.38
471.86	10370.91
472.04	10431.77
472.22	10689.23
472.40	10298.36
472.58	10403.68
472.77	10511.35
472.95	10714.97
473.13	11037.97
473.31	10593.26
473.49	10490.28
473.67	10604.97
473.85	10757.10
474.03	11063.71
474.21	10860.09
474.39	11033.29
474.57	11126.91
474.75	11286.06
474.93	11250.96
475.12	11129.25
475.30	10995.84
475.48	11335.21
475.66	11229.89
475.84	11370.32
476.02	11623.10
476.20	11536.50
476.38	11840.77
476.56	12095.89
476.74	11843.11
476.92	11845.45
477.10	11988.22
477.28	12191.85
477.46	12177.81
477.64	12493.78
477.82	12215.26
478.00	12505.48
478.18	12645.91
478.36	12444.63
478.54	12800.39
478.72	12786.35
478.90	12901.03
479.08	12961.89
479.26	13060.19
479.44	13149.13
479.62	13427.65
479.80	13490.85
479.98	13500.21
480.16	13652.34
480.34	13724.90
480.52	14118.11
480.70	13933.21
480.88	13692.13
481.06	13930.87
481.24	13853.63
481.41	14413.02
481.59	14516.00
481.77	14328.76
481.95	14333.44
482.13	14728.99
482.31	14745.38
482.49	15061.35
482.67	14963.04
482.85	15283.70
483.03	15150.29
483.21	15192.42
483.39	15538.82
483.57	15410.09
483.74	15672.23
483.92	15770.53
484.10	15660.52
484.28	16133.31
484.46	16100.55
484.64	16205.87
484.82	16299.49
485.00	16320.56
485.18	16844.84
485.35	16606.10
485.53	16217.57
485.71	16496.10
485.89	16514.82
486.07	16793.34
486.25	16938.46
486.43	17128.04
486.61	17240.39
486.78	17071.87
486.96	17675.73
487.14	18024.47
487.32	17769.35
487.50	18115.75
487.68	18333.42
487.85	18326.39
488.03	18782.80
488.21	18539.38
488.39	18775.78
488.57	18855.36
488.75	18689.18
488.92	19468.58
489.10	19431.13
489.28	19716.67
489.46	19758.80
489.64	19782.21
489.81	20493.73
489.99	20154.35
490.17	20493.73
490.35	20460.96
490.53	20566.29
490.70	20737.15
490.88	20688.00
491.06	20950.14
491.24	20919.71
491.41	20940.77
491.59	20943.11
491.77	21050.78
491.95	21158.44
492.13	21528.25
492.30	21647.61
492.48	21460.37
492.66	22036.14
492.84	21762.30
493.01	22443.40
493.19	22394.25
493.37	22583.83
493.54	22412.97
493.72	22771.07
493.90	22726.60
494.08	23033.21
494.25	23405.36
494.43	23428.76
494.61	23531.75
494.79	23616.01
494.96	23211.09
495.14	23473.23
495.32	23765.80
495.49	23817.29
495.67	24091.13
495.85	24367.32
496.02	24540.52
496.20	24411.79
496.38	24542.86
496.55	24519.45
496.73	25656.95
496.91	24816.70
497.09	25181.82
497.26	25397.15
497.44	25160.76
497.62	25511.84
497.79	25495.46
497.97	25394.81
498.14	25544.61
498.32	25720.15
498.50	25474.39
498.67	26089.95
498.85	26265.49
499.03	26188.25
499.20	26539.33
499.38	26806.16
499.56	26597.85
499.73	26551.04
499.91	26754.66
500.08	26749.98
500.26	26703.17
500.44	26448.05
500.61	26991.06
500.79	27232.13
500.97	27094.04
501.14	27562.15
501.32	27641.73
501.49	27449.80
501.67	27515.34
501.84	27391.29
502.02	27847.69
502.20	28100.47
502.37	27896.85
502.55	28095.79
502.72	28327.50
502.90	27999.83
503.07	28343.89
503.25	28180.05
503.43	28386.02
503.60	28231.54
503.78	28524.11
503.95	28739.44
504.13	28823.70
504.30	29308.19
504.48	29071.79
504.65	28816.68
504.83	29289.46
505.01	29535.22
505.18	29177.12
505.36	29834.81
505.53	30008.01
505.71	29762.25
505.88	30178.87
506.06	30162.48
506.23	30005.67
506.41	29682.67
506.58	29802.04
506.76	30054.82
506.93	30368.45
507.11	30466.75
507.28	30101.63
507.46	30082.91
507.63	30529.95
507.81	30607.19
507.98	30581.44
508.16	30866.98
508.33	30834.22
508.50	31030.82
508.68	31175.94
508.85	31440.42
509.03	31325.73
509.20	31407.65
509.38	31494.25
509.55	31264.88
509.73	31512.97
509.90	31782.13
510.08	31817.24
510.25	31885.12
510.42	31814.90
510.60	31948.31
510.77	32058.32
510.95	32573.24
511.12	32257.26
511.30	32098.11
511.47	32830.69
511.64	32950.06
511.82	32774.52
511.99	32496.00
512.17	32837.72
512.34	32594.30
512.51	33008.58
512.69	33067.09
512.86	33141.99
513.04	33593.71
513.21	33216.88
513.38	33085.81
513.56	32814.31
513.73	32971.13
513.90	33251.99
514.08	33347.95
514.25	33692.01
514.43	33369.02
514.60	33708.40
514.77	33907.34
514.95	34033.73
515.12	33790.31
515.29	34061.82
515.47	34342.68
515.64	34029.05
515.81	33872.23
515.99	34359.06
516.16	34125.01
516.33	33923.72
516.51	33951.81
516.68	33638.18
516.85	33909.68
517.03	33989.26
517.20	34150.76
517.37	34536.94
517.54	34991.01
517.72	34642.27
517.89	33769.25
518.06	34597.80
518.24	34756.96
518.41	34518.22
518.58	34817.81
518.75	34763.98
518.93	35201.66
519.10	35325.71
519.27	35714.23
519.45	35281.24
519.62	35707.21
519.79	35615.93
519.96	35922.54
520.14	36458.52
520.31	35824.24
520.48	36285.33
520.65	36275.96
520.83	36521.72
521.00	36032.55
521.17	36400.01
521.34	36634.06
521.52	36723.01
521.69	37008.55
521.86	36753.43
522.03	36821.31
522.20	36795.56
522.38	36786.20
522.55	36900.89
522.72	37116.22
522.89	36844.71
523.07	36669.17
523.24	36928.97
523.41	36926.63
523.58	37043.66
523.75	37523.47
523.92	37399.42
524.10	37858.17
524.27	37486.02
524.44	37560.92
524.61	37584.32
524.78	37675.60
524.96	37912.00
525.13	38124.99
525.30	38459.68
525.47	38452.66
525.64	37996.26
525.81	38471.39
525.98	37930.72
526.16	37872.21
526.33	37385.38
526.50	38335.63
526.67	37581.98
526.84	37764.54
527.01	37954.13
527.18	37872.21
527.36	38602.46
527.53	38565.01
527.70	38923.11
527.87	38747.57
528.04	38827.15
528.21	38822.47
528.38	39077.58
528.55	39295.25
528.72	39005.03
528.89	39440.37
529.07	39356.11
529.24	39019.07
529.41	39412.28
529.58	38827.15
529.75	39260.15
529.92	39426.32
530.09	39365.47
530.26	40133.17
530.43	39651.02
530.60	39487.18
530.77	39849.96
530.94	39969.33
531.11	39962.31
531.28	40095.72
531.46	39992.73
531.63	40105.08
531.80	39875.71
531.97	39618.25
532.14	39969.33
532.31	39592.50
532.48	40336.79
532.65	40018.48
532.82	39892.09
532.99	40533.40
533.16	40369.56
533.33	40179.98
533.50	40926.61
533.67	40339.13
533.84	40568.51
534.01	40411.69
534.18	40737.02
534.35	40814.26
534.52	40814.26
534.69	40898.52
534.86	41153.64
535.03	40912.56
535.20	41359.61
535.37	41240.24
535.54	41478.97
535.71	41113.85
535.88	40987.46
536.05	41062.36
536.22	41205.13
536.38	41394.71
536.55	41434.50
536.72	41282.37
536.89	40786.18
537.06	41457.91
537.23	41425.14
537.40	41750.48
537.57	41556.21
537.74	41900.27
537.91	41722.39
538.08	41890.91
538.25	41563.23
538.42	42080.49
538.59	41502.38
538.75	41628.77
538.92	41500.04
539.09	41876.86
539.26	41504.72
539.43	42024.32
539.60	42192.84
539.77	42094.53
539.94	42078.15
540.11	41745.80
540.28	41656.85
540.44	41724.73
540.61	42344.97
540.78	42080.49
540.95	42139.00
541.12	42323.91
541.29	42253.69
541.46	42309.86
541.62	42323.91
541.79	42600.09
541.96	42307.52
542.13	42155.39
542.30	42637.54
542.47	42403.49
542.63	42609.45
542.80	43009.68
542.97	43068.20
543.14	42983.94
543.31	42883.30
543.48	43323.32
543.64	43386.51
543.81	43585.46
543.98	43447.36
544.15	42759.25
544.32	43002.66
544.48	43615.88
544.65	43695.46
544.82	43140.75
544.99	43192.25
545.16	43686.10
545.32	43342.04
545.49	43379.49
545.66	43744.61
545.83	43613.54
546.00	43992.71
546.16	43929.51
546.33	43810.15
546.50	43543.33
546.67	43564.39
546.83	43746.95
547.00	43573.75
547.17	44217.40
547.34	43480.13
547.50	44175.27
547.67	44299.32
547.84	44058.24
548.00	44285.28
548.17	43990.37
548.34	44477.20
548.51	44158.89
548.67	44629.34
548.84	44327.41
549.01	44205.70
549.18	44233.78
549.34	44502.95
549.51	44516.99
549.68	44247.83
549.84	44811.90
550.01	44999.14
550.18	44767.43
550.34	44184.63
550.51	44832.96
550.68	44189.31
550.84	44182.29
551.01	44655.08
551.18	44938.29
551.34	45364.26
551.51	44638.70
551.68	44713.59
551.84	45022.54
552.01	44516.99
552.18	44641.04
552.34	44320.38
552.51	44676.15
552.68	44751.04
552.84	44783.81
553.01	45366.60
553.18	45310.43
553.34	45017.86
553.51	45202.77
553.67	44713.59
553.84	45366.60
554.01	45427.46
554.17	45366.60
554.34	45418.10
554.51	45034.25
554.67	45628.74
554.84	45249.58
555.00	44989.78
555.17	45195.74
555.33	45434.48
555.50	45247.24
555.67	45467.25
555.83	45324.47
556.00	45738.75
556.16	45886.20
556.33	45436.82
556.50	45378.31
556.66	45422.78
556.83	45542.14
556.99	45673.21
557.16	45705.98
557.32	45586.61
557.49	45808.96
557.65	45167.66
557.82	45851.09
557.98	45736.41
558.15	45750.45
558.32	45698.96
558.48	45485.97
558.65	45799.60
558.81	45443.84
558.98	46017.27
559.14	45830.03
559.31	45778.54
559.47	45420.44
559.64	46003.23
559.80	45954.08
559.97	45846.41
560.13	45483.63
560.30	46141.32
560.46	46087.49
560.63	46265.37
560.79	45982.16
560.96	46043.02
561.12	46043.02
561.29	46059.40
561.45	45670.87
561.61	46057.06
561.78	45727.05
561.94	46071.10
562.11	46096.85
562.27	46094.51
562.44	45925.99
562.60	46567.30
562.77	46279.41
562.93	46066.42
563.10	46082.81
563.26	45944.72
563.42	46656.24
563.59	46389.42
563.75	46253.67
563.92	46188.13
564.08	46466.66
564.24	46693.69
564.41	46485.38
564.57	46543.89
564.74	46080.47
564.90	46490.06
565.07	46223.24
565.23	46351.97
565.39	46162.39
565.56	46263.03
565.72	46068.76
565.88	46532.19
566.05	46483.04
566.21	45996.21
566.38	46176.43
566.54	46340.27
566.70	46607.09
566.87	46745.18
567.03	46569.64
567.19	46719.43
567.36	46347.29
567.52	46534.53
567.68	46375.37
567.85	46288.77
568.01	46717.09
568.17	46689.01
568.34	46616.45
568.50	46548.57
568.66	46277.07
568.83	46267.71
568.99	46454.95
569.15	46316.86
569.32	46749.86
569.48	46134.30
569.64	46827.10
569.81	46693.69
569.97	46380.06
570.13	46663.26
570.30	46436.23
570.46	46492.40
570.62	46190.47
570.78	46188.13
570.95	46394.10
571.11	46644.54
571.27	46319.20
571.43	46307.50
571.60	46576.66
571.76	46403.46
571.92	46728.80
572.09	46366.01
572.25	46958.17
572.41	46614.11
572.57	46410.48
572.74	46866.89
572.90	46801.35
573.06	46679.64
573.22	47114.98
573.38	46869.23
573.55	46651.56
573.71	46834.12
573.87	46286.43
574.03	46314.52
574.20	46813.05
574.36	46513.47
574.52	46476.02
574.68	47047.11
574.84	46951.15
575.01	46623.47
575.17	46822.42
575.33	46539.21
575.49	46106.21
575.65	46775.61
575.82	46768.58
575.98	46471.34
576.14	46754.54
576.30	46958.17
576.46	46777.95
576.62	46967.53
576.79	46527.51
576.95	46368.35
577.11	46431.55
577.27	46588.36
577.43	47035.41
577.59	46784.97
577.75	46461.97
577.92	46384.74
578.08	46078.13
578.24	46288.77
578.40	46618.79
578.56	46930.08
578.72	46457.29
578.88	46710.07
579.04	46747.52
579.21	46660.92
579.37	46405.80
579.53	46539.21
579.69	46796.67
579.85	46791.99
580.01	46932.42
580.17	46827.10
580.33	46782.63
580.49	47030.72
580.65	46862.21
580.82	46316.86
580.98	46801.35
581.14	46642.20
581.30	46862.21
581.46	46450.27
581.62	46831.78
581.78	46590.70
581.94	47086.90
582.10	46770.93
582.26	46784.97
582.42	46958.17
582.58	46927.74
582.74	46478.36
582.90	47124.35
583.06	46707.73
583.22	46838.80
583.38	47096.26
583.54	46773.27
583.70	46911.36
583.86	46866.89
584.02	46724.11
584.18	46742.84
584.34	46850.50
584.50	46810.71
584.66	46969.87
584.82	46885.61
584.98	46665.60
585.14	47124.35
585.30	47014.34
585.46	47311.59
585.62	46492.40
585.78	46726.46
585.94	46335.59
586.10	46754.54
586.26	46902.00
586.42	47026.04
586.58	47185.20
586.74	46770.93
586.90	46794.33
587.06	47012.00
587.22	46801.35
587.38	46241.96
587.54	46990.94
587.70	47199.24
587.86	46983.91
588.02	47119.66
588.18	47168.82
588.34	46824.76
588.49	46513.47
588.65	46110.89
588.81	46398.78
588.97	46377.72
589.13	46373.03
589.29	46349.63
589.45	46590.70
589.61	46483.04
589.77	46927.74
589.93	46925.40
