SpectraSuite Data File
++++++++++++++++++++++++++++++++++++
Date: Fri Oct 25 11:26:16 EDT 2013
User: price-jones
Dark Spectrum Present: No
Reference Spectrum Present: No
Number of Sampled Component Spectra: 1
Spectrometers: USB2+H05261
Integration Time (usec): 100000 (USB2+H05261)
Spectra Averaged: 1 (USB2+H05261)
Boxcar Smoothing: 0 (USB2+H05261)
Correct for Electrical Dark: No (USB2+H05261)
Strobe/Lamp Enabled: No (USB2+H05261)
Correct for Detector Non-linearity: No (USB2+H05261)
Correct for Stray Light: No (USB2+H05261)
Number of Pixels in Processed Spectrum: 2048
>>>>>Begin Processed Spectral Data<<<<<
365.73	262.14
365.92	262.14
366.12	262.14
366.32	170.86
366.52	145.11
366.72	177.88
366.91	133.41
367.11	170.86
367.31	119.37
367.51	156.82
367.70	133.41
367.90	147.45
368.10	154.48
368.30	140.43
368.49	156.82
368.69	189.58
368.89	88.94
369.09	163.84
369.28	138.09
369.48	168.52
369.68	198.95
369.87	222.35
370.07	315.97
370.27	301.93
370.47	341.72
370.66	568.75
370.86	674.07
371.06	704.50
371.25	704.50
371.45	669.39
371.65	748.97
371.84	723.23
372.04	720.88
372.24	685.78
372.44	716.20
372.63	737.27
372.83	814.51
373.03	699.82
373.22	718.54
373.42	781.74
373.62	802.80
373.81	788.76
374.01	873.02
374.21	774.72
374.40	849.61
374.60	828.55
374.79	812.17
374.99	741.95
375.19	826.21
375.38	805.14
375.58	847.27
375.78	856.64
375.97	915.15
376.17	926.85
376.37	875.36
376.56	936.21
376.76	854.30
376.95	805.14
377.15	840.25
377.35	938.55
377.54	915.15
377.74	903.45
377.93	987.71
378.13	959.62
378.33	983.02
378.52	856.64
378.72	997.07
378.91	964.30
379.11	954.94
379.31	938.55
379.50	973.66
379.70	961.96
379.89	990.05
380.09	1053.24
380.28	922.17
380.48	912.81
380.68	1015.79
380.87	1004.09
381.07	1013.45
381.26	1071.97
381.46	1013.45
381.65	1071.97
381.85	971.32
382.04	1034.52
382.24	1057.92
382.43	1118.78
382.63	1041.54
382.83	1139.84
383.02	1142.18
383.22	1203.04
383.41	1093.03
383.61	1125.80
383.80	1188.99
384.00	1146.86
384.19	1179.63
384.39	1109.41
384.58	1198.35
384.78	1121.12
384.97	1238.14
385.17	1144.52
385.36	1200.69
385.56	1235.80
385.75	1214.74
385.95	1294.32
386.14	1263.89
386.34	1235.80
386.53	1224.10
386.72	1196.01
386.92	1191.33
387.11	1196.01
387.31	1268.57
387.50	1191.33
387.70	1261.55
387.89	1219.42
388.09	1317.72
388.28	1263.89
388.48	1308.36
388.67	1252.19
388.86	1324.74
389.06	1233.46
389.25	1303.68
389.45	1352.83
389.64	1329.42
389.84	1411.34
390.03	1383.26
390.22	1486.24
390.42	1399.64
390.61	1331.76
390.81	1313.04
391.00	1331.76
391.19	1427.73
391.39	1409.00
391.58	1441.77
391.78	1476.88
391.97	1530.71
392.16	1514.33
392.36	1502.62
392.55	1481.56
392.75	1404.32
392.94	1589.22
393.13	1497.94
393.33	1542.41
393.52	1540.07
393.71	1575.18
393.91	1565.82
394.10	1497.94
394.29	1596.25
394.49	1570.50
394.68	1544.75
394.88	1568.16
395.07	1636.03
395.26	1650.08
395.46	1647.74
395.65	1675.82
395.84	1678.16
396.04	1820.94
396.23	1792.85
396.42	1671.14
396.62	1692.21
396.81	1724.97
397.00	1785.83
397.19	1781.15
397.39	1837.32
397.58	1788.17
397.77	1837.32
397.97	1778.81
398.16	1825.62
398.35	1900.52
398.55	1898.17
398.74	1891.15
398.93	2019.88
399.12	1947.33
399.32	1954.35
399.51	1952.01
399.70	1987.11
399.90	1937.96
400.09	1998.82
400.28	2113.50
400.47	2003.50
400.67	2092.44
400.86	2022.22
401.05	2083.08
401.24	2005.84
401.44	2122.87
401.63	2101.80
401.82	2132.23
402.01	2059.67
402.21	2113.50
402.40	2146.27
402.59	2216.49
402.78	2195.42
402.97	2197.76
403.17	2253.94
403.36	2242.23
403.55	2235.21
403.74	2333.51
403.93	2300.75
404.13	2354.58
404.32	2307.77
404.51	2228.19
404.70	2441.18
404.89	2462.24
405.09	2431.82
405.28	2506.71
405.47	2438.84
405.66	2569.91
405.85	2513.74
406.05	2548.84
406.24	2539.48
406.43	2693.96
406.62	2672.89
406.81	2722.04
407.00	2530.12
407.20	2523.10
407.39	2637.78
407.58	2696.30
407.77	2715.02
407.96	2693.96
408.15	2729.06
408.34	2621.40
408.54	2682.25
408.73	2855.45
408.92	2890.56
409.11	2808.64
409.30	2839.07
409.49	3045.04
409.68	2869.50
409.87	2946.73
410.07	2930.35
410.26	2930.35
410.45	3049.72
410.64	2972.48
410.83	3112.91
411.02	3148.02
411.21	3222.92
411.40	3131.64
411.59	3173.77
411.78	3288.45
411.98	3190.15
412.17	3358.67
412.36	3342.28
412.55	3307.18
412.74	3260.37
412.93	3365.69
413.12	3328.24
413.31	3515.48
413.50	3506.12
413.69	3419.52
413.88	3667.62
414.07	3552.93
414.26	3541.23
414.45	3651.24
414.64	3714.43
414.83	3789.33
415.02	3779.97
415.22	3826.78
415.41	3824.44
415.60	3770.60
415.79	3864.22
415.98	4046.79
416.17	4046.79
416.36	4016.36
416.55	3859.54
416.74	4002.32
416.93	4060.83
417.12	4140.41
417.31	4117.00
417.50	4114.66
417.69	4196.58
417.88	4217.65
418.07	4145.09
418.26	4222.33
418.45	4266.80
418.64	4491.49
418.83	4468.08
419.02	4379.14
419.21	4486.81
419.39	4627.24
419.58	4528.94
419.77	4369.78
419.96	4538.30
420.15	4617.88
420.34	4514.89
420.53	4524.26
420.72	4751.29
420.91	4638.94
421.10	4772.35
421.29	4723.20
421.48	4631.92
421.67	4819.16
421.86	4732.56
422.05	4758.31
422.24	4744.27
422.43	4915.12
422.61	4793.42
422.80	4975.98
422.99	4924.49
423.18	4964.28
423.37	5025.13
423.56	4830.87
423.75	4882.36
423.94	4844.91
424.13	4599.15
424.32	4727.88
424.50	4985.34
424.69	5090.67
424.88	4940.87
425.07	4980.66
425.26	4875.34
425.45	4950.23
425.64	4999.38
425.83	5006.41
426.01	5067.26
426.20	4933.85
426.39	5006.41
426.58	5060.24
426.77	5069.60
426.96	5074.28
427.15	5100.03
427.33	5135.14
427.52	5217.05
427.71	5177.26
427.90	5301.31
428.09	5294.29
428.28	5249.82
428.46	5540.05
428.65	5376.21
428.84	5490.90
429.03	5371.53
429.22	5240.46
429.40	5287.27
429.59	5425.36
429.78	5268.55
429.97	5195.99
430.16	5472.17
430.34	5526.00
430.53	5631.33
430.72	5462.81
430.91	5643.03
431.10	5694.52
431.28	5764.74
431.47	5673.46
431.66	5804.53
431.85	5678.14
432.03	5968.37
432.22	6031.56
432.41	5877.09
432.60	5839.64
432.79	5919.21
432.97	5916.87
433.16	6129.86
433.35	5860.70
433.54	5966.03
433.72	6148.59
433.91	6132.20
434.10	6129.86
434.28	6225.82
434.47	6319.45
434.66	6267.95
434.85	6328.81
435.03	6349.87
435.22	6338.17
435.41	6555.84
435.59	6352.21
435.78	6406.05
435.97	6286.68
436.16	6436.47
436.34	6328.81
436.53	6431.79
436.72	6630.74
436.90	6431.79
437.09	6628.40
437.28	6590.95
437.46	6633.08
437.65	6509.03
437.84	6848.41
438.02	6743.08
438.21	6686.91
438.40	6597.97
438.58	6864.79
438.77	7042.67
438.96	6853.09
439.14	7133.95
439.33	7119.91
439.52	7016.93
439.70	7265.02
439.89	7300.13
440.08	7255.66
440.26	7190.13
440.45	7325.88
440.63	7424.18
440.82	7674.62
441.01	7492.05
441.19	7548.23
441.38	7520.14
441.57	7665.25
441.75	7838.45
441.94	7857.18
442.12	7854.84
442.31	8011.65
442.50	7983.57
442.68	7878.24
442.87	7915.69
443.05	7819.73
443.24	8224.64
443.43	8077.19
443.61	8161.45
443.80	8411.89
443.98	7843.14
444.17	7960.16
444.35	8121.66
444.54	8210.60
444.73	8341.67
444.91	8086.55
445.10	8173.15
445.28	8166.13
445.47	8266.77
445.65	8477.42
445.84	8313.58
446.02	8500.83
446.21	8224.64
446.39	8292.52
446.58	8561.68
446.77	8458.70
446.95	8362.73
447.14	8313.58
447.32	8545.30
447.51	8411.89
447.69	8381.46
447.88	8652.96
448.06	8491.46
448.25	8336.99
448.43	8463.38
448.62	8535.93
448.80	8477.42
448.99	8482.10
449.17	8990.00
449.36	8575.72
449.54	8856.59
449.73	9100.00
449.91	8950.21
450.10	8744.24
450.28	8982.98
450.46	8809.78
450.65	9111.71
450.83	9083.62
451.02	8999.36
451.20	9067.24
451.39	9036.81
451.57	9193.62
451.76	9046.17
451.94	9301.29
452.13	9188.94
452.31	9160.86
452.49	9231.07
452.68	9238.09
452.86	9247.46
453.05	9472.15
453.23	9596.20
453.42	9430.02
453.60	9371.50
453.78	9490.87
453.97	9511.94
454.15	9254.48
454.34	9420.66
454.52	9572.79
454.70	9645.35
454.89	9750.67
455.07	9764.72
455.26	9755.35
455.44	9736.63
455.62	9738.97
455.81	9837.27
455.99	10017.49
456.17	10047.92
456.36	10019.83
456.54	10080.69
456.73	10319.42
456.91	10401.34
457.09	10298.36
457.28	10368.57
457.46	10256.23
457.64	10384.96
457.83	10436.45
458.01	10363.89
458.19	10864.77
458.38	10518.37
458.56	10747.74
458.74	10703.27
458.93	10600.29
459.11	10677.52
459.29	10628.37
459.48	10637.73
459.66	10939.66
459.84	10963.07
460.03	11080.10
460.21	10810.93
460.39	10939.66
460.57	11082.44
460.76	10979.45
460.94	11295.43
461.12	11082.44
461.31	10918.60
461.49	10949.03
461.67	11208.83
461.85	11260.32
462.04	11162.01
462.22	11726.08
462.40	11382.03
462.59	11768.21
462.77	11496.71
462.95	11646.51
463.13	11651.19
463.32	11597.35
463.50	11740.13
463.68	11679.27
463.86	11688.64
464.05	11597.35
464.23	11676.93
464.41	11985.88
464.59	11641.82
464.78	11850.13
464.96	11765.87
465.14	11779.92
465.32	12046.74
465.50	11918.01
465.69	12020.99
465.87	12100.57
466.05	12032.69
466.23	12159.08
466.41	12100.57
466.60	12290.15
466.78	12119.29
466.96	12133.34
467.14	12229.30
467.32	12311.22
467.51	12301.86
467.69	12013.97
467.87	12372.07
468.05	12718.47
468.23	12358.03
468.41	12549.95
468.60	12526.55
468.78	12706.77
468.96	12472.71
469.14	12730.17
469.32	12901.03
469.50	12685.70
469.69	12741.88
469.87	12688.04
470.05	12992.31
470.23	13116.36
470.41	13226.37
470.59	13284.88
470.77	13076.57
470.95	12952.52
471.14	13528.30
471.32	13088.28
471.50	13362.12
471.68	13652.34
471.86	13687.45
472.04	13556.38
472.22	14005.77
472.40	13479.15
472.58	13942.57
472.77	13963.64
472.95	14288.97
473.13	14272.59
473.31	14171.94
473.49	14092.37
473.67	13778.73
473.85	14085.34
474.03	14560.47
474.21	14698.56
474.39	14462.17
474.57	14848.36
474.75	14885.81
474.93	14862.40
475.12	14951.34
475.30	15297.74
475.48	14965.39
475.66	15133.90
475.84	15112.84
476.02	15330.51
476.20	15133.90
476.38	15697.97
476.56	16093.52
476.74	15866.49
476.92	15824.36
477.10	15709.68
477.28	16093.52
477.46	16533.54
477.64	16325.24
477.82	16350.98
478.00	17027.40
478.18	16638.87
478.36	16863.56
478.54	16884.62
478.72	16978.25
478.90	17202.94
479.08	17411.25
479.26	17549.34
479.44	17582.10
479.62	17706.15
479.80	18216.39
479.98	17879.35
480.16	18609.60
480.34	18106.38
480.52	18581.51
480.70	18658.75
480.88	18410.65
481.06	18644.71
481.24	18551.09
481.41	18899.83
481.59	19229.84
481.77	19435.81
481.95	19391.34
482.13	19819.66
482.31	19536.45
482.49	19924.98
482.67	20264.36
482.85	20163.72
483.03	20451.60
483.21	20425.86
483.39	21062.48
483.57	20875.24
483.74	20952.48
483.92	21376.11
484.10	21245.04
484.28	21649.96
484.46	21888.69
484.64	22075.93
484.82	22019.76
485.00	22314.67
485.18	22820.22
485.35	23000.44
485.53	22787.46
485.71	22904.48
485.89	23044.91
486.07	23014.49
486.25	22970.02
486.43	23587.92
486.61	23676.86
486.78	23819.63
486.96	24505.41
487.14	24524.13
487.32	24577.97
487.50	24634.14
487.68	24793.29
487.85	24905.64
488.03	25568.01
488.21	25537.59
488.39	25539.93
488.57	25797.38
488.75	26115.70
488.92	26155.49
489.10	26635.30
489.28	26661.04
489.46	27222.77
489.64	26888.07
489.81	27428.74
489.99	27674.49
490.17	27508.32
490.35	27606.62
490.53	27978.76
490.70	28144.94
490.88	28189.41
491.06	28858.81
491.24	28683.27
491.41	29198.18
491.59	28924.34
491.77	28957.11
491.95	29701.40
492.13	29474.37
492.30	29776.30
492.48	29706.08
492.66	30071.20
492.84	30080.56
493.01	30373.13
493.19	30862.30
493.37	30998.06
493.54	30857.62
493.72	31192.32
493.90	31353.82
494.08	31503.61
494.25	32217.47
494.43	32030.23
494.61	31957.67
494.79	32301.73
494.96	32449.19
495.14	32818.99
495.32	33029.64
495.49	32528.77
495.67	32802.61
495.85	33464.98
496.02	33453.28
496.20	34139.05
496.38	33923.72
496.55	34110.97
496.73	34607.16
496.91	34206.93
497.09	34515.88
497.26	34761.64
497.44	34625.89
497.62	35264.85
497.79	35496.56
497.97	35899.14
498.14	35721.26
498.32	35978.72
498.50	36208.09
498.67	36334.48
498.85	35849.99
499.03	36959.40
499.20	36570.87
499.38	36739.39
499.56	36617.68
499.73	36828.33
499.91	37479.00
500.08	37598.37
500.26	36854.08
500.44	37376.01
500.61	37921.36
500.79	37418.14
500.97	37818.38
501.14	38429.26
501.32	38756.93
501.49	38277.12
501.67	38277.12
501.84	38700.76
502.02	38529.90
502.20	38808.42
502.37	38899.70
502.55	39206.31
502.72	39068.22
502.90	39491.86
503.07	39108.01
503.25	39440.37
503.43	39519.95
503.60	39655.70
503.78	40013.80
503.95	40308.71
504.13	40336.79
504.30	40994.48
504.48	40542.76
504.65	40374.24
504.83	41092.79
505.01	41031.93
505.18	41118.53
505.36	41500.04
505.53	40776.81
505.71	41130.23
505.88	41532.81
506.06	40942.99
506.23	41443.87
506.41	41244.92
506.58	41331.52
506.76	41717.71
506.93	42169.43
507.11	41933.04
507.28	42333.27
507.46	42464.34
507.63	42459.66
507.81	43000.32
507.98	42745.20
508.16	43145.44
508.33	42700.73
508.50	43185.22
508.68	43482.47
508.85	43779.72
509.03	43480.13
509.20	43723.55
509.38	44205.70
509.55	44465.50
509.73	44198.68
509.90	44189.31
510.08	44268.89
510.25	44376.56
510.42	44772.11
510.60	44978.07
510.77	44947.65
510.95	45083.40
511.12	44685.51
511.30	44917.22
511.47	45137.23
511.64	45282.34
511.82	46316.86
511.99	45411.07
512.17	45633.42
512.34	45544.48
512.51	45916.63
512.69	46171.75
512.86	45553.85
513.04	46588.36
513.21	46426.87
513.38	46068.76
513.56	46110.89
513.73	46459.63
513.90	46976.89
514.08	46693.69
514.25	47119.66
514.43	46733.48
514.60	47370.10
514.77	47054.13
514.95	47653.31
515.12	47426.28
515.29	47430.96
515.47	47732.89
515.64	48051.20
515.81	47873.32
515.99	48055.88
516.16	48186.95
516.33	48275.89
516.51	48800.17
516.68	48273.55
516.85	48421.00
517.03	48439.73
517.20	48811.87
517.37	48512.28
517.54	48816.55
517.72	48879.75
517.89	48755.70
518.06	48917.20
518.24	49111.46
518.41	49057.63
518.58	49137.21
518.75	49198.06
518.93	49279.98
519.10	49343.17
519.27	49834.69
519.45	49375.94
519.62	49916.61
519.79	49705.96
519.96	49530.42
520.14	49944.69
520.31	49640.42
520.48	50059.38
520.65	50389.39
520.83	50473.65
521.00	50330.88
521.17	50267.69
521.34	50422.16
521.52	50447.91
521.69	50578.98
521.86	51028.36
522.03	50960.48
522.20	51035.38
522.38	51309.22
522.55	51002.61
522.72	51061.13
522.89	51206.24
523.07	51302.20
523.24	51173.47
523.41	51524.55
523.58	51215.60
523.75	51828.82
523.92	51531.57
524.10	51554.98
524.27	51798.40
524.44	51985.64
524.61	51976.28
524.78	51892.02
524.96	51866.27
525.13	52090.96
525.30	52357.78
525.47	52165.86
525.64	52116.71
525.81	52624.60
525.98	52549.71
526.16	52320.34
526.33	52608.22
526.50	52790.78
526.67	52734.61
526.84	52842.27
527.01	52413.96
527.18	52650.35
527.36	52673.76
527.53	52814.19
527.70	53155.91
527.87	53066.97
528.04	52877.38
528.21	53343.15
528.38	53081.01
528.55	53354.85
528.72	53380.60
528.89	53315.06
529.07	53277.61
529.24	53275.27
529.41	53516.35
529.58	53499.97
529.75	53602.95
529.92	53502.31
530.09	53436.77
530.26	53804.24
530.43	53965.73
530.60	53619.33
530.77	53961.05
530.94	53900.20
531.11	53722.32
531.28	54155.32
531.46	54049.99
531.63	54176.38
531.80	54085.10
531.97	54185.74
532.14	54490.01
532.31	54185.74
532.48	54337.88
532.65	54438.52
532.82	54150.63
532.99	54710.02
533.16	54593.00
533.33	54569.59
533.50	54602.36
533.67	54667.89
533.84	54660.87
534.01	54803.64
534.18	54798.96
534.35	54958.12
534.52	55009.61
534.69	54969.82
534.86	55159.41
535.03	54590.66
535.20	55103.23
535.37	55180.47
535.54	55246.00
535.71	55082.17
535.88	55243.66
536.05	55337.29
536.22	55348.99
536.38	55480.06
536.55	55440.27
536.72	55583.04
536.89	55491.76
537.06	55569.00
537.23	55494.10
537.40	55512.83
537.57	55358.35
537.74	55737.52
537.91	55718.79
538.08	55688.37
538.25	55639.22
538.42	55664.96
538.59	55999.66
538.75	55840.50
538.92	55866.25
539.09	55999.66
539.26	55990.30
539.43	55915.40
539.60	56271.16
539.77	56289.88
539.94	56200.94
540.11	56315.63
540.28	56252.44
540.44	56420.95
540.61	56310.95
540.78	56179.88
540.95	56273.50
541.12	56179.88
541.29	56465.42
541.46	56465.42
541.62	56493.51
541.79	56732.25
541.96	56395.21
542.13	56294.56
542.30	56516.92
542.47	56533.30
542.63	56863.32
542.80	56842.25
542.97	56863.32
543.14	57099.71
543.31	57013.11
543.48	57027.15
543.64	57268.23
543.81	57499.94
543.98	57109.07
544.15	57301.00
544.32	57394.62
544.48	57443.77
544.65	57247.16
544.82	57464.83
544.99	56970.98
545.16	57310.36
545.32	57261.21
545.49	57429.72
545.66	57382.91
545.83	57509.30
546.00	57481.22
546.16	57301.00
546.33	57471.85
546.50	57481.22
546.67	57549.09
546.83	57303.34
547.00	57570.16
547.17	57694.21
547.34	57504.62
547.50	57733.99
547.67	57961.03
547.84	57846.34
548.00	57703.57
548.17	57944.64
548.34	57954.00
548.51	57982.09
548.67	58183.38
548.84	58040.60
549.01	58047.63
549.18	58026.56
549.34	58028.90
549.51	58003.16
549.68	58356.58
549.84	58321.47
550.01	58028.90
550.18	58054.65
550.34	58288.70
550.51	58433.81
550.68	58419.77
550.84	58085.07
551.01	58391.68
551.18	58457.22
551.34	58305.09
551.51	58431.47
551.68	58550.84
551.84	58363.60
552.01	58372.96
552.18	58508.71
552.34	58333.17
552.51	58557.86
552.68	58309.77
552.84	58614.04
553.01	58920.65
553.18	58614.04
553.34	58761.49
553.51	58632.76
553.67	58848.09
553.84	58812.98
554.01	58876.18
554.17	58899.58
554.34	58763.83
554.51	58852.77
554.67	59044.69
554.84	59028.31
555.00	58714.68
555.17	58974.48
555.33	59032.99
555.50	58705.32
555.67	58754.47
555.83	58838.73
556.00	59124.27
556.16	59210.87
556.33	59187.47
556.50	59011.93
556.66	59096.19
556.83	58960.44
556.99	59381.73
557.16	59444.93
557.32	59370.03
557.49	59416.84
557.65	59243.64
557.82	59215.55
557.98	59379.39
558.15	59283.43
558.32	59327.90
558.48	59208.53
558.65	59440.24
558.81	59465.99
558.98	59363.01
559.14	59409.82
559.31	59517.48
559.47	59494.08
559.64	59316.20
559.80	59714.09
559.97	59742.17
560.13	59363.01
560.30	59524.50
560.46	59618.13
560.63	59629.83
560.79	59683.66
560.96	59753.88
561.12	59573.66
561.29	59697.70
561.45	59693.02
561.61	59763.24
561.78	59671.96
561.94	59849.84
562.11	59838.14
562.27	59826.43
562.44	59784.30
562.60	59803.03
562.77	59784.30
562.93	59812.39
563.10	59971.55
563.26	59737.49
563.42	60004.31
563.59	59833.46
563.75	59861.54
563.92	59824.09
564.08	59660.26
564.24	59817.07
564.41	60100.28
564.57	60102.62
564.74	60013.68
564.90	59936.44
565.07	60097.94
565.23	59966.87
565.39	59882.61
565.56	60111.98
565.72	60093.25
565.88	59763.24
566.05	60006.65
566.21	59903.67
566.38	59934.10
566.54	60119.00
566.70	60217.30
566.87	60287.52
567.03	59990.27
567.19	60374.12
567.36	60051.12
567.52	60161.13
567.68	60362.42
567.85	60154.11
568.01	60264.11
568.17	60130.70
568.34	60287.52
568.50	60177.51
568.66	60175.17
568.83	60385.82
568.99	60034.74
569.15	60313.26
569.32	60498.17
569.48	60186.88
569.64	60287.52
569.81	60233.69
569.97	60287.52
570.13	60348.37
570.30	60161.13
570.46	60229.01
570.62	60336.67
570.78	60161.13
570.95	60212.62
571.11	60479.44
571.27	60275.82
571.43	60392.84
571.60	60432.63
571.76	60458.38
571.92	60451.36
572.09	60392.84
572.25	60488.80
572.41	60357.74
572.57	60516.89
572.74	60638.60
572.90	60477.10
573.06	60451.36
573.22	60554.34
573.38	60554.34
573.55	60390.50
573.71	60685.41
573.87	60535.62
574.03	60324.97
574.20	60601.15
574.36	60453.70
574.52	60535.62
574.68	60755.63
574.84	60647.96
575.01	60512.21
575.17	60732.22
575.33	60636.26
575.49	60355.39
575.65	60657.32
575.82	60912.44
575.98	60828.18
576.14	60825.84
576.30	60580.09
576.46	60556.68
576.62	60594.13
576.79	60580.09
576.95	60535.62
577.11	60736.90
577.27	60654.98
577.43	60860.95
577.59	60486.46
577.75	60603.49
577.92	60409.23
578.08	60657.32
578.24	60715.84
578.40	60853.93
578.56	60849.25
578.72	60699.45
578.88	60987.34
579.04	60905.42
579.21	60619.88
579.37	60865.63
579.53	60830.52
579.69	60439.65
579.85	60701.79
580.01	60552.00
580.17	60589.45
580.33	60736.90
580.49	60907.76
580.65	60898.40
580.82	60643.28
580.98	60797.76
581.14	60790.73
581.30	60931.17
581.46	60713.50
581.62	60797.76
581.78	60741.58
581.94	60764.99
582.10	60568.38
582.26	60512.21
582.42	60800.10
582.58	60802.44
582.74	60683.07
582.90	60767.33
583.06	60858.61
583.22	60746.26
583.38	60722.86
583.54	60708.82
583.70	60961.59
583.86	60954.57
584.02	60858.61
584.18	60975.64
584.34	60795.42
584.50	60832.86
584.66	60856.27
584.82	60519.23
584.98	61212.03
585.14	60884.36
585.30	60762.65
585.46	61055.21
585.62	60919.46
585.78	61062.24
585.94	60631.58
586.10	60982.66
586.26	60877.33
586.42	61038.83
586.58	61052.87
586.74	61176.92
586.90	60877.33
587.06	60856.27
587.22	60903.08
587.38	60797.76
587.54	61048.19
587.70	61268.20
587.86	60931.17
588.02	60956.91
588.18	61106.71
588.34	61036.49
588.49	60952.23
