SpectraSuite Data File
++++++++++++++++++++++++++++++++++++
Date: Fri Oct 25 11:34:45 EDT 2013
User: price-jones
Dark Spectrum Present: No
Reference Spectrum Present: No
Number of Sampled Component Spectra: 1
Spectrometers: USB2+H05261
Integration Time (usec): 100000 (USB2+H05261)
Spectra Averaged: 1 (USB2+H05261)
Boxcar Smoothing: 0 (USB2+H05261)
Correct for Electrical Dark: No (USB2+H05261)
Strobe/Lamp Enabled: No (USB2+H05261)
Correct for Detector Non-linearity: No (USB2+H05261)
Correct for Stray Light: No (USB2+H05261)
Number of Pixels in Processed Spectrum: 2048
>>>>>Begin Processed Spectral Data<<<<<
365.73	301.93
365.92	301.93
366.12	301.93
366.32	198.95
366.52	124.05
366.72	201.29
366.91	184.90
367.11	257.46
367.31	149.79
367.51	252.78
367.70	173.20
367.90	194.26
368.10	184.90
368.30	210.65
368.49	236.39
368.69	273.84
368.89	135.75
369.09	187.24
369.28	208.31
369.48	210.65
369.68	198.95
369.87	259.80
370.07	266.82
370.27	327.68
370.47	379.17
370.66	402.57
370.86	484.49
371.06	564.07
371.25	557.05
371.45	482.15
371.65	601.52
371.84	528.96
372.04	582.79
372.24	496.19
372.44	697.48
372.63	557.05
372.83	592.16
373.03	620.24
373.22	580.45
373.42	573.43
373.62	592.16
373.81	601.52
374.01	624.92
374.21	662.37
374.40	557.05
374.60	699.82
374.79	594.50
374.99	627.26
375.19	667.05
375.38	648.33
375.58	603.86
375.78	655.35
375.97	613.22
376.17	746.63
376.37	589.82
376.56	667.05
376.76	606.20
376.95	578.11
377.15	657.69
377.35	667.05
377.54	657.69
377.74	678.76
377.93	676.41
378.13	664.71
378.33	720.88
378.52	648.33
378.72	671.73
378.91	685.78
379.11	695.14
379.31	699.82
379.50	631.94
379.70	765.36
379.89	720.88
380.09	711.52
380.28	720.88
380.48	690.46
380.68	716.20
380.87	702.16
381.07	751.31
381.26	774.72
381.46	720.88
381.65	676.41
381.85	667.05
382.04	732.59
382.24	791.10
382.43	734.93
382.63	669.39
382.83	784.08
383.02	767.70
383.22	741.95
383.41	732.59
383.61	844.93
383.80	870.68
384.00	828.55
384.19	765.36
384.39	786.42
384.58	849.61
384.78	854.30
384.97	837.91
385.17	851.96
385.36	816.85
385.56	814.51
385.75	753.65
385.95	847.27
386.14	889.40
386.34	889.40
386.53	840.25
386.72	873.02
386.92	805.14
387.11	898.77
387.31	812.17
387.50	870.68
387.70	875.36
387.89	877.70
388.09	826.21
388.28	894.08
388.48	854.30
388.67	840.25
388.86	840.25
389.06	868.34
389.25	915.15
389.45	894.08
389.64	950.26
389.84	873.02
390.03	901.11
390.22	910.47
390.42	917.49
390.61	959.62
390.81	910.47
391.00	990.05
391.19	966.64
391.39	891.74
391.58	983.02
391.78	917.49
391.97	933.87
392.16	980.68
392.36	1057.92
392.55	894.08
392.75	971.32
392.94	1046.22
393.13	959.62
393.33	1046.22
393.52	999.41
393.71	1025.15
393.91	1027.50
394.10	1069.62
394.29	1043.88
394.49	999.41
394.68	1146.86
394.88	1086.01
395.07	1114.10
395.26	1078.99
395.46	1128.14
395.65	1114.10
395.84	1074.31
396.04	1181.97
396.23	1034.52
396.42	1043.88
396.62	1212.40
396.81	1181.97
397.00	1104.73
397.19	1142.18
397.39	1186.65
397.58	1214.74
397.77	1149.20
397.97	1149.20
398.16	1174.95
398.35	1252.19
398.55	1132.82
398.74	1205.38
398.93	1245.16
399.12	1336.45
399.32	1247.51
399.51	1203.04
399.70	1322.40
399.90	1179.63
400.09	1327.08
400.28	1439.43
400.47	1376.24
400.67	1350.49
400.86	1350.49
401.05	1322.40
401.24	1313.04
401.44	1287.29
401.63	1341.13
401.82	1401.98
402.01	1327.08
402.21	1390.28
402.40	1465.18
402.59	1413.68
402.78	1310.70
402.97	1481.56
403.17	1486.24
403.36	1448.79
403.55	1434.75
403.74	1565.82
403.93	1544.75
404.13	1537.73
404.32	1486.24
404.51	1521.35
404.70	1572.84
404.89	1540.07
405.09	1638.38
405.28	1511.99
405.47	1650.08
405.66	1624.33
405.85	1685.19
406.05	1645.40
406.24	1790.51
406.43	1668.80
406.62	1753.06
406.81	1666.46
407.00	1710.93
407.20	1685.19
407.39	1729.66
407.58	1746.04
407.77	1764.76
407.96	1818.60
408.15	1809.23
408.34	1764.76
408.54	1921.58
408.73	1811.57
408.92	1849.02
409.11	1823.28
409.30	1966.05
409.49	1907.54
409.68	1914.56
409.87	1818.60
410.07	1916.90
410.26	1895.83
410.45	1937.96
410.64	1912.22
410.83	2052.65
411.02	1994.14
411.21	2015.20
411.40	1944.99
411.59	2118.18
411.78	2165.00
411.98	2157.97
412.17	2157.97
412.36	2176.70
412.55	2202.44
412.74	2195.42
412.93	2246.91
413.12	2157.97
413.31	2172.02
413.50	2221.17
413.69	2181.38
413.88	2445.86
414.07	2258.62
414.26	2326.49
414.45	2385.01
414.64	2422.45
414.83	2417.77
415.02	2509.05
415.22	2602.68
415.41	2459.90
415.60	2525.44
415.79	2555.86
415.98	2553.52
416.17	2590.97
416.36	2567.57
416.55	2541.82
416.74	2597.99
416.93	2661.19
417.12	2670.55
417.31	2672.89
417.50	2794.60
417.69	2810.98
417.88	2775.88
418.07	2761.83
418.26	2892.90
418.45	2789.92
418.64	2895.24
418.83	2832.05
419.02	2904.60
419.21	2839.07
419.39	2935.03
419.58	2932.69
419.77	2799.28
419.96	3056.74
420.15	2958.44
420.34	2986.52
420.53	3049.72
420.72	3019.29
420.91	3131.64
421.10	3091.85
421.29	3197.17
421.48	3117.59
421.67	3152.70
421.86	3122.27
422.05	3096.53
422.24	3105.89
422.43	3096.53
422.61	3229.94
422.80	3241.64
422.99	3251.00
423.18	3215.90
423.37	3295.47
423.56	3215.90
423.75	3248.66
423.94	3234.62
424.13	3164.40
424.32	3035.67
424.50	3239.30
424.69	3419.52
424.88	3335.26
425.07	3307.18
425.26	3185.47
425.45	3148.02
425.64	3176.11
425.83	3262.71
426.01	3428.88
426.20	3283.77
426.39	3265.05
426.58	3358.67
426.77	3337.60
426.96	3201.85
427.15	3356.33
427.33	3375.05
427.52	3300.16
427.71	3426.54
427.90	3403.14
428.09	3424.20
428.28	3480.38
428.46	3557.61
428.65	3442.93
428.84	3700.39
429.03	3616.13
429.22	3609.11
429.40	3569.32
429.59	3599.74
429.78	3471.01
429.97	3501.44
430.16	3637.19
430.34	3637.19
430.53	3669.96
430.72	3737.84
430.91	3700.39
431.10	3566.98
431.28	3695.71
431.47	3742.52
431.66	3833.80
431.85	3630.17
432.03	3754.22
432.22	3859.54
432.41	3861.88
432.60	3796.35
432.79	3988.27
432.97	3992.95
433.16	3946.14
433.35	3936.78
433.54	3948.48
433.72	4004.66
433.91	3976.57
434.10	4095.94
434.28	3974.23
434.47	3985.93
434.66	4086.58
434.85	4117.00
435.03	4142.75
435.22	4039.76
435.41	4234.03
435.59	4187.22
435.78	4311.27
435.97	4166.15
436.16	4187.22
436.34	4205.94
436.53	4091.26
436.72	4362.76
436.90	4051.47
437.09	4397.87
437.28	4114.66
437.46	4161.47
437.65	4210.62
437.84	4306.59
438.02	4353.40
438.21	4379.14
438.40	4369.78
438.58	4409.57
438.77	4500.85
438.96	4484.47
439.14	4587.45
439.33	4704.48
439.52	4634.26
439.70	4737.24
439.89	4739.58
440.08	4770.01
440.26	4746.61
440.45	4695.11
440.63	4830.87
440.82	4873.00
441.01	4793.42
441.19	4891.72
441.38	5107.05
441.57	4983.00
441.75	5114.07
441.94	5226.42
442.12	5228.76
442.31	5057.90
442.50	5111.73
442.68	5083.64
442.87	5308.34
443.05	5163.22
443.24	5315.36
443.43	5116.41
443.61	5275.57
443.80	5488.56
443.98	5172.58
444.17	5039.17
444.35	5240.46
444.54	5437.06
444.73	5287.27
444.91	5298.97
445.10	5338.76
445.28	5240.46
445.47	5364.51
445.65	5334.08
445.84	5336.42
446.02	5420.68
446.21	5420.68
446.39	5390.25
446.58	5526.00
446.77	5233.44
446.95	5425.36
447.14	5355.15
447.32	5341.10
447.51	5404.30
447.69	5376.21
447.88	5526.00
448.06	5537.71
448.25	5203.01
448.43	5416.00
448.62	5390.25
448.80	5469.83
448.99	5434.72
449.17	5696.86
449.36	5633.67
449.54	5469.83
449.73	5778.78
449.91	5748.36
450.10	5746.02
450.28	5706.23
450.46	5846.66
450.65	5790.49
450.83	5830.27
451.02	5818.57
451.20	5951.98
451.39	5720.27
451.57	5806.87
451.76	5832.62
451.94	5863.04
452.13	5877.09
452.31	5837.30
452.49	6003.47
452.68	5970.71
452.86	5968.37
453.05	6122.84
453.23	6094.76
453.42	5895.81
453.60	6026.88
453.78	6129.86
453.97	6038.58
454.15	6073.69
454.34	6078.37
454.52	6101.78
454.70	6157.95
454.89	6115.82
455.07	6120.50
455.26	6284.34
455.44	6146.25
455.62	6183.70
455.81	6406.05
455.99	6448.18
456.17	6328.81
456.36	6377.96
456.54	6609.67
456.73	6506.69
456.91	6808.62
457.09	6537.12
457.28	6642.44
457.46	6661.16
457.64	6677.55
457.83	6684.57
458.01	6562.86
458.19	6792.23
458.38	6532.44
458.56	6822.66
458.74	6581.59
458.93	6920.96
459.11	6757.13
459.29	6881.18
459.48	6937.35
459.66	6895.22
459.84	6974.80
460.03	6930.33
460.21	6832.02
460.39	6949.05
460.57	7246.30
460.76	7183.10
460.94	7101.19
461.12	7002.88
461.31	7005.22
461.49	7023.95
461.67	7234.60
461.85	7227.57
462.04	7089.48
462.22	7290.77
462.40	7332.90
462.59	7133.95
462.77	7372.69
462.95	7368.01
463.13	7346.94
463.32	7410.14
463.50	7442.90
463.68	7435.88
463.86	7737.81
464.05	7314.17
464.23	7571.63
464.41	7592.70
464.59	7426.52
464.78	7564.61
464.96	7691.00
465.14	7639.51
465.32	7702.70
465.50	7522.48
465.69	7557.59
465.87	7555.25
466.05	7606.74
466.23	7681.64
466.41	7838.45
466.60	7747.17
466.78	7672.28
466.96	7742.49
467.14	7777.60
467.32	7709.72
467.51	7843.14
467.69	7683.98
467.87	7810.37
468.05	7868.88
468.23	7737.81
468.41	7709.72
468.60	8128.68
468.78	7859.52
468.96	8042.08
469.14	8088.89
469.32	8135.70
469.50	8126.34
469.69	8140.38
469.87	8358.05
470.05	8159.11
470.23	8259.75
470.41	8306.56
470.59	8224.64
470.77	8271.45
470.95	8341.67
471.14	8641.26
471.32	8224.64
471.50	8786.37
471.68	8374.44
471.86	8505.51
472.04	8571.04
472.22	8744.24
472.40	8676.37
472.58	8549.98
472.77	8734.88
472.95	8788.71
473.13	9064.89
473.31	8767.65
473.49	8809.78
473.67	9170.22
473.85	9015.74
474.03	9095.32
474.21	9252.14
474.39	9242.78
474.57	9123.41
474.75	9231.07
474.93	9135.11
475.12	9357.46
475.30	9584.49
475.48	9462.79
475.66	9582.15
475.84	9666.41
476.02	9771.74
476.20	9556.41
476.38	9741.31
476.56	9928.55
476.74	10017.49
476.92	9930.89
477.10	10136.86
477.28	10218.78
477.46	10097.07
477.64	10157.92
477.82	10214.10
478.00	10436.45
478.18	10391.98
478.36	10572.20
478.54	10789.87
478.72	10750.08
478.90	10883.49
479.08	10991.16
479.26	10832.00
479.44	11103.50
479.62	11147.97
479.80	11192.44
479.98	11274.36
480.16	11655.87
480.34	11517.78
480.52	11431.18
480.70	11522.46
480.88	11604.38
481.06	11585.65
481.24	11777.58
481.41	11850.13
481.59	11976.52
481.77	12149.72
481.95	12304.20
482.13	12315.90
482.31	12423.56
482.49	12432.93
482.67	12706.77
482.85	12648.26
483.03	12854.22
483.21	12896.35
483.39	12886.99
483.57	13083.59
483.74	13055.51
483.92	13071.89
484.10	13095.30
484.28	13678.09
484.46	13818.52
484.64	13940.23
484.82	13563.40
485.00	13795.12
485.18	14115.77
485.35	14099.39
485.53	14111.09
485.71	14136.84
485.89	14448.13
486.07	14445.79
486.25	14249.18
486.43	14693.88
486.61	14726.65
486.78	14974.75
486.96	14967.73
487.14	15023.90
487.32	15176.03
487.50	15463.92
487.68	15550.52
487.85	15779.89
488.03	15793.94
488.21	16053.73
488.39	15737.76
488.57	16053.73
488.75	16219.91
488.92	16554.61
489.10	16835.47
489.28	16339.28
489.46	16601.42
489.64	16959.52
489.81	17261.45
489.99	16922.07
490.17	17261.45
490.35	17554.02
490.53	17406.56
490.70	17841.90
490.88	17486.14
491.06	17661.68
491.24	17937.87
491.41	18099.36
491.59	18059.57
491.77	17975.31
491.95	18485.55
492.13	18527.68
492.30	18579.17
492.48	18434.06
492.66	18824.93
492.84	18504.28
493.01	19028.56
493.19	18831.95
493.37	19014.51
493.54	19218.14
493.72	19396.02
493.90	19386.66
494.08	19625.39
494.25	19449.85
494.43	19859.45
494.61	19852.42
494.79	20013.92
494.96	19814.98
495.14	20217.55
495.32	20542.88
495.49	20599.05
495.67	20439.90
495.85	20798.00
496.02	20713.74
496.20	21123.33
496.38	20989.92
496.55	21212.28
496.73	21598.46
496.91	21394.84
497.09	21476.76
497.26	21589.10
497.44	21404.20
497.62	21528.25
497.79	21979.97
497.97	22071.25
498.14	22061.89
498.32	22387.22
498.50	22249.13
498.67	22410.63
498.85	22485.53
499.03	22656.39
499.20	22609.58
499.38	22834.27
499.56	22904.48
499.73	23129.17
499.91	23197.05
500.08	23484.94
500.26	23044.91
500.44	23323.44
500.61	23248.54
500.79	23122.15
500.97	23754.10
501.14	23810.27
501.32	23562.17
501.49	23711.97
501.67	24226.89
501.84	24240.93
502.02	24238.59
502.20	23995.17
502.37	24297.10
502.55	24219.86
502.72	24297.10
502.90	24362.64
503.07	24100.50
503.25	24486.68
503.43	24533.50
503.60	24926.71
503.78	24364.98
503.95	24915.00
504.13	25057.78
504.30	25095.22
504.48	24795.64
504.65	25158.42
504.83	25165.44
505.01	25560.99
505.18	25488.43
505.36	25830.15
505.53	25640.57
505.71	25893.35
505.88	25759.94
506.06	26185.91
506.23	26010.37
506.41	26022.08
506.58	25926.11
506.76	26349.75
506.93	26623.59
507.11	26211.66
507.28	26429.33
507.46	26443.37
507.63	26714.87
507.81	26534.65
507.98	26359.11
508.16	26883.39
508.33	27395.97
508.50	27056.59
508.68	27264.90
508.85	27253.20
509.03	27178.30
509.20	26972.33
509.38	27515.34
509.55	27693.22
509.73	27733.01
509.90	27843.01
510.08	27599.60
510.25	27690.88
510.42	27934.29
510.60	28154.30
510.77	28308.78
510.95	28226.86
511.12	28144.94
511.30	28261.97
511.47	28580.28
511.64	28168.35
511.82	28620.07
511.99	28603.69
512.17	28402.40
512.34	28863.49
512.51	29057.75
512.69	28851.78
512.86	28844.76
513.04	28996.90
513.21	29191.16
513.38	29551.60
513.56	29067.11
513.73	29376.06
513.90	29631.18
514.08	29221.59
514.25	29479.05
514.43	29907.37
514.60	29905.02
514.77	29844.17
514.95	29998.65
515.12	29713.10
515.29	29654.59
515.47	29930.77
515.64	30099.29
515.81	30068.86
515.99	30024.39
516.16	30429.30
516.33	30515.90
516.51	30352.07
516.68	30703.15
516.85	30272.49
517.03	30696.13
517.20	30813.15
517.37	31075.29
517.54	30972.31
517.72	30930.18
517.89	30551.01
518.06	31325.73
518.24	30913.80
518.41	31178.28
518.58	31061.25
518.75	31187.64
518.93	31281.26
519.10	31786.82
519.27	31854.69
519.45	31529.36
519.62	31789.16
519.79	32032.57
519.96	31463.82
520.14	32187.05
520.31	31571.49
520.48	32039.59
520.65	31983.42
520.83	32297.05
521.00	32662.18
521.17	32261.94
521.34	32449.19
521.52	32070.02
521.69	32463.23
521.86	32491.32
522.03	32797.93
522.20	32783.88
522.38	32975.81
522.55	32737.07
522.72	32940.70
522.89	33186.46
523.07	33586.69
523.24	32964.10
523.41	33151.35
523.58	33158.37
523.75	33528.17
523.92	33752.87
524.10	33422.85
524.27	33692.01
524.44	33823.08
524.61	33556.26
524.78	33656.90
524.96	33954.15
525.13	33888.62
525.30	34019.69
525.47	34377.79
525.64	34108.63
525.81	34022.03
525.98	34153.10
526.16	34199.91
526.33	33500.09
526.50	34419.92
526.67	34174.16
526.84	33977.56
527.01	34382.47
527.18	34445.66
527.36	34553.33
527.53	34625.89
527.70	34775.68
527.87	34700.78
528.04	34845.90
528.21	35014.41
528.38	34668.02
528.55	35014.41
528.72	35395.92
528.89	34960.58
529.07	34609.50
529.24	35136.12
529.41	35452.09
529.58	35241.45
529.75	35526.99
529.92	35316.34
530.09	35283.58
530.26	35569.12
530.43	35952.97
530.60	35615.93
530.77	35271.87
530.94	35323.36
531.11	35257.83
531.28	35599.55
531.46	35379.54
531.63	35831.26
531.80	36189.36
531.97	35749.34
532.14	36135.53
532.31	35908.50
532.48	36425.76
532.65	36275.96
532.82	36156.60
532.99	36170.64
533.16	36025.53
533.33	36582.57
533.50	36327.45
533.67	36786.20
533.84	36114.47
534.01	36598.96
534.18	36664.49
534.35	37020.25
534.52	36966.42
534.69	37184.09
534.86	36968.76
535.03	36842.37
535.20	37099.83
535.37	37598.37
535.54	37099.83
535.71	36868.12
535.88	37191.11
536.05	37537.51
536.22	37305.80
536.38	36996.85
536.55	37242.60
536.72	36980.46
536.89	37404.10
537.06	37457.93
537.23	37907.32
537.40	37525.81
537.57	37481.34
537.74	37214.52
537.91	38089.88
538.08	37743.48
538.25	37539.85
538.42	37940.08
538.59	37867.53
538.75	37940.08
538.92	38143.71
539.09	38146.05
539.26	38211.59
539.43	37895.61
539.60	38188.18
539.77	38183.50
539.94	38712.46
540.11	38281.80
540.28	38515.86
540.44	38340.32
540.61	38375.42
540.78	38064.13
540.95	38293.50
541.12	38314.57
541.29	38445.64
541.46	38705.44
541.62	38642.24
541.79	38543.94
541.96	38134.35
542.13	38630.54
542.30	38600.12
542.47	38869.28
542.63	38824.81
542.80	39339.72
542.97	39482.50
543.14	39257.81
543.31	39171.21
543.48	38866.94
543.64	39887.41
543.81	39775.06
543.98	39330.36
544.15	39934.22
544.32	39222.70
544.48	40184.66
544.65	40030.18
544.82	39866.34
544.99	39618.25
545.16	39529.31
545.32	40165.93
545.49	40201.04
545.66	40231.47
545.83	40079.33
546.00	40016.14
546.16	39859.32
546.33	40142.53
546.50	39798.47
546.67	40224.45
546.83	39885.07
547.00	39845.28
547.17	40423.39
547.34	40023.16
547.50	40378.92
547.67	40832.99
547.84	40655.11
548.00	40297.00
548.17	40650.42
548.34	40453.82
548.51	40676.17
548.67	40767.45
548.84	40872.78
549.01	40474.88
549.18	40563.82
549.34	40917.25
549.51	41254.28
549.68	41043.63
549.84	40823.62
550.01	40996.82
550.18	40584.89
550.34	40954.69
550.51	41062.36
550.68	41305.77
550.84	41006.19
551.01	41193.43
551.18	40741.71
551.34	41125.55
551.51	40889.16
551.68	41141.94
551.84	41102.15
552.01	41102.15
552.18	41216.83
552.34	41221.52
552.51	41155.98
552.68	41228.54
552.84	41581.96
553.01	41645.15
553.18	41600.68
553.34	41439.18
553.51	41242.58
553.67	41909.63
553.84	41956.44
554.01	41663.88
554.17	41926.02
554.34	41949.42
554.51	41666.22
554.67	42045.38
554.84	41865.16
555.00	42029.00
555.17	41808.99
555.33	41996.23
555.50	41951.76
555.67	42054.75
555.83	41897.93
556.00	42443.27
556.16	42686.69
556.33	42452.64
556.50	42195.18
556.66	42459.66
556.83	42043.04
556.99	42663.28
557.16	42749.88
557.32	42494.77
557.49	43096.28
557.65	42342.63
557.82	42660.94
557.98	42337.95
558.15	42450.30
558.32	42724.14
558.48	42307.52
558.65	42562.64
558.81	42572.00
558.98	42969.90
559.14	42473.70
559.31	42665.63
559.47	42829.46
559.64	42731.16
559.80	42890.32
559.97	43103.31
560.13	42731.16
560.30	42843.51
560.46	43056.50
560.63	43236.72
560.79	42972.24
560.96	43033.09
561.12	42719.46
561.29	43105.65
561.45	43061.18
561.61	42796.70
561.78	43171.18
561.94	42993.30
562.11	42986.28
562.27	43112.67
562.44	43285.87
562.60	43285.87
562.77	43250.76
562.93	43512.90
563.10	43627.59
563.26	43021.39
563.42	43779.72
563.59	43084.58
563.75	43143.09
563.92	43335.02
564.08	43543.33
564.24	43377.15
564.41	43611.20
564.57	43665.03
564.74	43255.44
564.90	43077.56
565.07	43512.90
565.23	43388.85
565.39	43606.52
565.56	43491.83
565.72	43351.40
565.88	43889.73
566.05	43882.70
566.21	43412.26
566.38	44060.58
566.54	43938.88
566.70	43945.90
566.87	44093.35
567.03	43702.48
567.19	43892.07
567.36	43976.33
567.52	43838.23
567.68	44142.50
567.85	43796.10
568.01	44037.18
568.17	43714.19
568.34	43915.47
568.50	44053.56
568.66	43863.98
568.83	43922.49
568.99	43981.01
569.15	43955.26
569.32	44196.34
569.48	43676.74
569.64	44547.42
569.81	44179.95
569.97	44362.51
570.13	44002.07
570.30	43728.23
570.46	44123.78
570.62	43999.73
570.78	44053.56
570.95	43838.23
571.11	44318.04
571.27	44219.74
571.43	43976.33
571.60	44154.21
571.76	44137.82
571.92	44266.55
572.09	43737.59
572.25	43927.17
572.41	44224.42
572.57	44268.89
572.74	44818.92
572.90	44350.81
573.06	44486.56
573.22	44074.63
573.38	44612.95
573.55	44547.42
573.71	44769.77
573.87	44320.38
574.03	44322.72
574.20	44268.89
574.36	44357.83
574.52	44304.00
574.68	44582.52
574.84	44392.94
575.01	44425.71
575.17	44222.08
575.33	44341.45
575.49	44301.66
575.65	44680.83
575.82	44327.41
575.98	44381.24
576.14	44327.41
576.30	44725.30
576.46	44481.88
576.62	44362.51
576.79	44313.36
576.95	43852.28
577.11	44170.59
577.27	44491.24
577.43	44577.84
577.59	44619.97
577.75	44196.34
577.92	44240.81
578.08	44570.82
578.24	44395.28
578.40	44652.74
578.56	44521.67
578.72	44821.26
578.88	45003.82
579.04	44622.31
579.21	44648.06
579.37	44645.72
579.53	44516.99
579.69	44416.35
579.85	44816.58
580.01	44516.99
580.17	44477.20
580.33	44519.33
580.49	44734.66
580.65	44294.64
580.82	44790.83
580.98	44505.29
581.14	44505.29
581.30	45024.89
581.46	44619.97
581.62	44308.68
581.78	44203.36
581.94	44542.74
582.10	44374.22
582.26	44732.32
582.42	44411.67
582.58	44793.17
582.74	44549.76
582.90	44498.26
583.06	44811.90
583.22	44109.74
583.38	44570.82
583.54	44933.60
583.70	44779.13
583.86	44666.78
584.02	44533.37
584.18	44875.09
584.34	44875.09
584.50	44755.72
584.66	45027.23
584.82	45078.72
584.98	45067.02
585.14	44795.51
585.30	44786.15
585.46	44746.36
585.62	44580.18
585.78	44573.16
585.94	44533.37
586.10	44655.08
586.26	44652.74
586.42	44868.07
586.58	44903.18
586.74	45118.51
586.90	44708.91
587.06	44591.89
587.22	44926.58
587.38	44765.09
587.54	44526.35
587.70	45041.27
587.86	45041.27
588.02	44891.48
588.18	44751.04
588.34	44952.33
588.49	44767.43
588.65	44495.92
588.81	44971.05
588.97	44734.66
589.13	44767.43
589.29	44863.39
589.45	44767.43
589.61	45228.51
589.77	45003.82
589.93	44744.02
590.08	44884.45
590.24	45249.58
