SpectraSuite Data File
++++++++++++++++++++++++++++++++++++
Date: Fri Oct 25 10:44:52 EDT 2013
User: price-jones
Dark Spectrum Present: No
Reference Spectrum Present: No
Number of Sampled Component Spectra: 1
Spectrometers: USB2+H05261
Integration Time (usec): 100000 (USB2+H05261)
Spectra Averaged: 1 (USB2+H05261)
Boxcar Smoothing: 0 (USB2+H05261)
Correct for Electrical Dark: No (USB2+H05261)
Strobe/Lamp Enabled: No (USB2+H05261)
Correct for Detector Non-linearity: No (USB2+H05261)
Correct for Stray Light: No (USB2+H05261)
Number of Pixels in Processed Spectrum: 2048
>>>>>Begin Processed Spectral Data<<<<<
365.73	161.50
365.92	161.50
366.12	161.50
366.32	16.38
366.52	63.19
366.72	23.41
366.91	0.00
367.11	0.00
367.31	21.06
367.51	65.54
367.70	7.02
367.90	0.00
368.10	0.00
368.30	0.00
368.49	39.79
368.69	56.17
368.89	114.69
369.09	72.56
369.28	91.28
369.48	81.92
369.68	63.19
369.87	98.30
370.07	112.35
370.27	128.73
370.47	229.37
370.66	360.44
370.86	369.80
371.06	442.36
371.25	524.28
371.45	428.32
371.65	470.45
371.84	454.06
372.04	447.04
372.24	458.74
372.44	454.06
372.63	475.13
372.83	477.47
373.03	503.22
373.22	456.40
373.42	557.05
373.62	552.37
373.81	500.87
374.01	578.11
374.21	596.84
374.40	557.05
374.60	552.37
374.79	587.47
374.99	557.05
375.19	594.50
375.38	606.20
375.58	547.69
375.78	561.73
375.97	552.37
376.17	641.31
376.37	603.86
376.56	624.92
376.76	592.16
376.95	638.97
377.15	601.52
377.35	606.20
377.54	589.82
377.74	575.77
377.93	594.50
378.13	648.33
378.33	620.24
378.52	601.52
378.72	664.71
378.91	582.79
379.11	566.41
379.31	645.99
379.50	613.22
379.70	720.88
379.89	657.69
380.09	561.73
380.28	615.56
380.48	683.44
380.68	613.22
380.87	650.67
381.07	653.01
381.26	648.33
381.46	545.34
381.65	671.73
381.85	655.35
382.04	650.67
382.24	669.39
382.43	685.78
382.63	685.78
382.83	638.97
383.02	798.12
383.22	748.97
383.41	688.12
383.61	692.80
383.80	744.29
384.00	692.80
384.19	763.01
384.39	713.86
384.58	683.44
384.78	695.14
384.97	727.91
385.17	753.65
385.36	781.74
385.56	713.86
385.75	720.88
385.95	781.74
386.14	805.14
386.34	809.83
386.53	814.51
386.72	730.25
386.92	828.55
387.11	751.31
387.31	856.64
387.50	755.99
387.70	901.11
387.89	812.17
388.09	727.91
388.28	847.27
388.48	851.96
388.67	908.13
388.86	877.70
389.06	784.08
389.25	903.45
389.45	968.98
389.64	898.77
389.84	943.24
390.03	938.55
390.22	863.66
390.42	870.68
390.61	985.37
390.81	910.47
391.00	964.30
391.19	985.37
391.39	966.64
391.58	959.62
391.78	889.40
391.97	943.24
392.16	957.28
392.36	987.71
392.55	940.90
392.75	1053.24
392.94	990.05
393.13	1004.09
393.33	968.98
393.52	990.05
393.71	973.66
393.91	1004.09
394.10	985.37
394.29	1142.18
394.49	964.30
394.68	1153.88
394.88	1069.62
395.07	1064.94
395.26	1184.31
395.46	1095.37
395.65	1128.14
395.84	1151.54
396.04	1221.76
396.23	1083.67
396.42	1034.52
396.62	1125.80
396.81	1156.22
397.00	1100.05
397.19	1193.67
397.39	1107.07
397.58	1289.64
397.77	1224.10
397.97	1238.14
398.16	1261.55
398.35	1320.06
398.55	1266.23
398.74	1219.42
398.93	1310.70
399.12	1322.40
399.32	1334.11
399.51	1423.05
399.70	1348.15
399.90	1397.30
400.09	1334.11
400.28	1453.47
400.47	1397.30
400.67	1448.79
400.86	1472.20
401.05	1385.60
401.24	1383.26
401.44	1465.18
401.63	1455.81
401.82	1540.07
402.01	1500.28
402.21	1502.62
402.40	1526.03
402.59	1479.22
402.78	1542.41
402.97	1497.94
403.17	1533.05
403.36	1657.10
403.55	1563.48
403.74	1713.27
403.93	1666.46
404.13	1713.27
404.32	1556.46
404.51	1631.35
404.70	1650.08
404.89	1603.27
405.09	1753.06
405.28	1727.32
405.47	1748.38
405.66	1771.79
405.85	1757.74
406.05	1776.47
406.24	1802.21
406.43	1837.32
406.62	1825.62
406.81	1881.79
407.00	1884.13
407.20	1771.79
407.39	1816.26
407.58	2090.10
407.77	1930.94
407.96	1998.82
408.15	1973.07
408.34	2001.16
408.54	1954.35
408.73	2012.86
408.92	1935.62
409.11	2129.89
409.30	1987.11
409.49	2094.78
409.68	2024.56
409.87	2047.97
410.07	2139.25
410.26	2111.16
410.45	2099.46
410.64	2115.84
410.83	2181.38
411.02	2195.42
411.21	2333.51
411.40	2291.38
411.59	2303.09
411.78	2256.28
411.98	2303.09
412.17	2321.81
412.36	2394.37
412.55	2286.70
412.74	2422.45
412.93	2462.24
413.12	2392.03
413.31	2551.18
413.50	2478.63
413.69	2523.10
413.88	2647.15
414.07	2525.44
414.26	2682.25
414.45	2607.36
414.64	2705.66
414.83	2717.36
415.02	2808.64
415.22	2700.98
415.41	2827.37
415.60	2733.75
415.79	2855.45
415.98	2799.28
416.17	2960.78
416.36	2871.84
416.55	2885.88
416.74	2981.84
416.93	2827.37
417.12	3002.91
417.31	2991.20
417.50	3049.72
417.69	3089.51
417.88	3028.65
418.07	2923.33
418.26	3227.60
418.45	3110.57
418.64	3337.60
418.83	3171.43
419.02	3197.17
419.21	3162.06
419.39	3119.93
419.58	3101.21
419.77	3138.66
419.96	3218.24
420.15	3295.47
420.34	3269.73
420.53	3375.05
420.72	3391.44
420.91	3342.28
421.10	3473.36
421.29	3452.29
421.48	3400.80
421.67	3487.40
421.86	3461.65
422.05	3522.51
422.24	3311.86
422.43	3414.84
422.61	3543.57
422.80	3517.83
422.99	3454.63
423.18	3431.23
423.37	3597.40
423.56	3471.01
423.75	3529.53
423.94	3449.95
424.13	3454.63
424.32	3286.11
424.50	3662.94
424.69	3522.51
424.88	3564.64
425.07	3475.70
425.26	3515.48
425.45	3559.95
425.64	3463.99
425.83	3459.31
426.01	3667.62
426.20	3658.26
426.39	3569.32
426.58	3592.72
426.77	3669.96
426.96	3510.80
427.15	3574.00
427.33	3721.45
427.52	3627.83
427.71	3721.45
427.90	3833.80
428.09	3707.41
428.28	3885.29
428.46	3974.23
428.65	3796.35
428.84	3948.48
429.03	3857.20
429.22	3794.01
429.40	3723.79
429.59	3871.25
429.78	3637.19
429.97	3737.84
430.16	3850.18
430.34	3737.84
430.53	3819.75
430.72	3915.72
430.91	3892.31
431.10	4023.38
431.28	4046.79
431.47	4285.52
431.66	4290.20
431.85	4086.58
432.03	4149.77
432.22	4301.90
432.41	4060.83
432.60	4194.24
432.79	4196.58
432.97	4313.61
433.16	4273.82
433.35	4245.73
433.54	4344.03
433.72	4440.00
433.91	4301.90
434.10	4318.29
434.28	4320.63
434.47	4479.79
434.66	4482.13
434.85	4550.00
435.03	4465.74
435.22	4526.60
435.41	4655.33
435.59	4573.41
435.78	4528.94
435.97	4674.05
436.16	4592.13
436.34	4557.02
436.53	4603.83
436.72	4779.37
436.90	4669.37
437.09	4613.20
437.28	4395.53
437.46	4568.73
437.65	4688.09
437.84	4819.16
438.02	4887.04
438.21	4585.11
438.40	4765.33
438.58	4870.65
438.77	4882.36
438.96	4940.87
439.14	5097.69
439.33	5181.95
439.52	5151.52
439.70	5020.45
439.89	5093.01
440.08	5114.07
440.26	5214.71
440.45	5088.32
440.63	5348.12
440.82	5359.83
441.01	5434.72
441.19	5437.06
441.38	5495.58
441.57	5481.53
441.75	5418.34
441.94	5671.12
442.12	5778.78
442.31	5720.27
442.50	5879.43
442.68	5647.71
442.87	5652.39
443.05	5764.74
443.24	5811.55
443.43	5717.93
443.61	5898.15
443.80	6073.69
443.98	5816.23
444.17	5659.42
444.35	5856.02
444.54	5970.71
444.73	5996.45
444.91	5900.49
445.10	5912.19
445.28	5783.46
445.47	5736.65
445.65	5753.04
445.84	6087.73
446.02	6012.84
446.21	5834.96
446.39	6005.81
446.58	5973.05
446.77	6040.92
446.95	5860.70
447.14	6204.76
447.32	6069.01
447.51	6183.70
447.69	6087.73
447.88	6169.65
448.06	6101.78
448.25	6066.67
448.43	6153.27
448.62	6118.16
448.80	6029.22
448.99	6141.57
449.17	5980.07
449.36	6127.52
449.54	6197.74
449.73	6174.33
449.91	6363.92
450.10	6312.42
450.28	6424.77
450.46	6487.96
450.65	6375.62
450.83	6314.77
451.02	6534.78
451.20	6462.22
451.39	6555.84
451.57	6469.24
451.76	6558.18
451.94	6431.79
452.13	6771.17
452.31	6569.88
452.49	6445.84
452.68	6569.88
452.86	6380.30
453.05	6637.76
453.23	6553.50
453.42	6691.59
453.60	6464.56
453.78	6733.72
453.97	6649.46
454.15	6499.67
454.34	6710.32
454.52	6609.67
454.70	6773.51
454.89	7082.46
455.07	6703.29
455.26	6764.15
455.44	6963.09
455.62	6993.52
455.81	6801.60
455.99	7042.67
456.17	7059.06
456.36	7178.42
456.54	7194.81
456.73	7258.00
456.91	7428.86
457.09	7330.56
457.28	7358.64
457.46	7239.28
457.64	7503.76
457.83	7201.83
458.01	7255.66
458.19	7428.86
458.38	7440.56
458.56	7700.36
458.74	7183.10
458.93	7424.18
459.11	7550.57
459.29	7538.87
459.48	7494.40
459.66	7520.14
459.84	7616.10
460.03	7770.58
460.21	7648.87
460.39	7630.15
460.57	7536.52
460.76	7777.60
460.94	7981.23
461.12	7775.26
461.31	7772.92
461.49	7866.54
461.67	7744.83
461.85	8018.68
462.04	7817.39
462.22	8208.26
462.40	8140.38
462.59	8037.40
462.77	8081.87
462.95	8042.08
463.13	8060.80
463.32	8084.21
463.50	8116.98
463.68	8124.00
463.86	8269.11
464.05	8053.78
464.23	8217.62
464.41	8152.09
464.59	8067.83
464.78	8379.12
464.96	8320.60
465.14	8229.32
465.32	8500.83
465.50	8542.96
465.69	8449.33
465.87	8601.47
466.05	8381.46
466.23	8287.84
466.41	8512.53
466.60	8514.87
466.78	8449.33
466.96	8542.96
467.14	8528.91
467.32	8664.66
467.51	8814.46
467.69	8491.46
467.87	8526.57
468.05	8634.24
468.23	8489.12
468.41	8613.17
468.60	8697.43
468.78	8758.28
468.96	8769.99
469.14	8894.04
469.32	8835.52
469.50	8772.33
469.69	9100.00
469.87	8931.48
470.05	8931.48
470.23	9071.92
470.41	9081.28
470.59	8889.35
470.77	9179.58
470.95	8947.87
471.14	9441.72
471.32	9259.16
471.50	9341.08
471.68	9577.47
471.86	9336.40
472.04	9231.07
472.22	9628.96
472.40	9387.89
472.58	9586.83
472.77	9451.08
472.95	9647.69
473.13	10050.26
473.31	9479.17
473.49	9617.26
473.67	9657.05
473.85	9715.56
474.03	9816.21
474.21	10010.47
474.39	10270.27
474.57	9886.42
474.75	9984.73
474.93	10190.69
475.12	9912.17
475.30	10171.97
475.48	10085.37
475.66	10377.94
475.84	10141.54
476.02	10586.24
476.20	10427.09
476.38	10754.76
476.56	10834.34
476.74	10778.17
476.92	10677.52
477.10	10651.78
477.28	10934.98
477.46	11042.65
477.64	11187.76
477.82	11325.85
478.00	11754.17
478.18	11358.62
478.36	11295.43
478.54	11499.05
478.72	11611.40
478.90	11665.23
479.08	11625.44
479.26	11915.67
479.44	12058.44
479.62	12107.59
479.80	12049.08
479.98	12058.44
480.16	12341.64
480.34	12409.52
480.52	12341.64
480.70	12484.42
480.88	12287.81
481.06	12809.75
481.24	13011.04
481.41	13130.41
481.59	12968.91
481.77	12922.10
481.95	13069.55
482.13	13160.83
482.31	13193.60
482.49	13652.34
482.67	13467.44
482.85	13554.04
483.03	13720.22
483.21	14108.75
483.39	14328.76
483.57	13912.14
483.74	14298.33
483.92	14216.41
484.10	14193.01
484.28	14565.15
484.46	14941.98
484.64	14993.47
484.82	14839.00
485.00	15115.18
485.18	15014.54
485.35	15201.78
485.53	15206.46
485.71	15028.58
485.89	15431.15
486.07	15335.19
486.25	15304.76
486.43	15527.11
486.61	15651.16
486.78	15871.17
486.96	16093.52
487.14	16238.64
487.32	16470.35
487.50	16449.28
487.68	16734.83
487.85	16952.50
488.03	17406.56
488.21	17282.52
488.39	17046.12
488.57	17584.44
488.75	17406.56
488.92	17722.54
489.10	17888.71
489.28	17603.17
489.46	18129.79
489.64	17750.62
489.81	18607.26
489.99	18466.83
490.17	18609.60
490.35	18860.04
490.53	18827.27
490.70	19058.98
490.88	18824.93
491.06	19054.30
491.24	19056.64
491.41	19194.73
491.59	19211.12
491.77	19440.49
491.95	19737.74
492.13	19482.62
492.30	19875.83
492.48	19854.76
492.66	20236.27
492.84	19953.07
493.01	20582.67
493.19	20142.65
493.37	20587.35
493.54	20748.85
493.72	21018.01
493.90	20730.12
494.08	21050.78
494.25	21298.88
494.43	21525.91
494.61	21359.73
494.79	21584.42
494.96	21401.86
495.14	21743.58
495.32	22036.14
495.49	21577.40
495.67	22298.28
495.85	22199.98
496.02	22394.25
496.20	22412.97
496.38	22649.36
496.55	22490.21
496.73	23173.64
496.91	23185.35
497.09	23122.15
497.26	22815.54
497.44	23243.86
497.62	23433.44
497.79	23761.12
497.97	23435.78
498.14	23857.08
498.32	23599.62
498.50	23899.21
498.67	24081.77
498.85	24093.47
499.03	24189.44
499.20	24299.44
499.38	24465.62
499.56	24676.27
499.73	24512.43
499.91	24418.81
500.08	24573.28
500.26	24680.95
500.44	24601.37
500.61	24851.81
500.79	24601.37
500.97	24903.30
501.14	25060.12
501.32	25240.34
501.49	25022.67
501.67	25109.27
501.84	25455.67
502.02	25663.97
502.20	25902.71
502.37	25912.07
502.55	25837.17
502.72	25989.31
502.90	26363.79
503.07	25949.52
503.25	26029.10
503.43	26099.31
503.60	26300.60
503.78	26157.83
503.95	26597.85
504.13	26445.71
504.30	26698.49
504.48	26490.18
504.65	27164.26
504.83	26969.99
505.01	27129.15
505.18	27154.90
505.36	27173.62
505.53	27269.58
505.71	27498.95
505.88	27782.16
506.06	27615.98
506.23	27620.66
506.41	27461.51
506.58	27697.90
506.76	27489.59
506.93	27821.95
507.11	27494.27
507.28	27803.22
507.46	28065.36
507.63	27747.05
507.81	28276.01
507.98	28268.99
508.16	28418.78
508.33	28278.35
508.50	28893.91
508.68	28650.50
508.85	28793.27
509.03	28730.08
509.20	28786.25
509.38	28877.53
509.55	29535.22
509.73	29181.80
509.90	29188.82
510.08	29460.32
510.25	29518.84
510.42	29422.87
510.60	29970.56
510.77	29982.26
510.95	29699.06
511.12	29879.28
511.30	29900.34
511.47	30274.83
511.64	30345.05
511.82	30368.45
511.99	30150.78
512.17	30380.15
512.34	30211.64
512.51	30639.95
512.69	30668.04
512.86	30541.65
513.04	30682.08
513.21	30764.00
513.38	30742.94
513.56	30820.17
513.73	30513.56
513.90	30934.86
514.08	30738.26
514.25	31028.48
514.43	31140.83
514.60	30981.67
514.77	30878.69
514.95	31552.76
515.12	31330.41
515.29	31536.38
515.47	32032.57
515.64	31978.74
515.81	31412.33
515.99	31562.12
516.16	31646.38
516.33	31681.49
516.51	32245.56
516.68	31707.24
516.85	31405.31
517.03	31945.97
517.20	31938.95
517.37	32091.09
517.54	32545.15
517.72	32369.61
517.89	32261.94
518.06	31845.33
518.24	32191.73
518.41	32446.85
518.58	32568.55
518.75	32643.45
518.93	32985.17
519.10	32786.22
519.27	32837.72
519.45	32999.21
519.62	33301.14
519.79	33212.20
519.96	32917.29
520.14	33514.13
520.31	33385.40
520.48	32996.87
520.65	33577.33
520.83	34082.88
521.00	33848.83
521.17	33701.37
521.34	33860.53
521.52	33832.44
521.69	34075.86
521.86	34206.93
522.03	34237.36
522.20	34424.60
522.38	34408.22
522.55	34237.36
522.72	34897.39
522.89	34508.86
523.07	34717.17
523.24	34284.17
523.41	34513.54
523.58	34164.80
523.75	35154.85
523.92	34792.06
524.10	34906.75
524.27	35091.65
524.44	35199.32
524.61	35358.47
524.78	35543.38
524.96	35405.28
525.13	35323.36
525.30	35580.82
525.47	35690.83
525.64	35920.20
525.81	35388.90
525.98	35629.98
526.16	35253.15
526.33	35988.08
526.50	35800.83
526.67	35143.14
526.84	35339.75
527.01	35297.62
527.18	35655.72
527.36	36093.40
527.53	36212.77
527.70	36128.51
527.87	36491.29
528.04	36252.56
528.21	36320.43
528.38	36109.78
528.55	36439.80
528.72	36854.08
528.89	36987.49
529.07	36507.68
529.24	36404.69
529.41	36503.00
529.58	36783.86
529.75	36507.68
529.92	36793.22
530.09	36491.29
530.26	36952.38
530.43	37195.79
530.60	36797.90
530.77	37186.43
530.94	37338.57
531.11	37198.13
531.28	37167.71
531.46	37354.95
531.63	37514.11
531.80	37565.60
531.97	37343.25
532.14	37731.78
532.31	37060.04
532.48	37722.41
532.65	37787.95
532.82	37689.65
532.99	37291.76
533.16	37628.79
533.33	37722.41
533.50	38057.11
533.67	38270.10
533.84	37855.82
534.01	37968.17
534.18	37708.37
534.35	38242.01
534.52	37930.72
534.69	38230.31
534.86	38787.36
535.03	37846.46
535.20	38649.27
535.37	38632.88
535.54	38658.63
535.71	38340.32
535.88	39051.84
536.05	38368.40
536.22	38665.65
536.38	38649.27
536.55	38588.41
536.72	38597.77
536.89	38272.44
537.06	38536.92
537.23	39215.68
537.40	39203.97
537.57	39154.82
537.74	39068.22
537.91	39267.17
538.08	38700.76
538.25	38834.17
538.42	38836.51
538.59	39115.03
538.75	38703.10
538.92	39414.62
539.09	39000.35
539.26	39379.51
539.43	39512.92
539.60	39754.00
539.77	39349.09
539.94	39393.56
540.11	39379.51
540.28	39489.52
540.44	39161.84
540.61	39360.79
540.78	39332.70
540.95	39215.68
541.12	39632.29
541.29	39517.60
541.46	39648.68
541.62	39695.49
541.79	40327.43
541.96	39515.26
542.13	39866.34
542.30	39723.57
542.47	40058.27
542.63	40016.14
542.80	40170.61
542.97	40231.47
543.14	40730.00
543.31	40598.93
543.48	40535.74
543.64	41205.13
543.81	40818.94
543.98	40863.41
544.15	40741.71
544.32	41106.83
544.48	40795.54
544.65	40886.82
544.82	40662.13
544.99	40767.45
545.16	41141.94
545.32	40886.82
545.49	41471.95
545.66	41441.53
545.83	40914.90
546.00	41120.87
546.16	41350.24
546.33	40893.84
546.50	40737.02
546.67	41603.02
546.83	40692.55
547.00	40856.39
547.17	41280.03
547.34	41516.42
547.50	41558.55
547.67	41640.47
547.84	41490.68
548.00	41881.55
548.17	41916.65
548.34	41371.31
548.51	41977.51
548.67	42066.45
548.84	41486.00
549.01	41549.19
549.18	41588.98
549.34	42230.29
549.51	41890.91
549.68	41701.32
549.84	42003.25
550.01	42110.92
550.18	42398.80
550.34	41944.74
550.51	41865.16
550.68	42335.61
550.84	41638.13
551.01	42075.81
551.18	42370.72
551.34	42073.47
551.51	42120.28
551.68	42082.83
551.84	42211.56
552.01	41909.63
552.18	42543.92
552.34	42286.46
552.51	42082.83
552.68	42066.45
552.84	43138.41
553.01	42925.42
553.18	42520.51
553.34	42480.72
553.51	42895.00
553.67	42689.03
553.84	42698.39
554.01	43016.71
554.17	42913.72
554.34	42426.89
554.51	42478.38
554.67	42759.25
554.84	42899.68
555.00	42745.20
555.17	42780.31
555.33	42773.29
555.50	42539.24
555.67	42869.25
555.83	43040.11
556.00	43452.05
556.16	43168.84
556.33	43196.93
556.50	43086.92
556.66	43269.48
556.83	42815.42
556.99	42995.64
557.16	42969.90
557.32	43143.09
557.49	43557.37
557.65	42967.55
557.82	43234.38
557.98	43271.82
558.15	43157.14
558.32	43459.07
558.48	43543.33
558.65	43278.85
558.81	43370.13
558.98	43473.11
559.14	43428.64
559.31	43054.15
559.47	43079.90
559.64	43552.69
559.80	43887.39
559.97	43557.37
560.13	43276.51
560.30	43143.09
560.46	43393.53
560.63	43655.67
560.79	44006.75
560.96	43782.06
561.12	43842.92
561.29	43508.22
561.45	43583.12
561.61	43580.78
561.78	43716.53
561.94	43529.28
562.11	43246.08
562.27	43452.05
562.44	43910.79
562.60	44240.81
562.77	43990.37
562.93	44055.90
563.10	43519.92
563.26	43966.96
563.42	43714.19
563.59	43625.25
563.75	43552.69
563.92	43899.09
564.08	44053.56
564.24	43927.17
564.41	44341.45
564.57	44343.79
564.74	44325.07
564.90	43777.38
565.07	43777.38
565.23	44154.21
565.39	44320.38
565.56	44095.69
565.72	43737.59
565.88	43973.98
566.05	43529.28
566.21	44058.24
566.38	43667.37
566.54	44224.42
566.70	44168.25
566.87	44547.42
567.03	44149.53
567.19	44603.59
567.36	44060.58
567.52	44208.04
567.68	44678.49
567.85	44217.40
568.01	44039.52
568.17	43962.28
568.34	44126.12
568.50	44135.48
568.66	43938.88
568.83	44376.56
568.99	43938.88
569.15	44144.84
569.32	44158.89
569.48	43990.37
569.64	44837.64
569.81	44186.97
569.97	44699.55
570.13	44341.45
570.30	43501.20
570.46	44313.36
570.62	44154.21
570.78	44428.05
570.95	44250.17
571.11	44357.83
571.27	44327.41
571.43	44102.71
571.60	44287.62
571.76	43814.83
571.92	44296.98
572.09	44243.15
572.25	44179.95
572.41	44076.97
572.57	44453.79
572.74	45050.63
572.90	44652.74
573.06	44547.42
573.22	44528.69
573.38	43945.90
573.55	44236.12
573.71	44325.07
573.87	44563.80
574.03	43775.04
574.20	44673.81
574.36	44006.75
574.52	44577.84
574.68	44605.93
574.84	44552.10
575.01	43995.05
575.17	44505.29
575.33	44397.62
575.49	43833.55
575.65	44971.05
575.82	44535.71
575.98	44444.43
576.14	44704.23
576.30	44598.91
576.46	44226.76
576.62	44147.18
576.79	44610.61
576.95	44509.97
577.11	44224.42
577.27	44837.64
577.43	44250.17
577.59	44406.98
577.75	43910.79
577.92	44034.84
578.08	44327.41
578.24	44395.28
578.40	44392.94
578.56	44247.83
578.72	44568.48
578.88	44849.35
579.04	44711.25
579.21	44540.39
579.37	44472.52
579.53	44182.29
579.69	44212.72
579.85	44093.35
580.01	44549.76
580.17	44491.24
580.33	44711.25
580.49	44524.01
580.65	44655.08
580.82	44868.07
580.98	44748.70
581.14	44034.84
581.30	44704.23
581.46	44533.37
581.62	44657.42
581.78	44795.51
581.94	44839.98
582.10	44404.64
582.26	44776.79
582.42	44762.75
582.58	44851.69
582.74	44594.23
582.90	44505.29
583.06	44921.90
583.22	44847.00
583.38	44694.87
583.54	44821.26
583.70	44825.94
583.86	44634.02
584.02	44474.86
584.18	44699.55
584.34	44383.58
584.50	44561.46
584.66	44189.31
584.82	44374.22
584.98	44690.19
585.14	44732.32
585.30	44172.93
585.46	44467.84
585.62	44563.80
585.78	44678.49
585.94	44666.78
586.10	44439.75
586.26	44512.31
586.42	44676.15
586.58	44924.24
586.74	44844.66
586.90	44383.58
587.06	44208.04
587.22	45139.57
587.38	44495.92
587.54	44645.72
587.70	44690.19
587.86	44966.37
588.02	44774.45
588.18	44694.87
588.34	44612.95
588.49	44629.34
588.65	44091.01
588.81	43882.70
588.97	44655.08
589.13	44521.67
589.29	44865.73
589.45	44701.89
589.61	44615.29
589.77	45008.50
589.93	45059.99
590.08	45450.86
590.24	44863.39
590.40	45076.38
