SpectraSuite Data File
++++++++++++++++++++++++++++++++++++
Date: Fri Oct 25 10:44:15 EDT 2013
User: price-jones
Dark Spectrum Present: No
Reference Spectrum Present: No
Number of Sampled Component Spectra: 1
Spectrometers: USB2+H05261
Integration Time (usec): 100000 (USB2+H05261)
Spectra Averaged: 1 (USB2+H05261)
Boxcar Smoothing: 0 (USB2+H05261)
Correct for Electrical Dark: No (USB2+H05261)
Strobe/Lamp Enabled: No (USB2+H05261)
Correct for Detector Non-linearity: No (USB2+H05261)
Correct for Stray Light: No (USB2+H05261)
Number of Pixels in Processed Spectrum: 2048
>>>>>Begin Processed Spectral Data<<<<<
365.73	124.05
365.92	124.05
366.12	124.05
366.32	81.92
366.52	51.49
366.72	86.60
366.91	0.00
367.11	7.02
367.31	4.68
367.51	0.00
367.70	39.79
367.90	30.43
368.10	0.00
368.30	112.35
368.49	67.88
368.69	72.56
368.89	42.13
369.09	30.43
369.28	63.19
369.48	53.83
369.68	102.98
369.87	102.98
370.07	105.32
370.27	93.62
370.47	210.65
370.66	353.42
370.86	442.36
371.06	423.64
371.25	465.77
371.45	468.11
371.65	468.11
371.84	421.30
372.04	451.72
372.24	479.81
372.44	440.02
372.63	444.70
372.83	545.34
373.03	479.81
373.22	514.92
373.42	472.79
373.62	454.06
373.81	447.04
374.01	479.81
374.21	550.03
374.40	571.09
374.60	622.58
374.79	524.28
374.99	571.09
375.19	547.69
375.38	592.16
375.58	678.76
375.78	538.32
375.97	610.88
376.17	610.88
376.37	615.56
376.56	566.41
376.76	533.64
376.95	561.73
377.15	624.92
377.35	648.33
377.54	648.33
377.74	709.18
377.93	657.69
378.13	662.37
378.33	657.69
378.52	622.58
378.72	580.45
378.91	669.39
379.11	683.44
379.31	575.77
379.50	638.97
379.70	620.24
379.89	620.24
380.09	667.05
380.28	732.59
380.48	617.90
380.68	674.07
380.87	636.63
381.07	704.50
381.26	770.04
381.46	732.59
381.65	643.65
381.85	678.76
382.04	676.41
382.24	720.88
382.43	720.88
382.63	653.01
382.83	713.86
383.02	695.14
383.22	727.91
383.41	741.95
383.61	755.99
383.80	760.67
384.00	812.17
384.19	767.70
384.39	660.03
384.58	849.61
384.78	788.76
384.97	903.45
385.17	807.48
385.36	784.08
385.56	828.55
385.75	725.57
385.95	819.19
386.14	866.00
386.34	851.96
386.53	880.04
386.72	828.55
386.92	844.93
387.11	849.61
387.31	938.55
387.50	873.02
387.70	765.36
387.89	1001.75
388.09	863.66
388.28	959.62
388.48	929.19
388.67	985.37
388.86	964.30
389.06	933.87
389.25	945.58
389.45	966.64
389.64	1020.47
389.84	929.19
390.03	926.85
390.22	1135.16
390.42	1039.20
390.61	1053.24
390.81	1025.15
391.00	1020.47
391.19	1074.31
391.39	1095.37
391.58	997.07
391.78	1025.15
391.97	1043.88
392.16	964.30
392.36	1100.05
392.55	1013.45
392.75	1055.58
392.94	952.60
393.13	966.64
393.33	987.71
393.52	1008.77
393.71	1102.39
393.91	1090.69
394.10	1135.16
394.29	1198.35
394.49	1123.46
394.68	1291.98
394.88	1149.20
395.07	1179.63
395.26	1221.76
395.46	1207.72
395.65	1247.51
395.84	1125.80
396.04	1261.55
396.23	1228.78
396.42	1135.16
396.62	1181.97
396.81	1247.51
397.00	1198.35
397.19	1331.76
397.39	1301.34
397.58	1397.30
397.77	1296.66
397.97	1451.13
398.16	1373.89
398.35	1493.26
398.55	1437.09
398.74	1511.99
398.93	1547.09
399.12	1451.13
399.32	1519.01
399.51	1511.99
399.70	1535.39
399.90	1540.07
400.09	1638.38
400.28	1671.14
400.47	1610.29
400.67	1633.69
400.86	1645.40
401.05	1643.06
401.24	1645.40
401.44	1659.44
401.63	1734.34
401.82	1724.97
402.01	1767.10
402.21	1743.70
402.40	1781.15
402.59	1839.66
402.78	1811.57
402.97	1778.81
403.17	1809.23
403.36	1790.51
403.55	1853.70
403.74	1874.77
403.93	1884.13
404.13	1947.33
404.32	1970.73
404.51	1909.88
404.70	1839.66
404.89	1975.41
405.09	1989.46
405.28	1991.80
405.47	1949.67
405.66	1987.11
405.85	1973.07
406.05	1937.96
406.24	2069.03
406.43	1973.07
406.62	2120.53
406.81	2043.29
407.00	2033.93
407.20	2162.66
407.39	2118.18
407.58	2188.40
407.77	2181.38
407.96	2197.76
408.15	2277.34
408.34	2176.70
408.54	2256.28
408.73	2352.24
408.92	2317.13
409.11	2291.38
409.30	2270.32
409.49	2331.17
409.68	2310.11
409.87	2284.36
410.07	2305.43
410.26	2392.03
410.45	2396.71
410.64	2403.73
410.83	2471.61
411.02	2581.61
411.21	2511.39
411.40	2560.55
411.59	2672.89
411.78	2579.27
411.98	2532.46
412.17	2644.81
412.36	2665.87
412.55	2696.30
412.74	2637.78
412.93	2827.37
413.12	2719.70
413.31	2928.01
413.50	2761.83
413.69	2876.52
413.88	2862.48
414.07	2967.80
414.26	2939.71
414.45	2944.39
414.64	2935.03
414.83	3047.38
415.02	3077.80
415.22	2998.23
415.41	3227.60
415.60	3061.42
415.79	3213.56
415.98	3103.55
416.17	3222.92
416.36	3255.69
416.55	3316.54
416.74	3356.33
416.93	3232.28
417.12	3358.67
417.31	3283.77
417.50	3480.38
417.69	3393.78
417.88	3445.27
418.07	3386.76
418.26	3475.70
418.45	3351.65
418.64	3442.93
418.83	3501.44
419.02	3515.48
419.21	3545.91
419.39	3541.23
419.58	3438.25
419.77	3541.23
419.96	3599.74
420.15	3620.81
420.34	3611.45
420.53	3662.94
420.72	3740.18
420.91	3836.14
421.10	3833.80
421.29	3798.69
421.48	3763.58
421.67	3946.14
421.86	3899.33
422.05	3786.99
422.24	3803.37
422.43	3915.72
422.61	3901.67
422.80	3929.76
422.99	3885.29
423.18	3990.61
423.37	3936.78
423.56	3798.69
423.75	4023.38
423.94	3850.18
424.13	3634.85
424.32	3648.90
424.50	3974.23
424.69	4072.53
424.88	4056.15
425.07	3850.18
425.26	3887.63
425.45	3913.38
425.64	3836.14
425.83	3885.29
426.01	3948.48
426.20	3955.51
426.39	4007.00
426.58	3819.75
426.77	4051.47
426.96	3894.65
427.15	3936.78
427.33	4074.87
427.52	4124.02
427.71	4098.28
427.90	4142.75
428.09	4264.46
428.28	4121.68
428.46	4177.86
428.65	4182.54
428.84	4308.93
429.03	4299.56
429.22	4065.51
429.40	4236.37
429.59	4098.28
429.78	3899.33
429.97	3770.60
430.16	4070.19
430.34	4056.15
430.53	4262.12
430.72	4187.22
430.91	4161.47
431.10	4348.72
431.28	4564.04
431.47	4802.78
431.66	4617.88
431.85	4507.87
432.03	4627.24
432.22	4725.54
432.41	4683.41
432.60	4610.86
432.79	4631.92
432.97	4652.98
433.16	4739.58
433.35	4617.88
433.54	4660.01
433.72	4706.82
433.91	4685.75
434.10	4739.58
434.28	4727.88
434.47	4858.95
434.66	5036.83
434.85	4945.55
435.03	4880.02
435.22	5008.75
435.41	5064.92
435.59	5125.77
435.78	5130.45
435.97	5142.16
436.16	5006.41
436.34	5046.20
436.53	5172.58
436.72	5233.44
436.90	5238.12
437.09	5102.37
437.28	5139.82
437.46	5081.30
437.65	5114.07
437.84	5109.39
438.02	5172.58
438.21	5109.39
438.40	5261.52
438.58	5303.65
438.77	5516.64
438.96	5486.22
439.14	5385.57
439.33	5659.42
439.52	5481.53
439.70	5682.82
439.89	5685.16
440.08	5755.38
440.26	5727.29
440.45	5708.57
440.63	5921.56
440.82	5731.97
441.01	5877.09
441.19	5956.66
441.38	5937.94
441.57	5998.79
441.75	6162.63
441.94	6380.30
442.12	6230.51
442.31	6370.94
442.50	6356.90
442.68	6204.76
442.87	6317.11
443.05	6401.37
443.24	6532.44
443.43	6207.10
443.61	6487.96
443.80	6665.85
443.98	6438.81
444.17	6392.00
444.35	6537.12
444.54	6612.01
444.73	6518.39
444.91	6609.67
445.10	6347.53
445.28	6523.07
445.47	6415.41
445.65	6410.73
445.84	6593.29
446.02	6612.01
446.21	6553.50
446.39	6672.87
446.58	6698.61
446.77	6567.54
446.95	6583.93
447.14	6579.25
447.32	6827.34
447.51	6679.89
447.69	6651.80
447.88	6539.46
448.06	6691.59
448.25	6750.10
448.43	6715.00
448.62	6656.48
448.80	6722.02
448.99	6675.21
449.17	6916.28
449.36	6817.98
449.54	6981.82
449.73	6986.50
449.91	7023.95
450.10	7190.13
450.28	6995.86
450.46	7302.47
450.65	7157.36
450.83	7295.45
451.02	7126.93
451.20	7213.53
451.39	7258.00
451.57	7358.64
451.76	7169.06
451.94	7173.74
452.13	7091.82
452.31	7178.42
452.49	7066.08
452.68	7096.50
452.86	7332.90
453.05	7482.69
453.23	7431.20
453.42	7140.97
453.60	7386.73
453.78	7529.50
453.97	7368.01
454.15	7410.14
454.34	7321.20
454.52	7562.27
454.70	7424.18
454.89	7716.75
455.07	7588.02
455.26	7573.97
455.44	7796.32
455.62	7709.72
455.81	7808.03
455.99	7674.62
456.17	7864.20
456.36	7953.14
456.54	7934.42
456.73	8091.23
456.91	7929.74
457.09	8131.02
457.28	8168.47
457.46	8149.75
457.64	8142.72
457.83	8159.11
458.01	8088.89
458.19	8231.66
458.38	8166.13
458.56	8231.66
458.74	8091.23
458.93	8320.60
459.11	8313.58
459.29	8196.56
459.48	8280.82
459.66	8215.28
459.84	8381.46
460.03	8355.71
460.21	8674.03
460.39	8641.26
460.57	8446.99
460.76	8571.04
460.94	8788.71
461.12	8692.75
461.31	8692.75
461.49	8608.49
461.67	8678.71
461.85	8821.48
462.04	8767.65
462.22	8936.17
462.40	8973.61
462.59	8685.73
462.77	8894.04
462.95	9163.20
463.13	8940.85
463.32	8800.41
463.50	8812.12
463.68	9020.42
463.86	9053.19
464.05	8912.76
464.23	9048.51
464.41	9062.55
464.59	8805.10
464.78	9188.94
464.96	9151.49
465.14	9135.11
465.32	9146.81
465.50	9287.25
465.69	9254.48
465.87	9359.80
466.05	9320.01
466.23	9151.49
466.41	9263.84
466.60	9451.08
466.78	9191.28
466.96	9172.56
467.14	9357.46
467.32	9579.81
467.51	9500.23
467.69	9331.72
467.87	9322.35
468.05	9645.35
468.23	9413.63
468.41	9397.25
468.60	9596.20
468.78	9610.24
468.96	9504.92
469.14	9568.11
469.32	9734.29
469.50	9544.70
469.69	9568.11
469.87	9907.49
470.05	9813.87
470.23	9671.09
470.41	9891.10
470.59	9865.36
470.77	9743.65
470.95	9982.38
471.14	10115.80
471.32	9994.09
471.50	10338.15
471.68	10218.78
471.86	10483.26
472.04	10284.31
472.22	10700.93
472.40	10202.40
472.58	10415.38
472.77	10363.89
472.95	10714.97
473.13	10892.85
473.31	10455.17
473.49	10602.63
473.67	10492.62
473.85	10794.55
474.03	10988.82
474.21	10899.87
474.39	10934.98
474.57	11019.24
474.75	11283.72
474.93	11147.97
475.12	11068.39
475.30	11239.25
475.48	11389.05
475.66	11283.72
475.84	11309.47
476.02	11529.48
476.20	11342.24
476.38	11683.95
476.56	11999.93
476.74	11981.20
476.92	11934.39
477.10	12004.61
477.28	12205.89
477.46	11875.88
477.64	12133.34
477.82	12453.99
478.00	12737.20
478.18	12353.35
478.36	12755.92
478.54	12940.82
478.72	12568.68
478.90	12905.71
479.08	13198.28
479.26	13188.92
479.44	13219.35
479.62	13364.46
479.80	13610.22
479.98	13156.15
480.16	13603.19
480.34	13708.52
480.52	13752.99
480.70	13900.44
480.88	13701.50
481.06	13792.78
481.24	14054.92
481.41	14394.29
481.59	14260.88
481.77	14450.47
481.95	14560.47
482.13	14721.97
482.31	14513.66
482.49	14888.15
482.67	14913.89
482.85	15227.53
483.03	14944.32
483.21	15098.80
483.39	15171.35
483.57	15442.85
483.74	15585.63
483.92	15704.99
484.10	15489.67
484.28	16067.78
484.46	16182.46
484.64	16425.88
484.82	16203.53
485.00	16236.30
485.18	16355.66
485.35	16332.26
485.53	15983.52
485.71	16273.74
485.89	16500.78
486.07	16259.70
486.25	16748.87
486.43	16748.87
486.61	17420.61
486.78	17174.85
486.96	17621.89
487.14	17980.00
487.32	17542.32
487.50	17975.31
487.68	18246.82
487.85	18295.97
488.03	18445.76
488.21	18600.24
488.39	18363.84
488.57	18635.35
488.75	18843.65
488.92	19274.31
489.10	19304.74
489.28	19201.76
489.46	19880.51
489.64	19786.89
489.81	20421.17
489.99	20336.91
490.17	20357.98
490.35	20453.94
490.53	20386.07
490.70	20257.34
490.88	20320.53
491.06	20854.17
491.24	20725.44
491.41	20617.78
491.59	20999.29
491.77	20805.02
491.95	21104.61
492.13	21472.07
492.30	21561.02
492.48	21617.19
492.66	21895.71
492.84	22202.32
493.01	21996.35
493.19	22185.94
493.37	22450.42
493.54	22314.67
493.72	22558.08
493.90	22789.80
494.08	22754.69
494.25	23309.40
494.43	23185.35
494.61	23232.16
494.79	23639.41
494.96	23241.52
495.14	23248.54
495.32	23365.57
495.49	23775.16
495.67	23976.45
495.85	24105.18
496.02	24233.91
496.20	24318.17
496.38	24474.98
496.55	24734.78
496.73	24842.45
496.91	24613.07
497.09	24940.75
497.26	25118.63
497.44	25120.97
497.62	25130.33
497.79	25348.00
497.97	25230.98
498.14	25544.61
498.32	25256.72
498.50	25673.34
498.67	26167.19
498.85	26015.05
499.03	26031.44
499.20	25956.54
499.38	26146.12
499.56	26366.13
499.73	26513.59
499.91	26590.83
500.08	26490.18
500.26	26532.31
500.44	26625.93
500.61	26705.51
500.79	26663.38
500.97	26960.63
501.14	27197.02
501.32	27157.24
501.49	27009.78
501.67	27199.37
501.84	27185.32
502.02	27473.21
502.20	27672.15
502.37	27981.10
502.55	27899.19
502.72	28166.01
502.90	27695.56
503.07	28114.52
503.25	28278.35
503.43	28006.85
503.60	28327.50
503.78	28559.22
503.95	28414.10
504.13	28364.95
504.30	28943.06
504.48	28636.45
504.65	28800.29
504.83	29029.66
505.01	29088.18
505.18	29425.22
505.36	29759.91
505.53	29390.11
505.71	29546.92
505.88	30375.47
506.06	29373.72
506.23	30010.35
506.41	29703.74
506.58	29839.49
506.76	29930.77
506.93	30258.45
507.11	30078.22
507.28	30223.34
507.46	29839.49
507.63	29888.64
507.81	30150.78
507.98	29989.28
508.16	30431.65
508.33	30822.51
508.50	30834.22
508.68	30944.22
508.85	31023.80
509.03	31122.10
509.20	31084.65
509.38	31164.23
509.55	31597.23
509.73	30991.03
509.90	31349.14
510.08	30995.71
510.25	31379.56
510.42	31407.65
510.60	31576.17
510.77	31716.60
510.95	32355.57
511.12	32009.17
511.30	31847.67
511.47	32727.71
511.64	32283.01
511.82	32547.49
511.99	31892.14
512.17	32577.92
512.34	32304.07
512.51	32545.15
512.69	32811.97
512.86	32577.92
513.04	33200.50
513.21	32734.73
513.38	32753.46
513.56	32655.15
513.73	32856.44
513.90	32989.85
514.08	32973.47
514.25	33317.53
514.43	33387.74
514.60	33556.26
514.77	33240.29
514.95	33940.11
515.12	33736.48
515.29	33439.23
515.47	33827.76
515.64	34309.91
515.81	33804.36
515.99	33450.94
516.16	34024.37
516.33	33495.41
516.51	33560.94
516.68	33710.74
516.85	33317.53
517.03	33560.94
517.20	33905.00
517.37	34356.72
517.54	34663.33
517.72	34227.99
517.89	34026.71
518.06	34061.82
518.24	34026.71
518.41	34473.75
518.58	34604.82
518.75	34637.59
518.93	34485.45
519.10	34808.45
519.27	34991.01
519.45	35194.64
519.62	35337.41
519.79	35236.77
519.96	35491.88
520.14	35548.06
520.31	35363.15
520.48	35531.67
520.65	35667.42
520.83	36348.52
521.00	36219.79
521.17	35810.20
521.34	36034.89
521.52	36411.71
521.69	35978.72
521.86	36547.47
522.03	36098.08
522.20	36210.43
522.38	36598.96
522.55	36704.28
522.72	36566.19
522.89	36542.78
523.07	36790.88
523.24	37003.87
523.41	36947.70
523.58	36849.39
523.75	37624.11
523.92	37165.37
524.10	37354.95
524.27	37415.80
524.44	37230.90
524.61	37680.28
524.78	37937.74
524.96	37556.24
525.13	37273.03
525.30	37371.33
525.47	37792.63
525.64	37975.19
525.81	37909.66
525.98	37371.33
526.16	37642.84
526.33	37303.46
526.50	37773.91
526.67	37916.68
526.84	37790.29
527.01	37844.12
527.18	37912.00
527.36	38211.59
527.53	38293.50
527.70	38927.79
527.87	38368.40
528.04	38831.83
528.21	38682.03
528.38	38359.04
528.55	38876.30
528.72	39164.18
528.89	39400.58
529.07	39079.92
529.24	38440.96
529.41	38937.15
529.58	38361.38
529.75	38822.47
529.92	39185.25
530.09	39290.57
530.26	39110.35
530.43	39416.96
530.60	39021.41
530.77	39402.92
530.94	39730.59
531.11	39409.94
531.28	39707.19
531.46	39665.06
531.63	39763.36
531.80	39716.55
531.97	39412.28
532.14	39468.45
532.31	39166.52
532.48	39559.73
532.65	39477.82
532.82	39833.58
532.99	40289.98
533.16	40154.23
533.33	39992.73
533.50	40282.96
533.67	39899.11
533.84	39952.94
534.01	39985.71
534.18	40360.20
534.35	40708.94
534.52	40395.31
534.69	40615.32
534.86	40631.70
535.03	40683.19
535.20	40809.58
535.37	40671.49
535.54	40877.46
535.71	41139.60
535.88	40994.48
536.05	40961.72
536.22	40577.87
536.38	40673.83
536.55	41057.68
536.72	40547.44
536.89	40926.61
537.06	41055.34
537.23	41020.23
537.40	41326.84
537.57	40924.27
537.74	41289.39
537.91	41361.95
538.08	41336.20
538.25	40762.77
538.42	41535.15
538.59	41469.61
538.75	40907.88
538.92	41738.77
539.09	41691.96
539.26	41598.34
539.43	41443.87
539.60	41497.70
539.77	41177.04
539.94	41537.49
540.11	41294.07
540.28	41956.44
540.44	41780.90
540.61	41830.05
540.78	41736.43
540.95	41869.84
541.12	41488.34
541.29	41794.95
541.46	42274.76
541.62	42040.70
541.79	42302.84
541.96	41687.28
542.13	41837.08
542.30	42148.37
542.47	42206.88
542.63	42218.58
542.80	42232.63
542.97	42363.70
543.14	42658.60
543.31	43166.50
543.48	42401.14
543.64	43103.31
543.81	43299.91
543.98	43220.33
544.15	43058.84
544.32	42864.57
544.48	43391.19
544.65	43391.19
544.82	42951.17
544.99	43040.11
545.16	42838.83
545.32	43138.41
545.49	43510.56
545.66	43620.56
545.83	43459.07
546.00	43838.23
546.16	43323.32
546.33	43643.97
546.50	43117.35
546.67	43306.93
546.83	43400.55
547.00	43421.62
547.17	43138.41
547.34	43524.60
547.50	43676.74
547.67	43641.63
547.84	43550.35
548.00	43903.77
548.17	43753.97
548.34	44083.99
548.51	43859.30
548.67	44465.50
548.84	43842.92
549.01	44044.20
549.18	44399.96
549.34	44083.99
549.51	44114.42
549.68	44023.14
549.84	44357.83
550.01	44208.04
550.18	43700.14
550.34	44142.50
550.51	44177.61
550.68	43608.86
550.84	43566.73
551.01	44086.33
551.18	43894.41
551.34	44481.88
551.51	44748.70
551.68	44332.09
551.84	44825.94
552.01	44198.68
552.18	44556.78
552.34	44109.74
552.51	44650.40
552.68	44210.38
552.84	44886.79
553.01	44500.61
553.18	44437.41
553.34	44659.76
553.51	44353.15
553.67	44760.40
553.84	45013.18
554.01	45036.59
554.17	44926.58
554.34	45111.49
554.51	44818.92
554.67	44795.51
554.84	44924.24
555.00	44898.50
555.17	45057.65
555.33	44662.10
555.50	44858.71
555.67	44828.28
555.83	45099.78
556.00	45020.20
556.16	45415.76
556.33	45078.72
556.50	44985.10
556.66	45221.49
556.83	44961.69
556.99	45272.98
557.16	45277.66
557.32	45045.95
557.49	45652.15
557.65	44727.64
557.82	44685.51
557.98	45017.86
558.15	45413.41
558.32	45052.97
558.48	45434.48
558.65	45139.57
558.81	45099.78
558.98	44933.60
559.14	45411.07
559.31	45345.54
559.47	45347.88
559.64	45588.95
559.80	45301.07
559.97	45553.85
560.13	45397.03
560.30	45230.85
560.46	45350.22
560.63	45490.65
560.79	46277.07
560.96	46024.29
561.12	45656.83
561.29	46080.47
561.45	45628.74
561.61	45546.82
561.78	45195.74
561.94	45088.08
562.11	45729.39
562.27	45736.41
562.44	45333.84
562.60	46052.38
562.77	45858.12
562.93	45656.83
563.10	45778.54
563.26	45368.94
563.42	45808.96
563.59	45532.78
563.75	45778.54
563.92	45649.81
564.08	45722.37
564.24	45830.03
564.41	45806.62
564.57	46068.76
564.74	45951.74
564.90	45792.58
565.07	45914.29
565.23	45982.16
565.39	46176.43
565.56	46197.49
565.72	45879.18
565.88	45488.31
566.05	45783.22
566.21	45743.43
566.38	45808.96
566.54	45762.15
566.70	46150.68
566.87	46148.34
567.03	46141.32
567.19	46248.99
567.36	46300.48
567.52	45811.31
567.68	46251.33
567.85	46234.94
568.01	45963.44
568.17	46101.53
568.34	46007.91
568.50	46127.28
568.66	45820.67
568.83	45921.31
568.99	45439.16
569.15	46277.07
569.32	45729.39
569.48	46293.46
569.64	45984.51
569.81	46174.09
569.97	45808.96
570.13	46110.89
570.30	45539.80
570.46	45677.90
570.62	45666.19
570.78	45390.01
570.95	45397.03
571.11	46197.49
571.27	46045.36
571.43	45841.73
571.60	45848.75
571.76	46251.33
571.92	46382.40
572.09	46298.14
572.25	46436.23
572.41	45837.05
572.57	46176.43
572.74	46356.65
572.90	46253.67
573.06	46176.43
573.22	46153.02
573.38	46361.33
573.55	46408.14
573.71	46422.19
573.87	46529.85
574.03	46120.26
574.20	46349.63
574.36	45916.63
574.52	46232.60
574.68	46274.73
574.84	46319.20
575.01	46312.18
575.17	46384.74
575.33	45507.04
575.49	46178.77
575.65	46597.73
575.82	46445.59
575.98	46188.13
576.14	46141.32
576.30	46136.64
576.46	46176.43
576.62	45736.41
576.79	46225.58
576.95	45684.92
577.11	46471.34
577.27	45834.71
577.43	46031.32
577.59	45909.61
577.75	46223.24
577.92	45862.80
578.08	45975.14
578.24	46052.38
578.40	45794.92
578.56	45956.42
578.72	45820.67
578.88	46469.00
579.04	46426.87
579.21	46031.32
579.37	46094.51
579.53	46394.10
579.69	46260.69
579.85	46031.32
580.01	46270.05
580.17	46667.94
580.33	46080.47
580.49	46464.32
580.65	46541.55
580.82	46241.96
580.98	46277.07
581.14	46019.61
581.30	46499.42
581.46	46637.51
581.62	46487.72
581.78	45961.10
581.94	46571.98
582.10	46490.06
582.26	46515.81
582.42	46358.99
582.58	46698.37
582.74	46045.36
582.90	46506.44
583.06	46642.20
583.22	46567.30
583.38	46684.33
583.54	46347.29
583.70	46745.18
583.86	46380.06
584.02	46614.11
584.18	46220.90
584.34	46188.13
584.50	46351.97
584.66	46050.04
584.82	46321.54
584.98	46616.45
585.14	46555.60
585.30	46003.23
585.46	46894.97
585.62	46146.00
585.78	46146.00
585.94	45874.50
586.10	46333.24
586.26	46251.33
586.42	46223.24
586.58	47072.85
586.74	46181.11
586.90	46326.22
587.06	45881.52
587.22	46525.17
587.38	46043.02
587.54	46845.82
587.70	46321.54
587.86	46822.42
588.02	46429.21
588.18	46478.36
588.34	46253.67
588.49	45631.08
588.65	45914.29
588.81	45467.25
588.97	45979.82
589.13	45780.88
589.29	45839.39
589.45	46017.27
589.61	46068.76
589.77	46618.79
589.93	46192.81
