SpectraSuite Data File
++++++++++++++++++++++++++++++++++++
Date: Fri Oct 25 10:46:57 EDT 2013
User: price-jones
Dark Spectrum Present: No
Reference Spectrum Present: No
Number of Sampled Component Spectra: 1
Spectrometers: USB2+H05261
Integration Time (usec): 100000 (USB2+H05261)
Spectra Averaged: 1 (USB2+H05261)
Boxcar Smoothing: 0 (USB2+H05261)
Correct for Electrical Dark: No (USB2+H05261)
Strobe/Lamp Enabled: No (USB2+H05261)
Correct for Detector Non-linearity: No (USB2+H05261)
Correct for Stray Light: No (USB2+H05261)
Number of Pixels in Processed Spectrum: 2048
>>>>>Begin Processed Spectral Data<<<<<
365.73	88.94
365.92	88.94
366.12	88.94
366.32	74.90
366.52	105.32
366.72	91.28
366.91	35.11
367.11	102.98
367.31	21.06
367.51	21.06
367.70	18.72
367.90	63.19
368.10	107.66
368.30	60.85
368.49	0.00
368.69	32.77
368.89	65.54
369.09	53.83
369.28	65.54
369.48	0.00
369.68	124.05
369.87	112.35
370.07	39.79
370.27	161.50
370.47	168.52
370.66	397.89
370.86	437.68
371.06	416.62
371.25	533.64
371.45	447.04
371.65	435.34
371.84	512.58
372.04	400.23
372.24	430.66
372.44	447.04
372.63	540.66
372.83	496.19
373.03	526.62
373.22	465.77
373.42	557.05
373.62	512.58
373.81	559.39
374.01	543.00
374.21	596.84
374.40	587.47
374.60	547.69
374.79	564.07
374.99	552.37
375.19	613.22
375.38	636.63
375.58	643.65
375.78	634.29
375.97	568.75
376.17	592.16
376.37	653.01
376.56	617.90
376.76	578.11
376.95	650.67
377.15	643.65
377.35	627.26
377.54	643.65
377.74	601.52
377.93	582.79
378.13	634.29
378.33	566.41
378.52	655.35
378.72	631.94
378.91	676.41
379.11	629.60
379.31	631.94
379.50	603.86
379.70	669.39
379.89	725.57
380.09	699.82
380.28	706.84
380.48	697.48
380.68	697.48
380.87	636.63
381.07	615.56
381.26	699.82
381.46	692.80
381.65	699.82
381.85	641.31
382.04	798.12
382.24	624.92
382.43	678.76
382.63	699.82
382.83	798.12
383.02	770.04
383.22	777.06
383.41	755.99
383.61	791.10
383.80	814.51
384.00	816.85
384.19	781.74
384.39	725.57
384.58	767.70
384.78	746.63
384.97	866.00
385.17	774.72
385.36	854.30
385.56	746.63
385.75	793.44
385.95	870.68
386.14	929.19
386.34	784.08
386.53	823.87
386.72	833.23
386.92	919.83
387.11	854.30
387.31	875.36
387.50	891.74
387.70	805.14
387.89	931.53
388.09	847.27
388.28	807.48
388.48	819.19
388.67	891.74
388.86	947.92
389.06	931.53
389.25	903.45
389.45	917.49
389.64	917.49
389.84	994.73
390.03	908.13
390.22	1011.11
390.42	994.73
390.61	1100.05
390.81	1046.22
391.00	990.05
391.19	1034.52
391.39	1004.09
391.58	1107.07
391.78	997.07
391.97	1020.47
392.16	983.02
392.36	1109.41
392.55	994.73
392.75	999.41
392.94	968.98
393.13	973.66
393.33	968.98
393.52	1043.88
393.71	1067.28
393.91	1060.26
394.10	1151.54
394.29	1111.75
394.49	1067.28
394.68	1219.42
394.88	1165.59
395.07	1233.46
395.26	1191.33
395.46	1221.76
395.65	1158.57
395.84	1193.67
396.04	1235.80
396.23	1118.78
396.42	1266.23
396.62	1149.20
396.81	1219.42
397.00	1240.48
397.19	1203.04
397.39	1376.24
397.58	1345.81
397.77	1341.13
397.97	1369.21
398.16	1425.39
398.35	1465.18
398.55	1458.15
398.74	1409.00
398.93	1554.12
399.12	1544.75
399.32	1446.45
399.51	1535.39
399.70	1626.67
399.90	1526.03
400.09	1544.75
400.28	1621.99
400.47	1610.29
400.67	1521.35
400.86	1582.20
401.05	1575.18
401.24	1561.14
401.44	1586.88
401.63	1657.10
401.82	1682.85
402.01	1614.97
402.21	1556.46
402.40	1633.69
402.59	1710.93
402.78	1640.72
402.97	1689.87
403.17	1832.64
403.36	1689.87
403.55	1778.81
403.74	1818.60
403.93	1820.94
404.13	1774.13
404.32	1872.43
404.51	1839.66
404.70	1914.56
404.89	1837.32
405.09	1926.26
405.28	1914.56
405.47	1830.30
405.66	1921.58
405.85	1874.77
406.05	1940.30
406.24	1947.33
406.43	1907.54
406.62	2036.27
406.81	2050.31
407.00	1949.67
407.20	2040.95
407.39	1963.71
407.58	2054.99
407.77	2104.14
407.96	2052.65
408.15	2111.16
408.34	2134.57
408.54	2165.00
408.73	2188.40
408.92	2176.70
409.11	2230.53
409.30	2317.13
409.49	2258.62
409.68	2162.66
409.87	2225.85
410.07	2275.00
410.26	2267.98
410.45	2338.20
410.64	2427.14
410.83	2363.94
411.02	2434.16
411.21	2513.74
411.40	2492.67
411.59	2417.77
411.78	2490.33
411.98	2527.78
412.17	2551.18
412.36	2544.16
412.55	2546.50
412.74	2747.79
412.93	2729.06
413.12	2590.97
413.31	2874.18
413.50	2679.91
413.69	2635.44
413.88	2705.66
414.07	2881.20
414.26	2761.83
414.45	2911.63
414.64	2904.60
414.83	2928.01
415.02	2885.88
415.22	2979.50
415.41	3033.33
415.60	3056.74
415.79	3021.63
415.98	3073.12
416.17	3103.55
416.36	3152.70
416.55	3042.70
416.74	3119.93
416.93	3101.21
417.12	3246.32
417.31	3375.05
417.50	3183.13
417.69	3372.71
417.88	3323.56
418.07	3286.11
418.26	3391.44
418.45	3356.33
418.64	3606.77
418.83	3372.71
419.02	3517.83
419.21	3473.36
419.39	3382.07
419.58	3377.39
419.77	3513.14
419.96	3506.12
420.15	3499.10
420.34	3527.19
420.53	3578.68
420.72	3648.90
420.91	3679.32
421.10	3803.37
421.29	3772.94
421.48	3632.51
421.67	3772.94
421.86	3672.30
422.05	3681.66
422.24	3616.13
422.43	3581.02
422.61	3667.62
422.80	3775.28
422.99	3698.05
423.18	3810.39
423.37	3985.93
423.56	3936.78
423.75	3810.39
423.94	3751.88
424.13	3616.13
424.32	3805.71
424.50	3763.58
424.69	3857.20
424.88	3852.52
425.07	3721.45
425.26	3751.88
425.45	3791.67
425.64	3960.19
425.83	3904.01
426.01	4009.34
426.20	3967.21
426.39	3833.80
426.58	3976.57
426.77	3749.54
426.96	3775.28
427.15	3957.85
427.33	3983.59
427.52	3906.35
427.71	4011.68
427.90	4042.11
428.09	3955.51
428.28	4114.66
428.46	4077.21
428.65	4095.94
428.84	4154.45
429.03	4135.73
429.22	3988.27
429.40	4159.13
429.59	4238.71
429.78	3826.78
429.97	3836.14
430.16	4009.34
430.34	4023.38
430.53	4140.41
430.72	4231.69
430.91	4229.35
431.10	4234.03
431.28	4339.35
431.47	4407.23
431.66	4477.44
431.85	4454.04
432.03	4397.87
432.22	4491.49
432.41	4479.79
432.60	4491.49
432.79	4592.13
432.97	4568.73
433.16	4517.23
433.35	4428.29
433.54	4599.15
433.72	4645.96
433.91	4554.68
434.10	4631.92
434.28	4594.47
434.47	4596.81
434.66	4702.14
434.85	4833.21
435.03	4894.06
435.22	4856.61
435.41	4929.17
435.59	4835.55
435.78	5048.54
435.97	4903.42
436.16	5071.94
436.34	4898.74
436.53	4964.28
436.72	5074.28
436.90	4898.74
437.09	5018.11
437.28	5006.41
437.46	4943.21
437.65	5081.30
437.84	5151.52
438.02	4882.36
438.21	5027.47
438.40	4971.30
438.58	5296.63
438.77	5200.67
438.96	5261.52
439.14	5413.66
439.33	5497.92
439.52	5547.07
439.70	5371.53
439.89	5558.77
440.08	5439.40
440.26	5416.00
440.45	5547.07
440.63	5689.84
440.82	5682.82
441.01	5666.44
441.19	5760.06
441.38	6085.39
441.57	5937.94
441.75	5912.19
441.94	6087.73
442.12	6061.99
442.31	6195.40
442.50	6038.58
442.68	6106.46
442.87	6010.50
443.05	6104.12
443.24	6260.93
443.43	6260.93
443.61	6232.85
443.80	6387.32
443.98	6179.01
444.17	5994.11
444.35	6303.06
444.54	6476.26
444.73	6441.15
444.91	6050.28
445.10	6195.40
445.28	6289.02
445.47	6216.46
445.65	6061.99
445.84	6314.77
446.02	6246.89
446.21	6300.72
446.39	6356.90
446.58	6532.44
446.77	6539.46
446.95	6410.73
447.14	6476.26
447.32	6626.06
447.51	6359.24
447.69	6272.64
447.88	6572.22
448.06	6525.41
448.25	6548.82
448.43	6363.92
448.62	6328.81
448.80	6513.71
448.99	6530.09
449.17	6682.23
449.36	6677.55
449.54	6743.08
449.73	6832.02
449.91	6920.96
450.10	6785.21
450.28	6935.01
450.46	7026.29
450.65	6981.82
450.83	7033.31
451.02	6935.01
451.20	7002.88
451.39	7089.48
451.57	6974.80
451.76	7091.82
451.94	7056.72
452.13	7021.61
452.31	6977.14
452.49	6925.65
452.68	7009.90
452.86	6778.19
453.05	7166.72
453.23	7122.25
453.42	7089.48
453.60	7211.19
453.78	7281.41
453.97	7007.56
454.15	7166.72
454.34	7066.08
454.52	7307.15
454.70	7300.13
454.89	7400.77
455.07	7250.98
455.26	7342.26
455.44	7520.14
455.62	7489.71
455.81	7597.38
455.99	7531.84
456.17	7541.21
456.36	7679.30
456.54	7683.98
456.73	7686.32
456.91	7803.35
457.09	7758.88
457.28	8145.06
457.46	7772.92
457.64	8168.47
457.83	8124.00
458.01	7873.56
458.19	7950.80
458.38	7901.65
458.56	8145.06
458.74	7960.16
458.93	7864.20
459.11	7953.14
459.29	8116.98
459.48	8088.89
459.66	7971.86
459.84	8142.72
460.03	8175.49
460.21	8173.15
460.39	8322.94
460.57	8393.16
460.76	8259.75
460.94	8339.33
461.12	8348.69
461.31	8568.70
461.49	8491.46
461.67	8318.26
461.85	8561.68
462.04	8468.06
462.22	9022.77
462.40	8725.52
462.59	8774.67
462.77	8580.40
462.95	8734.88
463.13	8582.74
463.32	8568.70
463.50	8709.13
463.68	8781.69
463.86	8678.71
464.05	8732.54
464.23	8765.31
464.41	8863.61
464.59	8566.36
464.78	9057.87
464.96	8896.38
465.14	8741.90
465.32	9195.96
465.50	8872.97
465.69	8879.99
465.87	9062.55
466.05	8887.01
466.23	8879.99
466.41	9135.11
466.60	9268.52
466.78	8849.57
466.96	9142.13
467.14	9085.96
467.32	9081.28
467.51	9195.96
467.69	8828.50
467.87	9060.21
468.05	9525.98
468.23	9139.79
468.41	9011.06
468.60	9327.03
468.78	9348.10
468.96	9259.16
469.14	9444.06
469.32	9554.07
469.50	9118.73
469.69	9593.86
469.87	9619.60
470.05	9579.81
470.23	9727.27
470.41	9324.69
470.59	9633.64
470.77	9640.67
470.95	9762.37
471.14	9788.12
471.32	9554.07
471.50	9884.08
471.68	9666.41
471.86	9813.87
472.04	10120.48
472.22	10539.43
472.40	10026.86
472.58	10017.49
472.77	9991.75
472.95	10150.90
473.13	10544.11
473.31	10181.33
473.49	10108.77
473.67	10211.76
473.85	10289.00
474.03	10623.69
474.21	10918.60
474.39	10513.69
474.57	10766.46
474.75	10726.68
474.93	10963.07
475.12	10871.79
475.30	11147.97
475.48	10998.18
475.66	11070.73
475.84	10937.32
476.02	11152.65
476.20	11227.55
476.38	11456.92
476.56	11733.11
476.74	11674.59
476.92	11578.63
477.10	11403.09
477.28	11782.26
477.46	11983.54
477.64	12107.59
477.82	11705.02
478.00	12442.29
478.18	12208.23
478.36	12180.15
478.54	12430.59
478.72	12540.59
478.90	12367.39
479.08	12713.79
479.26	12837.84
479.44	12507.82
479.62	12809.75
479.80	13018.06
479.98	13104.66
480.16	13462.76
480.34	13242.75
480.52	13406.59
480.70	13287.22
480.88	13273.18
481.06	13514.25
481.24	13511.91
481.41	13797.46
481.59	13965.98
481.77	14204.71
481.95	14099.39
482.13	14389.61
482.31	14181.31
482.49	14572.18
482.67	14670.48
482.85	14560.47
483.03	14757.08
483.21	15009.86
483.39	14721.97
483.57	14897.51
483.74	14970.07
483.92	15288.38
484.10	15190.08
484.28	15592.65
484.46	15545.84
484.64	16060.76
484.82	15433.49
485.00	15637.12
485.18	16367.37
485.35	16004.58
485.53	15922.66
485.71	15836.06
485.89	16257.36
486.07	16290.13
486.25	16182.46
486.43	16582.70
486.61	16678.66
486.78	16821.43
486.96	17057.82
487.14	17345.71
487.32	17490.82
487.50	17722.54
487.68	17675.73
487.85	18274.90
488.03	17820.84
488.21	18195.32
488.39	18082.98
488.57	18153.20
488.75	18595.56
488.92	18436.40
489.10	18899.83
489.28	18850.67
489.46	19211.12
489.64	19044.94
489.81	19403.04
489.99	19740.08
490.17	19885.19
490.35	19960.09
490.53	19688.59
490.70	20025.62
490.88	19917.96
491.06	20528.84
491.24	20350.96
491.41	20325.21
491.59	20306.49
491.77	20381.38
491.95	20748.85
492.13	20800.34
492.30	21092.91
492.48	21392.50
492.66	21142.06
492.84	21546.97
493.01	21820.81
493.19	21369.09
493.37	21530.59
493.54	21830.18
493.72	21954.22
493.90	22125.08
494.08	22185.94
494.25	22731.28
494.43	22525.32
494.61	22787.46
494.79	22815.54
494.96	22831.93
495.14	22649.36
495.32	23278.97
495.49	23388.97
495.67	23152.58
495.85	23435.78
496.02	23442.81
496.20	23896.87
496.38	23866.44
496.55	23899.21
496.73	24290.08
496.91	24198.80
497.09	24697.33
497.26	24364.98
497.44	24350.93
497.62	24570.94
497.79	24786.27
497.97	24496.05
498.14	24709.04
498.32	25067.14
498.50	25034.37
498.67	25642.91
498.85	25729.51
499.03	25565.67
499.20	25827.81
499.38	25453.33
499.56	26567.42
499.73	25993.99
499.91	25692.06
500.08	25867.60
500.26	25729.51
500.44	26066.55
500.61	26134.42
500.79	26345.07
500.97	26204.64
501.14	26579.12
501.32	26342.73
501.49	26745.30
501.67	26649.34
501.84	26558.06
502.02	27037.87
502.20	27101.06
502.37	27417.04
502.55	27250.86
502.72	27527.04
502.90	26962.97
503.07	27358.52
503.25	27775.14
503.43	27513.00
503.60	27828.97
503.78	27592.58
503.95	27807.90
504.13	27868.76
504.30	28416.44
504.48	28158.99
504.65	28709.01
504.83	28381.34
505.01	28423.47
505.18	28479.64
505.36	28917.32
505.53	28924.34
505.71	29078.82
505.88	29006.26
506.06	28723.05
506.23	29060.09
506.41	28964.13
506.58	29221.59
506.76	29654.59
506.93	29460.32
507.11	29413.51
507.28	29530.54
507.46	29462.66
507.63	29633.52
507.81	29418.19
507.98	29649.91
508.16	30050.14
508.33	29757.57
508.50	30485.48
508.68	30146.10
508.85	30806.13
509.03	30391.86
509.20	30506.54
509.38	30686.76
509.55	30380.15
509.73	30698.47
509.90	30394.20
510.08	30892.73
510.25	30911.46
510.42	30843.58
510.60	30864.64
510.77	31732.98
510.95	31498.93
511.12	31278.92
511.30	31587.87
511.47	31442.76
511.64	32133.21
511.82	32016.19
511.99	31651.06
512.17	32149.60
512.34	31782.13
512.51	32053.64
512.69	31995.12
512.86	31810.22
513.04	32533.45
513.21	32100.45
513.38	32472.59
513.56	32128.53
513.73	31791.50
513.90	32348.54
514.08	32280.67
514.25	32500.68
514.43	32872.82
514.60	32868.14
514.77	32542.81
514.95	33003.89
515.12	32762.82
515.29	33247.31
515.47	33184.12
515.64	33680.31
515.81	33275.40
515.99	33069.43
516.16	33291.78
516.33	33167.73
516.51	33287.10
516.68	32950.06
516.85	32898.57
517.03	33228.59
517.20	33574.98
517.37	33893.30
517.54	34029.05
517.72	33539.88
517.89	33780.95
518.06	33481.36
518.24	33809.04
518.41	34089.90
518.58	34108.63
518.75	34082.88
518.93	34410.56
519.10	34064.16
519.27	34293.53
519.45	34408.22
519.62	34873.98
519.79	35185.27
519.96	34703.12
520.14	35236.77
520.31	34785.04
520.48	34981.65
520.65	35196.98
520.83	35606.57
521.00	35133.78
521.17	35435.71
521.34	35447.41
521.52	35580.82
521.69	35606.57
521.86	35725.94
522.03	35775.09
522.20	35519.97
522.38	36067.66
522.55	36292.35
522.72	35665.08
522.89	35782.11
523.07	36437.46
523.24	35934.24
523.41	36591.94
523.58	36409.37
523.75	37179.41
523.92	36549.81
524.10	36575.55
524.27	36603.64
524.44	37230.90
524.61	36999.19
524.78	36973.44
524.96	37120.90
525.13	37116.22
525.30	37242.60
525.47	37535.17
525.64	37221.54
525.81	37181.75
525.98	37074.09
526.16	36847.05
526.33	37041.32
526.50	37020.25
526.67	37301.12
526.84	37289.42
527.01	37331.54
527.18	37273.03
527.36	37645.18
527.53	37916.68
527.70	38132.01
527.87	37783.27
528.04	37727.10
528.21	37787.95
528.38	38143.71
528.55	38295.85
528.72	38429.26
528.89	38604.80
529.07	38478.41
529.24	38089.88
529.41	38033.71
529.58	38401.17
529.75	38595.43
529.92	38656.29
530.09	38368.40
530.26	38286.48
530.43	38455.00
530.60	38829.49
530.77	38735.87
530.94	39098.65
531.11	38813.10
531.28	38553.30
531.46	39526.97
531.63	39180.57
531.80	39346.75
531.97	39328.02
532.14	38775.66
532.31	38880.98
532.48	39250.78
532.65	39480.16
532.82	39185.25
532.99	39405.26
533.16	39426.32
533.33	39339.72
533.50	39974.01
533.67	39817.19
533.84	39608.89
534.01	39388.88
534.18	39529.31
534.35	40048.91
534.52	39592.50
534.69	39632.29
534.86	40477.22
535.03	39812.51
535.20	40158.91
535.37	40376.58
535.54	39875.71
535.71	40079.33
535.88	40374.24
536.05	40109.76
536.22	40467.86
536.38	40381.26
536.55	39908.47
536.72	40467.86
536.89	40294.66
537.06	40102.74
537.23	40711.28
537.40	40332.11
537.57	40341.47
537.74	40198.70
537.91	41228.54
538.08	40762.77
538.25	40556.80
538.42	40722.98
538.59	40868.09
538.75	40425.73
538.92	40786.18
539.09	41258.96
539.26	41090.44
539.43	41273.01
539.60	40896.18
539.77	40891.50
539.94	41003.85
540.11	40872.78
540.28	40912.56
540.44	40966.40
540.61	41247.26
540.78	40889.16
540.95	41654.51
541.12	41010.87
541.29	41188.75
541.46	41490.68
541.62	41624.09
541.79	41483.66
541.96	41020.23
542.13	41179.39
542.30	41504.72
542.47	41691.96
542.63	41497.70
542.80	42141.35
542.97	41961.12
543.14	42178.79
543.31	42213.90
543.48	42436.25
543.64	42506.47
543.81	42642.22
543.98	42380.08
544.15	42148.37
544.32	42719.46
544.48	42712.44
544.65	42284.12
544.82	42529.87
544.99	42143.69
545.16	42494.77
545.32	42157.73
545.49	42862.23
545.66	42902.02
545.83	42735.84
546.00	42733.50
546.16	42513.49
546.33	42775.63
546.50	42300.50
546.67	42553.28
546.83	42536.90
547.00	43033.09
547.17	42618.81
547.34	42656.26
547.50	43049.47
547.67	43295.23
547.84	43412.26
548.00	43002.66
548.17	43433.32
548.34	42780.31
548.51	43810.15
548.67	43400.55
548.84	43718.87
549.01	43225.01
549.18	42990.96
549.34	43241.40
549.51	43264.80
549.68	43583.12
549.84	43416.94
550.01	43889.73
550.18	43704.82
550.34	43199.27
550.51	43807.81
550.68	43889.73
550.84	43044.79
551.01	43564.39
551.18	43407.58
551.34	43271.82
551.51	43702.48
551.68	43819.51
551.84	44350.81
552.01	43660.35
552.18	43782.06
552.34	43805.47
552.51	44280.60
552.68	43845.26
552.84	44184.63
553.01	43992.71
553.18	44046.54
553.34	44081.65
553.51	43604.18
553.67	44336.77
553.84	44140.16
554.01	44252.51
554.17	44500.61
554.34	44664.44
554.51	44329.75
554.67	44215.06
554.84	44212.72
555.00	44334.43
555.17	44236.12
555.33	44186.97
555.50	44472.52
555.67	44531.03
555.83	44456.14
556.00	44580.18
556.16	44907.86
556.33	44849.35
556.50	44451.45
556.66	44479.54
556.83	44229.10
556.99	44793.17
557.16	45067.02
557.32	44832.96
557.49	45097.44
557.65	44587.21
557.82	44765.09
557.98	44912.54
558.15	44701.89
558.32	44882.11
558.48	44861.05
558.65	45191.06
558.81	44718.28
558.98	45158.30
559.14	44713.59
559.31	45043.61
559.47	44982.76
559.64	45116.17
559.80	44891.48
559.97	45139.57
560.13	45081.06
560.30	44739.34
560.46	45102.12
560.63	45048.29
560.79	45436.82
560.96	45755.13
561.12	44863.39
561.29	45165.32
561.45	45476.61
561.61	45397.03
561.78	44952.33
561.94	45448.52
562.11	44825.94
562.27	45268.30
562.44	45062.33
562.60	45228.51
562.77	45446.18
562.93	45673.21
563.10	45207.45
563.26	45272.98
563.42	45490.65
563.59	45223.83
563.75	45343.20
563.92	45832.37
564.08	45638.11
564.24	45631.08
564.41	45925.99
564.57	45207.45
564.74	45413.41
564.90	45471.93
565.07	45378.31
565.23	45228.51
565.39	45471.93
565.56	45680.24
565.72	45024.89
565.88	45177.02
566.05	45443.84
566.21	45312.77
566.38	45556.19
566.54	45450.86
566.70	46068.76
566.87	45808.96
567.03	45907.27
567.19	45830.03
567.36	45780.88
567.52	45326.81
567.68	45500.01
567.85	45521.08
568.01	45741.09
568.17	45713.00
568.34	45958.76
568.50	45645.13
568.66	45687.26
568.83	45720.02
568.99	45752.79
569.15	45577.25
569.32	45453.20
569.48	45586.61
569.64	45848.75
569.81	45954.08
569.97	45771.52
570.13	45661.51
570.30	45652.15
570.46	45621.72
570.62	45708.32
570.78	45364.26
570.95	45095.10
571.11	45682.58
571.27	45909.61
571.43	45326.81
571.60	45734.07
571.76	45923.65
571.92	45556.19
572.09	46080.47
572.25	45909.61
572.41	45703.64
572.57	46003.23
572.74	46426.87
572.90	46136.64
573.06	45907.27
573.22	45448.52
573.38	45525.76
573.55	45895.56
573.71	45883.86
573.87	45930.67
574.03	45879.18
574.20	45818.33
574.36	45731.73
574.52	45586.61
574.68	45724.71
574.84	45977.48
575.01	46492.40
575.17	46293.46
575.33	45619.38
575.49	45844.07
575.65	46358.99
575.82	46073.45
575.98	45490.65
576.14	46361.33
576.30	45895.56
576.46	45656.83
576.62	45841.73
576.79	45935.35
576.95	46036.00
577.11	45687.26
577.27	46003.23
577.43	45991.53
577.59	45766.84
577.75	46457.29
577.92	45507.04
578.08	45558.53
578.24	45656.83
578.40	46096.85
578.56	45633.42
578.72	45982.16
578.88	46251.33
579.04	46136.64
579.21	45970.46
579.37	45825.35
579.53	46398.78
579.69	45839.39
579.85	46050.04
580.01	46461.97
580.17	45909.61
580.33	46302.82
580.49	46136.64
580.65	46375.37
580.82	46085.15
580.98	45998.55
581.14	45794.92
581.30	46162.39
581.46	46223.24
581.62	45961.10
581.78	45895.56
581.94	46120.26
582.10	45930.67
582.26	46593.04
582.42	45940.04
582.58	45930.67
582.74	46433.89
582.90	45895.56
583.06	46230.26
583.22	46337.93
583.38	46548.57
583.54	46618.79
583.70	45956.42
583.86	45977.48
584.02	45750.45
584.18	46122.60
584.34	46155.36
584.50	46237.28
584.66	46103.87
584.82	45867.48
584.98	45895.56
585.14	46253.67
585.30	46239.62
585.46	45911.95
585.62	45806.62
585.78	45696.62
585.94	46050.04
586.10	46181.11
586.26	46160.05
586.42	46543.89
586.58	46131.96
586.74	45989.19
586.90	46590.70
587.06	45794.92
587.22	46398.78
587.38	46124.94
587.54	46689.01
587.70	46092.17
587.86	46085.15
588.02	45984.51
588.18	46288.77
588.34	46115.58
588.49	46007.91
588.65	46005.57
588.81	45581.93
588.97	46176.43
589.13	45446.18
589.29	45633.42
589.45	45986.85
589.61	46328.56
589.77	46176.43
589.93	46164.73
590.08	46199.83
