SpectraSuite Data File
++++++++++++++++++++++++++++++++++++
Date: Fri Oct 25 11:26:33 EDT 2013
User: price-jones
Dark Spectrum Present: No
Reference Spectrum Present: No
Number of Sampled Component Spectra: 1
Spectrometers: USB2+H05261
Integration Time (usec): 100000 (USB2+H05261)
Spectra Averaged: 1 (USB2+H05261)
Boxcar Smoothing: 0 (USB2+H05261)
Correct for Electrical Dark: No (USB2+H05261)
Strobe/Lamp Enabled: No (USB2+H05261)
Correct for Detector Non-linearity: No (USB2+H05261)
Correct for Stray Light: No (USB2+H05261)
Number of Pixels in Processed Spectrum: 2048
>>>>>Begin Processed Spectral Data<<<<<
365.73	250.44
365.92	250.44
366.12	250.44
366.32	128.73
366.52	42.13
366.72	191.92
366.91	105.32
367.11	114.69
367.31	79.58
367.51	135.75
367.70	112.35
367.90	128.73
368.10	70.22
368.30	166.18
368.49	114.69
368.69	168.52
368.89	194.26
369.09	196.60
369.28	168.52
369.48	128.73
369.68	198.95
369.87	198.95
370.07	266.82
370.27	259.80
370.47	393.21
370.66	610.88
370.86	641.31
371.06	713.86
371.25	741.95
371.45	657.69
371.65	695.14
371.84	667.05
372.04	697.48
372.24	667.05
372.44	791.10
372.63	760.67
372.83	688.12
373.03	772.38
373.22	720.88
373.42	788.76
373.62	755.99
373.81	842.59
374.01	760.67
374.21	779.40
374.40	786.42
374.60	861.32
374.79	835.57
374.99	737.27
375.19	821.53
375.38	826.21
375.58	821.53
375.78	788.76
375.97	929.19
376.17	994.73
376.37	1013.45
376.56	976.00
376.76	894.08
376.95	819.19
377.15	966.64
377.35	945.58
377.54	847.27
377.74	919.83
377.93	947.92
378.13	898.77
378.33	957.28
378.52	891.74
378.72	938.55
378.91	929.19
379.11	964.30
379.31	929.19
379.50	966.64
379.70	943.24
379.89	987.71
380.09	985.37
380.28	959.62
380.48	954.94
380.68	1015.79
380.87	1039.20
381.07	1050.90
381.26	1060.26
381.46	1034.52
381.65	1062.60
381.85	1043.88
382.04	1114.10
382.24	1104.73
382.43	976.00
382.63	1067.28
382.83	1088.35
383.02	1149.20
383.22	1160.91
383.41	1188.99
383.61	1095.37
383.80	1121.12
384.00	1153.88
384.19	1102.39
384.39	1135.16
384.58	1181.97
384.78	1050.90
384.97	1104.73
385.17	1170.27
385.36	1217.08
385.56	1256.87
385.75	1174.95
385.95	1210.06
386.14	1242.82
386.34	1158.57
386.53	1165.59
386.72	1198.35
386.92	1310.70
387.11	1287.29
387.31	1228.78
387.50	1172.61
387.70	1294.32
387.89	1284.95
388.09	1242.82
388.28	1301.34
388.48	1266.23
388.67	1313.04
388.86	1329.42
389.06	1242.82
389.25	1355.17
389.45	1441.77
389.64	1324.74
389.84	1387.94
390.03	1401.98
390.22	1439.43
390.42	1366.87
390.61	1338.79
390.81	1411.34
391.00	1437.09
391.19	1387.94
391.39	1514.33
391.58	1516.67
391.78	1462.83
391.97	1451.13
392.16	1486.24
392.36	1472.20
392.55	1544.75
392.75	1514.33
392.94	1483.90
393.13	1596.25
393.33	1497.94
393.52	1603.27
393.71	1579.86
393.91	1565.82
394.10	1652.42
394.29	1645.40
394.49	1607.95
394.68	1600.93
394.88	1785.83
395.07	1586.88
395.26	1617.31
395.46	1739.02
395.65	1713.27
395.84	1685.19
396.04	1813.92
396.23	1820.94
396.42	1778.81
396.62	1694.55
396.81	1785.83
397.00	1727.32
397.19	1703.91
397.39	1860.73
397.58	1893.49
397.77	1797.53
397.97	1893.49
398.16	1844.34
398.35	1940.30
398.55	1987.11
398.74	1867.75
398.93	1858.39
399.12	1858.39
399.32	1884.13
399.51	1851.36
399.70	2045.63
399.90	1909.88
400.09	1947.33
400.28	2047.97
400.47	2083.08
400.67	2115.84
400.86	2012.86
401.05	2047.97
401.24	2069.03
401.44	2094.78
401.63	2150.95
401.82	2345.22
402.01	2202.44
402.21	2169.68
402.40	2211.81
402.59	2183.72
402.78	2284.36
402.97	2181.38
403.17	2256.28
403.36	2258.62
403.55	2275.00
403.74	2408.41
403.93	2445.86
404.13	2459.90
404.32	2492.67
404.51	2296.07
404.70	2506.71
404.89	2427.14
405.09	2478.63
405.28	2527.78
405.47	2380.32
405.66	2562.89
405.85	2635.44
406.05	2565.23
406.24	2551.18
406.43	2626.08
406.62	2534.80
406.81	2656.51
407.00	2633.10
407.20	2710.34
407.39	2637.78
407.58	2747.79
407.77	2743.11
407.96	2691.62
408.15	2708.00
408.34	2740.77
408.54	2757.15
408.73	2832.05
408.92	2827.37
409.11	2897.58
409.30	2892.90
409.49	2871.84
409.68	2899.92
409.87	2890.56
410.07	3038.02
410.26	3030.99
410.45	3040.36
410.64	3229.94
410.83	3105.89
411.02	3105.89
411.21	3133.98
411.40	3192.49
411.59	3192.49
411.78	3215.90
411.98	3178.45
412.17	3222.92
412.36	3307.18
412.55	3246.32
412.74	3321.22
412.93	3342.28
413.12	3412.50
413.31	3421.86
413.50	3503.78
413.69	3581.02
413.88	3550.59
414.07	3634.85
414.26	3623.15
414.45	3672.30
414.64	3679.32
414.83	3538.89
415.02	3705.07
415.22	3927.42
415.41	3868.91
415.60	3946.14
415.79	3948.48
415.98	3950.82
416.17	4030.40
416.36	3908.69
416.55	3929.76
416.74	4140.41
416.93	4077.21
417.12	4053.81
417.31	4215.30
417.50	4287.86
417.69	4231.69
417.88	4308.93
418.07	4217.65
418.26	4395.53
418.45	4400.21
418.64	4360.42
418.83	4395.53
419.02	4334.67
419.21	4423.61
419.39	4568.73
419.58	4402.55
419.77	4451.70
419.96	4592.13
420.15	4671.71
420.34	4648.30
420.53	4730.22
420.72	4674.05
420.91	4608.51
421.10	4863.63
421.29	4833.21
421.48	4683.41
421.67	4767.67
421.86	4615.54
422.05	4975.98
422.24	4840.23
422.43	4894.06
422.61	4765.33
422.80	4983.00
422.99	4905.76
423.18	5062.58
423.37	5165.56
423.56	4912.78
423.75	4882.36
423.94	4851.93
424.13	4594.47
424.32	4798.10
424.50	5055.56
424.69	5160.88
424.88	5022.79
425.07	5022.79
425.26	4849.59
425.45	5025.13
425.64	4987.68
425.83	5090.67
426.01	5074.28
426.20	5067.26
426.39	5205.35
426.58	5252.16
426.77	5076.62
426.96	5200.67
427.15	5027.47
427.33	5078.96
427.52	5158.54
427.71	5210.03
427.90	5188.97
428.09	5427.70
428.28	5490.90
428.46	5371.53
428.65	5324.72
428.84	5514.30
429.03	5474.51
429.22	5383.23
429.40	5572.82
429.59	5493.24
429.78	5343.44
429.97	5238.12
430.16	5565.79
430.34	5537.71
430.53	5444.09
430.72	5701.54
430.91	5514.30
431.10	5661.76
431.28	5720.27
431.47	5729.63
431.66	5968.37
431.85	5853.68
432.03	5933.26
432.22	6064.33
432.41	5951.98
432.60	5874.74
432.79	5900.49
432.97	5966.03
433.16	6036.24
433.35	5987.09
433.54	6132.20
433.72	6155.61
433.91	6228.17
434.10	6101.78
434.28	6176.67
434.47	6111.14
434.66	6396.68
434.85	6424.77
435.03	6340.51
435.22	6413.07
435.41	6616.69
435.59	6490.31
435.78	6380.30
435.97	6431.79
436.16	6504.35
436.34	6452.86
436.53	6462.22
436.72	6836.70
436.90	6513.71
437.09	6520.73
437.28	6551.16
437.46	6588.61
437.65	6565.20
437.84	6745.42
438.02	6813.30
438.21	6832.02
438.40	6808.62
438.58	7019.27
438.77	6970.12
438.96	7049.69
439.14	7019.27
439.33	7377.37
439.52	7321.20
439.70	7143.32
439.89	7414.82
440.08	7290.77
440.26	7349.28
440.45	7351.62
440.63	7499.08
440.82	7634.83
441.01	7407.80
441.19	7534.18
441.38	7674.62
441.57	7791.64
441.75	7894.63
441.94	8049.10
442.12	8105.28
442.31	7990.59
442.50	8081.87
442.68	8028.04
442.87	8109.96
443.05	8163.79
443.24	8215.28
443.43	8170.81
443.61	8294.86
443.80	8430.61
443.98	8152.09
444.17	7868.88
444.35	8168.47
444.54	8395.50
444.73	8210.60
444.91	8351.03
445.10	8372.10
445.28	8381.46
445.47	8535.93
445.65	8526.57
445.84	8402.52
446.02	8390.82
446.21	8468.06
446.39	8372.10
446.58	8416.57
446.77	8341.67
446.95	8121.66
447.14	8304.22
447.32	8507.85
447.51	8341.67
447.69	8575.72
447.88	8571.04
448.06	8573.38
448.25	8446.99
448.43	8685.73
448.62	8444.65
448.80	8664.66
448.99	8643.60
449.17	8592.11
449.36	8723.18
449.54	8702.11
449.73	8954.89
449.91	9188.94
450.10	8938.51
450.28	8802.75
450.46	9165.54
450.65	9303.63
450.83	9069.58
451.02	9174.90
451.20	9238.09
451.39	9188.94
451.57	9102.34
451.76	9006.38
451.94	9217.03
452.13	9432.36
452.31	9174.90
452.49	9217.03
452.68	9444.06
452.86	9296.61
453.05	9668.75
453.23	9547.05
453.42	9282.56
453.60	9338.74
453.78	9525.98
453.97	9364.48
454.15	9596.20
454.34	9341.08
454.52	9696.84
454.70	9844.29
454.89	9724.93
455.07	9713.22
455.26	9923.87
455.44	10010.47
455.62	9811.53
455.81	9919.19
455.99	10127.50
456.17	10054.94
456.36	9982.38
456.54	10307.72
456.73	10314.74
456.91	10499.64
457.09	10656.46
457.28	10539.43
457.46	10373.25
457.64	10780.51
457.83	10731.36
458.01	10567.52
458.19	10750.08
458.38	10729.02
458.56	10815.62
458.74	10930.30
458.93	10670.50
459.11	10778.17
459.29	10778.17
459.48	10560.50
459.66	10944.34
459.84	10832.00
460.03	11122.23
460.21	11014.56
460.39	11040.31
460.57	10993.50
460.76	11257.98
460.94	11501.39
461.12	11016.90
461.31	11309.47
461.49	11321.17
461.67	11260.32
461.85	11485.01
462.04	11311.81
462.22	11859.49
462.40	11538.84
462.59	11576.29
462.77	11550.54
462.95	11454.58
463.13	11552.88
463.32	11517.78
463.50	11761.19
463.68	11630.12
463.86	11632.46
464.05	11538.84
464.23	11953.12
464.41	11859.49
464.59	11765.87
464.78	12107.59
464.96	12081.85
465.14	12053.76
465.32	12025.67
465.50	12114.61
465.69	12290.15
465.87	12292.49
466.05	12020.99
466.23	12229.30
466.41	11992.90
466.60	12453.99
466.78	12271.43
466.96	12311.22
467.14	12297.17
467.32	12325.26
467.51	12650.60
467.69	12266.75
467.87	12402.50
468.05	12634.21
468.23	12416.54
468.41	12463.35
468.60	12552.29
468.78	12835.50
468.96	12924.44
469.14	12638.89
469.32	12994.65
469.50	12816.77
469.69	13102.32
469.87	13198.28
470.05	12945.50
470.23	13303.60
470.41	13125.72
470.59	13329.35
470.77	13439.36
470.95	13217.01
471.14	13378.50
471.32	13235.73
471.50	13668.73
471.68	13778.73
471.86	13607.87
472.04	13486.17
472.22	13975.34
472.40	13680.43
472.58	13973.00
472.77	14178.97
472.95	14260.88
473.13	14593.24
473.31	14211.73
473.49	14235.14
473.67	14251.52
473.85	14312.38
474.03	14771.12
474.21	14740.69
474.39	14670.48
474.57	14696.22
474.75	14953.68
474.93	15098.80
475.12	14792.19
475.30	15084.75
475.48	14773.46
475.66	15143.27
475.84	15288.38
476.02	15264.97
476.20	15159.65
476.38	15627.76
476.56	15805.64
476.74	16030.33
476.92	15936.71
477.10	15824.36
477.28	15999.90
477.46	16070.12
477.64	16112.25
477.82	16439.92
478.00	16861.22
478.18	16865.90
478.36	17027.40
478.54	17097.61
478.72	17151.45
478.90	17479.12
479.08	17905.10
479.26	17652.32
479.44	17837.22
479.62	17687.43
479.80	18326.39
479.98	18307.67
480.16	18633.00
480.34	18375.55
480.52	18761.73
480.70	18665.77
480.88	18469.17
481.06	18946.64
481.24	18892.80
481.41	19316.44
481.59	19410.06
481.77	19875.83
481.95	19798.59
482.13	19847.74
482.31	19658.16
482.49	20046.69
482.67	20519.48
482.85	20238.61
483.03	20809.70
483.21	20737.15
483.39	20807.36
483.57	20814.38
483.74	20922.05
483.92	21294.19
484.10	21083.55
484.28	21621.87
484.46	22043.17
484.64	22405.95
484.82	21713.15
485.00	22256.15
485.18	22754.69
485.35	23089.38
485.53	23047.26
485.71	23077.68
485.89	23351.52
486.07	23498.98
486.25	23407.70
486.43	23550.47
486.61	23962.40
486.78	24142.63
486.96	24278.38
487.14	24381.36
487.32	24793.29
487.50	24833.08
487.68	25095.22
487.85	25010.96
488.03	25598.44
488.21	25979.95
488.39	25951.86
488.57	26363.79
488.75	26190.59
488.92	26366.13
489.10	26967.65
489.28	26623.59
489.46	27424.06
489.64	27033.19
489.81	27789.18
489.99	27550.45
490.17	27793.86
490.35	28060.68
490.53	28388.36
490.70	28741.78
490.88	28238.56
491.06	29104.56
491.24	28732.42
491.41	29303.51
491.59	29579.69
491.77	29453.30
491.95	29439.26
492.13	29425.22
492.30	29900.34
492.48	29895.66
492.66	30309.94
492.84	30543.99
493.01	30677.40
493.19	30878.69
493.37	30979.33
493.54	31175.94
493.72	31302.32
493.90	31152.53
494.08	31517.65
494.25	32194.07
494.43	32390.67
494.61	32877.51
494.79	32535.79
494.96	32526.42
495.14	32678.56
495.32	33120.92
495.49	32940.70
495.67	33144.33
495.85	33584.35
496.02	33902.66
496.20	33886.28
496.38	34342.68
496.55	34534.60
496.73	35117.40
496.91	34782.70
497.09	34906.75
497.26	34735.89
497.44	34932.50
497.62	35449.75
497.79	35777.43
497.97	35494.22
498.14	36006.80
498.32	35997.44
498.50	36119.15
498.67	36545.12
498.85	36683.22
499.03	36765.14
499.20	36875.14
499.38	37156.00
499.56	37165.37
499.73	37148.98
499.91	37280.05
500.08	37837.10
500.26	37319.84
500.44	38071.15
500.61	37883.91
500.79	37879.23
500.97	38155.41
501.14	38782.68
501.32	38361.38
501.49	38754.59
501.67	38616.50
501.84	38876.30
502.02	39093.97
502.20	39201.63
502.37	39321.00
502.55	39161.84
502.72	39505.90
502.90	39840.60
503.07	39634.63
503.25	39828.90
503.43	39976.35
503.60	40231.47
503.78	40140.19
503.95	40432.75
504.13	40865.75
504.30	40650.42
504.48	40350.84
504.65	40781.49
504.83	41144.28
505.01	41591.32
505.18	41312.80
505.36	41497.70
505.53	41483.66
505.71	41179.39
505.88	41275.35
506.06	41787.92
506.23	42080.49
506.41	42108.58
506.58	42373.06
506.76	42529.87
506.93	42651.58
507.11	42501.79
507.28	42796.70
507.46	42834.14
507.63	42838.83
507.81	43456.73
507.98	42890.32
508.16	43145.44
508.33	43910.79
508.50	43672.06
508.68	43924.83
508.85	44009.09
509.03	44076.97
509.20	44107.40
509.38	44439.75
509.55	44186.97
509.73	44692.53
509.90	44456.14
510.08	44830.62
510.25	44685.51
510.42	44924.24
510.60	45734.07
510.77	44996.80
510.95	45446.18
511.12	45530.44
511.30	45261.28
511.47	45366.60
511.64	45511.72
511.82	45979.82
511.99	45663.85
512.17	46319.20
512.34	45940.04
512.51	46344.95
512.69	46646.88
512.86	46445.59
513.04	46611.77
513.21	46394.10
513.38	46810.71
513.56	46909.02
513.73	46927.74
513.90	47077.54
514.08	46749.86
514.25	47672.03
514.43	47566.71
514.60	47583.09
514.77	47805.44
514.95	47646.29
515.12	47327.97
515.29	48039.50
515.47	48156.52
515.64	48088.65
515.81	48116.73
515.99	48430.36
516.16	48624.63
516.33	48404.62
516.51	48734.63
516.68	48523.99
516.85	48292.27
517.03	48931.24
517.20	49057.63
517.37	48715.91
517.54	48669.10
517.72	49137.21
517.89	49427.43
518.06	49471.90
518.24	49055.29
518.41	49420.41
518.58	49329.13
518.75	49663.83
518.93	49415.73
519.10	49399.35
519.27	49659.15
519.45	49944.69
519.62	49956.39
519.79	49748.09
519.96	50138.96
520.14	50248.96
520.31	50089.80
520.48	50307.47
520.65	50096.83
520.83	50494.72
521.00	50752.18
521.17	50281.73
521.34	50880.91
521.52	51002.61
521.69	50822.39
521.86	50717.07
522.03	50983.89
522.20	51693.07
522.38	51576.04
522.55	51320.93
522.72	51398.16
522.89	51540.94
523.07	51655.62
523.24	51870.95
523.41	51943.51
523.58	51728.18
523.75	51613.49
523.92	51641.58
524.10	52090.96
524.27	52011.38
524.44	52252.46
524.61	51845.21
524.78	52240.76
524.96	52095.64
525.13	52179.90
525.30	52449.06
525.47	52629.29
525.64	52177.56
525.81	52491.19
525.98	52774.40
526.16	52231.40
526.33	52793.12
526.50	52947.60
526.67	52591.84
526.84	53361.87
527.01	52832.91
527.18	53109.10
527.36	53038.88
527.53	53148.88
527.70	53319.74
527.87	53518.69
528.04	53422.73
528.21	53396.98
528.38	53535.07
528.55	53680.19
528.72	53375.92
528.89	53696.57
529.07	53530.39
529.24	53286.98
529.41	53399.32
529.58	54073.40
529.75	53806.58
529.92	53907.22
530.09	54010.20
530.26	54148.29
530.43	53930.62
530.60	54059.35
530.77	54160.00
530.94	54094.46
531.11	53993.82
531.28	54354.26
531.46	54255.96
531.63	54660.87
531.80	54412.77
531.97	54307.45
532.14	54593.00
532.31	54616.40
532.48	54541.50
532.65	54581.29
532.82	54209.15
532.99	54766.20
533.16	54759.17
533.33	54742.79
533.50	55051.74
533.67	54873.86
533.84	54726.41
534.01	54777.90
534.18	54960.46
534.35	55334.95
534.52	55018.97
534.69	55206.22
534.86	55433.25
535.03	55166.43
535.20	55290.48
535.37	55489.42
535.54	55580.70
535.71	55353.67
535.88	55253.03
536.05	55533.89
536.22	55618.15
536.38	55718.79
536.55	55707.09
536.72	55711.77
536.89	55416.86
537.06	55681.34
537.23	55622.83
537.40	55566.66
537.57	55739.86
537.74	55889.65
537.91	55861.57
538.08	55789.01
538.25	55819.44
538.42	56179.88
538.59	56126.05
538.75	55997.32
538.92	56112.00
539.09	56135.41
539.26	56236.05
539.43	56289.88
539.60	56294.56
539.77	56500.53
539.94	56486.49
540.11	56477.13
540.28	56292.22
540.44	56596.49
540.61	56397.55
540.78	56435.00
540.95	56346.06
541.12	56367.12
541.29	56350.74
541.46	56594.15
541.62	56774.37
541.79	56669.05
541.96	56481.81
542.13	56591.81
542.30	56877.36
542.47	56706.50
542.63	56945.23
542.80	56886.72
542.97	56994.39
543.14	57153.54
543.31	57317.38
543.48	57446.11
543.64	57528.03
543.81	57492.92
543.98	57380.57
544.15	57460.15
544.32	57352.49
544.48	57476.54
544.65	57165.24
544.82	57478.88
544.99	57289.29
545.16	57521.01
545.32	57336.10
545.49	57764.42
545.66	57593.56
545.83	57743.36
546.00	57535.05
546.16	57567.82
546.33	57471.85
546.50	57308.02
546.67	57792.51
546.83	57696.55
547.00	57670.80
547.17	57841.66
547.34	57874.43
547.50	57860.38
547.67	58113.16
547.84	57998.48
548.00	58230.19
548.17	58309.77
548.34	57979.75
548.51	58232.53
548.67	58424.45
548.84	58281.68
549.01	58218.49
549.18	58335.51
549.34	58251.25
549.51	58454.88
549.68	58480.63
549.84	58227.85
550.01	58309.77
550.18	58277.00
550.34	58459.56
550.51	58365.94
550.68	58300.40
550.84	58040.60
551.01	58387.00
551.18	58639.78
551.34	58731.06
551.51	58546.16
551.68	58532.12
551.84	58855.11
552.01	58398.71
552.18	58752.13
552.34	58440.84
552.51	58946.39
552.68	58621.06
552.84	58670.21
553.01	58899.58
553.18	58614.04
553.34	58915.96
553.51	58637.44
553.67	58915.96
553.84	59128.95
554.01	59063.42
554.17	58925.33
554.34	59152.36
554.51	59025.97
554.67	59152.36
554.84	59105.55
555.00	59157.04
555.17	59112.57
555.33	58988.52
555.50	59009.59
555.67	58958.09
555.83	58997.88
556.00	59075.12
556.16	59423.86
556.33	59093.85
556.50	59318.54
556.66	59423.86
556.83	59194.49
556.99	59444.93
557.16	59461.31
557.32	59517.48
557.49	59585.36
557.65	59372.37
557.82	59351.30
557.98	59231.94
558.15	59379.39
558.32	59388.75
558.48	59456.63
558.65	59643.87
558.81	59386.41
558.98	59573.66
559.14	59664.94
559.31	59590.04
559.47	59700.04
559.64	59868.56
559.80	59732.81
559.97	59774.94
560.13	59678.98
560.30	59597.06
560.46	59793.67
560.63	59870.90
560.79	59718.77
560.96	59913.03
561.12	60009.00
561.29	59786.64
561.45	59772.60
561.61	59894.31
561.78	60111.98
561.94	59882.61
562.11	59887.29
562.27	60100.28
562.44	60114.32
562.60	60020.70
562.77	60224.32
562.93	59941.12
563.10	60142.41
563.26	59962.18
563.42	60266.45
563.59	60116.66
563.75	60079.21
563.92	60076.87
564.08	59978.57
564.24	60172.83
564.41	60076.87
564.57	60184.54
564.74	60200.92
564.90	60254.75
565.07	60079.21
565.23	60151.77
565.39	60055.81
565.56	60257.09
565.72	60257.09
565.88	60193.90
566.05	60236.03
566.21	60051.12
566.38	60252.41
566.54	60257.09
566.70	60397.52
566.87	60552.00
567.03	60165.81
567.19	60500.51
567.36	60336.67
567.52	60395.18
567.68	60339.01
567.85	60350.71
568.01	60369.44
568.17	60273.48
568.34	60547.32
568.50	60355.39
568.66	60460.72
568.83	60736.90
568.99	60409.23
569.15	60446.68
569.32	60486.46
569.48	60292.20
569.64	60629.24
569.81	60329.65
569.97	60388.16
570.13	60327.31
570.30	60336.67
570.46	60449.02
570.62	60463.06
570.78	60449.02
570.95	60413.91
571.11	60769.67
571.27	60416.25
571.43	60458.38
571.60	60708.82
571.76	60708.82
571.92	60633.92
572.09	60612.85
572.25	60502.85
572.41	60544.98
572.57	60711.16
572.74	60718.18
572.90	60713.50
573.06	60830.52
573.22	60753.29
573.38	60692.43
573.55	60877.33
573.71	60622.22
573.87	60865.63
574.03	60680.73
574.20	60788.39
574.36	60783.71
574.52	60617.53
574.68	60797.76
574.84	60858.61
575.01	60697.11
575.17	60844.57
575.33	60626.90
575.49	60718.18
575.65	60783.71
575.82	60860.95
575.98	60610.51
576.14	61052.87
576.30	60949.89
576.46	60598.81
576.62	60727.54
576.79	60774.35
576.95	60764.99
577.11	60879.67
577.27	60823.50
577.43	60933.51
577.59	60821.16
577.75	60959.25
577.92	60507.53
578.08	60882.02
578.24	60835.20
578.40	61165.22
578.56	60954.57
578.72	60856.27
578.88	61083.30
579.04	61127.77
579.21	60933.51
579.37	60903.08
579.53	60912.44
579.69	60619.88
579.85	61024.79
580.01	60757.97
580.17	60823.50
580.33	61069.26
580.49	60959.25
580.65	61022.45
580.82	60821.16
580.98	60772.01
581.14	60879.67
581.30	61069.26
581.46	60994.36
581.62	61043.51
581.78	61013.08
581.94	60828.18
582.10	60942.87
582.26	60828.18
582.42	61013.08
582.58	61158.20
582.74	61003.72
582.90	60828.18
583.06	61036.49
583.22	60963.93
583.38	60959.25
583.54	60891.38
583.70	61165.22
583.86	61144.16
584.02	60933.51
584.18	61034.15
584.34	61029.47
584.50	61038.83
584.66	60985.00
584.82	60767.33
584.98	61296.29
585.14	61221.39
585.30	61003.72
585.46	61109.05
585.62	61132.45
585.78	61291.61
585.94	60760.31
586.10	61179.26
586.26	61045.85
586.42	61010.74
586.58	61219.05
586.74	61207.35
586.90	61022.45
587.06	61125.43
587.22	61057.56
587.38	60982.66
587.54	61174.58
587.70	61291.61
587.86	61080.96
588.02	61162.88
588.18	61242.46
588.34	61085.64
588.49	60952.23
