SpectraSuite Data File
++++++++++++++++++++++++++++++++++++
Date: Fri Oct 25 10:43:17 EDT 2013
User: price-jones
Dark Spectrum Present: No
Reference Spectrum Present: No
Number of Sampled Component Spectra: 1
Spectrometers: USB2+H05261
Integration Time (usec): 100000 (USB2+H05261)
Spectra Averaged: 1 (USB2+H05261)
Boxcar Smoothing: 0 (USB2+H05261)
Correct for Electrical Dark: No (USB2+H05261)
Strobe/Lamp Enabled: No (USB2+H05261)
Correct for Detector Non-linearity: No (USB2+H05261)
Correct for Stray Light: No (USB2+H05261)
Number of Pixels in Processed Spectrum: 2048
>>>>>Begin Processed Spectral Data<<<<<
365.73	142.77
365.92	142.77
366.12	142.77
366.32	126.39
366.52	7.02
366.72	0.00
366.91	65.54
367.11	7.02
367.31	0.00
367.51	18.72
367.70	42.13
367.90	60.85
368.10	0.00
368.30	51.49
368.49	0.00
368.69	39.79
368.89	28.09
369.09	39.79
369.28	2.34
369.48	60.85
369.68	110.01
369.87	63.19
370.07	105.32
370.27	117.03
370.47	180.22
370.66	320.65
370.86	411.93
371.06	524.28
371.25	531.30
371.45	360.44
371.65	486.83
371.84	440.02
372.04	454.06
372.24	493.85
372.44	449.38
372.63	463.43
372.83	433.00
373.03	484.49
373.22	517.26
373.42	552.37
373.62	557.05
373.81	517.26
374.01	613.22
374.21	479.81
374.40	543.00
374.60	653.01
374.79	580.45
374.99	571.09
375.19	613.22
375.38	636.63
375.58	491.51
375.78	589.82
375.97	643.65
376.17	631.94
376.37	571.09
376.56	638.97
376.76	627.26
376.95	620.24
377.15	622.58
377.35	608.54
377.54	641.31
377.74	620.24
377.93	596.84
378.13	671.73
378.33	641.31
378.52	695.14
378.72	601.52
378.91	695.14
379.11	681.10
379.31	678.76
379.50	622.58
379.70	730.25
379.89	709.18
380.09	716.20
380.28	650.67
380.48	662.37
380.68	580.45
380.87	650.67
381.07	678.76
381.26	667.05
381.46	678.76
381.65	685.78
381.85	734.93
382.04	720.88
382.24	702.16
382.43	676.41
382.63	653.01
382.83	613.22
383.02	725.57
383.22	716.20
383.41	667.05
383.61	746.63
383.80	788.76
384.00	779.40
384.19	730.25
384.39	819.19
384.58	819.19
384.78	779.40
384.97	800.46
385.17	800.46
385.36	833.23
385.56	760.67
385.75	718.54
385.95	809.83
386.14	875.36
386.34	781.74
386.53	805.14
386.72	812.17
386.92	887.06
387.11	873.02
387.31	877.70
387.50	924.51
387.70	819.19
387.89	814.51
388.09	917.49
388.28	884.72
388.48	919.83
388.67	894.08
388.86	837.91
389.06	957.28
389.25	926.85
389.45	933.87
389.64	933.87
389.84	994.73
390.03	964.30
390.22	976.00
390.42	1076.65
390.61	1015.79
390.81	1008.77
391.00	1050.90
391.19	1053.24
391.39	1046.22
391.58	1102.39
391.78	1027.50
391.97	1067.28
392.16	999.41
392.36	1015.79
392.55	1046.22
392.75	1004.09
392.94	1041.54
393.13	1039.20
393.33	966.64
393.52	1032.18
393.71	1043.88
393.91	1114.10
394.10	1083.67
394.29	1186.65
394.49	1165.59
394.68	1170.27
394.88	1149.20
395.07	1226.44
395.26	1261.55
395.46	1196.01
395.65	1231.12
395.84	1214.74
396.04	1235.80
396.23	1238.14
396.42	1165.59
396.62	1158.57
396.81	1256.87
397.00	1256.87
397.19	1345.81
397.39	1287.29
397.58	1401.98
397.77	1317.72
397.97	1383.26
398.16	1404.32
398.35	1474.54
398.55	1458.15
398.74	1488.58
398.93	1509.65
399.12	1488.58
399.32	1519.01
399.51	1469.86
399.70	1575.18
399.90	1614.97
400.09	1570.50
400.28	1640.72
400.47	1572.84
400.67	1659.44
400.86	1652.42
401.05	1607.95
401.24	1682.85
401.44	1652.42
401.63	1809.23
401.82	1701.57
402.01	1755.40
402.21	1748.38
402.40	1764.76
402.59	1678.16
402.78	1760.08
402.97	1710.93
403.17	1790.51
403.36	1703.91
403.55	1834.98
403.74	1928.60
403.93	1802.21
404.13	1802.21
404.32	1834.98
404.51	1795.19
404.70	1877.11
404.89	1961.37
405.09	1987.11
405.28	1989.46
405.47	1956.69
405.66	1937.96
405.85	2017.54
406.05	1980.09
406.24	2010.52
406.43	2050.31
406.62	2033.93
406.81	2071.37
407.00	2005.84
407.20	2043.29
407.39	2045.63
407.58	2059.67
407.77	2078.40
407.96	2165.00
408.15	2340.54
408.34	2207.13
408.54	2282.02
408.73	2223.51
408.92	2342.88
409.11	2349.90
409.30	2260.96
409.49	2286.70
409.68	2312.45
409.87	2342.88
410.07	2260.96
410.26	2331.17
410.45	2284.36
410.64	2420.11
410.83	2504.37
411.02	2506.71
411.21	2466.92
411.40	2504.37
411.59	2609.70
411.78	2581.61
411.98	2600.34
412.17	2567.57
412.36	2647.15
412.55	2743.11
412.74	2654.17
412.93	2792.26
413.12	2654.17
413.31	2942.05
413.50	2857.79
413.69	2902.26
413.88	2752.47
414.07	2895.24
414.26	3016.95
414.45	2890.56
414.64	2918.65
414.83	3014.61
415.02	2925.67
415.22	3054.40
415.41	3105.89
415.60	3176.11
415.79	3227.60
415.98	3101.21
416.17	3145.68
416.36	3197.17
416.55	3255.69
416.74	3187.81
416.93	3220.58
417.12	3246.32
417.31	3300.16
417.50	3377.39
417.69	3435.91
417.88	3471.01
418.07	3337.60
418.26	3478.04
418.45	3407.82
418.64	3478.04
418.83	3538.89
419.02	3524.85
419.21	3613.79
419.39	3508.46
419.58	3588.04
419.77	3471.01
419.96	3599.74
420.15	3578.68
420.34	3761.24
420.53	3667.62
420.72	3716.77
420.91	3847.84
421.10	3770.60
421.29	3794.01
421.48	3857.20
421.67	3833.80
421.86	3801.03
422.05	3691.02
422.24	3798.69
422.43	3878.27
422.61	3950.82
422.80	3819.75
422.99	3810.39
423.18	3889.97
423.37	4067.85
423.56	3948.48
423.75	3946.14
423.94	3983.59
424.13	3618.47
424.32	3742.52
424.50	3836.14
424.69	3920.40
424.88	4105.30
425.07	3796.35
425.26	3784.65
425.45	3953.16
425.64	3796.35
425.83	3911.04
426.01	4086.58
426.20	3908.69
426.39	3988.27
426.58	3981.25
426.77	3962.53
426.96	3882.95
427.15	3999.98
427.33	4025.72
427.52	4030.40
427.71	4124.02
427.90	4060.83
428.09	4278.50
428.28	4203.60
428.46	4166.15
428.65	4156.79
428.84	4231.69
429.03	4257.43
429.22	4105.30
429.40	4100.62
429.59	4117.00
429.78	3957.85
429.97	3866.56
430.16	4049.13
430.34	4046.79
430.53	4121.68
430.72	4112.32
430.91	4327.65
431.10	4381.48
431.28	4449.36
431.47	4608.51
431.66	4620.22
431.85	4435.32
432.03	4505.53
432.22	4648.30
432.41	4624.90
432.60	4683.41
432.79	4746.61
432.97	4777.03
433.16	4704.48
433.35	4599.15
433.54	4692.77
433.72	4603.83
433.91	4709.16
434.10	4683.41
434.28	4744.27
434.47	4781.71
434.66	4903.42
434.85	4865.97
435.03	4905.76
435.22	4917.47
435.41	5116.41
435.59	4868.31
435.78	5104.71
435.97	5020.45
436.16	5083.64
436.34	5036.83
436.53	5107.05
436.72	5181.95
436.90	5020.45
437.09	5287.27
437.28	5100.03
437.46	5039.17
437.65	5226.42
437.84	5146.84
438.02	5107.05
438.21	5245.14
438.40	5203.01
438.58	5359.83
438.77	5263.86
438.96	5432.38
439.14	5446.43
439.33	5692.18
439.52	5448.77
439.70	5584.52
439.89	5617.29
440.08	5668.78
440.26	5767.08
440.45	5605.58
440.63	5930.92
440.82	5923.90
441.01	5982.41
441.19	5905.17
441.38	6071.35
441.57	6061.99
441.75	6186.04
441.94	6279.66
442.12	6249.23
442.31	6307.74
442.50	6054.97
442.68	6296.04
442.87	6228.17
443.05	6200.08
443.24	6211.78
443.43	6399.02
443.61	6399.02
443.80	6609.67
443.98	6246.89
444.17	6064.33
444.35	6413.07
444.54	6581.59
444.73	6609.67
444.91	6413.07
445.10	6480.94
445.28	6392.00
445.47	6300.72
445.65	6396.68
445.84	6462.22
446.02	6516.05
446.21	6349.87
446.39	6518.39
446.58	6661.16
446.77	6621.38
446.95	6492.65
447.14	6588.61
447.32	6717.34
447.51	6656.48
447.69	6494.99
447.88	6630.74
448.06	6595.63
448.25	6733.72
448.43	6707.98
448.62	6623.72
448.80	6705.63
448.99	6710.32
449.17	6834.36
449.36	6993.52
449.54	6675.21
449.73	6942.03
449.91	7066.08
450.10	7077.78
450.28	7049.69
450.46	7012.24
450.65	7098.84
450.83	7077.78
451.02	7157.36
451.20	7190.13
451.39	7162.04
451.57	6991.18
451.76	7178.42
451.94	7187.79
452.13	7241.62
452.31	7250.98
452.49	7187.79
452.68	7183.10
452.86	7162.04
453.05	7316.51
453.23	7389.07
453.42	7290.77
453.60	7304.81
453.78	7344.60
453.97	7269.70
454.15	7267.36
454.34	7360.98
454.52	7360.98
454.70	7480.35
454.89	7452.27
455.07	7604.40
455.26	7466.31
455.44	7793.98
455.62	7730.79
455.81	7749.51
455.99	7559.93
456.17	7779.94
456.36	7695.68
456.54	7927.39
456.73	8044.42
456.91	8201.24
457.09	7943.78
457.28	8248.05
457.46	7840.79
457.64	7997.61
457.83	8126.34
458.01	8121.66
458.19	8182.51
458.38	7997.61
458.56	8135.70
458.74	8086.55
458.93	8023.36
459.11	8166.13
459.29	8065.49
459.48	8175.49
459.66	8325.29
459.84	8201.24
460.03	8470.40
460.21	8524.23
460.39	8416.57
460.57	8533.59
460.76	8671.68
460.94	8449.33
461.12	8470.40
461.31	8678.71
461.49	8723.18
461.67	8645.94
461.85	8713.81
462.04	8812.12
462.22	9404.27
462.40	8910.42
462.59	8713.81
462.77	8807.44
462.95	8842.54
463.13	9004.04
463.32	8889.35
463.50	9071.92
463.68	8737.22
463.86	8894.04
464.05	8903.40
464.23	8723.18
464.41	9025.11
464.59	8950.21
464.78	9172.56
464.96	8980.64
465.14	9041.49
465.32	9062.55
465.50	9186.60
465.69	9392.57
465.87	9303.63
466.05	9259.16
466.23	9224.05
466.41	9224.05
466.60	9448.74
466.78	9064.89
466.96	9397.25
467.14	9238.09
467.32	9228.73
467.51	9415.98
467.69	9193.62
467.87	9577.47
468.05	9380.87
468.23	9228.73
468.41	9413.63
468.60	9453.42
468.78	9577.47
468.96	9460.45
469.14	9575.13
469.32	9607.90
469.50	9423.00
469.69	9696.84
469.87	9769.40
470.05	9755.35
470.23	9839.61
470.41	9736.63
470.59	10162.61
470.77	9884.08
470.95	9762.37
471.14	10122.82
471.32	9713.22
471.50	10090.05
471.68	10249.21
471.86	10214.10
472.04	10305.38
472.22	10417.72
472.40	10136.86
472.58	10354.53
472.77	10487.94
472.95	10490.28
473.13	10848.38
473.31	10558.16
473.49	10342.83
473.67	10415.38
473.85	10616.67
474.03	10729.02
474.21	10902.22
474.39	10839.02
474.57	10998.18
474.75	10991.16
474.93	10991.16
475.12	11005.20
475.30	11236.91
475.48	11014.56
475.66	11227.55
475.84	11138.61
476.02	11325.85
476.20	11138.61
476.38	11618.42
476.56	11882.90
476.74	11688.64
476.92	11641.82
477.10	11721.40
477.28	12018.65
477.46	11967.16
477.64	11957.80
477.82	12358.03
478.00	12351.01
478.18	12313.56
478.36	12524.21
478.54	12521.87
478.72	12685.70
478.90	12727.83
479.08	12933.80
479.26	12992.31
479.44	12938.48
479.62	13252.11
479.80	13165.51
479.98	13547.02
480.16	13226.37
480.34	13397.23
480.52	13717.88
480.70	13460.42
480.88	13540.00
481.06	13769.37
481.24	13926.19
481.41	14036.19
481.59	14019.81
481.77	14249.18
481.95	13973.00
482.13	14457.49
482.31	14469.19
482.49	14902.19
482.67	15075.39
482.85	14728.99
483.03	15276.68
483.21	15300.08
483.39	15438.17
483.57	15220.50
483.74	15374.98
483.92	15421.79
484.10	15243.91
484.28	15744.78
484.46	15819.68
484.64	16102.89
484.82	16105.23
485.00	16149.70
485.18	16542.91
485.35	16339.28
485.53	16016.29
485.71	16042.03
485.89	16287.79
486.07	16542.91
486.25	16542.91
486.43	16816.75
486.61	17053.14
486.78	17039.10
486.96	16996.97
487.14	17530.61
487.32	17769.35
487.50	17659.34
487.68	18195.32
487.85	18029.15
488.03	18607.26
488.21	18410.65
488.39	18218.73
488.57	18618.96
488.75	18228.09
488.92	18925.57
489.10	19105.79
489.28	19213.46
489.46	19508.37
489.64	19763.48
489.81	19829.02
489.99	19964.77
490.17	20149.67
490.35	20226.91
490.53	20004.56
490.70	20561.61
490.88	20664.59
491.06	20542.88
491.24	20381.38
491.41	20856.51
491.59	20592.03
491.77	20453.94
491.95	20798.00
492.13	21184.19
492.30	21319.94
492.48	21397.18
492.66	21546.97
492.84	21373.77
493.01	21706.13
493.19	21869.97
493.37	22221.05
493.54	22022.10
493.72	22553.40
493.90	22504.25
494.08	22874.06
494.25	22920.87
494.43	23281.31
494.61	23019.17
494.79	23140.88
494.96	23007.47
495.14	23339.82
495.32	23807.93
495.49	23475.57
495.67	23744.73
495.85	23779.84
496.02	23924.96
496.20	24198.80
496.38	24290.08
496.55	24250.29
496.73	24690.31
496.91	24538.18
497.09	24510.09
497.26	24835.42
497.44	24821.38
497.62	24877.55
497.79	25202.89
497.97	25048.41
498.14	25401.83
498.32	25570.35
498.50	25713.13
498.67	25998.67
498.85	25745.89
499.03	25804.41
499.20	26038.46
499.38	26366.13
499.56	26410.60
499.73	26148.46
499.91	26174.21
500.08	26792.11
500.26	26096.97
500.44	26485.50
500.61	26785.09
500.79	26546.36
500.97	26520.61
501.14	26977.01
501.32	26719.56
501.49	27056.59
501.67	26904.46
501.84	27295.33
502.02	27182.98
502.20	27253.20
502.37	27744.71
502.55	27580.87
502.72	27758.75
502.90	27770.46
503.07	27702.58
503.25	27988.13
503.43	27716.62
503.60	28020.89
503.78	28074.73
503.95	27943.66
504.13	28116.86
504.30	28596.67
504.48	28458.57
504.65	28783.91
504.83	28685.61
505.01	28968.81
505.18	28987.53
505.36	29364.36
505.53	29413.51
505.71	29294.14
505.88	29500.11
506.06	29116.26
506.23	29450.96
506.41	29584.37
506.58	29912.05
506.76	29862.90
506.93	29724.80
507.11	29605.44
507.28	29778.64
507.46	29514.16
507.63	29804.38
507.81	29876.94
507.98	29759.91
508.16	30277.17
508.33	30590.80
508.50	30389.52
508.68	30506.54
508.85	30511.22
509.03	30696.13
509.20	31012.10
509.38	30864.64
509.55	30810.81
509.73	31232.11
509.90	31009.76
510.08	31604.25
510.25	31599.57
510.42	31536.38
510.60	31199.34
510.77	31454.46
510.95	31737.66
511.12	31732.98
511.30	31625.32
511.47	32205.77
511.64	31751.71
511.82	31992.78
511.99	31798.52
512.17	32294.71
512.34	31718.94
512.51	32280.67
512.69	32617.71
512.86	32383.65
513.04	32786.22
513.21	32629.41
513.38	32818.99
513.56	32357.91
513.73	32486.64
513.90	32687.92
514.08	32437.48
514.25	32914.95
514.43	32924.32
514.60	33251.99
514.77	33364.34
514.95	33582.01
515.12	33102.20
515.29	33427.53
515.47	34059.48
515.64	33574.98
515.81	33289.44
515.99	33696.69
516.16	33649.88
516.33	33181.77
516.51	33352.63
516.68	32950.06
516.85	32889.21
517.03	33347.95
517.20	33764.57
517.37	33797.34
517.54	33855.85
517.72	33844.15
517.89	33474.34
518.06	33905.00
518.24	33963.51
518.41	34431.62
518.58	34321.62
518.75	34410.56
518.93	34771.00
519.10	34660.99
519.27	35243.79
519.45	34799.08
519.62	34731.21
519.79	35302.30
519.96	35646.36
520.14	34937.18
520.31	35117.40
520.48	35145.48
520.65	35321.02
520.83	35454.44
521.00	35583.16
521.17	34916.11
521.34	35962.33
521.52	35594.87
521.69	36116.81
521.86	35887.43
522.03	36421.08
522.20	36107.44
522.38	36065.31
522.55	36060.63
522.72	36009.14
522.89	36013.82
523.07	36240.86
523.24	36418.74
523.41	36444.48
523.58	36374.27
523.75	37223.88
523.92	36898.55
524.10	36961.74
524.27	36856.42
524.44	36999.19
524.61	36954.72
524.78	37156.00
524.96	37221.54
525.13	37628.79
525.30	37743.48
525.47	37563.26
525.64	36980.46
525.81	37354.95
525.98	36943.02
526.16	37006.21
526.33	37034.30
526.50	37148.98
526.67	36959.40
526.84	37376.01
527.01	37195.79
527.18	37525.81
527.36	37881.57
527.53	37556.24
527.70	38263.08
527.87	37799.65
528.04	37933.06
528.21	38164.78
528.38	38003.28
528.55	38323.93
528.72	38052.43
528.89	38902.04
529.07	38169.46
529.24	38565.01
529.41	38614.16
529.58	38667.99
529.75	38700.76
529.92	38721.82
530.09	38888.00
530.26	39100.99
530.43	38925.45
530.60	38679.69
530.77	39040.14
530.94	39349.09
531.11	38904.38
531.28	38831.83
531.46	38948.85
531.63	39304.62
531.80	39068.22
531.97	38892.68
532.14	39627.61
532.31	38731.18
532.48	39019.07
532.65	39344.41
532.82	39166.52
532.99	39814.85
533.16	39489.52
533.33	39433.35
533.50	39962.31
533.67	39835.92
533.84	39550.37
534.01	39447.39
534.18	39693.15
534.35	40182.32
534.52	39723.57
534.69	39779.74
534.86	40261.90
535.03	40456.16
535.20	40318.07
535.37	40776.81
535.54	40282.96
535.71	40580.21
535.88	40341.47
536.05	40245.51
536.22	40587.23
536.38	40591.91
536.55	40224.45
536.72	40364.88
536.89	39955.29
537.06	40364.88
537.23	40795.54
537.40	41008.53
537.57	40205.72
537.74	40968.74
537.91	41155.98
538.08	40996.82
538.25	40559.14
538.42	41090.44
538.59	41244.92
538.75	40662.13
538.92	40931.29
539.09	41106.83
539.26	40713.62
539.43	41013.21
539.60	40938.31
539.77	40872.78
539.94	40830.65
540.11	41116.19
540.28	41404.08
540.44	41303.43
540.61	41198.11
540.78	40996.82
540.95	41057.68
541.12	41277.69
541.29	41368.97
541.46	41427.48
541.62	41727.07
541.79	41502.38
541.96	41656.85
542.13	41490.68
542.30	41820.69
542.47	41675.58
542.63	42244.33
542.80	41654.51
542.97	41954.10
543.14	42178.79
543.31	42082.83
543.48	42398.80
543.64	42808.40
543.81	42445.62
543.98	42499.45
544.15	42263.05
544.32	42754.57
544.48	42738.18
544.65	42373.06
544.82	42918.40
544.99	42635.20
545.16	42326.25
545.32	42237.31
545.49	42944.15
545.66	43012.02
545.83	43171.18
546.00	42838.83
546.16	43007.34
546.33	42869.25
546.50	42230.29
546.67	43267.14
546.83	42548.60
547.00	42880.95
547.17	42890.32
547.34	42653.92
547.50	43154.80
547.67	43438.00
547.84	43152.46
548.00	43203.95
548.17	43335.02
548.34	43426.30
548.51	43491.83
548.67	43730.57
548.84	43402.89
549.01	43381.83
549.18	43152.46
549.34	43538.65
549.51	43655.67
549.68	43253.10
549.84	43660.35
550.01	44034.84
550.18	43360.76
550.34	43398.21
550.51	43517.58
550.68	43599.50
550.84	43276.51
551.01	43674.40
551.18	43470.77
551.34	43594.82
551.51	43463.75
551.68	43639.29
551.84	43999.73
552.01	43077.56
552.18	43882.70
552.34	43342.04
552.51	44196.34
552.68	43894.41
552.84	43784.40
553.01	44395.28
553.18	43711.84
553.34	44060.58
553.51	44381.24
553.67	44133.14
553.84	44444.43
554.01	44732.32
554.17	44949.99
554.34	44395.28
554.51	44514.65
554.67	44154.21
554.84	44252.51
555.00	43997.39
555.17	44252.51
555.33	44446.77
555.50	44720.62
555.67	44383.58
555.83	44603.59
556.00	44430.39
556.16	44535.71
556.33	44360.17
556.50	44421.03
556.66	44509.97
556.83	44273.57
556.99	44528.69
557.16	44776.79
557.32	44814.24
557.49	44706.57
557.65	44376.56
557.82	44615.29
557.98	44645.72
558.15	44329.75
558.32	44676.15
558.48	44481.88
558.65	44591.89
558.81	44591.89
558.98	44725.30
559.14	44512.31
559.31	44971.05
559.47	44994.46
559.64	44645.72
559.80	45155.96
559.97	44762.75
560.13	44650.40
560.30	45162.98
560.46	44924.24
560.63	45294.05
560.79	45368.94
560.96	45382.99
561.12	45338.52
561.29	44809.56
561.45	44945.31
561.61	45057.65
561.78	44912.54
561.94	45045.95
562.11	45261.28
562.27	45020.20
562.44	45282.34
562.60	45535.12
562.77	45448.52
562.93	45310.43
563.10	45521.08
563.26	45315.11
563.42	45378.31
563.59	45413.41
563.75	45265.96
563.92	45497.67
564.08	45329.16
564.24	45226.17
564.41	45516.40
564.57	45144.25
564.74	45048.29
564.90	45167.66
565.07	45184.04
565.23	45242.56
565.39	45485.97
565.56	45546.82
565.72	45081.06
565.88	44999.14
566.05	44912.54
566.21	45366.60
566.38	45109.14
566.54	45397.03
566.70	45780.88
566.87	45935.35
567.03	45595.98
567.19	45996.21
567.36	45787.90
567.52	45368.94
567.68	45694.28
567.85	45404.05
568.01	45916.63
568.17	45326.81
568.34	45804.28
568.50	45844.07
568.66	45450.86
568.83	45228.51
568.99	45343.20
569.15	45647.47
569.32	45640.45
569.48	44989.78
569.64	45804.28
569.81	45584.27
569.97	45546.82
570.13	45797.26
570.30	45111.49
570.46	45151.27
570.62	45455.54
570.78	45310.43
570.95	45289.37
571.11	45434.48
571.27	45434.48
571.43	45684.92
571.60	45750.45
571.76	45705.98
571.92	45708.32
572.09	45518.74
572.25	45883.86
572.41	45429.80
572.57	45675.55
572.74	45965.78
572.90	45546.82
573.06	45478.95
573.22	45577.25
573.38	45708.32
573.55	45579.59
573.71	46162.39
573.87	45708.32
574.03	45617.04
574.20	45851.09
574.36	45553.85
574.52	45537.46
574.68	45762.15
574.84	45600.66
575.01	45528.10
575.17	45893.22
575.33	45345.54
575.49	45734.07
575.65	45715.34
575.82	45539.80
575.98	45219.15
576.14	46141.32
576.30	45689.60
576.46	45670.87
576.62	45556.19
576.79	45874.50
576.95	45144.25
577.11	45780.88
577.27	45937.69
577.43	45453.20
577.59	45600.66
577.75	45783.22
577.92	45352.56
578.08	45659.17
578.24	45722.37
578.40	45385.33
578.56	45497.67
578.72	45668.53
578.88	45717.68
579.04	45748.11
579.21	45364.26
579.37	45741.09
579.53	45579.59
579.69	45546.82
579.85	45848.75
580.01	45694.28
580.17	45572.57
580.33	45497.67
580.49	45673.21
580.65	45762.15
580.82	45914.29
580.98	45998.55
581.14	45507.04
581.30	45975.14
581.46	45497.67
581.62	45720.02
581.78	45780.88
581.94	46054.72
582.10	45848.75
582.26	45998.55
582.42	46057.06
582.58	45720.02
582.74	45565.55
582.90	46059.40
583.06	45935.35
583.22	46328.56
583.38	46007.91
583.54	45970.46
583.70	45923.65
583.86	46220.90
584.02	45282.34
584.18	45839.39
584.34	45907.27
584.50	46024.29
584.66	46129.62
584.82	45579.59
584.98	45954.08
585.14	46356.65
585.30	45586.61
585.46	46075.79
585.62	45029.57
585.78	45418.10
585.94	45062.33
586.10	45858.12
586.26	45570.23
586.42	46066.42
586.58	46429.21
586.74	45694.28
586.90	45956.42
587.06	45977.48
587.22	45986.85
587.38	45600.66
587.54	45450.86
587.70	45902.59
587.86	45572.57
588.02	45769.18
588.18	45984.51
588.34	45717.68
588.49	45305.75
588.65	45106.80
588.81	45481.29
588.97	45312.77
589.13	45495.33
589.29	45549.17
589.45	45282.34
589.61	45801.94
589.77	46234.94
589.93	45783.22
