SpectraSuite Data File
++++++++++++++++++++++++++++++++++++
Date: Fri Oct 25 10:47:16 EDT 2013
User: price-jones
Dark Spectrum Present: No
Reference Spectrum Present: No
Number of Sampled Component Spectra: 1
Spectrometers: USB2+H05261
Integration Time (usec): 100000 (USB2+H05261)
Spectra Averaged: 1 (USB2+H05261)
Boxcar Smoothing: 0 (USB2+H05261)
Correct for Electrical Dark: No (USB2+H05261)
Strobe/Lamp Enabled: No (USB2+H05261)
Correct for Detector Non-linearity: No (USB2+H05261)
Correct for Stray Light: No (USB2+H05261)
Number of Pixels in Processed Spectrum: 2048
>>>>>Begin Processed Spectral Data<<<<<
365.73	110.01
365.92	110.01
366.12	110.01
366.32	67.88
366.52	11.70
366.72	42.13
366.91	14.04
367.11	77.24
367.31	53.83
367.51	58.51
367.70	37.45
367.90	32.77
368.10	110.01
368.30	58.51
368.49	0.00
368.69	84.26
368.89	74.90
369.09	35.11
369.28	16.38
369.48	86.60
369.68	114.69
369.87	86.60
370.07	79.58
370.27	135.75
370.47	198.95
370.66	353.42
370.86	393.21
371.06	411.93
371.25	456.40
371.45	491.51
371.65	449.38
371.84	433.00
372.04	470.45
372.24	547.69
372.44	510.24
372.63	505.56
372.83	449.38
373.03	437.68
373.22	444.70
373.42	510.24
373.62	517.26
373.81	428.32
374.01	484.49
374.21	491.51
374.40	433.00
374.60	592.16
374.79	517.26
374.99	557.05
375.19	498.53
375.38	568.75
375.58	517.26
375.78	575.77
375.97	552.37
376.17	526.62
376.37	589.82
376.56	641.31
376.76	564.07
376.95	596.84
377.15	582.79
377.35	648.33
377.54	629.60
377.74	547.69
377.93	594.50
378.13	601.52
378.33	641.31
378.52	653.01
378.72	540.66
378.91	622.58
379.11	622.58
379.31	653.01
379.50	589.82
379.70	650.67
379.89	610.88
380.09	645.99
380.28	669.39
380.48	657.69
380.68	648.33
380.87	653.01
381.07	648.33
381.26	631.94
381.46	638.97
381.65	641.31
381.85	580.45
382.04	615.56
382.24	730.25
382.43	624.92
382.63	603.86
382.83	699.82
383.02	573.43
383.22	711.52
383.41	636.63
383.61	709.18
383.80	819.19
384.00	667.05
384.19	765.36
384.39	711.52
384.58	699.82
384.78	744.29
384.97	669.39
385.17	727.91
385.36	699.82
385.56	702.16
385.75	671.73
385.95	699.82
386.14	685.78
386.34	781.74
386.53	847.27
386.72	863.66
386.92	833.23
387.11	809.83
387.31	830.89
387.50	814.51
387.70	814.51
387.89	833.23
388.09	851.96
388.28	753.65
388.48	842.59
388.67	809.83
388.86	819.19
389.06	898.77
389.25	823.87
389.45	917.49
389.64	781.74
389.84	873.02
390.03	931.53
390.22	891.74
390.42	882.38
390.61	936.21
390.81	901.11
391.00	950.26
391.19	856.64
391.39	917.49
391.58	896.43
391.78	940.90
391.97	940.90
392.16	952.60
392.36	947.92
392.55	997.07
392.75	924.51
392.94	856.64
393.13	990.05
393.33	929.19
393.52	1025.15
393.71	945.58
393.91	1046.22
394.10	999.41
394.29	1039.20
394.49	987.71
394.68	1097.71
394.88	1088.35
395.07	992.39
395.26	1025.15
395.46	994.73
395.65	1123.46
395.84	1057.92
396.04	1177.29
396.23	1041.54
396.42	1086.01
396.62	1107.07
396.81	1095.37
397.00	1034.52
397.19	1076.65
397.39	1196.01
397.58	1174.95
397.77	1149.20
397.97	1165.59
398.16	1254.53
398.35	1306.02
398.55	1221.76
398.74	1263.89
398.93	1242.82
399.12	1303.68
399.32	1193.67
399.51	1310.70
399.70	1380.92
399.90	1277.93
400.09	1366.87
400.28	1392.62
400.47	1310.70
400.67	1430.07
400.86	1394.96
401.05	1376.24
401.24	1369.21
401.44	1476.88
401.63	1458.15
401.82	1383.26
402.01	1432.41
402.21	1439.43
402.40	1500.28
402.59	1427.73
402.78	1437.09
402.97	1507.30
403.17	1537.73
403.36	1572.84
403.55	1481.56
403.74	1610.29
403.93	1605.61
404.13	1537.73
404.32	1373.89
404.51	1584.54
404.70	1715.61
404.89	1572.84
405.09	1708.59
405.28	1689.87
405.47	1563.48
405.66	1605.61
405.85	1687.53
406.05	1610.29
406.24	1699.23
406.43	1715.61
406.62	1771.79
406.81	1757.74
407.00	1783.49
407.20	1685.19
407.39	1715.61
407.58	1778.81
407.77	1783.49
407.96	1874.77
408.15	1818.60
408.34	1834.98
408.54	1895.83
408.73	1928.60
408.92	1832.64
409.11	1956.69
409.30	1954.35
409.49	1973.07
409.68	2005.84
409.87	1898.17
410.07	2031.58
410.26	2001.16
410.45	1998.82
410.64	2017.54
410.83	2031.58
411.02	2069.03
411.21	2064.35
411.40	2125.21
411.59	2108.82
411.78	2129.89
411.98	2172.02
412.17	2183.72
412.36	2277.34
412.55	2232.87
412.74	2305.43
412.93	2415.43
413.12	2289.04
413.31	2420.11
413.50	2321.81
413.69	2480.97
413.88	2436.50
414.07	2499.69
414.26	2459.90
414.45	2483.31
414.64	2441.18
414.83	2555.86
415.02	2693.96
415.22	2626.08
415.41	2567.57
415.60	2679.91
415.79	2679.91
415.98	2722.04
416.17	2689.28
416.36	2647.15
416.55	2708.00
416.74	2656.51
416.93	2679.91
417.12	2808.64
417.31	2878.86
417.50	2881.20
417.69	2855.45
417.88	3005.25
418.07	2808.64
418.26	2876.52
418.45	2995.89
418.64	2972.48
418.83	3080.14
419.02	3129.30
419.21	3129.30
419.39	3068.44
419.58	3014.61
419.77	3084.83
419.96	3129.30
420.15	3129.30
420.34	2944.39
420.53	3236.96
420.72	3260.37
420.91	3204.19
421.10	3318.88
421.29	3309.52
421.48	3145.68
421.67	3258.03
421.86	3162.06
422.05	3265.05
422.24	3304.84
422.43	3382.07
422.61	3318.88
422.80	3403.14
422.99	3356.33
423.18	3398.46
423.37	3442.93
423.56	3426.54
423.75	3510.80
423.94	3262.71
424.13	3082.49
424.32	3136.32
424.50	3283.77
424.69	3555.27
424.88	3438.25
425.07	3265.05
425.26	3253.34
425.45	3335.26
425.64	3398.46
425.83	3438.25
426.01	3440.59
426.20	3393.78
426.39	3503.78
426.58	3328.24
426.77	3260.37
426.96	3550.59
427.15	3449.95
427.33	3625.49
427.52	3559.95
427.71	3592.72
427.90	3466.33
428.09	3496.76
428.28	3606.77
428.46	3641.87
428.65	3660.60
428.84	3775.28
429.03	3749.54
429.22	3609.11
429.40	3747.20
429.59	3723.79
429.78	3613.79
429.97	3527.19
430.16	3653.58
430.34	3702.73
430.53	3669.96
430.72	3681.66
430.91	3782.31
431.10	3824.44
431.28	3826.78
431.47	3833.80
431.66	3932.10
431.85	3861.88
432.03	4030.40
432.22	3920.40
432.41	4016.36
432.60	3974.23
432.79	3981.25
432.97	3955.51
433.16	4105.30
433.35	4056.15
433.54	4056.15
433.72	4084.23
433.91	4131.05
434.10	4257.43
434.28	4109.98
434.47	4245.73
434.66	4341.69
434.85	4255.09
435.03	4297.22
435.22	4198.92
435.41	4325.31
435.59	4332.33
435.78	4283.18
435.97	4437.66
436.16	4421.27
436.34	4334.67
436.53	4442.34
436.72	4573.41
436.90	4393.19
437.09	4573.41
437.28	4435.32
437.46	4475.10
437.65	4358.08
437.84	4603.83
438.02	4542.98
438.21	4613.20
438.40	4606.17
438.58	4470.42
438.77	4823.84
438.96	4746.61
439.14	4894.06
439.33	4812.14
439.52	4690.43
439.70	4795.76
439.89	4929.17
440.08	5015.77
440.26	4957.25
440.45	4812.14
440.63	5053.22
440.82	5102.37
441.01	5109.39
441.19	5210.03
441.38	5247.48
441.57	5093.01
441.75	5088.32
441.94	5263.86
442.12	5298.97
442.31	5507.28
442.50	5420.68
442.68	5495.58
442.87	5383.23
443.05	5390.25
443.24	5406.64
443.43	5394.93
443.61	5535.37
443.80	5661.76
443.98	5458.13
444.17	5413.66
444.35	5636.01
444.54	5647.71
444.73	5689.84
444.91	5666.44
445.10	5521.32
445.28	5439.40
445.47	5572.82
445.65	5551.75
445.84	5664.10
446.02	5577.50
446.21	5710.91
446.39	5647.71
446.58	5825.59
446.77	5703.89
446.95	5565.79
447.14	5638.35
447.32	5881.77
447.51	5717.93
447.69	5790.49
447.88	5647.71
448.06	5481.53
448.25	5685.16
448.43	5879.43
448.62	5825.59
448.80	5743.67
448.99	5806.87
449.17	5710.91
449.36	5954.32
449.54	6045.60
449.73	6017.52
449.91	6188.38
450.10	6108.80
450.28	5994.11
450.46	6101.78
450.65	6071.35
450.83	6040.92
451.02	6204.76
451.20	6235.19
451.39	6052.63
451.57	6179.01
451.76	6038.58
451.94	6064.33
452.13	6214.12
452.31	6228.17
452.49	6134.54
452.68	6312.42
452.86	6263.27
453.05	6155.61
453.23	6272.64
453.42	6216.46
453.60	6382.64
453.78	6406.05
453.97	6429.45
454.15	6235.19
454.34	6403.71
454.52	6347.53
454.70	6504.35
454.89	6609.67
455.07	6630.74
455.26	6574.56
455.44	6684.57
455.62	6670.53
455.81	6509.03
455.99	6712.66
456.17	6799.26
456.36	6916.28
456.54	6817.98
456.73	6876.49
456.91	7019.27
457.09	6956.07
457.28	7007.56
457.46	6855.43
457.64	6906.92
457.83	7042.67
458.01	6815.64
458.19	7094.16
458.38	7150.34
458.56	7028.63
458.74	7063.74
458.93	7080.12
459.11	7302.47
459.29	7054.37
459.48	7267.36
459.66	7220.55
459.84	7330.56
460.03	7344.60
460.21	7323.54
460.39	7241.62
460.57	7173.74
460.76	7321.20
460.94	7293.11
461.12	7342.26
461.31	7508.44
461.49	7342.26
461.67	7353.96
461.85	7510.78
462.04	7590.36
462.22	7964.84
462.40	7524.82
462.59	7545.89
462.77	7679.30
462.95	7758.88
463.13	7573.97
463.32	7744.83
463.50	7716.75
463.68	7693.34
463.86	7735.47
464.05	7754.19
464.23	7714.41
464.41	7840.79
464.59	7826.75
464.78	7941.44
464.96	7864.20
465.14	7719.09
465.32	7786.96
465.50	7932.08
465.69	8035.06
465.87	7974.21
466.05	7939.10
466.23	8042.08
466.41	8299.54
466.60	8170.81
466.78	8128.68
466.96	8107.62
467.14	8016.33
467.32	8065.49
467.51	8217.62
467.69	7955.48
467.87	8039.74
468.05	8294.86
468.23	8241.03
468.41	8344.01
468.60	8205.92
468.78	8566.36
468.96	8236.35
469.14	8421.25
469.32	8547.64
469.50	8388.48
469.69	8484.44
469.87	8507.85
470.05	8636.58
470.23	8435.29
470.41	8531.25
470.59	8877.65
470.77	8496.14
470.95	8734.88
471.14	8875.31
471.32	8720.84
471.50	8814.46
471.68	9011.06
471.86	8898.72
472.04	9057.87
472.22	9104.68
472.40	9146.81
472.58	9074.26
472.77	9256.82
472.95	9233.41
473.13	9434.70
473.31	9280.22
473.49	9217.03
473.67	9156.18
473.85	9423.00
474.03	9575.13
474.21	9572.79
474.39	9771.74
474.57	9659.39
474.75	9848.97
474.93	9710.88
475.12	9764.72
475.30	9926.21
475.48	9748.33
475.66	9984.73
475.84	9788.12
476.02	9982.38
476.20	9891.10
476.38	10265.59
476.56	10251.55
476.74	10422.41
476.92	10244.52
477.10	10424.75
477.28	10476.24
477.46	10504.32
477.64	10581.56
477.82	10771.15
478.00	10923.28
478.18	11115.20
478.36	10787.53
478.54	11143.29
478.72	11304.79
478.90	11489.69
479.08	11293.08
479.26	11559.91
479.44	11452.24
479.62	11463.94
479.80	11719.06
479.98	11662.89
480.16	11922.69
480.34	11786.94
480.52	11925.03
480.70	11777.58
480.88	12187.17
481.06	11948.43
481.24	11988.22
481.41	12386.12
481.59	12603.78
481.77	12458.67
481.95	12542.93
482.13	12915.08
482.31	12734.85
482.49	13146.79
482.67	12753.58
482.85	13165.51
483.03	13212.32
483.21	13385.52
483.39	13334.03
483.57	13652.34
483.74	13804.48
483.92	13797.46
484.10	13617.24
484.28	13980.02
484.46	14530.05
484.64	14305.35
484.82	14176.62
485.00	14169.60
485.18	14656.43
485.35	14539.41
485.53	14352.16
485.71	14623.67
485.89	14846.02
486.07	14733.67
486.25	14871.76
486.43	15290.72
486.61	15358.60
486.78	15410.09
486.96	15503.71
487.14	16016.29
487.32	15466.26
487.50	15925.00
487.68	16067.78
487.85	16198.85
488.03	16379.07
488.21	16320.56
488.39	16271.40
488.57	16673.98
488.75	16868.24
488.92	16931.44
489.10	17233.36
489.28	17008.67
489.46	17205.28
489.64	17472.10
489.81	17692.11
489.99	17921.48
490.17	17937.87
490.35	17820.84
490.53	18251.50
490.70	18195.32
490.88	18244.48
491.06	18595.56
491.24	18480.87
491.41	18576.83
491.59	18445.76
491.77	18721.95
491.95	18944.30
492.13	18892.80
492.30	19417.08
492.48	19190.05
492.66	19300.06
492.84	19536.45
493.01	19599.65
493.19	19646.46
493.37	19688.59
493.54	19536.45
493.72	19943.70
493.90	19749.44
494.08	20360.32
494.25	20320.53
494.43	20631.82
494.61	20725.44
494.79	20709.06
494.96	20676.29
495.14	20844.81
495.32	21345.69
495.49	21420.58
495.67	21060.14
495.85	21436.97
496.02	21399.52
496.20	21495.48
496.38	21673.36
496.55	21998.70
496.73	22134.45
496.91	21755.28
497.09	22300.62
497.26	22286.58
497.44	22459.78
497.62	22307.65
497.79	22354.46
497.97	22448.08
498.14	22885.76
498.32	22731.28
498.50	22843.63
498.67	23335.14
498.85	23058.96
499.03	23311.74
499.20	23208.75
499.38	23405.36
499.56	23391.31
499.73	23358.55
499.91	23824.31
500.08	23962.40
500.26	23765.80
500.44	23583.24
500.61	24100.50
500.79	23939.00
500.97	23814.95
501.14	24350.93
501.32	24198.80
501.49	24451.58
501.67	24671.59
501.84	24936.07
502.02	24580.31
502.20	24891.60
502.37	24868.19
502.55	25032.03
502.72	24994.58
502.90	25223.95
503.07	25055.43
503.25	25291.83
503.43	25259.06
503.60	25633.55
503.78	25603.12
503.95	25692.06
504.13	25434.60
504.30	25699.08
504.48	25535.24
504.65	25961.22
504.83	26029.10
505.01	26335.71
505.18	26197.62
505.36	26246.77
505.53	26176.55
505.71	26288.90
505.88	26642.32
506.06	26508.91
506.23	26511.25
506.41	26684.45
506.58	27056.59
506.76	26810.84
506.93	26462.10
507.11	26649.34
507.28	27054.25
507.46	27077.66
507.63	26782.75
507.81	27520.02
507.98	27391.29
508.16	27566.83
508.33	27463.85
508.50	27906.21
508.68	27929.61
508.85	27964.72
509.03	28301.76
509.20	28149.62
509.38	27953.02
509.55	28016.21
509.73	28664.54
509.90	28393.04
510.08	28306.44
510.25	28526.45
510.42	28449.21
510.60	28922.00
510.77	28673.90
510.95	29010.94
511.12	28797.95
511.30	28718.37
511.47	29413.51
511.64	29081.16
511.82	29184.14
511.99	29242.65
512.17	29404.15
512.34	29340.96
512.51	29558.63
512.69	29984.60
512.86	30078.22
513.04	29940.13
513.21	29640.54
513.38	29390.11
513.56	29729.48
513.73	29572.67
513.90	30190.57
514.08	29689.70
514.25	30499.52
514.43	30288.87
514.60	30232.70
514.77	29914.39
514.95	30380.15
515.12	30401.22
515.29	30480.80
515.47	31019.12
515.64	31005.08
515.81	30621.23
515.99	30607.19
516.16	30909.11
516.33	30946.56
516.51	31009.76
516.68	30969.97
516.85	30380.15
517.03	30906.77
517.20	30918.48
517.37	31044.87
517.54	31402.97
517.72	31454.46
517.89	31749.37
518.06	31431.05
518.24	31683.83
518.41	31709.58
518.58	31175.94
518.75	31557.44
518.93	31969.38
519.10	31697.88
519.27	32074.70
519.45	31782.13
519.62	32006.83
519.79	32147.26
519.96	32374.29
520.14	32643.45
520.31	32479.61
520.48	32650.47
520.65	32327.48
520.83	32753.46
521.00	32854.10
521.17	33205.18
521.34	32947.72
521.52	32505.36
521.69	32687.92
521.86	33268.37
522.03	33202.84
522.20	33371.36
522.38	33202.84
522.55	33617.11
522.72	33446.26
522.89	34064.16
523.07	33837.12
523.24	33015.60
523.41	33537.54
523.58	33336.25
523.75	34101.61
523.92	34022.03
524.10	34162.46
524.27	34281.83
524.44	34246.72
524.61	34473.75
524.78	34291.19
524.96	34326.30
525.13	34621.20
525.30	34761.64
525.47	34464.39
525.64	34457.37
525.81	34485.45
525.98	34366.09
526.16	34426.94
526.33	34476.09
526.50	34576.73
526.67	34518.22
526.84	34693.76
527.01	34375.45
527.18	34815.47
527.36	35117.40
527.53	35204.00
527.70	35779.77
527.87	35416.99
528.04	35007.39
528.21	35552.74
528.38	35007.39
528.55	35562.10
528.72	35831.26
528.89	35587.85
529.07	35824.24
529.24	35115.06
529.41	35639.34
529.58	35810.20
529.75	35828.92
529.92	36013.82
530.09	35833.60
530.26	35922.54
530.43	35957.65
530.60	35915.52
530.77	35814.88
530.94	36030.21
531.11	36114.47
531.28	36189.36
531.46	36231.49
531.63	36645.77
531.80	35875.73
531.97	36776.84
532.14	36442.14
532.31	36453.84
532.48	36596.62
532.65	36975.78
532.82	36556.83
532.99	36907.91
533.16	36355.54
533.33	36818.97
533.50	36889.18
533.67	37125.58
533.84	36500.65
534.01	37284.73
534.18	36697.26
534.35	37296.44
534.52	36985.15
534.69	37202.82
534.86	36896.20
535.03	36875.14
535.20	37312.82
535.37	37308.14
535.54	37490.70
535.71	37376.01
535.88	37347.93
536.05	37247.29
536.22	37713.05
536.38	37565.60
536.55	37706.03
536.72	37717.73
536.89	37266.01
537.06	37809.01
537.23	37846.46
537.40	37727.10
537.57	37970.51
537.74	37993.92
537.91	38312.23
538.08	37989.24
538.25	37762.20
538.42	37923.70
538.59	38356.70
538.75	37762.20
538.92	38321.59
539.09	38740.55
539.26	38057.11
539.43	38309.89
539.60	38646.93
539.77	38501.81
539.94	38749.91
540.11	39145.46
540.28	38550.96
540.44	38368.40
540.61	38815.44
540.78	38742.89
540.95	38731.18
541.12	38609.48
541.29	39026.09
541.46	38768.63
541.62	38667.99
541.79	39131.42
541.96	38733.53
542.13	38539.26
542.30	39386.54
542.47	39164.18
542.63	39140.78
542.80	38824.81
542.97	39295.25
543.14	39885.07
543.31	39868.69
543.48	39667.40
543.64	39842.94
543.81	39985.71
543.98	39606.55
544.15	39632.29
544.32	40030.18
544.48	40308.71
544.65	40020.82
544.82	39793.79
544.99	39580.80
545.16	40119.12
545.32	39976.35
545.49	40224.45
545.66	40322.75
545.83	40201.04
546.00	40030.18
546.16	40060.61
546.33	40179.98
546.50	39693.15
546.67	40460.84
546.83	39756.34
547.00	40179.98
547.17	40336.79
547.34	40458.50
547.50	40840.01
547.67	40919.59
547.84	40137.85
548.00	40722.98
548.17	41090.44
548.34	40509.99
548.51	40828.30
548.67	40989.80
548.84	40851.71
549.01	40666.81
549.18	40690.21
549.34	41125.55
549.51	41076.40
549.68	41525.78
549.84	41188.75
550.01	41048.32
550.18	40889.16
550.34	41010.87
550.51	40994.48
550.68	40975.76
550.84	40563.82
551.01	41151.30
551.18	40552.12
551.34	41413.44
551.51	41762.18
551.68	41439.18
551.84	41357.27
552.01	41404.08
552.18	41532.81
552.34	40994.48
552.51	41600.68
552.68	41521.10
552.84	41612.38
553.01	42157.73
553.18	41446.21
553.34	41326.84
553.51	41481.31
553.67	41567.91
553.84	41701.32
554.01	41558.55
554.17	41914.31
554.34	42281.78
554.51	41982.19
554.67	42117.94
554.84	41783.24
555.00	41584.30
555.17	41635.79
555.33	42260.71
555.50	42178.79
555.67	41830.05
555.83	42368.38
556.00	42195.18
556.16	42487.74
556.33	42478.38
556.50	42190.50
556.66	42136.66
556.83	41846.44
556.99	42211.56
557.16	42377.74
557.32	42415.19
557.49	42326.25
557.65	42478.38
557.82	42043.04
557.98	42220.92
558.15	42742.86
558.32	42703.07
558.48	42677.33
558.65	42749.88
558.81	42579.03
558.98	42251.35
559.14	42382.42
559.31	42333.27
559.47	42572.00
559.64	42604.77
559.80	42848.19
559.97	42665.63
560.13	42443.27
560.30	42843.51
560.46	43021.39
560.63	42539.24
560.79	43178.20
560.96	43276.51
561.12	42873.93
561.29	42862.23
561.45	42890.32
561.61	43201.61
561.78	42768.61
561.94	42529.87
562.11	43068.20
562.27	42696.05
562.44	42714.78
562.60	43070.54
562.77	43269.48
562.93	42773.29
563.10	43250.76
563.26	42492.43
563.42	42852.87
563.59	43019.05
563.75	42925.42
563.92	43217.99
564.08	43229.69
564.24	43428.64
564.41	42890.32
564.57	43463.75
564.74	43346.72
564.90	43786.74
565.07	43456.73
565.23	43152.46
565.39	43065.86
565.56	43414.60
565.72	42883.30
565.88	43051.81
566.05	43447.36
566.21	43611.20
566.38	43065.86
566.54	43150.12
566.70	43459.07
566.87	43730.57
567.03	43241.40
567.19	43908.45
567.36	43674.40
567.52	43192.25
567.68	43613.54
567.85	43473.11
568.01	43323.32
568.17	43449.70
568.34	43571.41
568.50	43412.26
568.66	43594.82
568.83	43620.56
568.99	43433.32
569.15	43533.96
569.32	42906.70
569.48	43400.55
569.64	43665.03
569.81	43608.86
569.97	43459.07
570.13	43899.09
570.30	43342.04
570.46	43356.08
570.62	43171.18
570.78	43449.70
570.95	43178.20
571.11	43711.84
571.27	43908.45
571.43	43484.81
571.60	43871.00
571.76	43613.54
571.92	43332.68
572.09	43356.08
572.25	43489.49
572.41	43536.30
572.57	43866.32
572.74	44217.40
572.90	43957.60
573.06	43299.91
573.22	43737.59
573.38	43679.08
573.55	43304.59
573.71	44142.50
573.87	43777.38
574.03	43646.31
574.20	43674.40
574.36	43571.41
574.52	43878.02
574.68	43847.60
574.84	43807.81
575.01	44205.70
575.17	43831.21
575.33	43660.35
575.49	43503.54
575.65	44126.12
575.82	44306.34
575.98	43983.35
576.14	44151.87
576.30	43833.55
576.46	43201.61
576.62	43468.43
576.79	43285.87
576.95	43627.59
577.11	43863.98
577.27	43761.00
577.43	43938.88
577.59	43597.16
577.75	43943.56
577.92	44069.95
578.08	43594.82
578.24	43690.78
578.40	43812.49
578.56	43831.21
578.72	43910.79
578.88	43938.88
579.04	43938.88
579.21	44093.35
579.37	43896.75
579.53	43529.28
579.69	44114.42
579.85	43957.60
580.01	44130.80
580.17	43667.37
580.33	44037.18
580.49	44208.04
580.65	43931.86
580.82	43718.87
580.98	44067.61
581.14	44123.78
581.30	44076.97
581.46	43831.21
581.62	43761.00
581.78	43945.90
581.94	44210.38
582.10	44325.07
582.26	44046.54
582.42	43838.23
582.58	43995.05
582.74	43269.48
582.90	43889.73
583.06	44112.08
583.22	43896.75
583.38	44385.92
583.54	44245.49
583.70	43889.73
583.86	43777.38
584.02	43725.89
584.18	44282.94
584.34	44133.14
584.50	44086.33
584.66	43828.87
584.82	44062.93
584.98	44552.10
585.14	44165.91
585.30	43828.87
585.46	43866.32
585.62	43931.86
585.78	44016.11
585.94	44112.08
586.10	43950.58
586.26	43990.37
586.42	43941.22
586.58	44430.39
586.74	44102.71
586.90	44144.84
587.06	43632.27
587.22	44142.50
587.38	43833.55
587.54	44177.61
587.70	44259.53
587.86	44093.35
588.02	44086.33
588.18	44226.76
588.34	43861.64
588.49	44069.95
588.65	44060.58
588.81	44182.29
588.97	44116.76
589.13	44030.16
589.29	44397.62
589.45	44224.42
589.61	43948.24
589.77	44388.26
589.93	44425.71
590.08	44350.81
590.24	44311.02
590.40	44619.97
