SpectraSuite Data File
++++++++++++++++++++++++++++++++++++
Date: Fri Oct 25 11:34:13 EDT 2013
User: price-jones
Dark Spectrum Present: No
Reference Spectrum Present: No
Number of Sampled Component Spectra: 1
Spectrometers: USB2+H05261
Integration Time (usec): 100000 (USB2+H05261)
Spectra Averaged: 1 (USB2+H05261)
Boxcar Smoothing: 0 (USB2+H05261)
Correct for Electrical Dark: No (USB2+H05261)
Strobe/Lamp Enabled: No (USB2+H05261)
Correct for Detector Non-linearity: No (USB2+H05261)
Correct for Stray Light: No (USB2+H05261)
Number of Pixels in Processed Spectrum: 2048
>>>>>Begin Processed Spectral Data<<<<<
365.73	262.14
365.92	262.14
366.12	262.14
366.32	198.95
366.52	152.13
366.72	184.90
366.91	154.48
367.11	177.88
367.31	205.97
367.51	173.20
367.70	180.22
367.90	220.01
368.10	196.60
368.30	217.67
368.49	166.18
368.69	231.71
368.89	212.99
369.09	184.90
369.28	212.99
369.48	264.48
369.68	236.39
369.87	243.42
370.07	166.18
370.27	271.50
370.47	322.99
370.66	402.57
370.86	496.19
371.06	571.09
371.25	594.50
371.45	512.58
371.65	540.66
371.84	521.94
372.04	578.11
372.24	498.53
372.44	540.66
372.63	603.86
372.83	575.77
373.03	615.56
373.22	585.13
373.42	674.07
373.62	660.03
373.81	641.31
374.01	636.63
374.21	613.22
374.40	559.39
374.60	676.41
374.79	641.31
374.99	622.58
375.19	711.52
375.38	723.23
375.58	718.54
375.78	660.03
375.97	650.67
376.17	758.33
376.37	638.97
376.56	685.78
376.76	617.90
376.95	545.34
377.15	697.48
377.35	699.82
377.54	662.37
377.74	737.27
377.93	704.50
378.13	725.57
378.33	643.65
378.52	662.37
378.72	713.86
378.91	713.86
379.11	711.52
379.31	748.97
379.50	671.73
379.70	784.08
379.89	704.50
380.09	725.57
380.28	706.84
380.48	718.54
380.68	734.93
380.87	699.82
381.07	784.08
381.26	704.50
381.46	779.40
381.65	765.36
381.85	765.36
382.04	709.18
382.24	753.65
382.43	685.78
382.63	730.25
382.83	772.38
383.02	763.01
383.22	744.29
383.41	809.83
383.61	880.04
383.80	777.06
384.00	774.72
384.19	723.23
384.39	802.80
384.58	802.80
384.78	828.55
384.97	837.91
385.17	786.42
385.36	786.42
385.56	819.19
385.75	795.78
385.95	854.30
386.14	877.70
386.34	896.43
386.53	844.93
386.72	788.76
386.92	816.85
387.11	856.64
387.31	844.93
387.50	889.40
387.70	905.79
387.89	875.36
388.09	894.08
388.28	882.38
388.48	814.51
388.67	875.36
388.86	980.68
389.06	987.71
389.25	947.92
389.45	947.92
389.64	926.85
389.84	957.28
390.03	954.94
390.22	973.66
390.42	917.49
390.61	992.39
390.81	983.02
391.00	978.34
391.19	1062.60
391.39	1032.18
391.58	1011.11
391.78	1060.26
391.97	1025.15
392.16	933.87
392.36	1029.84
392.55	1034.52
392.75	1004.09
392.94	1006.43
393.13	1062.60
393.33	1015.79
393.52	978.34
393.71	1078.99
393.91	1067.28
394.10	1036.86
394.29	1146.86
394.49	1018.13
394.68	1146.86
394.88	1064.94
395.07	1167.93
395.26	1102.39
395.46	1160.91
395.65	1144.52
395.84	1109.41
396.04	1228.78
396.23	1146.86
396.42	1210.06
396.62	1198.35
396.81	1146.86
397.00	1196.01
397.19	1240.48
397.39	1184.31
397.58	1233.46
397.77	1198.35
397.97	1245.16
398.16	1277.93
398.35	1284.95
398.55	1240.48
398.74	1256.87
398.93	1348.15
399.12	1284.95
399.32	1207.72
399.51	1341.13
399.70	1369.21
399.90	1284.95
400.09	1317.72
400.28	1240.48
400.47	1270.91
400.67	1406.66
400.86	1352.83
401.05	1416.02
401.24	1355.17
401.44	1343.47
401.63	1448.79
401.82	1476.88
402.01	1348.15
402.21	1516.67
402.40	1474.54
402.59	1413.68
402.78	1418.36
402.97	1439.43
403.17	1582.20
403.36	1521.35
403.55	1441.77
403.74	1589.22
403.93	1507.30
404.13	1537.73
404.32	1554.12
404.51	1561.14
404.70	1507.30
404.89	1544.75
405.09	1638.38
405.28	1661.78
405.47	1769.44
405.66	1584.54
405.85	1668.80
406.05	1717.95
406.24	1764.76
406.43	1600.93
406.62	1701.57
406.81	1771.79
407.00	1713.27
407.20	1661.78
407.39	1675.82
407.58	1739.02
407.77	1788.17
407.96	1865.41
408.15	1820.94
408.34	1781.15
408.54	1820.94
408.73	1872.43
408.92	1788.17
409.11	1867.75
409.30	1881.79
409.49	1973.07
409.68	1991.80
409.87	1877.11
410.07	1966.05
410.26	2043.29
410.45	1956.69
410.64	1980.09
410.83	2003.50
411.02	2143.93
411.21	2179.04
411.40	2045.63
411.59	2160.31
411.78	2214.15
411.98	2183.72
412.17	2162.66
412.36	2249.25
412.55	2307.77
412.74	2275.00
412.93	2380.32
413.12	2167.34
413.31	2392.03
413.50	2356.92
413.69	2312.45
413.88	2424.80
414.07	2375.64
414.26	2420.11
414.45	2469.27
414.64	2516.08
414.83	2558.21
415.02	2555.86
415.22	2647.15
415.41	2679.91
415.60	2581.61
415.79	2651.83
415.98	2476.29
416.17	2619.06
416.36	2635.44
416.55	2663.53
416.74	2717.36
416.93	2689.28
417.12	2761.83
417.31	2853.11
417.50	2738.43
417.69	2825.03
417.88	2843.75
418.07	2717.36
418.26	2890.56
418.45	2843.75
418.64	3028.65
418.83	2888.22
419.02	2885.88
419.21	3000.57
419.39	2974.82
419.58	2897.58
419.77	2942.05
419.96	2972.48
420.15	3126.96
420.34	3105.89
420.53	3038.02
420.72	3269.73
420.91	3112.91
421.10	3094.19
421.29	3243.98
421.48	3162.06
421.67	3220.58
421.86	3166.74
422.05	3251.00
422.24	3272.07
422.43	3185.47
422.61	3192.49
422.80	3253.34
422.99	3281.43
423.18	3435.91
423.37	3279.09
423.56	3393.78
423.75	3428.88
423.94	3274.41
424.13	3166.74
424.32	3112.91
424.50	3288.45
424.69	3522.51
424.88	3389.10
425.07	3325.90
425.26	3255.69
425.45	3293.13
425.64	3375.05
425.83	3396.12
426.01	3377.39
426.20	3344.63
426.39	3246.32
426.58	3398.46
426.77	3361.01
426.96	3499.10
427.15	3449.95
427.33	3550.59
427.52	3405.48
427.71	3709.75
427.90	3529.53
428.09	3548.25
428.28	3705.07
428.46	3625.49
428.65	3595.06
428.84	3695.71
429.03	3667.62
429.22	3438.25
429.40	3770.60
429.59	3775.28
429.78	3557.61
429.97	3588.04
430.16	3655.92
430.34	3651.24
430.53	3761.24
430.72	3749.54
430.91	3765.92
431.10	3602.08
431.28	3695.71
431.47	3934.44
431.66	3929.76
431.85	3747.20
432.03	3913.38
432.22	4112.32
432.41	4011.68
432.60	3976.57
432.79	3985.93
432.97	3974.23
433.16	4002.32
433.35	4060.83
433.54	4051.47
433.72	4138.07
433.91	3925.08
434.10	4152.11
434.28	4011.68
434.47	4166.15
434.66	4152.11
434.85	4201.26
435.03	4259.78
435.22	4196.58
435.41	4393.19
435.59	4327.65
435.78	4159.13
435.97	4182.54
436.16	4203.60
436.34	4217.65
436.53	4332.33
436.72	4428.29
436.90	4259.78
437.09	4344.03
437.28	4222.33
437.46	4449.36
437.65	4334.67
437.84	4505.53
438.02	4365.10
438.21	4519.57
438.40	4575.75
438.58	4648.30
438.77	4711.50
438.96	4634.26
439.14	4809.80
439.33	4683.41
439.52	4760.65
439.70	4788.74
439.89	4980.66
440.08	4861.29
440.26	4931.51
440.45	4711.50
440.63	4910.44
440.82	4933.85
441.01	4994.70
441.19	5137.48
441.38	5158.54
441.57	5104.71
441.75	5114.07
441.94	5195.99
442.12	5294.29
442.31	5303.65
442.50	5238.12
442.68	5350.46
442.87	5338.76
443.05	5331.74
443.24	5434.72
443.43	5263.86
443.61	5451.11
443.80	5699.20
443.98	5270.89
444.17	5188.97
444.35	5383.23
444.54	5638.35
444.73	5577.50
444.91	5535.37
445.10	5565.79
445.28	5476.85
445.47	5535.37
445.65	5523.66
445.84	5659.42
446.02	5572.82
446.21	5607.92
446.39	5540.05
446.58	5488.56
446.77	5458.13
446.95	5544.73
447.14	5481.53
447.32	5722.61
447.51	5479.19
447.69	5671.12
447.88	5666.44
448.06	5540.05
448.25	5631.33
448.43	5710.91
448.62	5624.31
448.80	5626.65
448.99	5579.84
449.17	5671.12
449.36	5673.46
449.54	5736.65
449.73	5865.38
449.91	5928.58
450.10	5895.81
450.28	5809.21
450.46	5968.37
450.65	5970.71
450.83	5963.68
451.02	5998.79
451.20	6057.31
451.39	5980.07
451.57	5916.87
451.76	5951.98
451.94	6122.84
452.13	6113.48
452.31	6200.08
452.49	6214.12
452.68	6057.31
452.86	6118.16
453.05	6186.04
453.23	6139.23
453.42	6214.12
453.60	6200.08
453.78	6260.93
453.97	6223.48
454.15	6298.38
454.34	6265.61
454.52	6289.02
454.70	6389.66
454.89	6413.07
455.07	6377.96
455.26	6473.92
455.44	6392.00
455.62	6331.15
455.81	6537.12
455.99	6438.81
456.17	6525.41
456.36	6567.54
456.54	6787.55
456.73	6841.39
456.91	6857.77
457.09	6956.07
457.28	6881.18
457.46	6780.53
457.64	6981.82
457.83	6864.79
458.01	6899.90
458.19	6998.20
458.38	6827.34
458.56	6991.18
458.74	7061.40
458.93	6972.46
459.11	7176.08
459.29	7112.89
459.48	6878.83
459.66	7105.87
459.84	6942.03
460.03	7360.98
460.21	7241.62
460.39	7279.07
460.57	7300.13
460.76	7236.94
460.94	7213.53
461.12	7405.46
461.31	7449.93
461.49	7424.18
461.67	7311.83
461.85	7424.18
462.04	7365.67
462.22	8056.12
462.40	7620.78
462.59	7566.95
462.77	7447.58
462.95	7611.42
463.13	7548.23
463.32	7494.40
463.50	7693.34
463.68	7843.14
463.86	7775.26
464.05	7770.58
464.23	7555.25
464.41	7705.04
464.59	7625.47
464.78	7950.80
464.96	7887.61
465.14	7702.70
465.32	7854.84
465.50	7857.18
465.69	7885.26
465.87	7950.80
466.05	8131.02
466.23	7948.46
466.41	7819.73
466.60	8175.49
466.78	7808.03
466.96	7999.95
467.14	8100.59
467.32	7957.82
467.51	8163.79
467.69	7927.39
467.87	8161.45
468.05	8100.59
468.23	8044.42
468.41	8107.62
468.60	8156.77
468.78	8278.47
468.96	8208.26
469.14	8269.11
469.32	8472.74
469.50	8241.03
469.69	8369.76
469.87	8561.68
470.05	8484.44
470.23	8528.91
470.41	8578.06
470.59	8709.13
470.77	8416.57
470.95	8652.96
471.14	8889.35
471.32	8442.31
471.50	8594.45
471.68	8741.90
471.86	8966.59
472.04	8795.73
472.22	9060.21
472.40	8938.51
472.58	9064.89
472.77	9071.92
472.95	9153.84
473.13	9448.74
473.31	9174.90
473.49	9245.12
473.67	9078.94
473.85	9352.78
474.03	9518.96
474.21	9432.36
474.39	9411.29
474.57	9617.26
474.75	9661.73
474.93	9692.16
475.12	9617.26
475.30	9769.40
475.48	9696.84
475.66	9989.41
475.84	9818.55
476.02	10104.09
476.20	9933.23
476.38	10270.27
476.56	10155.58
476.74	10363.89
476.92	10279.63
477.10	10214.10
477.28	10476.24
477.46	10523.05
477.64	10448.15
477.82	10604.97
478.00	10834.34
478.18	10649.44
478.36	10698.59
478.54	10944.34
478.72	11077.76
478.90	11360.96
479.08	11147.97
479.26	11393.73
479.44	11283.72
479.62	11587.99
479.80	11630.12
479.98	11623.10
480.16	11756.51
480.34	11805.66
480.52	12109.93
480.70	11960.14
480.88	11705.02
481.06	12072.48
481.24	12159.08
481.41	12222.28
481.59	12416.54
481.77	12622.51
481.95	12542.93
482.13	12699.75
482.31	12627.19
482.49	12809.75
482.67	13104.66
482.85	13102.32
483.03	13298.92
483.21	13144.45
483.39	13268.50
483.57	13394.89
483.74	13444.04
483.92	13638.30
484.10	13507.23
484.28	13750.65
484.46	13965.98
484.64	14153.22
484.82	14136.84
485.00	14555.79
485.18	14677.50
485.35	14717.29
485.53	14654.09
485.71	14757.08
485.89	15150.29
486.07	15140.93
486.25	14920.92
486.43	15070.71
486.61	15185.40
486.78	15353.91
486.96	15410.09
487.14	15782.23
487.32	15962.45
487.50	15815.00
487.68	15700.31
487.85	16137.99
488.03	16549.93
488.21	16559.29
488.39	16449.28
488.57	16486.73
488.75	16772.28
488.92	16774.62
489.10	17205.28
489.28	17074.21
489.46	17411.25
489.64	17078.89
489.81	17598.49
489.99	17558.70
490.17	17720.20
490.35	17734.24
490.53	17996.38
490.70	18052.55
490.88	18036.17
491.06	18298.31
491.24	18326.39
491.41	18888.12
491.59	18757.05
491.77	18485.55
491.95	18855.36
492.13	18977.06
492.30	19129.20
492.48	19260.27
492.66	19164.31
492.84	19445.17
493.01	19740.08
493.19	19704.97
493.37	19887.53
493.54	19637.09
493.72	20161.37
493.90	19992.86
494.08	20238.61
494.25	20540.54
494.43	20257.34
494.61	20805.02
494.79	20545.22
494.96	20683.31
495.14	20781.62
495.32	21111.63
495.49	21240.36
495.67	21172.49
495.85	21479.10
496.02	21209.93
496.20	21509.52
496.38	21811.45
496.55	21827.84
496.73	22022.10
496.91	21869.97
497.09	21891.03
497.26	22377.86
497.44	22314.67
497.62	22160.19
497.79	22682.13
497.97	22504.25
498.14	23145.56
498.32	22651.70
498.50	22904.48
498.67	23173.64
498.85	22998.10
499.03	23410.04
499.20	23267.27
499.38	23290.67
499.56	23711.97
499.73	23412.38
499.91	23733.03
500.08	24144.97
500.26	23714.31
500.44	23854.74
500.61	24252.63
500.79	24002.19
500.97	24474.98
501.14	24692.65
501.32	24690.31
501.49	24470.30
501.67	24814.36
501.84	24875.21
502.02	24685.63
502.20	24819.04
502.37	25142.03
502.55	25048.41
502.72	25340.98
502.90	25280.13
503.07	25076.50
503.25	25458.01
503.43	25331.62
503.60	25458.01
503.78	25982.29
503.95	25633.55
504.13	25766.96
504.30	25652.27
504.48	26143.78
504.65	26178.89
504.83	26258.47
505.01	26553.38
505.18	26424.65
505.36	26635.30
505.53	26637.64
505.71	26457.42
505.88	27042.55
506.06	26288.90
506.23	26923.18
506.41	26651.68
506.58	26972.33
506.76	26895.10
506.93	27414.69
507.11	27056.59
507.28	27194.68
507.46	27161.92
507.63	27197.02
507.81	27749.39
507.98	27487.25
508.16	27545.76
508.33	27711.94
508.50	27655.77
508.68	28205.80
508.85	27997.49
509.03	27988.13
509.20	28177.71
509.38	28336.87
509.55	28692.63
509.73	28526.45
509.90	28538.15
510.08	28589.64
510.25	28498.36
510.42	28732.42
510.60	28980.51
510.77	28659.86
510.95	29252.02
511.12	28826.04
511.30	29352.66
511.47	28996.90
511.64	29235.63
511.82	29287.12
511.99	29343.30
512.17	29420.53
512.34	29642.88
512.51	29881.62
512.69	29717.78
512.86	30368.45
513.04	30120.35
513.21	29715.44
513.38	30103.97
513.56	30480.80
513.73	29888.64
513.90	30345.05
514.08	29956.52
514.25	30785.07
514.43	30522.93
514.60	30359.09
514.77	30888.05
514.95	30930.18
515.12	31033.16
515.29	30960.61
515.47	30864.64
515.64	31297.64
515.81	30979.33
515.99	31466.16
516.16	31072.95
516.33	31393.61
516.51	31538.72
516.68	31189.98
516.85	31716.60
517.03	31747.03
517.20	31784.48
517.37	31552.76
517.54	31903.84
517.72	31983.42
517.89	31931.93
518.06	32439.82
518.24	32182.37
518.41	32114.49
518.58	32208.11
518.75	32077.04
518.93	32301.73
519.10	32357.91
519.27	32512.38
519.45	32746.44
519.62	32549.83
519.79	32945.38
519.96	32687.92
520.14	32823.67
520.31	32914.95
520.48	33205.18
520.65	33191.14
520.83	33221.56
521.00	33649.88
521.17	33418.17
521.34	33298.80
521.52	33567.96
521.69	33560.94
521.86	33626.48
522.03	33687.33
522.20	33933.09
522.38	33872.23
522.55	33930.75
522.72	33958.83
522.89	34071.18
523.07	34548.65
523.24	34288.85
523.41	34445.66
523.58	33844.15
523.75	34869.30
523.92	34092.24
524.10	34569.71
524.27	34878.66
524.44	34352.04
524.61	34864.62
524.78	34785.04
524.96	34684.40
525.13	35122.08
525.30	35005.05
525.47	35199.32
525.64	35161.87
525.81	35028.46
525.98	35321.02
526.16	35449.75
526.33	35468.48
526.50	35681.47
526.67	35325.71
526.84	35473.16
527.01	35489.54
527.18	35489.54
527.36	35824.24
527.53	35655.72
527.70	35611.25
527.87	35735.30
528.04	35962.33
528.21	35910.84
528.38	35976.37
528.55	35887.43
528.72	35945.95
528.89	36259.58
529.07	35948.29
529.24	35948.29
529.41	36577.89
529.58	36673.85
529.75	36051.27
529.92	36540.44
530.09	36512.36
530.26	36360.22
530.43	36765.14
530.60	36980.46
530.77	36779.18
530.94	37055.36
531.11	36573.21
531.28	36896.20
531.46	36669.17
531.63	37273.03
531.80	36835.35
531.97	37366.65
532.14	37535.17
532.31	37111.53
532.48	37462.61
532.65	37509.43
532.82	37455.59
532.99	37364.31
533.16	37354.95
533.33	37659.22
533.50	37860.51
533.67	37174.73
533.84	37572.62
534.01	37794.97
534.18	37886.25
534.35	37961.15
534.52	37869.87
534.69	38242.01
534.86	37947.11
535.03	37930.72
535.20	37968.17
535.37	38490.11
535.54	38766.29
535.71	38272.44
535.88	38534.58
536.05	38352.02
536.22	38607.14
536.38	38586.07
536.55	38658.63
536.72	38782.68
536.89	38824.81
537.06	38653.95
537.23	38387.13
537.40	38691.40
537.57	38565.01
537.74	38838.85
537.91	39098.65
538.08	38675.01
538.25	38710.12
538.42	38981.62
538.59	39311.64
538.75	39007.37
538.92	39281.21
539.09	39541.01
539.26	39278.87
539.43	39519.95
539.60	39250.78
539.77	39512.92
539.94	39697.83
540.11	39129.08
540.28	39672.08
540.44	39730.59
540.61	39461.43
540.78	39742.30
540.95	39606.55
541.12	39480.16
541.29	39496.54
541.46	40041.88
541.62	39927.20
541.79	40135.51
541.96	39529.31
542.13	39700.17
542.30	40425.73
542.47	40552.12
542.63	40414.03
542.80	40730.00
542.97	41062.36
543.14	40921.93
543.31	40404.67
543.48	40762.77
543.64	40985.12
543.81	40659.79
543.98	41097.47
544.15	40765.11
544.32	41212.15
544.48	41045.97
544.65	41062.36
544.82	41125.55
544.99	40940.65
545.16	40952.35
545.32	41006.19
545.49	41427.48
545.66	41247.26
545.83	41361.95
546.00	41226.20
546.16	41371.31
546.33	41507.06
546.50	41038.95
546.67	41638.13
546.83	40758.09
547.00	41095.13
547.17	41549.19
547.34	41570.25
547.50	41694.30
547.67	41975.17
547.84	41670.90
548.00	41415.78
548.17	41956.44
548.34	42178.79
548.51	42239.65
548.67	42155.39
548.84	41993.89
549.01	42075.81
549.18	41539.83
549.34	42108.58
549.51	42204.54
549.68	42408.17
549.84	42148.37
550.01	42377.74
550.18	41794.95
550.34	42375.40
550.51	42492.43
550.68	42417.53
550.84	42225.60
551.01	42782.65
551.18	42546.26
551.34	42277.10
551.51	42700.73
551.68	42597.75
551.84	42572.00
552.01	42581.37
552.18	42562.64
552.34	42590.73
552.51	42719.46
552.68	42511.15
552.84	42810.74
553.01	43187.56
553.18	42721.80
553.34	43405.23
553.51	42733.50
553.67	42775.63
553.84	43131.39
554.01	43367.79
554.17	43299.91
554.34	43290.55
554.51	43054.15
554.67	43896.75
554.84	43585.46
555.00	43346.72
555.17	43412.26
555.33	43283.53
555.50	43428.64
555.67	43388.85
555.83	43028.41
556.00	43587.80
556.16	43920.15
556.33	44072.29
556.50	43819.51
556.66	43770.36
556.83	43683.76
556.99	44016.11
557.16	44142.50
557.32	44294.64
557.49	43473.11
557.65	43606.52
557.82	44013.77
557.98	44048.88
558.15	43590.14
558.32	44271.23
558.48	43690.78
558.65	43768.02
558.81	44088.67
558.98	43782.06
559.14	43915.47
559.31	43882.70
559.47	44348.47
559.64	43842.92
559.80	44123.78
559.97	44306.34
560.13	44142.50
560.30	44058.24
560.46	44273.57
560.63	44416.35
560.79	44626.99
560.96	44404.64
561.12	44266.55
561.29	43988.03
561.45	44659.76
561.61	44418.69
561.78	44477.20
561.94	44399.96
562.11	44341.45
562.27	44847.00
562.44	44552.10
562.60	44605.93
562.77	44753.38
562.93	44341.45
563.10	44580.18
563.26	44170.59
563.42	44926.58
563.59	44610.61
563.75	44289.96
563.92	44605.93
564.08	44498.26
564.24	45048.29
564.41	44725.30
564.57	44744.02
564.74	44526.35
564.90	44411.67
565.07	44631.68
565.23	44821.26
565.39	44629.34
565.56	44868.07
565.72	44952.33
565.88	44999.14
566.05	44877.43
566.21	44912.54
566.38	45106.80
566.54	45083.40
566.70	44980.42
566.87	44816.58
567.03	44825.94
567.19	45001.48
567.36	44828.28
567.52	44971.05
567.68	45476.61
567.85	45406.39
568.01	45036.59
568.17	44947.65
568.34	45195.74
568.50	45209.79
568.66	45015.52
568.83	45226.17
568.99	45179.36
569.15	45441.50
569.32	44973.39
569.48	44954.67
569.64	45420.44
569.81	45663.85
569.97	45469.59
570.13	45584.27
570.30	45207.45
570.46	45134.89
570.62	45504.70
570.78	45497.67
570.95	45364.26
571.11	45420.44
571.27	45408.73
571.43	45083.40
571.60	45500.01
571.76	45345.54
571.92	45230.85
572.09	44980.42
572.25	45446.18
572.41	45471.93
572.57	45647.47
572.74	46333.24
572.90	45448.52
573.06	45766.84
573.22	45794.92
573.38	45897.91
573.55	45469.59
573.71	45727.05
573.87	45951.74
574.03	45694.28
574.20	45937.69
574.36	45371.28
574.52	45717.68
574.68	45619.38
574.84	45694.28
575.01	46223.24
575.17	46136.64
575.33	45647.47
575.49	45710.66
575.65	45940.04
575.82	46148.34
575.98	45631.08
576.14	45930.67
576.30	46211.54
576.46	45879.18
576.62	45734.07
576.79	46066.42
576.95	45294.05
577.11	45724.71
577.27	45909.61
577.43	45420.44
577.59	45837.05
577.75	45460.23
577.92	44975.73
578.08	45911.95
578.24	45469.59
578.40	46157.70
578.56	45968.12
578.72	45907.27
578.88	46150.68
579.04	45834.71
579.21	45600.66
579.37	45933.01
579.53	46124.94
579.69	45813.65
579.85	46031.32
580.01	45684.92
580.17	45705.98
580.33	46340.27
580.49	46050.04
580.65	46174.09
580.82	46028.98
580.98	45705.98
581.14	45649.81
581.30	46443.25
581.46	45787.90
581.62	45918.97
581.78	45956.42
581.94	46375.37
582.10	46209.20
582.26	46202.18
582.42	46454.95
582.58	46646.88
582.74	46134.30
582.90	45867.48
583.06	46153.02
583.22	46054.72
583.38	46340.27
583.54	45954.08
583.70	46277.07
583.86	46520.49
584.02	45914.29
584.18	46429.21
584.34	46403.46
584.50	46328.56
584.66	46384.74
584.82	46174.09
584.98	46600.07
585.14	46522.83
585.30	46010.25
585.46	46295.80
585.62	46148.34
585.78	45916.63
585.94	46010.25
586.10	46153.02
586.26	45865.14
586.42	46003.23
586.58	46054.72
586.74	45916.63
586.90	46075.79
587.06	46082.81
587.22	46330.90
587.38	46223.24
587.54	46272.39
587.70	46548.57
587.86	46419.84
588.02	46284.09
588.18	46190.47
588.34	46422.19
588.49	46600.07
588.65	46080.47
588.81	46248.99
588.97	46436.23
589.13	46036.00
589.29	46241.96
589.45	46415.16
589.61	46000.89
589.77	46382.40
589.93	45986.85
590.08	46703.05
