SpectraSuite Data File
++++++++++++++++++++++++++++++++++++
Date: Fri Oct 25 10:44:51 EDT 2013
User: price-jones
Dark Spectrum Present: No
Reference Spectrum Present: No
Number of Sampled Component Spectra: 1
Spectrometers: USB2+H05261
Integration Time (usec): 100000 (USB2+H05261)
Spectra Averaged: 1 (USB2+H05261)
Boxcar Smoothing: 0 (USB2+H05261)
Correct for Electrical Dark: No (USB2+H05261)
Strobe/Lamp Enabled: No (USB2+H05261)
Correct for Detector Non-linearity: No (USB2+H05261)
Correct for Stray Light: No (USB2+H05261)
Number of Pixels in Processed Spectrum: 2048
>>>>>Begin Processed Spectral Data<<<<<
365.73	9.36
365.92	9.36
366.12	9.36
366.32	23.41
366.52	42.13
366.72	42.13
366.91	37.45
367.11	14.04
367.31	44.47
367.51	11.70
367.70	56.17
367.90	18.72
368.10	25.75
368.30	11.70
368.49	42.13
368.69	42.13
368.89	56.17
369.09	53.83
369.28	65.54
369.48	77.24
369.68	81.92
369.87	126.39
370.07	117.03
370.27	187.24
370.47	131.07
370.66	322.99
370.86	355.76
371.06	411.93
371.25	416.62
371.45	484.49
371.65	524.28
371.84	379.17
372.04	451.72
372.24	435.34
372.44	430.66
372.63	613.22
372.83	500.87
373.03	449.38
373.22	578.11
373.42	507.90
373.62	517.26
373.81	545.34
374.01	578.11
374.21	559.39
374.40	519.60
374.60	543.00
374.79	564.07
374.99	589.82
375.19	550.03
375.38	540.66
375.58	592.16
375.78	575.77
375.97	533.64
376.17	676.41
376.37	580.45
376.56	610.88
376.76	526.62
376.95	564.07
377.15	568.75
377.35	589.82
377.54	559.39
377.74	653.01
377.93	564.07
378.13	592.16
378.33	627.26
378.52	671.73
378.72	634.29
378.91	648.33
379.11	601.52
379.31	660.03
379.50	641.31
379.70	631.94
379.89	631.94
380.09	582.79
380.28	655.35
380.48	676.41
380.68	610.88
380.87	603.86
381.07	629.60
381.26	770.04
381.46	599.18
381.65	650.67
381.85	636.63
382.04	678.76
382.24	631.94
382.43	690.46
382.63	671.73
382.83	648.33
383.02	711.52
383.22	695.14
383.41	634.29
383.61	753.65
383.80	681.10
384.00	655.35
384.19	758.33
384.39	667.05
384.58	718.54
384.78	786.42
384.97	734.93
385.17	770.04
385.36	758.33
385.56	737.27
385.75	730.25
385.95	716.20
386.14	690.46
386.34	816.85
386.53	837.91
386.72	802.80
386.92	805.14
387.11	819.19
387.31	901.11
387.50	699.82
387.70	912.81
387.89	870.68
388.09	805.14
388.28	835.57
388.48	788.76
388.67	898.77
388.86	835.57
389.06	875.36
389.25	887.06
389.45	908.13
389.64	926.85
389.84	833.23
390.03	889.40
390.22	910.47
390.42	915.15
390.61	926.85
390.81	903.45
391.00	919.83
391.19	1015.79
391.39	1034.52
391.58	877.70
391.78	922.17
391.97	1027.50
392.16	1029.84
392.36	1036.86
392.55	908.13
392.75	1004.09
392.94	898.77
393.13	952.60
393.33	999.41
393.52	929.19
393.71	1055.58
393.91	1015.79
394.10	978.34
394.29	1074.31
394.49	1144.52
394.68	1114.10
394.88	1146.86
395.07	1121.12
395.26	1086.01
395.46	1060.26
395.65	1015.79
395.84	1121.12
396.04	1137.50
396.23	1191.33
396.42	1071.97
396.62	1144.52
396.81	1144.52
397.00	1132.82
397.19	1153.88
397.39	1245.16
397.58	1235.80
397.77	1270.91
397.97	1310.70
398.16	1310.70
398.35	1254.53
398.55	1245.16
398.74	1329.42
398.93	1350.49
399.12	1383.26
399.32	1324.74
399.51	1327.08
399.70	1387.94
399.90	1345.81
400.09	1432.41
400.28	1373.89
400.47	1441.77
400.67	1458.15
400.86	1406.66
401.05	1418.36
401.24	1467.52
401.44	1516.67
401.63	1448.79
401.82	1437.09
402.01	1409.00
402.21	1502.62
402.40	1458.15
402.59	1458.15
402.78	1479.22
402.97	1540.07
403.17	1582.20
403.36	1591.56
403.55	1631.35
403.74	1607.95
403.93	1654.76
404.13	1610.29
404.32	1673.48
404.51	1661.78
404.70	1659.44
404.89	1729.66
405.09	1739.02
405.28	1685.19
405.47	1811.57
405.66	1797.53
405.85	1825.62
406.05	1767.10
406.24	1708.59
406.43	1846.68
406.62	1830.30
406.81	1860.73
407.00	1856.04
407.20	1755.40
407.39	1914.56
407.58	1895.83
407.77	2012.86
407.96	1881.79
408.15	1909.88
408.34	1928.60
408.54	2008.18
408.73	1921.58
408.92	1977.75
409.11	2113.50
409.30	2054.99
409.49	2012.86
409.68	1982.43
409.87	2064.35
410.07	2188.40
410.26	2090.10
410.45	2232.87
410.64	2181.38
410.83	2207.13
411.02	2148.61
411.21	2249.25
411.40	2183.72
411.59	2267.98
411.78	2352.24
411.98	2314.79
412.17	2216.49
412.36	2333.51
412.55	2417.77
412.74	2471.61
412.93	2399.05
413.12	2389.69
413.31	2572.25
413.50	2448.20
413.69	2612.04
413.88	2593.31
414.07	2558.21
414.26	2703.32
414.45	2562.89
414.64	2579.27
414.83	2651.83
415.02	2705.66
415.22	2806.30
415.41	2780.56
415.60	2745.45
415.79	2778.22
415.98	2834.39
416.17	2825.03
416.36	2832.05
416.55	2920.99
416.74	2846.09
416.93	2750.13
417.12	2953.76
417.31	2895.24
417.50	3115.25
417.69	3119.93
417.88	3073.12
418.07	2930.35
418.26	3105.89
418.45	3131.64
418.64	3169.09
418.83	3169.09
419.02	3176.11
419.21	3288.45
419.39	3150.36
419.58	3166.74
419.77	3126.96
419.96	3166.74
420.15	3389.10
420.34	3215.90
420.53	3290.79
420.72	3403.14
420.91	3351.65
421.10	3400.80
421.29	3445.27
421.48	3353.99
421.67	3459.31
421.86	3283.77
422.05	3482.72
422.24	3449.95
422.43	3442.93
422.61	3393.78
422.80	3431.23
422.99	3578.68
423.18	3513.14
423.37	3611.45
423.56	3667.62
423.75	3555.27
423.94	3660.60
424.13	3421.86
424.32	3424.20
424.50	3639.53
424.69	3653.58
424.88	3613.79
425.07	3531.87
425.26	3445.27
425.45	3527.19
425.64	3676.98
425.83	3471.01
426.01	3660.60
426.20	3634.85
426.39	3712.09
426.58	3627.83
426.77	3513.14
426.96	3552.93
427.15	3768.26
427.33	3625.49
427.52	3684.00
427.71	3634.85
427.90	3754.22
428.09	3847.84
428.28	3751.88
428.46	3786.99
428.65	3815.07
428.84	3861.88
429.03	3824.44
429.22	3676.98
429.40	3634.85
429.59	3754.22
429.78	3658.26
429.97	3529.53
430.16	3749.54
430.34	3854.86
430.53	3976.57
430.72	3955.51
430.91	3857.20
431.10	4037.42
431.28	3943.80
431.47	4156.79
431.66	4292.54
431.85	3960.19
432.03	4219.99
432.22	4245.73
432.41	4203.60
432.60	4140.41
432.79	4149.77
432.97	4320.63
433.16	4208.28
433.35	4070.19
433.54	4353.40
433.72	4294.88
433.91	4212.96
434.10	4259.78
434.28	4290.20
434.47	4395.53
434.66	4458.72
434.85	4428.29
435.03	4514.89
435.22	4463.40
435.41	4592.13
435.59	4531.28
435.78	4517.23
435.97	4624.90
436.16	4713.84
436.34	4751.29
436.53	4645.96
436.72	4660.01
436.90	4674.05
437.09	4615.54
437.28	4613.20
437.46	4641.28
437.65	4734.90
437.84	4692.77
438.02	4805.12
438.21	4578.09
438.40	4774.69
438.58	5001.72
438.77	5050.88
438.96	4877.68
439.14	4985.34
439.33	4924.49
439.52	5118.75
439.70	5193.65
439.89	5198.33
440.08	5107.05
440.26	5043.85
440.45	5177.26
440.63	5327.06
440.82	5472.17
441.01	5296.63
441.19	5369.19
441.38	5453.45
441.57	5621.97
441.75	5631.33
441.94	5746.02
442.12	5628.99
442.31	5764.74
442.50	5664.10
442.68	5675.80
442.87	5579.84
443.05	5685.16
443.24	5970.71
443.43	5827.93
443.61	5818.57
443.80	6106.46
443.98	5760.06
444.17	5577.50
444.35	5870.06
444.54	5788.14
444.73	5771.76
444.91	5886.45
445.10	5823.25
445.28	5738.99
445.47	5987.09
445.65	5572.82
445.84	5860.70
446.02	6167.31
446.21	6003.47
446.39	5935.60
446.58	5980.07
446.77	5954.32
446.95	5813.89
447.14	5888.79
447.32	6157.95
447.51	6008.16
447.69	5987.09
447.88	6080.71
448.06	6033.90
448.25	5870.06
448.43	6207.10
448.62	6008.16
448.80	5951.98
448.99	6066.67
449.17	6270.30
449.36	6204.76
449.54	6293.70
449.73	6429.45
449.91	6399.02
450.10	6457.54
450.28	6518.39
450.46	6417.75
450.65	6375.62
450.83	6504.35
451.02	6581.59
451.20	6471.58
451.39	6546.48
451.57	6450.52
451.76	6504.35
451.94	6590.95
452.13	6427.11
452.31	6445.84
452.49	6497.33
452.68	6541.80
452.86	6717.34
453.05	6693.93
453.23	6773.51
453.42	6476.26
453.60	6581.59
453.78	6590.95
453.97	6438.81
454.15	6810.96
454.34	6649.46
454.52	6895.22
454.70	6832.02
454.89	6693.93
455.07	6654.14
455.26	6715.00
455.44	6878.83
455.62	6930.33
455.81	7019.27
455.99	7045.01
456.17	6960.75
456.36	7016.93
456.54	7136.29
456.73	7152.68
456.91	7318.86
457.09	7293.11
457.28	7377.37
457.46	7197.15
457.64	7337.58
457.83	7414.82
458.01	7300.13
458.19	7412.48
458.38	7382.05
458.56	7424.18
458.74	7382.05
458.93	7384.39
459.11	7314.17
459.29	7569.29
459.48	7686.32
459.66	7508.44
459.84	7506.10
460.03	7578.65
460.21	7555.25
460.39	7487.37
460.57	7597.38
460.76	7632.49
460.94	7798.66
461.12	7798.66
461.31	7850.16
461.49	7655.89
461.67	7637.17
461.85	7880.58
462.04	7882.92
462.22	7990.59
462.40	8100.59
462.59	7981.23
462.77	8088.89
462.95	8065.49
463.13	8018.68
463.32	8088.89
463.50	8133.36
463.68	8135.70
463.86	8088.89
464.05	8004.63
464.23	8133.36
464.41	8159.11
464.59	8229.32
464.78	8308.90
464.96	8135.70
465.14	8304.22
465.32	8355.71
465.50	8259.75
465.69	8318.26
465.87	8236.35
466.05	8507.85
466.23	8308.90
466.41	8294.86
466.60	8566.36
466.78	8395.50
466.96	8360.39
467.14	8589.77
467.32	8456.36
467.51	8713.81
467.69	8250.39
467.87	8648.28
468.05	8786.37
468.23	8491.46
468.41	8594.45
468.60	8697.43
468.78	8627.21
468.96	8484.44
469.14	8840.20
469.32	8903.40
469.50	8594.45
469.69	8879.99
469.87	8753.60
470.05	8905.74
470.23	9039.15
470.41	8919.78
470.59	8884.67
470.77	9008.72
470.95	9153.84
471.14	9289.59
471.32	9022.77
471.50	9357.46
471.68	9252.14
471.86	9488.53
472.04	9476.83
472.22	9701.52
472.40	9341.08
472.58	9427.68
472.77	9441.72
472.95	9626.62
473.13	9912.17
473.31	9596.20
473.49	9790.46
473.67	9610.24
473.85	9605.56
474.03	9970.68
474.21	9879.40
474.39	9888.76
474.57	10169.63
474.75	10068.98
474.93	10186.01
475.12	9961.32
475.30	10270.27
475.48	10026.86
475.66	10211.76
475.84	10071.33
476.02	10321.76
476.20	10209.42
476.38	10633.05
476.56	10824.98
476.74	10843.70
476.92	10546.45
477.10	10668.16
477.28	10932.64
477.46	10939.66
477.64	11012.22
477.82	11321.17
478.00	11302.45
478.18	11466.28
478.36	11482.67
478.54	11590.33
478.72	11510.75
478.90	11735.45
479.08	11889.92
479.26	12217.60
479.44	11955.46
479.62	12105.25
479.80	12074.82
479.98	12212.92
480.16	12285.47
480.34	12351.01
480.52	12704.43
480.70	12444.63
480.88	12704.43
481.06	12634.21
481.24	12746.56
481.41	13083.59
481.59	13060.19
481.77	13418.29
481.95	13195.94
482.13	13327.01
482.31	13228.71
482.49	13635.96
482.67	13490.85
482.85	13570.43
483.03	13795.12
483.21	13825.54
483.39	13877.04
483.57	13937.89
483.74	14363.87
483.92	14185.99
484.10	14090.02
484.28	14700.90
484.46	14836.66
484.64	14913.89
484.82	14963.04
485.00	14766.44
485.18	15253.27
485.35	15414.77
485.53	15117.52
485.71	15103.48
485.89	15527.11
486.07	15257.95
486.25	15515.41
486.43	15754.15
486.61	15913.30
486.78	15864.15
486.96	16133.31
487.14	16390.77
487.32	16166.08
487.50	16276.09
487.68	16589.72
487.85	16669.30
488.03	17071.87
488.21	16896.33
488.39	17231.02
488.57	17146.76
488.75	17139.74
488.92	17621.89
489.10	17785.73
489.28	17912.12
489.46	18148.51
489.64	18068.94
489.81	18277.24
489.99	18656.41
490.17	18614.28
490.35	18387.25
490.53	18499.59
490.70	18773.44
490.88	18789.82
491.06	19243.88
491.24	19171.33
491.41	19061.32
491.59	19274.31
491.77	19316.44
491.95	19491.98
492.13	19594.96
492.30	19667.52
492.48	19754.12
492.66	20119.24
492.84	19796.25
493.01	20292.44
493.19	20100.52
493.37	20699.70
493.54	20446.92
493.72	20868.22
493.90	20926.73
494.08	21209.93
494.25	21369.09
494.43	21233.34
494.61	21364.41
494.79	21570.38
494.96	21273.13
495.14	21528.25
495.32	22022.10
495.49	21521.23
495.67	21869.97
495.85	22335.73
496.02	22424.67
496.20	22218.71
496.38	22494.89
496.55	22583.83
496.73	23381.95
496.91	22635.32
497.09	22878.74
497.26	23026.19
497.44	23248.54
497.62	23110.45
497.79	23264.92
497.97	23428.76
498.14	24034.96
498.32	23548.13
498.50	23889.85
498.67	24166.03
498.85	23812.61
499.03	24058.37
499.20	24290.08
499.38	24556.90
499.56	24409.45
499.73	24535.84
499.91	24376.68
500.08	24166.03
500.26	24458.60
500.44	24828.40
500.61	24716.06
500.79	24690.31
500.97	25039.05
501.14	24915.00
501.32	25268.42
501.49	25270.76
501.67	25699.08
501.84	25413.54
502.02	25448.64
502.20	25790.36
502.37	25862.92
502.55	25652.27
502.72	26064.21
502.90	26054.84
503.07	25933.14
503.25	25977.61
503.43	26195.28
503.60	26082.93
503.78	26270.17
503.95	26061.87
504.13	26377.84
504.30	26621.25
504.48	26747.64
504.65	26672.74
504.83	26841.26
505.01	27105.74
505.18	26852.97
505.36	27740.03
505.53	27438.10
505.71	27250.86
505.88	27513.00
506.06	27131.49
506.23	27515.34
506.41	27711.94
506.58	27393.63
506.76	27578.53
506.93	27770.46
507.11	27632.36
507.28	27749.39
507.46	28208.14
507.63	28107.49
507.81	28439.85
507.98	28100.47
508.16	28496.02
508.33	28575.60
508.50	28439.85
508.68	29099.88
508.85	29193.50
509.03	28676.24
509.20	28727.74
509.38	29055.41
509.55	29153.71
509.73	29446.28
509.90	29518.84
510.08	29160.73
510.25	29493.09
510.42	29680.33
510.60	29582.03
510.77	29479.05
510.95	29806.72
511.12	29378.40
511.30	29907.37
511.47	29757.57
511.64	30202.27
511.82	29979.92
511.99	29727.14
512.17	30139.08
512.34	30260.79
512.51	30602.50
512.69	30197.59
512.86	30684.42
513.04	30724.21
513.21	31091.68
513.38	30646.97
513.56	30731.23
513.73	30352.07
513.90	31103.38
514.08	30822.51
514.25	31014.44
514.43	30909.11
514.60	31438.08
514.77	31311.69
514.95	31517.65
515.12	31082.31
515.29	31227.43
515.47	31405.31
515.64	31763.41
515.81	31440.42
515.99	31236.79
516.16	31622.98
516.33	31498.93
516.51	31842.99
516.68	31189.98
516.85	31648.72
517.03	31571.49
517.20	31552.76
517.37	31995.12
517.54	32009.17
517.72	32086.40
517.89	32116.83
518.06	32142.58
518.24	32184.71
518.41	32266.63
518.58	32547.49
518.75	32596.64
518.93	32659.84
519.10	32451.53
519.27	32659.84
519.45	32563.87
519.62	33102.20
519.79	32940.70
519.96	33273.06
520.14	33443.91
520.31	32980.49
520.48	33193.48
520.65	33535.20
520.83	33500.09
521.00	33673.29
521.17	33284.76
521.34	34249.06
521.52	34220.97
521.69	33893.30
521.86	33921.38
522.03	34125.01
522.20	34265.44
522.38	34389.49
522.55	34384.81
522.72	34242.04
522.89	34174.16
523.07	34703.12
523.24	34216.29
523.41	34642.27
523.58	34724.19
523.75	35253.15
523.92	34848.24
524.10	34527.58
524.27	35079.95
524.44	35009.73
524.61	35304.64
524.78	35201.66
524.96	35662.74
525.13	35704.87
525.30	35648.70
525.47	35545.72
525.64	35550.40
525.81	35784.45
525.98	35564.44
526.16	35421.67
526.33	35452.09
526.50	35494.22
526.67	35309.32
526.84	35325.71
527.01	35395.92
527.18	35648.70
527.36	36116.81
527.53	35899.14
527.70	36198.73
527.87	36046.59
528.04	36013.82
528.21	36114.47
528.38	36198.73
528.55	36418.74
528.72	36517.04
528.89	36718.32
529.07	36446.82
529.24	36594.28
529.41	36657.47
529.58	36779.18
529.75	36451.50
529.92	36659.81
530.09	36865.78
530.26	37090.47
530.43	37050.68
530.60	36870.46
530.77	36776.84
530.94	37226.22
531.11	36723.01
531.28	37654.54
531.46	37401.76
531.63	37469.64
531.80	37130.26
531.97	37209.84
532.14	37383.04
532.31	37357.29
532.48	37359.63
532.65	37420.48
532.82	37450.91
532.99	37771.57
533.16	37387.72
533.33	37904.98
533.50	38087.54
533.67	37968.17
533.84	37537.51
534.01	37876.89
534.18	37680.28
534.35	38192.86
534.52	38267.76
534.69	38368.40
534.86	38286.48
535.03	38146.05
535.20	38623.52
535.37	38885.66
535.54	38836.51
535.71	38567.35
535.88	38817.78
536.05	38274.78
536.22	38480.75
536.38	38726.50
536.55	38497.13
536.72	38719.48
536.89	38340.32
537.06	38775.66
537.23	38838.85
537.40	38443.30
537.57	38953.54
537.74	39075.24
537.91	39138.44
538.08	38703.10
538.25	39173.55
538.42	38841.19
538.59	39271.85
538.75	39124.40
538.92	39117.37
539.09	39227.38
539.26	39267.17
539.43	39189.93
539.60	39313.98
539.77	38649.27
539.94	39110.35
540.11	39218.02
540.28	39728.25
540.44	39463.77
540.61	39592.50
540.78	39000.35
540.95	39442.71
541.12	39131.42
541.29	39796.13
541.46	39419.30
541.62	39421.64
541.79	39765.70
541.96	39541.01
542.13	39730.59
542.30	39583.14
542.47	39648.68
542.63	40074.65
542.80	40095.72
542.97	40814.26
543.14	40446.80
543.31	40673.83
543.48	40823.62
543.64	41067.04
543.81	40467.86
543.98	40802.56
544.15	40683.19
544.32	40776.81
544.48	40601.27
544.65	40545.10
544.82	40435.10
544.99	40809.58
545.16	40940.65
545.32	40816.60
545.49	41329.18
545.66	41542.17
545.83	41254.28
546.00	41366.63
546.16	41092.79
546.33	40662.13
546.50	40561.48
546.67	40676.17
546.83	40788.52
547.00	41038.95
547.17	40989.80
547.34	40928.95
547.50	41638.13
547.67	41380.67
547.84	41572.60
548.00	41886.23
548.17	41979.85
548.34	41708.35
548.51	41977.51
548.67	42103.90
548.84	41750.48
549.01	41771.54
549.18	41378.33
549.34	41918.99
549.51	41752.82
549.68	41883.89
549.84	42164.75
550.01	42136.66
550.18	41956.44
550.34	41965.81
550.51	42026.66
550.68	41914.31
550.84	41635.79
551.01	41581.96
551.18	42103.90
551.34	41823.03
551.51	42731.16
551.68	42230.29
551.84	41900.27
552.01	42590.73
552.18	42330.93
552.34	42092.19
552.51	42487.74
552.68	42515.83
552.84	42120.28
553.01	42192.84
553.18	42202.20
553.34	42572.00
553.51	42103.90
553.67	42356.67
553.84	42590.73
554.01	42698.39
554.17	42719.46
554.34	42583.71
554.51	42864.57
554.67	42885.64
554.84	42443.27
555.00	42857.55
555.17	42249.01
555.33	43051.81
555.50	42817.76
555.67	42733.50
555.83	43105.65
556.00	42733.50
556.16	43049.47
556.33	42923.08
556.50	42738.18
556.66	43292.89
556.83	42440.93
556.99	43227.35
557.16	43161.82
557.32	43634.61
557.49	43051.81
557.65	43147.78
557.82	42909.04
557.98	43419.28
558.15	43353.74
558.32	43339.70
558.48	43124.37
558.65	43079.90
558.81	42824.78
558.98	43295.23
559.14	43491.83
559.31	43377.15
559.47	43220.33
559.64	43564.39
559.80	43405.23
559.97	43292.89
560.13	43311.61
560.30	43117.35
560.46	43274.16
560.63	43433.32
560.79	44013.77
560.96	43814.83
561.12	43674.40
561.29	43620.56
561.45	43583.12
561.61	43552.69
561.78	43515.24
561.94	43985.69
562.11	43594.82
562.27	43665.03
562.44	43489.49
562.60	44175.27
562.77	43700.14
562.93	43484.81
563.10	44016.11
563.26	43442.68
563.42	43901.43
563.59	43885.04
563.75	43737.59
563.92	44128.46
564.08	43798.44
564.24	44060.58
564.41	43894.41
564.57	43622.90
564.74	43608.86
564.90	43695.46
565.07	44130.80
565.23	43508.22
565.39	43777.38
565.56	43969.30
565.72	43732.91
565.88	44135.48
566.05	44053.56
566.21	43658.01
566.38	43723.55
566.54	44336.77
566.70	43775.04
566.87	44250.17
567.03	44224.42
567.19	44205.70
567.36	43833.55
567.52	44065.27
567.68	44009.09
567.85	44367.20
568.01	43871.00
568.17	43999.73
568.34	43913.13
568.50	44081.65
568.66	43849.94
568.83	44116.76
568.99	44205.70
569.15	43798.44
569.32	43723.55
569.48	43873.34
569.64	43885.04
569.81	44032.50
569.97	44055.90
570.13	44219.74
570.30	43782.06
570.46	44231.44
570.62	43821.85
570.78	43735.25
570.95	44437.41
571.11	44252.51
571.27	43840.57
571.43	43992.71
571.60	43997.39
571.76	43934.20
571.92	44374.22
572.09	44435.07
572.25	44273.57
572.41	43796.10
572.57	44549.76
572.74	44524.01
572.90	44774.45
573.06	44343.79
573.22	43936.54
573.38	44395.28
573.55	44236.12
573.71	43962.28
573.87	44598.91
574.03	43995.05
574.20	44608.27
574.36	43959.94
574.52	44229.10
574.68	44701.89
574.84	44390.60
575.01	44048.88
575.17	44327.41
575.33	44130.80
575.49	44119.10
575.65	44989.78
575.82	44821.26
575.98	44383.58
576.14	44732.32
576.30	44463.16
576.46	44102.71
576.62	44142.50
576.79	44516.99
576.95	44041.86
577.11	44245.49
577.27	44446.77
577.43	44652.74
577.59	44444.43
577.75	44296.98
577.92	43981.01
578.08	44128.46
578.24	43983.35
578.40	44509.97
578.56	44374.22
578.72	44624.65
578.88	44488.90
579.04	44687.85
579.21	44409.32
579.37	44292.30
579.53	44690.19
579.69	44360.17
579.85	44598.91
580.01	44589.55
580.17	44514.65
580.33	44507.63
580.49	44718.28
580.65	44802.53
580.82	44657.42
580.98	44715.93
581.14	44289.96
581.30	44636.36
581.46	44692.53
581.62	44561.46
581.78	44814.24
581.94	44687.85
582.10	44465.50
582.26	44676.15
582.42	44804.88
582.58	44598.91
582.74	44568.48
582.90	45123.19
583.06	44737.00
583.22	44617.63
583.38	44641.04
583.54	44418.69
583.70	44842.32
583.86	45109.14
584.02	44112.08
584.18	45067.02
584.34	44568.48
584.50	44634.02
584.66	44142.50
584.82	44619.97
584.98	44786.15
585.14	44390.60
585.30	44673.81
585.46	44685.51
585.62	44205.70
585.78	44502.95
585.94	44561.46
586.10	44760.40
586.26	44399.96
586.42	44814.24
586.58	44706.57
586.74	44676.15
586.90	44795.51
587.06	44116.76
587.22	44849.35
587.38	44825.94
587.54	44502.95
587.70	44877.43
587.86	44507.63
588.02	44800.19
588.18	44779.13
588.34	44479.54
588.49	44353.15
588.65	44296.98
588.81	44320.38
588.97	44116.76
589.13	44409.32
589.29	44343.79
589.45	44456.14
589.61	44626.99
589.77	44854.03
589.93	44758.06
590.08	44797.85
590.24	44964.03
