SpectraSuite Data File
++++++++++++++++++++++++++++++++++++
Date: Fri Oct 25 11:26:22 EDT 2013
User: price-jones
Dark Spectrum Present: No
Reference Spectrum Present: No
Number of Sampled Component Spectra: 1
Spectrometers: USB2+H05261
Integration Time (usec): 100000 (USB2+H05261)
Spectra Averaged: 1 (USB2+H05261)
Boxcar Smoothing: 0 (USB2+H05261)
Correct for Electrical Dark: No (USB2+H05261)
Strobe/Lamp Enabled: No (USB2+H05261)
Correct for Detector Non-linearity: No (USB2+H05261)
Correct for Stray Light: No (USB2+H05261)
Number of Pixels in Processed Spectrum: 2048
>>>>>Begin Processed Spectral Data<<<<<
365.73	264.48
365.92	264.48
366.12	264.48
366.32	128.73
366.52	100.64
366.72	114.69
366.91	74.90
367.11	128.73
367.31	159.16
367.51	124.05
367.70	147.45
367.90	168.52
368.10	196.60
368.30	126.39
368.49	149.79
368.69	156.82
368.89	208.31
369.09	208.31
369.28	147.45
369.48	126.39
369.68	208.31
369.87	166.18
370.07	180.22
370.27	252.78
370.47	290.23
370.66	575.77
370.86	638.97
371.06	657.69
371.25	664.71
371.45	660.03
371.65	741.95
371.84	732.59
372.04	674.07
372.24	744.29
372.44	695.14
372.63	650.67
372.83	793.44
373.03	802.80
373.22	788.76
373.42	858.98
373.62	823.87
373.81	774.72
374.01	709.18
374.21	779.40
374.40	737.27
374.60	842.59
374.79	718.54
374.99	807.48
375.19	805.14
375.38	887.06
375.58	800.46
375.78	849.61
375.97	873.02
376.17	950.26
376.37	847.27
376.56	880.04
376.76	973.66
376.95	763.01
377.15	901.11
377.35	870.68
377.54	887.06
377.74	919.83
377.93	875.36
378.13	990.05
378.33	973.66
378.52	931.53
378.72	889.40
378.91	936.21
379.11	924.51
379.31	990.05
379.50	905.79
379.70	971.32
379.89	1060.26
380.09	987.71
380.28	894.08
380.48	957.28
380.68	973.66
380.87	973.66
381.07	1076.65
381.26	1114.10
381.46	926.85
381.65	868.34
381.85	1046.22
382.04	1050.90
382.24	1104.73
382.43	1088.35
382.63	978.34
382.83	1057.92
383.02	1107.07
383.22	1067.28
383.41	1046.22
383.61	1097.71
383.80	1142.18
384.00	1050.90
384.19	1181.97
384.39	1135.16
384.58	1125.80
384.78	1203.04
384.97	1153.88
385.17	1214.74
385.36	1188.99
385.56	1233.46
385.75	1184.31
385.95	1200.69
386.14	1270.91
386.34	1123.46
386.53	1177.29
386.72	1263.89
386.92	1219.42
387.11	1280.27
387.31	1228.78
387.50	1207.72
387.70	1235.80
387.89	1188.99
388.09	1210.06
388.28	1252.19
388.48	1284.95
388.67	1268.57
388.86	1315.38
389.06	1238.14
389.25	1331.76
389.45	1296.66
389.64	1390.28
389.84	1338.79
390.03	1430.07
390.22	1392.62
390.42	1343.47
390.61	1348.15
390.81	1357.51
391.00	1416.02
391.19	1504.96
391.39	1434.75
391.58	1439.43
391.78	1514.33
391.97	1486.24
392.16	1509.65
392.36	1572.84
392.55	1488.58
392.75	1507.30
392.94	1502.62
393.13	1507.30
393.33	1579.86
393.52	1500.28
393.71	1540.07
393.91	1678.16
394.10	1584.54
394.29	1624.33
394.49	1497.94
394.68	1631.35
394.88	1657.10
395.07	1699.23
395.26	1572.84
395.46	1675.82
395.65	1631.35
395.84	1582.20
396.04	1701.57
396.23	1762.42
396.42	1755.40
396.62	1739.02
396.81	1703.91
397.00	1722.63
397.19	1694.55
397.39	1895.83
397.58	1858.39
397.77	1802.21
397.97	1774.13
398.16	1891.15
398.35	1769.44
398.55	1816.26
398.74	1839.66
398.93	1935.62
399.12	1949.67
399.32	1921.58
399.51	1900.52
399.70	1928.60
399.90	1949.67
400.09	2040.95
400.28	2012.86
400.47	2043.29
400.67	1982.43
400.86	2036.27
401.05	2050.31
401.24	2059.67
401.44	2022.22
401.63	2279.68
401.82	2057.33
402.01	2162.66
402.21	2207.13
402.40	2134.57
402.59	2122.87
402.78	2242.23
402.97	2169.68
403.17	2275.00
403.36	2183.72
403.55	2195.42
403.74	2331.17
403.93	2321.81
404.13	2480.97
404.32	2389.69
404.51	2349.90
404.70	2438.84
404.89	2462.24
405.09	2424.80
405.28	2436.50
405.47	2502.03
405.66	2438.84
405.85	2523.10
406.05	2408.41
406.24	2530.12
406.43	2532.46
406.62	2597.99
406.81	2588.63
407.00	2586.29
407.20	2619.06
407.39	2670.55
407.58	2663.53
407.77	2686.94
407.96	2832.05
408.15	2750.13
408.34	2654.17
408.54	2764.17
408.73	2754.81
408.92	2764.17
409.11	2787.58
409.30	2726.72
409.49	2970.14
409.68	2995.89
409.87	2906.95
410.07	2937.37
410.26	2984.18
410.45	2930.35
410.64	3096.53
410.83	3112.91
411.02	3143.34
411.21	3220.58
411.40	3049.72
411.59	3133.98
411.78	3047.38
411.98	3185.47
412.17	3206.53
412.36	3300.16
412.55	3400.80
412.74	3344.63
412.93	3337.60
413.12	3421.86
413.31	3499.10
413.50	3459.31
413.69	3588.04
413.88	3719.11
414.07	3513.14
414.26	3681.66
414.45	3597.40
414.64	3555.27
414.83	3616.13
415.02	3754.22
415.22	3737.84
415.41	3922.74
415.60	3824.44
415.79	3775.28
415.98	3852.52
416.17	3915.72
416.36	3894.65
416.55	3939.12
416.74	4016.36
416.93	4051.47
417.12	4088.92
417.31	4238.71
417.50	4119.34
417.69	4304.25
417.88	4198.92
418.07	4276.16
418.26	4205.94
418.45	4369.78
418.64	4554.68
418.83	4402.55
419.02	4435.32
419.21	4414.25
419.39	4498.51
419.58	4535.96
419.77	4337.01
419.96	4578.09
420.15	4528.94
420.34	4500.85
420.53	4580.43
420.72	4610.86
420.91	4667.03
421.10	4624.90
421.29	4765.33
421.48	4587.45
421.67	4753.63
421.86	4786.40
422.05	4713.84
422.24	4786.40
422.43	4800.44
422.61	4854.27
422.80	4896.40
422.99	4873.00
423.18	4947.89
423.37	4922.15
423.56	4905.76
423.75	5004.07
423.94	4919.81
424.13	4568.73
424.32	4739.58
424.50	4945.55
424.69	5093.01
424.88	5032.15
425.07	4973.64
425.26	4896.40
425.45	4840.23
425.64	4915.12
425.83	4992.36
426.01	5015.77
426.20	5008.75
426.39	5050.88
426.58	5121.09
426.77	5078.96
426.96	5135.14
427.15	5067.26
427.33	5174.92
427.52	5032.15
427.71	5224.08
427.90	5224.08
428.09	5214.71
428.28	5214.71
428.46	5249.82
428.65	5277.91
428.84	5411.32
429.03	5533.03
429.22	5467.49
429.40	5469.83
429.59	5544.73
429.78	5310.68
429.97	5266.21
430.16	5561.11
430.34	5500.26
430.53	5666.44
430.72	5600.90
430.91	5502.60
431.10	5598.56
431.28	5757.72
431.47	5640.69
431.66	5593.88
431.85	5806.87
432.03	5858.36
432.22	5877.09
432.41	5998.79
432.60	6043.26
432.79	5923.90
432.97	6087.73
433.16	5820.91
433.35	5870.06
433.54	6078.37
433.72	6071.35
433.91	6108.80
434.10	6179.01
434.28	6143.91
434.47	6258.59
434.66	6300.72
434.85	6324.13
435.03	6296.04
435.22	6434.13
435.41	6436.47
435.59	6335.83
435.78	6403.71
435.97	6438.81
436.16	6286.68
436.34	6235.19
436.53	6511.37
436.72	6579.25
436.90	6464.56
437.09	6677.55
437.28	6459.88
437.46	6595.63
437.65	6607.33
437.84	6752.45
438.02	6682.23
438.21	6724.36
438.40	6623.72
438.58	6981.82
438.77	6939.69
438.96	6927.99
439.14	7094.16
439.33	7290.77
439.52	7140.97
439.70	7138.63
439.89	7356.30
440.08	7199.49
440.26	7281.41
440.45	7143.32
440.63	7424.18
440.82	7595.04
441.01	7581.00
441.19	7686.32
441.38	7691.00
441.57	7676.96
441.75	7758.88
441.94	7960.16
442.12	8166.13
442.31	7852.50
442.50	8044.42
442.68	7857.18
442.87	8098.25
443.05	8152.09
443.24	8079.53
443.43	7990.59
443.61	8234.00
443.80	8369.76
443.98	7899.31
444.17	7658.23
444.35	8219.96
444.54	8320.60
444.73	7992.93
444.91	8280.82
445.10	8461.04
445.28	8212.94
445.47	8180.17
445.65	8238.69
445.84	8325.29
446.02	8435.29
446.21	8327.63
446.39	8463.38
446.58	8519.55
446.77	8533.59
446.95	8156.77
447.14	8269.11
447.32	8470.40
447.51	8475.08
447.69	8477.42
447.88	8451.67
448.06	8411.89
448.25	8652.96
448.43	8500.83
448.62	8461.04
448.80	8463.38
448.99	8645.94
449.17	8816.80
449.36	8650.62
449.54	9013.40
449.73	8847.22
449.91	8786.37
450.10	8999.36
450.28	8999.36
450.46	8896.38
450.65	9032.13
450.83	9095.32
451.02	8922.12
451.20	9177.24
451.39	9088.30
451.57	9076.60
451.76	8966.59
451.94	9069.58
452.13	9310.65
452.31	9268.52
452.49	9142.13
452.68	9338.74
452.86	9263.84
453.05	9240.44
453.23	9544.70
453.42	9275.54
453.60	9579.81
453.78	9582.15
453.97	9504.92
454.15	9568.11
454.34	9385.55
454.52	9603.22
454.70	9621.94
454.89	9600.88
455.07	9579.81
455.26	9996.43
455.44	9598.54
455.62	9848.97
455.81	9973.02
455.99	9966.00
456.17	10043.24
456.36	9968.34
456.54	10143.88
456.73	10097.07
456.91	10331.12
457.09	10352.19
457.28	10633.05
457.46	10342.83
457.64	10501.98
457.83	10438.79
458.01	10249.21
458.19	10771.15
458.38	10347.51
458.56	10546.45
458.74	10611.99
458.93	10717.31
459.11	10644.76
459.29	10874.13
459.48	10696.25
459.66	10864.77
459.84	10834.34
460.03	11122.23
460.21	10843.70
460.39	10846.04
460.57	10881.15
460.76	11007.54
460.94	11037.97
461.12	11206.48
461.31	11101.16
461.49	11136.27
461.67	11103.50
461.85	11367.98
462.04	11265.00
462.22	11730.76
462.40	11569.27
462.59	11587.99
462.77	11524.80
462.95	11716.72
463.13	11580.97
463.32	11566.93
463.50	11562.25
463.68	11770.55
463.86	11908.65
464.05	11309.47
464.23	11630.12
464.41	11829.07
464.59	11578.63
464.78	11955.46
464.96	11871.20
465.14	11723.74
465.32	12028.01
465.50	12049.08
465.69	12098.23
465.87	11859.49
466.05	11971.84
466.23	12044.40
466.41	12210.57
466.60	12498.46
466.78	11969.50
466.96	12044.40
467.14	12119.29
467.32	12271.43
467.51	12552.29
467.69	12147.38
467.87	12299.52
468.05	12699.75
468.23	12479.74
468.41	12250.36
468.60	12470.37
468.78	12617.83
468.96	12617.83
469.14	12645.91
469.32	12987.63
469.50	12636.55
469.69	12779.32
469.87	12816.77
470.05	12959.55
470.23	13233.39
470.41	13048.49
470.59	13327.01
470.77	13142.11
470.95	13022.74
471.14	13261.48
471.32	13217.01
471.50	13401.91
471.68	13722.56
471.86	13614.90
472.04	13448.72
472.22	13973.00
472.40	13605.53
472.58	13921.51
472.77	13865.33
472.95	14092.37
473.13	14661.12
473.31	14090.02
473.49	14246.84
473.67	14129.81
473.85	14303.01
474.03	14427.06
474.21	14588.56
474.39	14630.69
474.57	14726.65
474.75	14771.12
474.93	14946.66
475.12	14881.13
475.30	14918.57
475.48	15133.90
475.66	15286.04
475.84	14944.32
476.02	15082.41
476.20	15351.57
476.38	15419.45
476.56	15793.94
476.74	15700.31
476.92	15522.43
477.10	15611.37
477.28	16067.78
477.46	16269.06
477.64	16208.21
477.82	16346.30
478.00	16952.50
478.18	16594.40
478.36	16901.01
478.54	17071.87
478.72	16940.80
478.90	17191.23
479.08	17460.40
479.26	17238.05
479.44	17593.81
479.62	17919.14
479.80	17947.23
479.98	18001.06
480.16	18174.26
480.34	18272.56
480.52	18492.57
480.70	18356.82
480.88	18230.43
481.06	18466.83
481.24	18682.16
481.41	19037.92
481.59	19213.46
481.77	19302.40
481.95	19655.82
482.13	19754.12
482.31	19515.39
482.49	20311.17
482.67	20119.24
482.85	20107.54
483.03	20217.55
483.21	20535.86
483.39	20753.53
483.57	20805.02
483.74	21039.08
483.92	21188.87
484.10	21010.99
484.28	21558.67
484.46	21902.73
484.64	22071.25
484.82	21656.98
485.00	22412.97
485.18	22567.45
485.35	22834.27
485.53	22841.29
485.71	22977.04
485.89	23419.40
486.07	23417.06
486.25	23309.40
486.43	23559.83
486.61	24168.37
486.78	24135.60
486.96	24187.10
487.14	24407.11
487.32	24374.34
487.50	24477.32
487.68	24797.98
487.85	25483.75
488.03	25441.62
488.21	25752.91
488.39	25820.79
488.57	25991.65
488.75	26242.09
488.92	26146.12
489.10	26520.61
489.28	26595.51
489.46	26642.32
489.64	26890.41
489.81	27723.65
489.99	27711.94
490.17	27585.55
490.35	27889.82
490.53	28016.21
490.70	27969.40
490.88	27967.06
491.06	28762.84
491.24	28493.68
491.41	28568.58
491.59	28982.85
491.77	29422.87
491.95	29539.90
492.13	29326.91
492.30	30029.07
492.48	29577.35
492.66	29802.04
492.84	30150.78
493.01	30501.86
493.19	30380.15
493.37	30930.18
493.54	31199.34
493.72	31250.83
493.90	31531.70
494.08	31166.57
494.25	31871.07
494.43	32135.56
494.61	32266.63
494.79	32065.34
494.96	32074.70
495.14	32247.90
495.32	33188.80
495.49	32821.33
495.67	32985.17
495.85	33448.60
496.02	33757.55
496.20	33809.04
496.38	33783.29
496.55	33614.77
496.73	34668.02
496.91	34644.61
497.09	34279.49
497.26	34572.05
497.44	34483.11
497.62	34972.28
497.79	35849.99
497.97	35211.02
498.14	35545.72
498.32	36456.18
498.50	36116.81
498.67	36240.86
498.85	36224.47
499.03	36549.81
499.20	36694.92
499.38	36680.88
499.56	36559.17
499.73	36711.30
499.91	37230.90
500.08	37202.82
500.26	37378.36
500.44	37179.41
500.61	37659.22
500.79	37696.67
500.97	37986.89
501.14	38527.56
501.32	38532.24
501.49	38256.06
501.67	38380.10
501.84	38799.06
502.02	38595.43
502.20	38770.97
502.37	38932.47
502.55	38995.67
502.72	39255.46
502.90	39138.44
503.07	39171.21
503.25	39559.73
503.43	39683.78
503.60	40119.12
503.78	40304.02
503.95	39908.47
504.13	40465.52
504.30	40325.09
504.48	40385.94
504.65	40353.18
504.83	41277.69
505.01	41294.07
505.18	40830.65
505.36	41635.79
505.53	40638.72
505.71	41296.41
505.88	41780.90
506.06	41219.17
506.23	41909.63
506.41	41450.89
506.58	41923.68
506.76	41968.15
506.93	42293.48
507.11	41846.44
507.28	42408.17
507.46	42761.59
507.63	42712.44
507.81	42864.57
507.98	42459.66
508.16	43208.63
508.33	43206.29
508.50	43456.73
508.68	42962.87
508.85	43501.20
509.03	43267.14
509.20	43611.20
509.38	44144.84
509.55	44023.14
509.73	44109.74
509.90	44292.30
510.08	44250.17
510.25	44390.60
510.42	44650.40
510.60	44514.65
510.77	44697.21
510.95	44933.60
511.12	44842.32
511.30	44905.52
511.47	44898.50
511.64	44975.73
511.82	45453.20
511.99	44964.03
512.17	45841.73
512.34	45621.72
512.51	46202.18
512.69	45839.39
512.86	46487.72
513.04	46071.10
513.21	46113.23
513.38	46548.57
513.56	46560.28
513.73	46733.48
513.90	46972.21
514.08	46670.28
514.25	47185.20
514.43	47297.55
514.60	46873.91
514.77	47426.28
514.95	47496.49
515.12	47260.10
515.29	47487.13
515.47	47171.16
515.64	47686.07
515.81	47522.24
515.99	47899.06
516.16	48451.43
516.33	48334.40
516.51	48411.64
516.68	48289.93
516.85	48442.07
517.03	48425.68
517.20	48568.46
517.37	48631.65
517.54	48708.89
517.72	48498.24
517.89	48973.37
518.06	48973.37
518.24	49191.04
518.41	48858.68
518.58	49230.83
518.75	48854.00
518.93	49345.51
519.10	49263.60
519.27	49399.35
519.45	49354.88
519.62	49766.81
519.79	49490.63
519.96	49729.36
520.14	49998.52
520.31	49893.20
520.48	49991.50
520.65	50188.11
520.83	50370.67
521.00	50478.33
521.17	50487.70
521.34	50377.69
521.52	50574.30
521.69	50483.01
521.86	50894.95
522.03	50927.72
522.20	50934.74
522.38	51313.90
522.55	51276.46
522.72	50960.48
522.89	50724.09
523.07	51002.61
523.24	51435.61
523.41	51756.27
523.58	51299.86
523.75	51824.14
523.92	51377.10
524.10	51882.66
524.27	51817.12
524.44	51915.42
524.61	51777.33
524.78	52116.71
524.96	52020.75
525.13	52027.77
525.30	52294.59
525.47	52465.45
525.64	52268.84
525.81	52453.75
525.98	52683.12
526.16	52200.97
526.33	52261.82
526.50	52781.42
526.67	52992.07
526.84	52781.42
527.01	52690.14
527.18	52484.17
527.36	52589.50
527.53	52825.89
527.70	53188.67
527.87	53123.14
528.04	52961.64
528.21	53446.13
528.38	53408.68
528.55	53324.43
528.72	53516.35
528.89	53497.62
529.07	53081.01
529.24	53057.60
529.41	53572.52
529.58	53469.54
529.75	53621.67
529.92	53675.51
530.09	53670.82
530.26	53738.70
530.43	53602.95
530.60	53787.85
530.77	53691.89
530.94	53727.00
531.11	54012.54
531.28	53787.85
531.46	54129.57
531.63	53921.26
531.80	54000.84
531.97	54101.48
532.14	54401.07
532.31	54110.85
532.48	54152.97
532.65	54443.20
532.82	54188.08
532.99	54445.54
533.16	54323.83
533.33	54754.49
533.50	54890.24
533.67	54681.94
533.84	54457.24
534.01	54775.56
534.18	54672.57
534.35	55145.36
534.52	54721.72
534.69	55056.42
534.86	55023.65
535.03	54820.03
535.20	55037.70
535.37	55194.51
535.54	55330.26
535.71	55063.44
535.88	55386.44
536.05	55358.35
536.22	55253.03
536.38	55344.31
536.55	55433.25
536.72	55583.04
536.89	55313.88
537.06	55257.71
537.23	55414.52
537.40	55304.52
537.57	55667.30
537.74	55484.74
537.91	55707.09
538.08	55767.94
538.25	55498.78
538.42	55540.91
538.59	56088.60
538.75	55847.52
538.92	55803.05
539.09	55643.90
539.26	55880.29
539.43	56055.83
539.60	56296.91
539.77	56062.85
539.94	56385.85
540.11	56086.26
540.28	56093.28
540.44	56402.23
540.61	56364.78
540.78	56100.30
540.95	56301.59
541.12	56189.24
541.29	56406.91
541.46	56451.38
541.62	56669.05
541.79	56582.45
541.96	56416.27
542.13	56406.91
542.30	56498.19
542.47	56666.71
542.63	56622.24
542.80	56694.80
542.97	56858.63
543.14	56942.89
543.31	56968.64
543.48	56900.76
543.64	57439.09
543.81	57439.09
543.98	57205.03
544.15	57097.37
544.32	57265.89
544.48	57521.01
544.65	57228.44
544.82	57331.42
544.99	57450.79
545.16	57205.03
545.32	57193.33
545.49	57764.42
545.66	57661.44
545.83	57394.62
546.00	57804.21
546.16	57223.76
546.33	57340.78
546.50	57389.94
546.67	57654.42
546.83	57396.96
547.00	57570.16
547.17	57446.11
547.34	57380.57
547.50	57675.48
547.67	58031.24
547.84	57745.70
548.00	57883.79
548.17	58045.29
548.34	57673.14
548.51	57907.19
548.67	58152.95
548.84	58012.52
549.01	57764.42
549.18	58056.99
549.34	58019.54
549.51	58141.25
549.68	58197.42
549.84	58122.52
550.01	58450.20
550.18	58174.02
550.34	58539.14
550.51	58354.24
550.68	58344.87
550.84	58220.83
551.01	58417.43
551.18	58424.45
551.34	58251.25
551.51	58342.53
551.68	58349.56
551.84	58564.88
552.01	58471.26
552.18	58466.58
552.34	58450.20
552.51	58562.54
552.68	58349.56
552.84	58604.67
553.01	58731.06
553.18	58567.23
553.34	58836.39
553.51	58515.73
553.67	58974.48
553.84	58794.26
554.01	58639.78
554.17	58845.75
554.34	58829.37
554.51	58653.82
554.67	59147.68
554.84	58972.14
555.00	58721.70
555.17	58805.96
555.33	58911.28
555.50	58845.75
555.67	58951.07
555.83	58948.73
556.00	59227.26
556.16	59302.15
556.33	59185.13
556.50	59306.83
556.66	59157.04
556.83	59086.82
556.99	59344.28
557.16	59250.66
557.32	59332.58
557.49	59395.77
557.65	59114.91
557.82	59229.60
557.98	59166.40
558.15	59334.92
558.32	59238.96
558.48	59178.10
558.65	59363.01
558.81	59407.48
558.98	59386.41
559.14	59484.72
559.31	59608.76
559.47	59421.52
559.64	59594.72
559.80	59627.49
559.97	59669.62
560.13	59568.97
560.30	59561.95
560.46	59622.81
560.63	59781.96
560.79	59627.49
560.96	59835.80
561.12	59788.98
561.29	59774.94
561.45	59887.29
561.61	59547.91
561.78	59580.68
561.94	59657.91
562.11	59653.23
562.27	59859.20
562.44	59744.51
562.60	60004.31
562.77	59875.58
562.93	59599.40
563.10	60067.51
563.26	59704.73
563.42	60317.95
563.59	59920.05
563.75	59964.52
563.92	59983.25
564.08	59966.87
564.24	60161.13
564.41	59870.90
564.57	59980.91
564.74	59969.21
564.90	59934.10
565.07	59945.80
565.23	59922.40
565.39	59990.27
565.56	60093.25
565.72	59987.93
565.88	59990.27
566.05	59723.45
566.21	60109.64
566.38	60067.51
566.54	60023.04
566.70	60395.18
566.87	60329.65
567.03	60079.21
567.19	60114.32
567.36	59945.80
567.52	60327.31
567.68	60245.39
567.85	60032.40
568.01	60189.22
568.17	59943.46
568.34	60179.85
568.50	60287.52
568.66	60186.88
568.83	60067.51
568.99	60374.12
569.15	60172.83
569.32	60315.61
569.48	60247.73
569.64	60444.33
569.81	60254.75
569.97	60123.68
570.13	60224.32
570.30	60247.73
570.46	60404.55
570.62	60303.90
570.78	60285.18
570.95	60467.74
571.11	60261.77
571.27	60322.63
571.43	60198.58
571.60	60453.70
571.76	60619.88
571.92	60577.75
572.09	60568.38
572.25	60535.62
572.41	60467.74
572.57	60666.69
572.74	60505.19
572.90	60331.99
573.06	60626.90
573.22	60432.63
573.38	60509.87
573.55	60470.08
573.71	60664.35
573.87	60722.86
574.03	60371.78
574.20	60603.49
574.36	60683.07
574.52	60633.92
574.68	60741.58
574.84	60596.47
575.01	60797.76
575.17	60650.30
575.33	60451.36
575.49	60544.98
575.65	60416.25
575.82	60720.52
575.98	60774.35
576.14	60802.44
576.30	60708.82
576.46	60711.16
576.62	60690.09
576.79	60556.68
576.95	60399.86
577.11	60439.65
577.27	60446.68
577.43	60662.00
577.59	60605.83
577.75	60570.72
577.92	60399.86
578.08	60706.47
578.24	60575.40
578.40	60896.06
578.56	60867.97
578.72	60638.60
578.88	60732.22
579.04	60853.93
579.21	60631.58
579.37	60851.59
579.53	60938.19
579.69	60617.53
579.85	60598.81
580.01	60636.26
580.17	60619.88
580.33	60676.05
580.49	60933.51
580.65	60694.77
580.82	60650.30
580.98	60671.37
581.14	60484.12
581.30	61022.45
581.46	60741.58
581.62	60931.17
581.78	60650.30
581.94	60912.44
582.10	60743.92
582.26	60678.39
582.42	60594.13
582.58	60776.69
582.74	60757.97
582.90	60900.74
583.06	60891.38
583.22	60566.04
583.38	60757.97
583.54	60828.18
583.70	60767.33
583.86	60750.94
584.02	60643.28
584.18	60664.35
584.34	60825.84
584.50	60858.61
584.66	60786.05
584.82	60734.56
584.98	61029.47
585.14	61010.74
585.30	60783.71
585.46	60970.96
585.62	60889.04
585.78	60832.86
585.94	60776.69
586.10	61038.83
586.26	60809.46
586.42	60959.25
586.58	60907.76
586.74	60956.91
586.90	60860.95
587.06	60863.29
587.22	61134.79
587.38	60898.40
587.54	60980.32
587.70	61132.45
587.86	60961.59
588.02	61003.72
588.18	61059.90
588.34	60692.43
588.49	60945.21
