SpectraSuite Data File
++++++++++++++++++++++++++++++++++++
Date: Fri Oct 25 10:48:26 EDT 2013
User: price-jones
Dark Spectrum Present: No
Reference Spectrum Present: No
Number of Sampled Component Spectra: 1
Spectrometers: USB2+H05261
Integration Time (usec): 100000 (USB2+H05261)
Spectra Averaged: 1 (USB2+H05261)
Boxcar Smoothing: 0 (USB2+H05261)
Correct for Electrical Dark: No (USB2+H05261)
Strobe/Lamp Enabled: No (USB2+H05261)
Correct for Detector Non-linearity: No (USB2+H05261)
Correct for Stray Light: No (USB2+H05261)
Number of Pixels in Processed Spectrum: 2048
>>>>>Begin Processed Spectral Data<<<<<
365.73	145.11
365.92	145.11
366.12	145.11
366.32	53.83
366.52	74.90
366.72	126.39
366.91	88.94
367.11	51.49
367.31	0.00
367.51	98.30
367.70	23.41
367.90	39.79
368.10	2.34
368.30	79.58
368.49	93.62
368.69	98.30
368.89	117.03
369.09	35.11
369.28	84.26
369.48	128.73
369.68	100.64
369.87	173.20
370.07	81.92
370.27	152.13
370.47	234.05
370.66	332.36
370.86	421.30
371.06	463.43
371.25	503.22
371.45	444.70
371.65	496.19
371.84	500.87
372.04	400.23
372.24	491.51
372.44	421.30
372.63	550.03
372.83	477.47
373.03	491.51
373.22	528.96
373.42	575.77
373.62	550.03
373.81	638.97
374.01	624.92
374.21	498.53
374.40	496.19
374.60	587.47
374.79	571.09
374.99	552.37
375.19	535.98
375.38	594.50
375.58	613.22
375.78	573.43
375.97	601.52
376.17	634.29
376.37	631.94
376.56	711.52
376.76	601.52
376.95	566.41
377.15	685.78
377.35	660.03
377.54	697.48
377.74	629.60
377.93	613.22
378.13	709.18
378.33	667.05
378.52	592.16
378.72	688.12
378.91	716.20
379.11	709.18
379.31	751.31
379.50	650.67
379.70	767.70
379.89	744.29
380.09	655.35
380.28	648.33
380.48	681.10
380.68	730.25
380.87	699.82
381.07	772.38
381.26	734.93
381.46	671.73
381.65	702.16
381.85	643.65
382.04	669.39
382.24	655.35
382.43	685.78
382.63	674.07
382.83	683.44
383.02	786.42
383.22	784.08
383.41	716.20
383.61	805.14
383.80	718.54
384.00	770.04
384.19	805.14
384.39	777.06
384.58	828.55
384.78	755.99
384.97	823.87
385.17	765.36
385.36	753.65
385.56	772.38
385.75	826.21
385.95	784.08
386.14	887.06
386.34	873.02
386.53	840.25
386.72	858.98
386.92	844.93
387.11	835.57
387.31	809.83
387.50	868.34
387.70	814.51
387.89	917.49
388.09	823.87
388.28	910.47
388.48	929.19
388.67	912.81
388.86	924.51
389.06	964.30
389.25	931.53
389.45	1102.39
389.64	910.47
389.84	968.98
390.03	990.05
390.22	1034.52
390.42	1093.03
390.61	971.32
390.81	976.00
391.00	1020.47
391.19	1018.13
391.39	994.73
391.58	1001.75
391.78	1076.65
391.97	1100.05
392.16	1046.22
392.36	1008.77
392.55	1123.46
392.75	971.32
392.94	1043.88
393.13	1090.69
393.33	1029.84
393.52	1107.07
393.71	1149.20
393.91	1086.01
394.10	1128.14
394.29	1036.86
394.49	1146.86
394.68	1153.88
394.88	1109.41
395.07	1207.72
395.26	1282.61
395.46	1142.18
395.65	1266.23
395.84	1291.98
396.04	1165.59
396.23	1207.72
396.42	1153.88
396.62	1128.14
396.81	1231.12
397.00	1217.08
397.19	1273.25
397.39	1310.70
397.58	1306.02
397.77	1338.79
397.97	1427.73
398.16	1446.45
398.35	1427.73
398.55	1387.94
398.74	1437.09
398.93	1432.41
399.12	1448.79
399.32	1481.56
399.51	1413.68
399.70	1490.92
399.90	1469.86
400.09	1575.18
400.28	1612.63
400.47	1612.63
400.67	1579.86
400.86	1614.97
401.05	1584.54
401.24	1575.18
401.44	1724.97
401.63	1689.87
401.82	1668.80
402.01	1572.84
402.21	1631.35
402.40	1724.97
402.59	1593.90
402.78	1720.29
402.97	1626.67
403.17	1675.82
403.36	1715.61
403.55	1813.92
403.74	1865.41
403.93	1919.24
404.13	1741.36
404.32	1774.13
404.51	1785.83
404.70	1895.83
404.89	1881.79
405.09	1942.64
405.28	1996.48
405.47	1884.13
405.66	1919.24
405.85	1996.48
406.05	1928.60
406.24	2029.24
406.43	1930.94
406.62	2005.84
406.81	1968.39
407.00	1900.52
407.20	1949.67
407.39	1994.14
407.58	2218.83
407.77	2071.37
407.96	2181.38
408.15	2162.66
408.34	2188.40
408.54	2190.74
408.73	2242.23
408.92	2225.85
409.11	2256.28
409.30	2375.64
409.49	2258.62
409.68	2214.15
409.87	2246.91
410.07	2232.87
410.26	2331.17
410.45	2354.58
410.64	2321.81
410.83	2527.78
411.02	2502.03
411.21	2408.41
411.40	2401.39
411.59	2438.84
411.78	2473.95
411.98	2492.67
412.17	2562.89
412.36	2572.25
412.55	2541.82
412.74	2731.41
412.93	2733.75
413.12	2602.68
413.31	2789.92
413.50	2789.92
413.69	2733.75
413.88	2792.26
414.07	2808.64
414.26	2782.90
414.45	2888.22
414.64	2853.11
414.83	2916.31
415.02	2890.56
415.22	2991.20
415.41	3045.04
415.60	3129.30
415.79	3056.74
415.98	3234.62
416.17	3105.89
416.36	3119.93
416.55	3101.21
416.74	3229.94
416.93	3122.27
417.12	3145.68
417.31	3314.20
417.50	3286.11
417.69	3267.39
417.88	3386.76
418.07	3218.24
418.26	3550.59
418.45	3363.35
418.64	3541.23
418.83	3487.40
419.02	3414.84
419.21	3396.12
419.39	3492.08
419.58	3400.80
419.77	3438.25
419.96	3487.40
420.15	3520.17
420.34	3585.70
420.53	3442.93
420.72	3669.96
420.91	3644.21
421.10	3538.89
421.29	3770.60
421.48	3754.22
421.67	3721.45
421.86	3786.99
422.05	3676.98
422.24	3716.77
422.43	3716.77
422.61	3798.69
422.80	3786.99
422.99	3875.93
423.18	3737.84
423.37	3915.72
423.56	3836.14
423.75	3740.18
423.94	3850.18
424.13	3569.32
424.32	3737.84
424.50	3831.46
424.69	4025.72
424.88	3887.63
425.07	3822.09
425.26	3831.46
425.45	3833.80
425.64	3871.25
425.83	3782.31
426.01	3967.21
426.20	3770.60
426.39	3999.98
426.58	3775.28
426.77	3873.59
426.96	3829.12
427.15	3885.29
427.33	4046.79
427.52	3831.46
427.71	3960.19
427.90	3960.19
428.09	4060.83
428.28	3901.67
428.46	3978.91
428.65	3983.59
428.84	4180.20
429.03	4187.22
429.22	3962.53
429.40	3983.59
429.59	4051.47
429.78	3894.65
429.97	3904.01
430.16	4086.58
430.34	4126.36
430.53	4135.73
430.72	4086.58
430.91	4203.60
431.10	4264.46
431.28	4374.46
431.47	4617.88
431.66	4463.40
431.85	4339.35
432.03	4414.25
432.22	4545.32
432.41	4461.06
432.60	4641.28
432.79	4692.77
432.97	4498.51
433.16	4587.45
433.35	4449.36
433.54	4547.66
433.72	4512.55
433.91	4711.50
434.10	4606.17
434.28	4594.47
434.47	4849.59
434.66	4830.87
434.85	4704.48
435.03	4842.57
435.22	4751.29
435.41	4910.44
435.59	4905.76
435.78	4999.38
435.97	5032.15
436.16	4975.98
436.34	4894.06
436.53	5015.77
436.72	5076.62
436.90	4992.36
437.09	5057.90
437.28	4828.53
437.46	5067.26
437.65	5034.49
437.84	5109.39
438.02	5114.07
438.21	5018.11
438.40	5060.24
438.58	5263.86
438.77	5188.97
438.96	5296.63
439.14	5593.88
439.33	5502.60
439.52	5495.58
439.70	5322.38
439.89	5636.01
440.08	5528.35
440.26	5600.90
440.45	5476.85
440.63	5628.99
440.82	5647.71
441.01	5860.70
441.19	5813.89
441.38	5741.33
441.57	5865.38
441.75	5942.62
441.94	6200.08
442.12	6076.03
442.31	6167.31
442.50	6169.65
442.68	6064.33
442.87	6228.17
443.05	6284.34
443.24	6195.40
443.43	6186.04
443.61	6345.19
443.80	6466.90
443.98	6200.08
444.17	6057.31
444.35	6340.51
444.54	6352.21
444.73	6258.59
444.91	6113.48
445.10	6349.87
445.28	6197.74
445.47	6155.61
445.65	6202.42
445.84	6363.92
446.02	6396.68
446.21	6279.66
446.39	6494.99
446.58	6480.94
446.77	6581.59
446.95	6228.17
447.14	6544.14
447.32	6583.93
447.51	6731.38
447.69	6417.75
447.88	6408.39
448.06	6469.24
448.25	6560.52
448.43	6452.86
448.62	6621.38
448.80	6473.92
448.99	6555.84
449.17	6710.32
449.36	6569.88
449.54	6516.05
449.73	6843.73
449.91	7033.31
450.10	6825.00
450.28	6862.45
450.46	7070.76
450.65	6927.99
450.83	7129.27
451.02	7000.54
451.20	7000.54
451.39	6780.53
451.57	6960.75
451.76	6944.37
451.94	7009.90
452.13	7258.00
452.31	7012.24
452.49	6829.68
452.68	7157.36
452.86	6923.30
453.05	6991.18
453.23	7222.89
453.42	7218.21
453.60	7096.50
453.78	7239.28
453.97	7274.38
454.15	7243.96
454.34	7124.59
454.52	7307.15
454.70	7323.54
454.89	7468.65
455.07	7550.57
455.26	7510.78
455.44	7618.44
455.62	7529.50
455.81	7602.06
455.99	7583.34
456.17	7709.72
456.36	7527.16
456.54	7632.49
456.73	7801.01
456.91	8044.42
457.09	8016.33
457.28	7878.24
457.46	7908.67
457.64	8039.74
457.83	7915.69
458.01	7775.26
458.19	7936.76
458.38	8098.25
458.56	7964.84
458.74	8156.77
458.93	8145.06
459.11	8102.93
459.29	8081.87
459.48	8124.00
459.66	8208.26
459.84	7845.48
460.03	8187.19
460.21	8425.93
460.39	8327.63
460.57	8131.02
460.76	8432.95
460.94	8292.52
461.12	8372.10
461.31	8376.78
461.49	8234.00
461.67	8491.46
461.85	8496.14
462.04	8475.08
462.22	9022.77
462.40	8709.13
462.59	8535.93
462.77	8847.22
462.95	8671.68
463.13	8755.94
463.32	8887.01
463.50	8561.68
463.68	8748.92
463.86	9015.74
464.05	8645.94
464.23	8697.43
464.41	8769.99
464.59	8716.16
464.78	8971.27
464.96	8877.65
465.14	8723.18
465.32	8987.66
465.50	8994.68
465.69	9151.49
465.87	9261.50
466.05	8870.63
466.23	8908.08
466.41	9160.86
466.60	9212.35
466.78	9006.38
466.96	9137.45
467.14	9221.71
467.32	9298.95
467.51	9240.44
467.69	9165.54
467.87	9076.60
468.05	9371.50
468.23	8917.44
468.41	9348.10
468.60	9181.92
468.78	9446.40
468.96	9200.65
469.14	9521.30
469.32	9689.82
469.50	9310.65
469.69	9551.73
469.87	9547.05
470.05	9598.54
470.23	9558.75
470.41	9621.94
470.59	9776.42
470.77	9886.42
470.95	9685.14
471.14	10024.51
471.32	9659.39
471.50	10010.47
471.68	9989.41
471.86	9790.46
472.04	10092.39
472.22	10356.87
472.40	10122.82
472.58	10073.67
472.77	10064.30
472.95	10340.49
473.13	10562.84
473.31	10471.56
473.49	10342.83
473.67	10466.88
473.85	10441.13
474.03	10656.46
474.21	10651.78
474.39	10658.80
474.57	10616.67
474.75	10820.30
474.93	10775.83
475.12	10773.49
475.30	11169.04
475.48	11061.37
475.66	10925.62
475.84	10714.97
476.02	11239.25
476.20	11176.06
476.38	11201.80
476.56	11634.80
476.74	11531.82
476.92	11609.06
477.10	11566.93
477.28	12004.61
477.46	11719.06
477.64	11868.86
477.82	12049.08
478.00	12241.00
478.18	12088.87
478.36	12233.98
478.54	12318.24
478.72	12566.34
478.90	12638.89
479.08	12678.68
479.26	13149.13
479.44	12713.79
479.62	12833.16
479.80	12891.67
479.98	13315.31
480.16	13444.04
480.34	13226.37
480.52	13448.72
480.70	13572.77
480.88	13322.33
481.06	13467.44
481.24	13561.06
481.41	13884.06
481.59	14141.52
481.77	14108.75
481.95	14129.81
482.13	14293.65
482.31	13921.51
482.49	14537.07
482.67	14644.73
482.85	14663.46
483.03	14480.89
483.21	14883.47
483.39	15007.52
483.57	15264.97
483.74	15143.27
483.92	15496.69
484.10	15281.36
484.28	15564.56
484.46	15587.97
484.64	15807.98
484.82	15529.45
485.00	15850.11
485.18	16201.19
485.35	16283.11
485.53	16128.63
485.71	15737.76
485.89	16589.72
486.07	16011.60
486.25	16383.75
486.43	16638.87
486.61	16460.99
486.78	16643.55
486.96	17060.16
487.14	17401.88
487.32	17123.36
487.50	17727.22
487.68	17923.82
487.85	18090.00
488.03	18214.05
488.21	18359.16
488.39	18216.39
488.57	18794.50
488.75	18333.42
488.92	18597.90
489.10	19089.41
489.28	19164.31
489.46	19431.13
489.64	19630.07
489.81	19758.80
489.99	19637.09
490.17	19873.49
490.35	19917.96
490.53	19714.33
490.70	20304.15
490.88	20049.03
491.06	20250.32
491.24	20229.25
491.41	20615.44
491.59	20472.67
491.77	20620.12
491.95	20641.18
492.13	21116.31
492.30	21191.21
492.48	21425.26
492.66	21495.48
492.84	21376.11
493.01	22026.78
493.19	21612.51
493.37	21750.60
493.54	21855.92
493.72	22136.79
493.90	22082.95
494.08	22614.26
494.25	22721.92
494.43	22923.21
494.61	23220.45
494.79	22871.72
494.96	22721.92
495.14	23012.15
495.32	23101.09
495.49	23335.14
495.67	23323.44
495.85	23307.05
496.02	23819.63
496.20	23709.63
496.38	24072.41
496.55	24121.56
496.73	24400.08
496.91	24290.08
497.09	24554.56
497.26	24575.62
497.44	24442.21
497.62	24650.52
497.79	25198.21
497.97	24835.42
498.14	24943.09
498.32	25336.30
498.50	25366.73
498.67	25514.18
498.85	25532.90
499.03	25883.98
499.20	25912.07
499.38	25776.32
499.56	25617.16
499.73	25921.43
499.91	26029.10
500.08	26356.77
500.26	25970.58
500.44	26441.03
500.61	26274.85
500.79	26176.55
500.97	26637.64
501.14	26707.85
501.32	26991.06
501.49	26649.34
501.67	26806.16
501.84	27094.04
502.02	26948.93
502.20	27381.93
502.37	27524.70
502.55	27154.90
502.72	27683.86
502.90	27513.00
503.07	27117.45
503.25	27690.88
503.43	27697.90
503.60	27845.35
503.78	27812.59
503.95	28477.30
504.13	28376.66
504.30	28205.80
504.48	28058.34
504.65	28484.32
504.83	28713.69
505.01	28781.57
505.18	28556.88
505.36	28842.42
505.53	28842.42
505.71	29397.13
505.88	29670.97
506.06	29179.46
506.23	29439.26
506.41	29298.83
506.58	29219.25
506.76	29427.56
506.93	29612.46
507.11	29631.18
507.28	29455.64
507.46	29951.84
507.63	29514.16
507.81	29778.64
507.98	29792.68
508.16	29956.52
508.33	30389.52
508.50	30178.87
508.68	30487.82
508.85	30569.74
509.03	30604.84
509.20	30448.03
509.38	31049.55
509.55	30595.48
509.73	30686.76
509.90	30539.31
510.08	31108.06
510.25	30754.64
510.42	31152.53
510.60	31433.39
510.77	31178.28
510.95	31707.24
511.12	31512.97
511.30	31381.90
511.47	31873.42
511.64	31967.04
511.82	31625.32
511.99	32140.24
512.17	32119.17
512.34	32074.70
512.51	31826.60
512.69	32486.64
512.86	32531.11
513.04	32421.10
513.21	32194.07
513.38	32348.54
513.56	32158.96
513.73	32252.58
513.90	32826.01
514.08	32737.07
514.25	32783.88
514.43	32706.65
514.60	32666.86
514.77	32945.38
514.95	33048.36
515.12	32954.74
515.29	33340.93
515.47	33443.91
515.64	33591.37
515.81	33380.72
515.99	33324.55
516.16	33319.87
516.33	33315.19
516.51	33380.72
516.68	32966.45
516.85	33312.84
517.03	33593.71
517.20	33528.17
517.37	33951.81
517.54	34232.68
517.72	33804.36
517.89	33736.48
518.06	33965.85
518.24	33846.49
518.41	33958.83
518.58	34295.87
518.75	34148.42
518.93	34410.56
519.10	34375.45
519.27	34679.72
519.45	34469.07
519.62	34810.79
519.79	34986.33
519.96	35194.64
520.14	35042.50
520.31	35152.51
520.48	35304.64
520.65	34707.80
520.83	35943.61
521.00	35351.45
521.17	35789.13
521.34	35704.87
521.52	35814.88
521.69	35782.11
521.86	35744.66
522.03	35744.66
522.20	36074.68
522.38	36079.36
522.55	36060.63
522.72	35903.82
522.89	35730.62
523.07	36077.02
523.24	36215.11
523.41	36392.99
523.58	36135.53
523.75	37095.15
523.92	37193.45
524.10	36765.14
524.27	36430.44
524.44	37319.84
524.61	36966.42
524.78	37296.44
524.96	36933.65
525.13	37455.59
525.30	37844.12
525.47	37591.34
525.64	37167.71
525.81	37446.23
525.98	37329.20
526.16	36978.12
526.33	36725.35
526.50	37453.25
526.67	37605.39
526.84	37153.66
527.01	37352.61
527.18	37277.71
527.36	37457.93
527.53	37654.54
527.70	38277.12
527.87	38511.17
528.04	38094.56
528.21	38122.65
528.38	38253.72
528.55	38436.28
528.72	38480.75
528.89	38389.47
529.07	38373.08
529.24	38398.83
529.41	38565.01
529.58	38204.56
529.75	38199.88
529.92	38689.06
530.09	39129.08
530.26	38913.75
530.43	38368.40
530.60	38546.28
530.77	39108.01
530.94	39372.49
531.11	39037.80
531.28	39007.37
531.46	39384.19
531.63	39337.38
531.80	39150.14
531.97	39103.33
532.14	39213.34
532.31	38721.82
532.48	39536.33
532.65	39597.18
532.82	39526.97
532.99	39751.66
533.16	39173.55
533.33	39861.66
533.50	40364.88
533.67	39938.90
533.84	39311.64
534.01	39746.98
534.18	39969.33
534.35	40121.46
534.52	39655.70
534.69	40154.23
534.86	40278.28
535.03	40264.24
535.20	40402.33
535.37	40271.26
535.54	40552.12
535.71	40437.44
535.88	40507.65
536.05	40411.69
536.22	40648.08
536.38	41013.21
536.55	40381.26
536.72	40598.93
536.89	40374.24
537.06	40236.15
537.23	40552.12
537.40	40493.61
537.57	40332.11
537.74	40982.78
537.91	41172.36
538.08	40978.10
538.25	40781.49
538.42	41057.68
538.59	41684.94
538.75	41038.95
538.92	41237.90
539.09	41118.53
539.26	40914.90
539.43	41265.99
539.60	41305.77
539.77	41127.89
539.94	41312.80
540.11	41090.44
540.28	40954.69
540.44	41317.48
540.61	41249.60
540.78	41469.61
540.95	41198.11
541.12	41514.08
541.29	41460.25
541.46	41563.23
541.62	41532.81
541.79	42096.88
541.96	41212.15
542.13	41397.06
542.30	41734.09
542.47	41706.01
542.63	41937.72
542.80	41750.48
542.97	42300.50
543.14	42120.28
543.31	42593.07
543.48	42852.87
543.64	43126.71
543.81	42630.52
543.98	42745.20
544.15	42808.40
544.32	42597.75
544.48	43185.22
544.65	42073.47
544.82	42852.87
544.99	42366.04
545.16	42801.38
545.32	42658.60
545.49	42649.24
545.66	42677.33
545.83	43091.60
546.00	43208.63
546.16	43119.69
546.33	42890.32
546.50	42361.36
546.67	42871.59
546.83	42660.94
547.00	42934.79
547.17	43068.20
547.34	42590.73
547.50	43007.34
547.67	43229.69
547.84	43627.59
548.00	43051.81
548.17	43405.23
548.34	43157.14
548.51	43833.55
548.67	43292.89
548.84	43576.09
549.01	43512.90
549.18	43257.78
549.34	43777.38
549.51	43730.57
549.68	43510.56
549.84	43910.79
550.01	44098.03
550.18	43552.69
550.34	43824.19
550.51	43601.84
550.68	43608.86
550.84	43065.86
551.01	44112.08
551.18	43732.91
551.34	43985.69
551.51	44060.58
551.68	43927.17
551.84	44051.22
552.01	44039.52
552.18	43892.07
552.34	43814.83
552.51	44205.70
552.68	44435.07
552.84	44062.93
553.01	44605.93
553.18	44350.81
553.34	44507.63
553.51	43915.47
553.67	44074.63
553.84	44685.51
554.01	44676.15
554.17	44793.17
554.34	44772.11
554.51	44446.77
554.67	44498.26
554.84	44519.33
555.00	44079.31
555.17	44514.65
555.33	44645.72
555.50	44603.59
555.67	44891.48
555.83	45006.16
556.00	44556.78
556.16	45132.55
556.33	44886.79
556.50	44591.89
556.66	45071.70
556.83	44844.66
556.99	44645.72
557.16	45272.98
557.32	44905.52
557.49	44453.79
557.65	44739.34
557.82	44900.84
557.98	45181.70
558.15	45104.46
558.32	45045.95
558.48	44858.71
558.65	45193.40
558.81	45181.70
558.98	45081.06
559.14	45282.34
559.31	45071.70
559.47	45301.07
559.64	45280.00
559.80	45237.87
559.97	45490.65
560.13	45104.46
560.30	44870.41
560.46	45118.51
560.63	45045.95
560.79	45481.29
560.96	45048.29
561.12	45207.45
561.29	45380.65
561.45	45099.78
561.61	45228.51
561.78	45406.39
561.94	45242.56
562.11	44961.69
562.27	45511.72
562.44	45455.54
562.60	46038.34
562.77	45258.94
562.93	45691.94
563.10	45614.70
563.26	45434.48
563.42	45567.89
563.59	45521.08
563.75	45897.91
563.92	45769.18
564.08	45404.05
564.24	45874.50
564.41	45734.07
564.57	45722.37
564.74	45832.37
564.90	45577.25
565.07	45808.96
565.23	45764.49
565.39	45661.51
565.56	45872.16
565.72	45825.35
565.88	46366.01
566.05	45883.86
566.21	46043.02
566.38	45848.75
566.54	45738.75
566.70	46188.13
566.87	46387.08
567.03	45986.85
567.19	46263.03
567.36	45776.20
567.52	45832.37
567.68	46185.79
567.85	46036.00
568.01	45593.64
568.17	45542.14
568.34	46117.92
568.50	46295.80
568.66	45979.82
568.83	46082.81
568.99	45642.79
569.15	45961.10
569.32	45886.20
569.48	45647.47
569.64	45750.45
569.81	45687.26
569.97	46019.61
570.13	45837.05
570.30	45745.77
570.46	45546.82
570.62	45556.19
570.78	45745.77
570.95	45764.49
571.11	46117.92
571.27	46162.39
571.43	45741.09
571.60	46363.67
571.76	46064.08
571.92	46110.89
572.09	46075.79
572.25	46019.61
572.41	46005.57
572.57	46464.32
572.74	46358.99
572.90	46513.47
573.06	46124.94
573.22	46307.50
573.38	46068.76
573.55	46052.38
573.71	46036.00
573.87	45558.53
574.03	46101.53
574.20	46031.32
574.36	45792.58
574.52	46031.32
574.68	46047.70
574.84	46216.22
575.01	46124.94
575.17	46082.81
575.33	45820.67
575.49	46309.84
575.65	46394.10
575.82	45989.19
575.98	46003.23
576.14	46307.50
576.30	46028.98
576.46	46274.73
576.62	45879.18
576.79	45825.35
576.95	46176.43
577.11	46038.34
577.27	46185.79
577.43	46234.94
577.59	45841.73
577.75	45911.95
577.92	45727.05
578.08	45549.17
578.24	45701.30
578.40	45727.05
578.56	46141.32
578.72	46274.73
578.88	46497.08
579.04	46415.16
579.21	46167.07
579.37	46183.45
579.53	45902.59
579.69	45872.16
579.85	46122.60
580.01	46323.88
580.17	46291.12
580.33	46326.22
580.49	46064.08
580.65	46258.35
580.82	46436.23
580.98	45834.71
581.14	45904.93
581.30	46469.00
581.46	46174.09
581.62	46314.52
581.78	46361.33
581.94	46560.28
582.10	46401.12
582.26	46368.35
582.42	46492.40
582.58	46483.04
582.74	46534.53
582.90	45930.67
583.06	46471.34
583.22	46321.54
583.38	46295.80
583.54	46003.23
583.70	46375.37
583.86	46763.90
584.02	46010.25
584.18	46354.31
584.34	46642.20
584.50	46363.67
584.66	46384.74
584.82	46038.34
584.98	46536.87
585.14	46305.16
585.30	46520.49
585.46	46614.11
585.62	46281.75
585.78	46136.64
585.94	45764.49
586.10	46403.46
586.26	46094.51
586.42	46014.93
586.58	46520.49
586.74	46609.43
586.90	46218.56
587.06	45965.78
587.22	46288.77
587.38	46305.16
587.54	46796.67
587.70	46403.46
587.86	46459.63
588.02	46117.92
588.18	46260.69
588.34	45921.31
588.49	45900.25
588.65	46089.83
588.81	45614.70
588.97	45745.77
589.13	45991.53
589.29	45827.69
589.45	45823.01
589.61	46218.56
589.77	46129.62
589.93	46740.50
