SpectraSuite Data File
++++++++++++++++++++++++++++++++++++
Date: Fri Oct 25 11:33:25 EDT 2013
User: price-jones
Dark Spectrum Present: No
Reference Spectrum Present: No
Number of Sampled Component Spectra: 1
Spectrometers: USB2+H05261
Integration Time (usec): 100000 (USB2+H05261)
Spectra Averaged: 1 (USB2+H05261)
Boxcar Smoothing: 0 (USB2+H05261)
Correct for Electrical Dark: No (USB2+H05261)
Strobe/Lamp Enabled: No (USB2+H05261)
Correct for Detector Non-linearity: No (USB2+H05261)
Correct for Stray Light: No (USB2+H05261)
Number of Pixels in Processed Spectrum: 2048
>>>>>Begin Processed Spectral Data<<<<<
365.73	255.12
365.92	255.12
366.12	255.12
366.32	212.99
366.52	205.97
366.72	215.33
366.91	184.90
367.11	196.60
367.31	149.79
367.51	140.43
367.70	194.26
367.90	128.73
368.10	194.26
368.30	198.95
368.49	168.52
368.69	224.69
368.89	182.56
369.09	196.60
369.28	191.92
369.48	229.37
369.68	212.99
369.87	292.57
370.07	236.39
370.27	273.84
370.47	379.17
370.66	507.90
370.86	510.24
371.06	582.79
371.25	587.47
371.45	470.45
371.65	582.79
371.84	533.64
372.04	538.32
372.24	559.39
372.44	594.50
372.63	587.47
372.83	599.18
373.03	580.45
373.22	573.43
373.42	608.54
373.62	660.03
373.81	643.65
374.01	627.26
374.21	629.60
374.40	594.50
374.60	629.60
374.79	667.05
374.99	664.71
375.19	648.33
375.38	674.07
375.58	617.90
375.78	676.41
375.97	653.01
376.17	638.97
376.37	716.20
376.56	718.54
376.76	664.71
376.95	622.58
377.15	723.23
377.35	699.82
377.54	748.97
377.74	662.37
377.93	732.59
378.13	690.46
378.33	723.23
378.52	671.73
378.72	629.60
378.91	685.78
379.11	706.84
379.31	681.10
379.50	688.12
379.70	709.18
379.89	748.97
380.09	741.95
380.28	816.85
380.48	699.82
380.68	727.91
380.87	702.16
381.07	737.27
381.26	763.01
381.46	772.38
381.65	793.44
381.85	816.85
382.04	791.10
382.24	720.88
382.43	788.76
382.63	748.97
382.83	851.96
383.02	791.10
383.22	830.89
383.41	837.91
383.61	760.67
383.80	791.10
384.00	809.83
384.19	826.21
384.39	812.17
384.58	809.83
384.78	884.72
384.97	807.48
385.17	910.47
385.36	861.32
385.56	823.87
385.75	793.44
385.95	812.17
386.14	816.85
386.34	861.32
386.53	854.30
386.72	816.85
386.92	844.93
387.11	861.32
387.31	858.98
387.50	821.53
387.70	884.72
387.89	917.49
388.09	940.90
388.28	884.72
388.48	840.25
388.67	1004.09
388.86	945.58
389.06	936.21
389.25	898.77
389.45	854.30
389.64	947.92
389.84	980.68
390.03	908.13
390.22	985.37
390.42	896.43
390.61	992.39
390.81	952.60
391.00	987.71
391.19	1015.79
391.39	950.26
391.58	1062.60
391.78	947.92
391.97	997.07
392.16	978.34
392.36	1114.10
392.55	1086.01
392.75	1060.26
392.94	1102.39
393.13	1121.12
393.33	1074.31
393.52	1039.20
393.71	1078.99
393.91	1165.59
394.10	1062.60
394.29	1100.05
394.49	1107.07
394.68	1088.35
394.88	1191.33
395.07	1172.61
395.26	1163.25
395.46	1118.78
395.65	1163.25
395.84	1153.88
396.04	1219.42
396.23	1240.48
396.42	1240.48
396.62	1200.69
396.81	1226.44
397.00	1254.53
397.19	1212.40
397.39	1191.33
397.58	1275.59
397.77	1308.36
397.97	1228.78
398.16	1156.22
398.35	1291.98
398.55	1270.91
398.74	1282.61
398.93	1362.19
399.12	1357.51
399.32	1362.19
399.51	1259.21
399.70	1324.74
399.90	1334.11
400.09	1432.41
400.28	1437.09
400.47	1345.81
400.67	1397.30
400.86	1432.41
401.05	1425.39
401.24	1404.32
401.44	1444.11
401.63	1460.49
401.82	1411.34
402.01	1418.36
402.21	1423.05
402.40	1519.01
402.59	1479.22
402.78	1462.83
402.97	1458.15
403.17	1565.82
403.36	1504.96
403.55	1526.03
403.74	1596.25
403.93	1591.56
404.13	1556.46
404.32	1575.18
404.51	1521.35
404.70	1554.12
404.89	1680.50
405.09	1703.91
405.28	1750.72
405.47	1675.82
405.66	1732.00
405.85	1701.57
406.05	1673.48
406.24	1757.74
406.43	1753.06
406.62	1748.38
406.81	1820.94
407.00	1902.86
407.20	1757.74
407.39	1748.38
407.58	1863.07
407.77	1914.56
407.96	1870.09
408.15	1947.33
408.34	1898.17
408.54	1907.54
408.73	1959.03
408.92	1891.15
409.11	1968.39
409.30	1905.20
409.49	1963.71
409.68	2026.90
409.87	2059.67
410.07	2099.46
410.26	2045.63
410.45	1973.07
410.64	2059.67
410.83	2134.57
411.02	2085.42
411.21	2120.53
411.40	2207.13
411.59	2197.76
411.78	2216.49
411.98	2221.17
412.17	2244.57
412.36	2328.83
412.55	2303.09
412.74	2286.70
412.93	2392.03
413.12	2307.77
413.31	2417.77
413.50	2345.22
413.69	2310.11
413.88	2408.41
414.07	2485.65
414.26	2464.58
414.45	2588.63
414.64	2520.76
414.83	2506.71
415.02	2626.08
415.22	2663.53
415.41	2724.38
415.60	2640.12
415.79	2630.76
415.98	2726.72
416.17	2743.11
416.36	2724.38
416.55	2708.00
416.74	2820.35
416.93	2726.72
417.12	2904.60
417.31	2808.64
417.50	2965.46
417.69	2988.86
417.88	2897.58
418.07	2930.35
418.26	2967.80
418.45	3009.93
418.64	3178.45
418.83	3021.63
419.02	3040.36
419.21	3063.76
419.39	3075.46
419.58	3059.08
419.77	2951.42
419.96	3084.83
420.15	3166.74
420.34	3248.66
420.53	3157.38
420.72	3325.90
420.91	3267.39
421.10	3290.79
421.29	3290.79
421.48	3239.30
421.67	3243.98
421.86	3255.69
422.05	3241.64
422.24	3389.10
422.43	3346.97
422.61	3300.16
422.80	3414.84
422.99	3400.80
423.18	3339.94
423.37	3454.63
423.56	3372.71
423.75	3433.57
423.94	3309.52
424.13	3206.53
424.32	3316.54
424.50	3403.14
424.69	3398.46
424.88	3449.95
425.07	3351.65
425.26	3372.71
425.45	3403.14
425.64	3403.14
425.83	3363.35
426.01	3478.04
426.20	3463.99
426.39	3574.00
426.58	3517.83
426.77	3405.48
426.96	3653.58
427.15	3527.19
427.33	3588.04
427.52	3534.21
427.71	3574.00
427.90	3719.11
428.09	3609.11
428.28	3688.68
428.46	3728.47
428.65	3744.86
428.84	3737.84
429.03	3756.56
429.22	3705.07
429.40	3840.82
429.59	3946.14
429.78	3744.86
429.97	3669.96
430.16	3742.52
430.34	3880.61
430.53	3967.21
430.72	4030.40
430.91	3833.80
431.10	3819.75
431.28	3941.46
431.47	3866.56
431.66	4070.19
431.85	3960.19
432.03	4135.73
432.22	4112.32
432.41	3964.87
432.60	4084.23
432.79	4023.38
432.97	4063.17
433.16	4077.21
433.35	4079.55
433.54	4182.54
433.72	4175.52
433.91	4168.49
434.10	4241.05
434.28	4163.81
434.47	4234.03
434.66	4301.90
434.85	4456.38
435.03	4404.89
435.22	4241.05
435.41	4421.27
435.59	4353.40
435.78	4372.12
435.97	4519.57
436.16	4425.95
436.34	4447.02
436.53	4542.98
436.72	4620.22
436.90	4444.68
437.09	4519.57
437.28	4491.49
437.46	4662.35
437.65	4648.30
437.84	4596.81
438.02	4489.15
438.21	4554.68
438.40	4505.53
438.58	4772.35
438.77	4863.63
438.96	4690.43
439.14	4737.24
439.33	4812.14
439.52	4968.96
439.70	4870.65
439.89	4990.02
440.08	4992.36
440.26	4887.04
440.45	4980.66
440.63	5027.47
440.82	5172.58
441.01	5121.09
441.19	5205.35
441.38	5256.84
441.57	5308.34
441.75	5273.23
441.94	5483.88
442.12	5486.22
442.31	5633.67
442.50	5556.43
442.68	5526.00
442.87	5451.11
443.05	5607.92
443.24	5617.29
443.43	5673.46
443.61	5603.24
443.80	5563.45
443.98	5540.05
444.17	5268.55
444.35	5518.98
444.54	5778.78
444.73	5731.97
444.91	5685.16
445.10	5816.23
445.28	5638.35
445.47	5738.99
445.65	5703.89
445.84	5755.38
446.02	5696.86
446.21	5671.12
446.39	5792.83
446.58	5734.31
446.77	5827.93
446.95	5596.22
447.14	5689.84
447.32	5799.85
447.51	5783.46
447.69	5724.95
447.88	5797.51
448.06	5652.39
448.25	5837.30
448.43	5811.55
448.62	5839.64
448.80	5933.26
448.99	5926.24
449.17	6022.20
449.36	5942.62
449.54	6038.58
449.73	6057.31
449.91	6061.99
450.10	6157.95
450.28	6382.64
450.46	5980.07
450.65	6310.08
450.83	6202.42
451.02	6125.18
451.20	6228.17
451.39	6235.19
451.57	6174.33
451.76	6099.44
451.94	6282.00
452.13	6237.53
452.31	6319.45
452.49	6265.61
452.68	6312.42
452.86	6232.85
453.05	6431.79
453.23	6541.80
453.42	6413.07
453.60	6473.92
453.78	6392.00
453.97	6324.13
454.15	6333.49
454.34	6394.34
454.52	6436.47
454.70	6537.12
454.89	6663.51
455.07	6480.94
455.26	6743.08
455.44	6682.23
455.62	6722.02
455.81	6829.68
455.99	6768.83
456.17	6782.87
456.36	6860.11
456.54	6864.79
456.73	6909.26
456.91	6974.80
457.09	7096.50
457.28	7185.44
457.46	7045.01
457.64	7091.82
457.83	6986.50
458.01	6972.46
458.19	7323.54
458.38	7124.59
458.56	7288.43
458.74	7185.44
458.93	7274.38
459.11	7208.85
459.29	7204.17
459.48	7382.05
459.66	7272.04
459.84	7323.54
460.03	7501.42
460.21	7377.37
460.39	7318.86
460.57	7297.79
460.76	7620.78
460.94	7669.94
461.12	7728.45
461.31	7676.96
461.49	7552.91
461.67	7499.08
461.85	7854.84
462.04	7660.57
462.22	8095.91
462.40	7686.32
462.59	7779.94
462.77	7751.85
462.95	7843.14
463.13	7784.62
463.32	7700.36
463.50	7798.66
463.68	8002.29
463.86	8093.57
464.05	7887.61
464.23	7854.84
464.41	7887.61
464.59	7791.64
464.78	7836.11
464.96	8156.77
465.14	7971.86
465.32	8212.94
465.50	8135.70
465.69	8210.60
465.87	8081.87
466.05	8201.24
466.23	8180.17
466.41	8006.97
466.60	8336.99
466.78	8234.00
466.96	8250.39
467.14	8269.11
467.32	8297.20
467.51	8568.70
467.69	8177.83
467.87	8175.49
468.05	8376.78
468.23	8580.40
468.41	8425.93
468.60	8482.10
468.78	8650.62
468.96	8461.04
469.14	8573.38
469.32	8643.60
469.50	8402.52
469.69	8767.65
469.87	8681.05
470.05	8777.01
470.23	8755.94
470.41	8762.97
470.59	9041.49
470.77	8784.03
470.95	8954.89
471.14	9043.83
471.32	8732.54
471.50	9018.08
471.68	8952.55
471.86	9085.96
472.04	9247.46
472.22	9212.35
472.40	9076.60
472.58	9107.02
472.77	9397.25
472.95	9355.12
473.13	9729.61
473.31	9504.92
473.49	9521.30
473.67	9696.84
473.85	9675.77
474.03	9778.76
474.21	9713.22
474.39	9841.95
474.57	9820.89
474.75	9860.68
474.93	9989.41
475.12	9942.60
475.30	10122.82
475.48	9926.21
475.66	10347.51
475.84	10253.89
476.02	10139.20
476.20	10431.77
476.38	10399.00
476.56	10420.06
476.74	10658.80
476.92	10401.34
477.10	10649.44
477.28	10553.48
477.46	10803.91
477.64	10871.79
477.82	11117.54
478.00	11225.21
478.18	11157.33
478.36	11239.25
478.54	11489.69
478.72	11222.87
478.90	11463.94
479.08	11583.31
479.26	11637.14
479.44	11735.45
479.62	11805.66
479.80	11836.09
479.98	12023.33
480.16	12058.44
480.34	12208.23
480.52	12280.79
480.70	12367.39
480.88	12196.53
481.06	12308.88
481.24	12606.13
481.41	12472.71
481.59	12786.35
481.77	12781.67
481.95	13118.70
482.13	13029.76
482.31	13015.72
482.49	13348.08
482.67	13343.39
482.85	13507.23
483.03	13659.37
483.21	13844.27
483.39	14019.81
483.57	13839.59
483.74	13827.88
483.92	14066.62
484.10	14115.77
484.28	14408.34
484.46	14359.19
484.64	14773.46
484.82	14513.66
485.00	14778.14
485.18	14967.73
485.35	15356.25
485.53	15180.71
485.71	15159.65
485.89	15396.04
486.07	15506.05
486.25	15489.67
486.43	15625.42
486.61	15854.79
486.78	15878.19
486.96	15829.04
487.14	16159.06
487.32	16374.39
487.50	16327.58
487.68	16580.36
487.85	16732.49
488.03	16702.06
488.21	16814.41
488.39	16879.94
488.57	17514.23
488.75	17343.37
488.92	17713.17
489.10	17603.17
489.28	17633.60
489.46	17738.92
489.64	17958.93
489.81	18031.49
489.99	18394.27
490.17	18293.63
490.35	18654.07
490.53	18455.12
490.70	18471.51
490.88	18792.16
491.06	18906.85
491.24	18740.67
491.41	19370.27
491.59	19349.21
491.77	19222.82
491.95	19672.20
492.13	19651.14
492.30	19618.37
492.48	19733.06
492.66	19693.27
492.84	20086.48
493.01	20594.37
493.19	20318.19
493.37	20877.58
493.54	20308.83
493.72	20828.43
493.90	20798.00
494.08	20865.88
494.25	21216.96
494.43	21116.31
494.61	21376.11
494.79	21324.62
494.96	21432.29
495.14	21675.70
495.32	21869.97
495.49	21708.47
495.67	21837.20
495.85	22214.02
496.02	22309.99
496.20	22356.80
496.38	22286.58
496.55	22534.68
496.73	22913.84
496.91	22918.53
497.09	23042.57
497.26	23131.51
497.44	22904.48
497.62	23082.36
497.79	23557.49
497.97	23730.69
498.14	23903.89
498.32	23606.64
498.50	23681.54
498.67	24261.99
498.85	24100.50
499.03	24194.12
499.20	24364.98
499.38	24325.19
499.56	24252.63
499.73	24702.01
499.91	24507.75
500.08	24959.47
500.26	24723.08
500.44	25032.03
500.61	25158.42
500.79	24999.26
500.97	24973.52
501.14	25387.79
501.32	25284.81
501.49	25390.13
501.67	25207.57
501.84	25603.12
502.02	25458.01
502.20	25694.40
502.37	25855.90
502.55	26017.40
502.72	25926.11
502.90	26108.68
503.07	25905.05
503.25	26380.18
503.43	26022.08
503.60	26204.64
503.78	26340.39
503.95	27026.17
504.13	26850.63
504.30	26670.40
504.48	26951.27
504.65	26848.29
504.83	27140.85
505.01	27129.15
505.18	27199.37
505.36	27276.60
505.53	27459.16
505.71	27515.34
505.88	27370.22
506.06	27391.29
506.23	27871.10
506.41	27541.08
506.58	27929.61
506.76	28009.19
506.93	28238.56
507.11	28325.16
507.28	28222.18
507.46	28166.01
507.63	28779.23
507.81	28500.70
507.98	28458.57
508.16	28634.11
508.33	28423.47
508.50	28744.12
508.68	28664.54
508.85	29160.73
509.03	29345.64
509.20	29287.12
509.38	29296.49
509.55	29338.62
509.73	29219.25
509.90	29441.60
510.08	29586.71
510.25	29404.15
510.42	29921.41
510.60	29619.48
510.77	30043.12
510.95	30150.78
511.12	30092.27
511.30	29706.08
511.47	30464.41
511.64	30183.55
511.82	30689.10
511.99	30515.90
512.17	30607.19
512.34	30515.90
512.51	31042.53
512.69	31248.49
512.86	31204.02
513.04	31173.60
513.21	31012.10
513.38	31295.30
513.56	31632.34
513.73	31182.96
513.90	31330.41
514.08	31424.03
514.25	31622.98
514.43	31681.49
514.60	31536.38
514.77	31683.83
514.95	31576.17
515.12	31960.02
515.29	31817.24
515.47	32320.46
515.64	32140.24
515.81	31915.54
515.99	32252.58
516.16	32350.88
516.33	32219.81
516.51	32645.79
516.68	32444.51
516.85	32542.81
517.03	32528.77
517.20	32760.48
517.37	32643.45
517.54	32797.93
517.72	33235.61
517.89	33228.59
518.06	33645.20
518.24	33251.99
518.41	33212.20
518.58	33612.43
518.75	33336.25
518.93	33369.02
519.10	33427.53
519.27	33378.38
519.45	33886.28
519.62	34117.99
519.79	34288.85
519.96	33722.44
520.14	33996.28
520.31	34026.71
520.48	34335.66
520.65	34478.43
520.83	34136.71
521.00	34565.03
521.17	34448.00
521.34	34494.82
521.52	34962.92
521.69	34513.54
521.86	35061.22
522.03	35218.04
522.20	35068.25
522.38	35168.89
522.55	35269.53
522.72	35108.04
522.89	35662.74
523.07	35463.80
523.24	35627.63
523.41	35721.26
523.58	35398.26
523.75	35999.78
523.92	35625.29
524.10	36128.51
524.27	35810.20
524.44	35798.49
524.61	36034.89
524.78	36552.15
524.96	36383.63
525.13	36060.63
525.30	36737.05
525.47	36217.45
525.64	36699.60
525.81	36425.76
525.98	36685.56
526.16	36456.18
526.33	36453.84
526.50	36868.12
526.67	36479.59
526.84	36666.83
527.01	36713.64
527.18	37156.00
527.36	37256.65
527.53	36790.88
527.70	37422.83
527.87	37514.11
528.04	36594.28
528.21	37401.76
528.38	37343.25
528.55	37715.39
528.72	37659.22
528.89	37556.24
529.07	37598.37
529.24	36992.17
529.41	37951.79
529.58	37535.17
529.75	37577.30
529.92	37476.66
530.09	37970.51
530.26	37970.51
530.43	38139.03
530.60	38146.05
530.77	37673.26
530.94	38080.52
531.11	38134.35
531.28	38321.59
531.46	38274.78
531.63	38436.28
531.80	38356.70
531.97	38305.21
532.14	38658.63
532.31	38756.93
532.48	38557.99
532.65	39005.03
532.82	38562.67
532.99	38883.32
533.16	38916.09
533.33	38892.68
533.50	38969.92
533.67	38635.22
533.84	38712.46
534.01	38565.01
534.18	38822.47
534.35	39407.60
534.52	39077.58
534.69	39800.81
534.86	39679.10
535.03	39908.47
535.20	39475.48
535.37	39662.72
535.54	39910.82
535.71	39227.38
535.88	40179.98
536.05	39899.11
536.22	40030.18
536.38	39789.11
536.55	39744.64
536.72	39899.11
536.89	40119.12
537.06	40025.50
537.23	40121.46
537.40	40004.44
537.57	39976.35
537.74	40259.55
537.91	40676.17
538.08	40032.52
538.25	39945.92
538.42	40605.95
538.59	40481.91
538.75	40442.12
538.92	40868.09
539.09	40882.14
539.26	40720.64
539.43	40505.31
539.60	40470.20
539.77	40699.58
539.94	41226.20
540.11	41003.85
540.28	40872.78
540.44	40823.62
540.61	40957.03
540.78	41200.45
540.95	41151.30
541.12	41305.77
541.29	41062.36
541.46	41163.00
541.62	41186.41
541.79	41139.60
541.96	41099.81
542.13	41345.56
542.30	41553.87
542.47	41361.95
542.63	41481.31
542.80	41652.17
542.97	42012.62
543.14	42157.73
543.31	41998.57
543.48	41996.23
543.64	42000.91
543.81	42270.08
543.98	41956.44
544.15	42330.93
544.32	42213.90
544.48	42354.33
544.65	42394.12
544.82	42319.23
544.99	42162.41
545.16	42408.17
545.32	42431.57
545.49	42745.20
545.66	42857.55
545.83	42749.88
546.00	43161.82
546.16	42506.47
546.33	42672.65
546.50	42518.17
546.67	42997.98
546.83	42478.38
547.00	42803.72
547.17	42550.94
547.34	43007.34
547.50	42852.87
547.67	43210.97
547.84	43257.78
548.00	43290.55
548.17	43758.66
548.34	43363.11
548.51	43491.83
548.67	43835.89
548.84	43480.13
549.01	43288.21
549.18	43522.26
549.34	43742.27
549.51	43751.63
549.68	43683.76
549.84	43519.92
550.01	44060.58
550.18	43786.74
550.34	43971.64
550.51	44231.44
550.68	44142.50
550.84	43423.96
551.01	43866.32
551.18	43929.51
551.34	43798.44
551.51	44236.12
551.68	43817.17
551.84	44055.90
552.01	43704.82
552.18	44109.74
552.34	43749.29
552.51	44737.00
552.68	44762.75
552.84	43789.08
553.01	44727.64
553.18	44046.54
553.34	44776.79
553.51	44130.80
553.67	44364.85
553.84	44444.43
554.01	44516.99
554.17	44835.30
554.34	44921.90
554.51	44563.80
554.67	45013.18
554.84	44865.73
555.00	44650.40
555.17	44425.71
555.33	44928.92
555.50	45055.31
555.67	44804.88
555.83	45055.31
556.00	44758.06
556.16	45535.12
556.33	45034.25
556.50	44547.42
556.66	44856.37
556.83	44751.04
556.99	44989.78
557.16	45478.95
557.32	45551.51
557.49	45720.02
557.65	45109.14
557.82	44739.34
557.98	45298.73
558.15	45565.55
558.32	45074.04
558.48	45553.85
558.65	45289.37
558.81	45626.40
558.98	45310.43
559.14	45109.14
559.31	45418.10
559.47	45251.92
559.64	46127.28
559.80	45567.89
559.97	45684.92
560.13	45184.04
560.30	45940.04
560.46	45713.00
560.63	46204.52
560.79	46197.49
560.96	45979.82
561.12	45689.60
561.29	45991.53
561.45	46026.63
561.61	45909.61
561.78	45319.79
561.94	45942.38
562.11	45947.06
562.27	46286.43
562.44	45825.35
562.60	45715.34
562.77	46335.59
562.93	46330.90
563.10	46199.83
563.26	45930.67
563.42	46452.61
563.59	45923.65
563.75	45759.81
563.92	45741.09
564.08	45890.88
564.24	46225.58
564.41	46520.49
564.57	46019.61
564.74	46246.65
564.90	46190.47
565.07	46061.74
565.23	46527.51
565.39	46436.23
565.56	46494.74
565.72	46438.57
565.88	46050.04
566.05	46366.01
566.21	46239.62
566.38	46328.56
566.54	46316.86
566.70	46579.00
566.87	46628.15
567.03	46286.43
567.19	46307.50
567.36	46377.72
567.52	46316.86
567.68	46775.61
567.85	46735.82
568.01	46548.57
568.17	46546.23
568.34	46394.10
568.50	46293.46
568.66	46660.92
568.83	46834.12
568.99	46611.77
569.15	46843.48
569.32	46391.76
569.48	46691.35
569.64	47292.86
569.81	46794.33
569.97	46990.94
570.13	46955.83
570.30	46347.29
570.46	46646.88
570.62	47243.71
570.78	47054.13
570.95	46794.33
571.11	46780.29
571.27	46930.08
571.43	46597.73
571.60	46707.73
571.76	46855.18
571.92	46777.95
572.09	47210.95
572.25	46976.89
572.41	46536.87
572.57	47365.42
572.74	47175.84
572.90	46941.78
573.06	47098.60
573.22	47208.61
573.38	47356.06
573.55	47182.86
573.71	47363.08
573.87	47515.22
574.03	47194.56
574.20	47739.91
574.36	47222.65
574.52	46951.15
574.68	46944.12
574.84	47222.65
575.01	47276.48
575.17	47414.57
575.33	47124.35
575.49	47316.27
575.65	47140.73
575.82	47234.35
575.98	46958.17
576.14	47334.99
576.30	48032.47
576.46	47063.49
576.62	47421.59
576.79	47414.57
576.95	47217.97
577.11	46934.76
577.27	47323.29
577.43	47316.27
577.59	47430.96
577.75	47129.03
577.92	46983.91
578.08	47096.26
578.24	47381.80
578.40	47276.48
578.56	47370.10
578.72	47449.68
578.88	47772.67
579.04	47360.74
579.21	47154.77
579.37	47519.90
579.53	47646.29
579.69	47168.82
579.85	46817.74
580.01	47440.32
580.17	47547.98
580.33	47812.46
580.49	47281.16
580.65	47358.40
580.82	47194.56
580.98	47250.74
581.14	47056.47
581.30	47657.99
581.46	47508.19
581.62	47515.22
581.78	47381.80
581.94	47892.04
582.10	47416.91
582.26	47147.75
582.42	47618.20
582.58	47562.03
582.74	47505.85
582.90	47414.57
583.06	47927.15
583.22	47587.77
583.38	47386.49
583.54	47508.19
583.70	47814.80
583.86	47681.39
584.02	47255.42
584.18	47971.62
584.34	47669.69
584.50	47821.83
584.66	48006.73
584.82	47641.60
584.98	47948.21
585.14	47159.45
585.30	47342.02
585.46	47166.48
585.62	47423.93
585.78	47929.49
585.94	47133.71
586.10	47515.22
586.26	47002.64
586.42	47461.38
586.58	48116.73
586.74	47920.13
586.90	47372.44
587.06	47260.10
587.22	47861.61
587.38	47838.21
587.54	47592.45
587.70	48282.91
587.86	47894.38
588.02	47828.85
588.18	47587.77
588.34	47796.08
588.49	47185.20
588.65	47814.80
588.81	47636.92
588.97	47966.94
589.13	47737.57
589.29	47650.97
589.45	48217.38
589.61	47767.99
589.77	47821.83
589.93	47627.56
590.08	48140.14
