SpectraSuite Data File
++++++++++++++++++++++++++++++++++++
Date: Fri Oct 25 10:44:29 EDT 2013
User: price-jones
Dark Spectrum Present: No
Reference Spectrum Present: No
Number of Sampled Component Spectra: 1
Spectrometers: USB2+H05261
Integration Time (usec): 100000 (USB2+H05261)
Spectra Averaged: 1 (USB2+H05261)
Boxcar Smoothing: 0 (USB2+H05261)
Correct for Electrical Dark: No (USB2+H05261)
Strobe/Lamp Enabled: No (USB2+H05261)
Correct for Detector Non-linearity: No (USB2+H05261)
Correct for Stray Light: No (USB2+H05261)
Number of Pixels in Processed Spectrum: 2048
>>>>>Begin Processed Spectral Data<<<<<
365.73	70.22
365.92	70.22
366.12	70.22
366.32	53.83
366.52	0.00
366.72	60.85
366.91	39.79
367.11	51.49
367.31	35.11
367.51	16.38
367.70	0.00
367.90	0.00
368.10	30.43
368.30	0.00
368.49	0.00
368.69	44.47
368.89	11.70
369.09	140.43
369.28	91.28
369.48	110.01
369.68	91.28
369.87	56.17
370.07	58.51
370.27	163.84
370.47	198.95
370.66	367.46
370.86	423.64
371.06	428.32
371.25	573.43
371.45	543.00
371.65	425.98
371.84	468.11
372.04	444.70
372.24	507.90
372.44	475.13
372.63	456.40
372.83	540.66
373.03	561.73
373.22	524.28
373.42	463.43
373.62	533.64
373.81	573.43
374.01	550.03
374.21	554.71
374.40	634.29
374.60	575.77
374.79	580.45
374.99	580.45
375.19	554.71
375.38	688.12
375.58	566.41
375.78	653.01
375.97	655.35
376.17	561.73
376.37	578.11
376.56	543.00
376.76	582.79
376.95	608.54
377.15	603.86
377.35	624.92
377.54	613.22
377.74	594.50
377.93	655.35
378.13	730.25
378.33	648.33
378.52	587.47
378.72	624.92
378.91	641.31
379.11	676.41
379.31	645.99
379.50	589.82
379.70	681.10
379.89	662.37
380.09	650.67
380.28	697.48
380.48	695.14
380.68	662.37
380.87	643.65
381.07	697.48
381.26	770.04
381.46	697.48
381.65	706.84
381.85	657.69
382.04	667.05
382.24	671.73
382.43	617.90
382.63	720.88
382.83	753.65
383.02	802.80
383.22	800.46
383.41	727.91
383.61	748.97
383.80	751.31
384.00	765.36
384.19	751.31
384.39	816.85
384.58	833.23
384.78	791.10
384.97	812.17
385.17	795.78
385.36	828.55
385.56	915.15
385.75	873.02
385.95	760.67
386.14	842.59
386.34	908.13
386.53	807.48
386.72	814.51
386.92	880.04
387.11	863.66
387.31	805.14
387.50	866.00
387.70	765.36
387.89	940.90
388.09	877.70
388.28	880.04
388.48	891.74
388.67	938.55
388.86	898.77
389.06	940.90
389.25	947.92
389.45	901.11
389.64	903.45
389.84	959.62
390.03	933.87
390.22	1078.99
390.42	973.66
390.61	1022.81
390.81	954.94
391.00	1015.79
391.19	1004.09
391.39	1043.88
391.58	1088.35
391.78	980.68
391.97	1015.79
392.16	1022.81
392.36	961.96
392.55	990.05
392.75	973.66
392.94	1013.45
393.13	1048.56
393.33	968.98
393.52	1027.50
393.71	1078.99
393.91	1156.22
394.10	1060.26
394.29	1144.52
394.49	1107.07
394.68	1303.68
394.88	1238.14
395.07	1224.10
395.26	1163.25
395.46	1193.67
395.65	1284.95
395.84	1210.06
396.04	1219.42
396.23	1217.08
396.42	1240.48
396.62	1156.22
396.81	1139.84
397.00	1219.42
397.19	1359.85
397.39	1331.76
397.58	1313.04
397.77	1376.24
397.97	1371.55
398.16	1411.34
398.35	1380.92
398.55	1462.83
398.74	1434.75
398.93	1425.39
399.12	1490.92
399.32	1406.66
399.51	1511.99
399.70	1481.56
399.90	1446.45
400.09	1598.59
400.28	1495.60
400.47	1568.16
400.67	1643.06
400.86	1556.46
401.05	1509.65
401.24	1598.59
401.44	1598.59
401.63	1774.13
401.82	1671.14
402.01	1736.68
402.21	1755.40
402.40	1720.29
402.59	1687.53
402.78	1764.76
402.97	1724.97
403.17	1790.51
403.36	1816.26
403.55	1774.13
403.74	1774.13
403.93	1853.70
404.13	1806.89
404.32	1834.98
404.51	1870.09
404.70	1926.26
404.89	1820.94
405.09	1877.11
405.28	1973.07
405.47	2026.90
405.66	1891.15
405.85	1989.46
406.05	2003.50
406.24	1947.33
406.43	1921.58
406.62	2069.03
406.81	2134.57
407.00	1912.22
407.20	1973.07
407.39	2029.24
407.58	2062.01
407.77	2167.34
407.96	2122.87
408.15	2134.57
408.34	2179.04
408.54	2176.70
408.73	2211.81
408.92	2260.96
409.11	2275.00
409.30	2153.29
409.49	2207.13
409.68	2267.98
409.87	2223.51
410.07	2218.83
410.26	2275.00
410.45	2256.28
410.64	2230.53
410.83	2441.18
411.02	2410.75
411.21	2490.33
411.40	2478.63
411.59	2712.68
411.78	2583.95
411.98	2590.97
412.17	2593.31
412.36	2689.28
412.55	2614.38
412.74	2600.34
412.93	2726.72
413.12	2745.45
413.31	2834.39
413.50	2670.55
413.69	2878.86
413.88	2855.45
414.07	2846.09
414.26	2897.58
414.45	2832.05
414.64	2867.16
414.83	2925.67
415.02	2946.73
415.22	3028.65
415.41	3141.00
415.60	2953.76
415.79	3103.55
415.98	3269.73
416.17	3129.30
416.36	2995.89
416.55	3269.73
416.74	3178.45
416.93	3372.71
417.12	3314.20
417.31	3281.43
417.50	3297.81
417.69	3473.36
417.88	3407.82
418.07	3321.22
418.26	3428.88
418.45	3370.37
418.64	3527.19
418.83	3442.93
419.02	3417.18
419.21	3426.54
419.39	3543.57
419.58	3410.16
419.77	3431.23
419.96	3611.45
420.15	3613.79
420.34	3562.30
420.53	3585.70
420.72	3667.62
420.91	3726.13
421.10	3709.75
421.29	3712.09
421.48	3658.26
421.67	3754.22
421.86	3779.97
422.05	3686.34
422.24	3676.98
422.43	3712.09
422.61	3796.35
422.80	3798.69
422.99	3882.95
423.18	3901.67
423.37	3983.59
423.56	3866.56
423.75	3906.35
423.94	3796.35
424.13	3606.77
424.32	3698.05
424.50	3875.93
424.69	3857.20
424.88	3847.84
425.07	3887.63
425.26	3859.54
425.45	3878.27
425.64	3908.69
425.83	3985.93
426.01	3840.82
426.20	3889.97
426.39	3974.23
426.58	3859.54
426.77	3875.93
426.96	3920.40
427.15	3880.61
427.33	4004.66
427.52	3957.85
427.71	3936.78
427.90	4093.60
428.09	4009.34
428.28	4016.36
428.46	4189.56
428.65	3978.91
428.84	4119.34
429.03	4224.67
429.22	4011.68
429.40	4102.96
429.59	4072.53
429.78	3836.14
429.97	3948.48
430.16	3969.55
430.34	3962.53
430.53	4140.41
430.72	4182.54
430.91	4060.83
431.10	4243.39
431.28	4372.12
431.47	4578.09
431.66	4545.32
431.85	4411.91
432.03	4547.66
432.22	4430.63
432.41	4606.17
432.60	4585.11
432.79	4435.32
432.97	4589.79
433.16	4671.71
433.35	4477.44
433.54	4524.26
433.72	4793.42
433.91	4610.86
434.10	4624.90
434.28	4744.27
434.47	4664.69
434.66	4781.71
434.85	4861.29
435.03	4851.93
435.22	4840.23
435.41	4915.12
435.59	4952.57
435.78	4978.32
435.97	4802.78
436.16	5034.49
436.34	4983.00
436.53	5128.11
436.72	4992.36
436.90	4975.98
437.09	5188.97
437.28	4858.95
437.46	5013.43
437.65	5172.58
437.84	5083.64
438.02	4983.00
438.21	5088.32
438.40	4985.34
438.58	5282.59
438.77	5322.38
438.96	5390.25
439.14	5472.17
439.33	5521.32
439.52	5476.85
439.70	5605.58
439.89	5757.72
440.08	5572.82
440.26	5605.58
440.45	5614.95
440.63	5832.62
440.82	5877.09
441.01	5741.33
441.19	5923.90
441.38	5912.19
441.57	5921.56
441.75	5942.62
441.94	6174.33
442.12	6127.52
442.31	6277.32
442.50	6017.52
442.68	6139.23
442.87	6150.93
443.05	6319.45
443.24	6326.47
443.43	6272.64
443.61	6359.24
443.80	6443.49
443.98	6150.93
444.17	6078.37
444.35	6377.96
444.54	6403.71
444.73	6497.33
444.91	6317.11
445.10	6382.64
445.28	6258.59
445.47	6422.43
445.65	6094.76
445.84	6368.60
446.02	6312.42
446.21	6342.85
446.39	6277.32
446.58	6663.51
446.77	6478.60
446.95	6333.49
447.14	6593.29
447.32	6583.93
447.51	6497.33
447.69	6494.99
447.88	6597.97
448.06	6518.39
448.25	6724.36
448.43	6450.52
448.62	6483.28
448.80	6565.20
448.99	6670.53
449.17	6705.63
449.36	6635.42
449.54	6841.39
449.73	6923.30
449.91	7009.90
450.10	6995.86
450.28	7005.22
450.46	6911.60
450.65	6942.03
450.83	7066.08
451.02	7007.56
451.20	7122.25
451.39	7002.88
451.57	7016.93
451.76	6935.01
451.94	7007.56
452.13	7208.85
452.31	7082.46
452.49	6913.94
452.68	7040.33
452.86	7026.29
453.05	7162.04
453.23	7082.46
453.42	7215.87
453.60	7077.78
453.78	7379.71
453.97	7229.91
454.15	7307.15
454.34	7213.53
454.52	7424.18
454.70	7470.99
454.89	7372.69
455.07	7384.39
455.26	7510.78
455.44	7527.16
455.62	7597.38
455.81	7723.77
455.99	7749.51
456.17	7819.73
456.36	7644.19
456.54	7506.10
456.73	7681.64
456.91	7875.90
457.09	7817.39
457.28	8149.75
457.46	7981.23
457.64	8060.80
457.83	8002.29
458.01	7941.44
458.19	7936.76
458.38	7967.18
458.56	8131.02
458.74	8042.08
458.93	7950.80
459.11	8142.72
459.29	8049.10
459.48	8173.15
459.66	8046.76
459.84	8210.60
460.03	8264.43
460.21	8442.31
460.39	8374.44
460.57	8184.85
460.76	8507.85
460.94	8430.61
461.12	8571.04
461.31	8372.10
461.49	8381.46
461.67	8278.47
461.85	8615.51
462.04	8540.61
462.22	8706.79
462.40	8830.84
462.59	8594.45
462.77	8669.34
462.95	8638.92
463.13	8842.54
463.32	8706.79
463.50	8800.41
463.68	8830.84
463.86	8912.76
464.05	8589.77
464.23	8594.45
464.41	8805.10
464.59	8650.62
464.78	8875.31
464.96	8936.17
465.14	8896.38
465.32	8901.06
465.50	9158.52
465.69	9172.56
465.87	9069.58
466.05	8982.98
466.23	8959.57
466.41	9043.83
466.60	9177.24
466.78	8816.80
466.96	8936.17
467.14	9228.73
467.32	9172.56
467.51	9521.30
467.69	9015.74
467.87	9060.21
468.05	9263.84
468.23	9256.82
468.41	9427.68
468.60	9214.69
468.78	9427.68
468.96	9441.72
469.14	9371.50
469.32	9673.43
469.50	9336.40
469.69	9511.94
469.87	9652.37
470.05	9654.71
470.23	9708.54
470.41	9650.03
470.59	9713.22
470.77	9650.03
470.95	9963.66
471.14	9813.87
471.32	9750.67
471.50	9926.21
471.68	10097.07
471.86	10052.60
472.04	10146.22
472.22	10289.00
472.40	10164.95
472.58	10122.82
472.77	10167.29
472.95	10303.04
473.13	10672.84
473.31	10237.50
473.49	10476.24
473.67	10328.78
473.85	10455.17
474.03	10740.72
474.21	10693.91
474.39	10965.41
474.57	10820.30
474.75	10963.07
474.93	10946.69
475.12	10839.02
475.30	10761.78
475.48	10843.70
475.66	10965.41
475.84	11096.48
476.02	11164.36
476.20	11162.01
476.38	11323.51
476.56	11709.70
476.74	11552.88
476.92	11660.55
477.10	11580.97
477.28	11728.42
477.46	11723.74
477.64	11957.80
477.82	11953.12
478.00	12325.26
478.18	12135.68
478.36	12339.30
478.54	12231.64
478.72	12613.15
478.90	12615.49
479.08	12510.16
479.26	12664.64
479.44	13060.19
479.62	12870.61
479.80	13018.06
479.98	13366.80
480.16	13495.53
480.34	13329.35
480.52	13303.60
480.70	13474.46
480.88	13219.35
481.06	13832.57
481.24	13642.98
481.41	13858.31
481.59	14157.90
481.77	14293.65
481.95	14122.79
482.13	14410.68
482.31	14223.44
482.49	14719.63
482.67	14586.22
482.85	14710.27
483.03	14736.01
483.21	15056.67
483.39	15159.65
483.57	15183.06
483.74	15101.14
483.92	15379.66
484.10	15328.17
484.28	15679.25
484.46	16086.50
484.64	15810.32
484.82	15531.80
485.00	15819.68
485.18	16142.67
485.35	16313.53
485.53	15861.81
485.71	15854.79
485.89	16297.15
486.07	16119.27
486.25	16519.50
486.43	16681.00
486.61	16814.41
486.78	16919.73
486.96	17158.47
487.14	17334.01
487.32	17570.40
487.50	17511.89
487.68	18139.15
487.85	17984.68
488.03	18003.40
488.21	18061.91
488.39	18298.31
488.57	18373.21
488.75	18555.77
488.92	18740.67
489.10	19073.03
489.28	18831.95
489.46	19112.81
489.64	19463.90
489.81	19683.91
489.99	19517.73
490.17	19969.45
490.35	20339.26
490.53	19955.41
490.70	20350.96
490.88	20533.52
491.06	20493.73
491.24	20315.85
491.41	20460.96
491.59	20446.92
491.77	20713.74
491.95	20982.90
492.13	21132.70
492.30	21240.36
492.48	21305.90
492.66	21392.50
492.84	21413.56
493.01	21713.15
493.19	21785.71
493.37	21965.93
493.54	21858.26
493.72	22291.26
493.90	22314.67
494.08	22511.27
494.25	22689.15
494.43	22775.75
494.61	22881.08
494.79	22843.63
494.96	23300.03
495.14	23136.20
495.32	23192.37
495.49	23587.92
495.67	23562.17
495.85	23461.53
496.02	24184.76
496.20	24030.28
496.38	24130.92
496.55	24292.42
496.73	24713.72
496.91	24547.54
497.09	24584.99
497.26	24713.72
497.44	24648.18
497.62	24882.24
497.79	25057.78
497.97	24720.74
498.14	24847.13
498.32	25322.26
498.50	25067.14
498.67	25560.99
498.85	25481.41
499.03	25771.64
499.20	26008.03
499.38	26033.78
499.56	25729.51
499.73	26080.59
499.91	25961.22
500.08	26094.63
500.26	26012.71
500.44	26146.12
500.61	26272.51
500.79	26221.02
500.97	26352.09
501.14	26455.08
501.32	26799.13
501.49	26649.34
501.67	26789.77
501.84	26937.23
502.02	26969.99
502.20	27477.89
502.37	27548.11
502.55	27597.26
502.72	27658.11
502.90	27833.65
503.07	27470.87
503.25	27718.96
503.43	27744.71
503.60	27791.52
503.78	27550.45
503.95	27854.72
504.13	28149.62
504.30	27838.33
504.48	27838.33
504.65	28481.98
504.83	28673.90
505.01	28467.94
505.18	28545.17
505.36	29020.30
505.53	29078.82
505.71	29212.23
505.88	29280.10
506.06	28872.85
506.23	29139.67
506.41	29240.31
506.58	29270.74
506.76	29310.53
506.93	29736.51
507.11	29446.28
507.28	29214.57
507.46	29677.99
507.63	29617.14
507.81	29734.17
507.98	29481.39
508.16	30066.52
508.33	30246.74
508.50	30377.81
508.68	30408.24
508.85	30450.37
509.03	30508.88
509.20	30576.76
509.38	30749.96
509.55	30429.30
509.73	30670.38
509.90	31000.40
510.08	30831.88
510.25	31105.72
510.42	31255.51
510.60	31250.83
510.77	31227.43
510.95	31641.70
511.12	31297.64
511.30	31257.85
511.47	32208.11
511.64	32023.21
511.82	32257.26
511.99	31637.02
512.17	31964.70
512.34	31910.86
512.51	32488.98
512.69	32463.23
512.86	32362.59
513.04	32498.34
513.21	32723.03
513.38	32570.90
513.56	32734.73
513.73	32107.47
513.90	32718.35
514.08	32727.71
514.25	32570.90
514.43	32907.93
514.60	32486.64
514.77	32531.11
514.95	33610.09
515.12	33256.67
515.29	33024.96
515.47	33846.49
515.64	33869.89
515.81	33078.79
515.99	33514.13
516.16	32907.93
516.33	33455.62
516.51	33235.61
516.68	32971.13
516.85	33259.01
517.03	33109.22
517.20	33244.97
517.37	33500.09
517.54	33560.94
517.72	34005.64
517.89	33605.41
518.06	33537.54
518.24	33362.00
518.41	33942.45
518.58	33942.45
518.75	34136.71
518.93	34462.05
519.10	34300.55
519.27	34628.23
519.45	34850.58
519.62	34890.37
519.79	34855.26
519.96	34576.73
520.14	35028.46
520.31	34410.56
520.48	34810.79
520.65	35171.23
520.83	35611.25
521.00	35292.94
521.17	35747.00
521.34	35271.87
521.52	35707.21
521.69	35573.80
521.86	35620.61
522.03	36208.09
522.20	35864.03
522.38	35854.67
522.55	36201.07
522.72	36259.58
522.89	35896.80
523.07	36074.68
523.24	36407.03
523.41	36547.47
523.58	35988.08
523.75	36650.45
523.92	36608.32
524.10	36540.44
524.27	36519.38
524.44	37312.82
524.61	36737.05
524.78	37198.13
524.96	37006.21
525.13	37443.89
525.30	37022.59
525.47	37483.68
525.64	37408.78
525.81	37221.54
525.98	37078.77
526.16	37036.64
526.33	37357.29
526.50	37195.79
526.67	36615.34
526.84	36825.99
527.01	37289.42
527.18	37535.17
527.36	37790.29
527.53	37663.90
527.70	38494.79
527.87	38007.96
528.04	37759.86
528.21	38696.08
528.38	38279.46
528.55	38253.72
528.72	38075.84
528.89	38497.13
529.07	38513.52
529.24	38401.17
529.41	38766.29
529.58	38667.99
529.75	38267.76
529.92	38628.20
530.09	38927.79
530.26	38778.00
530.43	38447.98
530.60	38443.30
530.77	38611.82
530.94	38925.45
531.11	38539.26
531.28	38927.79
531.46	39316.32
531.63	39159.50
531.80	39063.54
531.97	39108.01
532.14	39100.99
532.31	38983.96
532.48	39201.63
532.65	39557.39
532.82	39358.45
532.99	39508.24
533.16	39426.32
533.33	39482.50
533.50	39707.19
533.67	39686.12
533.84	38932.47
534.01	39192.27
534.18	39728.25
534.35	40053.59
534.52	39840.60
534.69	40062.95
534.86	40334.45
535.03	39873.37
535.20	40250.19
535.37	40030.18
535.54	40643.40
535.71	40575.53
535.88	40240.83
536.05	40484.25
536.22	40528.72
536.38	40636.38
536.55	40297.00
536.72	40069.97
536.89	40332.11
537.06	40652.76
537.23	40411.69
537.40	40870.43
537.57	40648.08
537.74	40620.00
537.91	41186.41
538.08	40753.41
538.25	40559.14
538.42	40964.06
538.59	41137.26
538.75	40531.06
538.92	41048.32
539.09	41343.22
539.26	41172.36
539.43	40786.18
539.60	41155.98
539.77	40577.87
539.94	40971.08
540.11	41127.89
540.28	40959.38
540.44	41230.88
540.61	41116.19
540.78	41153.64
540.95	41076.40
541.12	41205.13
541.29	41167.68
541.46	41574.94
541.62	41724.73
541.79	41640.47
541.96	41390.03
542.13	41450.89
542.30	41698.98
542.47	41792.61
542.63	41549.19
542.80	41860.48
542.97	42272.42
543.14	42431.57
543.31	42375.40
543.48	42487.74
543.64	42843.51
543.81	42742.86
543.98	42344.97
544.15	42583.71
544.32	42305.18
544.48	42979.26
544.65	42761.59
544.82	42419.87
544.99	42487.74
545.16	42525.19
545.32	42473.70
545.49	42906.70
545.66	42799.04
545.83	43274.16
546.00	43217.99
546.16	43126.71
546.33	42548.60
546.50	42373.06
546.67	42997.98
546.83	42300.50
547.00	43210.97
547.17	42913.72
547.34	42845.85
547.50	43058.84
547.67	43143.09
547.84	43517.58
548.00	43414.60
548.17	43606.52
548.34	43423.96
548.51	43711.84
548.67	43459.07
548.84	43543.33
549.01	43543.33
549.18	43234.38
549.34	43665.03
549.51	43374.81
549.68	43606.52
549.84	42784.99
550.01	43662.69
550.18	43920.15
550.34	43962.28
550.51	43304.59
550.68	43271.82
550.84	43494.18
551.01	43985.69
551.18	43789.08
551.34	43817.17
551.51	44107.40
551.68	44147.18
551.84	43772.70
552.01	43742.27
552.18	44205.70
552.34	43746.95
552.51	44051.22
552.68	43924.83
552.84	44264.21
553.01	44055.90
553.18	43955.26
553.34	44126.12
553.51	43826.53
553.67	44322.72
553.84	44093.35
554.01	44596.57
554.17	44825.94
554.34	44172.93
554.51	44453.79
554.67	45034.25
554.84	43831.21
555.00	44254.85
555.17	44313.36
555.33	44240.81
555.50	44289.96
555.67	44538.05
555.83	44311.02
556.00	44182.29
556.16	44699.55
556.33	44161.23
556.50	44378.90
556.66	44947.65
556.83	44538.05
556.99	44493.58
557.16	44751.04
557.32	44526.35
557.49	44505.29
557.65	44701.89
557.82	44509.97
557.98	45006.16
558.15	45057.65
558.32	44842.32
558.48	44701.89
558.65	45118.51
558.81	44786.15
558.98	44411.67
559.14	44484.22
559.31	44961.69
559.47	44753.38
559.64	44971.05
559.80	45280.00
559.97	44971.05
560.13	44973.39
560.30	44802.53
560.46	45116.17
560.63	45308.09
560.79	45427.46
560.96	45502.35
561.12	45041.27
561.29	45181.70
561.45	44879.77
561.61	45329.16
561.78	45097.44
561.94	44999.14
562.11	45485.97
562.27	45219.15
562.44	45361.92
562.60	45970.46
562.77	45542.14
562.93	45567.89
563.10	45200.43
563.26	45174.68
563.42	45177.02
563.59	44765.09
563.75	45427.46
563.92	45551.51
564.08	45390.01
564.24	45350.22
564.41	45368.94
564.57	45228.51
564.74	45532.78
564.90	45673.21
565.07	45574.91
565.23	45595.98
565.39	45296.39
565.56	45235.53
565.72	45352.56
565.88	45673.21
566.05	45298.73
566.21	45193.40
566.38	45502.35
566.54	45537.46
566.70	45727.05
566.87	45963.44
567.03	45303.41
567.19	46078.13
567.36	45516.40
567.52	45773.86
567.68	45925.99
567.85	45769.18
568.01	45923.65
568.17	45495.33
568.34	45574.91
568.50	45586.61
568.66	45698.96
568.83	45869.82
568.99	45083.40
569.15	45521.08
569.32	45387.67
569.48	45689.60
569.64	45481.29
569.81	45698.96
569.97	45818.33
570.13	45872.16
570.30	45347.88
570.46	45556.19
570.62	45514.06
570.78	45427.46
570.95	45455.54
571.11	45708.32
571.27	45661.51
571.43	45752.79
571.60	45528.10
571.76	45354.90
571.92	45633.42
572.09	45572.57
572.25	45652.15
572.41	45591.30
572.57	46251.33
572.74	45963.44
572.90	45918.97
573.06	45682.58
573.22	45539.80
573.38	45680.24
573.55	45368.94
573.71	46089.83
573.87	45670.87
574.03	45680.24
574.20	45895.56
574.36	45560.87
574.52	45930.67
574.68	45979.82
574.84	45467.25
575.01	45432.14
575.17	46005.57
575.33	45364.26
575.49	45635.77
575.65	45766.84
575.82	46103.87
575.98	45769.18
576.14	46122.60
576.30	45797.26
576.46	45738.75
576.62	45588.95
576.79	46014.93
576.95	45418.10
577.11	45963.44
577.27	46188.13
577.43	45815.99
577.59	45713.00
577.75	46270.05
577.92	45315.11
578.08	45507.04
578.24	46024.29
578.40	45469.59
578.56	45954.08
578.72	45741.09
578.88	46679.64
579.04	45916.63
579.21	45804.28
579.37	45933.01
579.53	45872.16
579.69	45757.47
579.85	46246.65
580.01	45717.68
580.17	45998.55
580.33	46248.99
580.49	45879.18
580.65	45961.10
580.82	46019.61
580.98	46019.61
581.14	46160.05
581.30	46398.78
581.46	45909.61
581.62	45823.01
581.78	45951.74
581.94	46569.64
582.10	45811.31
582.26	45799.60
582.42	45684.92
582.58	45652.15
582.74	45918.97
582.90	46171.75
583.06	46096.85
583.22	46094.51
583.38	46045.36
583.54	46258.35
583.70	45734.07
583.86	45993.87
584.02	46174.09
584.18	45872.16
584.34	45722.37
584.50	45701.30
584.66	45624.06
584.82	45918.97
584.98	46141.32
585.14	46010.25
585.30	45640.45
585.46	45869.82
585.62	45745.77
585.78	45998.55
585.94	45345.54
586.10	45918.97
586.26	46068.76
586.42	45982.16
586.58	46073.45
586.74	46026.63
586.90	45883.86
587.06	45654.49
587.22	46096.85
587.38	46157.70
587.54	45989.19
587.70	46157.70
587.86	46050.04
588.02	46068.76
588.18	46162.39
588.34	45626.40
588.49	45806.62
588.65	45200.43
588.81	45333.84
588.97	45734.07
589.13	45553.85
589.29	45780.88
589.45	45666.19
589.61	45783.22
589.77	46040.68
589.93	46248.99
590.08	46405.80
