SpectraSuite Data File
++++++++++++++++++++++++++++++++++++
Date: Fri Oct 25 10:43:24 EDT 2013
User: price-jones
Dark Spectrum Present: No
Reference Spectrum Present: No
Number of Sampled Component Spectra: 1
Spectrometers: USB2+H05261
Integration Time (usec): 100000 (USB2+H05261)
Spectra Averaged: 1 (USB2+H05261)
Boxcar Smoothing: 0 (USB2+H05261)
Correct for Electrical Dark: No (USB2+H05261)
Strobe/Lamp Enabled: No (USB2+H05261)
Correct for Detector Non-linearity: No (USB2+H05261)
Correct for Stray Light: No (USB2+H05261)
Number of Pixels in Processed Spectrum: 2048
>>>>>Begin Processed Spectral Data<<<<<
365.73	91.28
365.92	91.28
366.12	91.28
366.32	79.58
366.52	0.00
366.72	65.54
366.91	42.13
367.11	0.00
367.31	18.72
367.51	60.85
367.70	58.51
367.90	37.45
368.10	74.90
368.30	23.41
368.49	46.81
368.69	9.36
368.89	67.88
369.09	7.02
369.28	65.54
369.48	7.02
369.68	53.83
369.87	121.71
370.07	51.49
370.27	145.11
370.47	215.33
370.66	372.15
370.86	484.49
371.06	451.72
371.25	456.40
371.45	437.68
371.65	491.51
371.84	503.22
372.04	393.21
372.24	386.19
372.44	425.98
372.63	554.71
372.83	526.62
373.03	440.02
373.22	461.09
373.42	489.17
373.62	475.13
373.81	559.39
374.01	594.50
374.21	561.73
374.40	512.58
374.60	601.52
374.79	561.73
374.99	566.41
375.19	589.82
375.38	585.13
375.58	568.75
375.78	624.92
375.97	580.45
376.17	688.12
376.37	596.84
376.56	603.86
376.76	561.73
376.95	615.56
377.15	643.65
377.35	575.77
377.54	587.47
377.74	653.01
377.93	610.88
378.13	589.82
378.33	610.88
378.52	575.77
378.72	676.41
378.91	517.26
379.11	599.18
379.31	758.33
379.50	603.86
379.70	716.20
379.89	730.25
380.09	692.80
380.28	674.07
380.48	674.07
380.68	784.08
380.87	631.94
381.07	655.35
381.26	676.41
381.46	697.48
381.65	725.57
381.85	697.48
382.04	711.52
382.24	688.12
382.43	669.39
382.63	744.29
382.83	699.82
383.02	723.23
383.22	676.41
383.41	732.59
383.61	748.97
383.80	781.74
384.00	678.76
384.19	753.65
384.39	837.91
384.58	763.01
384.78	727.91
384.97	819.19
385.17	741.95
385.36	805.14
385.56	798.12
385.75	830.89
385.95	800.46
386.14	765.36
386.34	823.87
386.53	856.64
386.72	779.40
386.92	840.25
387.11	788.76
387.31	915.15
387.50	828.55
387.70	816.85
387.89	889.40
388.09	898.77
388.28	821.53
388.48	926.85
388.67	940.90
388.86	870.68
389.06	978.34
389.25	985.37
389.45	922.17
389.64	994.73
389.84	978.34
390.03	929.19
390.22	1015.79
390.42	957.28
390.61	931.53
390.81	983.02
391.00	1032.18
391.19	1076.65
391.39	1053.24
391.58	1086.01
391.78	980.68
391.97	1001.75
392.16	999.41
392.36	987.71
392.55	1064.94
392.75	992.39
392.94	1055.58
393.13	959.62
393.33	964.30
393.52	959.62
393.71	1048.56
393.91	1050.90
394.10	1050.90
394.29	1104.73
394.49	1174.95
394.68	1158.57
394.88	1245.16
395.07	1313.04
395.26	1256.87
395.46	1205.38
395.65	1233.46
395.84	1205.38
396.04	1376.24
396.23	1132.82
396.42	1100.05
396.62	1158.57
396.81	1261.55
397.00	1266.23
397.19	1336.45
397.39	1270.91
397.58	1390.28
397.77	1263.89
397.97	1352.83
398.16	1411.34
398.35	1434.75
398.55	1371.55
398.74	1423.05
398.93	1507.30
399.12	1465.18
399.32	1439.43
399.51	1521.35
399.70	1554.12
399.90	1460.49
400.09	1565.82
400.28	1451.13
400.47	1547.09
400.67	1685.19
400.86	1633.69
401.05	1694.55
401.24	1631.35
401.44	1668.80
401.63	1710.93
401.82	1717.95
402.01	1813.92
402.21	1689.87
402.40	1750.72
402.59	1685.19
402.78	1652.42
402.97	1703.91
403.17	1830.30
403.36	1823.28
403.55	1832.64
403.74	1865.41
403.93	1834.98
404.13	1893.49
404.32	1839.66
404.51	1893.49
404.70	1886.47
404.89	1820.94
405.09	2026.90
405.28	1881.79
405.47	1952.01
405.66	1879.45
405.85	1968.39
406.05	2015.20
406.24	1961.37
406.43	1921.58
406.62	2099.46
406.81	2062.01
407.00	2050.31
407.20	2045.63
407.39	2129.89
407.58	2097.12
407.77	2097.12
407.96	2211.81
408.15	2237.55
408.34	2179.04
408.54	2188.40
408.73	2218.83
408.92	2284.36
409.11	2232.87
409.30	2284.36
409.49	2275.00
409.68	2289.04
409.87	2188.40
410.07	2202.44
410.26	2312.45
410.45	2284.36
410.64	2352.24
410.83	2499.69
411.02	2445.86
411.21	2466.92
411.40	2478.63
411.59	2712.68
411.78	2605.02
411.98	2588.63
412.17	2640.12
412.36	2612.04
412.55	2752.47
412.74	2794.60
412.93	2738.43
413.12	2724.38
413.31	2818.00
413.50	2878.86
413.69	2895.24
413.88	2846.09
414.07	2909.29
414.26	2869.50
414.45	2883.54
414.64	2878.86
414.83	3077.80
415.02	2984.18
415.22	2986.52
415.41	3030.99
415.60	3115.25
415.79	3234.62
415.98	3258.03
416.17	3197.17
416.36	3262.71
416.55	3243.98
416.74	3325.90
416.93	3236.96
417.12	3290.79
417.31	3328.24
417.50	3335.26
417.69	3506.12
417.88	3361.01
418.07	3356.33
418.26	3466.33
418.45	3290.79
418.64	3487.40
418.83	3564.64
419.02	3597.40
419.21	3613.79
419.39	3578.68
419.58	3581.02
419.77	3487.40
419.96	3569.32
420.15	3707.41
420.34	3618.47
420.53	3653.58
420.72	3831.46
420.91	3824.44
421.10	3730.81
421.29	3859.54
421.48	3768.26
421.67	3936.78
421.86	3744.86
422.05	3698.05
422.24	3786.99
422.43	3634.85
422.61	3726.13
422.80	3868.91
422.99	3967.21
423.18	3882.95
423.37	3941.46
423.56	3967.21
423.75	3896.99
423.94	3838.48
424.13	3618.47
424.32	3712.09
424.50	3967.21
424.69	4032.74
424.88	4039.76
425.07	3950.82
425.26	3798.69
425.45	3985.93
425.64	3887.63
425.83	3882.95
426.01	3981.25
426.20	3941.46
426.39	3929.76
426.58	4060.83
426.77	3925.08
426.96	3976.57
427.15	3819.75
427.33	3974.23
427.52	4131.05
427.71	4070.19
427.90	4018.70
428.09	4107.64
428.28	4147.43
428.46	4067.85
428.65	4166.15
428.84	4191.90
429.03	4210.62
429.22	4037.42
429.40	4044.45
429.59	3974.23
429.78	3880.61
429.97	3885.29
430.16	4011.68
430.34	4105.30
430.53	4217.65
430.72	4147.43
430.91	4194.24
431.10	4227.01
431.28	4465.74
431.47	4634.26
431.66	4702.14
431.85	4346.37
432.03	4461.06
432.22	4496.17
432.41	4493.83
432.60	4582.77
432.79	4641.28
432.97	4779.37
433.16	4571.07
433.35	4582.77
433.54	4496.17
433.72	4620.22
433.91	4762.99
434.10	4758.31
434.28	4479.79
434.47	4753.63
434.66	4795.76
434.85	4992.36
435.03	4791.08
435.22	4933.85
435.41	4973.64
435.59	4966.62
435.78	5004.07
435.97	5013.43
436.16	5107.05
436.34	5116.41
436.53	5055.56
436.72	5174.92
436.90	4873.00
437.09	5060.24
437.28	4992.36
437.46	5069.60
437.65	5020.45
437.84	5100.03
438.02	5022.79
438.21	5165.56
438.40	5064.92
438.58	5284.93
438.77	5336.42
438.96	5254.50
439.14	5593.88
439.33	5465.15
439.52	5584.52
439.70	5568.13
439.89	5547.07
440.08	5561.11
440.26	5762.40
440.45	5659.42
440.63	5760.06
440.82	5767.08
441.01	5874.74
441.19	5947.30
441.38	6022.20
441.57	6047.94
441.75	6094.76
441.94	6284.34
442.12	6204.76
442.31	6368.60
442.50	6244.55
442.68	6277.32
442.87	6214.12
443.05	6274.98
443.24	6387.32
443.43	6298.38
443.61	6338.17
443.80	6492.65
443.98	6326.47
444.17	6228.17
444.35	6504.35
444.54	6576.91
444.73	6490.31
444.91	6396.68
445.10	6370.94
445.28	6445.84
445.47	6326.47
445.65	6253.91
445.84	6628.40
446.02	6370.94
446.21	6417.75
446.39	6567.54
446.58	6572.22
446.77	6677.55
446.95	6415.41
447.14	6633.08
447.32	6801.60
447.51	6661.16
447.69	6518.39
447.88	6719.68
448.06	6647.12
448.25	6640.10
448.43	6546.48
448.62	6612.01
448.80	6626.06
448.99	6752.45
449.17	6817.98
449.36	6794.58
449.54	6848.41
449.73	6979.48
449.91	7157.36
450.10	7084.80
450.28	7101.19
450.46	7054.37
450.65	7007.56
450.83	7250.98
451.02	7045.01
451.20	7131.61
451.39	7206.51
451.57	7091.82
451.76	7103.53
451.94	7185.44
452.13	7236.94
452.31	7213.53
452.49	6970.12
452.68	6906.92
452.86	7323.54
453.05	7314.17
453.23	7192.47
453.42	7173.74
453.60	7148.00
453.78	7379.71
453.97	7250.98
454.15	7246.30
454.34	7241.62
454.52	7239.28
454.70	7517.80
454.89	7524.82
455.07	7274.38
455.26	7578.65
455.44	7590.36
455.62	7534.18
455.81	7672.28
455.99	7573.97
456.17	7707.38
456.36	7798.66
456.54	7761.22
456.73	7796.32
456.91	7939.10
457.09	8002.29
457.28	8219.96
457.46	7822.07
457.64	7929.74
457.83	7983.57
458.01	7733.13
458.19	8060.80
458.38	8042.08
458.56	8116.98
458.74	8114.64
458.93	8327.63
459.11	8175.49
459.29	8259.75
459.48	8168.47
459.66	8210.60
459.84	8280.82
460.03	8482.10
460.21	8468.06
460.39	8386.14
460.57	8304.22
460.76	8601.47
460.94	8713.81
461.12	8451.67
461.31	8620.19
461.49	8514.87
461.67	8709.13
461.85	8741.90
462.04	8573.38
462.22	9062.55
462.40	8849.57
462.59	8940.85
462.77	8739.56
462.95	8884.67
463.13	8821.48
463.32	8830.84
463.50	8816.80
463.68	8936.17
463.86	8879.99
464.05	8950.21
464.23	8809.78
464.41	8840.20
464.59	8695.09
464.78	8943.19
464.96	8926.80
465.14	8917.44
465.32	9090.64
465.50	9198.31
465.69	9128.09
465.87	8945.53
466.05	9048.51
466.23	8919.78
466.41	9088.30
466.60	9270.86
466.78	9202.99
466.96	9125.75
467.14	9160.86
467.32	9212.35
467.51	9242.78
467.69	9083.62
467.87	9284.91
468.05	9242.78
468.23	9160.86
468.41	9263.84
468.60	9425.34
468.78	9462.79
468.96	9614.92
469.14	9521.30
469.32	9614.92
469.50	9320.01
469.69	9544.70
469.87	9912.17
470.05	9671.09
470.23	9757.69
470.41	9689.82
470.59	9799.82
470.77	9621.94
470.95	9785.78
471.14	9916.85
471.32	9874.72
471.50	10272.61
471.68	10031.54
471.86	10293.68
472.04	10188.35
472.22	10232.82
472.40	10237.50
472.58	10188.35
472.77	10242.18
472.95	10356.87
473.13	10548.79
473.31	10359.21
473.49	10560.50
473.67	10511.35
473.85	10649.44
474.03	10736.04
474.21	10815.62
474.39	10942.00
474.57	10761.78
474.75	10853.06
474.93	11042.65
475.12	11021.58
475.30	11061.37
475.48	11162.01
475.66	10979.45
475.84	11379.68
476.02	11150.31
476.20	11248.61
476.38	11461.60
476.56	11632.46
476.74	11613.74
476.92	11548.20
477.10	11644.17
477.28	11875.88
477.46	11948.43
477.64	12194.19
477.82	12170.79
478.00	12648.26
478.18	12329.94
478.36	12446.97
478.54	12613.15
478.72	12486.76
478.90	12727.83
479.08	13006.36
479.26	13011.04
479.44	12975.93
479.62	12912.74
479.80	13078.91
479.98	13167.85
480.16	13387.86
480.34	13448.72
480.52	13528.30
480.70	13610.22
480.88	13322.33
481.06	13760.01
481.24	13858.31
481.41	14209.39
481.59	14150.88
481.77	14146.20
481.95	14251.52
482.13	14352.16
482.31	14436.42
482.49	14698.56
482.67	14572.18
482.85	14862.40
483.03	14773.46
483.21	15372.64
483.39	15030.92
483.57	15124.54
483.74	15426.47
483.92	15449.88
484.10	15283.70
484.28	15672.23
484.46	15871.17
484.64	16250.34
484.82	15964.79
485.00	16016.29
485.18	16250.34
485.35	16163.74
485.53	15946.07
485.71	15861.81
485.89	16198.85
486.07	16006.92
486.25	16311.19
486.43	16580.36
486.61	16812.07
486.78	16989.95
486.96	17123.36
487.14	17434.65
487.32	17359.75
487.50	17778.71
487.68	17848.93
487.85	18265.54
488.03	18230.43
488.21	18064.25
488.39	18263.20
488.57	18548.75
488.75	18625.98
488.92	18841.31
489.10	18948.98
489.28	19117.50
489.46	19487.30
489.64	19274.31
489.81	20203.50
489.99	19875.83
490.17	19737.74
490.35	20065.41
490.53	19831.36
490.70	20425.86
490.88	20208.19
491.06	20524.16
491.24	20465.64
491.41	20563.95
491.59	20407.13
491.77	20500.75
491.95	20636.50
492.13	21116.31
492.30	21294.19
492.48	21544.63
492.66	21584.42
492.84	21479.10
493.01	21647.61
493.19	21420.58
493.37	21855.92
493.54	21652.30
493.72	22097.00
493.90	22419.99
494.08	22904.48
494.25	22841.29
494.43	22965.34
494.61	23246.20
494.79	23321.10
494.96	23351.52
495.14	23168.96
495.32	23484.94
495.49	23190.03
495.67	23419.40
495.85	23674.52
496.02	23704.95
496.20	24107.52
496.38	24304.12
496.55	24283.06
496.73	24943.09
496.91	24519.45
497.09	24793.29
497.26	24631.80
497.44	24793.29
497.62	24652.86
497.79	24702.01
497.97	24690.31
498.14	25048.41
498.32	25579.71
498.50	25308.21
498.67	25954.20
498.85	25671.00
499.03	25975.27
499.20	25982.29
499.38	26064.21
499.56	26066.55
499.73	25914.41
499.91	26462.10
500.08	26153.15
500.26	26286.56
500.44	26492.52
500.61	26431.67
500.79	26466.78
500.97	26569.76
501.14	26661.04
501.32	26714.87
501.49	27058.93
501.67	26944.25
501.84	27166.60
502.02	27257.88
502.20	27323.41
502.37	27318.73
502.55	27110.43
502.72	27665.13
502.90	27707.26
503.07	27576.19
503.25	27833.65
503.43	27491.93
503.60	27917.91
503.78	28137.92
503.95	28187.07
504.13	27864.08
504.30	28219.84
504.48	28350.91
504.65	29102.22
504.83	28800.29
505.01	28524.11
505.18	29022.64
505.36	29200.52
505.53	29275.42
505.71	29343.30
505.88	29322.23
506.06	29132.65
506.23	29125.63
506.41	29378.40
506.58	29432.24
506.76	29502.45
506.93	29750.55
507.11	29507.13
507.28	29551.60
507.46	29982.26
507.63	29909.71
507.81	29914.39
507.98	29745.87
508.16	29865.24
508.33	30370.79
508.50	30082.91
508.68	30408.24
508.85	30841.24
509.03	31009.76
509.20	30944.22
509.38	30742.94
509.55	31002.74
509.73	30953.58
509.90	30962.95
510.08	30595.48
510.25	31295.30
510.42	31239.13
510.60	31489.57
510.77	31328.07
510.95	31599.57
511.12	31805.54
511.30	31999.80
511.47	32208.11
511.64	32081.72
511.82	32018.53
511.99	31880.44
512.17	32299.39
512.34	31583.19
512.51	32184.71
512.69	32388.33
512.86	32582.60
513.04	32783.88
513.21	32573.24
513.38	32460.89
513.56	32584.94
513.73	32254.92
513.90	32531.11
514.08	33015.60
514.25	32701.96
514.43	32570.90
514.60	32711.33
514.77	32823.67
514.95	33088.15
515.12	33062.41
515.29	33097.52
515.47	33486.04
515.64	33799.68
515.81	33455.62
515.99	33436.89
516.16	33434.55
516.33	32917.29
516.51	33268.37
516.68	32954.74
516.85	33102.20
517.03	33067.09
517.20	33324.55
517.37	33692.01
517.54	34075.86
517.72	33553.92
517.89	33647.54
518.06	33589.03
518.24	33897.98
518.41	33792.65
518.58	34389.49
518.75	34195.23
518.93	34576.73
519.10	34431.62
519.27	34490.13
519.45	34747.59
519.62	35115.06
519.79	34976.97
519.96	35126.76
520.14	35108.04
520.31	34569.71
520.48	34822.49
520.65	34972.28
520.83	35269.53
521.00	35414.65
521.17	35503.59
521.34	35594.87
521.52	35805.52
521.69	35924.88
521.86	35756.36
522.03	35611.25
522.20	35847.64
522.38	35990.42
522.55	36039.57
522.72	35983.40
522.89	35978.72
523.07	36629.38
523.24	36107.44
523.41	36388.31
523.58	36755.77
523.75	36807.26
523.92	36914.93
524.10	36730.03
524.27	36910.25
524.44	37083.45
524.61	37078.77
524.78	36870.46
524.96	37069.40
525.13	36919.61
525.30	37109.19
525.47	37324.52
525.64	37338.57
525.81	37235.58
525.98	36924.29
526.16	37031.96
526.33	37092.81
526.50	37043.66
526.67	36816.63
526.84	36957.06
527.01	37237.92
527.18	37340.91
527.36	37521.13
527.53	37907.32
527.70	38490.11
527.87	38136.69
528.04	37720.07
528.21	38319.25
528.38	38117.96
528.55	38080.52
528.72	38129.67
528.89	38490.11
529.07	38464.36
529.24	37893.27
529.41	38410.53
529.58	38494.79
529.75	38618.84
529.92	38724.16
530.09	38740.55
530.26	38457.34
530.43	38557.99
530.60	38775.66
530.77	38691.40
530.94	39262.49
531.11	38876.30
531.28	39129.08
531.46	39019.07
531.63	39196.95
531.80	39047.16
531.97	38876.30
532.14	38611.82
532.31	38621.18
532.48	38988.64
532.65	39283.55
532.82	39049.50
532.99	39014.39
533.16	39512.92
533.33	39365.47
533.50	39620.59
533.67	39447.39
533.84	39154.82
534.01	40076.99
534.18	39632.29
534.35	39887.41
534.52	39276.53
534.69	39950.60
534.86	40067.63
535.03	40381.26
535.20	40596.59
535.37	40465.52
535.54	40500.63
535.71	40617.66
535.88	40224.45
536.05	40149.55
536.22	40196.36
536.38	40566.16
536.55	40034.86
536.72	40755.75
536.89	40067.63
537.06	40184.66
537.23	40573.19
537.40	40360.20
537.57	41057.68
537.74	40449.14
537.91	40912.56
538.08	40935.97
538.25	40495.95
538.42	40973.42
538.59	40849.37
538.75	40278.28
538.92	40938.31
539.09	41092.79
539.26	40713.62
539.43	41036.61
539.60	40708.94
539.77	40713.62
539.94	40982.78
540.11	40842.35
540.28	41242.58
540.44	41364.29
540.61	41446.21
540.78	40942.99
540.95	41013.21
541.12	41130.23
541.29	41488.34
541.46	41195.77
541.62	41656.85
541.79	42047.72
541.96	41340.88
542.13	41305.77
542.30	41539.83
542.47	41221.52
542.63	41888.57
542.80	41542.17
542.97	41890.91
543.14	42445.62
543.31	41933.04
543.48	42050.06
543.64	42515.83
543.81	42820.10
543.98	42080.49
544.15	42087.51
544.32	42078.15
544.48	42726.48
544.65	42508.81
544.82	42567.32
544.99	41844.10
545.16	42777.97
545.32	42267.73
545.49	43061.18
545.66	42934.79
545.83	43077.56
546.00	42749.88
546.16	42829.46
546.33	42644.56
546.50	42403.49
546.67	43091.60
546.83	42272.42
547.00	42843.51
547.17	43028.41
547.34	42782.65
547.50	43196.93
547.67	43559.71
547.84	43335.02
548.00	42965.21
548.17	43613.54
548.34	43192.25
548.51	43283.53
548.67	43285.87
548.84	43117.35
549.01	42920.74
549.18	43093.94
549.34	43533.96
549.51	43082.24
549.68	43737.59
549.84	43409.92
550.01	43510.56
550.18	43515.24
550.34	43342.04
550.51	43264.80
550.68	43686.10
550.84	43016.71
551.01	43695.46
551.18	43517.58
551.34	43763.34
551.51	43922.49
551.68	43777.38
551.84	44112.08
552.01	43882.70
552.18	43690.78
552.34	43283.53
552.51	44175.27
552.68	44069.95
552.84	43945.90
553.01	44163.57
553.18	43758.66
553.34	43950.58
553.51	44027.82
553.67	44175.27
553.84	44320.38
554.01	44509.97
554.17	44215.06
554.34	43861.64
554.51	44135.48
554.67	44507.63
554.84	43962.28
555.00	44275.91
555.17	44292.30
555.33	44439.75
555.50	44210.38
555.67	44444.43
555.83	44123.78
556.00	44402.30
556.16	44507.63
556.33	44376.56
556.50	44149.53
556.66	44453.79
556.83	44039.52
556.99	44795.51
557.16	44568.48
557.32	44540.39
557.49	44673.81
557.65	44631.68
557.82	44374.22
557.98	44477.20
558.15	44596.57
558.32	44905.52
558.48	44549.76
558.65	44783.81
558.81	44196.34
558.98	44350.81
559.14	44067.61
559.31	44245.49
559.47	44549.76
559.64	44790.83
559.80	44718.28
559.97	44849.35
560.13	44776.79
560.30	44404.64
560.46	45001.48
560.63	45165.32
560.79	45219.15
560.96	44933.60
561.12	44982.76
561.29	44645.72
561.45	44851.69
561.61	45441.50
561.78	45092.76
561.94	44980.42
562.11	45006.16
562.27	44893.82
562.44	44839.98
562.60	45212.13
562.77	45263.62
562.93	45062.33
563.10	45308.09
563.26	44753.38
563.42	45261.28
563.59	45067.02
563.75	45045.95
563.92	45469.59
564.08	45371.28
564.24	45092.76
564.41	44793.17
564.57	45118.51
564.74	45425.12
564.90	45542.14
565.07	44949.99
565.23	45525.76
565.39	45237.87
565.56	45015.52
565.72	45258.94
565.88	44919.56
566.05	45048.29
566.21	45111.49
566.38	45492.99
566.54	45268.30
566.70	45619.38
566.87	45851.09
567.03	45373.63
567.19	45808.96
567.36	45750.45
567.52	45373.63
567.68	45537.46
567.85	45193.40
568.01	45394.69
568.17	45233.19
568.34	45544.48
568.50	45368.94
568.66	45352.56
568.83	45633.42
568.99	45010.84
569.15	45223.83
569.32	45287.03
569.48	45975.14
569.64	45970.46
569.81	45799.60
569.97	45478.95
570.13	45357.24
570.30	45024.89
570.46	45354.90
570.62	45446.18
570.78	44847.00
570.95	45247.24
571.11	45563.21
571.27	45031.91
571.43	45361.92
571.60	45357.24
571.76	45258.94
571.92	45553.85
572.09	45504.70
572.25	45675.55
572.41	45638.11
572.57	45518.74
572.74	45713.00
572.90	45729.39
573.06	45457.88
573.22	45380.65
573.38	45930.67
573.55	45237.87
573.71	45614.70
573.87	45523.42
574.03	45661.51
574.20	45579.59
574.36	45448.52
574.52	45429.80
574.68	45553.85
574.84	45806.62
575.01	45258.94
575.17	45619.38
575.33	45390.01
575.49	45399.37
575.65	45734.07
575.82	45460.23
575.98	45418.10
576.14	45827.69
576.30	45652.15
576.46	45970.46
576.62	45535.12
576.79	45287.03
576.95	45581.93
577.11	45647.47
577.27	46040.68
577.43	45605.34
577.59	45298.73
577.75	45497.67
577.92	45518.74
578.08	45146.59
578.24	45118.51
578.40	45469.59
578.56	45577.25
578.72	45745.77
578.88	46377.72
579.04	45708.32
579.21	45336.18
579.37	45876.84
579.53	45572.57
579.69	45256.60
579.85	45663.85
580.01	45909.61
580.17	45509.38
580.33	46040.68
580.49	45617.04
580.65	45593.64
580.82	45378.31
580.98	45762.15
581.14	45263.62
581.30	45710.66
581.46	45902.59
581.62	45584.27
581.78	45038.93
581.94	46312.18
582.10	45813.65
582.26	45827.69
582.42	45680.24
582.58	45521.08
582.74	46050.04
582.90	45701.30
583.06	45954.08
583.22	45778.54
583.38	45708.32
583.54	45893.22
583.70	45811.31
583.86	45846.41
584.02	45354.90
584.18	45476.61
584.34	45560.87
584.50	45839.39
584.66	45937.69
584.82	45427.46
584.98	46199.83
585.14	46052.38
585.30	45593.64
585.46	45427.46
585.62	45638.11
585.78	45832.37
585.94	45158.30
586.10	45698.96
586.26	45235.53
586.42	45918.97
586.58	45942.38
586.74	45867.48
586.90	45212.13
587.06	45897.91
587.22	45743.43
587.38	45897.91
587.54	46099.19
587.70	45979.82
587.86	45736.41
588.02	45350.22
588.18	45645.13
588.34	45567.89
588.49	45593.64
588.65	45170.00
588.81	45198.09
588.97	45368.94
589.13	45221.49
589.29	45359.58
589.45	45371.28
589.61	45535.12
589.77	46113.23
589.93	45624.06
590.08	45469.59
