SpectraSuite Data File
++++++++++++++++++++++++++++++++++++
Date: Fri Oct 25 11:33:13 EDT 2013
User: price-jones
Dark Spectrum Present: No
Reference Spectrum Present: No
Number of Sampled Component Spectra: 1
Spectrometers: USB2+H05261
Integration Time (usec): 100000 (USB2+H05261)
Spectra Averaged: 1 (USB2+H05261)
Boxcar Smoothing: 0 (USB2+H05261)
Correct for Electrical Dark: No (USB2+H05261)
Strobe/Lamp Enabled: No (USB2+H05261)
Correct for Detector Non-linearity: No (USB2+H05261)
Correct for Stray Light: No (USB2+H05261)
Number of Pixels in Processed Spectrum: 2048
>>>>>Begin Processed Spectral Data<<<<<
365.73	330.02
365.92	330.02
366.12	330.02
366.32	191.92
366.52	175.54
366.72	189.58
366.91	177.88
367.11	114.69
367.31	177.88
367.51	70.22
367.70	149.79
367.90	210.65
368.10	156.82
368.30	182.56
368.49	217.67
368.69	259.80
368.89	217.67
369.09	198.95
369.28	187.24
369.48	220.01
369.68	194.26
369.87	266.82
370.07	215.33
370.27	276.18
370.47	358.10
370.66	451.72
370.86	557.05
371.06	500.87
371.25	533.64
371.45	545.34
371.65	657.69
371.84	552.37
372.04	540.66
372.24	622.58
372.44	613.22
372.63	582.79
372.83	587.47
373.03	624.92
373.22	580.45
373.42	601.52
373.62	634.29
373.81	669.39
374.01	643.65
374.21	599.18
374.40	641.31
374.60	608.54
374.79	566.41
374.99	655.35
375.19	709.18
375.38	730.25
375.58	606.20
375.78	716.20
375.97	709.18
376.17	685.78
376.37	695.14
376.56	739.61
376.76	737.27
376.95	777.06
377.15	763.01
377.35	720.88
377.54	664.71
377.74	634.29
377.93	667.05
378.13	664.71
378.33	746.63
378.52	748.97
378.72	727.91
378.91	760.67
379.11	688.12
379.31	755.99
379.50	634.29
379.70	723.23
379.89	758.33
380.09	667.05
380.28	725.57
380.48	690.46
380.68	727.91
380.87	655.35
381.07	706.84
381.26	758.33
381.46	835.57
381.65	784.08
381.85	723.23
382.04	812.17
382.24	856.64
382.43	777.06
382.63	795.78
382.83	760.67
383.02	856.64
383.22	908.13
383.41	772.38
383.61	866.00
383.80	788.76
384.00	819.19
384.19	765.36
384.39	866.00
384.58	851.96
384.78	816.85
384.97	915.15
385.17	753.65
385.36	767.70
385.56	866.00
385.75	884.72
385.95	849.61
386.14	856.64
386.34	807.48
386.53	861.32
386.72	880.04
386.92	912.81
387.11	924.51
387.31	903.45
387.50	880.04
387.70	903.45
387.89	945.58
388.09	812.17
388.28	809.83
388.48	945.58
388.67	894.08
388.86	961.96
389.06	889.40
389.25	894.08
389.45	945.58
389.64	926.85
389.84	1013.45
390.03	917.49
390.22	999.41
390.42	943.24
390.61	905.79
390.81	987.71
391.00	936.21
391.19	1027.50
391.39	1057.92
391.58	1013.45
391.78	912.81
391.97	1053.24
392.16	968.98
392.36	1067.28
392.55	1137.50
392.75	990.05
392.94	994.73
393.13	1039.20
393.33	1053.24
393.52	1074.31
393.71	1163.25
393.91	1151.54
394.10	1015.79
394.29	1046.22
394.49	1095.37
394.68	1191.33
394.88	1181.97
395.07	1135.16
395.26	1088.35
395.46	1128.14
395.65	1188.99
395.84	1240.48
396.04	1172.61
396.23	1149.20
396.42	1261.55
396.62	1149.20
396.81	1313.04
397.00	1149.20
397.19	1252.19
397.39	1254.53
397.58	1291.98
397.77	1270.91
397.97	1261.55
398.16	1268.57
398.35	1303.68
398.55	1306.02
398.74	1261.55
398.93	1313.04
399.12	1299.00
399.32	1273.25
399.51	1327.08
399.70	1341.13
399.90	1366.87
400.09	1308.36
400.28	1451.13
400.47	1329.42
400.67	1409.00
400.86	1427.73
401.05	1390.28
401.24	1308.36
401.44	1472.20
401.63	1448.79
401.82	1483.90
402.01	1500.28
402.21	1549.43
402.40	1565.82
402.59	1502.62
402.78	1577.52
402.97	1472.20
403.17	1563.48
403.36	1509.65
403.55	1572.84
403.74	1610.29
403.93	1500.28
404.13	1645.40
404.32	1582.20
404.51	1621.99
404.70	1701.57
404.89	1554.12
405.09	1755.40
405.28	1732.00
405.47	1664.12
405.66	1734.34
405.85	1739.02
406.05	1746.04
406.24	1687.53
406.43	1774.13
406.62	1809.23
406.81	1884.13
407.00	1732.00
407.20	1806.89
407.39	1795.19
407.58	1919.24
407.77	1909.88
407.96	1898.17
408.15	1947.33
408.34	1874.77
408.54	1870.09
408.73	1961.37
408.92	1905.20
409.11	2019.88
409.30	1942.64
409.49	2036.27
409.68	2038.61
409.87	2083.08
410.07	2094.78
410.26	2052.65
410.45	1956.69
410.64	2113.50
410.83	2127.55
411.02	2246.91
411.21	2118.18
411.40	2190.74
411.59	2188.40
411.78	2209.47
411.98	2197.76
412.17	2249.25
412.36	2251.60
412.55	2303.09
412.74	2326.49
412.93	2310.11
413.12	2342.88
413.31	2338.20
413.50	2319.47
413.69	2335.85
413.88	2495.01
414.07	2569.91
414.26	2551.18
414.45	2614.38
414.64	2588.63
414.83	2565.23
415.02	2670.55
415.22	2499.69
415.41	2675.23
415.60	2808.64
415.79	2649.49
415.98	2792.26
416.17	2612.04
416.36	2843.75
416.55	2839.07
416.74	2827.37
416.93	2895.24
417.12	2724.38
417.31	2874.18
417.50	2949.08
417.69	2956.10
417.88	2998.23
418.07	3016.95
418.26	3026.31
418.45	3087.17
418.64	3019.29
418.83	2993.55
419.02	3038.02
419.21	3138.66
419.39	3166.74
419.58	3068.44
419.77	3026.31
419.96	3082.49
420.15	3178.45
420.34	3187.81
420.53	3108.23
420.72	3311.86
420.91	3272.07
421.10	3363.35
421.29	3524.85
421.48	3290.79
421.67	3386.76
421.86	3356.33
422.05	3361.01
422.24	3405.48
422.43	3405.48
422.61	3428.88
422.80	3503.78
422.99	3316.54
423.18	3463.99
423.37	3473.36
423.56	3442.93
423.75	3309.52
423.94	3449.95
424.13	3222.92
424.32	3276.75
424.50	3552.93
424.69	3625.49
424.88	3555.27
425.07	3482.72
425.26	3471.01
425.45	3503.78
425.64	3400.80
425.83	3365.69
426.01	3494.42
426.20	3606.77
426.39	3522.51
426.58	3590.38
426.77	3515.48
426.96	3559.95
427.15	3522.51
427.33	3592.72
427.52	3569.32
427.71	3740.18
427.90	3747.20
428.09	3630.17
428.28	3613.79
428.46	3681.66
428.65	3726.13
428.84	3850.18
429.03	3796.35
429.22	3679.32
429.40	3749.54
429.59	3723.79
429.78	3669.96
429.97	3660.60
430.16	3873.59
430.34	3925.08
430.53	3929.76
430.72	3971.89
430.91	3822.09
431.10	3765.92
431.28	4035.08
431.47	4156.79
431.66	4044.45
431.85	4025.72
432.03	4119.34
432.22	4198.92
432.41	4177.86
432.60	4100.62
432.79	4161.47
432.97	4180.20
433.16	4091.26
433.35	4119.34
433.54	4210.62
433.72	4299.56
433.91	4271.48
434.10	4184.88
434.28	4227.01
434.47	4320.63
434.66	4358.08
434.85	4257.43
435.03	4341.69
435.22	4325.31
435.41	4550.00
435.59	4386.16
435.78	4519.57
435.97	4503.19
436.16	4428.29
436.34	4358.08
436.53	4491.49
436.72	4540.64
436.90	4489.15
437.09	4580.43
437.28	4552.34
437.46	4599.15
437.65	4571.07
437.84	4664.69
438.02	4737.24
438.21	4657.67
438.40	4798.10
438.58	4767.67
438.77	4805.12
438.96	5034.49
439.14	4762.99
439.33	4898.74
439.52	4936.19
439.70	4957.25
439.89	5013.43
440.08	5114.07
440.26	5022.79
440.45	4978.32
440.63	5104.71
440.82	5172.58
441.01	5158.54
441.19	5219.39
441.38	5352.81
441.57	5261.52
441.75	5383.23
441.94	5511.96
442.12	5593.88
442.31	5591.54
442.50	5399.62
442.68	5479.19
442.87	5427.70
443.05	5455.79
443.24	5547.07
443.43	5481.53
443.61	5561.11
443.80	5731.97
443.98	5497.92
444.17	5394.93
444.35	5563.45
444.54	5900.49
444.73	5781.12
444.91	5645.37
445.10	5820.91
445.28	5767.08
445.47	5598.56
445.65	5680.48
445.84	5811.55
446.02	5823.25
446.21	5643.03
446.39	5865.38
446.58	5973.05
446.77	5666.44
446.95	5825.59
447.14	5802.19
447.32	5895.81
447.51	5912.19
447.69	5858.36
447.88	5762.40
448.06	5980.07
448.25	5841.98
448.43	5872.40
448.62	5858.36
448.80	5797.51
448.99	6094.76
449.17	5935.60
449.36	5823.25
449.54	6204.76
449.73	6169.65
449.91	6052.63
450.10	6099.44
450.28	6085.39
450.46	6188.38
450.65	6164.97
450.83	6214.12
451.02	6235.19
451.20	6277.32
451.39	6153.27
451.57	6312.42
451.76	6129.86
451.94	6335.83
452.13	6267.95
452.31	6429.45
452.49	6289.02
452.68	6602.65
452.86	6483.28
453.05	6394.34
453.23	6471.58
453.42	6377.96
453.60	6338.17
453.78	6431.79
453.97	6612.01
454.15	6497.33
454.34	6324.13
454.52	6576.91
454.70	6434.13
454.89	6490.31
455.07	6815.64
455.26	6726.70
455.44	6862.45
455.62	6696.27
455.81	6829.68
455.99	6717.34
456.17	6885.86
456.36	6848.41
456.54	6825.00
456.73	7009.90
456.91	6986.50
457.09	7016.93
457.28	6993.52
457.46	7012.24
457.64	7241.62
457.83	7208.85
458.01	7049.69
458.19	7300.13
458.38	7159.70
458.56	7290.77
458.74	7300.13
458.93	7461.63
459.11	7311.83
459.29	7276.73
459.48	7206.51
459.66	7489.71
459.84	7506.10
460.03	7611.42
460.21	7440.56
460.39	7442.90
460.57	7555.25
460.76	7613.76
460.94	7705.04
461.12	7494.40
461.31	7665.25
461.49	7597.38
461.67	7627.81
461.85	7742.49
462.04	7733.13
462.22	8212.94
462.40	7854.84
462.59	7843.14
462.77	7953.14
462.95	7868.88
463.13	7733.13
463.32	7988.25
463.50	7976.55
463.68	8044.42
463.86	8063.15
464.05	7906.33
464.23	7885.26
464.41	8105.28
464.59	7896.97
464.78	8126.34
464.96	8016.33
465.14	8135.70
465.32	8112.30
465.50	8334.65
465.69	8234.00
465.87	8222.30
466.05	8088.89
466.23	8348.69
466.41	8203.58
466.60	8521.89
466.78	8201.24
466.96	8308.90
467.14	8301.88
467.32	8304.22
467.51	8479.76
467.69	8114.64
467.87	8379.12
468.05	8332.31
468.23	8264.43
468.41	8322.94
468.60	8519.55
468.78	8713.81
468.96	8498.49
469.14	8542.96
469.32	8681.05
469.50	8461.04
469.69	8624.87
469.87	8802.75
470.05	8706.79
470.23	8912.76
470.41	9053.19
470.59	8734.88
470.77	8978.30
470.95	8924.46
471.14	9114.05
471.32	8901.06
471.50	9303.63
471.68	9165.54
471.86	9303.63
472.04	9390.23
472.22	9303.63
472.40	9324.69
472.58	9355.12
472.77	9497.89
472.95	9561.09
473.13	9771.74
473.31	9582.15
473.49	9568.11
473.67	9614.92
473.85	9781.10
474.03	9760.03
474.21	9823.23
474.39	9970.68
474.57	9750.67
474.75	10087.71
474.93	10111.11
475.12	9937.91
475.30	10150.90
475.48	10143.88
475.66	10111.11
475.84	9996.43
476.02	10242.18
476.20	10200.05
476.38	10560.50
476.56	10892.85
476.74	10661.14
476.92	10579.22
477.10	10693.91
477.28	10857.75
477.46	10752.42
477.64	11014.56
477.82	11225.21
478.00	11103.50
478.18	11199.46
478.36	11290.74
478.54	11433.52
478.72	11489.69
478.90	11496.71
479.08	11782.26
479.26	11925.03
479.44	12140.36
479.62	12109.93
479.80	12020.99
479.98	12159.08
480.16	12500.80
480.34	12327.60
480.52	12367.39
480.70	12510.16
480.88	12238.66
481.06	12393.14
481.24	12528.89
481.41	12587.40
481.59	12856.56
481.77	12704.43
481.95	12924.44
482.13	13097.64
482.31	13102.32
482.49	13179.56
482.67	13521.27
482.85	13598.51
483.03	13855.97
483.21	13830.23
483.39	14033.85
483.57	13762.35
483.74	14225.78
483.92	14169.60
484.10	14178.97
484.28	14640.05
484.46	14824.95
484.64	14829.63
484.82	14527.71
485.00	14824.95
485.18	15325.83
485.35	15440.51
485.53	15309.44
485.71	15248.59
485.89	15606.69
486.07	15569.24
486.25	15714.36
486.43	15772.87
486.61	15779.89
486.78	15819.68
486.96	16175.44
487.14	16348.64
487.32	16341.62
487.50	16610.78
487.68	16741.85
487.85	16933.78
488.03	16863.56
488.21	17233.36
488.39	17221.66
488.57	17322.30
488.75	17205.28
488.92	17383.16
489.10	17619.55
489.28	17947.23
489.46	18242.14
489.64	18099.36
489.81	17998.72
489.99	18300.65
490.17	18387.25
490.35	18951.32
490.53	18773.44
490.70	18920.89
490.88	18588.53
491.06	19110.47
491.24	19124.52
491.41	19145.58
491.59	19683.91
491.77	19576.24
491.95	19463.90
492.13	19941.36
492.30	20159.03
492.48	19997.54
492.66	20060.73
492.84	20002.22
493.01	20608.42
493.19	20329.89
493.37	20676.29
493.54	20517.14
493.72	21018.01
493.90	20858.85
494.08	20931.41
494.25	21235.68
494.43	21090.57
494.61	21476.76
494.79	21514.20
494.96	21434.63
495.14	21593.78
495.32	22015.08
495.49	21830.18
495.67	21914.44
495.85	22192.96
496.02	22558.08
496.20	22644.68
496.38	22600.21
496.55	22614.26
496.73	23091.73
496.91	22852.99
497.09	23115.13
497.26	23316.42
497.44	23335.14
497.62	23246.20
497.79	23805.59
497.97	23740.05
498.14	23953.04
498.32	24100.50
498.50	23985.81
498.67	24159.01
498.85	24266.67
499.03	24311.14
499.20	24336.89
499.38	24755.85
499.56	24606.05
499.73	24655.20
499.91	24865.85
500.08	24912.66
500.26	24851.81
500.44	25153.74
500.61	25156.08
500.79	24971.18
500.97	25479.07
501.14	25338.64
501.32	25820.79
501.49	25467.37
501.67	25518.86
501.84	25720.15
502.02	25542.27
502.20	25975.27
502.37	26038.46
502.55	25949.52
502.72	26146.12
502.90	26476.14
503.07	26426.99
503.25	26560.40
503.43	26415.29
503.60	26436.35
503.78	26710.19
503.95	26843.60
504.13	27012.12
504.30	27023.83
504.48	26625.93
504.65	26988.72
504.83	27377.25
505.01	27278.94
505.18	27552.79
505.36	27693.22
505.53	27302.35
505.71	27894.50
505.88	27786.84
506.06	27751.73
506.23	28320.48
506.41	28142.60
506.58	28414.10
506.76	28362.61
506.93	28411.76
507.11	28112.17
507.28	28407.08
507.46	28606.03
507.63	28751.14
507.81	29010.94
507.98	28910.30
508.16	28781.57
508.33	28671.56
508.50	29069.45
508.68	29340.96
508.85	29261.38
509.03	29134.99
509.20	29357.34
509.38	29460.32
509.55	29504.79
509.73	29668.63
509.90	29830.13
510.08	29713.10
510.25	29907.37
510.42	30108.65
510.60	29933.11
510.77	30288.87
510.95	30471.43
511.12	30424.62
511.30	30569.74
511.47	30450.37
511.64	30291.21
511.82	30754.64
511.99	30820.17
512.17	31077.63
512.34	30981.67
512.51	30995.71
512.69	31409.99
512.86	31161.89
513.04	31049.55
513.21	31082.31
513.38	31447.44
513.56	31566.81
513.73	31445.10
513.90	31627.66
514.08	31714.26
514.25	31936.61
514.43	31941.29
514.60	32088.74
514.77	32280.67
514.95	32177.68
515.12	32009.17
515.29	31955.33
515.47	32620.05
515.64	32512.38
515.81	32222.16
515.99	32411.74
516.16	32912.61
516.33	32924.32
516.51	32807.29
516.68	32950.06
516.85	33174.75
517.03	33209.86
517.20	33153.69
517.37	33303.48
517.54	32954.74
517.72	33223.90
517.89	33453.28
518.06	33574.98
518.24	33518.81
518.41	33504.77
518.58	33914.36
518.75	33399.44
518.93	33745.84
519.10	33574.98
519.27	33886.28
519.45	33909.68
519.62	34073.52
519.79	34108.63
519.96	33752.87
520.14	34305.23
520.31	33909.68
520.48	34604.82
520.65	34440.98
520.83	34876.32
521.00	35058.88
521.17	34909.09
521.34	34885.68
521.52	35042.50
521.69	34658.65
521.86	35037.82
522.03	35131.44
522.20	35299.96
522.38	35084.63
522.55	35337.41
522.72	35342.09
522.89	35402.94
523.07	36325.11
523.24	35819.56
523.41	35606.57
523.58	35835.94
523.75	36329.80
523.92	35622.95
524.10	35519.97
524.27	36086.38
524.44	35929.56
524.61	36233.83
524.78	36095.74
524.96	36371.92
525.13	36294.69
525.30	36615.34
525.47	36865.78
525.64	36634.06
525.81	36652.79
525.98	36816.63
526.16	36692.58
526.33	36533.42
526.50	36795.56
526.67	36481.93
526.84	36847.05
527.01	37090.47
527.18	37041.32
527.36	37432.19
527.53	37649.86
527.70	37170.05
527.87	37364.31
528.04	37233.24
528.21	37862.85
528.38	37949.45
528.55	37516.45
528.72	37528.15
528.89	37876.89
529.07	37813.70
529.24	37343.25
529.41	37888.59
529.58	37801.99
529.75	37586.66
529.92	38099.24
530.09	38134.35
530.26	38012.64
530.43	38394.15
530.60	38122.65
530.77	38387.13
530.94	38422.23
531.11	38422.23
531.28	38337.98
531.46	38340.32
531.63	38581.39
531.80	38628.20
531.97	39276.53
532.14	38476.07
532.31	38726.50
532.48	39096.31
532.65	38974.60
532.82	39110.35
532.99	38983.96
533.16	39054.18
533.33	39196.95
533.50	39615.91
533.67	39047.16
533.84	39150.14
534.01	39452.07
534.18	39093.97
534.35	39997.41
534.52	39826.56
534.69	39470.79
534.86	39651.02
535.03	39842.94
535.20	39887.41
535.37	39714.21
535.54	40018.48
535.71	39976.35
535.88	40444.46
536.05	39634.63
536.22	39541.01
536.38	39803.15
536.55	40051.25
536.72	40128.48
536.89	40191.68
537.06	40329.77
537.23	40708.94
537.40	40203.38
537.57	40399.99
537.74	40334.45
537.91	40814.26
538.08	40289.98
538.25	40587.23
538.42	40645.74
538.59	40807.24
538.75	40388.28
538.92	41579.62
539.09	41041.29
539.26	40907.88
539.43	40996.82
539.60	41151.30
539.77	41109.17
539.94	41490.68
540.11	41401.74
540.28	41113.85
540.44	41233.22
540.61	41375.99
540.78	41172.36
540.95	41200.45
541.12	41071.72
541.29	41287.05
541.46	41647.49
541.62	41703.67
541.79	41668.56
541.96	41205.13
542.13	41406.42
542.30	41706.01
542.47	41322.16
542.63	41930.70
542.80	41968.15
542.97	42337.95
543.14	42403.49
543.31	42653.92
543.48	42464.34
543.64	42447.96
543.81	42878.61
543.98	42206.88
544.15	42445.62
544.32	42686.69
544.48	42501.79
544.65	42834.14
544.82	42590.73
544.99	42508.81
545.16	42440.93
545.32	42796.70
545.49	43693.12
545.66	42848.19
545.83	43508.22
546.00	43009.68
546.16	42766.27
546.33	43201.61
546.50	43225.01
546.67	43056.50
546.83	42548.60
547.00	42724.14
547.17	43122.03
547.34	42808.40
547.50	43515.24
547.67	43882.70
547.84	43629.93
548.00	43873.34
548.17	43700.14
548.34	43903.77
548.51	43777.38
548.67	43906.11
548.84	43650.99
549.01	43515.24
549.18	43969.30
549.34	44055.90
549.51	44060.58
549.68	44224.42
549.84	43763.34
550.01	43658.01
550.18	43807.81
550.34	44339.11
550.51	44142.50
550.68	44037.18
550.84	43988.03
551.01	44704.23
551.18	44610.61
551.34	43868.66
551.51	44399.96
551.68	44542.74
551.84	44322.72
552.01	44091.01
552.18	44308.68
552.34	44168.25
552.51	44692.53
552.68	44339.11
552.84	45008.50
553.01	45249.58
553.18	44713.59
553.34	44500.61
553.51	44577.84
553.67	44938.29
553.84	45132.55
554.01	45130.21
554.17	44949.99
554.34	45221.49
554.51	44708.91
554.67	45170.00
554.84	45397.03
555.00	44919.56
555.17	44879.77
555.33	45385.33
555.50	44905.52
555.67	44865.73
555.83	44982.76
556.00	45277.66
556.16	45715.34
556.33	45366.60
556.50	45408.73
556.66	45532.78
556.83	45237.87
556.99	45689.60
557.16	45668.53
557.32	45867.48
557.49	45450.86
557.65	45736.41
557.82	45771.52
557.98	45549.17
558.15	45705.98
558.32	45469.59
558.48	45610.02
558.65	45750.45
558.81	45605.34
558.98	45731.73
559.14	45633.42
559.31	45390.01
559.47	45748.11
559.64	45858.12
559.80	45815.99
559.97	46082.81
560.13	45825.35
560.30	45764.49
560.46	46370.69
560.63	46197.49
560.79	46043.02
560.96	46380.06
561.12	46349.63
561.29	46244.30
561.45	46054.72
561.61	46305.16
561.78	46391.76
561.94	46115.58
562.11	46256.01
562.27	45916.63
562.44	46092.17
562.60	46569.64
562.77	46431.55
562.93	46588.36
563.10	46637.51
563.26	46515.81
563.42	46752.20
563.59	46237.28
563.75	46190.47
563.92	46593.04
564.08	46504.10
564.24	46583.68
564.41	46433.89
564.57	46689.01
564.74	46653.90
564.90	46440.91
565.07	46452.61
565.23	46553.26
565.39	46373.03
565.56	46689.01
565.72	46550.91
565.88	46522.83
566.05	46815.40
566.21	46607.09
566.38	46646.88
566.54	46988.60
566.70	47133.71
566.87	46358.99
567.03	46274.73
567.19	46831.78
567.36	46880.93
567.52	46784.97
567.68	46962.85
567.85	47327.97
568.01	46513.47
568.17	46817.74
568.34	47185.20
568.50	47145.41
568.66	46726.46
568.83	46902.00
568.99	46719.43
569.15	47063.49
569.32	47016.68
569.48	47119.66
569.64	47138.39
569.81	46918.38
569.97	47447.34
570.13	47452.02
570.30	46939.44
570.46	46663.26
570.62	47304.57
570.78	47416.91
570.95	47299.89
571.11	47737.57
571.27	47152.43
571.43	47283.50
571.60	47030.72
571.76	47224.99
571.92	47007.32
572.09	47302.23
572.25	46920.72
572.41	47452.02
572.57	47744.59
572.74	47489.47
572.90	47166.48
573.06	47693.10
573.22	47566.71
573.38	47290.52
573.55	47253.08
573.71	47765.65
573.87	47421.59
574.03	47276.48
574.20	47503.51
574.36	47913.11
574.52	47477.77
574.68	47587.77
574.84	47569.05
575.01	47805.44
575.17	47599.47
575.33	47594.79
575.49	47131.37
575.65	47777.36
575.82	47634.58
575.98	47728.20
576.14	47950.56
576.30	47805.44
576.46	47683.73
576.62	47849.91
576.79	47650.97
576.95	47407.55
577.11	47618.20
577.27	47110.30
577.43	47386.49
577.59	47449.68
577.75	47199.24
577.92	46862.21
578.08	47248.39
578.24	47564.37
578.40	47807.78
578.56	47779.70
578.72	47501.17
578.88	47821.83
579.04	47512.88
579.21	47557.35
579.37	47863.96
579.53	47929.49
579.69	47793.74
579.85	47650.97
580.01	47449.68
580.17	47995.03
580.33	47800.76
580.49	47463.72
580.65	47746.93
580.82	47700.12
580.98	47646.29
581.14	47545.64
581.30	47835.87
581.46	47819.49
581.62	47557.35
581.78	47482.45
581.94	47833.53
582.10	47765.65
582.26	47643.94
582.42	47571.39
582.58	47758.63
582.74	47732.89
582.90	47873.32
583.06	47894.38
583.22	47620.54
583.38	47449.68
583.54	48128.44
583.70	47931.83
583.86	47744.59
584.02	47615.86
584.18	48559.09
584.34	48133.12
584.50	48292.27
584.66	48095.67
584.82	48264.19
584.98	48231.42
585.14	48116.73
585.30	47482.45
585.46	47924.81
585.62	47650.97
585.78	47995.03
585.94	47281.16
586.10	48065.24
586.26	47955.24
586.42	48058.22
586.58	47995.03
586.74	48135.46
586.90	47800.76
587.06	48076.94
587.22	48320.36
587.38	47971.62
587.54	48285.25
587.70	48156.52
587.86	48327.38
588.02	48296.95
588.18	47875.66
588.34	47765.65
588.49	48095.67
588.65	47814.80
588.81	47772.67
588.97	47927.15
589.13	47901.40
589.29	48098.01
589.45	48622.29
589.61	48339.08
589.77	47819.49
589.93	48011.41
590.08	48161.20
