SpectraSuite Data File
++++++++++++++++++++++++++++++++++++
Date: Fri Oct 25 11:33:52 EDT 2013
User: price-jones
Dark Spectrum Present: No
Reference Spectrum Present: No
Number of Sampled Component Spectra: 1
Spectrometers: USB2+H05261
Integration Time (usec): 100000 (USB2+H05261)
Spectra Averaged: 1 (USB2+H05261)
Boxcar Smoothing: 0 (USB2+H05261)
Correct for Electrical Dark: No (USB2+H05261)
Strobe/Lamp Enabled: No (USB2+H05261)
Correct for Detector Non-linearity: No (USB2+H05261)
Correct for Stray Light: No (USB2+H05261)
Number of Pixels in Processed Spectrum: 2048
>>>>>Begin Processed Spectral Data<<<<<
365.73	252.78
365.92	252.78
366.12	252.78
366.32	161.50
366.52	262.14
366.72	198.95
366.91	121.71
367.11	168.52
367.31	229.37
367.51	177.88
367.70	166.18
367.90	175.54
368.10	142.77
368.30	142.77
368.49	166.18
368.69	173.20
368.89	152.13
369.09	170.86
369.28	177.88
369.48	166.18
369.68	229.37
369.87	273.84
370.07	217.67
370.27	269.16
370.47	367.46
370.66	465.77
370.86	479.81
371.06	484.49
371.25	540.66
371.45	575.77
371.65	594.50
371.84	582.79
372.04	608.54
372.24	573.43
372.44	622.58
372.63	599.18
372.83	629.60
373.03	585.13
373.22	620.24
373.42	653.01
373.62	643.65
373.81	653.01
374.01	702.16
374.21	720.88
374.40	655.35
374.60	627.26
374.79	690.46
374.99	622.58
375.19	631.94
375.38	688.12
375.58	702.16
375.78	655.35
375.97	655.35
376.17	716.20
376.37	596.84
376.56	760.67
376.76	596.84
376.95	676.41
377.15	706.84
377.35	631.94
377.54	711.52
377.74	660.03
377.93	704.50
378.13	727.91
378.33	741.95
378.52	718.54
378.72	727.91
378.91	674.07
379.11	702.16
379.31	716.20
379.50	629.60
379.70	727.91
379.89	737.27
380.09	711.52
380.28	718.54
380.48	737.27
380.68	720.88
380.87	755.99
381.07	784.08
381.26	779.40
381.46	866.00
381.65	704.50
381.85	793.44
382.04	795.78
382.24	800.46
382.43	725.57
382.63	685.78
382.83	760.67
383.02	851.96
383.22	791.10
383.41	828.55
383.61	816.85
383.80	823.87
384.00	814.51
384.19	861.32
384.39	884.72
384.58	844.93
384.78	828.55
384.97	826.21
385.17	905.79
385.36	830.89
385.56	830.89
385.75	894.08
385.95	851.96
386.14	781.74
386.34	807.48
386.53	791.10
386.72	821.53
386.92	954.94
387.11	858.98
387.31	912.81
387.50	847.27
387.70	858.98
387.89	826.21
388.09	851.96
388.28	877.70
388.48	835.57
388.67	891.74
388.86	957.28
389.06	947.92
389.25	915.15
389.45	980.68
389.64	994.73
389.84	1071.97
390.03	999.41
390.22	1015.79
390.42	1018.13
390.61	926.85
390.81	903.45
391.00	961.96
391.19	978.34
391.39	950.26
391.58	1043.88
391.78	1029.84
391.97	1018.13
392.16	990.05
392.36	1093.03
392.55	1015.79
392.75	1006.43
392.94	1025.15
393.13	1060.26
393.33	961.96
393.52	1022.81
393.71	1137.50
393.91	1036.86
394.10	1036.86
394.29	1093.03
394.49	1132.82
394.68	1116.44
394.88	1015.79
395.07	1109.41
395.26	1181.97
395.46	1245.16
395.65	1170.27
395.84	1172.61
396.04	1259.21
396.23	1184.31
396.42	1167.93
396.62	1196.01
396.81	1228.78
397.00	1235.80
397.19	1273.25
397.39	1254.53
397.58	1303.68
397.77	1226.44
397.97	1247.51
398.16	1247.51
398.35	1238.14
398.55	1214.74
398.74	1261.55
398.93	1277.93
399.12	1317.72
399.32	1348.15
399.51	1338.79
399.70	1345.81
399.90	1310.70
400.09	1345.81
400.28	1390.28
400.47	1439.43
400.67	1439.43
400.86	1383.26
401.05	1430.07
401.24	1299.00
401.44	1394.96
401.63	1439.43
401.82	1458.15
402.01	1390.28
402.21	1437.09
402.40	1495.60
402.59	1486.24
402.78	1493.26
402.97	1432.41
403.17	1530.71
403.36	1621.99
403.55	1579.86
403.74	1652.42
403.93	1607.95
404.13	1701.57
404.32	1593.90
404.51	1600.93
404.70	1643.06
404.89	1603.27
405.09	1537.73
405.28	1706.25
405.47	1591.56
405.66	1732.00
405.85	1584.54
406.05	1729.66
406.24	1701.57
406.43	1760.08
406.62	1746.04
406.81	1802.21
407.00	1776.47
407.20	1699.23
407.39	1727.32
407.58	1806.89
407.77	1849.02
407.96	1830.30
408.15	1937.96
408.34	1825.62
408.54	1942.64
408.73	2010.52
408.92	1891.15
409.11	1923.92
409.30	1933.28
409.49	1982.43
409.68	1956.69
409.87	1968.39
410.07	2143.93
410.26	2127.55
410.45	2111.16
410.64	2113.50
410.83	2040.95
411.02	2064.35
411.21	2223.51
411.40	2157.97
411.59	2193.08
411.78	2298.41
411.98	2186.06
412.17	2272.66
412.36	2167.34
412.55	2246.91
412.74	2300.75
412.93	2307.77
413.12	2345.22
413.31	2415.43
413.50	2483.31
413.69	2370.96
413.88	2532.46
414.07	2516.08
414.26	2595.65
414.45	2565.23
414.64	2588.63
414.83	2527.78
415.02	2658.85
415.22	2668.21
415.41	2614.38
415.60	2644.81
415.79	2677.57
415.98	2813.32
416.17	2782.90
416.36	2715.02
416.55	2717.36
416.74	2693.96
416.93	2803.96
417.12	2778.22
417.31	2801.62
417.50	2909.29
417.69	3009.93
417.88	2918.65
418.07	3068.44
418.26	3023.97
418.45	2986.52
418.64	3143.34
418.83	3002.91
419.02	2958.44
419.21	3105.89
419.39	3105.89
419.58	3040.36
419.77	2956.10
419.96	3176.11
420.15	3091.85
420.34	3208.87
420.53	3232.28
420.72	3229.94
420.91	3208.87
421.10	3246.32
421.29	3346.97
421.48	3241.64
421.67	3293.13
421.86	3148.02
422.05	3267.39
422.24	3255.69
422.43	3342.28
422.61	3372.71
422.80	3468.67
422.99	3307.18
423.18	3463.99
423.37	3384.41
423.56	3279.09
423.75	3304.84
423.94	3199.51
424.13	3204.19
424.32	3389.10
424.50	3398.46
424.69	3403.14
424.88	3489.74
425.07	3368.03
425.26	3382.07
425.45	3323.56
425.64	3396.12
425.83	3445.27
426.01	3585.70
426.20	3492.08
426.39	3571.66
426.58	3459.31
426.77	3466.33
426.96	3517.83
427.15	3456.97
427.33	3482.72
427.52	3522.51
427.71	3510.80
427.90	3534.21
428.09	3524.85
428.28	3648.90
428.46	3590.38
428.65	3639.53
428.84	3623.15
429.03	3791.67
429.22	3592.72
429.40	3639.53
429.59	3763.58
429.78	3756.56
429.97	3667.62
430.16	3754.22
430.34	3882.95
430.53	3978.91
430.72	3922.74
430.91	3861.88
431.10	3819.75
431.28	3932.10
431.47	3955.51
431.66	4009.34
431.85	3843.16
432.03	4053.81
432.22	3985.93
432.41	4121.68
432.60	4086.58
432.79	3880.61
432.97	3978.91
433.16	4154.45
433.35	4126.36
433.54	4109.98
433.72	4159.13
433.91	4231.69
434.10	4243.39
434.28	4138.07
434.47	4264.46
434.66	4400.21
434.85	4327.65
435.03	4379.14
435.22	4308.93
435.41	4407.23
435.59	4489.15
435.78	4287.86
435.97	4479.79
436.16	4409.57
436.34	4306.59
436.53	4542.98
436.72	4470.42
436.90	4479.79
437.09	4365.10
437.28	4411.91
437.46	4521.92
437.65	4482.13
437.84	4685.75
438.02	4681.07
438.21	4547.66
438.40	4624.90
438.58	4758.31
438.77	4760.65
438.96	4725.54
439.14	4720.86
439.33	4865.97
439.52	4842.57
439.70	4940.87
439.89	4943.21
440.08	5083.64
440.26	5069.60
440.45	4915.12
440.63	5256.84
440.82	5247.48
441.01	5039.17
441.19	5210.03
441.38	5057.90
441.57	5128.11
441.75	5242.80
441.94	5343.44
442.12	5329.40
442.31	5451.11
442.50	5401.96
442.68	5446.43
442.87	5207.69
443.05	5638.35
443.24	5565.79
443.43	5486.22
443.61	5558.77
443.80	5652.39
443.98	5397.28
444.17	5294.29
444.35	5582.18
444.54	5666.44
444.73	5558.77
444.91	5526.00
445.10	5643.03
445.28	5600.90
445.47	5614.95
445.65	5612.60
445.84	5675.80
446.02	5755.38
446.21	5612.60
446.39	5500.26
446.58	5818.57
446.77	5659.42
446.95	5614.95
447.14	5734.31
447.32	5802.19
447.51	5750.70
447.69	5771.76
447.88	5795.17
448.06	5675.80
448.25	5813.89
448.43	5921.56
448.62	5816.23
448.80	5865.38
448.99	5937.94
449.17	5813.89
449.36	5750.70
449.54	5832.62
449.73	6099.44
449.91	5900.49
450.10	5951.98
450.28	6195.40
450.46	6104.12
450.65	6160.29
450.83	6183.70
451.02	6073.69
451.20	6113.48
451.39	6122.84
451.57	6085.39
451.76	6012.84
451.94	6164.97
452.13	6207.10
452.31	6143.91
452.49	6064.33
452.68	6197.74
452.86	6497.33
453.05	6349.87
453.23	6401.37
453.42	6169.65
453.60	6303.06
453.78	6450.52
453.97	6375.62
454.15	6338.17
454.34	6373.28
454.52	6246.89
454.70	6583.93
454.89	6630.74
455.07	6464.56
455.26	6794.58
455.44	6736.06
455.62	6607.33
455.81	6555.84
455.99	6731.38
456.17	6712.66
456.36	6677.55
456.54	6710.32
456.73	6810.96
456.91	7014.59
457.09	6913.94
457.28	7199.49
457.46	6885.86
457.64	7014.59
457.83	7061.40
458.01	7063.74
458.19	7063.74
458.38	7103.53
458.56	7190.13
458.74	7059.06
458.93	7140.97
459.11	7157.36
459.29	7171.40
459.48	7108.21
459.66	7346.94
459.84	7229.91
460.03	7499.08
460.21	7470.99
460.39	7391.41
460.57	7468.65
460.76	7255.66
460.94	7452.27
461.12	7487.37
461.31	7581.00
461.49	7571.63
461.67	7499.08
461.85	7637.17
462.04	7534.18
462.22	8107.62
462.40	7646.53
462.59	7714.41
462.77	7683.98
462.95	7779.94
463.13	7627.81
463.32	7665.25
463.50	7791.64
463.68	7756.54
463.86	8058.46
464.05	7969.52
464.23	7770.58
464.41	8070.17
464.59	7880.58
464.78	8222.30
464.96	7878.24
465.14	7812.71
465.32	7896.97
465.50	8173.15
465.69	8156.77
465.87	8121.66
466.05	8037.40
466.23	7941.44
466.41	8116.98
466.60	8306.56
466.78	8081.87
466.96	8086.55
467.14	8294.86
467.32	8402.52
467.51	8266.77
467.69	8177.83
467.87	8266.77
468.05	8512.53
468.23	8222.30
468.41	8449.33
468.60	8517.21
468.78	8498.49
468.96	8454.02
469.14	8519.55
469.32	8645.94
469.50	8540.61
469.69	8760.63
469.87	8709.13
470.05	8585.08
470.23	8828.50
470.41	8702.11
470.59	8973.61
470.77	8781.69
470.95	8915.10
471.14	8861.27
471.32	8840.20
471.50	9043.83
471.68	8973.61
471.86	9004.04
472.04	9270.86
472.22	9500.23
472.40	9163.20
472.58	9205.33
472.77	9479.17
472.95	9277.88
473.13	9453.42
473.31	9298.95
473.49	9425.34
473.67	9465.13
473.85	9619.60
474.03	9764.72
474.21	9687.48
474.39	9589.17
474.57	9617.26
474.75	9760.03
474.93	10005.79
475.12	9790.46
475.30	9909.83
475.48	10085.37
475.66	9963.66
475.84	10001.11
476.02	10242.18
476.20	10193.03
476.38	10471.56
476.56	10635.39
476.74	10504.32
476.92	10532.41
477.10	10464.54
477.28	10551.14
477.46	10693.91
477.64	10829.66
477.82	10862.43
478.00	11330.53
478.18	11054.35
478.36	10991.16
478.54	11323.51
478.72	11501.39
478.90	11494.37
479.08	11665.23
479.26	11578.63
479.44	11595.01
479.62	11763.53
479.80	11932.05
479.98	11939.07
480.16	12362.71
480.34	12086.53
480.52	12334.62
480.70	12449.31
480.88	12039.72
481.06	12472.71
481.24	12435.27
481.41	12547.61
481.59	12453.99
481.77	12671.66
481.95	12685.70
482.13	13011.04
482.31	12879.97
482.49	13383.18
482.67	13273.18
482.85	13380.84
483.03	13577.45
483.21	13858.31
483.39	13720.22
483.57	13434.68
483.74	13937.89
483.92	13994.06
484.10	13921.51
484.28	14221.10
484.46	14354.51
484.64	14714.95
484.82	14218.75
485.00	14370.89
485.18	14883.47
485.35	15077.73
485.53	14932.62
485.71	15091.77
485.89	15431.15
486.07	15154.97
486.25	15410.09
486.43	15316.47
486.61	15463.92
486.78	15747.12
486.96	15854.79
487.14	16088.84
487.32	16285.45
487.50	15936.71
487.68	16203.53
487.85	16451.63
488.03	16566.31
488.21	16882.28
488.39	16980.59
488.57	17104.64
488.75	16966.54
488.92	17282.52
489.10	17331.67
489.28	17507.21
489.46	17378.48
489.64	17858.29
489.81	18192.98
489.99	18331.08
490.17	18237.45
490.35	18640.03
490.53	18317.03
490.70	18789.82
490.88	18272.56
491.06	18745.35
491.24	18630.66
491.41	19115.16
491.59	19096.43
491.77	19281.33
491.95	19447.51
492.13	19356.23
492.30	19426.45
492.48	19665.18
492.66	20030.30
492.84	19721.35
493.01	20034.99
493.19	19990.52
493.37	20299.47
493.54	20423.51
493.72	20365.00
493.90	20685.65
494.08	20629.48
494.25	20912.69
494.43	21003.97
494.61	20999.29
494.79	21125.68
494.96	21064.82
495.14	21268.45
495.32	21785.71
495.49	21626.55
495.67	21553.99
495.85	21947.20
496.02	22045.51
496.20	22157.85
496.38	22387.22
496.55	22384.88
496.73	22611.92
496.91	22654.05
497.09	22773.41
497.26	22888.10
497.44	22691.49
497.62	23005.13
497.79	22958.31
497.97	23276.63
498.14	23447.49
498.32	23597.28
498.50	23646.43
498.67	23882.83
498.85	23768.14
499.03	23941.34
499.20	24119.22
499.38	24215.18
499.56	24116.88
499.73	24367.32
499.91	24582.65
500.08	24545.20
500.26	24240.93
500.44	24582.65
500.61	24821.38
500.79	24535.84
500.97	24882.24
501.14	25308.21
501.32	25530.56
501.49	25106.93
501.67	25308.21
501.84	25263.74
502.02	25521.20
502.20	25516.52
502.37	25696.74
502.55	25692.06
502.72	25736.53
502.90	25900.37
503.07	25919.09
503.25	25956.54
503.43	26082.93
503.60	26438.69
503.78	26494.86
503.95	26155.49
504.13	26429.33
504.30	26665.72
504.48	26757.00
504.65	26792.11
504.83	26761.69
505.01	27033.19
505.18	26703.17
505.36	26909.14
505.53	26977.01
505.71	27339.80
505.88	27545.76
506.06	27131.49
506.23	27798.54
506.41	27356.18
506.58	27541.08
506.76	27517.68
506.93	27992.81
507.11	27821.95
507.28	28051.32
507.46	28130.90
507.63	28346.23
507.81	28283.03
507.98	28173.03
508.16	28030.26
508.33	28481.98
508.50	28493.68
508.68	28706.67
508.85	28903.28
509.03	28470.28
509.20	28875.19
509.38	29254.36
509.55	29076.48
509.73	29612.46
509.90	29198.18
510.08	29455.64
510.25	29497.77
510.42	29603.10
510.60	29703.74
510.77	29947.15
510.95	30040.78
511.12	29893.32
511.30	29785.66
511.47	30122.69
511.64	29818.42
511.82	30157.80
511.99	30078.22
512.17	30319.30
512.34	30443.35
512.51	30803.79
512.69	30836.56
512.86	30455.05
513.04	30888.05
513.21	30934.86
513.38	30855.28
513.56	31164.23
513.73	31122.10
513.90	31344.45
514.08	30955.93
514.25	31274.24
514.43	31557.44
514.60	31644.04
514.77	31307.01
514.95	31606.59
515.12	31651.06
515.29	31576.17
515.47	31868.73
515.64	31812.56
515.81	31899.16
515.99	32240.88
516.16	32191.73
516.33	32442.17
516.51	32194.07
516.68	32004.49
516.85	32116.83
517.03	32657.49
517.20	32629.41
517.37	32577.92
517.54	32718.35
517.72	32542.81
517.89	32634.09
518.06	32624.73
518.24	32783.88
518.41	32662.18
518.58	32877.51
518.75	33099.86
518.93	32959.42
519.10	32872.82
519.27	33062.41
519.45	33574.98
519.62	33315.19
519.79	33247.31
519.96	33617.11
520.14	33528.17
520.31	33251.99
520.48	33804.36
520.65	33647.54
520.83	34162.46
521.00	34153.10
521.17	34401.19
521.34	34415.24
521.52	34419.92
521.69	34581.42
521.86	34431.62
522.03	34574.39
522.20	34328.64
522.38	34717.17
522.55	34742.91
522.72	34712.49
522.89	34656.31
523.07	35412.31
523.24	35260.17
523.41	35370.18
523.58	34836.53
523.75	35470.82
523.92	35622.95
524.10	35400.60
524.27	35061.22
524.44	35325.71
524.61	35566.78
524.78	35768.07
524.96	36013.82
525.13	35852.33
525.30	36165.96
525.47	36109.78
525.64	35824.24
525.81	36313.41
525.98	36144.89
526.16	36282.98
526.33	35981.06
526.50	36423.42
526.67	36238.51
526.84	36556.83
527.01	36198.73
527.18	36470.23
527.36	36615.34
527.53	37043.66
527.70	37542.19
527.87	36811.95
528.04	37053.02
528.21	37165.37
528.38	36921.95
528.55	37181.75
528.72	37010.89
528.89	37195.79
529.07	37209.84
529.24	37235.58
529.41	37853.48
529.58	37359.63
529.75	37570.28
529.92	37727.10
530.09	37427.51
530.26	37109.19
530.43	37675.60
530.60	37631.13
530.77	37483.68
530.94	37617.09
531.11	37839.44
531.28	37869.87
531.46	38094.56
531.63	38082.86
531.80	37904.98
531.97	38134.35
532.14	37645.18
532.31	37937.74
532.48	38211.59
532.65	38026.68
532.82	37844.12
532.99	38513.52
533.16	38082.86
533.33	38478.41
533.50	39143.12
533.67	38426.92
533.84	38574.37
534.01	38820.13
534.18	38211.59
534.35	39459.09
534.52	38962.90
534.69	39398.24
534.86	38778.00
535.03	38698.42
535.20	39573.78
535.37	38916.09
535.54	39143.12
535.71	39529.31
535.88	38820.13
536.05	39391.22
536.22	39728.25
536.38	39934.22
536.55	39234.40
536.72	39480.16
536.89	39693.15
537.06	39903.79
537.23	39938.90
537.40	39601.86
537.57	39702.51
537.74	39175.89
537.91	39641.65
538.08	40135.51
538.25	39311.64
538.42	40004.44
538.59	40140.19
538.75	39964.65
538.92	40353.18
539.09	40582.55
539.26	40034.86
539.43	40250.19
539.60	40119.12
539.77	39955.29
539.94	40711.28
540.11	40676.17
540.28	41022.57
540.44	40676.17
540.61	40636.38
540.78	40542.76
540.95	40720.64
541.12	40568.51
541.29	40680.85
541.46	40622.34
541.62	40744.05
541.79	41172.36
541.96	40807.24
542.13	40889.16
542.30	40882.14
542.47	41179.39
542.63	41116.19
542.80	41109.17
542.97	41801.97
543.14	41364.29
543.31	41528.13
543.48	41677.92
543.64	42099.22
543.81	41930.70
543.98	41748.14
544.15	41823.03
544.32	42265.39
544.48	42436.25
544.65	41954.10
544.82	42052.41
544.99	41567.91
545.16	42426.89
545.32	41963.46
545.49	42478.38
545.66	42485.40
545.83	42536.90
546.00	42401.14
546.16	42539.24
546.33	42277.10
546.50	42075.81
546.67	43070.54
546.83	42244.33
547.00	42696.05
547.17	42387.10
547.34	42784.99
547.50	42892.66
547.67	42923.08
547.84	42766.27
548.00	42693.71
548.17	43056.50
548.34	42646.90
548.51	42997.98
548.67	42721.80
548.84	43381.83
549.01	43016.71
549.18	43068.20
549.34	42930.11
549.51	43255.44
549.68	43428.64
549.84	43489.49
550.01	43695.46
550.18	43316.29
550.34	43491.83
550.51	43271.82
550.68	43718.87
550.84	43133.73
551.01	43721.21
551.18	43473.11
551.34	43540.99
551.51	43381.83
551.68	43543.33
551.84	43786.74
552.01	43512.90
552.18	43716.53
552.34	43559.71
552.51	43856.96
552.68	43634.61
552.84	43587.80
553.01	43929.51
553.18	43882.70
553.34	44259.53
553.51	43779.72
553.67	44018.46
553.84	44027.82
554.01	44144.84
554.17	44245.49
554.34	44336.77
554.51	44205.70
554.67	44868.07
554.84	44491.24
555.00	44538.05
555.17	44198.68
555.33	44311.02
555.50	44516.99
555.67	44350.81
555.83	44502.95
556.00	44645.72
556.16	44797.85
556.33	44486.56
556.50	44383.58
556.66	44425.71
556.83	44591.89
556.99	44732.32
557.16	45242.56
557.32	44619.97
557.49	44589.55
557.65	44573.16
557.82	45214.47
557.98	45078.72
558.15	44762.75
558.32	45036.59
558.48	44662.10
558.65	45280.00
558.81	44961.69
558.98	45085.74
559.14	45132.55
559.31	44727.64
559.47	45249.58
559.64	45111.49
559.80	45162.98
559.97	45067.02
560.13	44942.97
560.30	45294.05
560.46	45717.68
560.63	45422.78
560.79	45989.19
560.96	45654.49
561.12	45317.45
561.29	45048.29
561.45	45696.62
561.61	45010.84
561.78	45483.63
561.94	45427.46
562.11	44961.69
562.27	45949.40
562.44	45825.35
562.60	45883.86
562.77	45572.57
562.93	45488.31
563.10	45673.21
563.26	45647.47
563.42	45799.60
563.59	45593.64
563.75	45607.68
563.92	45752.79
564.08	45558.53
564.24	45902.59
564.41	45656.83
564.57	45855.78
564.74	46387.08
564.90	45593.64
565.07	45991.53
565.23	45277.66
565.39	45911.95
565.56	46281.75
565.72	45848.75
565.88	45851.09
566.05	45546.82
566.21	46050.04
566.38	45783.22
566.54	46199.83
566.70	46323.88
566.87	45830.03
567.03	45834.71
567.19	46436.23
567.36	46136.64
567.52	45979.82
567.68	45951.74
567.85	46457.29
568.01	46574.32
568.17	46176.43
568.34	46153.02
568.50	46263.03
568.66	46007.91
568.83	46078.13
568.99	46646.88
569.15	46351.97
569.32	46326.22
569.48	46298.14
569.64	46986.25
569.81	46469.00
569.97	46202.18
570.13	46543.89
570.30	46220.90
570.46	46532.19
570.62	46679.64
570.78	46211.54
570.95	46417.50
571.11	46480.70
571.27	46398.78
571.43	46504.10
571.60	46321.54
571.76	46333.24
571.92	46508.79
572.09	46136.64
572.25	46220.90
572.41	46698.37
572.57	47037.75
572.74	46782.63
572.90	46494.74
573.06	46927.74
573.22	46871.57
573.38	46534.53
573.55	46731.14
573.71	47079.88
573.87	46855.18
574.03	47283.50
574.20	47386.49
574.36	46539.21
574.52	46773.27
574.68	46848.16
574.84	46646.88
575.01	46646.88
575.17	46761.56
575.33	46892.63
575.49	46649.22
575.65	46820.08
575.82	46941.78
575.98	46597.73
576.14	46890.29
576.30	47049.45
576.46	46995.62
576.62	46560.28
576.79	46848.16
576.95	46284.09
577.11	46698.37
577.27	47138.39
577.43	46815.40
577.59	46691.35
577.75	46796.67
577.92	46635.17
578.08	46955.83
578.24	46885.61
578.40	46838.80
578.56	47152.43
578.72	46997.96
578.88	46869.23
579.04	46920.72
579.21	46913.70
579.37	46763.90
579.53	47276.48
579.69	46930.08
579.85	46719.43
580.01	46747.52
580.17	46777.95
580.33	47461.38
580.49	46827.10
580.65	47023.70
580.82	47192.22
580.98	47215.63
581.14	46607.09
581.30	47009.66
581.46	46728.80
581.62	47016.68
581.78	46763.90
581.94	47124.35
582.10	46937.10
582.26	47281.16
582.42	47313.93
582.58	47381.80
582.74	46923.06
582.90	46944.12
583.06	47110.30
583.22	46838.80
583.38	47360.74
583.54	47093.92
583.70	46925.40
583.86	47264.78
584.02	47173.50
584.18	47260.10
584.34	47021.36
584.50	47449.68
584.66	47538.62
584.82	47047.11
584.98	47571.39
585.14	47454.36
585.30	46876.25
585.46	47290.52
585.62	47126.69
585.78	47096.26
585.94	47119.66
586.10	47426.28
586.26	47206.26
586.42	46988.60
586.58	47208.61
586.74	47136.05
586.90	47063.49
587.06	47332.65
587.22	47297.55
587.38	46817.74
587.54	47079.88
587.70	47351.38
587.86	47292.86
588.02	47173.50
588.18	47320.95
588.34	47339.68
588.49	47164.14
588.65	46951.15
588.81	47075.19
588.97	47592.45
589.13	47592.45
589.29	47381.80
589.45	47365.42
589.61	47426.28
589.77	47325.63
589.93	47086.90
590.08	47657.99
