SpectraSuite Data File
++++++++++++++++++++++++++++++++++++
Date: Fri Oct 25 11:22:32 EDT 2013
User: price-jones
Dark Spectrum Present: No
Reference Spectrum Present: No
Number of Sampled Component Spectra: 1
Spectrometers: USB2+H05261
Integration Time (usec): 100000 (USB2+H05261)
Spectra Averaged: 1 (USB2+H05261)
Boxcar Smoothing: 0 (USB2+H05261)
Correct for Electrical Dark: No (USB2+H05261)
Strobe/Lamp Enabled: No (USB2+H05261)
Correct for Detector Non-linearity: No (USB2+H05261)
Correct for Stray Light: No (USB2+H05261)
Number of Pixels in Processed Spectrum: 2048
>>>>>Begin Processed Spectral Data<<<<<
365.73	161.50
365.92	161.50
366.12	161.50
366.32	112.35
366.52	86.60
366.72	166.18
366.91	154.48
367.11	91.28
367.31	133.41
367.51	133.41
367.70	156.82
367.90	128.73
368.10	131.07
368.30	93.62
368.49	119.37
368.69	95.96
368.89	175.54
369.09	70.22
369.28	173.20
369.48	133.41
369.68	177.88
369.87	173.20
370.07	175.54
370.27	208.31
370.47	325.33
370.66	615.56
370.86	638.97
371.06	730.25
371.25	727.91
371.45	620.24
371.65	709.18
371.84	662.37
372.04	718.54
372.24	627.26
372.44	622.58
372.63	681.10
372.83	732.59
373.03	699.82
373.22	676.41
373.42	702.16
373.62	741.95
373.81	758.33
374.01	816.85
374.21	863.66
374.40	744.29
374.60	795.78
374.79	805.14
374.99	807.48
375.19	835.57
375.38	884.72
375.58	840.25
375.78	896.43
375.97	847.27
376.17	924.51
376.37	781.74
376.56	936.21
376.76	954.94
376.95	875.36
377.15	919.83
377.35	868.34
377.54	884.72
377.74	875.36
377.93	849.61
378.13	903.45
378.33	940.90
378.52	1043.88
378.72	915.15
378.91	997.07
379.11	1025.15
379.31	957.28
379.50	978.34
379.70	985.37
379.89	1036.86
380.09	983.02
380.28	1011.11
380.48	1097.71
380.68	1029.84
380.87	971.32
381.07	1041.54
381.26	1097.71
381.46	896.43
381.65	966.64
381.85	1020.47
382.04	983.02
382.24	1015.79
382.43	1048.56
382.63	1011.11
382.83	1046.22
383.02	1130.48
383.22	1135.16
383.41	1142.18
383.61	1123.46
383.80	1165.59
384.00	1200.69
384.19	1064.94
384.39	1144.52
384.58	1083.67
384.78	1135.16
384.97	1235.80
385.17	1121.12
385.36	1238.14
385.56	1198.35
385.75	1170.27
385.95	1226.44
386.14	1266.23
386.34	1252.19
386.53	1221.76
386.72	1188.99
386.92	1221.76
387.11	1306.02
387.31	1266.23
387.50	1296.66
387.70	1324.74
387.89	1303.68
388.09	1287.29
388.28	1320.06
388.48	1217.08
388.67	1301.34
388.86	1270.91
389.06	1331.76
389.25	1432.41
389.45	1401.98
389.64	1282.61
389.84	1359.85
390.03	1317.72
390.22	1411.34
390.42	1401.98
390.61	1448.79
390.81	1423.05
391.00	1399.64
391.19	1451.13
391.39	1423.05
391.58	1455.81
391.78	1472.20
391.97	1547.09
392.16	1427.73
392.36	1612.63
392.55	1568.16
392.75	1565.82
392.94	1540.07
393.13	1610.29
393.33	1584.54
393.52	1479.22
393.71	1544.75
393.91	1507.30
394.10	1617.31
394.29	1589.22
394.49	1603.27
394.68	1621.99
394.88	1596.25
395.07	1607.95
395.26	1666.46
395.46	1638.38
395.65	1703.91
395.84	1689.87
396.04	1834.98
396.23	1739.02
396.42	1767.10
396.62	1818.60
396.81	1865.41
397.00	1870.09
397.19	1706.25
397.39	1811.57
397.58	1832.64
397.77	1858.39
397.97	1844.34
398.16	1788.17
398.35	1937.96
398.55	1881.79
398.74	1940.30
398.93	2069.03
399.12	1928.60
399.32	1886.47
399.51	1877.11
399.70	2064.35
399.90	2045.63
400.09	2024.56
400.28	2071.37
400.47	2139.25
400.67	2099.46
400.86	1982.43
401.05	2169.68
401.24	2167.34
401.44	2104.14
401.63	2172.02
401.82	2162.66
402.01	2265.64
402.21	2122.87
402.40	2146.27
402.59	2195.42
402.78	2354.58
402.97	2279.68
403.17	2270.32
403.36	2296.07
403.55	2310.11
403.74	2387.35
403.93	2317.13
404.13	2284.36
404.32	2307.77
404.51	2464.58
404.70	2466.92
404.89	2473.95
405.09	2558.21
405.28	2478.63
405.47	2466.92
405.66	2490.33
405.85	2523.10
406.05	2513.74
406.24	2609.70
406.43	2558.21
406.62	2630.76
406.81	2686.94
407.00	2605.02
407.20	2658.85
407.39	2644.81
407.58	2761.83
407.77	2747.79
407.96	2757.15
408.15	2843.75
408.34	2693.96
408.54	2883.54
408.73	2899.92
408.92	2815.66
409.11	2925.67
409.30	2904.60
409.49	3019.29
409.68	2911.63
409.87	2944.39
410.07	3047.38
410.26	3000.57
410.45	3040.36
410.64	3124.62
410.83	3253.34
411.02	3199.51
411.21	3323.56
411.40	3192.49
411.59	3211.22
411.78	3260.37
411.98	3246.32
412.17	3382.07
412.36	3279.09
412.55	3358.67
412.74	3407.82
412.93	3396.12
413.12	3346.97
413.31	3763.58
413.50	3492.08
413.69	3438.25
413.88	3501.44
414.07	3641.87
414.26	3695.71
414.45	3669.96
414.64	3695.71
414.83	3726.13
415.02	3836.14
415.22	4042.11
415.41	3955.51
415.60	3953.16
415.79	3969.55
415.98	4053.81
416.17	3974.23
416.36	4011.68
416.55	3904.01
416.74	4088.92
416.93	4145.09
417.12	4156.79
417.31	4163.81
417.50	4196.58
417.69	4414.25
417.88	4381.48
418.07	4245.73
418.26	4283.18
418.45	4337.01
418.64	4533.62
418.83	4475.10
419.02	4465.74
419.21	4606.17
419.39	4542.98
419.58	4514.89
419.77	4498.51
419.96	4655.33
420.15	4564.04
420.34	4645.96
420.53	4573.41
420.72	4765.33
420.91	4704.48
421.10	4753.63
421.29	4840.23
421.48	4830.87
421.67	4844.91
421.86	4875.34
422.05	4774.69
422.24	4725.54
422.43	4908.10
422.61	4847.25
422.80	5111.73
422.99	4912.78
423.18	5069.60
423.37	5219.39
423.56	5013.43
423.75	4950.23
423.94	5027.47
424.13	4660.01
424.32	4793.42
424.50	5083.64
424.69	5207.69
424.88	5163.22
425.07	5064.92
425.26	5029.81
425.45	4966.62
425.64	4987.68
425.83	5156.20
426.01	5167.90
426.20	5177.26
426.39	5060.24
426.58	5081.30
426.77	5097.69
426.96	5043.85
427.15	5177.26
427.33	5282.59
427.52	5060.24
427.71	5338.76
427.90	5205.35
428.09	5427.70
428.28	5455.79
428.46	5359.83
428.65	5490.90
428.84	5689.84
429.03	5481.53
429.22	5476.85
429.40	5516.64
429.59	5437.06
429.78	5329.40
429.97	5462.81
430.16	5593.88
430.34	5692.18
430.53	5673.46
430.72	5764.74
430.91	5523.66
431.10	5572.82
431.28	5837.30
431.47	5832.62
431.66	5870.06
431.85	5750.70
432.03	5930.92
432.22	5912.19
432.41	6019.86
432.60	5954.32
432.79	5851.34
432.97	6277.32
433.16	6094.76
433.35	6057.31
433.54	6174.33
433.72	6228.17
433.91	6282.00
434.10	6012.84
434.28	6111.14
434.47	6232.85
434.66	6352.21
434.85	6392.00
435.03	6471.58
435.22	6338.17
435.41	6499.67
435.59	6516.05
435.78	6466.90
435.97	6455.20
436.16	6399.02
436.34	6513.71
436.53	6490.31
436.72	6672.87
436.90	6576.91
437.09	6829.68
437.28	6574.56
437.46	6724.36
437.65	6911.60
437.84	6778.19
438.02	6778.19
438.21	6810.96
438.40	6803.94
438.58	7000.54
438.77	7103.53
438.96	7143.32
439.14	6967.77
439.33	7129.27
439.52	7349.28
439.70	7454.61
439.89	7407.80
440.08	7145.66
440.26	7592.70
440.45	7417.16
440.63	7709.72
440.82	7683.98
441.01	7634.83
441.19	7784.62
441.38	7925.05
441.57	7719.09
441.75	8088.89
441.94	8196.56
442.12	8175.49
442.31	8224.64
442.50	8226.98
442.68	8091.23
442.87	8248.05
443.05	7985.91
443.24	8217.62
443.43	8210.60
443.61	8219.96
443.80	8552.32
443.98	8053.78
444.17	8102.93
444.35	8327.63
444.54	8437.63
444.73	8505.51
444.91	8287.84
445.10	8456.36
445.28	8217.62
445.47	8208.26
445.65	8585.08
445.84	8451.67
446.02	8507.85
446.21	8697.43
446.39	8545.30
446.58	8568.70
446.77	8585.08
446.95	8437.63
447.14	8599.13
447.32	8608.49
447.51	8533.59
447.69	8571.04
447.88	8697.43
448.06	8615.51
448.25	8802.75
448.43	8695.09
448.62	8758.28
448.80	8636.58
448.99	8718.50
449.17	8929.14
449.36	8741.90
449.54	8990.00
449.73	9048.51
449.91	9046.17
450.10	9364.48
450.28	9387.89
450.46	9228.73
450.65	9060.21
450.83	9219.37
451.02	9001.70
451.20	9261.50
451.39	9214.69
451.57	9282.56
451.76	9153.84
451.94	9385.55
452.13	9502.58
452.31	9202.99
452.49	9076.60
452.68	9493.21
452.86	9343.42
453.05	9586.83
453.23	9764.72
453.42	9444.06
453.60	9631.30
453.78	9799.82
453.97	9591.52
454.15	9621.94
454.34	9495.55
454.52	9748.33
454.70	9659.39
454.89	9778.76
455.07	9767.06
455.26	9886.42
455.44	10237.50
455.62	10008.13
455.81	10008.13
455.99	10186.01
456.17	10190.69
456.36	10291.34
456.54	10207.08
456.73	10401.34
456.91	10707.95
457.09	10485.60
457.28	10679.86
457.46	10431.77
457.64	10677.52
457.83	10647.10
458.01	10548.79
458.19	10916.26
458.38	10768.80
458.56	10726.68
458.74	10593.26
458.93	10824.98
459.11	10942.00
459.29	10785.19
459.48	11103.50
459.66	10832.00
459.84	10848.38
460.03	11220.53
460.21	11110.52
460.39	10906.90
460.57	11098.82
460.76	11295.43
460.94	11403.09
461.12	11279.04
461.31	11461.60
461.49	11213.51
461.67	11288.40
461.85	11459.26
462.04	11548.20
462.22	12138.02
462.40	11903.96
462.59	11389.05
462.77	11683.95
462.95	12006.95
463.13	11693.32
463.32	11576.29
463.50	11690.98
463.68	11873.54
463.86	11882.90
464.05	12032.69
464.23	11854.81
464.41	11969.50
464.59	11913.33
464.78	12163.76
464.96	12105.25
465.14	12065.46
465.32	12367.39
465.50	12049.08
465.69	12194.19
465.87	12503.14
466.05	12205.89
466.23	12411.86
466.41	12395.48
466.60	12943.16
466.78	12521.87
466.96	12264.41
467.14	12486.76
467.32	12603.78
467.51	12664.64
467.69	12194.19
467.87	12571.02
468.05	12645.91
468.23	12894.01
468.41	12699.75
468.60	12814.43
468.78	12868.27
468.96	12894.01
469.14	12894.01
469.32	12868.27
469.50	12730.17
469.69	13252.11
469.87	13205.30
470.05	13359.78
470.23	13334.03
470.41	13364.46
470.59	13256.79
470.77	13298.92
470.95	13224.03
471.14	13797.46
471.32	13518.93
471.50	13809.16
471.68	13912.14
471.86	13532.98
472.04	14129.81
472.22	14115.77
472.40	13909.80
472.58	14068.96
472.77	14167.26
472.95	14431.74
473.13	14761.76
473.31	14181.31
473.49	14324.08
473.67	14429.40
473.85	14677.50
474.03	15098.80
474.21	14747.72
474.39	14906.87
474.57	14738.35
474.75	15281.36
474.93	15398.38
475.12	15084.75
475.30	15033.26
475.48	15489.67
475.66	15316.47
475.84	15492.01
476.02	15590.31
476.20	15515.41
476.38	15786.91
476.56	16074.80
476.74	16308.85
476.92	16002.24
477.10	16027.99
477.28	16297.15
477.46	16650.57
477.64	16395.45
477.82	16753.55
478.00	17224.00
478.18	17249.75
478.36	17018.04
478.54	17448.69
478.72	17577.42
478.90	17680.41
479.08	17769.35
479.26	18216.39
479.44	17818.50
479.62	17916.80
479.80	17980.00
479.98	18462.15
480.16	18661.09
480.34	18593.22
480.52	18682.16
480.70	19040.26
480.88	18775.78
481.06	19066.00
481.24	18883.44
481.41	19178.35
481.59	19786.89
481.77	20067.75
481.95	19597.31
482.13	20086.48
482.31	20114.56
482.49	20683.31
482.67	20657.57
482.85	20699.70
483.03	20786.30
483.21	21013.33
483.39	21156.10
483.57	21249.72
483.74	21488.46
483.92	21736.56
484.10	21563.36
484.28	21818.47
484.46	22270.20
484.64	22878.74
484.82	22232.75
485.00	22511.27
485.18	23065.98
485.35	23241.52
485.53	22813.20
485.71	23374.93
485.89	23803.25
486.07	23613.66
486.25	23758.78
486.43	24058.37
486.61	24159.01
486.78	24421.15
486.96	24503.07
487.14	25088.20
487.32	24568.60
487.50	25303.53
487.68	25411.20
487.85	25781.00
488.03	25825.47
488.21	26450.39
488.39	26125.06
488.57	26398.90
488.75	26607.21
488.92	26707.85
489.10	27037.87
489.28	27044.89
489.46	27543.42
489.64	27447.46
489.81	28350.91
489.99	27978.76
490.17	28418.78
490.35	28425.81
490.53	28804.97
490.70	28882.21
490.88	28933.70
491.06	28769.86
491.24	29326.91
491.41	29539.90
491.59	29298.83
491.77	29968.22
491.95	30174.19
492.13	30572.08
492.30	30415.26
492.48	30824.86
492.66	30625.91
492.84	30689.10
493.01	31349.14
493.19	31325.73
493.37	31606.59
493.54	31838.31
493.72	31758.73
493.90	31587.87
494.08	32414.08
494.25	32371.95
494.43	32540.47
494.61	32676.22
494.79	32889.21
494.96	33270.72
495.14	33074.11
495.32	33448.60
495.49	33528.17
495.67	33741.16
495.85	34003.30
496.02	34185.86
496.20	34419.92
496.38	34227.99
496.55	34529.92
496.73	35388.90
496.91	34983.99
497.09	35253.15
497.26	35470.82
497.44	35391.24
497.62	35810.20
497.79	36687.90
497.97	35599.55
498.14	36357.88
498.32	36357.88
498.50	36643.43
498.67	37195.79
498.85	36699.60
499.03	37394.74
499.20	36975.78
499.38	37420.48
499.56	37801.99
499.73	37567.94
499.91	37479.00
500.08	38223.29
500.26	38242.01
500.44	38160.09
500.61	38433.94
500.79	38305.21
500.97	38845.87
501.14	39157.16
501.32	39035.45
501.49	39419.30
501.67	39180.57
501.84	39641.65
502.02	39423.98
502.20	39735.27
502.37	39899.11
502.55	39861.66
502.72	39997.41
502.90	40493.61
503.07	40048.91
503.25	40116.78
503.43	40018.48
503.60	40474.88
503.78	40507.65
503.95	40952.35
504.13	41130.23
504.30	41095.13
504.48	40973.42
504.65	41497.70
504.83	41642.81
505.01	41951.76
505.18	41614.72
505.36	42167.09
505.53	41553.87
505.71	42218.58
505.88	42342.63
506.06	41982.19
506.23	42286.46
506.41	42323.91
506.58	43079.90
506.76	42663.28
506.93	43164.16
507.11	43175.86
507.28	43281.19
507.46	43002.66
507.63	43337.36
507.81	43620.56
507.98	43325.66
508.16	43519.92
508.33	43906.11
508.50	44196.34
508.68	44144.84
508.85	44470.18
509.03	44025.48
509.20	44545.08
509.38	45366.60
509.55	44856.37
509.73	44996.80
509.90	44870.41
510.08	44952.33
510.25	45223.83
510.42	45153.62
510.60	45537.46
510.77	45993.87
510.95	45769.18
511.12	45773.86
511.30	45776.20
511.47	45834.71
511.64	46024.29
511.82	46347.29
511.99	46117.92
512.17	46850.50
512.34	46340.27
512.51	47103.28
512.69	46831.78
512.86	46780.29
513.04	47461.38
513.21	47381.80
513.38	47210.95
513.56	47388.83
513.73	47395.85
513.90	47351.38
514.08	47899.06
514.25	47849.91
514.43	47765.65
514.60	48168.22
514.77	48133.12
514.95	48135.46
515.12	48189.29
515.29	47894.38
515.47	48685.48
515.64	48446.75
515.81	48238.44
515.99	48809.53
516.16	49050.61
516.33	48907.83
516.51	49631.06
516.68	48999.12
516.85	48882.09
517.03	49504.67
517.20	49427.43
517.37	49270.62
517.54	49537.44
517.72	49287.00
517.89	49661.49
518.06	49610.00
518.24	50012.57
518.41	49787.88
518.58	49483.61
518.75	49696.59
518.93	50164.70
519.10	50082.78
519.27	50244.28
519.45	50457.27
519.62	50401.10
519.79	50291.09
519.96	50365.99
520.14	50806.01
520.31	50515.78
520.48	51002.61
520.65	50571.96
520.83	51295.18
521.00	51105.60
521.17	50679.62
521.34	51299.86
521.52	51196.88
521.69	51517.53
521.86	51295.18
522.03	51845.21
522.20	51873.29
522.38	52020.75
522.55	52023.09
522.72	51753.93
522.89	51847.55
523.07	52095.64
523.24	51983.30
523.41	52055.85
523.58	51901.38
523.75	52467.79
523.92	52196.29
524.10	52306.29
524.27	52549.71
524.44	52453.75
524.61	52530.98
524.78	52533.32
524.96	52788.44
525.13	52849.30
525.30	53200.38
525.47	52851.64
525.64	52690.14
525.81	53064.63
525.98	53345.49
526.16	53214.42
526.33	53233.14
526.50	53626.35
526.67	53764.45
526.84	53544.44
527.01	53595.93
527.18	53251.87
527.36	53315.06
527.53	53366.55
527.70	53844.02
527.87	53834.66
528.04	53581.88
528.21	53558.48
528.38	53947.01
528.55	53792.53
528.72	53876.79
528.89	53872.11
529.07	53886.15
529.24	54108.50
529.41	54113.19
529.58	54131.91
529.75	54110.85
529.92	54143.61
530.09	54035.95
530.26	54323.83
530.43	54445.54
530.60	54401.07
530.77	54419.80
530.94	54466.61
531.11	54286.39
531.28	54749.81
531.46	54628.10
531.63	54742.79
531.80	54775.56
531.97	54784.92
532.14	54817.69
532.31	54915.99
532.48	54773.22
532.65	55089.19
532.82	55016.63
532.99	55121.96
533.16	55159.41
533.33	55040.04
533.50	55405.16
533.67	55042.38
533.84	55114.94
534.01	55313.88
534.18	55339.63
534.35	55730.50
534.52	55278.77
534.69	55730.50
534.86	55854.54
535.03	55522.19
535.20	55559.64
535.37	55770.28
535.54	55873.27
535.71	55613.47
535.88	55723.47
536.05	55810.07
536.22	56055.83
536.38	55852.20
536.55	55934.12
536.72	55779.65
536.89	55831.14
537.06	56154.13
537.23	56294.56
537.40	56046.47
537.57	56097.96
537.74	55969.23
537.91	56294.56
538.08	56264.14
538.25	56453.72
538.42	56074.55
538.59	56341.38
538.75	56264.14
538.92	56467.76
539.09	56804.80
539.26	56364.78
539.43	56608.20
539.60	56694.80
539.77	56446.70
539.94	56736.93
540.11	56683.09
540.28	56828.21
540.44	56755.65
540.61	56933.53
540.78	56619.90
540.95	56856.29
541.12	56678.41
541.29	56720.54
541.46	56765.01
541.62	56992.04
541.79	57059.92
541.96	56914.81
542.13	57080.98
542.30	57057.58
542.47	57233.12
542.63	56900.76
542.80	57137.16
542.97	57528.03
543.14	57682.50
543.31	57441.43
543.48	57415.68
543.64	57790.17
543.81	57476.54
543.98	57661.44
544.15	57691.86
544.32	57921.24
544.48	57977.41
544.65	57827.62
544.82	57954.00
544.99	57661.44
545.16	57799.53
545.32	57623.99
545.49	57954.00
545.66	58279.34
545.83	57911.88
546.00	58101.46
546.16	58054.65
546.33	58033.58
546.50	57921.24
546.67	58021.88
546.83	57785.49
547.00	58089.76
547.17	58075.71
547.34	58059.33
547.50	57998.48
547.67	58265.30
547.84	58347.21
548.00	58548.50
548.17	58555.52
548.34	58515.73
548.51	58595.31
548.67	58562.54
548.84	58508.71
549.01	58548.50
549.18	58475.94
549.34	58637.44
549.51	58691.27
549.68	58831.71
549.84	58569.57
550.01	58754.47
550.18	58700.64
550.34	58625.74
550.51	58735.74
550.68	58784.90
550.84	58756.81
551.01	59035.33
551.18	58756.81
551.34	58815.32
551.51	58922.99
551.68	59068.10
551.84	58848.09
552.01	58733.40
552.18	59021.29
552.34	58946.39
552.51	59180.45
552.68	58969.80
552.84	59166.40
553.01	59334.92
553.18	59264.70
553.34	59241.30
553.51	59110.23
553.67	59124.27
553.84	59302.15
554.01	59171.08
554.17	59360.67
554.34	59451.95
554.51	59341.94
554.67	59510.46
554.84	59475.35
555.00	59311.52
555.17	59103.21
555.33	59482.37
555.50	59451.95
555.67	59306.83
555.83	59391.09
556.00	59566.63
556.16	59793.67
556.33	59529.19
556.50	59643.87
556.66	59760.90
556.83	59236.62
556.99	59760.90
557.16	59765.58
557.32	59828.77
557.49	60055.81
557.65	59725.79
557.82	59753.88
557.98	59447.27
558.15	59774.94
558.32	59728.13
558.48	59456.63
558.65	59690.68
558.81	59805.37
558.98	59929.42
559.14	60135.38
559.31	60095.60
559.47	60034.74
559.64	60212.62
559.80	60090.91
559.97	60039.42
560.13	60097.94
560.30	60198.58
560.46	60025.38
560.63	60116.66
560.79	59948.14
560.96	60236.03
561.12	60097.94
561.29	60158.79
561.45	60334.33
561.61	60062.83
561.78	60137.72
561.94	60111.98
562.11	60137.72
562.27	60142.41
562.44	60205.60
562.60	60385.82
562.77	60245.39
562.93	60306.24
563.10	60219.64
563.26	60350.71
563.42	60495.83
563.59	60434.97
563.75	60360.08
563.92	60406.89
564.08	60399.86
564.24	60568.38
564.41	60516.89
564.57	60631.58
564.74	60486.46
564.90	60388.16
565.07	60341.35
565.23	60540.30
565.39	60544.98
565.56	60580.09
565.72	60488.80
565.88	60659.66
566.05	60528.59
566.21	60533.28
566.38	60594.13
566.54	60673.71
566.70	60671.37
566.87	60701.79
567.03	60500.51
567.19	60809.46
567.36	60692.43
567.52	60537.96
567.68	60793.07
567.85	60706.47
568.01	60832.86
568.17	60722.86
568.34	60570.72
568.50	60610.51
568.66	60676.05
568.83	60783.71
568.99	60437.31
569.15	60507.53
569.32	60741.58
569.48	60626.90
569.64	60713.50
569.81	60842.23
569.97	60678.39
570.13	60856.27
570.30	60697.11
570.46	61062.24
570.62	60666.69
570.78	60786.05
570.95	60835.20
571.11	60975.64
571.27	61036.49
571.43	60842.23
571.60	60956.91
571.76	60762.65
571.92	60924.14
572.09	60914.78
572.25	60919.46
572.41	60837.54
572.57	61029.47
572.74	61090.32
572.90	60977.98
573.06	61062.24
573.22	60825.84
573.38	61003.72
573.55	61045.85
573.71	61141.81
573.87	60980.32
574.03	61038.83
574.20	61034.15
574.36	60889.04
574.52	61106.71
574.68	61029.47
574.84	61052.87
575.01	61144.16
575.17	60992.02
575.33	60996.70
575.49	60863.29
575.65	61006.06
575.82	61193.31
575.98	61036.49
576.14	61408.64
576.30	61240.12
576.46	60994.36
576.62	61118.41
576.79	60987.34
576.95	61064.58
577.11	61202.67
577.27	61190.97
577.43	61022.45
577.59	60961.59
577.75	61179.26
577.92	61139.47
578.08	61202.67
578.24	61132.45
578.40	61064.58
578.56	61041.17
578.72	61048.19
578.88	61219.05
579.04	61481.19
579.21	61221.39
579.37	61329.06
579.53	61226.07
579.69	61001.38
579.85	61183.94
580.01	61062.24
580.17	61336.08
580.33	61317.35
580.49	61296.29
580.65	61249.48
580.82	61141.81
580.98	61109.05
581.14	61127.77
581.30	61319.70
581.46	61303.31
581.62	61420.34
581.78	61160.54
581.94	61368.85
582.10	61272.88
582.26	61249.48
582.42	61361.82
582.58	61139.47
582.74	61331.40
582.90	61305.65
583.06	61343.10
583.22	61228.41
583.38	61209.69
583.54	61432.04
583.70	61425.02
583.86	61291.61
584.02	61069.26
584.18	61492.89
584.34	61230.75
584.50	61244.80
584.66	61216.71
584.82	61148.84
584.98	61492.89
585.14	61457.79
585.30	61141.81
585.46	61310.33
585.62	61460.13
585.78	61666.09
585.94	61284.59
586.10	61322.04
586.26	61425.02
586.42	61497.58
586.58	61338.42
586.74	61499.92
586.90	61268.20
587.06	61076.28
587.22	61630.99
587.38	61331.40
587.54	61509.28
587.70	61607.58
587.86	61418.00
588.02	61364.17
588.18	61544.39
588.34	61277.57
588.49	61513.96
