SpectraSuite Data File
++++++++++++++++++++++++++++++++++++
Date: Fri Oct 25 11:22:42 EDT 2013
User: price-jones
Dark Spectrum Present: No
Reference Spectrum Present: No
Number of Sampled Component Spectra: 1
Spectrometers: USB2+H05261
Integration Time (usec): 100000 (USB2+H05261)
Spectra Averaged: 1 (USB2+H05261)
Boxcar Smoothing: 0 (USB2+H05261)
Correct for Electrical Dark: No (USB2+H05261)
Strobe/Lamp Enabled: No (USB2+H05261)
Correct for Detector Non-linearity: No (USB2+H05261)
Correct for Stray Light: No (USB2+H05261)
Number of Pixels in Processed Spectrum: 2048
>>>>>Begin Processed Spectral Data<<<<<
365.73	229.37
365.92	229.37
366.12	229.37
366.32	110.01
366.52	138.09
366.72	156.82
366.91	100.64
367.11	117.03
367.31	131.07
367.51	145.11
367.70	51.49
367.90	119.37
368.10	131.07
368.30	114.69
368.49	84.26
368.69	229.37
368.89	156.82
369.09	156.82
369.28	114.69
369.48	142.77
369.68	110.01
369.87	208.31
370.07	191.92
370.27	220.01
370.47	255.12
370.66	531.30
370.86	540.66
371.06	589.82
371.25	667.05
371.45	592.16
371.65	739.61
371.84	685.78
372.04	685.78
372.24	699.82
372.44	720.88
372.63	739.61
372.83	732.59
373.03	683.44
373.22	737.27
373.42	734.93
373.62	727.91
373.81	711.52
374.01	795.78
374.21	866.00
374.40	774.72
374.60	828.55
374.79	739.61
374.99	856.64
375.19	809.83
375.38	854.30
375.58	919.83
375.78	884.72
375.97	835.57
376.17	847.27
376.37	840.25
376.56	826.21
376.76	854.30
376.95	912.81
377.15	858.98
377.35	894.08
377.54	905.79
377.74	882.38
377.93	910.47
378.13	945.58
378.33	973.66
378.52	851.96
378.72	931.53
378.91	919.83
379.11	912.81
379.31	903.45
379.50	959.62
379.70	985.37
379.89	954.94
380.09	980.68
380.28	978.34
380.48	976.00
380.68	978.34
380.87	973.66
381.07	1008.77
381.26	1074.31
381.46	1043.88
381.65	992.39
381.85	1132.82
382.04	1032.18
382.24	1050.90
382.43	1107.07
382.63	1078.99
382.83	1043.88
383.02	1076.65
383.22	1116.44
383.41	1083.67
383.61	1062.60
383.80	1226.44
384.00	1102.39
384.19	1111.75
384.39	1121.12
384.58	1188.99
384.78	1132.82
384.97	1193.67
385.17	1188.99
385.36	1128.14
385.56	1181.97
385.75	1196.01
385.95	1249.85
386.14	1231.12
386.34	1188.99
386.53	1196.01
386.72	1186.65
386.92	1238.14
387.11	1156.22
387.31	1212.40
387.50	1240.48
387.70	1165.59
387.89	1275.59
388.09	1191.33
388.28	1334.11
388.48	1179.63
388.67	1327.08
388.86	1409.00
389.06	1317.72
389.25	1425.39
389.45	1378.58
389.64	1331.76
389.84	1331.76
390.03	1406.66
390.22	1423.05
390.42	1385.60
390.61	1299.00
390.81	1420.71
391.00	1439.43
391.19	1460.49
391.39	1409.00
391.58	1394.96
391.78	1369.21
391.97	1401.98
392.16	1409.00
392.36	1554.12
392.55	1579.86
392.75	1413.68
392.94	1570.50
393.13	1519.01
393.33	1469.86
393.52	1570.50
393.71	1486.24
393.91	1486.24
394.10	1458.15
394.29	1577.52
394.49	1549.43
394.68	1584.54
394.88	1626.67
395.07	1654.76
395.26	1610.29
395.46	1575.18
395.65	1671.14
395.84	1640.72
396.04	1753.06
396.23	1739.02
396.42	1703.91
396.62	1680.50
396.81	1781.15
397.00	1732.00
397.19	1764.76
397.39	1778.81
397.58	1783.49
397.77	1806.89
397.97	1874.77
398.16	1874.77
398.35	1984.77
398.55	1846.68
398.74	1769.44
398.93	1937.96
399.12	1832.64
399.32	1933.28
399.51	1949.67
399.70	1952.01
399.90	1970.73
400.09	1996.48
400.28	2057.33
400.47	1991.80
400.67	2062.01
400.86	2040.95
401.05	2050.31
401.24	2092.44
401.44	2282.02
401.63	2169.68
401.82	2050.31
402.01	2076.06
402.21	2207.13
402.40	2155.63
402.59	2207.13
402.78	2232.87
402.97	2232.87
403.17	2267.98
403.36	2232.87
403.55	2270.32
403.74	2340.54
403.93	2342.88
404.13	2300.75
404.32	2363.94
404.51	2424.80
404.70	2431.82
404.89	2520.76
405.09	2363.94
405.28	2527.78
405.47	2401.39
405.66	2415.43
405.85	2480.97
406.05	2511.39
406.24	2495.01
406.43	2548.84
406.62	2459.90
406.81	2696.30
407.00	2565.23
407.20	2668.21
407.39	2579.27
407.58	2670.55
407.77	2752.47
407.96	2771.19
408.15	2757.15
408.34	2696.30
408.54	2803.96
408.73	2782.90
408.92	2761.83
409.11	2878.86
409.30	2829.71
409.49	2843.75
409.68	3077.80
409.87	3014.61
410.07	3040.36
410.26	2951.42
410.45	2967.80
410.64	3080.14
410.83	3077.80
411.02	3164.40
411.21	3131.64
411.40	3150.36
411.59	3201.85
411.78	3211.22
411.98	3208.87
412.17	3258.03
412.36	3332.92
412.55	3480.38
412.74	3421.86
412.93	3417.18
413.12	3283.77
413.31	3480.38
413.50	3400.80
413.69	3632.51
413.88	3576.34
414.07	3435.91
414.26	3574.00
414.45	3574.00
414.64	3709.75
414.83	3777.62
415.02	3754.22
415.22	3939.12
415.41	3904.01
415.60	3885.29
415.79	3822.09
415.98	4009.34
416.17	3929.76
416.36	3920.40
416.55	3960.19
416.74	4049.13
416.93	3943.80
417.12	4124.02
417.31	4086.58
417.50	4287.86
417.69	4271.48
417.88	4362.76
418.07	4306.59
418.26	4327.65
418.45	4489.15
418.64	4442.34
418.83	4465.74
419.02	4379.14
419.21	4645.96
419.39	4447.02
419.58	4423.61
419.77	4524.26
419.96	4550.00
420.15	4580.43
420.34	4641.28
420.53	4636.60
420.72	4947.89
420.91	4849.59
421.10	4748.95
421.29	4765.33
421.48	4767.67
421.67	4849.59
421.86	4901.08
422.05	4842.57
422.24	4868.31
422.43	4922.15
422.61	4868.31
422.80	4931.51
422.99	5064.92
423.18	4894.06
423.37	5179.61
423.56	5064.92
423.75	4933.85
423.94	4765.33
424.13	4690.43
424.32	4793.42
424.50	4940.87
424.69	4999.38
424.88	5039.17
425.07	4945.55
425.26	4861.29
425.45	4903.42
425.64	4975.98
425.83	4966.62
426.01	5083.64
426.20	5191.31
426.39	5114.07
426.58	5146.84
426.77	4980.66
426.96	5064.92
427.15	5298.97
427.33	5109.39
427.52	5111.73
427.71	5399.62
427.90	5142.16
428.09	5219.39
428.28	5413.66
428.46	5308.34
428.65	5352.81
428.84	5448.77
429.03	5657.07
429.22	5298.97
429.40	5577.50
429.59	5376.21
429.78	5305.99
429.97	5121.09
430.16	5673.46
430.34	5614.95
430.53	5731.97
430.72	5621.97
430.91	5561.11
431.10	5610.26
431.28	5888.79
431.47	5809.21
431.66	5888.79
431.85	5856.02
432.03	5961.34
432.22	5982.41
432.41	6005.81
432.60	5951.98
432.79	5856.02
432.97	5942.62
433.16	6078.37
433.35	6033.90
433.54	6071.35
433.72	6125.18
433.91	6078.37
434.10	6162.63
434.28	6174.33
434.47	6258.59
434.66	6282.00
434.85	6333.49
435.03	6066.67
435.22	6200.08
435.41	6466.90
435.59	6101.78
435.78	6534.78
435.97	6492.65
436.16	6319.45
436.34	6359.24
436.53	6408.39
436.72	6757.13
436.90	6532.44
437.09	6604.99
437.28	6574.56
437.46	6602.65
437.65	6705.63
437.84	6729.04
438.02	6626.06
438.21	6796.92
438.40	6705.63
438.58	6965.43
438.77	7045.01
438.96	6939.69
439.14	7133.95
439.33	7075.44
439.52	7377.37
439.70	7229.91
439.89	7269.70
440.08	7506.10
440.26	7414.82
440.45	7250.98
440.63	7433.54
440.82	7513.12
441.01	7604.40
441.19	7763.56
441.38	7595.04
441.57	7730.79
441.75	7691.00
441.94	8006.97
442.12	7873.56
442.31	7936.76
442.50	8025.70
442.68	7934.42
442.87	7962.50
443.05	8170.81
443.24	8231.66
443.43	8184.85
443.61	8180.17
443.80	8580.40
443.98	7999.95
444.17	8021.02
444.35	8245.71
444.54	8299.54
444.73	8344.01
444.91	8346.35
445.10	8374.44
445.28	8219.96
445.47	8252.73
445.65	8306.56
445.84	8498.49
446.02	8505.51
446.21	8463.38
446.39	8374.44
446.58	8617.85
446.77	8554.66
446.95	8297.20
447.14	8346.35
447.32	8428.27
447.51	8608.49
447.69	8486.78
447.88	8437.63
448.06	8725.52
448.25	8533.59
448.43	8594.45
448.62	8732.54
448.80	8589.77
448.99	8667.00
449.17	8751.26
449.36	8564.02
449.54	8741.90
449.73	9144.47
449.91	9151.49
450.10	9100.00
450.28	9011.06
450.46	8997.02
450.65	9149.15
450.83	9090.64
451.02	8933.82
451.20	9191.28
451.39	9186.60
451.57	9043.83
451.76	9011.06
451.94	9383.21
452.13	9415.98
452.31	9076.60
452.49	9057.87
452.68	9591.52
452.86	9254.48
453.05	9607.90
453.23	9469.81
453.42	9479.17
453.60	9530.66
453.78	9537.68
453.97	9329.38
454.15	9518.96
454.34	9540.02
454.52	9853.66
454.70	9727.27
454.89	9748.33
455.07	9966.00
455.26	9858.34
455.44	9963.66
455.62	10181.33
455.81	9968.34
455.99	10036.22
456.17	9930.89
456.36	10167.29
456.54	10265.59
456.73	10307.72
456.91	10438.79
457.09	10448.15
457.28	10689.23
457.46	10237.50
457.64	10546.45
457.83	10541.77
458.01	10366.23
458.19	10719.65
458.38	10455.17
458.56	10778.17
458.74	10775.83
458.93	10647.10
459.11	10649.44
459.29	10888.17
459.48	10874.13
459.66	10843.70
459.84	10958.39
460.03	11112.86
460.21	10953.71
460.39	10773.49
460.57	10895.19
460.76	11005.20
460.94	11260.32
461.12	11194.78
461.31	11150.31
461.49	11257.98
461.67	10977.11
461.85	11630.12
462.04	11138.61
462.22	11800.98
462.40	11936.73
462.59	11389.05
462.77	11700.34
462.95	11927.37
463.13	11548.20
463.32	11606.72
463.50	11889.92
463.68	11756.51
463.86	11932.05
464.05	11817.36
464.23	11843.11
464.41	12018.65
464.59	11838.43
464.78	12098.23
464.96	12077.16
465.14	11749.49
465.32	12074.82
465.50	12229.30
465.69	12292.49
465.87	12280.79
466.05	12004.61
466.23	12306.54
466.41	12386.12
466.60	12280.79
466.78	12205.89
466.96	12395.48
467.14	12444.63
467.32	12369.73
467.51	12828.48
467.69	12365.05
467.87	12507.82
468.05	12847.20
468.23	12367.39
468.41	12559.31
468.60	12837.84
468.78	12812.09
468.96	12704.43
469.14	12795.71
469.32	13303.60
469.50	12809.75
469.69	12945.50
469.87	13198.28
470.05	13142.11
470.23	13078.91
470.41	13032.10
470.59	13472.12
470.77	13142.11
470.95	13362.12
471.14	13671.07
471.32	13350.42
471.50	13474.46
471.68	13790.44
471.86	13760.01
472.04	13731.92
472.22	14291.31
472.40	13666.39
472.58	13717.88
472.77	13855.97
472.95	14146.20
473.13	14511.32
473.31	14106.41
473.49	14342.80
473.67	14129.81
473.85	14368.55
474.03	14387.27
474.21	14698.56
474.39	14630.69
474.57	14700.90
474.75	14771.12
474.93	15026.24
475.12	14979.43
475.30	15222.84
475.48	15087.09
475.66	15473.28
475.84	15108.16
476.02	15351.57
476.20	15726.06
476.38	15815.00
476.56	15976.50
476.74	16081.82
476.92	15840.75
477.10	15934.37
477.28	15995.22
477.46	16145.02
477.64	16425.88
477.82	16650.57
478.00	16975.91
478.18	16896.33
478.36	17032.08
478.54	16917.39
478.72	17324.65
478.90	17649.98
479.08	17467.42
479.26	17647.64
479.44	17493.16
479.62	17816.16
479.80	18099.36
479.98	18232.77
480.16	18640.03
480.34	18167.24
480.52	18640.03
480.70	18551.09
480.88	18333.42
481.06	18808.54
481.24	18853.02
481.41	19122.18
481.59	19754.12
481.77	19803.27
481.95	19384.32
482.13	19880.51
482.31	19932.00
482.49	20215.21
482.67	19969.45
482.85	20706.72
483.03	20842.47
483.21	20886.94
483.39	21352.71
483.57	21003.97
483.74	21401.86
483.92	21291.85
484.10	20982.90
484.28	21633.57
484.46	22136.79
484.64	22178.92
484.82	22324.03
485.00	22422.33
485.18	22782.77
485.35	22970.02
485.53	22752.35
485.71	23173.64
485.89	23503.66
486.07	23229.82
486.25	23417.06
486.43	23569.19
486.61	23967.09
486.78	24584.99
486.96	24196.46
487.14	24643.50
487.32	24556.90
487.50	24945.43
487.68	24856.49
487.85	25282.47
488.03	25544.61
488.21	25869.94
488.39	25956.54
488.57	26328.69
488.75	25900.37
488.92	26567.42
489.10	26841.26
489.28	26955.95
489.46	27145.53
489.64	27037.87
489.81	27716.62
489.99	27765.78
490.17	27875.78
490.35	28587.30
490.53	28212.82
490.70	28680.92
490.88	28336.87
491.06	28713.69
491.24	29032.00
491.41	29207.55
491.59	29144.35
491.77	29450.96
491.95	29565.65
492.13	29722.46
492.30	30370.79
492.48	30066.52
492.66	30204.61
492.84	30359.09
493.01	30707.83
493.19	30197.59
493.37	31112.74
493.54	31112.74
493.72	31070.61
493.90	31363.18
494.08	31585.53
494.25	32128.53
494.43	31950.65
494.61	32430.46
494.79	33046.02
494.96	32692.60
495.14	33031.98
495.32	33160.71
495.49	33179.43
495.67	33193.48
495.85	33500.09
496.02	34071.18
496.20	34216.29
496.38	34089.90
496.55	34457.37
496.73	34906.75
496.91	34361.40
497.09	34742.91
497.26	35445.07
497.44	34948.88
497.62	35337.41
497.79	35669.76
497.97	35693.17
498.14	36343.84
498.32	36231.49
498.50	36346.18
498.67	36795.56
498.85	36620.02
499.03	36634.06
499.20	36694.92
499.38	37333.89
499.56	37509.43
499.73	37282.39
499.91	37708.37
500.08	37624.11
500.26	37467.30
500.44	37352.61
500.61	37944.76
500.79	38099.24
500.97	38286.48
501.14	38515.86
501.32	38361.38
501.49	38998.01
501.67	39051.84
501.84	39164.18
502.02	39026.09
502.20	39016.73
502.37	39241.42
502.55	39365.47
502.72	39569.10
502.90	39805.49
503.07	40013.80
503.25	40051.25
503.43	39842.94
503.60	40109.76
503.78	40568.51
503.95	40467.86
504.13	40699.58
504.30	40765.11
504.48	40671.49
504.65	41263.64
504.83	41265.99
505.01	41289.39
505.18	41244.92
505.36	41668.56
505.53	41645.15
505.71	41801.97
505.88	42298.16
506.06	41282.37
506.23	42040.70
506.41	41734.09
506.58	42529.87
506.76	42234.97
506.93	42279.44
507.11	42408.17
507.28	42969.90
507.46	42878.61
507.63	42855.21
507.81	43140.75
507.98	43079.90
508.16	43189.91
508.33	43587.80
508.50	43805.47
508.68	43461.41
508.85	44397.62
509.03	43770.36
509.20	43966.96
509.38	44561.46
509.55	44399.96
509.73	44699.55
509.90	44404.64
510.08	44603.59
510.25	44729.98
510.42	45268.30
510.60	44971.05
510.77	45006.16
510.95	45808.96
511.12	45078.72
511.30	45642.79
511.47	45675.55
511.64	45794.92
511.82	46206.86
511.99	45848.75
512.17	46344.95
512.34	45958.76
512.51	45998.55
512.69	46614.11
512.86	46150.68
513.04	47065.83
513.21	46670.28
513.38	47082.22
513.56	47030.72
513.73	46951.15
513.90	47278.82
514.08	47297.55
514.25	47681.39
514.43	47466.06
514.60	47721.18
514.77	47632.24
514.95	47655.65
515.12	47782.04
515.29	47870.98
515.47	48137.80
515.64	48226.74
515.81	48177.59
515.99	48493.56
516.16	49111.46
516.33	48641.01
516.51	48870.39
516.68	48395.26
516.85	48746.34
517.03	49144.23
517.20	49242.53
517.37	49261.26
517.54	49097.42
517.72	49378.28
517.89	49567.87
518.06	49347.86
518.24	49694.25
518.41	49572.55
518.58	49546.80
518.75	49296.36
518.93	49785.54
519.10	49511.69
519.27	49715.32
519.45	49900.22
519.62	50204.49
519.79	50064.06
519.96	50227.90
520.14	50136.62
520.31	50513.44
520.48	50534.51
520.65	50380.03
520.83	50777.92
521.00	50590.68
521.17	50609.40
521.34	50773.24
521.52	51035.38
521.69	50791.97
521.86	51154.75
522.03	51164.11
522.20	51276.46
522.38	51887.34
522.55	51377.10
522.72	51278.80
522.89	51620.52
523.07	52006.70
523.24	51777.33
523.41	51941.17
523.58	51672.01
523.75	52172.88
523.92	51852.23
524.10	52090.96
524.27	52072.24
524.44	52137.77
524.61	52048.83
524.78	52332.04
524.96	52231.40
525.13	52428.00
525.30	52692.48
525.47	52858.66
525.64	52287.57
525.81	52875.04
525.98	53092.71
526.16	52811.85
526.33	52849.30
526.50	53078.67
526.67	52678.44
526.84	53076.33
527.01	53111.44
527.18	53172.29
527.36	53125.48
527.53	53172.29
527.70	53478.90
527.87	53411.02
528.04	53385.28
528.21	53523.37
528.38	53198.04
528.55	53764.45
528.72	53682.53
528.89	53268.25
529.07	53602.95
529.24	53652.10
529.41	53659.12
529.58	53640.40
529.75	53708.27
529.92	54026.59
530.09	54054.67
530.26	54284.04
530.43	54082.76
530.60	53900.20
530.77	54066.38
530.94	54314.47
531.11	53982.12
531.28	54342.56
531.46	54169.36
531.63	54422.14
531.80	54569.59
531.97	54330.86
532.14	54419.80
532.31	54581.29
532.48	54810.67
532.65	54845.77
532.82	54569.59
532.99	55018.97
533.16	54588.31
533.33	54815.35
533.50	55152.38
533.67	54780.24
533.84	54691.30
534.01	55271.75
534.18	55058.76
534.35	55302.18
534.52	55330.26
534.69	55229.62
534.86	55290.48
535.03	55496.44
535.20	55297.50
535.37	55295.16
535.54	55554.96
535.71	55297.50
535.88	55569.00
536.05	55477.72
536.22	55744.54
536.38	55763.26
536.55	55894.33
536.72	55819.44
536.89	55746.88
537.06	55650.92
537.23	55987.95
537.40	55805.39
537.57	55987.95
537.74	55913.06
537.91	56210.31
538.08	56126.05
538.25	55870.93
538.42	55945.83
538.59	56392.87
538.75	56016.04
538.92	56051.15
539.09	56310.95
539.26	56168.18
539.43	56512.23
539.60	56486.49
539.77	56458.40
539.94	56444.36
540.11	56559.05
540.28	56498.19
540.44	56685.43
540.61	56601.18
540.78	56479.47
540.95	56486.49
541.12	56486.49
541.29	56488.83
541.46	56509.89
541.62	56739.27
541.79	56928.85
541.96	56477.13
542.13	56584.79
542.30	56863.32
542.47	57109.07
542.63	56985.02
542.80	57144.18
542.97	56968.64
543.14	57090.35
543.31	57212.06
543.48	57160.56
543.64	57462.49
543.81	57347.81
543.98	57521.01
544.15	57528.03
544.32	57483.56
544.48	57776.12
544.65	57415.68
544.82	57368.87
544.99	57373.55
545.16	57813.57
545.32	57560.79
545.49	57616.97
545.66	58014.86
545.83	58047.63
546.00	57902.51
546.16	57729.31
546.33	57497.60
546.50	57729.31
546.67	57820.59
546.83	57499.94
547.00	58042.95
547.17	57733.99
547.34	57865.06
547.50	57928.26
547.67	58190.40
547.84	58003.16
548.00	58209.12
548.17	58178.70
548.34	58370.62
548.51	58382.32
548.67	58426.79
548.84	58412.75
549.01	58269.98
549.18	58314.45
549.34	58286.36
549.51	58349.56
549.68	58515.73
549.84	58382.32
550.01	58452.54
550.18	58377.64
550.34	58803.62
550.51	58581.27
550.68	58665.53
550.84	58354.24
551.01	58639.78
551.18	58578.93
551.34	58646.80
551.51	58511.05
551.68	58848.09
551.84	58761.49
552.01	58564.88
552.18	58714.68
552.34	58588.29
552.51	58787.24
552.68	58721.70
552.84	58607.01
553.01	58864.47
553.18	58941.71
553.34	59044.69
553.51	58670.21
553.67	58787.24
553.84	59306.83
554.01	58871.49
554.17	59065.76
554.34	59089.16
554.51	59086.82
554.67	59222.58
554.84	59213.21
555.00	59135.98
555.17	59210.87
555.33	58836.39
555.50	59004.91
555.67	58822.34
555.83	59236.62
556.00	59264.70
556.16	59611.10
556.33	59395.77
556.50	59234.28
556.66	59503.44
556.83	59084.48
556.99	59416.84
557.16	59803.03
557.32	59533.87
557.49	59629.83
557.65	59402.80
557.82	59482.37
557.98	59503.44
558.15	59330.24
558.32	59386.41
558.48	59426.20
558.65	59299.81
558.81	59599.40
558.98	59786.64
559.14	59678.98
559.31	59557.27
559.47	59707.07
559.64	59821.75
559.80	59924.74
559.97	59849.84
560.13	59669.62
560.30	59796.01
560.46	59894.31
560.63	59737.49
560.79	59702.38
560.96	60013.68
561.12	60001.97
561.29	59994.95
561.45	59973.89
561.61	59838.14
561.78	59973.89
561.94	59746.86
562.11	59976.23
562.27	59873.24
562.44	60023.04
562.60	60001.97
562.77	60130.70
562.93	59898.99
563.10	59950.48
563.26	60018.36
563.42	60214.96
563.59	60172.83
563.75	60058.15
563.92	60046.44
564.08	60205.60
564.24	60289.86
564.41	60322.63
564.57	60275.82
564.74	60179.85
564.90	60245.39
565.07	60100.28
565.23	60406.89
565.39	60296.88
565.56	60224.32
565.72	60404.55
565.88	60491.15
566.05	60289.86
566.21	60296.88
566.38	60502.85
566.54	60357.74
566.70	60348.37
566.87	60580.09
567.03	60200.92
567.19	60449.02
567.36	60395.18
567.52	60439.65
567.68	60692.43
567.85	60460.72
568.01	60741.58
568.17	60339.01
568.34	60507.53
568.50	60505.19
568.66	60568.38
568.83	60659.66
568.99	60247.73
569.15	60612.85
569.32	60589.45
569.48	60559.02
569.64	60481.78
569.81	60544.98
569.97	60781.37
570.13	60542.64
570.30	60423.27
570.46	60577.75
570.62	60823.50
570.78	60605.83
570.95	60554.34
571.11	60631.58
571.27	60664.35
571.43	60610.51
571.60	60790.73
571.76	60680.73
571.92	60753.29
572.09	60734.56
572.25	60699.45
572.41	60467.74
572.57	60544.98
572.74	60992.02
572.90	60734.56
573.06	60612.85
573.22	60584.77
573.38	60800.10
573.55	60676.05
573.71	60858.61
573.87	60818.82
574.03	60647.96
574.20	60828.18
574.36	60633.92
574.52	60898.40
574.68	60757.97
574.84	60917.12
575.01	60900.74
575.17	60694.77
575.33	60727.54
575.49	60734.56
575.65	60856.27
575.82	60917.12
575.98	60870.31
576.14	61179.26
576.30	60992.02
576.46	60830.52
576.62	60750.94
576.79	60870.31
576.95	60772.01
577.11	60985.00
577.27	61090.32
577.43	60898.40
577.59	60802.44
577.75	60762.65
577.92	60729.88
578.08	61052.87
578.24	61036.49
578.40	60846.91
578.56	61001.38
578.72	60858.61
578.88	60933.51
579.04	61205.01
579.21	60989.68
579.37	61263.52
579.53	61020.11
579.69	60781.37
579.85	61048.19
580.01	60886.70
580.17	61055.21
580.33	60884.36
580.49	61284.59
580.65	60996.70
580.82	60802.44
580.98	60973.30
581.14	60860.95
581.30	61095.00
581.46	60844.57
581.62	61024.79
581.78	60889.04
581.94	60987.34
582.10	61045.85
582.26	60893.72
582.42	60891.38
582.58	61069.26
582.74	60952.23
582.90	61200.33
583.06	61041.17
583.22	60832.86
583.38	61034.15
583.54	61233.10
583.70	61118.41
583.86	61041.17
584.02	60863.29
584.18	61013.08
584.34	61055.21
584.50	61315.01
584.66	61104.37
584.82	60860.95
584.98	61102.03
585.14	61216.71
585.30	61073.94
585.46	61144.16
585.62	61141.81
585.78	61256.50
585.94	60973.30
586.10	61219.05
586.26	61190.97
586.42	61300.97
586.58	61160.54
586.74	61165.22
586.90	61322.04
587.06	61263.52
587.22	61195.65
587.38	61144.16
587.54	61326.72
587.70	61221.39
587.86	61511.62
588.02	61125.43
588.18	61193.31
588.34	61146.50
588.49	61247.14
