SpectraSuite Data File
++++++++++++++++++++++++++++++++++++
Date: Fri Oct 25 10:43:13 EDT 2013
User: price-jones
Dark Spectrum Present: No
Reference Spectrum Present: No
Number of Sampled Component Spectra: 1
Spectrometers: USB2+H05261
Integration Time (usec): 100000 (USB2+H05261)
Spectra Averaged: 1 (USB2+H05261)
Boxcar Smoothing: 0 (USB2+H05261)
Correct for Electrical Dark: No (USB2+H05261)
Strobe/Lamp Enabled: No (USB2+H05261)
Correct for Detector Non-linearity: No (USB2+H05261)
Correct for Stray Light: No (USB2+H05261)
Number of Pixels in Processed Spectrum: 2048
>>>>>Begin Processed Spectral Data<<<<<
365.73	161.50
365.92	161.50
366.12	161.50
366.32	58.51
366.52	0.00
366.72	28.09
366.91	14.04
367.11	0.00
367.31	0.00
367.51	0.00
367.70	9.36
367.90	56.17
368.10	32.77
368.30	0.00
368.49	30.43
368.69	9.36
368.89	0.00
369.09	25.75
369.28	91.28
369.48	93.62
369.68	74.90
369.87	84.26
370.07	152.13
370.27	107.66
370.47	189.58
370.66	292.57
370.86	442.36
371.06	479.81
371.25	402.57
371.45	402.57
371.65	461.09
371.84	421.30
372.04	451.72
372.24	456.40
372.44	550.03
372.63	524.28
372.83	547.69
373.03	521.94
373.22	437.68
373.42	477.47
373.62	475.13
373.81	557.05
374.01	624.92
374.21	608.54
374.40	472.79
374.60	573.43
374.79	582.79
374.99	538.32
375.19	535.98
375.38	482.15
375.58	594.50
375.78	631.94
375.97	592.16
376.17	657.69
376.37	617.90
376.56	617.90
376.76	622.58
376.95	638.97
377.15	631.94
377.35	613.22
377.54	667.05
377.74	550.03
377.93	603.86
378.13	571.09
378.33	561.73
378.52	706.84
378.72	739.61
378.91	695.14
379.11	585.13
379.31	592.16
379.50	671.73
379.70	678.76
379.89	732.59
380.09	610.88
380.28	660.03
380.48	704.50
380.68	594.50
380.87	580.45
381.07	627.26
381.26	709.18
381.46	643.65
381.65	671.73
381.85	674.07
382.04	662.37
382.24	685.78
382.43	755.99
382.63	746.63
382.83	629.60
383.02	741.95
383.22	711.52
383.41	734.93
383.61	819.19
383.80	851.96
384.00	842.59
384.19	737.27
384.39	767.70
384.58	767.70
384.78	823.87
384.97	730.25
385.17	809.83
385.36	739.61
385.56	798.12
385.75	711.52
385.95	805.14
386.14	849.61
386.34	760.67
386.53	786.42
386.72	802.80
386.92	868.34
387.11	877.70
387.31	924.51
387.50	777.06
387.70	814.51
387.89	905.79
388.09	915.15
388.28	882.38
388.48	828.55
388.67	887.06
388.86	915.15
389.06	938.55
389.25	908.13
389.45	936.21
389.64	957.28
389.84	1022.81
390.03	957.28
390.22	875.36
390.42	919.83
390.61	1004.09
390.81	966.64
391.00	1001.75
391.19	1076.65
391.39	1111.75
391.58	1088.35
391.78	1041.54
391.97	1025.15
392.16	1046.22
392.36	1015.79
392.55	1083.67
392.75	936.21
392.94	1034.52
393.13	936.21
393.33	976.00
393.52	1013.45
393.71	1090.69
393.91	1034.52
394.10	1107.07
394.29	1144.52
394.49	1128.14
394.68	1259.21
394.88	1174.95
395.07	1224.10
395.26	1296.66
395.46	1203.04
395.65	1200.69
395.84	1315.38
396.04	1186.65
396.23	1118.78
396.42	1095.37
396.62	1191.33
396.81	1186.65
397.00	1172.61
397.19	1317.72
397.39	1301.34
397.58	1474.54
397.77	1469.86
397.97	1327.08
398.16	1413.68
398.35	1364.53
398.55	1432.41
398.74	1469.86
398.93	1612.63
399.12	1493.26
399.32	1481.56
399.51	1500.28
399.70	1558.80
399.90	1528.37
400.09	1535.39
400.28	1701.57
400.47	1584.54
400.67	1710.93
400.86	1703.91
401.05	1694.55
401.24	1687.53
401.44	1715.61
401.63	1558.80
401.82	1689.87
402.01	1643.06
402.21	1755.40
402.40	1610.29
402.59	1631.35
402.78	1657.10
402.97	1781.15
403.17	1797.53
403.36	1753.06
403.55	1792.85
403.74	1788.17
403.93	1804.55
404.13	1844.34
404.32	1827.96
404.51	1774.13
404.70	1863.07
404.89	1865.41
405.09	2019.88
405.28	1966.05
405.47	1996.48
405.66	1874.77
405.85	2001.16
406.05	1937.96
406.24	1970.73
406.43	2090.10
406.62	2005.84
406.81	2127.55
407.00	2057.33
407.20	2071.37
407.39	2005.84
407.58	2066.69
407.77	2106.48
407.96	2232.87
408.15	2326.49
408.34	2172.02
408.54	2092.44
408.73	2277.34
408.92	2235.21
409.11	2345.22
409.30	2289.04
409.49	2263.30
409.68	2324.15
409.87	2232.87
410.07	2340.54
410.26	2277.34
410.45	2345.22
410.64	2385.01
410.83	2492.67
411.02	2450.54
411.21	2487.99
411.40	2497.35
411.59	2579.27
411.78	2551.18
411.98	2684.59
412.17	2696.30
412.36	2656.51
412.55	2668.21
412.74	2703.32
412.93	2813.32
413.12	2691.62
413.31	2848.43
413.50	2855.45
413.69	2750.13
413.88	2867.16
414.07	2885.88
414.26	2857.79
414.45	2883.54
414.64	3012.27
414.83	3091.85
415.02	2862.48
415.22	3089.51
415.41	3215.90
415.60	3122.27
415.79	3129.30
415.98	3215.90
416.17	3229.94
416.36	3295.47
416.55	3370.37
416.74	3330.58
416.93	3166.74
417.12	3419.52
417.31	3407.82
417.50	3286.11
417.69	3468.67
417.88	3363.35
418.07	3407.82
418.26	3358.67
418.45	3508.46
418.64	3527.19
418.83	3592.72
419.02	3529.53
419.21	3606.77
419.39	3588.04
419.58	3459.31
419.77	3541.23
419.96	3599.74
420.15	3641.87
420.34	3721.45
420.53	3838.48
420.72	3822.09
420.91	3850.18
421.10	3700.39
421.29	3819.75
421.48	3761.24
421.67	3810.39
421.86	3889.97
422.05	3789.33
422.24	3698.05
422.43	3758.90
422.61	3779.97
422.80	3901.67
422.99	3854.86
423.18	3925.08
423.37	3950.82
423.56	3983.59
423.75	3850.18
423.94	3847.84
424.13	3651.24
424.32	3674.64
424.50	3999.98
424.69	3960.19
424.88	4067.85
425.07	3901.67
425.26	3833.80
425.45	3960.19
425.64	3925.08
425.83	3932.10
426.01	4018.70
426.20	3908.69
426.39	3981.25
426.58	3929.76
426.77	3964.87
426.96	3878.27
427.15	3990.61
427.33	4030.40
427.52	4063.17
427.71	4105.30
427.90	4184.88
428.09	4140.41
428.28	4250.41
428.46	4170.83
428.65	4170.83
428.84	4255.09
429.03	4161.47
429.22	4140.41
429.40	4109.98
429.59	4168.49
429.78	3929.76
429.97	3850.18
430.16	3934.44
430.34	4011.68
430.53	4056.15
430.72	4152.11
430.91	4212.96
431.10	4376.80
431.28	4395.53
431.47	4723.20
431.66	4599.15
431.85	4482.13
432.03	4692.77
432.22	4706.82
432.41	4662.35
432.60	4657.67
432.79	4667.03
432.97	4842.57
433.16	4718.52
433.35	4498.51
433.54	4627.24
433.72	4725.54
433.91	4580.43
434.10	4627.24
434.28	4723.20
434.47	4770.01
434.66	4884.70
434.85	4882.36
435.03	4823.84
435.22	4830.87
435.41	5205.35
435.59	4983.00
435.78	4931.51
435.97	5130.45
436.16	5093.01
436.34	5018.11
436.53	5006.41
436.72	5188.97
436.90	5060.24
437.09	5130.45
437.28	5132.79
437.46	5123.43
437.65	5273.23
437.84	5238.12
438.02	5130.45
438.21	5039.17
438.40	5221.74
438.58	5327.06
438.77	5352.81
438.96	5416.00
439.14	5366.85
439.33	5462.81
439.52	5645.37
439.70	5544.73
439.89	5694.52
440.08	5607.92
440.26	5731.97
440.45	5619.63
440.63	5994.11
440.82	5919.21
441.01	5881.77
441.19	5921.56
441.38	5994.11
441.57	6272.64
441.75	6132.20
441.94	6108.80
442.12	6333.49
442.31	6157.95
442.50	6274.98
442.68	6305.40
442.87	6333.49
443.05	6340.51
443.24	6232.85
443.43	6513.71
443.61	6300.72
443.80	6656.48
443.98	6366.26
444.17	6340.51
444.35	6509.03
444.54	6403.71
444.73	6607.33
444.91	6565.20
445.10	6338.17
445.28	6392.00
445.47	6462.22
445.65	6354.55
445.84	6450.52
446.02	6527.75
446.21	6427.11
446.39	6459.88
446.58	6635.42
446.77	6462.22
446.95	6492.65
447.14	6628.40
447.32	6764.15
447.51	6551.16
447.69	6607.33
447.88	6642.44
448.06	6778.19
448.25	6623.72
448.43	6597.97
448.62	6722.02
448.80	6595.63
448.99	6935.01
449.17	6853.09
449.36	6869.47
449.54	7019.27
449.73	7035.65
449.91	7169.06
450.10	6909.26
450.28	7148.00
450.46	7250.98
450.65	7136.29
450.83	7295.45
451.02	7159.70
451.20	7396.09
451.39	7332.90
451.57	7220.55
451.76	7049.69
451.94	7115.23
452.13	7117.57
452.31	7157.36
452.49	7185.44
452.68	7021.61
452.86	7021.61
453.05	7098.84
453.23	7314.17
453.42	7096.50
453.60	7321.20
453.78	7384.39
453.97	7344.60
454.15	7213.53
454.34	7318.86
454.52	7485.03
454.70	7459.29
454.89	7482.69
455.07	7599.72
455.26	7639.51
455.44	7566.95
455.62	7716.75
455.81	7756.54
455.99	7829.09
456.17	7698.02
456.36	7894.63
456.54	7723.77
456.73	7962.50
456.91	8121.66
457.09	7992.93
457.28	8154.43
457.46	8191.88
457.64	8161.45
457.83	8021.02
458.01	8091.23
458.19	8184.85
458.38	8058.46
458.56	8152.09
458.74	8051.44
458.93	8243.37
459.11	8278.47
459.29	8032.72
459.48	8339.33
459.66	8173.15
459.84	8329.97
460.03	8545.30
460.21	8599.13
460.39	8615.51
460.57	8585.08
460.76	8514.87
460.94	8383.80
461.12	8589.77
461.31	8533.59
461.49	8589.77
461.67	8681.05
461.85	8945.53
462.04	8809.78
462.22	9308.31
462.40	8793.39
462.59	8727.86
462.77	8966.59
462.95	8889.35
463.13	8940.85
463.32	9039.15
463.50	8961.91
463.68	8858.93
463.86	8947.87
464.05	8894.04
464.23	8952.55
464.41	9008.72
464.59	8842.54
464.78	9146.81
464.96	9090.64
465.14	8926.80
465.32	9266.18
465.50	9137.45
465.69	9100.00
465.87	9074.26
466.05	9170.22
466.23	9177.24
466.41	9277.88
466.60	9329.38
466.78	9247.46
466.96	9371.50
467.14	9383.21
467.32	9256.82
467.51	9338.74
467.69	9226.39
467.87	9387.89
468.05	9174.90
468.23	9401.93
468.41	9394.91
468.60	9357.46
468.78	9479.17
468.96	9387.89
469.14	9628.96
469.32	9654.71
469.50	9327.03
469.69	9495.55
469.87	9666.41
470.05	9886.42
470.23	9689.82
470.41	9713.22
470.59	10038.56
470.77	9884.08
470.95	9891.10
471.14	9935.57
471.32	9823.23
471.50	10256.23
471.68	10251.55
471.86	10181.33
472.04	10181.33
472.22	10567.52
472.40	10349.85
472.58	10312.40
472.77	10387.30
472.95	10434.11
473.13	10892.85
473.31	10310.06
473.49	10539.43
473.67	10579.22
473.85	10586.24
474.03	10906.90
474.21	10846.04
474.39	10977.11
474.57	10637.73
474.75	11239.25
474.93	10977.11
475.12	10986.47
475.30	11234.57
475.48	11052.01
475.66	11293.08
475.84	11274.36
476.02	11246.27
476.20	11267.34
476.38	11606.72
476.56	11749.49
476.74	11784.60
476.92	11688.64
477.10	11826.73
477.28	12119.29
477.46	11737.79
477.64	12095.89
477.82	12194.19
478.00	12559.31
478.18	12334.62
478.36	12737.20
478.54	12636.55
478.72	12610.81
478.90	12776.98
479.08	13186.58
479.26	12931.46
479.44	13289.56
479.62	13336.37
479.80	13107.00
479.98	13132.75
480.16	13650.00
480.34	13490.85
480.52	13638.30
480.70	13547.02
480.88	13488.51
481.06	14068.96
481.24	13942.57
481.41	14260.88
481.59	14370.89
481.77	14462.17
481.95	14284.29
482.13	14525.36
482.31	14469.19
482.49	14876.44
482.67	14787.50
482.85	14998.15
483.03	15150.29
483.21	15456.90
483.39	15208.80
483.57	15405.41
483.74	15330.51
483.92	15489.67
484.10	15377.32
484.28	15880.53
484.46	15974.16
484.64	16545.25
484.82	15948.41
485.00	16379.07
485.18	16388.43
485.35	16126.29
485.53	15971.82
485.71	15866.49
485.89	16147.36
486.07	16215.23
486.25	16917.39
486.43	16716.11
486.61	17130.38
486.78	17289.54
486.96	17184.21
487.14	17460.40
487.32	17752.96
487.50	17640.62
487.68	17963.61
487.85	18331.08
488.03	18499.59
488.21	18274.90
488.39	18286.61
488.57	18450.44
488.75	18780.46
488.92	18782.80
489.10	19082.39
489.28	19147.92
489.46	19381.98
489.64	19625.39
489.81	19857.10
489.99	20056.05
490.17	19917.96
490.35	20236.27
490.53	20133.29
490.70	20369.68
490.88	20386.07
491.06	20617.78
491.24	20622.46
491.41	20428.20
491.59	20835.45
491.77	20996.95
491.95	20879.92
492.13	21020.35
492.30	21458.03
492.48	21406.54
492.66	21738.90
492.84	21750.60
493.01	21979.97
493.19	21979.97
493.37	22394.25
493.54	22155.51
493.72	22284.24
493.90	22270.20
494.08	22874.06
494.25	23007.47
494.43	23311.74
494.61	23232.16
494.79	23307.05
494.96	23278.97
495.14	23035.55
495.32	23398.34
495.49	23419.40
495.67	23611.32
495.85	23826.65
496.02	24133.26
496.20	23953.04
496.38	24142.63
496.55	24570.94
496.73	24950.11
496.91	24652.86
497.09	24760.53
497.26	25085.86
497.44	25046.07
497.62	24833.08
497.79	25106.93
497.97	25252.04
498.14	25366.73
498.32	25811.43
498.50	25102.25
498.67	25862.92
498.85	25528.22
499.03	26363.79
499.20	26389.54
499.38	26405.92
499.56	26286.56
499.73	26272.51
499.91	26457.42
500.08	26480.82
500.26	26082.93
500.44	26401.24
500.61	26794.45
500.79	26508.91
500.97	27096.38
501.14	26731.26
501.32	26724.24
501.49	26501.89
501.67	27271.92
501.84	27206.39
502.02	26948.93
502.20	27520.02
502.37	27480.23
502.55	27669.81
502.72	27927.27
502.90	27922.59
503.07	27707.26
503.25	28100.47
503.43	27742.37
503.60	28063.02
503.78	27880.46
503.95	28051.32
504.13	28285.37
504.30	29006.26
504.48	28409.42
504.65	28680.92
504.83	28865.83
505.01	28950.09
505.18	28929.02
505.36	29415.85
505.53	29167.76
505.71	29425.22
505.88	29469.69
506.06	28919.66
506.23	29439.26
506.41	29511.81
506.58	29699.06
506.76	29862.90
506.93	29631.18
507.11	29392.45
507.28	29504.79
507.46	29919.07
507.63	29567.99
507.81	29996.31
507.98	30118.01
508.16	30183.55
508.33	30281.85
508.50	30656.34
508.68	30600.16
508.85	31154.87
509.03	30670.38
509.20	30925.50
509.38	31234.45
509.55	31243.81
509.73	31424.03
509.90	30958.27
510.08	31512.97
510.25	31194.66
510.42	31187.64
510.60	31700.22
510.77	31262.54
510.95	31737.66
511.12	31438.08
511.30	31714.26
511.47	31957.67
511.64	32268.97
511.82	31903.84
511.99	31915.54
512.17	32278.33
512.34	31899.16
512.51	32552.17
512.69	32481.95
512.86	32390.67
513.04	32575.58
513.21	32285.35
513.38	32556.85
513.56	32603.66
513.73	32680.90
513.90	32804.95
514.08	32563.87
514.25	32980.49
514.43	32694.94
514.60	32905.59
514.77	32992.19
514.95	33242.63
515.12	33378.38
515.29	33223.90
515.47	33663.93
515.64	33811.38
515.81	33544.56
515.99	33427.53
516.16	33970.54
516.33	33160.71
516.51	33766.91
516.68	32975.81
516.85	32669.20
517.03	33268.37
517.20	33745.84
517.37	34143.74
517.54	34106.29
517.72	33998.62
517.89	33628.82
518.06	33684.99
518.24	34185.86
518.41	34363.75
518.58	34230.33
518.75	34490.13
518.93	34670.36
519.10	34440.98
519.27	34466.73
519.45	34883.34
519.62	34803.77
519.79	35056.54
519.96	35079.95
520.14	34998.03
520.31	34635.25
520.48	35271.87
520.65	35098.67
520.83	35531.67
521.00	35615.93
521.17	35866.37
521.34	35889.77
521.52	35782.11
521.69	36091.06
521.86	35889.77
522.03	35739.98
522.20	35473.16
522.38	36210.43
522.55	36486.61
522.72	36229.15
522.89	36105.10
523.07	36563.85
523.24	36287.67
523.41	36734.71
523.58	36598.96
523.75	36893.86
523.92	36847.05
524.10	36898.55
524.27	36727.69
524.44	36863.44
524.61	37074.09
524.78	36982.80
524.96	36816.63
525.13	37209.84
525.30	37425.17
525.47	37769.22
525.64	36989.83
525.81	37380.70
525.98	37865.19
526.16	37015.57
526.33	36935.99
526.50	37263.67
526.67	36596.62
526.84	37474.32
527.01	37013.23
527.18	37460.27
527.36	37785.61
527.53	37975.19
527.70	38426.92
527.87	37961.15
528.04	37551.56
528.21	38155.41
528.38	38080.52
528.55	38539.26
528.72	38686.71
528.89	38553.30
529.07	38377.76
529.24	38209.25
529.41	37989.24
529.58	38466.70
529.75	38181.16
529.92	38340.32
530.09	39012.05
530.26	39133.76
530.43	38892.68
530.60	38408.19
530.77	38873.96
530.94	39159.50
531.11	39201.63
531.28	39108.01
531.46	39316.32
531.63	39335.04
531.80	38937.15
531.97	39253.12
532.14	38841.19
532.31	39051.84
532.48	38920.77
532.65	39290.57
532.82	38892.68
532.99	39746.98
533.16	39763.36
533.33	39913.16
533.50	39533.99
533.67	39679.10
533.84	39847.62
534.01	40109.76
534.18	39030.77
534.35	39966.99
534.52	39920.18
534.69	39779.74
534.86	40123.80
535.03	40470.20
535.20	40273.60
535.37	40224.45
535.54	40877.46
535.71	40378.92
535.88	40346.15
536.05	40437.44
536.22	40783.83
536.38	40383.60
536.55	40439.78
536.72	40605.95
536.89	39866.34
537.06	40580.21
537.23	40931.29
537.40	40666.81
537.57	40931.29
537.74	40844.69
537.91	41127.89
538.08	40509.99
538.25	40638.72
538.42	41120.87
538.59	40950.01
538.75	40643.40
538.92	41020.23
539.09	41041.29
539.26	41235.56
539.43	41081.08
539.60	40914.90
539.77	40547.44
539.94	41383.01
540.11	40725.32
540.28	40994.48
540.44	41057.68
540.61	41394.71
540.78	40708.94
540.95	41640.47
541.12	40952.35
541.29	41111.51
541.46	41205.13
541.62	41258.96
541.79	41766.86
541.96	41240.24
542.13	41125.55
542.30	41720.05
542.47	41694.30
542.63	41443.87
542.80	41895.59
542.97	41918.99
543.14	42038.36
543.31	42506.47
543.48	42529.87
543.64	42426.89
543.81	42782.65
543.98	42232.63
544.15	42642.22
544.32	42440.93
544.48	42822.44
544.65	42525.19
544.82	42490.09
544.99	42410.51
545.16	42309.86
545.32	42323.91
545.49	43009.68
545.66	43262.46
545.83	42815.42
546.00	42770.95
546.16	42623.50
546.33	43194.59
546.50	42190.50
546.67	43086.92
546.83	42436.25
547.00	42777.97
547.17	43047.13
547.34	42880.95
547.50	42941.81
547.67	43164.16
547.84	42895.00
548.00	43433.32
548.17	43274.16
548.34	43309.27
548.51	43578.43
548.67	43505.88
548.84	43267.14
549.01	43086.92
549.18	43227.35
549.34	43583.12
549.51	43634.61
549.68	43482.47
549.84	43627.59
550.01	43498.86
550.18	43746.95
550.34	43833.55
550.51	43524.60
550.68	43578.43
550.84	43426.30
551.01	43438.00
551.18	43948.24
551.34	43875.68
551.51	43915.47
551.68	43817.17
551.84	43672.06
552.01	43477.79
552.18	43786.74
552.34	43636.95
552.51	43854.62
552.68	43718.87
552.84	44112.08
553.01	44158.89
553.18	43772.70
553.34	44222.08
553.51	44217.40
553.67	44238.47
553.84	44856.37
554.01	44662.10
554.17	44861.05
554.34	44837.64
554.51	44453.79
554.67	44268.89
554.84	44626.99
555.00	44109.74
555.17	44076.97
555.33	44837.64
555.50	44678.49
555.67	44587.21
555.83	44594.23
556.00	44580.18
556.16	44720.62
556.33	44149.53
556.50	44238.47
556.66	44648.06
556.83	44289.96
556.99	44720.62
557.16	44594.23
557.32	44514.65
557.49	44619.97
557.65	44676.15
557.82	44645.72
557.98	44744.02
558.15	44641.04
558.32	44545.08
558.48	44484.22
558.65	44481.88
558.81	44250.17
558.98	44388.26
559.14	44870.41
559.31	44437.41
559.47	44552.10
559.64	44865.73
559.80	45024.89
559.97	44638.70
560.13	44465.50
560.30	44830.62
560.46	44982.76
560.63	45041.27
560.79	45254.26
560.96	45567.89
561.12	45139.57
561.29	44828.28
561.45	45013.18
561.61	45017.86
561.78	44645.72
561.94	45406.39
562.11	45034.25
562.27	44975.73
562.44	44905.52
562.60	45181.70
562.77	45123.19
562.93	45003.82
563.10	45478.95
563.26	44872.75
563.42	45242.56
563.59	45310.43
563.75	45434.48
563.92	45413.41
564.08	45567.89
564.24	45387.67
564.41	44886.79
564.57	45090.42
564.74	45015.52
564.90	45223.83
565.07	44837.64
565.23	45380.65
565.39	45436.82
565.56	45476.61
565.72	44975.73
565.88	45525.76
566.05	44891.48
566.21	45153.62
566.38	45081.06
566.54	45481.29
566.70	45844.07
566.87	45947.06
567.03	45808.96
567.19	45579.59
567.36	45827.69
567.52	45675.55
567.68	45610.02
567.85	45071.70
568.01	45385.33
568.17	45780.88
568.34	45610.02
568.50	45600.66
568.66	45162.98
568.83	45794.92
568.99	45160.64
569.15	45769.18
569.32	45186.38
569.48	45654.49
569.64	45485.97
569.81	45762.15
569.97	45846.41
570.13	45483.63
570.30	44741.68
570.46	45270.64
570.62	45195.74
570.78	44982.76
570.95	45010.84
571.11	45460.23
571.27	45315.11
571.43	45366.60
571.60	45277.66
571.76	45291.71
571.92	45399.37
572.09	45518.74
572.25	45790.24
572.41	45792.58
572.57	46059.40
572.74	45935.35
572.90	45574.91
573.06	46143.66
573.22	45680.24
573.38	45504.70
573.55	45624.06
573.71	45567.89
573.87	45483.63
574.03	45378.31
574.20	45284.68
574.36	45443.84
574.52	45502.35
574.68	45460.23
574.84	45212.13
575.01	45523.42
575.17	45471.93
575.33	45247.24
575.49	45434.48
575.65	45776.20
575.82	45593.64
575.98	45518.74
576.14	45713.00
576.30	45729.39
576.46	45434.48
576.62	45333.84
576.79	45815.99
576.95	45488.31
577.11	45265.96
577.27	45368.94
577.43	45387.67
577.59	45516.40
577.75	45741.09
577.92	45406.39
578.08	45439.16
578.24	45357.24
578.40	45361.92
578.56	45633.42
578.72	45492.99
578.88	45930.67
579.04	45947.06
579.21	45993.87
579.37	45504.70
579.53	45574.91
579.69	45216.81
579.85	45565.55
580.01	45837.05
580.17	45762.15
580.33	45916.63
580.49	45940.04
580.65	45507.04
580.82	45663.85
580.98	45464.91
581.14	45502.35
581.30	45680.24
581.46	45886.20
581.62	45762.15
581.78	45462.57
581.94	45942.38
582.10	45661.51
582.26	45942.38
582.42	45965.78
582.58	45823.01
582.74	45677.90
582.90	45525.76
583.06	45586.61
583.22	45701.30
583.38	45860.46
583.54	46024.29
583.70	45762.15
583.86	46265.37
584.02	45773.86
584.18	45853.44
584.34	45780.88
584.50	45422.78
584.66	45839.39
584.82	45935.35
584.98	45811.31
585.14	45794.92
585.30	45717.68
585.46	45514.06
585.62	45450.86
585.78	45701.30
585.94	45624.06
586.10	45509.38
586.26	45495.33
586.42	46349.63
586.58	45888.54
586.74	46138.98
586.90	45783.22
587.06	45738.75
587.22	46162.39
587.38	45581.93
587.54	45778.54
587.70	45556.19
587.86	45757.47
588.02	45558.53
588.18	46059.40
588.34	45567.89
588.49	45378.31
588.65	44809.56
588.81	45315.11
588.97	45408.73
589.13	45535.12
589.29	45404.05
589.45	45317.45
589.61	45326.81
589.77	45502.35
589.93	45925.99
590.08	45834.71
