SpectraSuite Data File
++++++++++++++++++++++++++++++++++++
Date: Fri Oct 25 11:26:26 EDT 2013
User: price-jones
Dark Spectrum Present: No
Reference Spectrum Present: No
Number of Sampled Component Spectra: 1
Spectrometers: USB2+H05261
Integration Time (usec): 100000 (USB2+H05261)
Spectra Averaged: 1 (USB2+H05261)
Boxcar Smoothing: 0 (USB2+H05261)
Correct for Electrical Dark: No (USB2+H05261)
Strobe/Lamp Enabled: No (USB2+H05261)
Correct for Detector Non-linearity: No (USB2+H05261)
Correct for Stray Light: No (USB2+H05261)
Number of Pixels in Processed Spectrum: 2048
>>>>>Begin Processed Spectral Data<<<<<
365.73	266.82
365.92	266.82
366.12	266.82
366.32	250.44
366.52	212.99
366.72	184.90
366.91	187.24
367.11	173.20
367.31	107.66
367.51	142.77
367.70	175.54
367.90	184.90
368.10	159.16
368.30	156.82
368.49	88.94
368.69	138.09
368.89	126.39
369.09	128.73
369.28	191.92
369.48	107.66
369.68	163.84
369.87	156.82
370.07	250.44
370.27	231.71
370.47	337.04
370.66	620.24
370.86	657.69
371.06	648.33
371.25	690.46
371.45	678.76
371.65	716.20
371.84	748.97
372.04	786.42
372.24	723.23
372.44	690.46
372.63	744.29
372.83	774.72
373.03	685.78
373.22	755.99
373.42	767.70
373.62	744.29
373.81	793.44
374.01	793.44
374.21	802.80
374.40	793.44
374.60	943.24
374.79	863.66
374.99	805.14
375.19	849.61
375.38	847.27
375.58	875.36
375.78	908.13
375.97	910.47
376.17	898.77
376.37	861.32
376.56	781.74
376.76	915.15
376.95	915.15
377.15	858.98
377.35	866.00
377.54	940.90
377.74	945.58
377.93	922.17
378.13	961.96
378.33	968.98
378.52	919.83
378.72	943.24
378.91	903.45
379.11	976.00
379.31	952.60
379.50	933.87
379.70	964.30
379.89	910.47
380.09	901.11
380.28	947.92
380.48	1011.11
380.68	990.05
380.87	987.71
381.07	990.05
381.26	1093.03
381.46	1055.58
381.65	1078.99
381.85	1001.75
382.04	1048.56
382.24	1069.62
382.43	1043.88
382.63	1130.48
382.83	1109.41
383.02	1100.05
383.22	1188.99
383.41	1135.16
383.61	1081.33
383.80	1121.12
384.00	1165.59
384.19	1135.16
384.39	1186.65
384.58	1203.04
384.78	1163.25
384.97	1163.25
385.17	1256.87
385.36	1186.65
385.56	1249.85
385.75	1146.86
385.95	1170.27
386.14	1214.74
386.34	1219.42
386.53	1193.67
386.72	1270.91
386.92	1270.91
387.11	1149.20
387.31	1334.11
387.50	1275.59
387.70	1193.67
387.89	1259.21
388.09	1270.91
388.28	1301.34
388.48	1383.26
388.67	1299.00
388.86	1338.79
389.06	1275.59
389.25	1418.36
389.45	1423.05
389.64	1413.68
389.84	1324.74
390.03	1310.70
390.22	1397.30
390.42	1455.81
390.61	1284.95
390.81	1352.83
391.00	1441.77
391.19	1399.64
391.39	1521.35
391.58	1439.43
391.78	1465.18
391.97	1474.54
392.16	1451.13
392.36	1495.60
392.55	1495.60
392.75	1523.69
392.94	1537.73
393.13	1519.01
393.33	1509.65
393.52	1490.92
393.71	1621.99
393.91	1577.52
394.10	1605.61
394.29	1668.80
394.49	1593.90
394.68	1612.63
394.88	1526.03
395.07	1629.01
395.26	1612.63
395.46	1640.72
395.65	1727.32
395.84	1757.74
396.04	1687.53
396.23	1788.17
396.42	1746.04
396.62	1699.23
396.81	1748.38
397.00	1870.09
397.19	1790.51
397.39	1776.47
397.58	1930.94
397.77	1870.09
397.97	1802.21
398.16	1837.32
398.35	1940.30
398.55	1820.94
398.74	1966.05
398.93	1982.43
399.12	1811.57
399.32	1877.11
399.51	1905.20
399.70	1933.28
399.90	1893.49
400.09	1968.39
400.28	2083.08
400.47	2001.16
400.67	1984.77
400.86	2167.34
401.05	2050.31
401.24	2045.63
401.44	2204.78
401.63	2160.31
401.82	2127.55
402.01	2162.66
402.21	2293.72
402.40	2139.25
402.59	2296.07
402.78	2263.30
402.97	2190.74
403.17	2253.94
403.36	2289.04
403.55	2263.30
403.74	2335.85
403.93	2363.94
404.13	2396.71
404.32	2204.78
404.51	2267.98
404.70	2394.37
404.89	2385.01
405.09	2429.48
405.28	2415.43
405.47	2394.37
405.66	2476.29
405.85	2504.37
406.05	2396.71
406.24	2464.58
406.43	2532.46
406.62	2649.49
406.81	2717.36
407.00	2612.04
407.20	2619.06
407.39	2555.86
407.58	2679.91
407.77	2834.39
407.96	2787.58
408.15	2775.88
408.34	2644.81
408.54	2698.64
408.73	2663.53
408.92	2689.28
409.11	2818.00
409.30	2881.20
409.49	2958.44
409.68	2778.22
409.87	2988.86
410.07	2864.82
410.26	2881.20
410.45	2986.52
410.64	2937.37
410.83	3141.00
411.02	3162.06
411.21	3157.38
411.40	3211.22
411.59	3213.56
411.78	3075.46
411.98	3155.04
412.17	3302.50
412.36	3321.22
412.55	3384.41
412.74	3337.60
412.93	3307.18
413.12	3393.78
413.31	3571.66
413.50	3503.78
413.69	3543.57
413.88	3513.14
414.07	3545.91
414.26	3527.19
414.45	3576.34
414.64	3632.51
414.83	3676.98
415.02	3754.22
415.22	3737.84
415.41	3866.56
415.60	3880.61
415.79	3822.09
415.98	3974.23
416.17	3887.63
416.36	3801.03
416.55	3992.95
416.74	4109.98
416.93	4004.66
417.12	4009.34
417.31	4079.55
417.50	4112.32
417.69	4348.72
417.88	4250.41
418.07	4299.56
418.26	4229.35
418.45	4337.01
418.64	4435.32
418.83	4311.27
419.02	4496.17
419.21	4524.26
419.39	4369.78
419.58	4503.19
419.77	4355.74
419.96	4554.68
420.15	4414.25
420.34	4521.92
420.53	4571.07
420.72	4709.16
420.91	4589.79
421.10	4704.48
421.29	4865.97
421.48	4685.75
421.67	4823.84
421.86	4863.63
422.05	4627.24
422.24	4725.54
422.43	4798.10
422.61	4903.42
422.80	4952.57
422.99	4889.38
423.18	5088.32
423.37	4975.98
423.56	4884.70
423.75	4854.27
423.94	4898.74
424.13	4606.17
424.32	4795.76
424.50	4990.02
424.69	5046.20
424.88	5046.20
425.07	4858.95
425.26	4840.23
425.45	5032.15
425.64	4964.28
425.83	5008.75
426.01	5090.67
426.20	5069.60
426.39	4971.30
426.58	4999.38
426.77	4938.53
426.96	5146.84
427.15	5039.17
427.33	5245.14
427.52	5043.85
427.71	5289.61
427.90	5273.23
428.09	5284.93
428.28	5296.63
428.46	5432.38
428.65	5301.31
428.84	5434.72
429.03	5540.05
429.22	5334.08
429.40	5530.69
429.59	5579.84
429.78	5249.82
429.97	5130.45
430.16	5408.98
430.34	5659.42
430.53	5626.65
430.72	5678.14
430.91	5661.76
431.10	5533.03
431.28	5586.86
431.47	5818.57
431.66	5678.14
431.85	5640.69
432.03	5874.74
432.22	6022.20
432.41	5982.41
432.60	5839.64
432.79	5996.45
432.97	6029.22
433.16	5923.90
433.35	6038.58
433.54	6059.65
433.72	6113.48
433.91	6022.20
434.10	6179.01
434.28	6038.58
434.47	6253.91
434.66	6204.76
434.85	6174.33
435.03	6078.37
435.22	6207.10
435.41	6317.11
435.59	6179.01
435.78	6260.93
435.97	6300.72
436.16	6256.25
436.34	6335.83
436.53	6434.13
436.72	6497.33
436.90	6282.00
437.09	6574.56
437.28	6408.39
437.46	6644.78
437.65	6745.42
437.84	6759.47
438.02	6806.28
438.21	6623.72
438.40	6504.35
438.58	7028.63
438.77	6995.86
438.96	6855.43
439.14	7059.06
439.33	7229.91
439.52	7152.68
439.70	7023.95
439.89	7468.65
440.08	7227.57
440.26	7213.53
440.45	7255.66
440.63	7407.80
440.82	7508.44
441.01	7426.52
441.19	7468.65
441.38	7613.76
441.57	7749.51
441.75	7770.58
441.94	7868.88
442.12	7936.76
442.31	7894.63
442.50	7978.89
442.68	7751.85
442.87	7962.50
443.05	8203.58
443.24	8109.96
443.43	8070.17
443.61	8245.71
443.80	8477.42
443.98	7801.01
444.17	7908.67
444.35	8002.29
444.54	8226.98
444.73	8381.46
444.91	8116.98
445.10	8334.65
445.28	8311.24
445.47	8194.22
445.65	8112.30
445.84	8531.25
446.02	8505.51
446.21	8290.18
446.39	8362.73
446.58	8372.10
446.77	8451.67
446.95	8318.26
447.14	8472.74
447.32	8250.39
447.51	8374.44
447.69	8400.18
447.88	8376.78
448.06	8444.65
448.25	8376.78
448.43	8475.08
448.62	8334.65
448.80	8280.82
448.99	8500.83
449.17	8819.14
449.36	8671.68
449.54	8870.63
449.73	8908.08
449.91	8805.10
450.10	8872.97
450.28	9121.07
450.46	8903.40
450.65	8809.78
450.83	8954.89
451.02	8915.10
451.20	9102.34
451.39	8945.53
451.57	9125.75
451.76	9060.21
451.94	9170.22
452.13	9303.63
452.31	9352.78
452.49	9076.60
452.68	9247.46
452.86	9172.56
453.05	9362.14
453.23	9563.43
453.42	9329.38
453.60	9179.58
453.78	9558.75
453.97	9444.06
454.15	9472.15
454.34	9418.32
454.52	9479.17
454.70	9657.05
454.89	9582.15
455.07	9818.55
455.26	9996.43
455.44	9940.26
455.62	9994.09
455.81	9621.94
455.99	10111.11
456.17	9893.44
456.36	10078.35
456.54	9987.07
456.73	10181.33
456.91	10410.70
457.09	10424.75
457.28	10429.43
457.46	10225.80
457.64	10736.04
457.83	10656.46
458.01	10333.47
458.19	10588.58
458.38	10497.30
458.56	10478.58
458.74	10698.59
458.93	10654.12
459.11	10391.98
459.29	10885.83
459.48	10848.38
459.66	11000.52
459.84	11044.99
460.03	10942.00
460.21	10871.79
460.39	10988.82
460.57	10967.75
460.76	10991.16
460.94	11063.71
461.12	11094.14
461.31	11068.39
461.49	11040.31
461.67	11265.00
461.85	11286.06
462.04	11059.03
462.22	11487.35
462.40	11417.13
462.59	11342.24
462.77	11316.49
462.95	11566.93
463.13	11485.01
463.32	11475.65
463.50	11740.13
463.68	11772.89
463.86	12088.87
464.05	11653.53
464.23	11470.97
464.41	11775.24
464.59	11426.50
464.78	11939.07
464.96	11803.32
465.14	11733.11
465.32	11962.48
465.50	11868.86
465.69	12009.29
465.87	11936.73
466.05	11962.48
466.23	12187.17
466.41	12226.96
466.60	12542.93
466.78	12163.76
466.96	12131.00
467.14	12184.83
467.32	12257.39
467.51	12264.41
467.69	12210.57
467.87	12400.16
468.05	12388.46
468.23	12285.47
468.41	12402.50
468.60	12620.17
468.78	12587.40
468.96	12458.67
469.14	12461.01
469.32	13041.46
469.50	12463.35
469.69	12849.54
469.87	13139.77
470.05	13027.42
470.23	13036.78
470.41	13034.44
470.59	13305.95
470.77	13057.85
470.95	13114.02
471.14	13507.23
471.32	12931.46
471.50	13755.33
471.68	13558.72
471.86	13544.68
472.04	13771.71
472.22	13907.46
472.40	13619.58
472.58	13640.64
472.77	13820.86
472.95	13958.96
473.13	14314.72
473.31	14134.50
473.49	14092.37
473.67	14202.37
473.85	14204.71
474.03	14396.64
474.21	14590.90
474.39	14565.15
474.57	14464.51
474.75	14630.69
474.93	14822.61
475.12	14761.76
475.30	15070.71
475.48	15063.69
475.66	14815.59
475.84	14939.64
476.02	15384.34
476.20	14958.36
476.38	15482.64
476.56	15929.69
476.74	15761.17
476.92	15653.50
477.10	15658.18
477.28	16035.01
477.46	16109.91
477.64	16222.25
477.82	16460.99
478.00	16643.55
478.18	16669.30
478.36	16807.39
478.54	16774.62
478.72	17018.04
478.90	17247.41
479.08	17570.40
479.26	17317.62
479.44	17577.42
479.62	17788.07
479.80	17975.31
479.98	18050.21
480.16	18352.14
480.34	17769.35
480.52	18391.93
480.70	18422.36
480.88	18267.88
481.06	18403.63
481.24	18764.07
481.41	19007.49
481.59	19117.50
481.77	19278.99
481.95	19281.33
482.13	19342.19
482.31	19480.28
482.49	20011.58
482.67	19990.52
482.85	20407.13
483.03	20561.61
483.21	20650.55
483.39	20655.23
483.57	20931.41
483.74	20968.86
483.92	21172.49
484.10	21205.25
484.28	21525.91
484.46	21809.11
484.64	22391.91
484.82	22026.78
485.00	22185.94
485.18	22515.95
485.35	22904.48
485.53	22803.84
485.71	22995.76
485.89	23016.83
486.07	23094.07
486.25	23630.05
486.43	23566.85
486.61	23410.04
486.78	23985.81
486.96	24161.35
487.14	24477.32
487.32	24400.08
487.50	24528.81
487.68	24863.51
487.85	25207.57
488.03	25486.09
488.21	25387.79
488.39	25549.29
488.57	25888.67
488.75	26101.65
488.92	26019.74
489.10	26548.70
489.28	26513.59
489.46	26675.09
489.64	26829.56
489.81	27267.24
489.99	27110.43
490.17	27473.21
490.35	27983.44
490.53	28112.17
490.70	28177.71
490.88	27985.79
491.06	28453.89
491.24	28727.74
491.41	28851.78
491.59	29118.60
491.77	28917.32
491.95	29776.30
492.13	29397.13
492.30	29441.60
492.48	29713.10
492.66	30120.35
492.84	30040.78
493.01	30162.48
493.19	30223.34
493.37	30749.96
493.54	31337.43
493.72	31276.58
493.90	31182.96
494.08	31564.46
494.25	32039.59
494.43	31985.76
494.61	32165.98
494.79	32130.87
494.96	32315.78
495.14	32294.71
495.32	32868.14
495.49	32999.21
495.67	32753.46
495.85	33446.26
496.02	33748.18
496.20	33659.24
496.38	33577.33
496.55	33919.04
496.73	34359.06
496.91	34160.12
497.09	34960.58
497.26	34616.52
497.44	34703.12
497.62	34976.97
497.79	35192.30
497.97	34976.97
498.14	35480.18
498.32	36161.28
498.50	36109.78
498.67	36458.52
498.85	36210.43
499.03	36495.97
499.20	36116.81
499.38	36540.44
499.56	36451.50
499.73	36840.03
499.91	37048.34
500.08	37266.01
500.26	37167.71
500.44	37397.08
500.61	37684.97
500.79	37663.90
500.97	37333.89
501.14	38459.68
501.32	38188.18
501.49	38337.98
501.67	38080.52
501.84	38927.79
502.02	38738.21
502.20	38536.92
502.37	38909.07
502.55	39299.94
502.72	39002.69
502.90	39594.84
503.07	39166.52
503.25	39140.78
503.43	39395.90
503.60	39786.77
503.78	40046.57
503.95	40275.94
504.13	40465.52
504.30	40591.91
504.48	39779.74
504.65	40402.33
504.83	40182.32
505.01	40933.63
505.18	41085.76
505.36	41493.02
505.53	40753.41
505.71	41155.98
505.88	41542.17
506.06	41804.31
506.23	41813.67
506.41	41860.48
506.58	41888.57
506.76	42124.96
506.93	42347.31
507.11	41762.18
507.28	42003.25
507.46	42150.71
507.63	42398.80
507.81	42852.87
507.98	42864.57
508.16	42822.44
508.33	43147.78
508.50	43304.59
508.68	43356.08
508.85	43604.18
509.03	43351.40
509.20	43770.36
509.38	43793.76
509.55	44179.95
509.73	43835.89
509.90	44201.02
510.08	44659.76
510.25	44545.08
510.42	44507.63
510.60	45106.80
510.77	45090.42
510.95	45055.31
511.12	44722.96
511.30	45146.59
511.47	44987.44
511.64	45191.06
511.82	45574.91
511.99	45539.80
512.17	45701.30
512.34	45469.59
512.51	46309.84
512.69	46183.45
512.86	46120.26
513.04	46138.98
513.21	46586.02
513.38	46429.21
513.56	46419.84
513.73	46358.99
513.90	46752.20
514.08	46955.83
514.25	46909.02
514.43	47215.63
514.60	47154.77
514.77	47112.64
514.95	47306.91
515.12	47077.54
515.29	47189.88
515.47	47643.94
515.64	47435.64
515.81	47697.78
515.99	47824.17
516.16	48680.80
516.33	47988.00
516.51	48301.64
516.68	47859.27
516.85	48303.98
517.03	48615.27
517.20	48734.63
517.37	48444.41
517.54	48428.02
517.72	48839.96
517.89	49090.40
518.06	48947.62
518.24	49111.46
518.41	49036.56
518.58	49151.25
518.75	48914.86
518.93	49289.34
519.10	49284.66
519.27	49984.48
519.45	49460.20
519.62	49703.62
519.79	49832.35
519.96	49830.01
520.14	49822.98
520.31	49813.62
520.48	50263.00
520.65	50108.53
520.83	50422.16
521.00	50342.58
521.17	50087.46
521.34	50321.52
521.52	50447.91
521.69	50183.43
521.86	50557.91
522.03	51171.13
522.20	51065.81
522.38	50981.55
522.55	51257.73
522.72	51227.31
522.89	50890.27
523.07	51320.93
523.24	51084.53
523.41	51400.50
523.58	50962.82
523.75	51559.66
523.92	51480.08
524.10	51690.73
524.27	51473.06
524.44	51407.53
524.61	51807.76
524.78	51899.04
524.96	51835.84
525.13	52126.07
525.30	52332.04
525.47	52308.63
525.64	51943.51
525.81	52327.36
525.98	52453.75
526.16	52509.92
526.33	52280.55
526.50	52755.68
526.67	52568.43
526.84	52413.96
527.01	52470.13
527.18	52659.71
527.36	52704.18
527.53	52856.32
527.70	53254.21
527.87	52978.03
528.04	53038.88
528.21	52994.41
528.38	53137.18
528.55	53371.24
528.72	53219.10
528.89	53195.70
529.07	53043.56
529.24	53198.04
529.41	53389.96
529.58	53333.79
529.75	53322.08
529.92	53647.42
530.09	53588.91
530.26	53434.43
530.43	53584.22
530.60	53673.16
530.77	53619.33
530.94	53972.75
531.11	53785.51
531.28	54028.93
531.46	53944.67
531.63	54089.78
531.80	54178.72
531.97	54157.66
532.14	54305.11
532.31	54473.63
532.48	54574.27
532.65	54300.43
532.82	54569.59
532.99	54607.04
533.16	54239.57
533.33	54630.44
533.50	54688.96
533.67	54438.52
533.84	54494.69
534.01	54705.34
534.18	54681.94
534.35	55154.72
534.52	54979.18
534.69	55011.95
534.86	55150.04
535.03	54887.90
535.20	55173.45
535.37	54995.57
535.54	55283.45
535.71	55091.53
535.88	55152.38
536.05	55152.38
536.22	55430.91
536.38	55491.76
536.55	55260.05
536.72	55489.42
536.89	55454.31
537.06	55426.23
537.23	55327.92
537.40	55147.70
537.57	55470.70
537.74	55112.59
537.91	55587.72
538.08	55711.77
538.25	55505.80
538.42	56027.74
538.59	56198.60
538.75	55723.47
538.92	56048.81
539.09	55899.01
539.26	55976.25
539.43	55913.06
539.60	56083.92
539.77	55894.33
539.94	56245.41
540.11	56046.47
540.28	56107.32
540.44	56303.93
540.61	56324.99
540.78	56151.79
540.95	56376.48
541.12	56308.61
541.29	56233.71
541.46	56378.82
541.62	56397.55
541.79	56491.17
541.96	56177.54
542.13	56360.10
542.30	56647.99
542.47	56760.33
542.63	56676.07
542.80	56697.14
542.97	56823.53
543.14	56989.70
543.31	56963.96
543.48	57017.79
543.64	57176.95
543.81	57137.16
543.98	57041.20
544.15	57064.60
544.32	57205.03
544.48	57352.49
544.65	57183.97
544.82	57230.78
544.99	57001.41
545.16	57226.10
545.32	56795.44
545.49	57387.60
545.66	57546.75
545.83	57153.54
546.00	57668.46
546.16	57226.10
546.33	57441.43
546.50	57188.65
546.67	57350.15
546.83	57389.94
547.00	57696.55
547.17	57305.68
547.34	57588.88
547.50	57804.21
547.67	57794.85
547.84	57832.30
548.00	57846.34
548.17	57951.66
548.34	57888.47
548.51	57982.09
548.67	58162.31
548.84	58092.10
549.01	58059.33
549.18	57801.87
549.34	57970.39
549.51	58038.26
549.68	57918.90
549.84	58108.48
550.01	58319.13
550.18	58223.17
550.34	58272.32
550.51	58244.23
550.68	58155.29
550.84	58045.29
551.01	58337.85
551.18	58379.98
551.34	58204.44
551.51	58438.50
551.68	58204.44
551.84	58415.09
552.01	58277.00
552.18	58464.24
552.34	58166.99
552.51	58557.86
552.68	58274.66
552.84	58555.52
553.01	58740.42
553.18	58571.91
553.34	58592.97
553.51	58564.88
553.67	58749.79
553.84	58756.81
554.01	58710.00
554.17	58794.26
554.34	58712.34
554.51	58843.41
554.67	58848.09
554.84	58862.13
555.00	58658.51
555.17	58955.75
555.33	58836.39
555.50	58798.94
555.67	58848.09
555.83	58717.02
556.00	58937.03
556.16	59220.23
556.33	59185.13
556.50	59075.12
556.66	59086.82
556.83	59004.91
556.99	59260.02
557.16	59290.45
557.32	59482.37
557.49	59325.56
557.65	59332.58
557.82	59229.60
557.98	59274.07
558.15	59391.09
558.32	59215.55
558.48	59199.17
558.65	59236.62
558.81	59353.65
558.98	59407.48
559.14	59419.18
559.31	59332.58
559.47	59526.84
559.64	59653.23
559.80	59405.14
559.97	59554.93
560.13	59496.42
560.30	59519.82
560.46	59437.90
560.63	59594.72
560.79	59578.34
560.96	59522.16
561.12	59519.82
561.29	59634.51
561.45	59608.76
561.61	59686.00
561.78	59704.73
561.94	59611.10
562.11	59728.13
562.27	59636.85
562.44	59819.41
562.60	59835.80
562.77	59828.77
562.93	59817.07
563.10	59938.78
563.26	59714.09
563.42	59831.11
563.59	59667.28
563.75	59662.60
563.92	59709.41
564.08	59686.00
564.24	60062.83
564.41	59906.01
564.57	60114.32
564.74	59915.37
564.90	59962.18
565.07	60006.65
565.23	59959.84
565.39	59941.12
565.56	60027.72
565.72	59887.29
565.88	60170.49
566.05	59980.91
566.21	60058.15
566.38	59863.88
566.54	60060.49
566.70	60037.08
566.87	60119.00
567.03	60009.00
567.19	60280.50
567.36	59962.18
567.52	60177.51
567.68	60502.85
567.85	60207.94
568.01	60126.02
568.17	60133.04
568.34	60296.88
568.50	60013.68
568.66	60102.62
568.83	60495.83
568.99	60037.08
569.15	60287.52
569.32	60331.99
569.48	60154.11
569.64	60210.28
569.81	60324.97
569.97	59962.18
570.13	60411.57
570.30	60130.70
570.46	60254.75
570.62	60107.30
570.78	60205.60
570.95	60353.05
571.11	60479.44
571.27	60268.79
571.43	60317.95
571.60	60523.91
571.76	60299.22
571.92	60280.50
572.09	60264.11
572.25	60498.17
572.41	60364.76
572.57	60479.44
572.74	60652.64
572.90	60292.20
573.06	60467.74
573.22	60355.39
573.38	60596.47
573.55	60355.39
573.71	60671.37
573.87	60542.64
574.03	60240.71
574.20	60659.66
574.36	60477.10
574.52	60767.33
574.68	60467.74
574.84	60678.39
575.01	60589.45
575.17	60374.12
575.33	60444.33
575.49	60355.39
575.65	60678.39
575.82	60711.16
575.98	60755.63
576.14	60992.02
576.30	60549.66
576.46	60760.31
576.62	60669.03
576.79	60629.24
576.95	60390.50
577.11	60654.98
577.27	60631.58
577.43	60652.64
577.59	60659.66
577.75	60423.27
577.92	60633.92
578.08	60537.96
578.24	60556.68
578.40	60865.63
578.56	60954.57
578.72	60685.41
578.88	60605.83
579.04	60996.70
579.21	60636.26
579.37	60783.71
579.53	60811.80
579.69	60458.38
579.85	60528.59
580.01	60364.76
580.17	60603.49
580.33	60783.71
580.49	60664.35
580.65	60722.86
580.82	60795.42
580.98	60678.39
581.14	60589.45
581.30	60725.20
581.46	60741.58
581.62	60666.69
581.78	60638.60
581.94	60774.35
582.10	60762.65
582.26	60631.58
582.42	60814.14
582.58	60683.07
582.74	60809.46
582.90	60570.72
583.06	60647.96
583.22	60395.18
583.38	60811.80
583.54	60622.22
583.70	60764.99
583.86	60750.94
584.02	60664.35
584.18	60760.31
584.34	60882.02
584.50	60928.83
584.66	60718.18
584.82	60760.31
584.98	60795.42
585.14	60940.53
585.30	60652.64
585.46	61141.81
585.62	60851.59
585.78	60788.39
585.94	60654.98
586.10	60823.50
586.26	60823.50
586.42	60940.53
586.58	61052.87
586.74	60788.39
586.90	60783.71
587.06	60865.63
587.22	61029.47
587.38	60898.40
587.54	60903.08
587.70	60970.96
587.86	60853.93
588.02	60886.70
588.18	61095.00
588.34	60797.76
588.49	60891.38
