SpectraSuite Data File
++++++++++++++++++++++++++++++++++++
Date: Fri Oct 25 10:47:13 EDT 2013
User: price-jones
Dark Spectrum Present: No
Reference Spectrum Present: No
Number of Sampled Component Spectra: 1
Spectrometers: USB2+H05261
Integration Time (usec): 100000 (USB2+H05261)
Spectra Averaged: 1 (USB2+H05261)
Boxcar Smoothing: 0 (USB2+H05261)
Correct for Electrical Dark: No (USB2+H05261)
Strobe/Lamp Enabled: No (USB2+H05261)
Correct for Detector Non-linearity: No (USB2+H05261)
Correct for Stray Light: No (USB2+H05261)
Number of Pixels in Processed Spectrum: 2048
>>>>>Begin Processed Spectral Data<<<<<
365.73	77.24
365.92	77.24
366.12	77.24
366.32	51.49
366.52	0.00
366.72	88.94
366.91	7.02
367.11	0.00
367.31	70.22
367.51	81.92
367.70	35.11
367.90	142.77
368.10	0.00
368.30	14.04
368.49	37.45
368.69	84.26
368.89	93.62
369.09	131.07
369.28	100.64
369.48	70.22
369.68	60.85
369.87	84.26
370.07	107.66
370.27	88.94
370.47	231.71
370.66	383.85
370.86	388.53
371.06	421.30
371.25	526.62
371.45	435.34
371.65	547.69
371.84	463.43
372.04	416.62
372.24	435.34
372.44	407.25
372.63	521.94
372.83	454.06
373.03	458.74
373.22	465.77
373.42	521.94
373.62	470.45
373.81	437.68
374.01	627.26
374.21	559.39
374.40	512.58
374.60	610.88
374.79	512.58
374.99	526.62
375.19	575.77
375.38	465.77
375.58	519.60
375.78	559.39
375.97	571.09
376.17	582.79
376.37	514.92
376.56	489.17
376.76	561.73
376.95	636.63
377.15	519.60
377.35	573.43
377.54	552.37
377.74	503.22
377.93	543.00
378.13	589.82
378.33	615.56
378.52	580.45
378.72	657.69
378.91	603.86
379.11	608.54
379.31	559.39
379.50	557.05
379.70	660.03
379.89	664.71
380.09	610.88
380.28	603.86
380.48	634.29
380.68	573.43
380.87	585.13
381.07	638.97
381.26	601.52
381.46	699.82
381.65	648.33
381.85	655.35
382.04	610.88
382.24	636.63
382.43	638.97
382.63	601.52
382.83	662.37
383.02	784.08
383.22	739.61
383.41	648.33
383.61	653.01
383.80	674.07
384.00	741.95
384.19	730.25
384.39	620.24
384.58	713.86
384.78	695.14
384.97	741.95
385.17	751.31
385.36	760.67
385.56	791.10
385.75	814.51
385.95	786.42
386.14	706.84
386.34	725.57
386.53	770.04
386.72	755.99
386.92	809.83
387.11	786.42
387.31	816.85
387.50	812.17
387.70	781.74
387.89	793.44
388.09	732.59
388.28	809.83
388.48	840.25
388.67	833.23
388.86	898.77
389.06	767.70
389.25	882.38
389.45	849.61
389.64	894.08
389.84	828.55
390.03	933.87
390.22	922.17
390.42	931.53
390.61	842.59
390.81	875.36
391.00	1001.75
391.19	910.47
391.39	954.94
391.58	870.68
391.78	933.87
391.97	896.43
392.16	968.98
392.36	973.66
392.55	983.02
392.75	959.62
392.94	940.90
393.13	985.37
393.33	985.37
393.52	922.17
393.71	1081.33
393.91	1022.81
394.10	1001.75
394.29	1027.50
394.49	1004.09
394.68	1048.56
394.88	1067.28
395.07	1135.16
395.26	1071.97
395.46	1071.97
395.65	1097.71
395.84	1102.39
396.04	1210.06
396.23	1123.46
396.42	1071.97
396.62	1137.50
396.81	1139.84
397.00	1142.18
397.19	1060.26
397.39	1160.91
397.58	1170.27
397.77	1238.14
397.97	1256.87
398.16	1165.59
398.35	1277.93
398.55	1261.55
398.74	1263.89
398.93	1301.34
399.12	1270.91
399.32	1310.70
399.51	1254.53
399.70	1266.23
399.90	1378.58
400.09	1411.34
400.28	1355.17
400.47	1327.08
400.67	1401.98
400.86	1338.79
401.05	1465.18
401.24	1432.41
401.44	1404.32
401.63	1521.35
401.82	1462.83
402.01	1500.28
402.21	1453.47
402.40	1437.09
402.59	1504.96
402.78	1544.75
402.97	1591.56
403.17	1530.71
403.36	1439.43
403.55	1537.73
403.74	1577.52
403.93	1493.26
404.13	1535.39
404.32	1593.90
404.51	1675.82
404.70	1652.42
404.89	1664.12
405.09	1673.48
405.28	1703.91
405.47	1699.23
405.66	1764.76
405.85	1746.04
406.05	1673.48
406.24	1699.23
406.43	1638.38
406.62	1839.66
406.81	1802.21
407.00	1788.17
407.20	1743.70
407.39	1760.08
407.58	1884.13
407.77	1856.04
407.96	1907.54
408.15	1856.04
408.34	1865.41
408.54	1874.77
408.73	1914.56
408.92	1914.56
409.11	1893.49
409.30	1987.11
409.49	1987.11
409.68	1940.30
409.87	1984.77
410.07	1977.75
410.26	2125.21
410.45	2094.78
410.64	2026.90
410.83	2104.14
411.02	2150.95
411.21	2284.36
411.40	2125.21
411.59	2146.27
411.78	2174.36
411.98	2141.59
412.17	2319.47
412.36	2296.07
412.55	2375.64
412.74	2399.05
412.93	2314.79
413.12	2223.51
413.31	2434.16
413.50	2392.03
413.69	2462.24
413.88	2509.05
414.07	2565.23
414.26	2537.14
414.45	2612.04
414.64	2586.29
414.83	2607.36
415.02	2583.95
415.22	2712.68
415.41	2637.78
415.60	2684.59
415.79	2602.68
415.98	2794.60
416.17	2743.11
416.36	2710.34
416.55	2796.94
416.74	2736.09
416.93	2808.64
417.12	2850.77
417.31	2853.11
417.50	2935.03
417.69	3061.42
417.88	2984.18
418.07	3014.61
418.26	3047.38
418.45	2974.82
418.64	3094.19
418.83	3054.40
419.02	3075.46
419.21	3096.53
419.39	3014.61
419.58	2970.14
419.77	3089.51
419.96	3286.11
420.15	3351.65
420.34	3162.06
420.53	3166.74
420.72	3129.30
420.91	3337.60
421.10	3258.03
421.29	3344.63
421.48	3274.41
421.67	3300.16
421.86	3220.58
422.05	3328.24
422.24	3276.75
422.43	3356.33
422.61	3471.01
422.80	3405.48
422.99	3349.31
423.18	3494.42
423.37	3349.31
423.56	3438.25
423.75	3428.88
423.94	3393.78
424.13	3236.96
424.32	3353.99
424.50	3527.19
424.69	3421.86
424.88	3407.82
425.07	3459.31
425.26	3335.26
425.45	3445.27
425.64	3534.21
425.83	3391.44
426.01	3428.88
426.20	3515.48
426.39	3552.93
426.58	3363.35
426.77	3480.38
426.96	3487.40
427.15	3492.08
427.33	3543.57
427.52	3571.66
427.71	3531.87
427.90	3712.09
428.09	3644.21
428.28	3618.47
428.46	3538.89
428.65	3604.42
428.84	3768.26
429.03	3864.22
429.22	3623.15
429.40	3737.84
429.59	3847.84
429.78	3524.85
429.97	3653.58
430.16	3662.94
430.34	3660.60
430.53	3822.09
430.72	3730.81
430.91	3641.87
431.10	3819.75
431.28	3831.46
431.47	3971.89
431.66	3978.91
431.85	3871.25
432.03	3941.46
432.22	3999.98
432.41	4074.87
432.60	4196.58
432.79	4095.94
432.97	4177.86
433.16	4093.60
433.35	3920.40
433.54	4215.30
433.72	4215.30
433.91	4091.26
434.10	4224.67
434.28	4189.56
434.47	4259.78
434.66	4390.84
434.85	4386.16
435.03	4407.23
435.22	4395.53
435.41	4388.50
435.59	4236.37
435.78	4489.15
435.97	4547.66
436.16	4491.49
436.34	4229.35
436.53	4641.28
436.72	4554.68
436.90	4528.94
437.09	4540.64
437.28	4519.57
437.46	4454.04
437.65	4571.07
437.84	4454.04
438.02	4435.32
438.21	4650.64
438.40	4582.77
438.58	4802.78
438.77	4746.61
438.96	4660.01
439.14	4938.53
439.33	4997.04
439.52	4933.85
439.70	4837.89
439.89	4961.94
440.08	5097.69
440.26	4945.55
440.45	4978.32
440.63	5078.96
440.82	5228.76
441.01	5137.48
441.19	5109.39
441.38	5198.33
441.57	5179.61
441.75	5352.81
441.94	5380.89
442.12	5345.78
442.31	5488.56
442.50	5530.69
442.68	5345.78
442.87	5364.51
443.05	5504.94
443.24	5565.79
443.43	5593.88
443.61	5589.20
443.80	5731.97
443.98	5617.29
444.17	5397.28
444.35	5526.00
444.54	5715.59
444.73	5657.07
444.91	5626.65
445.10	5537.71
445.28	5614.95
445.47	5720.27
445.65	5715.59
445.84	5694.52
446.02	5633.67
446.21	5806.87
446.39	5636.01
446.58	5650.05
446.77	5781.12
446.95	5671.12
447.14	5788.14
447.32	5811.55
447.51	5816.23
447.69	5778.78
447.88	5851.34
448.06	5884.11
448.25	5722.61
448.43	5825.59
448.62	5809.21
448.80	5743.67
448.99	5963.68
449.17	5987.09
449.36	5818.57
449.54	5930.92
449.73	6272.64
449.91	6174.33
450.10	6148.59
450.28	6183.70
450.46	6118.16
450.65	6258.59
450.83	6314.77
451.02	6097.10
451.20	6277.32
451.39	6305.40
451.57	6195.40
451.76	6370.94
451.94	6314.77
452.13	6513.71
452.31	6389.66
452.49	6230.51
452.68	6289.02
452.86	6118.16
453.05	6359.24
453.23	6354.55
453.42	6429.45
453.60	6504.35
453.78	6408.39
453.97	6380.30
454.15	6466.90
454.34	6277.32
454.52	6494.99
454.70	6710.32
454.89	6658.82
455.07	6644.78
455.26	6616.69
455.44	6703.29
455.62	6789.89
455.81	6792.23
455.99	6778.19
456.17	6724.36
456.36	6902.24
456.54	6822.66
456.73	6787.55
456.91	7061.40
457.09	6984.16
457.28	7255.66
457.46	6986.50
457.64	7267.36
457.83	7096.50
458.01	7002.88
458.19	7295.45
458.38	7129.27
458.56	7405.46
458.74	7138.63
458.93	7255.66
459.11	7143.32
459.29	7283.75
459.48	7363.33
459.66	7297.79
459.84	7370.35
460.03	7405.46
460.21	7426.52
460.39	7353.96
460.57	7438.22
460.76	7562.27
460.94	7368.01
461.12	7513.12
461.31	7726.11
461.49	7517.80
461.67	7527.16
461.85	7751.85
462.04	7866.54
462.22	8121.66
462.40	7730.79
462.59	7770.58
462.77	7845.48
462.95	7749.51
463.13	7641.85
463.32	7742.49
463.50	7793.98
463.68	7901.65
463.86	7983.57
464.05	7779.94
464.23	7747.17
464.41	8028.04
464.59	7789.30
464.78	8121.66
464.96	8032.72
465.14	7911.01
465.32	8091.23
465.50	8056.12
465.69	8145.06
465.87	8011.65
466.05	8304.22
466.23	8212.94
466.41	8135.70
466.60	8402.52
466.78	8074.85
466.96	8191.88
467.14	8231.66
467.32	8376.78
467.51	8339.33
467.69	8147.40
467.87	8336.99
468.05	8362.73
468.23	8112.30
468.41	8194.22
468.60	8505.51
468.78	8409.54
468.96	8217.62
469.14	8535.93
469.32	8580.40
469.50	8479.76
469.69	8617.85
469.87	8720.84
470.05	8552.32
470.23	8692.75
470.41	8554.66
470.59	8940.85
470.77	8695.09
470.95	8858.93
471.14	8875.31
471.32	9013.40
471.50	9078.94
471.68	8973.61
471.86	9226.39
472.04	9146.81
472.22	9118.73
472.40	9163.20
472.58	9235.75
472.77	9151.49
472.95	9366.82
473.13	9509.60
473.31	9537.68
473.49	9287.25
473.67	9298.95
473.85	9460.45
474.03	9533.00
474.21	9497.89
474.39	9706.20
474.57	9750.67
474.75	9799.82
474.93	9930.89
475.12	9809.19
475.30	9944.94
475.48	10045.58
475.66	10207.08
475.84	10099.41
476.02	10047.92
476.20	10038.56
476.38	10061.96
476.56	10520.71
476.74	10530.07
476.92	10501.98
477.10	10403.68
477.28	10640.08
477.46	10658.80
477.64	10820.30
477.82	11042.65
478.00	11211.17
478.18	10967.75
478.36	11154.99
478.54	11323.51
478.72	11164.36
478.90	11349.26
479.08	11447.56
479.26	11850.13
479.44	11803.32
479.62	11639.48
479.80	11985.88
479.98	11955.46
480.16	12030.35
480.34	12100.57
480.52	12086.53
480.70	12194.19
480.88	11981.20
481.06	12311.22
481.24	12477.40
481.41	12547.61
481.59	12762.94
481.77	12872.95
481.95	12800.39
482.13	12966.57
482.31	12753.58
482.49	13341.05
482.67	13259.13
482.85	13317.65
483.03	13507.23
483.21	13781.07
483.39	13710.86
483.57	13631.28
483.74	13830.23
483.92	13760.01
484.10	13699.16
484.28	14047.90
484.46	14455.15
484.64	14483.24
484.82	14291.31
485.00	14427.06
485.18	14813.25
485.35	14759.42
485.53	14611.96
485.71	14726.65
485.89	15051.99
486.07	15049.64
486.25	15037.94
486.43	15161.99
486.61	15246.25
486.78	15576.27
486.96	15391.36
487.14	15990.54
487.32	15857.13
487.50	16135.65
487.68	16201.19
487.85	16446.94
488.03	16252.68
488.21	16673.98
488.39	16521.84
488.57	16891.65
488.75	16882.28
488.92	17191.23
489.10	17200.60
489.28	17326.99
489.46	17418.27
489.64	17544.66
489.81	17830.20
489.99	17834.88
490.17	18054.89
490.35	18277.24
490.53	18059.57
490.70	18431.72
490.88	18532.36
491.06	18600.24
491.24	18600.24
491.41	18520.66
491.59	18787.48
491.77	18623.64
491.95	19047.28
492.13	18937.27
492.30	19161.97
492.48	19522.41
492.66	19410.06
492.84	19400.70
493.01	19892.21
493.19	19597.31
493.37	19824.34
493.54	20180.10
493.72	20215.21
493.90	20325.21
494.08	20695.02
494.25	20631.82
494.43	20779.28
494.61	21158.44
494.79	20940.77
494.96	20931.41
495.14	20978.22
495.32	21153.76
495.49	21312.92
495.67	21511.86
495.85	21539.95
496.02	21490.80
496.20	21579.74
496.38	21715.49
496.55	22057.21
496.73	22279.56
496.91	22258.49
497.09	22504.25
497.26	22473.82
497.44	22764.05
497.62	22937.25
497.79	22897.46
497.97	23030.87
498.14	23173.64
498.32	23105.77
498.50	23180.67
498.67	23531.75
498.85	23510.68
499.03	23452.17
499.20	23697.92
499.38	23513.02
499.56	23700.26
499.73	23901.55
499.91	23939.00
500.08	24116.88
500.26	23833.68
500.44	23910.91
500.61	24280.72
500.79	24217.52
500.97	24418.81
501.14	24594.35
501.32	24577.97
501.49	24374.34
501.67	24830.74
501.84	24657.54
502.02	24769.89
502.20	25062.46
502.37	25149.06
502.55	25530.56
502.72	25415.88
502.90	25291.83
503.07	25720.15
503.25	25209.91
503.43	25610.14
503.60	25759.94
503.78	25977.61
503.95	25914.41
504.13	25729.51
504.30	26265.49
504.48	25731.85
504.65	26419.97
504.83	26529.97
505.01	26417.63
505.18	26162.51
505.36	26682.11
505.53	26588.49
505.71	27047.23
505.88	27087.02
506.06	26583.80
506.23	26965.31
506.41	26829.56
506.58	27211.07
506.76	27218.09
506.93	27447.46
507.11	27498.95
507.28	27370.22
507.46	27068.30
507.63	27562.15
507.81	27637.05
507.98	27456.82
508.16	27623.00
508.33	27789.18
508.50	27936.63
508.68	27971.74
508.85	28112.17
509.03	28123.88
509.20	28652.84
509.38	28285.37
509.55	28425.81
509.73	28376.66
509.90	28725.39
510.08	28404.74
510.25	28814.34
510.42	28819.02
510.60	28788.59
510.77	28769.86
510.95	29144.35
511.12	28950.09
511.30	29380.74
511.47	29439.26
511.64	29514.16
511.82	29483.73
511.99	28936.04
512.17	29546.92
512.34	29633.52
512.51	29806.72
512.69	29841.83
512.86	29986.94
513.04	30469.09
513.21	29823.11
513.38	29858.21
513.56	29710.76
513.73	30176.53
513.90	30445.69
514.08	30127.38
514.25	30391.86
514.43	30511.22
514.60	30113.33
514.77	30595.48
514.95	30712.51
515.12	30661.02
515.29	30768.68
515.47	31108.06
515.64	30911.46
515.81	30939.54
515.99	31152.53
516.16	31171.25
516.33	31428.71
516.51	31608.93
516.68	31243.81
516.85	30939.54
517.03	31307.01
517.20	31311.69
517.37	31695.53
517.54	31665.11
517.72	31761.07
517.89	31711.92
518.06	32077.04
518.24	31548.08
518.41	31796.18
518.58	31625.32
518.75	31824.26
518.93	32114.49
519.10	31983.42
519.27	32437.48
519.45	32472.59
519.62	32418.76
519.79	32903.25
519.96	32708.99
520.14	32912.61
520.31	32697.28
520.48	32996.87
520.65	32954.74
520.83	33034.32
521.00	33326.89
521.17	33001.55
521.34	33125.60
521.52	33244.97
521.69	33277.74
521.86	33284.76
522.03	33537.54
522.20	33750.52
522.38	33371.36
522.55	33755.21
522.72	33759.89
522.89	33942.45
523.07	33970.54
523.24	33783.29
523.41	34103.95
523.58	33787.97
523.75	34543.97
523.92	34291.19
524.10	33755.21
524.27	34260.76
524.44	34377.79
524.61	34433.96
524.78	34394.17
524.96	34328.64
525.13	34817.81
525.30	34913.77
525.47	34782.70
525.64	34747.59
525.81	34829.51
525.98	35175.91
526.16	34499.50
526.33	34836.53
526.50	34766.32
526.67	35236.77
526.84	35119.74
527.01	34838.87
527.18	35236.77
527.36	35182.93
527.53	35634.66
527.70	35693.17
527.87	36074.68
528.04	35597.21
528.21	35512.95
528.38	35889.77
528.55	35763.39
528.72	35725.94
528.89	36154.26
529.07	35519.97
529.24	35644.02
529.41	36400.01
529.58	35864.03
529.75	35824.24
529.92	36023.19
530.09	36231.49
530.26	36306.39
530.43	36446.82
530.60	35835.94
530.77	36147.23
530.94	36603.64
531.11	36336.82
531.28	36404.69
531.46	36924.29
531.63	36687.90
531.80	36919.61
531.97	36521.72
532.14	36966.42
532.31	36945.36
532.48	37172.39
532.65	37003.87
532.82	36912.59
532.99	37024.93
533.16	37031.96
533.33	36900.89
533.50	37163.03
533.67	37261.33
533.84	36835.35
534.01	37574.96
534.18	37137.28
534.35	37743.48
534.52	37378.36
534.69	37769.22
534.86	37752.84
535.03	37567.94
535.20	37879.23
535.37	37949.45
535.54	37745.82
535.71	37544.53
535.88	37930.72
536.05	37823.06
536.22	38136.69
536.38	38057.11
536.55	38242.01
536.72	37996.26
536.89	38043.07
537.06	37919.02
537.23	38178.82
537.40	38211.59
537.57	38216.27
537.74	38169.46
537.91	38618.84
538.08	38307.55
538.25	38426.92
538.42	38192.86
538.59	38452.66
538.75	38335.63
538.92	38497.13
539.09	38440.96
539.26	38876.30
539.43	38499.47
539.60	39012.05
539.77	38740.55
539.94	38660.97
540.11	38616.50
540.28	39058.86
540.44	39124.40
540.61	38813.10
540.78	38717.14
540.95	38864.60
541.12	39292.91
541.29	38934.81
541.46	38939.49
541.62	39091.63
541.79	39573.78
541.96	39126.74
542.13	39365.47
542.30	39491.86
542.47	39625.27
542.63	39494.20
542.80	39552.71
542.97	40079.33
543.14	39842.94
543.31	39896.77
543.48	40179.98
543.64	40231.47
543.81	40297.00
543.98	40254.87
544.15	40212.74
544.32	40025.50
544.48	40463.18
544.65	40362.54
544.82	40158.91
544.99	39716.55
545.16	40718.30
545.32	40086.36
545.49	40086.36
545.66	40367.22
545.83	40603.61
546.00	40863.41
546.16	40882.14
546.33	40484.25
546.50	39971.67
546.67	40318.07
546.83	39866.34
547.00	40376.58
547.17	40531.06
547.34	40863.41
547.50	40629.36
547.67	41317.48
547.84	40547.44
548.00	41088.10
548.17	41113.85
548.34	40907.88
548.51	41097.47
548.67	40950.01
548.84	41092.79
549.01	41109.17
549.18	40952.35
549.34	41354.93
549.51	41212.15
549.68	41045.97
549.84	41163.00
550.01	41294.07
550.18	41528.13
550.34	41455.57
550.51	41020.23
550.68	41654.51
550.84	41062.36
551.01	41612.38
551.18	41525.78
551.34	41502.38
551.51	41710.69
551.68	41469.61
551.84	41612.38
552.01	41684.94
552.18	41897.93
552.34	41429.82
552.51	42136.66
552.68	41720.05
552.84	41741.11
553.01	42227.95
553.18	41640.47
553.34	41703.67
553.51	41937.72
553.67	41818.35
553.84	42288.80
554.01	42108.58
554.17	42108.58
554.34	42462.00
554.51	42401.14
554.67	42340.29
554.84	42410.51
555.00	42227.95
555.17	42085.17
555.33	42129.64
555.50	42256.03
555.67	42122.62
555.83	42171.77
556.00	42583.71
556.16	42831.80
556.33	42391.78
556.50	42752.23
556.66	42330.93
556.83	42337.95
556.99	42419.87
557.16	42754.57
557.32	42546.26
557.49	42602.43
557.65	42426.89
557.82	42579.03
557.98	42548.60
558.15	42810.74
558.32	42735.84
558.48	42714.78
558.65	43201.61
558.81	42616.47
558.98	43175.86
559.14	42911.38
559.31	43084.58
559.47	42892.66
559.64	43143.09
559.80	43129.05
559.97	43033.09
560.13	43208.63
560.30	42937.13
560.46	42827.12
560.63	43180.54
560.79	43384.17
560.96	43328.00
561.12	43283.53
561.29	43210.97
561.45	43124.37
561.61	43122.03
561.78	43255.44
561.94	42862.23
562.11	43625.25
562.27	43374.81
562.44	43292.89
562.60	43543.33
562.77	43515.24
562.93	43157.14
563.10	43391.19
563.26	42525.19
563.42	43313.95
563.59	43416.94
563.75	43660.35
563.92	43613.54
564.08	42997.98
564.24	43510.56
564.41	43129.05
564.57	43414.60
564.74	43459.07
564.90	43517.58
565.07	43501.20
565.23	43723.55
565.39	43438.00
565.56	43938.88
565.72	43548.01
565.88	43604.18
566.05	43393.53
566.21	43510.56
566.38	43555.03
566.54	43739.93
566.70	43742.27
566.87	43887.39
567.03	43725.89
567.19	43878.02
567.36	43555.03
567.52	43613.54
567.68	43583.12
567.85	43157.14
568.01	44275.91
568.17	43367.79
568.34	43775.04
568.50	43887.39
568.66	43400.55
568.83	43519.92
568.99	43711.84
569.15	43370.13
569.32	43791.42
569.48	43742.27
569.64	44458.48
569.81	44140.16
569.97	43693.12
570.13	43728.23
570.30	43407.58
570.46	43210.97
570.62	43803.13
570.78	43246.08
570.95	43697.80
571.11	43915.47
571.27	43435.66
571.43	43751.63
571.60	43761.00
571.76	44018.46
571.92	43428.64
572.09	43866.32
572.25	43632.27
572.41	43489.49
572.57	44296.98
572.74	43950.58
572.90	43765.68
573.06	43772.70
573.22	44086.33
573.38	43969.30
573.55	43707.16
573.71	44439.75
573.87	43665.03
574.03	43758.66
574.20	43634.61
574.36	44074.63
574.52	44198.68
574.68	44144.84
574.84	44243.15
575.01	43863.98
575.17	44175.27
575.33	43716.53
575.49	43824.19
575.65	44109.74
575.82	44236.12
575.98	44325.07
576.14	44381.24
576.30	44280.60
576.46	43833.55
576.62	44203.36
576.79	43728.23
576.95	43941.22
577.11	44205.70
577.27	44245.49
577.43	44629.34
577.59	44252.51
577.75	44086.33
577.92	43775.04
578.08	44329.75
578.24	44051.22
578.40	44332.09
578.56	43758.66
578.72	43854.62
578.88	44182.29
579.04	44542.74
579.21	43936.54
579.37	43842.92
579.53	43985.69
579.69	43683.76
579.85	43995.05
580.01	44137.82
580.17	44481.88
580.33	44582.52
580.49	44313.36
580.65	44065.27
580.82	44362.51
580.98	44507.63
581.14	43973.98
581.30	44311.02
581.46	44299.32
581.62	43997.39
581.78	44418.69
581.94	44704.23
582.10	44198.68
582.26	44179.95
582.42	43777.38
582.58	43966.96
582.74	43852.28
582.90	44343.79
583.06	44421.03
583.22	44245.49
583.38	44196.34
583.54	44332.09
583.70	44191.65
583.86	43739.93
584.02	44032.50
584.18	44208.04
584.34	44156.55
584.50	44507.63
584.66	44154.21
584.82	44182.29
584.98	44793.17
585.14	44535.71
585.30	44285.28
585.46	44123.78
585.62	43973.98
585.78	44500.61
585.94	43892.07
586.10	44243.15
586.26	44163.57
586.42	44109.74
586.58	44481.88
586.74	44325.07
586.90	44371.88
587.06	44079.31
587.22	44676.15
587.38	44119.10
587.54	44708.91
587.70	44516.99
587.86	44573.16
588.02	44456.14
588.18	44179.95
588.34	44458.48
588.49	44053.56
588.65	44067.61
588.81	44119.10
588.97	44140.16
589.13	44414.01
589.29	43885.04
589.45	44322.72
589.61	44570.82
589.77	44999.14
589.93	44629.34
590.08	44797.85
590.24	44582.52
590.40	44516.99
