SpectraSuite Data File
++++++++++++++++++++++++++++++++++++
Date: Fri Oct 25 11:26:36 EDT 2013
User: price-jones
Dark Spectrum Present: No
Reference Spectrum Present: No
Number of Sampled Component Spectra: 1
Spectrometers: USB2+H05261
Integration Time (usec): 100000 (USB2+H05261)
Spectra Averaged: 1 (USB2+H05261)
Boxcar Smoothing: 0 (USB2+H05261)
Correct for Electrical Dark: No (USB2+H05261)
Strobe/Lamp Enabled: No (USB2+H05261)
Correct for Detector Non-linearity: No (USB2+H05261)
Correct for Stray Light: No (USB2+H05261)
Number of Pixels in Processed Spectrum: 2048
>>>>>Begin Processed Spectral Data<<<<<
365.73	257.46
365.92	257.46
366.12	257.46
366.32	42.13
366.52	126.39
366.72	147.45
366.91	156.82
367.11	138.09
367.31	93.62
367.51	205.97
367.70	175.54
367.90	112.35
368.10	147.45
368.30	121.71
368.49	201.29
368.69	217.67
368.89	180.22
369.09	180.22
369.28	142.77
369.48	187.24
369.68	198.95
369.87	173.20
370.07	222.35
370.27	210.65
370.47	299.59
370.66	578.11
370.86	624.92
371.06	617.90
371.25	681.10
371.45	582.79
371.65	627.26
371.84	657.69
372.04	758.33
372.24	688.12
372.44	772.38
372.63	784.08
372.83	753.65
373.03	734.93
373.22	772.38
373.42	774.72
373.62	695.14
373.81	781.74
374.01	821.53
374.21	851.96
374.40	765.36
374.60	866.00
374.79	854.30
374.99	842.59
375.19	807.48
375.38	755.99
375.58	816.85
375.78	847.27
375.97	866.00
376.17	912.81
376.37	830.89
376.56	851.96
376.76	940.90
376.95	880.04
377.15	823.87
377.35	901.11
377.54	952.60
377.74	858.98
377.93	926.85
378.13	908.13
378.33	999.41
378.52	891.74
378.72	922.17
378.91	973.66
379.11	952.60
379.31	929.19
379.50	959.62
379.70	910.47
379.89	959.62
380.09	997.07
380.28	968.98
380.48	959.62
380.68	987.71
380.87	1001.75
381.07	1095.37
381.26	1034.52
381.46	973.66
381.65	1050.90
381.85	1020.47
382.04	1013.45
382.24	1039.20
382.43	987.71
382.63	1069.62
382.83	1088.35
383.02	1118.78
383.22	1062.60
383.41	1043.88
383.61	1181.97
383.80	1053.24
384.00	1203.04
384.19	1179.63
384.39	1078.99
384.58	1170.27
384.78	1228.78
384.97	1095.37
385.17	1165.59
385.36	1196.01
385.56	1193.67
385.75	1128.14
385.95	1233.46
386.14	1245.16
386.34	1242.82
386.53	1177.29
386.72	1153.88
386.92	1207.72
387.11	1188.99
387.31	1245.16
387.50	1313.04
387.70	1198.35
387.89	1287.29
388.09	1275.59
388.28	1167.93
388.48	1231.12
388.67	1334.11
388.86	1322.40
389.06	1336.45
389.25	1301.34
389.45	1350.49
389.64	1329.42
389.84	1397.30
390.03	1362.19
390.22	1350.49
390.42	1432.41
390.61	1439.43
390.81	1322.40
391.00	1390.28
391.19	1373.89
391.39	1465.18
391.58	1533.05
391.78	1500.28
391.97	1507.30
392.16	1479.22
392.36	1507.30
392.55	1521.35
392.75	1589.22
392.94	1509.65
393.13	1589.22
393.33	1589.22
393.52	1666.46
393.71	1647.74
393.91	1633.69
394.10	1600.93
394.29	1680.50
394.49	1589.22
394.68	1591.56
394.88	1600.93
395.07	1706.25
395.26	1767.10
395.46	1631.35
395.65	1746.04
395.84	1739.02
396.04	1825.62
396.23	1717.95
396.42	1844.34
396.62	1760.08
396.81	1813.92
397.00	1638.38
397.19	1816.26
397.39	1661.78
397.58	1944.99
397.77	1944.99
397.97	1839.66
398.16	1792.85
398.35	1884.13
398.55	1865.41
398.74	1966.05
398.93	1989.46
399.12	1912.22
399.32	1914.56
399.51	1968.39
399.70	2043.29
399.90	1877.11
400.09	1949.67
400.28	2038.61
400.47	2043.29
400.67	2062.01
400.86	2017.54
401.05	2129.89
401.24	2036.27
401.44	2237.55
401.63	2155.63
401.82	2118.18
402.01	2155.63
402.21	2150.95
402.40	2237.55
402.59	2143.93
402.78	2263.30
402.97	2253.94
403.17	2204.78
403.36	2244.57
403.55	2272.66
403.74	2289.04
403.93	2328.83
404.13	2380.32
404.32	2267.98
404.51	2396.71
404.70	2466.92
404.89	2377.98
405.09	2452.88
405.28	2534.80
405.47	2452.88
405.66	2455.22
405.85	2464.58
406.05	2588.63
406.24	2410.75
406.43	2558.21
406.62	2621.40
406.81	2663.53
407.00	2658.85
407.20	2485.65
407.39	2672.89
407.58	2686.94
407.77	2761.83
407.96	2806.30
408.15	2700.98
408.34	2696.30
408.54	2799.28
408.73	2806.30
408.92	2883.54
409.11	2920.99
409.30	2883.54
409.49	2850.77
409.68	2836.73
409.87	2846.09
410.07	2963.12
410.26	3021.63
410.45	3030.99
410.64	3038.02
410.83	3047.38
411.02	3171.43
411.21	3269.73
411.40	3164.40
411.59	3318.88
411.78	3262.71
411.98	3075.46
412.17	3126.96
412.36	3222.92
412.55	3473.36
412.74	3400.80
412.93	3480.38
413.12	3361.01
413.31	3604.42
413.50	3499.10
413.69	3541.23
413.88	3688.68
414.07	3602.08
414.26	3676.98
414.45	3688.68
414.64	3723.79
414.83	3726.13
415.02	3667.62
415.22	3899.33
415.41	3927.42
415.60	3737.84
415.79	3852.52
415.98	3995.29
416.17	3988.27
416.36	3894.65
416.55	3948.48
416.74	4070.19
416.93	4049.13
417.12	4117.00
417.31	4173.18
417.50	4128.70
417.69	4290.20
417.88	4292.54
418.07	4337.01
418.26	4451.70
418.45	4266.80
418.64	4365.10
418.83	4463.40
419.02	4418.93
419.21	4521.92
419.39	4613.20
419.58	4379.14
419.77	4447.02
419.96	4512.55
420.15	4737.24
420.34	4585.11
420.53	4688.09
420.72	4557.02
420.91	4791.08
421.10	4760.65
421.29	4901.08
421.48	4814.48
421.67	4755.97
421.86	4741.93
422.05	4737.24
422.24	4842.57
422.43	4987.68
422.61	4784.06
422.80	4901.08
422.99	5130.45
423.18	5111.73
423.37	5139.82
423.56	5004.07
423.75	4807.46
423.94	4889.38
424.13	4531.28
424.32	4617.88
424.50	4945.55
424.69	5067.26
424.88	5001.72
425.07	5018.11
425.26	5111.73
425.45	5048.54
425.64	4882.36
425.83	5041.51
426.01	5060.24
426.20	5057.90
426.39	5018.11
426.58	5083.64
426.77	5078.96
426.96	5210.03
427.15	5214.71
427.33	5114.07
427.52	5308.34
427.71	5392.59
427.90	5188.97
428.09	5364.51
428.28	5287.27
428.46	5259.18
428.65	5331.74
428.84	5603.24
429.03	5570.48
429.22	5348.12
429.40	5385.57
429.59	5345.78
429.78	5385.57
429.97	5352.81
430.16	5551.75
430.34	5710.91
430.53	5762.40
430.72	5820.91
430.91	5692.18
431.10	5685.16
431.28	5687.50
431.47	5811.55
431.66	5877.09
431.85	5802.19
432.03	6033.90
432.22	5849.00
432.41	5956.66
432.60	5980.07
432.79	5902.83
432.97	5954.32
433.16	6211.78
433.35	6003.47
433.54	6076.03
433.72	6225.82
433.91	6244.55
434.10	6181.35
434.28	6054.97
434.47	6179.01
434.66	6321.79
434.85	6347.53
435.03	6108.80
435.22	6333.49
435.41	6693.93
435.59	6427.11
435.78	6473.92
435.97	6443.49
436.16	6466.90
436.34	6520.73
436.53	6633.08
436.72	6736.06
436.90	6548.82
437.09	6658.82
437.28	6516.05
437.46	6703.29
437.65	6590.95
437.84	6738.40
438.02	6815.64
438.21	6897.56
438.40	6764.15
438.58	6932.67
438.77	7028.63
438.96	6855.43
439.14	7148.00
439.33	7129.27
439.52	7131.61
439.70	7342.26
439.89	7449.93
440.08	7508.44
440.26	7293.11
440.45	7260.34
440.63	7646.53
440.82	7585.68
441.01	7653.55
441.19	7611.42
441.38	7850.16
441.57	7765.90
441.75	7887.61
441.94	7962.50
442.12	8016.33
442.31	8060.80
442.50	8035.06
442.68	8021.02
442.87	8100.59
443.05	8098.25
443.24	8189.53
443.43	8224.64
443.61	8245.71
443.80	8449.33
443.98	8028.04
444.17	7805.69
444.35	8205.92
444.54	8301.88
444.73	8475.08
444.91	8255.07
445.10	8320.60
445.28	8395.50
445.47	8365.07
445.65	8318.26
445.84	8531.25
446.02	8409.54
446.21	8451.67
446.39	8578.06
446.58	8636.58
446.77	8596.79
446.95	8425.93
447.14	8484.44
447.32	8748.92
447.51	8327.63
447.69	8608.49
447.88	8606.15
448.06	8599.13
448.25	8439.97
448.43	8524.23
448.62	8603.81
448.80	8575.72
448.99	8514.87
449.17	8723.18
449.36	8828.50
449.54	8872.97
449.73	8945.53
449.91	8992.34
450.10	8961.91
450.28	9249.80
450.46	9177.24
450.65	9177.24
450.83	9142.13
451.02	9202.99
451.20	9233.41
451.39	9198.31
451.57	9095.32
451.76	9153.84
451.94	9179.58
452.13	9338.74
452.31	9207.67
452.49	9184.26
452.68	9500.23
452.86	9451.08
453.05	9511.94
453.23	9392.57
453.42	9418.32
453.60	9390.23
453.78	9488.53
453.97	9507.26
454.15	9542.36
454.34	9572.79
454.52	9533.00
454.70	9701.52
454.89	9886.42
455.07	9776.42
455.26	9902.81
455.44	9785.78
455.62	9867.70
455.81	10033.88
455.99	10052.60
456.17	10115.80
456.36	10127.50
456.54	10209.42
456.73	10246.87
456.91	10438.79
457.09	10274.95
457.28	10424.75
457.46	10558.16
457.64	10422.41
457.83	10457.51
458.01	10602.63
458.19	10712.63
458.38	10560.50
458.56	10719.65
458.74	10595.61
458.93	10537.09
459.11	10796.89
459.29	10684.55
459.48	10761.78
459.66	10750.08
459.84	11047.33
460.03	10965.41
460.21	11077.76
460.39	11005.20
460.57	11021.58
460.76	11265.00
460.94	11164.36
461.12	11101.16
461.31	11220.53
461.49	10960.73
461.67	11248.61
461.85	11124.57
462.04	11424.15
462.22	11508.41
462.40	11482.67
462.59	11562.25
462.77	11705.02
462.95	11651.19
463.13	11686.29
463.32	11679.27
463.50	11845.45
463.68	11852.47
463.86	11927.37
464.05	11763.53
464.23	11683.95
464.41	11822.05
464.59	11571.61
464.78	12070.14
464.96	12102.91
465.14	11847.79
465.32	12161.42
465.50	12154.40
465.69	12259.73
465.87	12266.75
466.05	12379.09
466.23	12128.66
466.41	12400.16
466.60	12491.44
466.78	12266.75
466.96	12159.08
467.14	12257.39
467.32	12528.89
467.51	12631.87
467.69	12442.29
467.87	12746.56
468.05	12666.98
468.23	12461.01
468.41	12549.95
468.60	12496.12
468.78	12463.35
468.96	12603.78
469.14	12788.69
469.32	13008.70
469.50	12865.92
469.69	12992.31
469.87	13137.43
470.05	13177.22
470.23	13212.32
470.41	13046.15
470.59	13109.34
470.77	13062.53
470.95	13310.63
471.14	13682.77
471.32	13348.08
471.50	13621.92
471.68	13556.38
471.86	13666.39
472.04	13736.60
472.22	14106.41
472.40	13596.17
472.58	13942.57
472.77	14104.07
472.95	14373.23
473.13	14644.73
473.31	14003.43
473.49	14195.35
473.67	14122.79
473.85	14211.73
474.03	14534.73
474.21	14792.19
474.39	14836.66
474.57	14876.44
474.75	14869.42
474.93	14841.34
475.12	14932.62
475.30	15372.64
475.48	14843.68
475.66	15279.02
475.84	15152.63
476.02	15435.83
476.20	15637.12
476.38	15819.68
476.56	15889.90
476.74	15803.30
476.92	15723.72
477.10	15538.82
477.28	16081.82
477.46	16166.08
477.64	16346.30
477.82	16613.12
478.00	16992.29
478.18	16814.41
478.36	16996.97
478.54	17326.99
478.72	17193.58
478.90	17406.56
479.08	17568.06
479.26	17750.62
479.44	17596.15
479.62	17809.14
479.80	18059.57
479.98	18057.23
480.16	18647.05
480.34	18501.93
480.52	18499.59
480.70	18698.54
480.88	18689.18
481.06	18747.69
481.24	18899.83
481.41	18890.46
481.59	19440.49
481.77	19403.04
481.95	19555.18
482.13	19831.36
482.31	19733.06
482.49	20535.86
482.67	20369.68
482.85	20531.18
483.03	20713.74
483.21	20926.73
483.39	21144.40
483.57	20858.85
483.74	21355.05
483.92	21350.37
484.10	21373.77
484.28	21839.54
484.46	21806.77
484.64	22733.62
484.82	21816.13
485.00	22375.52
485.18	23075.34
485.35	23131.51
485.53	22920.87
485.71	23477.91
485.89	23707.29
486.07	23138.54
486.25	23323.44
486.43	23604.30
486.61	23946.02
486.78	24217.52
486.96	24336.89
487.14	24271.36
487.32	24720.74
487.50	24903.30
487.68	25095.22
487.85	25383.11
488.03	25631.21
488.21	26225.70
488.39	26099.31
488.57	26352.09
488.75	26607.21
488.92	26476.14
489.10	26930.20
489.28	26693.81
489.46	27292.99
489.64	26775.73
489.81	27637.05
489.99	27784.50
490.17	27634.71
490.35	28313.46
490.53	28128.56
490.70	28402.40
490.88	28210.48
491.06	29156.05
491.24	29223.93
491.41	28924.34
491.59	29549.26
491.77	29411.17
491.95	29682.67
492.13	29788.00
492.30	30328.66
492.48	30253.76
492.66	30127.38
492.84	30373.13
493.01	30773.36
493.19	30588.46
493.37	31138.49
493.54	31386.58
493.72	31517.65
493.90	31700.22
494.08	32156.62
494.25	31754.05
494.43	32088.74
494.61	32442.17
494.79	32275.99
494.96	32797.93
495.14	32474.93
495.32	33333.91
495.49	33071.77
495.67	33291.78
495.85	33525.83
496.02	34050.11
496.20	34054.79
496.38	33989.26
496.55	34408.22
496.73	35019.10
496.91	34696.10
497.09	34698.44
497.26	35192.30
497.44	34511.20
497.62	35541.03
497.79	35831.26
497.97	35384.22
498.14	36067.66
498.32	36320.43
498.50	36170.64
498.67	36381.29
498.85	36568.53
499.03	36985.15
499.20	36566.19
499.38	37034.30
499.56	37022.59
499.73	36957.06
499.91	37130.26
500.08	37867.53
500.26	37408.78
500.44	37930.72
500.61	37813.70
500.79	37865.19
500.97	38026.68
501.14	38513.52
501.32	38356.70
501.49	38628.20
501.67	38455.00
501.84	39019.07
502.02	39009.71
502.20	38813.10
502.37	39227.38
502.55	39126.74
502.72	39681.44
502.90	39693.15
503.07	39536.33
503.25	39992.73
503.43	39892.09
503.60	39864.00
503.78	40308.71
503.95	40456.16
504.13	40687.87
504.30	40727.66
504.48	40669.15
504.65	40680.85
504.83	41242.58
505.01	41294.07
505.18	41345.56
505.36	41392.37
505.53	41504.72
505.71	41926.02
505.88	41827.71
506.06	41390.03
506.23	41926.02
506.41	41991.55
506.58	42440.93
506.76	42291.14
506.93	42319.23
507.11	42756.91
507.28	42653.92
507.46	42768.61
507.63	42693.71
507.81	43248.42
507.98	42567.32
508.16	43012.02
508.33	43555.03
508.50	43409.92
508.68	43618.22
508.85	43718.87
509.03	43641.63
509.20	44133.14
509.38	44280.60
509.55	44273.57
509.73	44406.98
509.90	44727.64
510.08	44854.03
510.25	44484.22
510.42	44945.31
510.60	45415.76
510.77	45485.97
510.95	45876.84
511.12	45528.10
511.30	45172.34
511.47	45612.36
511.64	45394.69
511.82	46050.04
511.99	45808.96
512.17	45830.03
512.34	46195.15
512.51	46576.66
512.69	46351.97
512.86	46829.44
513.04	46799.01
513.21	46857.52
513.38	46834.12
513.56	46944.12
513.73	46862.21
513.90	47445.00
514.08	46955.83
514.25	47227.33
514.43	47590.11
514.60	47477.77
514.77	46965.19
514.95	47463.72
515.12	47442.66
515.29	47555.00
515.47	48114.39
515.64	48023.11
515.81	48259.51
515.99	48236.10
516.16	48259.51
516.33	48610.59
516.51	48830.60
516.68	48458.45
516.85	48350.79
517.03	48875.07
517.20	48982.73
517.37	49076.35
517.54	49162.95
517.72	49031.88
517.89	49038.90
518.06	49345.51
518.24	49385.30
518.41	49570.21
518.58	49343.17
518.75	49432.11
518.93	49553.82
519.10	49476.58
519.27	49991.50
519.45	49640.42
519.62	50094.49
519.79	50169.38
519.96	50031.29
520.14	50354.29
520.31	50078.10
520.48	50574.30
520.65	50232.58
520.83	50852.82
521.00	50681.96
521.17	50527.48
521.34	50878.57
521.52	50604.72
521.69	50798.99
521.86	51077.51
522.03	51002.61
522.20	51599.45
522.38	51606.47
522.55	51178.15
522.72	51505.83
522.89	50836.44
523.07	51819.46
523.24	51276.46
523.41	51798.40
523.58	51613.49
523.75	51917.76
523.92	51639.24
524.10	51934.15
524.27	52472.47
524.44	52018.41
524.61	51920.10
524.78	52058.20
524.96	52236.08
525.13	52048.83
525.30	52718.23
525.47	52397.57
525.64	52339.06
525.81	52669.08
525.98	52933.56
526.16	52786.10
526.33	52713.55
526.50	52795.46
526.67	52683.12
526.84	52844.62
527.01	52942.92
527.18	53132.50
527.36	53312.72
527.53	53144.20
527.70	53242.51
527.87	53673.16
528.04	53212.08
528.21	53595.93
528.38	53235.48
528.55	53621.67
528.72	53457.84
528.89	53436.77
529.07	53457.84
529.24	53478.90
529.41	53748.06
529.58	54080.42
529.75	53932.96
529.92	53736.36
530.09	53741.04
530.26	54295.75
530.43	54150.63
530.60	53698.91
530.77	53991.48
530.94	54174.04
531.11	53921.26
531.28	54239.57
531.46	54251.28
531.63	54328.52
531.80	54543.84
531.97	54391.71
532.14	54349.58
532.31	54482.99
532.48	54518.10
532.65	54674.91
532.82	54487.67
532.99	54773.22
533.16	54452.56
533.33	54700.66
533.50	54995.57
533.67	54827.05
533.84	54719.38
534.01	55004.93
534.18	55100.89
534.35	55360.69
534.52	55114.94
534.69	55337.29
534.86	55112.59
535.03	55147.70
535.20	55231.96
535.37	55671.98
535.54	55634.53
535.71	55145.36
535.88	55725.81
536.05	55501.12
536.22	55622.83
536.38	55618.15
536.55	55547.93
536.72	55636.87
536.89	55297.50
537.06	55789.01
537.23	55737.52
537.40	55674.32
537.57	55941.14
537.74	55889.65
537.91	56172.86
538.08	55934.12
538.25	55781.99
538.42	55983.27
538.59	56069.87
538.75	55978.59
538.92	56149.45
539.09	56332.01
539.26	56090.94
539.43	56114.34
539.60	56500.53
539.77	56488.83
539.94	56444.36
540.11	56371.80
540.28	56357.76
540.44	56636.28
540.61	56545.00
540.78	56350.74
540.95	56402.23
541.12	56498.19
541.29	56432.66
541.46	56797.78
541.62	56645.65
541.79	56673.73
541.96	56460.74
542.13	56788.42
542.30	56603.52
542.47	56781.40
542.63	56910.13
542.80	57029.49
542.97	57132.48
543.14	57333.76
543.31	57249.50
543.48	57495.26
543.64	57422.70
543.81	57504.62
543.98	57560.79
544.15	57546.75
544.32	57546.75
544.48	57680.16
544.65	57462.49
544.82	57642.71
544.99	57528.03
545.16	57286.95
545.32	57574.84
545.49	57623.99
545.66	57832.30
545.83	57771.44
546.00	57787.83
546.16	57752.72
546.33	57621.65
546.50	57654.42
546.67	57811.23
546.83	57551.43
547.00	57785.49
547.17	57703.57
547.34	57925.92
547.50	58136.57
547.67	58157.63
547.84	57930.60
548.00	58185.72
548.17	58239.55
548.34	58106.14
548.51	58492.33
548.67	58312.11
548.84	58164.65
549.01	58019.54
549.18	58024.22
549.34	58220.83
549.51	58227.85
549.68	58309.77
549.84	58473.60
550.01	58475.94
550.18	58361.26
550.34	58429.13
550.51	58368.28
550.68	58394.03
550.84	58115.50
551.01	58473.60
551.18	58564.88
551.34	58365.94
551.51	58677.23
551.68	58656.17
551.84	58728.72
552.01	58534.46
552.18	58796.60
552.34	58377.64
552.51	58658.51
552.68	58791.92
552.84	58768.51
553.01	59025.97
553.18	58712.34
553.34	58873.84
553.51	58841.07
553.67	59009.59
553.84	59110.23
554.01	58925.33
554.17	59138.32
554.34	59168.74
554.51	59023.63
554.67	59152.36
554.84	59224.92
555.00	59011.93
555.17	59075.12
555.33	58962.78
555.50	59271.73
555.67	59224.92
555.83	59028.31
556.00	59409.82
556.16	59447.27
556.33	59271.73
556.50	59358.33
556.66	59517.48
556.83	59339.60
556.99	59473.01
557.16	59566.63
557.32	59355.99
557.49	59597.06
557.65	59267.05
557.82	59428.54
557.98	59482.37
558.15	59629.83
558.32	59618.13
558.48	59522.16
558.65	59526.84
558.81	59580.68
558.98	59451.95
559.14	59643.87
559.31	59648.55
559.47	59648.55
559.64	59742.17
559.80	59744.51
559.97	59849.84
560.13	59454.29
560.30	59674.30
560.46	60018.36
560.63	59662.60
560.79	59838.14
560.96	60069.85
561.12	59854.52
561.29	59936.44
561.45	59983.25
561.61	59952.82
561.78	59908.35
561.94	59791.33
562.11	59859.20
562.27	59770.26
562.44	60299.22
562.60	60025.38
562.77	60011.34
562.93	59707.07
563.10	60177.51
563.26	59987.93
563.42	60090.91
563.59	59973.89
563.75	60074.53
563.92	60055.81
564.08	60027.72
564.24	60266.45
564.41	60102.62
564.57	60119.00
564.74	60069.85
564.90	60023.04
565.07	60053.47
565.23	60224.32
565.39	60074.53
565.56	60224.32
565.72	60121.34
565.88	60107.30
566.05	60034.74
566.21	60285.18
566.38	60205.60
566.54	60299.22
566.70	60488.80
566.87	60425.61
567.03	60203.26
567.19	60310.92
567.36	60287.52
567.52	60200.92
567.68	60474.76
567.85	60369.44
568.01	60467.74
568.17	60214.96
568.34	60420.93
568.50	60229.01
568.66	60163.47
568.83	60554.34
568.99	60257.09
569.15	60617.53
569.32	60418.59
569.48	60439.65
569.64	60423.27
569.81	60327.31
569.97	60397.52
570.13	60493.49
570.30	60500.51
570.46	60533.28
570.62	60530.93
570.78	60540.30
570.95	60364.76
571.11	60659.66
571.27	60519.23
571.43	60772.01
571.60	60647.96
571.76	60453.70
571.92	60664.35
572.09	60795.42
572.25	60615.19
572.41	60687.75
572.57	60732.22
572.74	60910.10
572.90	60615.19
573.06	60650.30
573.22	60624.56
573.38	60638.60
573.55	60299.22
573.71	60874.99
573.87	60741.58
574.03	60647.96
574.20	60526.25
574.36	60617.53
574.52	60814.14
574.68	60772.01
574.84	60692.43
575.01	60779.03
575.17	60746.26
575.33	60626.90
575.49	60795.42
575.65	60713.50
575.82	60870.31
575.98	60924.14
576.14	60977.98
576.30	61020.11
576.46	60596.47
576.62	60610.51
576.79	60886.70
576.95	60659.66
577.11	60863.29
577.27	60846.91
577.43	60985.00
577.59	60823.50
577.75	60842.23
577.92	60774.35
578.08	60800.10
578.24	60940.53
578.40	61146.50
578.56	60907.76
578.72	60835.20
578.88	61017.77
579.04	61106.71
579.21	60816.48
579.37	60926.49
579.53	61069.26
579.69	60851.59
579.85	60989.68
580.01	60718.18
580.17	60851.59
580.33	60963.93
580.49	61031.81
580.65	60961.59
580.82	60999.04
580.98	60809.46
581.14	61043.51
581.30	60968.61
581.46	60860.95
581.62	61043.51
581.78	60853.93
581.94	61167.56
582.10	60954.57
582.26	60774.35
582.42	60942.87
582.58	61087.98
582.74	60842.23
582.90	60919.46
583.06	60879.67
583.22	60959.25
583.38	60987.34
583.54	60940.53
583.70	61151.18
583.86	61062.24
584.02	60837.54
584.18	61181.60
584.34	60928.83
584.50	61055.21
584.66	60940.53
584.82	60945.21
584.98	61125.43
585.14	61200.33
585.30	61001.38
585.46	61167.56
585.62	61120.75
585.78	61317.35
585.94	61055.21
586.10	60931.17
586.26	61106.71
586.42	61275.22
586.58	61073.94
586.74	61307.99
586.90	61034.15
587.06	61099.68
587.22	61221.39
587.38	61050.53
587.54	61298.63
587.70	61415.66
587.86	61132.45
588.02	60910.10
588.18	61415.66
588.34	61022.45
588.49	61254.16
