SpectraSuite Data File
++++++++++++++++++++++++++++++++++++
Date: Fri Oct 25 11:33:30 EDT 2013
User: price-jones
Dark Spectrum Present: No
Reference Spectrum Present: No
Number of Sampled Component Spectra: 1
Spectrometers: USB2+H05261
Integration Time (usec): 100000 (USB2+H05261)
Spectra Averaged: 1 (USB2+H05261)
Boxcar Smoothing: 0 (USB2+H05261)
Correct for Electrical Dark: No (USB2+H05261)
Strobe/Lamp Enabled: No (USB2+H05261)
Correct for Detector Non-linearity: No (USB2+H05261)
Correct for Stray Light: No (USB2+H05261)
Number of Pixels in Processed Spectrum: 2048
>>>>>Begin Processed Spectral Data<<<<<
365.73	248.10
365.92	248.10
366.12	248.10
366.32	156.82
366.52	154.48
366.72	149.79
366.91	196.60
367.11	170.86
367.31	166.18
367.51	234.05
367.70	170.86
367.90	201.29
368.10	175.54
368.30	142.77
368.49	196.60
368.69	156.82
368.89	156.82
369.09	184.90
369.28	201.29
369.48	189.58
369.68	241.08
369.87	212.99
370.07	154.48
370.27	257.46
370.47	266.82
370.66	447.04
370.86	456.40
371.06	557.05
371.25	489.17
371.45	545.34
371.65	528.96
371.84	423.64
372.04	545.34
372.24	554.71
372.44	582.79
372.63	613.22
372.83	608.54
373.03	624.92
373.22	512.58
373.42	667.05
373.62	557.05
373.81	664.71
374.01	716.20
374.21	751.31
374.40	627.26
374.60	695.14
374.79	624.92
374.99	704.50
375.19	585.13
375.38	662.37
375.58	641.31
375.78	617.90
375.97	692.80
376.17	678.76
376.37	741.95
376.56	697.48
376.76	709.18
376.95	650.67
377.15	763.01
377.35	753.65
377.54	704.50
377.74	650.67
377.93	690.46
378.13	681.10
378.33	709.18
378.52	711.52
378.72	746.63
378.91	711.52
379.11	655.35
379.31	685.78
379.50	739.61
379.70	685.78
379.89	723.23
380.09	690.46
380.28	683.44
380.48	753.65
380.68	674.07
380.87	809.83
381.07	837.91
381.26	669.39
381.46	753.65
381.65	793.44
381.85	739.61
382.04	725.57
382.24	713.86
382.43	765.36
382.63	760.67
382.83	821.53
383.02	833.23
383.22	821.53
383.41	737.27
383.61	767.70
383.80	748.97
384.00	779.40
384.19	823.87
384.39	795.78
384.58	777.06
384.78	800.46
384.97	919.83
385.17	763.01
385.36	833.23
385.56	915.15
385.75	835.57
385.95	887.06
386.14	898.77
386.34	901.11
386.53	936.21
386.72	894.08
386.92	954.94
387.11	847.27
387.31	847.27
387.50	894.08
387.70	936.21
387.89	875.36
388.09	912.81
388.28	800.46
388.48	833.23
388.67	964.30
388.86	915.15
389.06	915.15
389.25	992.39
389.45	1013.45
389.64	922.17
389.84	919.83
390.03	1032.18
390.22	999.41
390.42	1022.81
390.61	933.87
390.81	912.81
391.00	985.37
391.19	1039.20
391.39	919.83
391.58	1022.81
391.78	1015.79
391.97	999.41
392.16	1013.45
392.36	1043.88
392.55	1071.97
392.75	1039.20
392.94	976.00
393.13	976.00
393.33	1032.18
393.52	1128.14
393.71	1125.80
393.91	1200.69
394.10	1125.80
394.29	1071.97
394.49	1048.56
394.68	1135.16
394.88	1076.65
395.07	1179.63
395.26	1069.62
395.46	1191.33
395.65	1135.16
395.84	1123.46
396.04	1268.57
396.23	1242.82
396.42	1167.93
396.62	1221.76
396.81	1125.80
397.00	1212.40
397.19	1228.78
397.39	1170.27
397.58	1299.00
397.77	1247.51
397.97	1191.33
398.16	1207.72
398.35	1252.19
398.55	1235.80
398.74	1313.04
398.93	1294.32
399.12	1254.53
399.32	1299.00
399.51	1217.08
399.70	1310.70
399.90	1355.17
400.09	1329.42
400.28	1247.51
400.47	1357.51
400.67	1383.26
400.86	1439.43
401.05	1390.28
401.24	1521.35
401.44	1378.58
401.63	1376.24
401.82	1399.64
402.01	1493.26
402.21	1458.15
402.40	1551.78
402.59	1448.79
402.78	1448.79
402.97	1490.92
403.17	1458.15
403.36	1526.03
403.55	1584.54
403.74	1533.05
403.93	1563.48
404.13	1507.30
404.32	1612.63
404.51	1631.35
404.70	1638.38
404.89	1549.43
405.09	1612.63
405.28	1706.25
405.47	1661.78
405.66	1724.97
405.85	1820.94
406.05	1717.95
406.24	1706.25
406.43	1694.55
406.62	1783.49
406.81	1783.49
407.00	1732.00
407.20	1799.87
407.39	1736.68
407.58	1865.41
407.77	2029.24
407.96	1961.37
408.15	1879.45
408.34	1867.75
408.54	1837.32
408.73	1809.23
408.92	1856.04
409.11	1937.96
409.30	2026.90
409.49	2031.58
409.68	1923.92
409.87	1919.24
410.07	1968.39
410.26	2040.95
410.45	2015.20
410.64	1982.43
410.83	2139.25
411.02	2062.01
411.21	2172.02
411.40	2242.23
411.59	2193.08
411.78	2195.42
411.98	2179.04
412.17	2333.51
412.36	2279.68
412.55	2321.81
412.74	2415.43
412.93	2509.05
413.12	2326.49
413.31	2352.24
413.50	2399.05
413.69	2375.64
413.88	2396.71
414.07	2448.20
414.26	2530.12
414.45	2497.35
414.64	2548.84
414.83	2478.63
415.02	2623.74
415.22	2579.27
415.41	2565.23
415.60	2665.87
415.79	2626.08
415.98	2609.70
416.17	2792.26
416.36	2696.30
416.55	2644.81
416.74	2846.09
416.93	2780.56
417.12	2846.09
417.31	2946.73
417.50	2874.18
417.69	2998.23
417.88	2942.05
418.07	2970.14
418.26	2920.99
418.45	3038.02
418.64	3206.53
418.83	3061.42
419.02	3101.21
419.21	3129.30
419.39	3105.89
419.58	2967.80
419.77	3016.95
419.96	3136.32
420.15	3141.00
420.34	3157.38
420.53	3108.23
420.72	3136.32
420.91	3332.92
421.10	3201.85
421.29	3300.16
421.48	3194.83
421.67	3403.14
421.86	3155.04
422.05	3295.47
422.24	3302.50
422.43	3564.64
422.61	3300.16
422.80	3379.73
422.99	3384.41
423.18	3377.39
423.37	3583.36
423.56	3323.56
423.75	3417.18
423.94	3300.16
424.13	3211.22
424.32	3344.63
424.50	3449.95
424.69	3508.46
424.88	3475.70
425.07	3304.84
425.26	3400.80
425.45	3445.27
425.64	3459.31
425.83	3473.36
426.01	3564.64
426.20	3452.29
426.39	3471.01
426.58	3438.25
426.77	3520.17
426.96	3431.23
427.15	3433.57
427.33	3672.30
427.52	3581.02
427.71	3609.11
427.90	3541.23
428.09	3693.37
428.28	3634.85
428.46	3627.83
428.65	3824.44
428.84	3845.50
429.03	3791.67
429.22	3688.68
429.40	3756.56
429.59	3716.77
429.78	3740.18
429.97	3686.34
430.16	3824.44
430.34	3838.48
430.53	3798.69
430.72	3611.45
430.91	3770.60
431.10	3782.31
431.28	3906.35
431.47	3892.31
431.66	3964.87
431.85	3840.82
432.03	4056.15
432.22	4035.08
432.41	4056.15
432.60	3857.20
432.79	4102.96
432.97	3920.40
433.16	4058.49
433.35	4042.11
433.54	4107.64
433.72	4114.66
433.91	4196.58
434.10	4152.11
434.28	4175.52
434.47	4208.28
434.66	4219.99
434.85	4191.90
435.03	4339.35
435.22	4297.22
435.41	4358.08
435.59	4372.12
435.78	4435.32
435.97	4507.87
436.16	4432.97
436.34	4482.13
436.53	4449.36
436.72	4477.44
436.90	4468.08
437.09	4603.83
437.28	4454.04
437.46	4458.72
437.65	4451.70
437.84	4681.07
438.02	4575.75
438.21	4554.68
438.40	4638.94
438.58	4671.71
438.77	4802.78
438.96	4725.54
439.14	4748.95
439.33	4882.36
439.52	4945.55
439.70	4898.74
439.89	4945.55
440.08	5022.79
440.26	4903.42
440.45	5001.72
440.63	4901.08
440.82	5224.08
441.01	5041.51
441.19	5128.11
441.38	5146.84
441.57	5135.14
441.75	5186.63
441.94	5355.15
442.12	5397.28
442.31	5383.23
442.50	5406.64
442.68	5411.32
442.87	5383.23
443.05	5383.23
443.24	5533.03
443.43	5547.07
443.61	5523.66
443.80	5568.13
443.98	5411.32
444.17	5270.89
444.35	5535.37
444.54	5572.82
444.73	5518.98
444.91	5533.03
445.10	5713.25
445.28	5699.20
445.47	5736.65
445.65	5738.99
445.84	5654.73
446.02	5666.44
446.21	5636.01
446.39	5659.42
446.58	5774.10
446.77	5750.70
446.95	5476.85
447.14	5626.65
447.32	5738.99
447.51	5837.30
447.69	5785.80
447.88	5736.65
448.06	5748.36
448.25	5738.99
448.43	5921.56
448.62	5767.08
448.80	5790.49
448.99	6008.16
449.17	5851.34
449.36	5872.40
449.54	6148.59
449.73	6125.18
449.91	6076.03
450.10	6057.31
450.28	6040.92
450.46	6289.02
450.65	5980.07
450.83	6047.94
451.02	6052.63
451.20	6099.44
451.39	6115.82
451.57	6136.88
451.76	6209.44
451.94	6258.59
452.13	6160.29
452.31	6127.52
452.49	6008.16
452.68	6305.40
452.86	6370.94
453.05	6235.19
453.23	6401.37
453.42	6303.06
453.60	6478.60
453.78	6389.66
453.97	6469.24
454.15	6466.90
454.34	6434.13
454.52	6534.78
454.70	6473.92
454.89	6574.56
455.07	6682.23
455.26	6389.66
455.44	6794.58
455.62	6616.69
455.81	6558.18
455.99	6609.67
456.17	6850.75
456.36	6752.45
456.54	6782.87
456.73	6883.52
456.91	7028.63
457.09	6839.05
457.28	6946.71
457.46	6916.28
457.64	7178.42
457.83	7122.25
458.01	6967.77
458.19	7094.16
458.38	7084.80
458.56	7070.76
458.74	7260.34
458.93	7052.03
459.11	7386.73
459.29	7176.08
459.48	7267.36
459.66	7164.38
459.84	7342.26
460.03	7496.74
460.21	7545.89
460.39	7400.77
460.57	7602.06
460.76	7445.24
460.94	7611.42
461.12	7552.91
461.31	7377.37
461.49	7534.18
461.67	7571.63
461.85	7957.82
462.04	7723.77
462.22	8032.72
462.40	7798.66
462.59	7833.77
462.77	7683.98
462.95	7730.79
463.13	7702.70
463.32	7674.62
463.50	7791.64
463.68	8081.87
463.86	7915.69
464.05	7913.35
464.23	7822.07
464.41	7826.75
464.59	7728.45
464.78	8245.71
464.96	7901.65
465.14	8046.76
465.32	8086.55
465.50	8035.06
465.69	7964.84
465.87	8070.17
466.05	8095.91
466.23	8205.92
466.41	8030.38
466.60	8336.99
466.78	7932.08
466.96	8121.66
467.14	7999.95
467.32	8119.32
467.51	8301.88
467.69	8081.87
467.87	8156.77
468.05	8334.65
468.23	8189.53
468.41	8428.27
468.60	8390.82
468.78	8557.00
468.96	8491.46
469.14	8631.90
469.32	8341.67
469.50	8219.96
469.69	8690.41
469.87	8695.09
470.05	8414.23
470.23	8748.92
470.41	8877.65
470.59	8762.97
470.77	8655.30
470.95	8741.90
471.14	8875.31
471.32	8674.03
471.50	9022.77
471.68	9109.36
471.86	8992.34
472.04	9142.13
472.22	9193.62
472.40	9121.07
472.58	9158.52
472.77	9287.25
472.95	9479.17
473.13	9621.94
473.31	9291.93
473.49	9252.14
473.67	9423.00
473.85	9530.66
474.03	9540.02
474.21	9561.09
474.39	9809.19
474.57	9720.24
474.75	9638.33
474.93	9879.40
475.12	10038.56
475.30	9823.23
475.48	9942.60
475.66	10141.54
475.84	10106.43
476.02	10174.31
476.20	10155.58
476.38	10258.57
476.56	10635.39
476.74	10597.95
476.92	10415.38
477.10	10541.77
477.28	10619.01
477.46	10719.65
477.64	10824.98
477.82	10743.06
478.00	11073.07
478.18	10939.66
478.36	11197.12
478.54	11363.30
478.72	11281.38
478.90	11386.71
479.08	11520.12
479.26	11634.80
479.44	11662.89
479.62	11899.28
479.80	11833.75
479.98	11826.73
480.16	12018.65
480.34	11967.16
480.52	12088.87
480.70	12252.70
480.88	12030.35
481.06	12238.66
481.24	12369.73
481.41	12601.44
481.59	12435.27
481.77	13004.02
481.95	12704.43
482.13	12903.37
482.31	13062.53
482.49	13266.16
482.67	13116.36
482.85	13659.37
483.03	13575.11
483.21	13530.64
483.39	13551.70
483.57	13518.93
483.74	13891.08
483.92	13877.04
484.10	13830.23
484.28	14164.92
484.46	14504.30
484.64	14707.93
484.82	14438.76
485.00	14466.85
485.18	14771.12
485.35	15126.88
485.53	15002.83
485.71	15105.82
485.89	15295.40
486.07	15236.89
486.25	15637.12
486.43	15288.38
486.61	15531.80
486.78	15901.60
486.96	15892.24
487.14	16006.92
487.32	16145.02
487.50	16105.23
487.68	16365.03
487.85	16276.09
488.03	16959.52
488.21	16741.85
488.39	16835.47
488.57	17296.56
488.75	17235.70
488.92	17326.99
489.10	17373.80
489.28	17488.48
489.46	17837.22
489.64	17619.55
489.81	18188.30
489.99	18040.85
490.17	18396.61
490.35	18499.59
490.53	18579.17
490.70	18703.22
490.88	18230.43
491.06	18628.32
491.24	18993.45
491.41	19232.18
491.59	19108.13
491.77	19145.58
491.95	19489.64
492.13	19454.53
492.30	19468.58
492.48	19576.24
492.66	19789.23
492.84	19789.23
493.01	20257.34
493.19	20053.71
493.37	20318.19
493.54	20212.87
493.72	20559.27
493.90	20514.80
494.08	20704.38
494.25	20989.92
494.43	21013.33
494.61	21135.04
494.79	21343.35
494.96	21275.47
495.14	21116.31
495.32	21724.85
495.49	21455.69
495.67	21827.84
495.85	22108.70
496.02	21853.58
496.20	22108.70
496.38	22099.34
496.55	22207.00
496.73	22895.12
496.91	22642.34
497.09	22918.53
497.26	22822.56
497.44	22911.50
497.62	23190.03
497.79	23447.49
497.97	23363.23
498.14	23328.12
498.32	23662.82
498.50	23552.81
498.67	23950.70
498.85	23824.31
499.03	23922.62
499.20	24109.86
499.38	23828.99
499.56	24226.89
499.73	24477.32
499.91	24315.83
500.08	24676.27
500.26	24570.94
500.44	24634.14
500.61	24594.35
500.79	24821.38
500.97	25116.29
501.14	25441.62
501.32	25467.37
501.49	25525.88
501.67	25144.38
501.84	25631.21
502.02	25666.31
502.20	25823.13
502.37	25502.48
502.55	25764.62
502.72	25921.43
502.90	25785.68
503.07	25790.36
503.25	26075.91
503.43	25872.28
503.60	26223.36
503.78	26277.19
503.95	26068.89
504.13	26312.30
504.30	26714.87
504.48	26806.16
504.65	26719.56
504.83	26817.86
505.01	27103.40
505.18	26733.60
505.36	26969.99
505.53	27131.49
505.71	27154.90
505.88	27700.24
506.06	27269.58
506.23	27938.97
506.41	27531.72
506.58	27878.12
506.76	27892.16
506.93	27964.72
507.11	27538.74
507.28	27938.97
507.46	28264.31
507.63	28137.92
507.81	28407.08
507.98	28451.55
508.16	28481.98
508.33	28687.95
508.50	28526.45
508.68	28643.48
508.85	28816.68
509.03	28699.65
509.20	29153.71
509.38	29134.99
509.55	29142.01
509.73	28933.70
509.90	29425.22
510.08	29722.46
510.25	29429.90
510.42	29443.94
510.60	29820.77
510.77	29677.99
510.95	30099.29
511.12	29867.58
511.30	29839.49
511.47	30113.33
511.64	29893.32
511.82	29982.26
511.99	30560.37
512.17	30417.60
512.34	30356.75
512.51	30927.84
512.69	30881.03
512.86	30555.69
513.04	30576.76
513.21	30827.20
513.38	31075.29
513.56	31037.84
513.73	30632.93
513.90	30843.58
514.08	31288.28
514.25	31288.28
514.43	31304.67
514.60	31529.36
514.77	31798.52
514.95	31683.83
515.12	31695.53
515.29	31718.94
515.47	32072.36
515.64	32226.84
515.81	31974.06
515.99	32395.35
516.16	32011.51
516.33	32290.03
516.51	32156.62
516.68	32198.75
516.85	32407.06
517.03	32217.47
517.20	32708.99
517.37	32598.98
517.54	32538.13
517.72	33251.99
517.89	33074.11
518.06	33130.28
518.24	32943.04
518.41	32713.67
518.58	32842.40
518.75	32994.53
518.93	33359.66
519.10	33120.92
519.27	33432.21
519.45	33354.97
519.62	33809.04
519.79	33247.31
519.96	33230.93
520.14	33855.85
520.31	33399.44
520.48	33874.57
520.65	33741.16
520.83	34445.66
521.00	34015.01
521.17	33846.49
521.34	34202.25
521.52	34333.32
521.69	34738.23
521.86	34497.16
522.03	34576.73
522.20	34719.51
522.38	34955.90
522.55	34740.57
522.72	34719.51
522.89	35122.08
523.07	35452.09
523.24	34918.45
523.41	35321.02
523.58	35257.83
523.75	35182.93
523.92	35264.85
524.10	35222.72
524.27	35365.49
524.44	35449.75
524.61	35555.08
524.78	35491.88
524.96	36187.02
525.13	35716.58
525.30	35978.72
525.47	36273.62
525.64	35896.80
525.81	36156.60
525.98	36105.10
526.16	35967.01
526.33	36072.34
526.50	36524.06
526.67	36137.87
526.84	36568.53
527.01	36435.12
527.18	36472.57
527.36	36933.65
527.53	36774.50
527.70	37242.60
527.87	37198.13
528.04	36982.80
528.21	36687.90
528.38	36854.08
528.55	37256.65
528.72	37132.60
528.89	36928.97
529.07	36893.86
529.24	37001.53
529.41	37486.02
529.58	37186.43
529.75	37331.54
529.92	37682.62
530.09	37284.73
530.26	37909.66
530.43	37874.55
530.60	37539.85
530.77	37923.70
530.94	37801.99
531.11	37361.97
531.28	37846.46
531.46	37617.09
531.63	37703.69
531.80	38204.56
531.97	38337.98
532.14	38494.79
532.31	38590.75
532.48	38284.14
532.65	39084.61
532.82	38242.01
532.99	38562.67
533.16	38319.25
533.33	38632.88
533.50	38974.60
533.67	38810.76
533.84	38462.02
534.01	38518.20
534.18	38873.96
534.35	39402.92
534.52	38691.40
534.69	39503.56
534.86	39175.89
535.03	38869.28
535.20	39606.55
535.37	39349.09
535.54	39367.81
535.71	39019.07
535.88	39559.73
536.05	39225.04
536.22	39257.81
536.38	39730.59
536.55	39739.96
536.72	39566.76
536.89	39625.27
537.06	39864.00
537.23	39611.23
537.40	39168.87
537.57	39758.68
537.74	39793.79
537.91	40046.57
538.08	40266.58
538.25	39615.91
538.42	39859.32
538.59	40208.06
538.75	40025.50
538.92	40439.78
539.09	39988.05
539.26	40538.08
539.43	40507.65
539.60	40811.92
539.77	39995.07
539.94	40601.27
540.11	40856.39
540.28	40896.18
540.44	40137.85
540.61	40722.98
540.78	40685.53
540.95	40596.59
541.12	40713.62
541.29	40615.32
541.46	40732.34
541.62	40847.03
541.79	41235.56
541.96	41050.66
542.13	40905.54
542.30	41420.46
542.47	41219.17
542.63	41212.15
542.80	41399.40
542.97	41708.35
543.14	41778.56
543.31	41467.27
543.48	41869.84
543.64	41883.89
543.81	41911.97
543.98	42045.38
544.15	41986.87
544.32	41640.47
544.48	42387.10
544.65	41954.10
544.82	41989.21
544.99	41717.71
545.16	41837.08
545.32	41706.01
545.49	42504.13
545.66	42284.12
545.83	42445.62
546.00	42263.05
546.16	41968.15
546.33	42150.71
546.50	42031.34
546.67	42689.03
546.83	42007.94
547.00	42583.71
547.17	42380.08
547.34	42859.89
547.50	42548.60
547.67	43182.88
547.84	42855.21
548.00	42843.51
548.17	43274.16
548.34	42988.62
548.51	43316.29
548.67	43215.65
548.84	42890.32
549.01	42834.14
549.18	43328.00
549.34	43487.15
549.51	43690.78
549.68	43351.40
549.84	43178.20
550.01	43115.01
550.18	43309.27
550.34	43435.66
550.51	43789.08
550.68	43924.83
550.84	42993.30
551.01	43969.30
551.18	43875.68
551.34	43480.13
551.51	44048.88
551.68	43845.26
551.84	43817.17
552.01	43562.05
552.18	43840.57
552.34	43693.12
552.51	44495.92
552.68	43941.22
552.84	43976.33
553.01	44048.88
553.18	43604.18
553.34	44320.38
553.51	44158.89
553.67	44156.55
553.84	44264.21
554.01	44144.84
554.17	44081.65
554.34	44678.49
554.51	44191.65
554.67	44432.73
554.84	44734.66
555.00	44299.32
555.17	44126.12
555.33	45029.57
555.50	44467.84
555.67	44374.22
555.83	44634.02
556.00	44634.02
556.16	44720.62
556.33	45104.46
556.50	44975.73
556.66	44662.10
556.83	44725.30
556.99	44832.96
557.16	44823.60
557.32	44954.67
557.49	45359.58
557.65	44715.93
557.82	44912.54
557.98	44896.16
558.15	45102.12
558.32	45088.08
558.48	44999.14
558.65	44746.36
558.81	45478.95
558.98	45282.34
559.14	45057.65
559.31	45111.49
559.47	44669.12
559.64	45247.24
559.80	45146.59
559.97	45684.92
560.13	45387.67
560.30	45244.90
560.46	45532.78
560.63	45324.47
560.79	45448.52
560.96	45633.42
561.12	45954.08
561.29	45832.37
561.45	45837.05
561.61	45710.66
561.78	45476.61
561.94	45691.94
562.11	45312.77
562.27	45598.32
562.44	45338.52
562.60	45577.25
562.77	45567.89
562.93	45752.79
563.10	46103.87
563.26	45705.98
563.42	46351.97
563.59	46232.60
563.75	45741.09
563.92	45832.37
564.08	46071.10
564.24	45862.80
564.41	45853.44
564.57	46199.83
564.74	45787.90
564.90	45893.22
565.07	45841.73
565.23	45797.26
565.39	46157.70
565.56	46171.75
565.72	45979.82
565.88	45865.14
566.05	46246.65
566.21	46234.94
566.38	46120.26
566.54	46216.22
566.70	46024.29
566.87	46579.00
567.03	46136.64
567.19	46272.39
567.36	46078.13
567.52	46246.65
567.68	46129.62
567.85	46122.60
568.01	46340.27
568.17	46153.02
568.34	46426.87
568.50	46141.32
568.66	46143.66
568.83	46550.91
568.99	46368.35
569.15	46302.82
569.32	46471.34
569.48	46106.21
569.64	46710.07
569.81	46354.31
569.97	46590.70
570.13	46841.14
570.30	46377.72
570.46	46946.47
570.62	47189.88
570.78	46525.17
570.95	46506.44
571.11	46504.10
571.27	46284.09
571.43	46504.10
571.60	46611.77
571.76	46782.63
571.92	46396.44
572.09	46419.84
572.25	46054.72
572.41	46340.27
572.57	46689.01
572.74	46820.08
572.90	46845.82
573.06	46401.12
573.22	46663.26
573.38	47299.89
573.55	46581.34
573.71	46972.21
573.87	47054.13
574.03	46569.64
574.20	47030.72
574.36	47070.51
574.52	46974.55
574.68	46773.27
574.84	47065.83
575.01	47271.80
575.17	47164.14
575.33	46894.97
575.49	46487.72
575.65	46801.35
575.82	46934.76
575.98	46934.76
576.14	47166.48
576.30	47325.63
576.46	46965.19
576.62	47232.01
576.79	46848.16
576.95	46784.97
577.11	46518.15
577.27	46810.71
577.43	46843.48
577.59	47049.45
577.75	46780.29
577.92	46394.10
578.08	46810.71
578.24	46890.29
578.40	47175.84
578.56	46972.21
578.72	46831.78
578.88	47349.04
579.04	47070.51
579.21	47241.37
579.37	47227.33
579.53	46972.21
579.69	47035.41
579.85	46644.54
580.01	47093.92
580.17	47021.36
580.33	47072.85
580.49	46948.81
580.65	47171.16
580.82	47033.07
580.98	47391.17
581.14	46742.84
581.30	47278.82
581.46	46993.28
581.62	47145.41
581.78	46841.14
581.94	47295.21
582.10	47164.14
582.26	47442.66
582.42	46965.19
582.58	47159.45
582.74	46906.68
582.90	47384.15
583.06	47215.63
583.22	46960.51
583.38	46990.94
583.54	47318.61
583.70	47278.82
583.86	47777.36
584.02	47110.30
584.18	47562.03
584.34	47105.62
584.50	47789.06
584.66	47557.35
584.82	47056.47
584.98	47796.08
585.14	47667.35
585.30	47299.89
585.46	47466.06
585.62	46965.19
585.78	47166.48
585.94	47154.77
586.10	47173.50
586.26	47353.72
586.42	47271.80
586.58	47344.36
586.74	47442.66
586.90	47224.99
587.06	47641.60
587.22	47452.02
587.38	47409.89
587.54	47725.86
587.70	47405.21
587.86	47683.73
588.02	47267.12
588.18	47217.97
588.34	47246.05
588.49	47358.40
588.65	47040.09
588.81	47491.81
588.97	47196.90
589.13	47728.20
589.29	47327.97
589.45	47665.01
589.61	47650.97
589.77	47557.35
589.93	47386.49
590.08	47571.39
