SpectraSuite Data File
++++++++++++++++++++++++++++++++++++
Date: Fri Oct 25 10:43:29 EDT 2013
User: price-jones
Dark Spectrum Present: No
Reference Spectrum Present: No
Number of Sampled Component Spectra: 1
Spectrometers: USB2+H05261
Integration Time (usec): 100000 (USB2+H05261)
Spectra Averaged: 1 (USB2+H05261)
Boxcar Smoothing: 0 (USB2+H05261)
Correct for Electrical Dark: No (USB2+H05261)
Strobe/Lamp Enabled: No (USB2+H05261)
Correct for Detector Non-linearity: No (USB2+H05261)
Correct for Stray Light: No (USB2+H05261)
Number of Pixels in Processed Spectrum: 2048
>>>>>Begin Processed Spectral Data<<<<<
365.73	79.58
365.92	79.58
366.12	79.58
366.32	70.22
366.52	0.00
366.72	0.00
366.91	0.00
367.11	9.36
367.31	30.43
367.51	63.19
367.70	18.72
367.90	51.49
368.10	60.85
368.30	0.00
368.49	58.51
368.69	14.04
368.89	39.79
369.09	0.00
369.28	88.94
369.48	72.56
369.68	11.70
369.87	49.15
370.07	91.28
370.27	100.64
370.47	187.24
370.66	414.27
370.86	344.06
371.06	458.74
371.25	477.47
371.45	444.70
371.65	447.04
371.84	411.93
372.04	447.04
372.24	435.34
372.44	425.98
372.63	454.06
372.83	514.92
373.03	538.32
373.22	498.53
373.42	566.41
373.62	454.06
373.81	528.96
374.01	566.41
374.21	561.73
374.40	554.71
374.60	571.09
374.79	617.90
374.99	559.39
375.19	568.75
375.38	468.11
375.58	566.41
375.78	653.01
375.97	580.45
376.17	568.75
376.37	589.82
376.56	629.60
376.76	547.69
376.95	571.09
377.15	620.24
377.35	582.79
377.54	690.46
377.74	641.31
377.93	653.01
378.13	674.07
378.33	746.63
378.52	645.99
378.72	587.47
378.91	709.18
379.11	641.31
379.31	610.88
379.50	622.58
379.70	615.56
379.89	711.52
380.09	718.54
380.28	650.67
380.48	741.95
380.68	690.46
380.87	674.07
381.07	676.41
381.26	664.71
381.46	732.59
381.65	676.41
381.85	657.69
382.04	685.78
382.24	711.52
382.43	711.52
382.63	690.46
382.83	676.41
383.02	704.50
383.22	774.72
383.41	690.46
383.61	760.67
383.80	800.46
384.00	629.60
384.19	826.21
384.39	828.55
384.58	716.20
384.78	828.55
384.97	802.80
385.17	866.00
385.36	868.34
385.56	819.19
385.75	835.57
385.95	795.78
386.14	800.46
386.34	863.66
386.53	772.38
386.72	833.23
386.92	807.48
387.11	887.06
387.31	791.10
387.50	823.87
387.70	842.59
387.89	903.45
388.09	898.77
388.28	828.55
388.48	924.51
388.67	983.02
388.86	924.51
389.06	875.36
389.25	952.60
389.45	961.96
389.64	1015.79
389.84	964.30
390.03	978.34
390.22	891.74
390.42	1008.77
390.61	943.24
390.81	964.30
391.00	1071.97
391.19	1008.77
391.39	1020.47
391.58	1067.28
391.78	1018.13
391.97	1132.82
392.16	1015.79
392.36	1062.60
392.55	1018.13
392.75	983.02
392.94	966.64
393.13	976.00
393.33	994.73
393.52	987.71
393.71	1128.14
393.91	1048.56
394.10	1109.41
394.29	1125.80
394.49	1146.86
394.68	1207.72
394.88	1179.63
395.07	1235.80
395.26	1268.57
395.46	1228.78
395.65	1210.06
395.84	1240.48
396.04	1343.47
396.23	1249.85
396.42	1151.54
396.62	1083.67
396.81	1177.29
397.00	1273.25
397.19	1315.38
397.39	1310.70
397.58	1320.06
397.77	1324.74
397.97	1341.13
398.16	1430.07
398.35	1469.86
398.55	1416.02
398.74	1495.60
398.93	1481.56
399.12	1535.39
399.32	1483.90
399.51	1493.26
399.70	1596.25
399.90	1528.37
400.09	1675.82
400.28	1600.93
400.47	1556.46
400.67	1600.93
400.86	1659.44
401.05	1626.67
401.24	1589.22
401.44	1682.85
401.63	1673.48
401.82	1607.95
402.01	1699.23
402.21	1806.89
402.40	1722.63
402.59	1743.70
402.78	1806.89
402.97	1746.04
403.17	1778.81
403.36	1727.32
403.55	1870.09
403.74	1804.55
403.93	1797.53
404.13	1886.47
404.32	1933.28
404.51	1820.94
404.70	1921.58
404.89	1921.58
405.09	2010.52
405.28	1895.83
405.47	1980.09
405.66	1961.37
405.85	1996.48
406.05	2024.56
406.24	1944.99
406.43	2118.18
406.62	2031.58
406.81	2139.25
407.00	2040.95
407.20	2050.31
407.39	2022.22
407.58	2097.12
407.77	2263.30
407.96	2249.25
408.15	2157.97
408.34	2200.10
408.54	2246.91
408.73	2223.51
408.92	2270.32
409.11	2251.60
409.30	2270.32
409.49	2155.63
409.68	2298.41
409.87	2312.45
410.07	2333.51
410.26	2319.47
410.45	2441.18
410.64	2448.20
410.83	2593.31
411.02	2612.04
411.21	2576.93
411.40	2513.74
411.59	2569.91
411.78	2722.04
411.98	2677.57
412.17	2630.76
412.36	2672.89
412.55	2487.99
412.74	2579.27
412.93	2633.10
413.12	2761.83
413.31	2846.09
413.50	2832.05
413.69	2750.13
413.88	2878.86
414.07	2935.03
414.26	2970.14
414.45	2928.01
414.64	3007.59
414.83	3005.25
415.02	3115.25
415.22	3101.21
415.41	3000.57
415.60	3068.44
415.79	3119.93
415.98	3119.93
416.17	3169.09
416.36	3222.92
416.55	3281.43
416.74	3332.92
416.93	3190.15
417.12	3080.14
417.31	3353.99
417.50	3398.46
417.69	3412.50
417.88	3529.53
418.07	3463.99
418.26	3433.57
418.45	3520.17
418.64	3702.73
418.83	3613.79
419.02	3569.32
419.21	3630.17
419.39	3627.83
419.58	3485.06
419.77	3571.66
419.96	3637.19
420.15	3838.48
420.34	3669.96
420.53	3625.49
420.72	3875.93
420.91	3826.78
421.10	3831.46
421.29	3882.95
421.48	3791.67
421.67	3810.39
421.86	3843.16
422.05	3658.26
422.24	3698.05
422.43	3854.86
422.61	3740.18
422.80	3946.14
422.99	3988.27
423.18	3976.57
423.37	3971.89
423.56	3826.78
423.75	4032.74
423.94	3927.42
424.13	3613.79
424.32	3796.35
424.50	3918.06
424.69	3932.10
424.88	4091.26
425.07	3896.99
425.26	3932.10
425.45	4053.81
425.64	4070.19
425.83	3868.91
426.01	3983.59
426.20	4025.72
426.39	3974.23
426.58	3948.48
426.77	3936.78
426.96	3913.38
427.15	3805.71
427.33	4060.83
427.52	4180.20
427.71	4187.22
427.90	4222.33
428.09	4212.96
428.28	4117.00
428.46	4219.99
428.65	4037.42
428.84	4264.46
429.03	4264.46
429.22	4124.02
429.40	4128.70
429.59	4081.89
429.78	4011.68
429.97	3918.06
430.16	3873.59
430.34	4035.08
430.53	4142.75
430.72	4280.84
430.91	4196.58
431.10	4355.74
431.28	4535.96
431.47	4484.47
431.66	4676.39
431.85	4652.98
432.03	4521.92
432.22	4603.83
432.41	4580.43
432.60	4681.07
432.79	4631.92
432.97	4936.19
433.16	4629.58
433.35	4683.41
433.54	4617.88
433.72	4762.99
433.91	4610.86
434.10	4791.08
434.28	4837.89
434.47	4947.89
434.66	4936.19
434.85	5076.62
435.03	4912.78
435.22	4987.68
435.41	4915.12
435.59	5008.75
435.78	5041.51
435.97	5139.82
436.16	5158.54
436.34	5008.75
436.53	5013.43
436.72	5245.14
436.90	5067.26
437.09	5156.20
437.28	5139.82
437.46	5238.12
437.65	5137.48
437.84	5090.67
438.02	5142.16
438.21	5039.17
438.40	5146.84
438.58	5275.57
438.77	5343.44
438.96	5427.70
439.14	5486.22
439.33	5645.37
439.52	5535.37
439.70	5678.14
439.89	5619.63
440.08	5628.99
440.26	5678.14
440.45	5643.03
440.63	5783.46
440.82	5881.77
441.01	5851.34
441.19	5858.36
441.38	6043.26
441.57	6169.65
441.75	6129.86
441.94	6342.85
442.12	6174.33
442.31	6314.77
442.50	6272.64
442.68	6228.17
442.87	6422.43
443.05	6282.00
443.24	6377.96
443.43	6525.41
443.61	6431.79
443.80	6478.60
443.98	6445.84
444.17	6181.35
444.35	6410.73
444.54	6558.18
444.73	6509.03
444.91	6612.01
445.10	6434.13
445.28	6462.22
445.47	6483.28
445.65	6300.72
445.84	6429.45
446.02	6630.74
446.21	6408.39
446.39	6593.29
446.58	6649.46
446.77	6729.04
446.95	6511.37
447.14	6736.06
447.32	6857.77
447.51	6682.23
447.69	6780.53
447.88	6717.34
448.06	6661.16
448.25	6558.18
448.43	6736.06
448.62	6588.61
448.80	6567.54
448.99	6738.40
449.17	6803.94
449.36	6764.15
449.54	6883.52
449.73	7014.59
449.91	7148.00
450.10	7206.51
450.28	7229.91
450.46	7375.03
450.65	7145.66
450.83	7239.28
451.02	7119.91
451.20	7157.36
451.39	7122.25
451.57	7260.34
451.76	7213.53
451.94	7148.00
452.13	7386.73
452.31	7094.16
452.49	6951.39
452.68	7398.43
452.86	7169.06
453.05	7269.70
453.23	7396.09
453.42	7272.04
453.60	7318.86
453.78	7368.01
453.97	7375.03
454.15	7475.67
454.34	7234.60
454.52	7445.24
454.70	7737.81
454.89	7456.95
455.07	7475.67
455.26	7562.27
455.44	7735.47
455.62	7719.09
455.81	7784.62
455.99	7838.45
456.17	7873.56
456.36	7906.33
456.54	7903.99
456.73	8128.68
456.91	8093.57
457.09	8037.40
457.28	8308.90
457.46	8196.56
457.64	8124.00
457.83	8116.98
458.01	8018.68
458.19	8276.13
458.38	7967.18
458.56	8416.57
458.74	8248.05
458.93	8241.03
459.11	8203.58
459.29	8135.70
459.48	8168.47
459.66	8280.82
459.84	8325.29
460.03	8552.32
460.21	8514.87
460.39	8510.19
460.57	8439.97
460.76	8578.06
460.94	8561.68
461.12	8505.51
461.31	8751.26
461.49	8856.59
461.67	8542.96
461.85	8884.67
462.04	8903.40
462.22	9298.95
462.40	8971.27
462.59	8917.44
462.77	8758.28
462.95	8861.27
463.13	9008.72
463.32	8802.75
463.50	8896.38
463.68	8919.78
463.86	9139.79
464.05	8943.19
464.23	8753.60
464.41	8973.61
464.59	8915.10
464.78	9219.37
464.96	9060.21
465.14	8947.87
465.32	8964.25
465.50	9298.95
465.69	9214.69
465.87	8975.95
466.05	9100.00
466.23	8926.80
466.41	9102.34
466.60	9275.54
466.78	9163.20
466.96	9186.60
467.14	9359.80
467.32	9301.29
467.51	9516.62
467.69	9071.92
467.87	9317.67
468.05	9425.34
468.23	9472.15
468.41	9504.92
468.60	9336.40
468.78	9521.30
468.96	9301.29
469.14	9621.94
469.32	9858.34
469.50	9467.47
469.69	9575.13
469.87	9844.29
470.05	9809.19
470.23	9799.82
470.41	9804.50
470.59	9895.78
470.77	9813.87
470.95	9984.73
471.14	10167.29
471.32	9879.40
471.50	10256.23
471.68	10092.39
471.86	10186.01
472.04	10377.94
472.22	10455.17
472.40	10319.42
472.58	10155.58
472.77	10387.30
472.95	10583.90
473.13	10768.80
473.31	10462.19
473.49	10600.29
473.67	10619.01
473.85	10857.75
474.03	11054.35
474.21	11044.99
474.39	11030.94
474.57	11145.63
474.75	11220.53
474.93	11424.15
475.12	11096.48
475.30	11178.40
475.48	11028.60
475.66	11180.74
475.84	11344.58
476.02	11496.71
476.20	11417.13
476.38	11637.14
476.56	11932.05
476.74	11838.43
476.92	11674.59
477.10	11503.73
477.28	12053.76
477.46	12032.69
477.64	12245.68
477.82	12229.30
478.00	12526.55
478.18	12692.73
478.36	12702.09
478.54	12580.38
478.72	12645.91
478.90	12671.66
479.08	13160.83
479.26	13177.22
479.44	13174.88
479.62	12971.25
479.80	12898.69
479.98	13369.14
480.16	13521.27
480.34	13270.84
480.52	13701.50
480.70	13909.80
480.88	13617.24
481.06	13930.87
481.24	13846.61
481.41	14300.67
481.59	14443.45
481.77	14181.31
481.95	14160.24
482.13	14473.87
482.31	14572.18
482.49	14892.83
482.67	14663.46
482.85	14941.98
483.03	15044.96
483.21	15138.58
483.39	15515.41
483.57	15405.41
483.74	15484.98
483.92	15599.67
484.10	15431.15
484.28	15857.13
484.46	15999.90
484.64	16383.75
484.82	15829.04
485.00	16053.73
485.18	16042.03
485.35	16297.15
485.53	16358.00
485.71	16173.10
485.89	16655.25
486.07	16053.73
486.25	16692.70
486.43	16613.12
486.61	16966.54
486.78	17184.21
486.96	17179.53
487.14	17685.09
487.32	17748.28
487.50	17867.65
487.68	18188.30
487.85	18305.33
488.03	18515.98
488.21	18438.74
488.39	18691.52
488.57	18588.53
488.75	18857.70
488.92	19033.24
489.10	19370.27
489.28	19215.80
489.46	19555.18
489.64	19637.09
489.81	19744.76
489.99	20100.52
490.17	19704.97
490.35	20437.56
490.53	20283.08
490.70	20549.90
490.88	20531.18
491.06	20596.71
491.24	20547.56
491.41	20460.96
491.59	20964.18
491.77	20830.77
491.95	20989.92
492.13	21214.62
492.30	21352.71
492.48	21352.71
492.66	21563.36
492.84	21640.59
493.01	22054.87
493.19	22080.61
493.37	22057.21
493.54	22174.24
493.72	22436.38
493.90	22778.09
494.08	22632.98
494.25	23183.01
494.43	23014.49
494.61	23300.03
494.79	23419.40
494.96	23534.09
495.14	23379.61
495.32	23819.63
495.49	23793.89
495.67	23709.63
495.85	24154.33
496.02	24236.25
496.20	23854.74
496.38	24133.26
496.55	24411.79
496.73	24636.48
496.91	24589.67
497.09	25046.07
497.26	24807.34
497.44	24723.08
497.62	25315.23
497.79	24905.64
497.97	24687.97
498.14	25336.30
498.32	25209.91
498.50	25600.78
498.67	26183.57
498.85	25902.71
499.03	26377.84
499.20	25865.26
499.38	26347.41
499.56	26457.42
499.73	26504.23
499.91	26398.90
500.08	26429.33
500.26	26260.81
500.44	26522.95
500.61	26501.89
500.79	26721.90
500.97	26813.18
501.14	27206.39
501.32	27098.72
501.49	26717.22
501.67	26939.57
501.84	27269.58
502.02	27644.07
502.20	27182.98
502.37	27718.96
502.55	27466.19
502.72	27611.30
502.90	27906.21
503.07	27948.34
503.25	28128.56
503.43	27850.03
503.60	27934.29
503.78	28081.75
503.95	27985.79
504.13	28568.58
504.30	28716.03
504.48	28151.96
504.65	28730.08
504.83	29158.39
505.01	28992.22
505.18	28947.75
505.36	29387.77
505.53	29284.78
505.71	29371.38
505.88	29596.07
506.06	28800.29
506.23	29567.99
506.41	29497.77
506.58	29617.14
506.76	30164.82
506.93	29778.64
507.11	30164.82
507.28	30017.37
507.46	29926.09
507.63	29935.45
507.81	30101.63
507.98	30118.01
508.16	30202.27
508.33	30181.21
508.50	30466.75
508.68	30632.93
508.85	31049.55
509.03	30796.77
509.20	30733.57
509.38	30679.74
509.55	30820.17
509.73	31131.47
509.90	31370.20
510.08	31243.81
510.25	31831.29
510.42	31302.32
510.60	31323.39
510.77	31660.43
510.95	31735.32
511.12	32177.68
511.30	31669.79
511.47	32233.86
511.64	32273.65
511.82	32343.86
511.99	32243.22
512.17	32072.36
512.34	32041.93
512.51	32332.16
512.69	32500.68
512.86	32662.18
513.04	32739.41
513.21	32823.67
513.38	32769.84
513.56	32896.23
513.73	32613.02
513.90	32882.19
514.08	33156.03
514.25	32814.31
514.43	33202.84
514.60	33111.56
514.77	33565.62
514.95	33364.34
515.12	33343.27
515.29	33411.15
515.47	33937.77
515.64	33848.83
515.81	33860.53
515.99	33968.19
516.16	33825.42
516.33	33427.53
516.51	33371.36
516.68	33223.90
516.85	33322.21
517.03	32870.48
517.20	33919.04
517.37	34071.18
517.54	34267.78
517.72	34370.77
517.89	33933.09
518.06	34181.18
518.24	33947.13
518.41	34293.53
518.58	34583.76
518.75	34284.17
518.93	35035.48
519.10	34382.47
519.27	34838.87
519.45	35257.83
519.62	35082.29
519.79	34988.67
519.96	35615.93
520.14	35370.18
520.31	34916.11
520.48	35480.18
520.65	35110.38
520.83	35700.19
521.00	35459.12
521.17	35796.15
521.34	35777.43
521.52	36364.90
521.69	35835.94
521.86	35995.10
522.03	36290.01
522.20	35812.54
522.38	36671.51
522.55	36062.97
522.72	36161.28
522.89	36084.04
523.07	36580.23
523.24	36250.22
523.41	37024.93
523.58	36603.64
523.75	37111.53
523.92	37242.60
524.10	37275.37
524.27	37284.73
524.44	37003.87
524.61	37151.32
524.78	37095.15
524.96	37261.33
525.13	37170.05
525.30	37165.37
525.47	37469.64
525.64	37263.67
525.81	37312.82
525.98	37593.68
526.16	36582.57
526.33	36933.65
526.50	37912.00
526.67	36985.15
526.84	37450.91
527.01	37029.62
527.18	37628.79
527.36	37841.78
527.53	38164.78
527.70	38305.21
527.87	38335.63
528.04	38410.53
528.21	38473.73
528.38	38377.76
528.55	38927.79
528.72	38539.26
528.89	38803.74
529.07	38911.41
529.24	38335.63
529.41	38859.91
529.58	38562.67
529.75	38494.79
529.92	39072.90
530.09	38735.87
530.26	38953.54
530.43	39044.82
530.60	38550.96
530.77	38930.13
530.94	38939.49
531.11	39105.67
531.28	38782.68
531.46	39400.58
531.63	39381.85
531.80	39445.05
531.97	39536.33
532.14	39096.31
532.31	38480.75
532.48	38946.51
532.65	39789.11
532.82	39323.34
532.99	39328.02
533.16	39707.19
533.33	39817.19
533.50	40156.57
533.67	39819.53
533.84	40025.50
534.01	39957.63
534.18	40243.17
534.35	40100.40
534.52	40072.31
534.69	40332.11
534.86	40044.23
535.03	40301.68
535.20	40484.25
535.37	40950.01
535.54	40685.53
535.71	40399.99
535.88	40561.48
536.05	40030.18
536.22	40634.04
536.38	40662.13
536.55	40273.60
536.72	40664.47
536.89	40201.04
537.06	40816.60
537.23	40835.33
537.40	40732.34
537.57	41062.36
537.74	40788.52
537.91	41165.34
538.08	41291.73
538.25	40725.32
538.42	40868.09
538.59	41249.60
538.75	40184.66
538.92	41413.44
539.09	41495.36
539.26	41359.61
539.43	41497.70
539.60	41237.90
539.77	40982.78
539.94	41287.05
540.11	41067.04
540.28	41500.04
540.44	41493.02
540.61	41469.61
540.78	41322.16
540.95	41120.87
541.12	41258.96
541.29	41415.78
541.46	41530.47
541.62	41839.42
541.79	42146.03
541.96	41816.01
542.13	41968.15
542.30	41820.69
542.47	41989.21
542.63	42199.86
542.80	41879.21
542.97	42164.75
543.14	42394.12
543.31	42337.95
543.48	42291.14
543.64	43143.09
543.81	42597.75
543.98	42693.71
544.15	42672.65
544.32	43033.09
544.48	42967.55
544.65	42635.20
544.82	42880.95
544.99	42609.45
545.16	42930.11
545.32	42494.77
545.49	43496.52
545.66	42710.10
545.83	42763.93
546.00	43033.09
546.16	43117.35
546.33	42862.23
546.50	42380.08
546.67	43075.22
546.83	42660.94
547.00	42983.94
547.17	43248.42
547.34	43063.52
547.50	43007.34
547.67	43522.26
547.84	43206.29
548.00	43702.48
548.17	43407.58
548.34	43281.19
548.51	43885.04
548.67	43660.35
548.84	43119.69
549.01	43264.80
549.18	43786.74
549.34	43508.22
549.51	43489.49
549.68	43606.52
549.84	44030.16
550.01	43971.64
550.18	43854.62
550.34	44128.46
550.51	43367.79
550.68	43840.57
550.84	43232.04
551.01	43945.90
551.18	43763.34
551.34	44020.80
551.51	44402.30
551.68	44147.18
551.84	43934.20
552.01	44252.51
552.18	44236.12
552.34	43697.80
552.51	44135.48
552.68	43749.29
552.84	44107.40
553.01	44577.84
553.18	44114.42
553.34	43952.92
553.51	43840.57
553.67	44259.53
553.84	44732.32
554.01	44619.97
554.17	44692.53
554.34	44739.34
554.51	44577.84
554.67	44573.16
554.84	44500.61
555.00	44175.27
555.17	44360.17
555.33	45195.74
555.50	44304.00
555.67	44474.86
555.83	44615.29
556.00	44692.53
556.16	44556.78
556.33	44903.18
556.50	44538.05
556.66	44767.43
556.83	44788.49
556.99	44603.59
557.16	44673.81
557.32	44652.74
557.49	45127.87
557.65	44472.52
557.82	45137.23
557.98	44945.31
558.15	44706.57
558.32	44905.52
558.48	45069.36
558.65	45024.89
558.81	44460.82
558.98	44926.58
559.14	44811.90
559.31	44861.05
559.47	44964.03
559.64	44772.11
559.80	45113.83
559.97	45165.32
560.13	44638.70
560.30	44671.46
560.46	45125.53
560.63	44882.11
560.79	45385.33
560.96	45333.84
561.12	45174.68
561.29	45385.33
561.45	45104.46
561.61	45390.01
561.78	45067.02
561.94	44851.69
562.11	45167.66
562.27	44935.95
562.44	45207.45
562.60	45223.83
562.77	45535.12
562.93	45500.01
563.10	45457.88
563.26	45488.31
563.42	45474.27
563.59	45289.37
563.75	45167.66
563.92	45612.36
564.08	45687.26
564.24	45432.14
564.41	45705.98
564.57	45500.01
564.74	45317.45
564.90	45340.86
565.07	45333.84
565.23	45207.45
565.39	45607.68
565.56	45598.32
565.72	45483.63
565.88	45591.30
566.05	45797.26
566.21	45572.57
566.38	45439.16
566.54	45464.91
566.70	45647.47
566.87	46188.13
567.03	45308.09
567.19	45705.98
567.36	46272.39
567.52	45467.25
567.68	45467.25
567.85	45434.48
568.01	45338.52
568.17	45352.56
568.34	45853.44
568.50	45326.81
568.66	45771.52
568.83	45979.82
568.99	45717.68
569.15	45642.79
569.32	45675.55
569.48	45675.55
569.64	46078.13
569.81	45951.74
569.97	45635.77
570.13	45787.90
570.30	44905.52
570.46	45432.14
570.62	45801.94
570.78	45633.42
570.95	45542.14
571.11	45691.94
571.27	45567.89
571.43	45773.86
571.60	45539.80
571.76	46127.28
571.92	45598.32
572.09	46110.89
572.25	45902.59
572.41	46176.43
572.57	45792.58
572.74	46199.83
572.90	45991.53
573.06	45441.50
573.22	45628.74
573.38	45591.30
573.55	45591.30
573.71	46138.98
573.87	46115.58
574.03	45425.12
574.20	45333.84
574.36	46071.10
574.52	45902.59
574.68	45343.20
574.84	45909.61
575.01	45598.32
575.17	45698.96
575.33	45806.62
575.49	45471.93
575.65	45778.54
575.82	45890.88
575.98	45560.87
576.14	45867.48
576.30	46019.61
576.46	45937.69
576.62	45673.21
576.79	45811.31
576.95	45441.50
577.11	46115.58
577.27	45925.99
577.43	45769.18
577.59	45607.68
577.75	45385.33
577.92	45034.25
578.08	45329.16
578.24	45797.26
578.40	45778.54
578.56	45748.11
578.72	45907.27
578.88	46033.66
579.04	45652.15
579.21	45338.52
579.37	45612.36
579.53	46052.38
579.69	45549.17
579.85	46227.92
580.01	45958.76
580.17	45797.26
580.33	45947.06
580.49	45794.92
580.65	45874.50
580.82	45914.29
580.98	45785.56
581.14	45380.65
581.30	45862.80
581.46	46115.58
581.62	46000.89
581.78	45762.15
581.94	46216.22
582.10	46131.96
582.26	46333.24
582.42	45848.75
582.58	45813.65
582.74	45804.28
582.90	46153.02
583.06	46131.96
583.22	46485.38
583.38	46312.18
583.54	45958.76
583.70	46082.81
583.86	45593.64
584.02	45881.52
584.18	46265.37
584.34	46333.24
584.50	46295.80
584.66	46040.68
584.82	45586.61
584.98	46021.95
585.14	46017.27
585.30	45890.88
585.46	45923.65
585.62	45792.58
585.78	45500.01
585.94	45886.20
586.10	45490.65
586.26	45806.62
586.42	46333.24
586.58	46391.76
586.74	46241.96
586.90	45975.14
587.06	46141.32
587.22	45621.72
587.38	46036.00
587.54	46188.13
587.70	45780.88
587.86	45841.73
588.02	45872.16
588.18	46162.39
588.34	45645.13
588.49	45404.05
588.65	45610.02
588.81	45591.30
588.97	45523.42
589.13	45682.58
589.29	45895.56
589.45	45762.15
589.61	45642.79
589.77	45867.48
589.93	46019.61
590.08	46115.58
