SpectraSuite Data File
++++++++++++++++++++++++++++++++++++
Date: Fri Oct 25 11:25:31 EDT 2013
User: price-jones
Dark Spectrum Present: No
Reference Spectrum Present: No
Number of Sampled Component Spectra: 1
Spectrometers: USB2+H05261
Integration Time (usec): 100000 (USB2+H05261)
Spectra Averaged: 1 (USB2+H05261)
Boxcar Smoothing: 0 (USB2+H05261)
Correct for Electrical Dark: No (USB2+H05261)
Strobe/Lamp Enabled: No (USB2+H05261)
Correct for Detector Non-linearity: No (USB2+H05261)
Correct for Stray Light: No (USB2+H05261)
Number of Pixels in Processed Spectrum: 2048
>>>>>Begin Processed Spectral Data<<<<<
365.73	245.76
365.92	245.76
366.12	245.76
366.32	201.29
366.52	110.01
366.72	107.66
366.91	86.60
367.11	154.48
367.31	107.66
367.51	173.20
367.70	142.77
367.90	53.83
368.10	145.11
368.30	121.71
368.49	67.88
368.69	236.39
368.89	110.01
369.09	159.16
369.28	184.90
369.48	147.45
369.68	161.50
369.87	234.05
370.07	292.57
370.27	271.50
370.47	297.25
370.66	601.52
370.86	617.90
371.06	533.64
371.25	739.61
371.45	725.57
371.65	718.54
371.84	615.56
372.04	674.07
372.24	734.93
372.44	755.99
372.63	734.93
372.83	739.61
373.03	692.80
373.22	770.04
373.42	786.42
373.62	746.63
373.81	812.17
374.01	784.08
374.21	819.19
374.40	807.48
374.60	858.98
374.79	791.10
374.99	854.30
375.19	849.61
375.38	940.90
375.58	835.57
375.78	905.79
375.97	840.25
376.17	901.11
376.37	905.79
376.56	887.06
376.76	847.27
376.95	894.08
377.15	915.15
377.35	877.70
377.54	971.32
377.74	786.42
377.93	924.51
378.13	940.90
378.33	912.81
378.52	842.59
378.72	908.13
378.91	896.43
379.11	938.55
379.31	849.61
379.50	880.04
379.70	1069.62
379.89	992.39
380.09	1027.50
380.28	1029.84
380.48	959.62
380.68	1046.22
380.87	1025.15
381.07	1083.67
381.26	1048.56
381.46	985.37
381.65	1093.03
381.85	1062.60
382.04	1043.88
382.24	1036.86
382.43	985.37
382.63	1107.07
382.83	1057.92
383.02	1102.39
383.22	1048.56
383.41	1114.10
383.61	1107.07
383.80	1083.67
384.00	1078.99
384.19	1137.50
384.39	1184.31
384.58	1167.93
384.78	1121.12
384.97	1144.52
385.17	1186.65
385.36	1050.90
385.56	1142.18
385.75	1167.93
385.95	1172.61
386.14	1217.08
386.34	1240.48
386.53	1172.61
386.72	1198.35
386.92	1238.14
387.11	1139.84
387.31	1233.46
387.50	1198.35
387.70	1294.32
387.89	1324.74
388.09	1245.16
388.28	1263.89
388.48	1280.27
388.67	1322.40
388.86	1362.19
389.06	1369.21
389.25	1404.32
389.45	1280.27
389.64	1364.53
389.84	1341.13
390.03	1373.89
390.22	1294.32
390.42	1235.80
390.61	1345.81
390.81	1348.15
391.00	1446.45
391.19	1409.00
391.39	1488.58
391.58	1490.92
391.78	1495.60
391.97	1511.99
392.16	1504.96
392.36	1572.84
392.55	1497.94
392.75	1502.62
392.94	1416.02
393.13	1650.08
393.33	1451.13
393.52	1600.93
393.71	1612.63
393.91	1528.37
394.10	1561.14
394.29	1591.56
394.49	1593.90
394.68	1607.95
394.88	1570.50
395.07	1715.61
395.26	1727.32
395.46	1591.56
395.65	1668.80
395.84	1647.74
396.04	1769.44
396.23	1694.55
396.42	1699.23
396.62	1713.27
396.81	1879.45
397.00	1825.62
397.19	1664.12
397.39	1881.79
397.58	1790.51
397.77	1842.00
397.97	1746.04
398.16	1851.36
398.35	1834.98
398.55	1865.41
398.74	1767.10
398.93	1940.30
399.12	1874.77
399.32	1912.22
399.51	1834.98
399.70	2008.18
399.90	2062.01
400.09	1916.90
400.28	2115.84
400.47	2047.97
400.67	2080.74
400.86	1970.73
401.05	1975.41
401.24	2073.71
401.44	2092.44
401.63	2155.63
401.82	2162.66
402.01	2157.97
402.21	2157.97
402.40	2207.13
402.59	2122.87
402.78	2195.42
402.97	2218.83
403.17	2293.72
403.36	2275.00
403.55	2307.77
403.74	2328.83
403.93	2352.24
404.13	2319.47
404.32	2300.75
404.51	2265.64
404.70	2260.96
404.89	2408.41
405.09	2546.50
405.28	2511.39
405.47	2385.01
405.66	2455.22
405.85	2462.24
406.05	2520.76
406.24	2588.63
406.43	2586.29
406.62	2605.02
406.81	2544.16
407.00	2513.74
407.20	2499.69
407.39	2523.10
407.58	2647.15
407.77	2782.90
407.96	2628.42
408.15	2775.88
408.34	2717.36
408.54	2775.88
408.73	2792.26
408.92	2855.45
409.11	2843.75
409.30	2773.53
409.49	2963.12
409.68	2862.48
409.87	2925.67
410.07	2993.55
410.26	3038.02
410.45	2918.65
410.64	2988.86
410.83	3028.65
411.02	3047.38
411.21	3183.13
411.40	3040.36
411.59	3126.96
411.78	3138.66
411.98	3059.08
412.17	3222.92
412.36	3222.92
412.55	3442.93
412.74	3517.83
412.93	3417.18
413.12	3213.56
413.31	3574.00
413.50	3454.63
413.69	3407.82
413.88	3559.95
414.07	3545.91
414.26	3613.79
414.45	3632.51
414.64	3602.08
414.83	3712.09
415.02	3630.17
415.22	3859.54
415.41	3840.82
415.60	3742.52
415.79	3894.65
415.98	3885.29
416.17	4004.66
416.36	3810.39
416.55	3971.89
416.74	4154.45
416.93	3957.85
417.12	4056.15
417.31	4086.58
417.50	4058.49
417.69	4117.00
417.88	4219.99
418.07	4180.20
418.26	4322.97
418.45	4250.41
418.64	4379.14
418.83	4315.95
419.02	4491.49
419.21	4617.88
419.39	4592.13
419.58	4580.43
419.77	4521.92
419.96	4400.21
420.15	4674.05
420.34	4594.47
420.53	4514.89
420.72	4791.08
420.91	4664.69
421.10	4641.28
421.29	4725.54
421.48	4613.20
421.67	4795.76
421.86	4840.23
422.05	4643.62
422.24	4819.16
422.43	4784.06
422.61	4978.32
422.80	4854.27
422.99	4819.16
423.18	4980.66
423.37	4992.36
423.56	5008.75
423.75	4983.00
423.94	4748.95
424.13	4578.09
424.32	4723.20
424.50	4999.38
424.69	4975.98
424.88	5064.92
425.07	4936.19
425.26	4924.49
425.45	5008.75
425.64	4922.15
425.83	4983.00
426.01	5053.22
426.20	4978.32
426.39	4992.36
426.58	4931.51
426.77	4959.60
426.96	5053.22
427.15	4863.63
427.33	5093.01
427.52	5076.62
427.71	5245.14
427.90	5195.99
428.09	5259.18
428.28	5380.89
428.46	5345.78
428.65	5387.91
428.84	5472.17
429.03	5537.71
429.22	5432.38
429.40	5537.71
429.59	5465.15
429.78	5170.24
429.97	5149.18
430.16	5420.68
430.34	5584.52
430.53	5668.78
430.72	5582.18
430.91	5563.45
431.10	5724.95
431.28	5706.23
431.47	5659.42
431.66	5792.83
431.85	5736.65
432.03	5841.98
432.22	5825.59
432.41	5937.94
432.60	5954.32
432.79	5884.11
432.97	5923.90
433.16	6069.01
433.35	5959.00
433.54	5984.75
433.72	6022.20
433.91	6167.31
434.10	6164.97
434.28	6022.20
434.47	6038.58
434.66	6223.48
434.85	6164.97
435.03	6356.90
435.22	6209.44
435.41	6377.96
435.59	6366.26
435.78	6307.74
435.97	6406.05
436.16	6399.02
436.34	6223.48
436.53	6558.18
436.72	6532.44
436.90	6464.56
437.09	6558.18
437.28	6237.53
437.46	6541.80
437.65	6462.22
437.84	6560.52
438.02	6677.55
438.21	6722.02
438.40	6532.44
438.58	7052.03
438.77	6895.22
438.96	6986.50
439.14	7023.95
439.33	6984.16
439.52	7211.19
439.70	7204.17
439.89	7419.50
440.08	7321.20
440.26	7379.71
440.45	7234.60
440.63	7449.93
440.82	7407.80
441.01	7283.75
441.19	7695.68
441.38	7669.94
441.57	7756.54
441.75	7597.38
441.94	7950.80
442.12	7934.42
442.31	8114.64
442.50	7974.21
442.68	8037.40
442.87	8086.55
443.05	8100.59
443.24	8086.55
443.43	8060.80
443.61	8217.62
443.80	8409.54
443.98	7899.31
444.17	7950.80
444.35	8046.76
444.54	8283.16
444.73	8182.51
444.91	8238.69
445.10	8400.18
445.28	8170.81
445.47	8201.24
445.65	8142.72
445.84	8252.73
446.02	8439.97
446.21	8287.84
446.39	8315.92
446.58	8325.29
446.77	8416.57
446.95	8285.50
447.14	8374.44
447.32	8575.72
447.51	8304.22
447.69	8280.82
447.88	8479.76
448.06	8365.07
448.25	8493.80
448.43	8428.27
448.62	8503.17
448.80	8514.87
448.99	8470.40
449.17	8617.85
449.36	8468.06
449.54	8828.50
449.73	9025.11
449.91	8912.76
450.10	8924.46
450.28	9067.24
450.46	9027.45
450.65	8802.75
450.83	8898.72
451.02	8952.55
451.20	9125.75
451.39	9055.53
451.57	9125.75
451.76	9055.53
451.94	9111.71
452.13	9242.78
452.31	9046.17
452.49	9090.64
452.68	9474.49
452.86	9352.78
453.05	9509.60
453.23	9469.81
453.42	9317.67
453.60	9334.06
453.78	9298.95
453.97	9362.14
454.15	9465.13
454.34	9462.79
454.52	9418.32
454.70	9556.41
454.89	9696.84
455.07	9652.37
455.26	9788.12
455.44	9790.46
455.62	9720.24
455.81	9987.07
455.99	9848.97
456.17	10031.54
456.36	10141.54
456.54	10218.78
456.73	10197.71
456.91	10136.86
457.09	10190.69
457.28	10333.47
457.46	10218.78
457.64	10408.36
457.83	10471.56
458.01	10532.41
458.19	10850.72
458.38	10300.70
458.56	10738.38
458.74	10616.67
458.93	10644.76
459.11	10532.41
459.29	10710.29
459.48	10768.80
459.66	10810.93
459.84	10832.00
460.03	10967.75
460.21	10864.77
460.39	10939.66
460.57	11000.52
460.76	10972.43
460.94	11206.48
461.12	11094.14
461.31	11098.82
461.49	11005.20
461.67	11157.33
461.85	11407.77
462.04	11164.36
462.22	11826.73
462.40	11578.63
462.59	11555.22
462.77	11470.97
462.95	11545.86
463.13	11346.92
463.32	11660.55
463.50	11690.98
463.68	11674.59
463.86	11796.30
464.05	11562.25
464.23	11580.97
464.41	11880.56
464.59	11304.79
464.78	11918.01
464.96	11756.51
465.14	11941.41
465.32	11969.50
465.50	12072.48
465.69	11936.73
465.87	12276.11
466.05	12025.67
466.23	12163.76
466.41	12065.46
466.60	12432.93
466.78	12093.55
466.96	11988.22
467.14	12245.68
467.32	12126.32
467.51	12442.29
467.69	12170.79
467.87	12250.36
468.05	12484.42
468.23	12442.29
468.41	12336.96
468.60	12624.85
468.78	12573.36
468.96	12549.95
469.14	12528.89
469.32	12774.64
469.50	12521.87
469.69	12936.14
469.87	13053.17
470.05	13067.21
470.23	12919.76
470.41	13048.49
470.59	13284.88
470.77	13163.17
470.95	13191.26
471.14	13256.79
471.32	12954.87
471.50	13369.14
471.68	13556.38
471.86	13731.92
472.04	13781.07
472.22	13937.89
472.40	13748.31
472.58	13729.58
472.77	14209.39
472.95	13977.68
473.13	14443.45
473.31	14185.99
473.49	14022.15
473.67	14015.13
473.85	13996.40
474.03	14534.73
474.21	14279.61
474.39	14548.77
474.57	14375.57
474.75	14867.08
474.93	14614.30
475.12	14640.05
475.30	14941.98
475.48	14986.45
475.66	15007.52
475.84	14974.75
476.02	15449.88
476.20	15164.33
476.38	15686.27
476.56	15791.59
476.74	15857.13
476.92	15894.58
477.10	15503.71
477.28	15861.81
477.46	15925.00
477.64	16215.23
477.82	16283.11
478.00	16807.39
478.18	16648.23
478.36	16905.69
478.54	17099.95
478.72	16968.88
478.90	17287.20
479.08	17713.17
479.26	17631.26
479.44	17743.60
479.62	17642.96
479.80	17764.67
479.98	18118.09
480.16	18377.89
480.34	18253.84
480.52	18672.79
480.70	18401.29
480.88	18370.86
481.06	18663.43
481.24	18630.66
481.41	18932.59
481.59	19262.61
481.77	19225.16
481.95	19360.91
482.13	19531.77
482.31	19133.88
482.49	19920.30
482.67	20135.63
482.85	20168.40
483.03	20526.50
483.21	20470.33
483.39	20940.77
483.57	20549.90
483.74	21010.99
483.92	21305.90
484.10	21128.02
484.28	21539.95
484.46	21804.43
484.64	22408.29
484.82	21689.74
485.00	22073.59
485.18	22845.97
485.35	22834.27
485.53	22735.96
485.71	22700.86
485.89	23316.42
486.07	23065.98
486.25	23213.43
486.43	23498.98
486.61	23447.49
486.78	23943.68
486.96	23768.14
487.14	24596.69
487.32	24620.10
487.50	25032.03
487.68	24662.22
487.85	25163.10
488.03	25214.59
488.21	25825.47
488.39	25788.02
488.57	25717.81
488.75	26321.66
488.92	26237.41
489.10	26782.75
489.28	26890.41
489.46	26752.32
489.64	26838.92
489.81	27431.08
489.99	27349.16
490.17	27583.21
490.35	28051.32
490.53	27864.08
490.70	28336.87
490.88	28168.35
491.06	28519.43
491.24	28472.62
491.41	28936.04
491.59	28910.30
491.77	29202.86
491.95	29207.55
492.13	30040.78
492.30	30176.53
492.48	29736.51
492.66	29919.07
492.84	30054.82
493.01	30693.79
493.19	30401.22
493.37	31133.81
493.54	31009.76
493.72	30909.11
493.90	31232.11
494.08	31580.85
494.25	31777.45
494.43	31838.31
494.61	32102.79
494.79	32381.31
494.96	32458.55
495.14	32919.63
495.32	33209.86
495.49	32840.06
495.67	33216.88
495.85	33715.42
496.02	33600.73
496.20	33710.74
496.38	33785.63
496.55	33874.57
496.73	34307.57
496.91	34630.57
497.09	34473.75
497.26	34869.30
497.44	34256.08
497.62	35005.05
497.79	35346.77
497.97	35056.54
498.14	35849.99
498.32	35852.33
498.50	35852.33
498.67	36320.43
498.85	36034.89
499.03	36613.00
499.20	36458.52
499.38	36477.25
499.56	37057.70
499.73	37273.03
499.91	37249.63
500.08	37460.27
500.26	37116.22
500.44	37495.38
500.61	37326.86
500.79	37631.13
500.97	37703.69
501.14	38302.87
501.32	38286.48
501.49	38649.27
501.67	38471.39
501.84	38916.09
502.02	38499.47
502.20	38787.36
502.37	38780.34
502.55	39093.97
502.72	39290.57
502.90	39555.05
503.07	39550.37
503.25	39913.16
503.43	39232.06
503.60	39538.67
503.78	39814.85
503.95	40165.93
504.13	40341.47
504.30	40570.85
504.48	40362.54
504.65	40512.33
504.83	41013.21
505.01	41111.51
505.18	40978.10
505.36	41212.15
505.53	41242.58
505.71	41104.49
505.88	41504.72
506.06	41284.71
506.23	41443.87
506.41	41617.07
506.58	41757.50
506.76	41425.14
506.93	42377.74
507.11	42169.43
507.28	41904.95
507.46	42450.30
507.63	42747.54
507.81	43281.19
507.98	42286.46
508.16	42485.40
508.33	43323.32
508.50	43161.82
508.68	43765.68
508.85	43625.25
509.03	43737.59
509.20	43662.69
509.38	44018.46
509.55	43826.53
509.73	43983.35
509.90	43999.73
510.08	44507.63
510.25	44680.83
510.42	44753.38
510.60	44758.06
510.77	45137.23
510.95	44940.63
511.12	45050.63
511.30	44889.13
511.47	44940.63
511.64	45488.31
511.82	45640.45
511.99	45507.04
512.17	45689.60
512.34	45736.41
512.51	46050.04
512.69	46209.20
512.86	46014.93
513.04	46375.37
513.21	46181.11
513.38	46625.81
513.56	46794.33
513.73	46731.14
513.90	46934.76
514.08	46546.23
514.25	47131.37
514.43	47161.79
514.60	46911.36
514.77	47264.78
514.95	47278.82
515.12	47608.84
515.29	47274.14
515.47	47730.54
515.64	47882.68
515.81	47402.87
515.99	47990.34
516.16	48320.36
516.33	48350.79
516.51	48521.65
516.68	48154.18
516.85	48264.19
517.03	48648.03
517.20	48837.62
517.37	48327.38
517.54	48582.50
517.72	48502.92
517.89	48982.73
518.06	48851.66
518.24	48650.38
518.41	49074.01
518.58	48982.73
518.75	49027.20
518.93	49214.44
519.10	49441.48
519.27	49364.24
519.45	49661.49
519.62	49408.71
519.79	49832.35
519.96	49837.03
520.14	49977.46
520.31	49727.02
520.48	50089.80
520.65	49991.50
520.83	50422.16
521.00	50305.13
521.17	50134.28
521.34	50586.00
521.52	50483.01
521.69	50670.26
521.86	50972.19
522.03	51217.94
522.20	50965.17
522.38	50988.57
522.55	51075.17
522.72	51093.89
522.89	51356.03
523.07	51430.93
523.24	51327.95
523.41	51573.70
523.58	51365.40
523.75	51522.21
523.92	51519.87
524.10	51845.21
524.27	51632.22
524.44	51721.16
524.61	52072.24
524.78	52100.32
524.96	51934.15
525.13	52097.98
525.30	52406.94
525.47	52332.04
525.64	52072.24
525.81	53038.88
525.98	52601.20
526.16	52505.24
526.33	52336.72
526.50	52980.37
526.67	52463.11
526.84	52676.10
527.01	52736.95
527.18	52699.50
527.36	52561.41
527.53	52559.07
527.70	53242.51
527.87	53064.63
528.04	53261.23
528.21	53090.37
528.38	53347.83
528.55	53488.26
528.72	53233.14
528.89	53303.36
529.07	52886.74
529.24	53317.40
529.41	53698.91
529.58	53361.87
529.75	53638.06
529.92	53801.89
530.09	53647.42
530.26	53731.68
530.43	53750.40
530.60	53544.44
530.77	53680.19
530.94	53961.05
531.11	53790.19
531.28	53977.43
531.46	54160.00
531.63	54042.97
531.80	53963.39
531.97	54358.94
532.14	54255.96
532.31	54192.76
532.48	54450.22
532.65	54534.48
532.82	54295.75
532.99	54670.23
533.16	54260.64
533.33	54965.14
533.50	54901.95
533.67	55023.65
533.84	54501.71
534.01	54810.67
534.18	54740.45
534.35	54927.69
534.52	54892.58
534.69	55070.46
534.86	55243.66
535.03	54904.29
535.20	54979.18
535.37	55180.47
535.54	55327.92
535.71	54857.48
535.88	55201.53
536.05	55412.18
536.22	55566.66
536.38	55391.12
536.55	55337.29
536.72	55412.18
536.89	55458.99
537.06	55398.14
537.23	55686.03
537.40	55559.64
537.57	55646.24
537.74	55580.70
537.91	56046.47
538.08	55875.61
538.25	55723.47
538.42	55669.64
538.59	55994.98
538.75	55707.09
538.92	55899.01
539.09	55891.99
539.26	56135.41
539.43	55955.19
539.60	56009.02
539.77	55910.72
539.94	56072.21
540.11	56203.28
540.28	56301.59
540.44	56154.13
540.61	56296.91
540.78	56151.79
540.95	56252.44
541.12	56264.14
541.29	56278.18
541.46	56378.82
541.62	56413.93
541.79	56711.18
541.96	56420.95
542.13	56498.19
542.30	56626.92
542.47	56875.02
542.63	56818.84
542.80	56533.30
542.97	56816.50
543.14	57106.73
543.31	57118.43
543.48	56940.55
543.64	57560.79
543.81	57153.54
543.98	57324.40
544.15	57230.78
544.32	57403.98
544.48	57476.54
544.65	57261.21
544.82	57223.76
544.99	57132.48
545.16	57401.64
545.32	57251.84
545.49	57563.14
545.66	57680.16
545.83	57340.78
546.00	57357.17
546.16	57387.60
546.33	57483.56
546.50	57167.58
546.67	57570.16
546.83	57312.70
547.00	57469.51
547.17	57696.55
547.34	57623.99
547.50	57893.15
547.67	57970.39
547.84	57811.23
548.00	57914.22
548.17	58066.35
548.34	57696.55
548.51	58038.26
548.67	57972.73
548.84	58178.70
549.01	58019.54
549.18	57982.09
549.34	58174.02
549.51	57963.37
549.68	58375.30
549.84	58155.29
550.01	58188.06
550.18	57991.45
550.34	58279.34
550.51	58258.27
550.68	58398.71
550.84	58000.82
551.01	58651.48
551.18	58571.91
551.34	58108.48
551.51	58340.19
551.68	58700.64
551.84	58527.44
552.01	58316.79
552.18	58525.10
552.34	58464.24
552.51	58501.69
552.68	58197.42
552.84	58691.27
553.01	58768.51
553.18	58663.19
553.34	58763.83
553.51	58674.89
553.67	58569.57
553.84	58864.47
554.01	58829.37
554.17	58859.79
554.34	58983.84
554.51	58677.23
554.67	58941.71
554.84	58782.55
555.00	58946.39
555.17	58611.70
555.33	58885.54
555.50	58852.77
555.67	58796.60
555.83	58777.87
556.00	58827.02
556.16	59224.92
556.33	59133.63
556.50	59182.79
556.66	59306.83
556.83	58752.13
556.99	59271.73
557.16	59374.71
557.32	59100.87
557.49	59512.80
557.65	59171.08
557.82	59353.65
557.98	59386.41
558.15	59234.28
558.32	59430.88
558.48	59178.10
558.65	59264.70
558.81	59451.95
558.98	59454.29
559.14	59365.35
559.31	59615.79
559.47	59416.84
559.64	59604.08
559.80	59662.60
559.97	59571.32
560.13	59407.48
560.30	59419.18
560.46	59618.13
560.63	59756.22
560.79	59416.84
560.96	59648.55
561.12	59608.76
561.29	59480.03
561.45	59730.47
561.61	59667.28
561.78	59758.56
561.94	59606.42
562.11	59971.55
562.27	59655.57
562.44	59758.56
562.60	59852.18
562.77	59721.11
562.93	59676.64
563.10	59948.14
563.26	59983.25
563.42	60004.31
563.59	59910.69
563.75	59826.43
563.92	59854.52
564.08	60065.17
564.24	60069.85
564.41	60013.68
564.57	60130.70
564.74	59959.84
564.90	59847.50
565.07	59971.55
565.23	59828.77
565.39	59976.23
565.56	60128.36
565.72	59936.44
565.88	60074.53
566.05	59992.61
566.21	60107.30
566.38	60072.19
566.54	60055.81
566.70	60224.32
566.87	60280.50
567.03	59821.75
567.19	60362.42
567.36	60128.36
567.52	60231.35
567.68	60397.52
567.85	60186.88
568.01	60212.62
568.17	60189.22
568.34	60200.92
568.50	60261.77
568.66	60154.11
568.83	60465.40
568.99	60182.19
569.15	60175.17
569.32	60212.62
569.48	60233.69
569.64	60289.86
569.81	60322.63
569.97	60144.75
570.13	60168.15
570.30	60074.53
570.46	60388.16
570.62	60233.69
570.78	60233.69
570.95	60207.94
571.11	60385.82
571.27	60446.68
571.43	60441.99
571.60	60451.36
571.76	60406.89
571.92	60575.40
572.09	60397.52
572.25	60395.18
572.41	60507.53
572.57	60626.90
572.74	60477.10
572.90	60420.93
573.06	60570.72
573.22	60533.28
573.38	60540.30
573.55	60591.79
573.71	60645.62
573.87	60596.47
574.03	60439.65
574.20	60589.45
574.36	60413.91
574.52	60514.55
574.68	60617.53
574.84	60563.70
575.01	60603.49
575.17	60652.64
575.33	60502.85
575.49	60624.56
575.65	60559.02
575.82	60729.88
575.98	60540.30
576.14	60753.29
576.30	60718.18
576.46	60530.93
576.62	60678.39
576.79	60640.94
576.95	60383.48
577.11	60772.01
577.27	60779.03
577.43	60832.86
577.59	60589.45
577.75	60697.11
577.92	60514.55
578.08	60720.52
578.24	60802.44
578.40	60917.12
578.56	60867.97
578.72	60828.18
578.88	60622.22
579.04	60823.50
579.21	60809.46
579.37	60837.54
579.53	60858.61
579.69	60474.76
579.85	60664.35
580.01	60708.82
580.17	60626.90
580.33	60762.65
580.49	60835.20
580.65	60889.04
580.82	60449.02
580.98	60633.92
581.14	60680.73
581.30	60907.76
581.46	60748.60
581.62	60779.03
581.78	60739.24
581.94	60949.89
582.10	60669.03
582.26	60519.23
582.42	60786.05
582.58	60772.01
582.74	60587.11
582.90	60835.20
583.06	60776.69
583.22	60664.35
583.38	60788.39
583.54	60722.86
583.70	60947.55
583.86	61050.53
584.02	60837.54
584.18	60851.59
584.34	60708.82
584.50	60748.60
584.66	60657.32
584.82	60748.60
584.98	61034.15
585.14	61038.83
585.30	60797.76
585.46	61006.06
585.62	61036.49
585.78	60940.53
585.94	60516.89
586.10	60886.70
586.26	61048.19
586.42	60977.98
586.58	61017.77
586.74	61064.58
586.90	60802.44
587.06	60804.78
587.22	61043.51
587.38	61050.53
587.54	60760.31
587.70	61123.09
587.86	60942.87
588.02	60907.76
588.18	60921.80
588.34	60963.93
588.49	60935.85
