SpectraSuite Data File
++++++++++++++++++++++++++++++++++++
Date: Fri Oct 25 11:25:34 EDT 2013
User: price-jones
Dark Spectrum Present: No
Reference Spectrum Present: No
Number of Sampled Component Spectra: 1
Spectrometers: USB2+H05261
Integration Time (usec): 100000 (USB2+H05261)
Spectra Averaged: 1 (USB2+H05261)
Boxcar Smoothing: 0 (USB2+H05261)
Correct for Electrical Dark: No (USB2+H05261)
Strobe/Lamp Enabled: No (USB2+H05261)
Correct for Detector Non-linearity: No (USB2+H05261)
Correct for Stray Light: No (USB2+H05261)
Number of Pixels in Processed Spectrum: 2048
>>>>>Begin Processed Spectral Data<<<<<
365.73	182.56
365.92	182.56
366.12	182.56
366.32	119.37
366.52	126.39
366.72	110.01
366.91	175.54
367.11	161.50
367.31	46.81
367.51	86.60
367.70	135.75
367.90	135.75
368.10	198.95
368.30	161.50
368.49	142.77
368.69	205.97
368.89	142.77
369.09	166.18
369.28	156.82
369.48	159.16
369.68	182.56
369.87	159.16
370.07	210.65
370.27	182.56
370.47	416.62
370.66	582.79
370.86	674.07
371.06	648.33
371.25	629.60
371.45	601.52
371.65	685.78
371.84	746.63
372.04	678.76
372.24	755.99
372.44	730.25
372.63	664.71
372.83	828.55
373.03	819.19
373.22	730.25
373.42	858.98
373.62	760.67
373.81	777.06
374.01	774.72
374.21	720.88
374.40	755.99
374.60	779.40
374.79	807.48
374.99	784.08
375.19	854.30
375.38	884.72
375.58	924.51
375.78	802.80
375.97	828.55
376.17	922.17
376.37	863.66
376.56	884.72
376.76	856.64
376.95	887.06
377.15	840.25
377.35	980.68
377.54	882.38
377.74	856.64
377.93	826.21
378.13	952.60
378.33	861.32
378.52	915.15
378.72	898.77
378.91	938.55
379.11	908.13
379.31	992.39
379.50	990.05
379.70	997.07
379.89	954.94
380.09	968.98
380.28	971.32
380.48	1015.79
380.68	987.71
380.87	971.32
381.07	992.39
381.26	1032.18
381.46	1015.79
381.65	1001.75
381.85	1039.20
382.04	1039.20
382.24	1093.03
382.43	1139.84
382.63	1114.10
382.83	1050.90
383.02	1104.73
383.22	1235.80
383.41	1130.48
383.61	1060.26
383.80	1181.97
384.00	1067.28
384.19	1116.44
384.39	1137.50
384.58	1097.71
384.78	1174.95
384.97	1196.01
385.17	1184.31
385.36	1217.08
385.56	1181.97
385.75	1121.12
385.95	1102.39
386.14	1193.67
386.34	1186.65
386.53	1268.57
386.72	1291.98
386.92	1125.80
387.11	1210.06
387.31	1268.57
387.50	1172.61
387.70	1146.86
387.89	1282.61
388.09	1341.13
388.28	1301.34
388.48	1219.42
388.67	1397.30
388.86	1369.21
389.06	1359.85
389.25	1331.76
389.45	1238.14
389.64	1394.96
389.84	1303.68
390.03	1390.28
390.22	1399.64
390.42	1350.49
390.61	1423.05
390.81	1486.24
391.00	1385.60
391.19	1364.53
391.39	1483.90
391.58	1359.85
391.78	1504.96
391.97	1404.32
392.16	1430.07
392.36	1441.77
392.55	1493.26
392.75	1507.30
392.94	1551.78
393.13	1423.05
393.33	1570.50
393.52	1544.75
393.71	1633.69
393.91	1472.20
394.10	1549.43
394.29	1582.20
394.49	1511.99
394.68	1685.19
394.88	1621.99
395.07	1596.25
395.26	1680.50
395.46	1729.66
395.65	1579.86
395.84	1710.93
396.04	1675.82
396.23	1727.32
396.42	1682.85
396.62	1774.13
396.81	1799.87
397.00	1753.06
397.19	1785.83
397.39	1762.42
397.58	1785.83
397.77	1774.13
397.97	1865.41
398.16	1916.90
398.35	1844.34
398.55	1858.39
398.74	1799.87
398.93	2012.86
399.12	1879.45
399.32	1895.83
399.51	1949.67
399.70	1961.37
399.90	1963.71
400.09	2026.90
400.28	2071.37
400.47	2050.31
400.67	2052.65
400.86	2101.80
401.05	2085.42
401.24	2183.72
401.44	1994.14
401.63	2071.37
401.82	2125.21
402.01	2038.61
402.21	2179.04
402.40	2260.96
402.59	2139.25
402.78	2246.91
402.97	2197.76
403.17	2392.03
403.36	2214.15
403.55	2328.83
403.74	2207.13
403.93	2338.20
404.13	2415.43
404.32	2204.78
404.51	2415.43
404.70	2473.95
404.89	2340.54
405.09	2448.20
405.28	2492.67
405.47	2361.60
405.66	2541.82
405.85	2530.12
406.05	2455.22
406.24	2520.76
406.43	2495.01
406.62	2628.42
406.81	2513.74
407.00	2569.91
407.20	2637.78
407.39	2658.85
407.58	2682.25
407.77	2551.18
407.96	2773.53
408.15	2722.04
408.34	2672.89
408.54	2691.62
408.73	2885.88
408.92	2715.02
409.11	2916.31
409.30	2855.45
409.49	2867.16
409.68	2904.60
409.87	2850.77
410.07	2972.48
410.26	2897.58
410.45	2956.10
410.64	3054.40
410.83	3035.67
411.02	3087.17
411.21	3208.87
411.40	3162.06
411.59	3255.69
411.78	3145.68
411.98	3101.21
412.17	3070.78
412.36	3346.97
412.55	3283.77
412.74	3288.45
412.93	3407.82
413.12	3346.97
413.31	3473.36
413.50	3400.80
413.69	3370.37
413.88	3566.98
414.07	3543.57
414.26	3597.40
414.45	3634.85
414.64	3585.70
414.83	3726.13
415.02	3789.33
415.22	3819.75
415.41	3871.25
415.60	3936.78
415.79	3974.23
415.98	3913.38
416.17	4135.73
416.36	3836.14
416.55	3985.93
416.74	3920.40
416.93	4014.02
417.12	4091.26
417.31	4147.43
417.50	3995.29
417.69	4390.84
417.88	4283.18
418.07	4182.54
418.26	4229.35
418.45	4304.25
418.64	4416.59
418.83	4360.42
419.02	4397.87
419.21	4468.08
419.39	4475.10
419.58	4414.25
419.77	4365.10
419.96	4765.33
420.15	4592.13
420.34	4550.00
420.53	4557.02
420.72	4596.81
420.91	4667.03
421.10	4660.01
421.29	4786.40
421.48	4772.35
421.67	4592.13
421.86	4711.50
422.05	4830.87
422.24	4732.56
422.43	4851.93
422.61	4816.82
422.80	4894.06
422.99	4929.17
423.18	4847.25
423.37	4992.36
423.56	4985.34
423.75	4947.89
423.94	4681.07
424.13	4456.38
424.32	4711.50
424.50	4997.04
424.69	5029.81
424.88	5135.14
425.07	5111.73
425.26	4746.61
425.45	4950.23
425.64	4842.57
425.83	5018.11
426.01	4978.32
426.20	5022.79
426.39	4992.36
426.58	4992.36
426.77	4985.34
426.96	4957.25
427.15	4987.68
427.33	5284.93
427.52	5123.43
427.71	5245.14
427.90	5317.70
428.09	5273.23
428.28	5294.29
428.46	5521.32
428.65	5418.34
428.84	5378.55
429.03	5500.26
429.22	5198.33
429.40	5439.40
429.59	5348.12
429.78	5308.34
429.97	5294.29
430.16	5434.72
430.34	5603.24
430.53	5668.78
430.72	5680.48
430.91	5680.48
431.10	5734.31
431.28	5575.16
431.47	5729.63
431.66	5834.96
431.85	5708.57
432.03	5891.13
432.22	6036.24
432.41	5806.87
432.60	5973.05
432.79	5865.38
432.97	5851.34
433.16	5963.68
433.35	5975.39
433.54	6094.76
433.72	6052.63
433.91	5891.13
434.10	6232.85
434.28	6223.48
434.47	6052.63
434.66	6155.61
434.85	6122.84
435.03	6333.49
435.22	6279.66
435.41	6363.92
435.59	6335.83
435.78	6307.74
435.97	6363.92
436.16	6555.84
436.34	6490.31
436.53	6441.15
436.72	6497.33
436.90	6399.02
437.09	6595.63
437.28	6544.14
437.46	6658.82
437.65	6654.14
437.84	6696.27
438.02	6768.83
438.21	6651.80
438.40	6555.84
438.58	7009.90
438.77	6956.07
438.96	6923.30
439.14	7075.44
439.33	7026.29
439.52	6960.75
439.70	7124.59
439.89	7309.49
440.08	7211.19
440.26	7323.54
440.45	7325.88
440.63	7379.71
440.82	7723.77
441.01	7527.16
441.19	7620.78
441.38	7625.47
441.57	7777.60
441.75	7840.79
441.94	7896.97
442.12	7763.56
442.31	8032.72
442.50	7988.25
442.68	7992.93
442.87	7990.59
443.05	8044.42
443.24	8234.00
443.43	8021.02
443.61	8369.76
443.80	8346.35
443.98	7819.73
444.17	7691.00
444.35	8133.36
444.54	8578.06
444.73	8189.53
444.91	8304.22
445.10	8243.37
445.28	8339.33
445.47	8273.79
445.65	8304.22
445.84	8355.71
446.02	8416.57
446.21	8397.84
446.39	8397.84
446.58	8538.27
446.77	8369.76
446.95	8226.98
447.14	8208.26
447.32	8470.40
447.51	8414.23
447.69	8437.63
447.88	8585.08
448.06	8311.24
448.25	8652.96
448.43	8559.34
448.62	8517.21
448.80	8383.80
448.99	8732.54
449.17	8582.74
449.36	8765.31
449.54	8800.41
449.73	8795.73
449.91	8847.22
450.10	8872.97
450.28	9109.36
450.46	8943.19
450.65	8847.22
450.83	8985.32
451.02	8997.02
451.20	9242.78
451.39	9320.01
451.57	8910.42
451.76	9015.74
451.94	9198.31
452.13	9235.75
452.31	9205.33
452.49	9266.18
452.68	9338.74
452.86	9392.57
453.05	9331.72
453.23	9376.19
453.42	9399.59
453.60	9228.73
453.78	9483.85
453.97	9401.93
454.15	9528.32
454.34	9437.04
454.52	9525.98
454.70	9717.90
454.89	9760.03
455.07	9603.22
455.26	9694.50
455.44	9778.76
455.62	9846.63
455.81	9781.10
455.99	9980.04
456.17	10015.15
456.36	9816.21
456.54	9980.04
456.73	10246.87
456.91	10342.83
457.09	10335.81
457.28	10464.54
457.46	10380.28
457.64	10658.80
457.83	10349.85
458.01	10312.40
458.19	10710.29
458.38	10466.88
458.56	10499.64
458.74	10555.82
458.93	10604.97
459.11	10874.13
459.29	10773.49
459.48	10958.39
459.66	10773.49
459.84	10668.16
460.03	11014.56
460.21	10988.82
460.39	11030.94
460.57	11211.17
460.76	11290.74
460.94	11021.58
461.12	11117.54
461.31	11108.18
461.49	10939.66
461.67	11096.48
461.85	11173.72
462.04	11426.50
462.22	11611.40
462.40	11590.33
462.59	11176.06
462.77	11496.71
462.95	11695.66
463.13	11470.97
463.32	11541.18
463.50	11667.57
463.68	11531.82
463.86	11737.79
464.05	11679.27
464.23	11599.70
464.41	11934.39
464.59	11580.97
464.78	11903.96
464.96	11882.90
465.14	11875.88
465.32	12159.08
465.50	12138.02
465.69	12119.29
465.87	12079.50
466.05	12126.32
466.23	12196.53
466.41	12294.83
466.60	12510.16
466.78	12032.69
466.96	12013.97
467.14	12397.82
467.32	12470.37
467.51	12624.85
467.69	12170.79
467.87	12402.50
468.05	12610.81
468.23	12472.71
468.41	12156.74
468.60	12524.21
468.78	12718.47
468.96	12505.48
469.14	12751.24
469.32	12898.69
469.50	12706.77
469.69	13041.46
469.87	13083.59
470.05	13004.02
470.23	13067.21
470.41	12903.37
470.59	13327.01
470.77	13071.89
470.95	13027.42
471.14	13448.72
471.32	13336.37
471.50	13542.34
471.68	13345.73
471.86	13432.33
472.04	13731.92
472.22	13954.27
472.40	13666.39
472.58	13893.42
472.77	13893.42
472.95	14045.55
473.13	14487.92
473.31	13703.84
473.49	13914.48
473.67	14106.41
473.85	14221.10
474.03	14668.14
474.21	14450.47
474.39	14464.51
474.57	14691.54
474.75	14820.27
474.93	14913.89
475.12	14883.47
475.30	15178.37
475.48	15136.24
475.66	15213.48
475.84	15169.01
476.02	15281.36
476.20	15232.21
476.38	15602.01
476.56	15943.73
476.74	15807.98
476.92	15843.09
477.10	15721.38
477.28	16093.52
477.46	16027.99
477.64	16116.93
477.82	16489.07
478.00	16924.41
478.18	16812.07
478.36	17074.21
478.54	17156.13
478.72	17116.34
478.90	17291.88
479.08	17390.18
479.26	17343.37
479.44	17743.60
479.62	17762.33
479.80	17673.39
479.98	18024.47
480.16	18520.66
480.34	18164.90
480.52	18244.48
480.70	18408.31
480.88	18249.16
481.06	18794.50
481.24	18831.95
481.41	19026.21
481.59	19098.77
481.77	19571.56
481.95	19286.01
482.13	19609.01
482.31	19412.40
482.49	20086.48
482.67	20016.26
482.85	20107.54
483.03	20610.76
483.21	20776.94
483.39	20629.48
483.57	20528.84
483.74	21348.03
483.92	21331.64
484.10	21142.06
484.28	21579.74
484.46	22064.23
484.64	21942.52
484.82	21532.93
485.00	22246.79
485.18	22450.42
485.35	22661.07
485.53	22745.33
485.71	22909.16
485.89	23119.81
486.07	23213.43
486.25	23204.07
486.43	23346.84
486.61	23786.86
486.78	23992.83
486.96	23866.44
487.14	24472.64
487.32	24353.27
487.50	24430.51
487.68	24730.10
487.85	25156.08
488.03	25366.73
488.21	25699.08
488.39	25699.08
488.57	25738.87
488.75	25900.37
488.92	26356.77
489.10	26759.34
489.28	26558.06
489.46	26984.04
489.64	26829.56
489.81	27379.59
489.99	27597.26
490.17	27922.59
490.35	28004.51
490.53	28170.69
490.70	28074.73
490.88	28105.15
491.06	28318.14
491.24	28638.80
491.41	28591.98
491.59	29254.36
491.77	29181.80
491.95	29041.37
492.13	29600.76
492.30	29961.20
492.48	29792.68
492.66	30061.84
492.84	30150.78
493.01	30464.41
493.19	30204.61
493.37	31049.55
493.54	30742.94
493.72	31288.28
493.90	30925.50
494.08	31768.09
494.25	31840.65
494.43	31571.49
494.61	32130.87
494.79	32451.53
494.96	32329.82
495.14	32601.32
495.32	32945.38
495.49	32793.25
495.67	33006.23
495.85	33317.53
496.02	33586.69
496.20	33769.25
496.38	33837.12
496.55	33897.98
496.73	34616.52
496.91	34153.10
497.09	34607.16
497.26	34611.84
497.44	34775.68
497.62	34656.31
497.79	35480.18
497.97	35477.84
498.14	35969.35
498.32	35976.37
498.50	35765.73
498.67	36458.52
498.85	36238.51
499.03	36804.92
499.20	36250.22
499.38	36713.64
499.56	36947.70
499.73	37069.40
499.91	37097.49
500.08	37593.68
500.26	36940.68
500.44	37397.08
500.61	37834.76
500.79	37612.41
500.97	37876.89
501.14	38110.94
501.32	38288.82
501.49	38394.15
501.67	38522.88
501.84	38717.14
502.02	38579.05
502.20	38773.31
502.37	38918.43
502.55	39108.01
502.72	39033.11
502.90	39091.63
503.07	38955.88
503.25	39592.50
503.43	39693.15
503.60	39856.98
503.78	39901.45
503.95	40395.31
504.13	40076.99
504.30	40615.32
504.48	40091.04
504.65	40453.82
504.83	40940.65
505.01	41146.62
505.18	40858.73
505.36	41160.66
505.53	40964.06
505.71	41064.70
505.88	41268.33
506.06	41221.52
506.23	41682.60
506.41	41560.89
506.58	41696.64
506.76	41830.05
506.93	42040.70
507.11	42291.14
507.28	42124.96
507.46	42522.85
507.63	42796.70
507.81	43152.46
507.98	42593.07
508.16	42806.06
508.33	43201.61
508.50	43524.60
508.68	43386.51
508.85	43594.82
509.03	43667.37
509.20	43831.21
509.38	44313.36
509.55	44027.82
509.73	44289.96
509.90	44470.18
510.08	44250.17
510.25	44755.72
510.42	44591.89
510.60	45071.70
510.77	45076.38
510.95	45420.44
511.12	45076.38
511.30	44954.67
511.47	45226.17
511.64	45240.21
511.82	45357.24
511.99	45577.25
512.17	45925.99
512.34	45832.37
512.51	46169.41
512.69	46043.02
512.86	46284.09
513.04	46136.64
513.21	46216.22
513.38	46618.79
513.56	46862.21
513.73	46370.69
513.90	46803.69
514.08	46911.36
514.25	46834.12
514.43	47009.66
514.60	46995.62
514.77	46946.47
514.95	47477.77
515.12	47402.87
515.29	47297.55
515.47	47384.15
515.64	47723.52
515.81	47793.74
515.99	48112.05
516.16	48079.28
516.33	48240.78
516.51	48442.07
516.68	48233.76
516.85	48280.57
517.03	48575.48
517.20	48521.65
517.37	49020.18
517.54	48793.15
517.72	49066.99
517.89	48856.34
518.06	48619.95
518.24	49242.53
518.41	48926.56
518.58	49144.23
518.75	48793.15
518.93	49265.94
519.10	49336.15
519.27	49497.65
519.45	49689.57
519.62	49797.24
519.79	49598.29
519.96	49958.73
520.14	49993.84
520.31	49668.51
520.48	50047.68
520.65	50047.68
520.83	50408.12
521.00	50487.70
521.17	50487.70
521.34	50576.64
521.52	50871.54
521.69	50480.67
521.86	50691.32
522.03	51042.40
522.20	51026.02
522.38	51112.62
522.55	51325.61
522.72	50880.91
522.89	51152.41
523.07	51363.06
523.24	51468.38
523.41	51531.57
523.58	50937.08
523.75	51346.67
523.92	51484.76
524.10	51803.08
524.27	51810.10
524.44	51995.00
524.61	52055.85
524.78	51978.62
524.96	52034.79
525.13	51753.93
525.30	52067.56
525.47	52369.49
525.64	52182.24
525.81	52275.87
525.98	52467.79
526.16	52570.77
526.33	52289.91
526.50	52657.37
526.67	52673.76
526.84	52938.24
527.01	52669.08
527.18	52933.56
527.36	52669.08
527.53	52818.87
527.70	53076.33
527.87	53151.23
528.04	53085.69
528.21	53361.87
528.38	53277.61
528.55	53247.19
528.72	53141.86
528.89	53202.72
529.07	53020.16
529.24	53361.87
529.41	53441.45
529.58	53825.30
529.75	53577.20
529.92	53829.98
530.09	53626.35
530.26	53839.34
530.43	53993.82
530.60	53497.62
530.77	53780.83
530.94	54115.53
531.11	54087.44
531.28	53900.20
531.46	54188.08
531.63	54035.95
531.80	54028.93
531.97	54335.54
532.14	54330.86
532.31	54134.25
532.48	54422.14
532.65	54358.94
532.82	54272.34
532.99	54504.06
533.16	54695.98
533.33	54717.04
533.50	54707.68
533.67	54492.35
533.84	54824.71
534.01	54625.76
534.18	54862.16
534.35	55178.13
534.52	54878.54
534.69	55206.22
534.86	55025.99
535.03	54951.10
535.20	55004.93
535.37	55002.59
535.54	55185.15
535.71	55025.99
535.88	55386.44
536.05	55491.76
536.22	55470.70
536.38	55311.54
536.55	55454.31
536.72	55430.91
536.89	55505.80
537.06	55255.37
537.23	55435.59
537.40	55311.54
537.57	55803.05
537.74	55718.79
537.91	56004.34
538.08	55936.46
538.25	55456.65
538.42	55845.18
538.59	56133.07
538.75	55896.67
538.92	55859.23
539.09	56123.71
539.26	55999.66
539.43	56081.58
539.60	56303.93
539.77	56060.51
539.94	56275.84
540.11	56100.30
540.28	56231.37
540.44	56179.88
540.61	56329.67
540.78	56156.47
540.95	56315.63
541.12	56205.62
541.29	56219.67
541.46	56413.93
541.62	56303.93
541.79	56530.96
541.96	56413.93
542.13	56240.73
542.30	56701.82
542.47	56570.75
542.63	56940.55
542.80	56720.54
542.97	56926.51
543.14	56926.51
543.31	56978.00
543.48	57223.76
543.64	57080.98
543.81	57270.57
543.98	57064.60
544.15	57277.59
544.32	57279.93
544.48	57441.43
544.65	57134.82
544.82	57141.84
544.99	56970.98
545.16	57476.54
545.32	57275.25
545.49	57574.84
545.66	57652.08
545.83	57305.68
546.00	57717.61
546.16	57642.71
546.33	57422.70
546.50	57401.64
546.67	57680.16
546.83	57401.64
547.00	57633.35
547.17	57595.90
547.34	57654.42
547.50	57799.53
547.67	57865.06
547.84	57869.75
548.00	57944.64
548.17	57965.71
548.34	57762.08
548.51	58234.87
548.67	58312.11
548.84	57876.77
549.01	57836.98
549.18	57890.81
549.34	58052.31
549.51	58054.65
549.68	58274.66
549.84	58108.48
550.01	58522.76
550.18	57970.39
550.34	58466.58
550.51	58482.97
550.68	58078.05
550.84	58042.95
551.01	58326.15
551.18	58506.37
551.34	58314.45
551.51	58410.41
551.68	58504.03
551.84	58599.99
552.01	58241.89
552.18	58534.46
552.34	58525.10
552.51	58581.27
552.68	58176.36
552.84	58607.01
553.01	58684.25
553.18	58394.03
553.34	58822.34
553.51	58674.89
553.67	58726.38
553.84	58831.71
554.01	58791.92
554.17	58934.69
554.34	58660.85
554.51	58906.60
554.67	58953.41
554.84	58693.61
555.00	58969.80
555.17	58922.99
555.33	58869.15
555.50	58644.46
555.67	58831.71
555.83	58717.02
556.00	59103.21
556.16	59061.08
556.33	59245.98
556.50	59032.99
556.66	59332.58
556.83	59025.97
556.99	59131.29
557.16	59276.41
557.32	59419.18
557.49	59435.56
557.65	59135.98
557.82	59330.24
557.98	59248.32
558.15	59393.43
558.32	59559.61
558.48	59084.48
558.65	59159.38
558.81	59381.73
558.98	59437.90
559.14	59458.97
559.31	59625.15
559.47	59444.93
559.64	59615.79
559.80	59559.61
559.97	59561.95
560.13	59496.42
560.30	59444.93
560.46	59709.41
560.63	59571.32
560.79	59627.49
560.96	59814.73
561.12	59573.66
561.29	59711.75
561.45	59714.09
561.61	59627.49
561.78	59620.47
561.94	59571.32
562.11	59739.83
562.27	59877.93
562.44	59760.90
562.60	59821.75
562.77	59983.25
562.93	59524.50
563.10	59821.75
563.26	59711.75
563.42	60027.72
563.59	59796.01
563.75	59686.00
563.92	59994.95
564.08	59863.88
564.24	60100.28
564.41	60001.97
564.57	59927.08
564.74	59840.48
564.90	60088.57
565.07	59969.21
565.23	60032.40
565.39	59854.52
565.56	60004.31
565.72	59943.46
565.88	59976.23
566.05	60018.36
566.21	59861.54
566.38	60051.12
566.54	60240.71
566.70	60177.51
566.87	60140.07
567.03	60001.97
567.19	60231.35
567.36	60163.47
567.52	60149.43
567.68	60413.91
567.85	60250.07
568.01	60331.99
568.17	59990.27
568.34	60130.70
568.50	60193.90
568.66	60301.56
568.83	60163.47
568.99	60315.61
569.15	60121.34
569.32	60369.44
569.48	60217.30
569.64	60320.29
569.81	60289.86
569.97	60086.23
570.13	60484.12
570.30	60126.02
570.46	60493.49
570.62	60392.84
570.78	60348.37
570.95	60411.57
571.11	60430.29
571.27	60383.48
571.43	60257.09
571.60	60385.82
571.76	60481.78
571.92	60399.86
572.09	60556.68
572.25	60402.21
572.41	60310.92
572.57	60460.72
572.74	60608.17
572.90	60573.06
573.06	60474.76
573.22	60214.96
573.38	60355.39
573.55	60559.02
573.71	60544.98
573.87	60601.15
574.03	60500.51
574.20	60350.71
574.36	60563.70
574.52	60336.67
574.68	60554.34
574.84	60676.05
575.01	60781.37
575.17	60530.93
575.33	60617.53
575.49	60463.06
575.65	60420.93
575.82	60772.01
575.98	60631.58
576.14	60685.41
576.30	60652.64
576.46	60643.28
576.62	60640.94
576.79	60575.40
576.95	60514.55
577.11	60802.44
577.27	60650.30
577.43	60720.52
577.59	60456.04
577.75	60498.17
577.92	60652.64
578.08	60830.52
578.24	60748.60
578.40	60879.67
578.56	60837.54
578.72	60807.12
578.88	60764.99
579.04	60697.11
579.21	60666.69
579.37	60837.54
579.53	60764.99
579.69	60566.04
579.85	60776.69
580.01	60573.06
580.17	60690.09
580.33	60795.42
580.49	60935.85
580.65	60580.09
580.82	60715.84
580.98	60650.30
581.14	60664.35
581.30	60739.24
581.46	60750.94
581.62	60720.52
581.78	60795.42
581.94	60867.97
582.10	60839.89
582.26	60863.29
582.42	60753.29
582.58	60844.57
582.74	60886.70
582.90	60779.03
583.06	60872.65
583.22	60748.60
583.38	60764.99
583.54	60898.40
583.70	60617.53
583.86	60821.16
584.02	60654.98
584.18	60891.38
584.34	61041.17
584.50	60769.67
584.66	60860.95
584.82	60739.24
584.98	61130.11
585.14	60746.26
585.30	60734.56
585.46	60917.12
585.62	60818.82
585.78	60947.55
585.94	60757.97
586.10	60818.82
586.26	60797.76
586.42	60823.50
586.58	60985.00
586.74	60919.46
586.90	60870.31
587.06	60666.69
587.22	60926.49
587.38	60973.30
587.54	61052.87
587.70	61104.37
587.86	61132.45
588.02	61087.98
588.18	61197.99
588.34	60884.36
588.49	60896.06
