SpectraSuite Data File
++++++++++++++++++++++++++++++++++++
Date: Fri Oct 25 11:25:50 EDT 2013
User: price-jones
Dark Spectrum Present: No
Reference Spectrum Present: No
Number of Sampled Component Spectra: 1
Spectrometers: USB2+H05261
Integration Time (usec): 100000 (USB2+H05261)
Spectra Averaged: 1 (USB2+H05261)
Boxcar Smoothing: 0 (USB2+H05261)
Correct for Electrical Dark: No (USB2+H05261)
Strobe/Lamp Enabled: No (USB2+H05261)
Correct for Detector Non-linearity: No (USB2+H05261)
Correct for Stray Light: No (USB2+H05261)
Number of Pixels in Processed Spectrum: 2048
>>>>>Begin Processed Spectral Data<<<<<
365.73	250.44
365.92	250.44
366.12	250.44
366.32	187.24
366.52	201.29
366.72	152.13
366.91	114.69
367.11	107.66
367.31	126.39
367.51	105.32
367.70	124.05
367.90	135.75
368.10	117.03
368.30	203.63
368.49	142.77
368.69	140.43
368.89	145.11
369.09	152.13
369.28	205.97
369.48	138.09
369.68	138.09
369.87	187.24
370.07	135.75
370.27	238.73
370.47	271.50
370.66	561.73
370.86	517.26
371.06	676.41
371.25	657.69
371.45	624.92
371.65	739.61
371.84	685.78
372.04	683.44
372.24	643.65
372.44	657.69
372.63	830.89
372.83	692.80
373.03	807.48
373.22	746.63
373.42	751.31
373.62	795.78
373.81	861.32
374.01	833.23
374.21	844.93
374.40	861.32
374.60	812.17
374.79	781.74
374.99	786.42
375.19	812.17
375.38	849.61
375.58	814.51
375.78	842.59
375.97	903.45
376.17	1013.45
376.37	858.98
376.56	858.98
376.76	978.34
376.95	926.85
377.15	929.19
377.35	933.87
377.54	809.83
377.74	905.79
377.93	945.58
378.13	940.90
378.33	891.74
378.52	870.68
378.72	919.83
378.91	929.19
379.11	971.32
379.31	887.06
379.50	926.85
379.70	978.34
379.89	978.34
380.09	945.58
380.28	905.79
380.48	1032.18
380.68	1011.11
380.87	1020.47
381.07	1011.11
381.26	1025.15
381.46	1015.79
381.65	999.41
381.85	1032.18
382.04	1053.24
382.24	1076.65
382.43	1006.43
382.63	1015.79
382.83	1062.60
383.02	1196.01
383.22	1083.67
383.41	1083.67
383.61	1032.18
383.80	1069.62
384.00	1053.24
384.19	1121.12
384.39	1184.31
384.58	1135.16
384.78	1160.91
384.97	1132.82
385.17	1177.29
385.36	1212.40
385.56	1088.35
385.75	1188.99
385.95	1139.84
386.14	1284.95
386.34	1170.27
386.53	1163.25
386.72	1125.80
386.92	1235.80
387.11	1345.81
387.31	1231.12
387.50	1200.69
387.70	1212.40
387.89	1322.40
388.09	1174.95
388.28	1373.89
388.48	1320.06
388.67	1296.66
388.86	1401.98
389.06	1378.58
389.25	1409.00
389.45	1432.41
389.64	1299.00
389.84	1425.39
390.03	1455.81
390.22	1378.58
390.42	1345.81
390.61	1413.68
390.81	1446.45
391.00	1355.17
391.19	1425.39
391.39	1509.65
391.58	1519.01
391.78	1507.30
391.97	1437.09
392.16	1423.05
392.36	1495.60
392.55	1533.05
392.75	1509.65
392.94	1430.07
393.13	1474.54
393.33	1593.90
393.52	1607.95
393.71	1570.50
393.91	1514.33
394.10	1589.22
394.29	1598.59
394.49	1664.12
394.68	1596.25
394.88	1666.46
395.07	1713.27
395.26	1739.02
395.46	1657.10
395.65	1732.00
395.84	1729.66
396.04	1816.26
396.23	1696.89
396.42	1678.16
396.62	1771.79
396.81	1689.87
397.00	1710.93
397.19	1760.08
397.39	1853.70
397.58	1811.57
397.77	1762.42
397.97	1825.62
398.16	1806.89
398.35	1853.70
398.55	1881.79
398.74	1837.32
398.93	1987.11
399.12	1888.81
399.32	1853.70
399.51	1937.96
399.70	2059.67
399.90	1961.37
400.09	1998.82
400.28	2054.99
400.47	2073.71
400.67	2019.88
400.86	2008.18
401.05	2029.24
401.24	2066.69
401.44	2157.97
401.63	2122.87
401.82	2040.95
402.01	2150.95
402.21	2246.91
402.40	2193.08
402.59	2253.94
402.78	2174.36
402.97	2242.23
403.17	2218.83
403.36	2279.68
403.55	2195.42
403.74	2303.09
403.93	2356.92
404.13	2399.05
404.32	2413.09
404.51	2354.58
404.70	2328.83
404.89	2434.16
405.09	2572.25
405.28	2417.77
405.47	2441.18
405.66	2527.78
405.85	2509.05
406.05	2555.86
406.24	2455.22
406.43	2679.91
406.62	2567.57
406.81	2628.42
407.00	2466.92
407.20	2607.36
407.39	2700.98
407.58	2698.64
407.77	2684.59
407.96	2818.00
408.15	2712.68
408.34	2679.91
408.54	2761.83
408.73	2752.47
408.92	2782.90
409.11	2820.35
409.30	2794.60
409.49	2878.86
409.68	2979.50
409.87	2972.48
410.07	2932.69
410.26	3082.49
410.45	2885.88
410.64	2946.73
410.83	3148.02
411.02	3094.19
411.21	3124.62
411.40	3094.19
411.59	3339.94
411.78	3117.59
411.98	3213.56
412.17	3218.24
412.36	3150.36
412.55	3307.18
412.74	3365.69
412.93	3377.39
413.12	3239.30
413.31	3536.55
413.50	3440.59
413.69	3440.59
413.88	3492.08
414.07	3599.74
414.26	3592.72
414.45	3595.06
414.64	3632.51
414.83	3754.22
415.02	3765.92
415.22	3712.09
415.41	3749.54
415.60	3822.09
415.79	3866.56
415.98	4007.00
416.17	3950.82
416.36	4037.42
416.55	4025.72
416.74	4032.74
416.93	3960.19
417.12	4142.75
417.31	4203.60
417.50	4168.49
417.69	4095.94
417.88	4142.75
418.07	4182.54
418.26	4250.41
418.45	4369.78
418.64	4428.29
418.83	4414.25
419.02	4400.21
419.21	4592.13
419.39	4587.45
419.58	4542.98
419.77	4428.29
419.96	4482.13
420.15	4524.26
420.34	4397.87
420.53	4636.60
420.72	4692.77
420.91	4615.54
421.10	4699.80
421.29	4767.67
421.48	4805.12
421.67	4711.50
421.86	4716.18
422.05	4734.90
422.24	4905.76
422.43	4915.12
422.61	4931.51
422.80	5032.15
422.99	4882.36
423.18	4978.32
423.37	4889.38
423.56	5076.62
423.75	4947.89
423.94	4964.28
424.13	4561.70
424.32	4732.56
424.50	4952.57
424.69	4884.70
424.88	5060.24
425.07	4971.30
425.26	4814.48
425.45	4929.17
425.64	5060.24
425.83	4975.98
426.01	4973.64
426.20	5078.96
426.39	4875.34
426.58	5057.90
426.77	5118.75
426.96	5107.05
427.15	5041.51
427.33	5121.09
427.52	5114.07
427.71	5238.12
427.90	5132.79
428.09	5350.46
428.28	5275.57
428.46	5329.40
428.65	5289.61
428.84	5598.56
429.03	5549.41
429.22	5100.03
429.40	5430.04
429.59	5504.94
429.78	5195.99
429.97	5305.99
430.16	5430.04
430.34	5458.13
430.53	5535.37
430.72	5720.27
430.91	5638.35
431.10	5570.48
431.28	5600.90
431.47	5860.70
431.66	5806.87
431.85	5746.02
432.03	5980.07
432.22	5846.66
432.41	5797.51
432.60	6047.94
432.79	5856.02
432.97	5928.58
433.16	5963.68
433.35	5989.43
433.54	6139.23
433.72	6108.80
433.91	6179.01
434.10	5994.11
434.28	5834.96
434.47	6214.12
434.66	6221.14
434.85	6333.49
435.03	6286.68
435.22	6328.81
435.41	6525.41
435.59	6464.56
435.78	6569.88
435.97	6511.37
436.16	6445.84
436.34	6403.71
436.53	6469.24
436.72	6628.40
436.90	6525.41
437.09	6684.57
437.28	6359.24
437.46	6677.55
437.65	6686.91
437.84	6745.42
438.02	6710.32
438.21	6764.15
438.40	6530.09
438.58	6986.50
438.77	7012.24
438.96	6848.41
439.14	7260.34
439.33	7213.53
439.52	7126.93
439.70	7267.36
439.89	7417.16
440.08	7524.82
440.26	7304.81
440.45	7258.00
440.63	7248.64
440.82	7524.82
441.01	7552.91
441.19	7585.68
441.38	7669.94
441.57	7801.01
441.75	7817.39
441.94	7889.95
442.12	7808.03
442.31	7967.18
442.50	8184.85
442.68	8032.72
442.87	7953.14
443.05	8084.21
443.24	8175.49
443.43	8170.81
443.61	8060.80
443.80	8418.91
443.98	7892.29
444.17	7819.73
444.35	8229.32
444.54	8283.16
444.73	8194.22
444.91	8411.89
445.10	8327.63
445.28	8365.07
445.47	8245.71
445.65	8215.28
445.84	8554.66
446.02	8454.02
446.21	8351.03
446.39	8257.41
446.58	8353.37
446.77	8306.56
446.95	8028.04
447.14	8397.84
447.32	8552.32
447.51	8423.59
447.69	8432.95
447.88	8414.23
448.06	8454.02
448.25	8154.43
448.43	8674.03
448.62	8554.66
448.80	8620.19
448.99	8533.59
449.17	8638.92
449.36	8458.70
449.54	8645.94
449.73	8681.05
449.91	8929.14
450.10	8968.93
450.28	9029.79
450.46	9212.35
450.65	8929.14
450.83	9041.49
451.02	8784.03
451.20	9202.99
451.39	9118.73
451.57	9256.82
451.76	9174.90
451.94	9170.22
452.13	9090.64
452.31	9177.24
452.49	9247.46
452.68	9261.50
452.86	9202.99
453.05	9411.29
453.23	9500.23
453.42	9275.54
453.60	9373.85
453.78	9575.13
453.97	9565.77
454.15	9373.85
454.34	9462.79
454.52	9621.94
454.70	9635.99
454.89	9797.48
455.07	9954.30
455.26	9743.65
455.44	9879.40
455.62	9743.65
455.81	9856.00
455.99	9811.53
456.17	10146.22
456.36	9863.02
456.54	10216.44
456.73	10129.84
456.91	10626.03
457.09	10399.00
457.28	10499.64
457.46	10314.74
457.64	10441.13
457.83	10396.66
458.01	10373.25
458.19	10635.39
458.38	10307.72
458.56	10574.54
458.74	10670.50
458.93	10663.48
459.11	10785.19
459.29	10656.46
459.48	10759.44
459.66	10583.90
459.84	10803.91
460.03	11044.99
460.21	10932.64
460.39	11117.54
460.57	10937.32
460.76	11059.03
460.94	11087.12
461.12	10796.89
461.31	11208.83
461.49	11138.61
461.67	11218.19
461.85	11332.87
462.04	11239.25
462.22	11714.38
462.40	11618.42
462.59	11557.57
462.77	11358.62
462.95	11599.70
463.13	11543.52
463.32	11683.95
463.50	11688.64
463.68	11721.40
463.86	11606.72
464.05	11571.61
464.23	11709.70
464.41	11733.11
464.59	11513.10
464.78	11892.26
464.96	12133.34
465.14	11782.26
465.32	12004.61
465.50	12262.07
465.69	12004.61
465.87	12196.53
466.05	12098.23
466.23	11941.41
466.41	12028.01
466.60	12365.05
466.78	12245.68
466.96	12226.96
467.14	12042.06
467.32	12446.97
467.51	12559.31
467.69	12020.99
467.87	12397.82
468.05	12533.57
468.23	12304.20
468.41	12414.20
468.60	12273.77
468.78	12484.42
468.96	12423.56
469.14	12645.91
469.32	12891.67
469.50	12608.47
469.69	12774.64
469.87	13130.41
470.05	13078.91
470.23	13195.94
470.41	13053.17
470.59	13158.49
470.77	12945.50
470.95	13202.96
471.14	13720.22
471.32	13006.36
471.50	13642.98
471.68	13561.06
471.86	13228.71
472.04	13617.24
472.22	13734.26
472.40	13839.59
472.58	13858.31
472.77	13582.13
472.95	14026.83
473.13	14459.83
473.31	14083.00
473.49	14171.94
473.67	13991.72
473.85	13987.04
474.03	14532.39
474.21	14534.73
474.39	14590.90
474.57	14682.18
474.75	14869.42
474.93	14843.68
475.12	14874.10
475.30	15014.54
475.48	14970.07
475.66	14944.32
475.84	14934.96
476.02	15239.23
476.20	15389.02
476.38	15461.58
476.56	15786.91
476.74	16039.69
476.92	15747.12
477.10	15620.74
477.28	16252.68
477.46	16037.35
477.64	16016.29
477.82	16636.53
478.00	16814.41
478.18	16716.11
478.36	16849.52
478.54	16805.05
478.72	17081.23
478.90	17116.34
479.08	17956.59
479.26	17872.33
479.44	17675.73
479.62	18012.76
479.80	17980.00
479.98	18008.08
480.16	18782.80
480.34	18267.88
480.52	18511.30
480.70	18705.56
480.88	18349.80
481.06	18579.17
481.24	18712.58
481.41	19154.94
481.59	19208.78
481.77	19491.98
481.95	19389.00
482.13	19466.24
482.31	19613.69
482.49	20023.28
482.67	19917.96
482.85	20095.84
483.03	20205.84
483.21	20730.12
483.39	20662.25
483.57	20437.56
483.74	21163.12
483.92	21390.16
484.10	21296.53
484.28	21605.49
484.46	21921.46
484.64	22640.00
484.82	21729.53
485.00	22309.99
485.18	22700.86
485.35	22733.62
485.53	22630.64
485.71	22953.63
485.89	23323.44
486.07	23054.28
486.25	23180.67
486.43	23506.00
486.61	23962.40
486.78	23573.88
486.96	24208.16
487.14	24301.78
487.32	24470.30
487.50	24961.81
487.68	24779.25
487.85	25350.34
488.03	25097.56
488.21	25731.85
488.39	25745.89
488.57	25855.90
488.75	26410.60
488.92	26300.60
489.10	26628.27
489.28	26733.60
489.46	27037.87
489.64	27056.59
489.81	27669.81
489.99	27220.43
490.17	27442.78
490.35	27702.58
490.53	27847.69
490.70	28386.02
490.88	28435.17
491.06	28430.49
491.24	28685.61
491.41	28872.85
491.59	28933.70
491.77	29369.04
491.95	29315.21
492.13	29642.88
492.30	30064.18
492.48	30075.88
492.66	30115.67
492.84	30174.19
493.01	30756.98
493.19	30874.01
493.37	30611.87
493.54	30810.81
493.72	31234.45
493.90	31353.82
494.08	31747.03
494.25	31632.34
494.43	31857.03
494.61	32072.36
494.79	32278.33
494.96	32112.15
495.14	32268.97
495.32	32549.83
495.49	33186.46
495.67	33064.75
495.85	33820.74
496.02	33715.42
496.20	33586.69
496.38	33780.95
496.55	34080.54
496.73	34256.08
496.91	34415.24
497.09	34909.09
497.26	34618.86
497.44	34522.90
497.62	35140.80
497.79	35388.90
497.97	35316.34
498.14	35704.87
498.32	36046.59
498.50	36327.45
498.67	36261.92
498.85	35917.86
499.03	36828.33
499.20	36671.51
499.38	36863.44
499.56	36830.67
499.73	37214.52
499.91	37429.85
500.08	37532.83
500.26	37514.11
500.44	37565.60
500.61	37617.09
500.79	37858.17
500.97	38263.08
501.14	38220.95
501.32	38218.61
501.49	38581.39
501.67	38300.53
501.84	38618.84
502.02	38972.26
502.20	38934.81
502.37	38939.49
502.55	39007.37
502.72	39009.71
502.90	39613.57
503.07	39377.17
503.25	39770.38
503.43	39428.66
503.60	40116.78
503.78	40135.51
503.95	40018.48
504.13	40151.89
504.30	40257.21
504.48	40554.46
504.65	40034.86
504.83	41177.04
505.01	41153.64
505.18	40870.43
505.36	41247.26
505.53	41287.05
505.71	41448.55
505.88	41385.35
506.06	41186.41
506.23	41790.27
506.41	41500.04
506.58	42014.96
506.76	41846.44
506.93	42120.28
507.11	41909.63
507.28	42550.94
507.46	42562.64
507.63	42527.53
507.81	42859.89
507.98	42412.85
508.16	42850.53
508.33	43297.57
508.50	43152.46
508.68	43423.96
508.85	43894.41
509.03	43473.11
509.20	43423.96
509.38	44699.55
509.55	44051.22
509.73	44046.54
509.90	44018.46
510.08	44439.75
510.25	44102.71
510.42	44767.43
510.60	44870.41
510.77	45130.21
510.95	45560.87
511.12	44907.86
511.30	45413.41
511.47	45167.66
511.64	45282.34
511.82	45359.58
511.99	45375.97
512.17	46153.02
512.34	45773.86
512.51	46387.08
512.69	46335.59
512.86	46052.38
513.04	46590.70
513.21	46471.34
513.38	46284.09
513.56	46773.27
513.73	46487.72
513.90	46813.05
514.08	46677.30
514.25	47271.80
514.43	46972.21
514.60	47405.21
514.77	47342.02
514.95	47229.67
515.12	47391.17
515.29	47421.59
515.47	47456.70
515.64	47934.17
515.81	47597.13
515.99	47854.59
516.16	47992.68
516.33	48062.90
516.51	48683.14
516.68	47889.70
516.85	48219.72
517.03	48526.33
517.20	48643.35
517.37	48760.38
517.54	48727.61
517.72	48755.70
517.89	48849.32
518.06	49249.55
518.24	49029.54
518.41	49324.45
518.58	49326.79
518.75	49104.44
518.93	49308.07
519.10	49191.04
519.27	49626.38
519.45	49542.12
519.62	49579.57
519.79	49879.16
519.96	49879.16
520.14	50145.98
520.31	50078.10
520.48	50136.62
520.65	49790.22
520.83	50300.45
521.00	50569.61
521.17	50178.75
521.34	50384.71
521.52	50440.89
521.69	50574.30
521.86	50871.54
522.03	51171.13
522.20	50967.51
522.38	51199.22
522.55	51047.08
522.72	51091.55
522.89	51164.11
523.07	51676.69
523.24	51381.78
523.41	51779.67
523.58	51402.85
523.75	51562.00
523.92	51667.33
524.10	51936.49
524.27	51856.91
524.44	51856.91
524.61	52128.41
524.78	51978.62
524.96	51868.61
525.13	52149.48
525.30	52287.57
525.47	52219.69
525.64	52509.92
525.81	52303.95
525.98	52428.00
526.16	52561.41
526.33	52685.46
526.50	52655.03
526.67	52816.53
526.84	52851.64
527.01	52823.55
527.18	52683.12
527.36	52776.74
527.53	53123.14
527.70	52982.71
527.87	53167.61
528.04	52917.17
528.21	53296.34
528.38	53207.40
528.55	53549.12
528.72	53392.30
528.89	53394.64
529.07	53198.04
529.24	53319.74
529.41	53696.57
529.58	53677.85
529.75	53427.41
529.92	53734.02
530.09	53567.84
530.26	53661.46
530.43	54094.46
530.60	53614.65
530.77	53837.00
530.94	53853.39
531.11	53904.88
531.28	53939.99
531.46	54052.33
531.63	54078.08
531.80	54209.15
531.97	54365.96
532.14	54482.99
532.31	54335.54
532.48	54391.71
532.65	54466.61
532.82	54274.68
532.99	54710.02
533.16	54258.30
533.33	54497.03
533.50	54815.35
533.67	54398.73
533.84	54649.17
534.01	54726.41
534.18	54635.13
534.35	54937.05
534.52	54817.69
534.69	55147.70
534.86	55178.13
535.03	54766.20
535.20	54958.12
535.37	55096.21
535.54	55374.73
535.71	55007.27
535.88	55367.71
536.05	55229.62
536.22	55224.94
536.38	55475.38
536.55	55501.12
536.72	55667.30
536.89	55365.37
537.06	55559.64
537.23	55463.67
537.40	55447.29
537.57	55739.86
537.74	55566.66
537.91	55723.47
538.08	55709.43
538.25	55529.21
538.42	55812.41
538.59	55880.29
538.75	55449.63
538.92	55798.37
539.09	56158.81
539.26	55945.83
539.43	55779.65
539.60	56123.71
539.77	56142.43
539.94	56456.06
540.11	56210.31
540.28	56395.21
540.44	56268.82
540.61	56362.44
540.78	56140.09
540.95	56301.59
541.12	56399.89
541.29	56317.97
541.46	56301.59
541.62	56493.51
541.79	56559.05
541.96	56296.91
542.13	56540.32
542.30	56392.87
542.47	56596.49
542.63	56685.43
542.80	57031.83
542.97	56970.98
543.14	57090.35
543.31	57242.48
543.48	57181.63
543.64	57272.91
543.81	57186.31
543.98	57141.84
544.15	57279.93
544.32	57366.53
544.48	57254.18
544.65	57228.44
544.82	57272.91
544.99	57221.42
545.16	57308.02
545.32	57247.16
545.49	57387.60
545.66	57633.35
545.83	57350.15
546.00	57563.14
546.16	57579.52
546.33	57427.38
546.50	57162.90
546.67	57389.94
546.83	57567.82
547.00	57790.17
547.17	57598.24
547.34	57579.52
547.50	57893.15
547.67	58064.01
547.84	57846.34
548.00	57867.40
548.17	58113.16
548.34	57883.79
548.51	58314.45
548.67	58108.48
548.84	58078.05
549.01	58127.20
549.18	58197.42
549.34	58143.59
549.51	58166.99
549.68	58131.89
549.84	58115.50
550.01	58319.13
550.18	58134.23
550.34	58450.20
550.51	58347.21
550.68	58461.90
550.84	58052.31
551.01	58433.81
551.18	58389.34
551.34	58391.68
551.51	58497.01
551.68	58422.11
551.84	58443.18
552.01	58447.86
552.18	58569.57
552.34	58192.74
552.51	58707.66
552.68	58377.64
552.84	58618.72
553.01	58941.71
553.18	58721.70
553.34	58756.81
553.51	58749.79
553.67	58628.08
553.84	58724.04
554.01	58880.86
554.17	58894.90
554.34	59014.27
554.51	58876.18
554.67	59096.19
554.84	58908.94
555.00	58857.45
555.17	58812.98
555.33	59018.95
555.50	58782.55
555.67	58883.20
555.83	58969.80
556.00	58845.75
556.16	59295.13
556.33	59264.70
556.50	58962.78
556.66	59126.61
556.83	58880.86
556.99	59482.37
557.16	59210.87
557.32	59306.83
557.49	59503.44
557.65	59089.16
557.82	59117.25
557.98	59255.34
558.15	59395.77
558.32	59557.27
558.48	59126.61
558.65	59278.75
558.81	59583.02
558.98	59510.46
559.14	59503.44
559.31	59590.04
559.47	59632.17
559.64	59519.82
559.80	59655.57
559.97	59608.76
560.13	59538.55
560.30	59353.65
560.46	59627.49
560.63	59606.42
560.79	59887.29
560.96	59751.54
561.12	59655.57
561.29	59721.11
561.45	59826.43
561.61	59681.32
561.78	59791.33
561.94	59728.13
562.11	59470.67
562.27	59767.92
562.44	59784.30
562.60	59929.42
562.77	59898.99
562.93	59800.69
563.10	59840.48
563.26	59870.90
563.42	60193.90
563.59	59744.51
563.75	59744.51
563.92	59964.52
564.08	59906.01
564.24	60030.06
564.41	59924.74
564.57	59950.48
564.74	60004.31
564.90	60053.47
565.07	60023.04
565.23	59950.48
565.39	59882.61
565.56	60123.68
565.72	60137.72
565.88	60093.25
566.05	59999.63
566.21	60179.85
566.38	60109.64
566.54	60037.08
566.70	60245.39
566.87	60212.62
567.03	60111.98
567.19	60369.44
567.36	60114.32
567.52	60055.81
567.68	60495.83
567.85	60191.56
568.01	60119.00
568.17	60346.03
568.34	60280.50
568.50	60168.15
568.66	60360.08
568.83	60542.64
568.99	60207.94
569.15	60385.82
569.32	60306.24
569.48	60224.32
569.64	60631.58
569.81	60233.69
569.97	60107.30
570.13	60477.10
570.30	60107.30
570.46	60437.31
570.62	60367.10
570.78	60575.40
570.95	60350.71
571.11	60706.47
571.27	60453.70
571.43	60458.38
571.60	60516.89
571.76	60303.90
571.92	60451.36
572.09	60626.90
572.25	60317.95
572.41	60589.45
572.57	60458.38
572.74	60591.79
572.90	60554.34
573.06	60441.99
573.22	60467.74
573.38	60683.07
573.55	60647.96
573.71	60783.71
573.87	60542.64
574.03	60512.21
574.20	60664.35
574.36	60589.45
574.52	60676.05
574.68	60725.20
574.84	60715.84
575.01	60584.77
575.17	60669.03
575.33	60580.09
575.49	60423.27
575.65	60589.45
575.82	60704.13
575.98	60650.30
576.14	60793.07
576.30	60931.17
576.46	60753.29
576.62	60505.19
576.79	60657.32
576.95	60411.57
577.11	60676.05
577.27	60769.67
577.43	60755.63
577.59	60383.48
577.75	60676.05
577.92	60568.38
578.08	60706.47
578.24	60797.76
578.40	60830.52
578.56	60793.07
578.72	60697.11
578.88	60786.05
579.04	60921.80
579.21	60753.29
579.37	60757.97
579.53	60711.16
579.69	60467.74
579.85	60694.77
580.01	60856.27
580.17	60640.94
580.33	61057.56
580.49	60874.99
580.65	60825.84
580.82	60933.51
580.98	60818.82
581.14	60844.57
581.30	60924.14
581.46	60699.45
581.62	60846.91
581.78	60662.00
581.94	60879.67
582.10	60809.46
582.26	60690.09
582.42	60769.67
582.58	60867.97
582.74	60687.75
582.90	60603.49
583.06	60970.96
583.22	60683.07
583.38	60669.03
583.54	60992.02
583.70	61064.58
583.86	60996.70
584.02	60882.02
584.18	60872.65
584.34	60877.33
584.50	60781.37
584.66	60537.96
584.82	60764.99
584.98	61282.25
585.14	61104.37
585.30	60683.07
585.46	60989.68
585.62	61066.92
585.78	61254.16
585.94	60757.97
586.10	60713.50
586.26	61029.47
586.42	60966.27
586.58	61029.47
586.74	61034.15
586.90	60713.50
587.06	60912.44
587.22	61202.67
587.38	60870.31
587.54	61015.43
587.70	61174.58
587.86	61102.03
588.02	60825.84
588.18	60870.31
588.34	60914.78
588.49	60797.76
