SpectraSuite Data File
++++++++++++++++++++++++++++++++++++
Date: Fri Oct 25 10:48:16 EDT 2013
User: price-jones
Dark Spectrum Present: No
Reference Spectrum Present: No
Number of Sampled Component Spectra: 1
Spectrometers: USB2+H05261
Integration Time (usec): 100000 (USB2+H05261)
Spectra Averaged: 1 (USB2+H05261)
Boxcar Smoothing: 0 (USB2+H05261)
Correct for Electrical Dark: No (USB2+H05261)
Strobe/Lamp Enabled: No (USB2+H05261)
Correct for Detector Non-linearity: No (USB2+H05261)
Correct for Stray Light: No (USB2+H05261)
Number of Pixels in Processed Spectrum: 2048
>>>>>Begin Processed Spectral Data<<<<<
365.73	124.05
365.92	124.05
366.12	124.05
366.32	60.85
366.52	25.75
366.72	51.49
366.91	23.41
367.11	28.09
367.31	21.06
367.51	81.92
367.70	72.56
367.90	65.54
368.10	49.15
368.30	51.49
368.49	42.13
368.69	102.98
368.89	65.54
369.09	77.24
369.28	133.41
369.48	84.26
369.68	110.01
369.87	114.69
370.07	93.62
370.27	133.41
370.47	210.65
370.66	381.51
370.86	433.00
371.06	454.06
371.25	484.49
371.45	458.74
371.65	531.30
371.84	440.02
372.04	472.79
372.24	465.77
372.44	484.49
372.63	484.49
372.83	575.77
373.03	524.28
373.22	514.92
373.42	552.37
373.62	545.34
373.81	552.37
374.01	568.75
374.21	676.41
374.40	538.32
374.60	547.69
374.79	566.41
374.99	645.99
375.19	568.75
375.38	535.98
375.58	559.39
375.78	505.56
375.97	648.33
376.17	725.57
376.37	606.20
376.56	596.84
376.76	573.43
376.95	552.37
377.15	571.09
377.35	662.37
377.54	610.88
377.74	669.39
377.93	631.94
378.13	620.24
378.33	638.97
378.52	624.92
378.72	627.26
378.91	667.05
379.11	585.13
379.31	643.65
379.50	613.22
379.70	645.99
379.89	669.39
380.09	655.35
380.28	631.94
380.48	671.73
380.68	720.88
380.87	662.37
381.07	727.91
381.26	732.59
381.46	641.31
381.65	650.67
381.85	697.48
382.04	681.10
382.24	606.20
382.43	711.52
382.63	753.65
382.83	748.97
383.02	784.08
383.22	716.20
383.41	779.40
383.61	662.37
383.80	784.08
384.00	786.42
384.19	709.18
384.39	788.76
384.58	821.53
384.78	840.25
384.97	837.91
385.17	734.93
385.36	751.31
385.56	791.10
385.75	842.59
385.95	777.06
386.14	816.85
386.34	812.17
386.53	781.74
386.72	779.40
386.92	835.57
387.11	828.55
387.31	842.59
387.50	830.89
387.70	877.70
387.89	894.08
388.09	875.36
388.28	858.98
388.48	837.91
388.67	894.08
388.86	947.92
389.06	863.66
389.25	959.62
389.45	896.43
389.64	917.49
389.84	976.00
390.03	945.58
390.22	992.39
390.42	1027.50
390.61	933.87
390.81	912.81
391.00	945.58
391.19	994.73
391.39	1043.88
391.58	1121.12
391.78	1001.75
391.97	1043.88
392.16	966.64
392.36	1053.24
392.55	1029.84
392.75	1067.28
392.94	1029.84
393.13	1015.79
393.33	1111.75
393.52	985.37
393.71	1130.48
393.91	1050.90
394.10	1076.65
394.29	1071.97
394.49	1139.84
394.68	1203.04
394.88	1214.74
395.07	1221.76
395.26	1200.69
395.46	1163.25
395.65	1214.74
395.84	1214.74
396.04	1224.10
396.23	1170.27
396.42	1156.22
396.62	1263.89
396.81	1179.63
397.00	1179.63
397.19	1266.23
397.39	1228.78
397.58	1299.00
397.77	1315.38
397.97	1299.00
398.16	1341.13
398.35	1427.73
398.55	1416.02
398.74	1411.34
398.93	1434.75
399.12	1397.30
399.32	1469.86
399.51	1495.60
399.70	1579.86
399.90	1476.88
400.09	1537.73
400.28	1467.52
400.47	1551.78
400.67	1605.61
400.86	1535.39
401.05	1551.78
401.24	1572.84
401.44	1650.08
401.63	1643.06
401.82	1631.35
402.01	1652.42
402.21	1568.16
402.40	1610.29
402.59	1706.25
402.78	1699.23
402.97	1598.59
403.17	1650.08
403.36	1710.93
403.55	1820.94
403.74	1811.57
403.93	1820.94
404.13	1727.32
404.32	1748.38
404.51	1746.04
404.70	1886.47
404.89	1715.61
405.09	1818.60
405.28	1820.94
405.47	1851.36
405.66	1877.11
405.85	1865.41
406.05	1823.28
406.24	1877.11
406.43	1884.13
406.62	1947.33
406.81	2052.65
407.00	1926.26
407.20	1916.90
407.39	2057.33
407.58	2104.14
407.77	2099.46
407.96	2118.18
408.15	2094.78
408.34	2057.33
408.54	2169.68
408.73	2153.29
408.92	2176.70
409.11	2211.81
409.30	2183.72
409.49	2237.55
409.68	2179.04
409.87	2317.13
410.07	2338.20
410.26	2401.39
410.45	2317.13
410.64	2331.17
410.83	2392.03
411.02	2356.92
411.21	2445.86
411.40	2375.64
411.59	2527.78
411.78	2581.61
411.98	2434.16
412.17	2551.18
412.36	2544.16
412.55	2560.55
412.74	2600.34
412.93	2693.96
413.12	2527.78
413.31	2686.94
413.50	2637.78
413.69	2722.04
413.88	2841.41
414.07	2705.66
414.26	2897.58
414.45	2815.66
414.64	2810.98
414.83	2960.78
415.02	2916.31
415.22	2958.44
415.41	2937.37
415.60	3026.31
415.79	2988.86
415.98	3080.14
416.17	3133.98
416.36	3138.66
416.55	3159.72
416.74	3248.66
416.93	3260.37
417.12	3138.66
417.31	3157.38
417.50	3269.73
417.69	3194.83
417.88	3215.90
418.07	3363.35
418.26	3426.54
418.45	3337.60
418.64	3417.18
418.83	3403.14
419.02	3337.60
419.21	3396.12
419.39	3574.00
419.58	3391.44
419.77	3396.12
419.96	3417.18
420.15	3501.44
420.34	3524.85
420.53	3655.92
420.72	3662.94
420.91	3632.51
421.10	3571.66
421.29	3667.62
421.48	3552.93
421.67	3716.77
421.86	3534.21
422.05	3620.81
422.24	3658.26
422.43	3691.02
422.61	3681.66
422.80	3829.12
422.99	3829.12
423.18	3681.66
423.37	3709.75
423.56	3662.94
423.75	3782.31
423.94	3658.26
424.13	3503.78
424.32	3604.42
424.50	3768.26
424.69	3889.97
424.88	3810.39
425.07	3705.07
425.26	3566.98
425.45	3686.34
425.64	3712.09
425.83	3698.05
426.01	3922.74
426.20	3843.16
426.39	3822.09
426.58	3882.95
426.77	3700.39
426.96	3817.41
427.15	3960.19
427.33	3894.65
427.52	3918.06
427.71	4063.17
427.90	3805.71
428.09	3974.23
428.28	3885.29
428.46	3901.67
428.65	3943.80
428.84	4198.92
429.03	4070.19
429.22	3981.25
429.40	3978.91
429.59	3873.59
429.78	3740.18
429.97	3936.78
430.16	3918.06
430.34	3896.99
430.53	3992.95
430.72	4074.87
430.91	3974.23
431.10	4145.09
431.28	4393.19
431.47	4322.97
431.66	4451.70
431.85	4313.61
432.03	4283.18
432.22	4444.68
432.41	4517.23
432.60	4472.76
432.79	4528.94
432.97	4573.41
433.16	4610.86
433.35	4554.68
433.54	4594.47
433.72	4507.87
433.91	4554.68
434.10	4636.60
434.28	4599.15
434.47	4774.69
434.66	4781.71
434.85	4791.08
435.03	4648.30
435.22	4704.48
435.41	4805.12
435.59	4788.74
435.78	4795.76
435.97	4873.00
436.16	4940.87
436.34	4793.42
436.53	4940.87
436.72	5064.92
436.90	4894.06
437.09	4912.78
437.28	4821.50
437.46	4994.70
437.65	4896.40
437.84	5004.07
438.02	4943.21
438.21	5036.83
438.40	4875.34
438.58	5069.60
438.77	5067.26
438.96	5247.48
439.14	5277.91
439.33	5399.62
439.52	5350.46
439.70	5291.95
439.89	5392.59
440.08	5397.28
440.26	5490.90
440.45	5521.32
440.63	5556.43
440.82	5722.61
441.01	5518.98
441.19	5652.39
441.38	5797.51
441.57	5738.99
441.75	5886.45
441.94	5982.41
442.12	5991.77
442.31	6071.35
442.50	6012.84
442.68	5998.79
442.87	5905.17
443.05	6052.63
443.24	6139.23
443.43	6019.86
443.61	6345.19
443.80	6319.45
443.98	6094.76
444.17	5933.26
444.35	6188.38
444.54	6420.09
444.73	6431.79
444.91	6108.80
445.10	6232.85
445.28	6249.23
445.47	6108.80
445.65	6179.01
445.84	6216.46
446.02	6305.40
446.21	6345.19
446.39	6104.12
446.58	6284.34
446.77	6333.49
446.95	6232.85
447.14	6494.99
447.32	6466.90
447.51	6221.14
447.69	6401.37
447.88	6354.55
448.06	6504.35
448.25	6363.92
448.43	6431.79
448.62	6443.49
448.80	6427.11
448.99	6572.22
449.17	6473.92
449.36	6422.43
449.54	6696.27
449.73	6705.63
449.91	6810.96
450.10	6876.49
450.28	6726.70
450.46	6679.89
450.65	6846.07
450.83	6876.49
451.02	6724.36
451.20	6822.66
451.39	6874.15
451.57	6944.37
451.76	6696.27
451.94	6981.82
452.13	6876.49
452.31	6785.21
452.49	6771.17
452.68	6841.39
452.86	7012.24
453.05	6953.73
453.23	6956.07
453.42	7028.63
453.60	6869.47
453.78	7117.57
453.97	7049.69
454.15	6993.52
454.34	6752.45
454.52	7061.40
454.70	7166.72
454.89	7101.19
455.07	7108.21
455.26	7267.36
455.44	7499.08
455.62	7417.16
455.81	7398.43
455.99	7442.90
456.17	7555.25
456.36	7513.12
456.54	7494.40
456.73	7639.51
456.91	7831.43
457.09	7688.66
457.28	7756.54
457.46	7695.68
457.64	7899.31
457.83	7882.92
458.01	7562.27
458.19	7831.43
458.38	7906.33
458.56	7868.88
458.74	7819.73
458.93	7789.30
459.11	7812.71
459.29	7971.86
459.48	7824.41
459.66	8058.46
459.84	7939.10
460.03	7999.95
460.21	8035.06
460.39	8131.02
460.57	8152.09
460.76	8306.56
460.94	8191.88
461.12	8119.32
461.31	8140.38
461.49	8128.68
461.67	8234.00
461.85	8210.60
462.04	8336.99
462.22	8973.61
462.40	8421.25
462.59	8561.68
462.77	8269.11
462.95	8479.76
463.13	8451.67
463.32	8369.76
463.50	8568.70
463.68	8601.47
463.86	8531.25
464.05	8486.78
464.23	8643.60
464.41	8720.84
464.59	8606.15
464.78	8793.39
464.96	8685.73
465.14	8744.24
465.32	8734.88
465.50	8739.56
465.69	8947.87
465.87	8950.21
466.05	8926.80
466.23	9090.64
466.41	9022.77
466.60	9238.09
466.78	8809.78
466.96	8952.55
467.14	8851.91
467.32	9020.42
467.51	9100.00
467.69	8744.24
467.87	9008.72
468.05	9186.60
468.23	8992.34
468.41	8917.44
468.60	9172.56
468.78	9153.84
468.96	9158.52
469.14	9240.44
469.32	9298.95
469.50	9121.07
469.69	9270.86
469.87	9430.02
470.05	9317.67
470.23	9497.89
470.41	9605.56
470.59	9572.79
470.77	9380.87
470.95	9483.85
471.14	9483.85
471.32	9624.28
471.50	9823.23
471.68	9727.27
471.86	9762.37
472.04	9884.08
472.22	10319.42
472.40	9774.08
472.58	9956.64
472.77	9940.26
472.95	10118.14
473.13	10399.00
473.31	10202.40
473.49	10253.89
473.67	10008.13
473.85	10289.00
474.03	10602.63
474.21	10516.03
474.39	10408.36
474.57	10527.73
474.75	10806.25
474.93	10487.94
475.12	10691.57
475.30	10878.81
475.48	10808.59
475.66	10899.87
475.84	10920.94
476.02	10960.73
476.20	11183.08
476.38	11075.42
476.56	11599.70
476.74	11255.64
476.92	11246.27
477.10	11288.40
477.28	11597.35
477.46	11562.25
477.64	11747.15
477.82	11941.41
478.00	11927.37
478.18	12226.96
478.36	12018.65
478.54	12229.30
478.72	12163.76
478.90	12243.34
479.08	12631.87
479.26	12514.84
479.44	12606.13
479.62	12650.60
479.80	12671.66
479.98	12896.35
480.16	13186.58
480.34	12905.71
480.52	13067.21
480.70	13228.71
480.88	13179.56
481.06	13331.69
481.24	13493.19
481.41	13699.16
481.59	13701.50
481.77	13830.23
481.95	13619.58
482.13	13888.74
482.31	14064.28
482.49	14146.20
482.67	14333.44
482.85	14279.61
483.03	14516.00
483.21	14541.75
483.39	14801.55
483.57	14651.75
483.74	15063.69
483.92	14965.39
484.10	14913.89
484.28	15293.06
484.46	15344.55
484.64	15868.83
484.82	15351.57
485.00	15311.78
485.18	15557.54
485.35	15712.02
485.53	15442.85
485.71	15772.87
485.89	15826.70
486.07	16135.65
486.25	16212.89
486.43	16533.54
486.61	16444.60
486.78	16755.90
486.96	16554.61
487.14	17036.76
487.32	17177.19
487.50	17242.73
487.68	17673.39
487.85	17654.66
488.03	17741.26
488.21	17825.52
488.39	18031.49
488.57	17963.61
488.75	18228.09
488.92	18600.24
489.10	18539.38
489.28	18588.53
489.46	18752.37
489.64	18792.16
489.81	19241.54
489.99	19454.53
490.17	19559.86
490.35	19494.32
490.53	19431.13
490.70	19674.54
490.88	19552.84
491.06	20198.82
491.24	20023.28
491.41	20074.77
491.59	19807.95
491.77	20144.99
491.95	20128.61
492.13	20531.18
492.30	20973.54
492.48	20987.58
492.66	20699.70
492.84	20863.54
493.01	21380.79
493.19	21238.02
493.37	21785.71
493.54	21738.90
493.72	21766.98
493.90	21666.34
494.08	22195.30
494.25	22286.58
494.43	22782.77
494.61	22176.58
494.79	22389.56
494.96	22207.00
495.14	22611.92
495.32	22984.06
495.49	23075.34
495.67	23253.22
495.85	23021.51
496.02	23491.96
496.20	23304.71
496.38	23468.55
496.55	23756.44
496.73	24271.36
496.91	23571.54
497.09	24044.32
497.26	24512.43
497.44	24184.76
497.62	24350.93
497.79	24657.54
497.97	24372.00
498.14	24650.52
498.32	24617.75
498.50	24903.30
498.67	24950.11
498.85	25090.54
499.03	25331.62
499.20	25743.55
499.38	25493.12
499.56	25558.65
499.73	25841.85
499.91	25266.08
500.08	25881.64
500.26	25324.60
500.44	25933.14
500.61	25888.67
500.79	26045.48
500.97	26401.24
501.14	26389.54
501.32	26544.02
501.49	26803.82
501.67	26370.82
501.84	26661.04
502.02	26728.92
502.20	26569.76
502.37	27080.00
502.55	26991.06
502.72	26881.05
502.90	27161.92
503.07	27187.66
503.25	27475.55
503.43	27140.85
503.60	27421.72
503.78	27264.90
503.95	27421.72
504.13	27623.00
504.30	27817.27
504.48	27754.07
504.65	27903.87
504.83	28149.62
505.01	28371.97
505.18	27777.48
505.36	28561.56
505.53	28489.00
505.71	28659.86
505.88	28751.14
506.06	28381.34
506.23	29118.60
506.41	28631.77
506.58	28332.18
506.76	28926.68
506.93	29076.48
507.11	29074.13
507.28	29329.25
507.46	29118.60
507.63	29118.60
507.81	29357.34
507.98	28968.81
508.16	29500.11
508.33	29408.83
508.50	30204.61
508.68	29818.42
508.85	30225.68
509.03	30085.25
509.20	30075.88
509.38	30441.01
509.55	30436.33
509.73	30199.93
509.90	29912.05
510.08	30499.52
510.25	30375.47
510.42	30792.09
510.60	30583.78
510.77	31143.17
510.95	31234.45
511.12	31021.46
511.30	31281.26
511.47	31714.26
511.64	31615.96
511.82	31475.52
511.99	31388.92
512.17	31536.38
512.34	31260.20
512.51	31796.18
512.69	31723.62
512.86	31679.15
513.04	31969.38
513.21	31999.80
513.38	31655.75
513.56	32135.56
513.73	31920.23
513.90	32589.62
514.08	31920.23
514.25	31927.25
514.43	32063.00
514.60	31768.09
514.77	32320.46
514.95	32858.78
515.12	32584.94
515.29	32648.13
515.47	32664.52
515.64	33118.58
515.81	32847.08
515.99	32528.77
516.16	32723.03
516.33	32947.72
516.51	33303.48
516.68	32666.86
516.85	32383.65
517.03	32809.63
517.20	32683.24
517.37	33425.19
517.54	33617.11
517.72	33448.60
517.89	33273.06
518.06	33439.23
518.24	33118.58
518.41	33497.75
518.58	34007.98
518.75	33282.42
518.93	33937.77
519.10	33951.81
519.27	34380.13
519.45	34174.16
519.62	34429.28
519.79	34693.76
519.96	34541.63
520.14	34604.82
520.31	34450.35
520.48	34569.71
520.65	34782.70
520.83	35056.54
521.00	34883.34
521.17	34625.89
521.34	35016.75
521.52	34909.09
521.69	35442.73
521.86	35599.55
522.03	35768.07
522.20	35346.77
522.38	35421.67
522.55	35594.87
522.72	35246.13
522.89	35349.11
523.07	35805.52
523.24	35728.28
523.41	36030.21
523.58	35814.88
523.75	36280.64
523.92	36254.90
524.10	35967.01
524.27	36357.88
524.44	36299.37
524.61	36861.10
524.78	36364.90
524.96	36428.10
525.13	36311.07
525.30	36800.24
525.47	36772.16
525.64	36622.36
525.81	37134.94
525.98	36903.23
526.16	36844.71
526.33	36840.03
526.50	37120.90
526.67	36610.66
526.84	36676.19
527.01	36407.03
527.18	36720.66
527.36	37446.23
527.53	37174.73
527.70	37441.55
527.87	37628.79
528.04	37626.45
528.21	37823.06
528.38	37336.23
528.55	38237.33
528.72	37673.26
528.89	37846.46
529.07	38155.41
529.24	37579.64
529.41	37830.08
529.58	37462.61
529.75	37993.92
529.92	38263.08
530.09	38136.69
530.26	38190.52
530.43	38471.39
530.60	38340.32
530.77	38574.37
530.94	38932.47
531.11	38066.47
531.28	38707.78
531.46	38866.94
531.63	38373.08
531.80	38429.26
531.97	38660.97
532.14	38796.72
532.31	38352.02
532.48	38712.46
532.65	38698.42
532.82	38447.98
532.99	39201.63
533.16	38965.24
533.33	39356.11
533.50	39253.12
533.67	38998.01
533.84	38925.45
534.01	39337.38
534.18	39225.04
534.35	39470.79
534.52	39112.69
534.69	39119.71
534.86	39805.49
535.03	39145.46
535.20	39683.78
535.37	39873.37
535.54	40065.29
535.71	39627.61
535.88	39725.91
536.05	39512.92
536.22	40081.67
536.38	39828.90
536.55	39892.09
536.72	39821.87
536.89	39501.22
537.06	39887.41
537.23	40177.64
537.40	40175.30
537.57	40357.86
537.74	39831.24
537.91	40615.32
538.08	40297.00
538.25	40404.67
538.42	40931.29
538.59	40411.69
538.75	40339.13
538.92	40072.31
539.09	40793.20
539.26	40596.59
539.43	40187.00
539.60	40605.95
539.77	40568.51
539.94	40821.28
540.11	40598.93
540.28	40706.60
540.44	40308.71
540.61	40685.53
540.78	40472.54
540.95	40577.87
541.12	40774.47
541.29	40627.02
541.46	41069.38
541.62	40706.60
541.79	41500.04
541.96	40776.81
542.13	40933.63
542.30	41067.04
542.47	41436.84
542.63	41237.90
542.80	41523.44
542.97	41858.14
543.14	41876.86
543.31	41745.80
543.48	41984.53
543.64	42429.23
543.81	41851.12
543.98	41823.03
544.15	41986.87
544.32	41996.23
544.48	42026.66
544.65	42380.08
544.82	42082.83
544.99	42101.56
545.16	42185.82
545.32	42136.66
545.49	42429.23
545.66	42838.83
545.83	41918.99
546.00	42534.56
546.16	42129.64
546.33	42665.63
546.50	42199.86
546.67	42700.73
546.83	41984.53
547.00	42487.74
547.17	42230.29
547.34	42251.35
547.50	42761.59
547.67	42799.04
547.84	42721.80
548.00	42766.27
548.17	42951.17
548.34	42705.41
548.51	43302.25
548.67	43229.69
548.84	42740.52
549.01	42997.98
549.18	42932.45
549.34	43271.82
549.51	43082.24
549.68	43386.51
549.84	43129.05
550.01	43665.03
550.18	43398.21
550.34	43115.01
550.51	43239.06
550.68	42871.59
550.84	42953.51
551.01	43662.69
551.18	43290.55
551.34	43058.84
551.51	43887.39
551.68	43517.58
551.84	43662.69
552.01	43152.46
552.18	43388.85
552.34	43400.55
552.51	44107.40
552.68	43793.76
552.84	43957.60
553.01	44023.14
553.18	44034.84
553.34	43461.41
553.51	43749.29
553.67	43847.60
553.84	44093.35
554.01	43709.50
554.17	44032.50
554.34	43810.15
554.51	43971.64
554.67	43941.22
554.84	44184.63
555.00	43880.36
555.17	43969.30
555.33	44163.57
555.50	43812.49
555.67	44025.48
555.83	44107.40
556.00	43770.36
556.16	44540.39
556.33	44350.81
556.50	44109.74
556.66	44772.11
556.83	44339.11
556.99	44610.61
557.16	44343.79
557.32	44250.17
557.49	44477.20
557.65	44210.38
557.82	44346.13
557.98	44083.99
558.15	44648.06
558.32	44816.58
558.48	44425.71
558.65	44783.81
558.81	44194.00
558.98	44175.27
559.14	44748.70
559.31	44514.65
559.47	44858.71
559.64	44727.64
559.80	44959.35
559.97	44519.33
560.13	44619.97
560.30	45022.54
560.46	45059.99
560.63	45074.04
560.79	44865.73
560.96	44961.69
561.12	44619.97
561.29	44706.57
561.45	44725.30
561.61	44828.28
561.78	45064.67
561.94	44643.38
562.11	44598.91
562.27	44982.76
562.44	44893.82
562.60	45118.51
562.77	45048.29
562.93	45010.84
563.10	45205.11
563.26	44825.94
563.42	45425.12
563.59	44676.15
563.75	44903.18
563.92	44854.03
564.08	44931.26
564.24	44964.03
564.41	45387.67
564.57	45219.15
564.74	45212.13
564.90	45478.95
565.07	44999.14
565.23	44832.96
565.39	45106.80
565.56	45198.09
565.72	45483.63
565.88	45502.35
566.05	45008.50
566.21	45015.52
566.38	45067.02
566.54	45179.36
566.70	45371.28
566.87	45642.79
567.03	45296.39
567.19	45268.30
567.36	45647.47
567.52	45233.19
567.68	45361.92
567.85	45296.39
568.01	45310.43
568.17	45153.62
568.34	45078.72
568.50	45120.85
568.66	44865.73
568.83	45476.61
568.99	45471.93
569.15	45579.59
569.32	45179.36
569.48	44847.00
569.64	45776.20
569.81	45488.31
569.97	45614.70
570.13	45050.63
570.30	45160.64
570.46	45375.97
570.62	45251.92
570.78	45132.55
570.95	45158.30
571.11	45380.65
571.27	45294.05
571.43	45158.30
571.60	45436.82
571.76	45717.68
571.92	45743.43
572.09	45563.21
572.25	45139.57
572.41	45001.48
572.57	45549.17
572.74	46014.93
572.90	45373.63
573.06	45474.27
573.22	45691.94
573.38	45801.94
573.55	45331.50
573.71	45794.92
573.87	45691.94
574.03	45549.17
574.20	45661.51
574.36	45535.12
574.52	45565.55
574.68	45722.37
574.84	45385.33
575.01	45429.80
575.17	45331.50
575.33	45291.71
575.49	45413.41
575.65	45776.20
575.82	45790.24
575.98	45462.57
576.14	45532.78
576.30	45539.80
576.46	45422.78
576.62	45532.78
576.79	45734.07
576.95	45272.98
577.11	45656.83
577.27	45738.75
577.43	45762.15
577.59	45516.40
577.75	45453.20
577.92	45106.80
578.08	45310.43
578.24	45118.51
578.40	45673.21
578.56	45448.52
578.72	45312.77
578.88	46012.59
579.04	45769.18
579.21	45820.67
579.37	45277.66
579.53	45450.86
579.69	45406.39
579.85	45586.61
580.01	45705.98
580.17	45586.61
580.33	45694.28
580.49	46033.66
580.65	45734.07
580.82	45502.35
580.98	45790.24
581.14	45481.29
581.30	45860.46
581.46	45951.74
581.62	45518.74
581.78	45738.75
581.94	45925.99
582.10	45748.11
582.26	45954.08
582.42	45811.31
582.58	45556.19
582.74	45205.11
582.90	45743.43
583.06	45607.68
583.22	45818.33
583.38	46181.11
583.54	45902.59
583.70	45876.84
583.86	45626.40
584.02	45530.44
584.18	45975.14
584.34	45605.34
584.50	45979.82
584.66	45797.26
584.82	45392.35
584.98	45771.52
585.14	45694.28
585.30	45652.15
585.46	45514.06
585.62	45652.15
585.78	45546.82
585.94	44835.30
586.10	45827.69
586.26	45570.23
586.42	45862.80
586.58	46000.89
586.74	46021.95
586.90	45862.80
587.06	45731.73
587.22	45605.34
587.38	45492.99
587.54	46153.02
587.70	46178.77
587.86	45918.97
588.02	45799.60
588.18	46440.91
588.34	45387.67
588.49	45928.33
588.65	45200.43
588.81	45429.80
588.97	45207.45
589.13	45357.24
589.29	45476.61
589.45	45902.59
589.61	46113.23
589.77	46075.79
589.93	45689.60
590.08	46110.89
