SpectraSuite Data File
++++++++++++++++++++++++++++++++++++
Date: Fri Oct 25 11:33:46 EDT 2013
User: price-jones
Dark Spectrum Present: No
Reference Spectrum Present: No
Number of Sampled Component Spectra: 1
Spectrometers: USB2+H05261
Integration Time (usec): 100000 (USB2+H05261)
Spectra Averaged: 1 (USB2+H05261)
Boxcar Smoothing: 0 (USB2+H05261)
Correct for Electrical Dark: No (USB2+H05261)
Strobe/Lamp Enabled: No (USB2+H05261)
Correct for Detector Non-linearity: No (USB2+H05261)
Correct for Stray Light: No (USB2+H05261)
Number of Pixels in Processed Spectrum: 2048
>>>>>Begin Processed Spectral Data<<<<<
365.73	271.50
365.92	271.50
366.12	271.50
366.32	201.29
366.52	180.22
366.72	245.76
366.91	168.52
367.11	149.79
367.31	79.58
367.51	142.77
367.70	210.65
367.90	86.60
368.10	145.11
368.30	126.39
368.49	121.71
368.69	159.16
368.89	105.32
369.09	177.88
369.28	128.73
369.48	173.20
369.68	220.01
369.87	194.26
370.07	222.35
370.27	280.86
370.47	442.36
370.66	510.24
370.86	521.94
371.06	496.19
371.25	580.45
371.45	589.82
371.65	521.94
371.84	524.28
372.04	615.56
372.24	585.13
372.44	573.43
372.63	578.11
372.83	538.32
373.03	575.77
373.22	552.37
373.42	533.64
373.62	645.99
373.81	557.05
374.01	617.90
374.21	629.60
374.40	571.09
374.60	650.67
374.79	648.33
374.99	645.99
375.19	697.48
375.38	645.99
375.58	709.18
375.78	692.80
375.97	692.80
376.17	720.88
376.37	585.13
376.56	589.82
376.76	678.76
376.95	664.71
377.15	674.07
377.35	669.39
377.54	660.03
377.74	674.07
377.93	667.05
378.13	624.92
378.33	711.52
378.52	685.78
378.72	704.50
378.91	725.57
379.11	704.50
379.31	685.78
379.50	760.67
379.70	770.04
379.89	709.18
380.09	765.36
380.28	617.90
380.48	751.31
380.68	704.50
380.87	699.82
381.07	748.97
381.26	688.12
381.46	774.72
381.65	732.59
381.85	685.78
382.04	819.19
382.24	830.89
382.43	767.70
382.63	821.53
382.83	795.78
383.02	732.59
383.22	791.10
383.41	786.42
383.61	814.51
383.80	861.32
384.00	765.36
384.19	828.55
384.39	748.97
384.58	835.57
384.78	875.36
384.97	823.87
385.17	786.42
385.36	873.02
385.56	873.02
385.75	884.72
385.95	802.80
386.14	866.00
386.34	858.98
386.53	863.66
386.72	880.04
386.92	922.17
387.11	821.53
387.31	837.91
387.50	945.58
387.70	833.23
387.89	875.36
388.09	858.98
388.28	816.85
388.48	926.85
388.67	1034.52
388.86	898.77
389.06	964.30
389.25	968.98
389.45	903.45
389.64	929.19
389.84	1001.75
390.03	964.30
390.22	896.43
390.42	992.39
390.61	910.47
390.81	987.71
391.00	1048.56
391.19	1011.11
391.39	957.28
391.58	1032.18
391.78	985.37
391.97	1041.54
392.16	1020.47
392.36	1095.37
392.55	980.68
392.75	1022.81
392.94	1006.43
393.13	1039.20
393.33	1022.81
393.52	1064.94
393.71	1093.03
393.91	1179.63
394.10	1109.41
394.29	1125.80
394.49	1083.67
394.68	1053.24
394.88	1097.71
395.07	1142.18
395.26	1121.12
395.46	1069.62
395.65	1221.76
395.84	1181.97
396.04	1238.14
396.23	1144.52
396.42	1261.55
396.62	1198.35
396.81	1273.25
397.00	1198.35
397.19	1231.12
397.39	1228.78
397.58	1336.45
397.77	1226.44
397.97	1184.31
398.16	1219.42
398.35	1247.51
398.55	1282.61
398.74	1334.11
398.93	1275.59
399.12	1221.76
399.32	1289.64
399.51	1306.02
399.70	1362.19
399.90	1240.48
400.09	1345.81
400.28	1409.00
400.47	1397.30
400.67	1409.00
400.86	1465.18
401.05	1444.11
401.24	1357.51
401.44	1432.41
401.63	1392.62
401.82	1563.48
402.01	1432.41
402.21	1526.03
402.40	1423.05
402.59	1502.62
402.78	1565.82
402.97	1582.20
403.17	1584.54
403.36	1519.01
403.55	1572.84
403.74	1547.09
403.93	1563.48
404.13	1633.69
404.32	1631.35
404.51	1612.63
404.70	1657.10
404.89	1558.80
405.09	1708.59
405.28	1603.27
405.47	1603.27
405.66	1701.57
405.85	1696.89
406.05	1743.70
406.24	1778.81
406.43	1713.27
406.62	1874.77
406.81	1844.34
407.00	1727.32
407.20	1795.19
407.39	1820.94
407.58	1851.36
407.77	1811.57
407.96	1980.09
408.15	1914.56
408.34	1886.47
408.54	1872.43
408.73	1886.47
408.92	2001.16
409.11	2087.76
409.30	1987.11
409.49	2015.20
409.68	1959.03
409.87	2073.71
410.07	2139.25
410.26	2097.12
410.45	2062.01
410.64	2143.93
410.83	2211.81
411.02	2148.61
411.21	2214.15
411.40	2209.47
411.59	2272.66
411.78	2246.91
411.98	2249.25
412.17	2256.28
412.36	2251.60
412.55	2305.43
412.74	2422.45
412.93	2387.35
413.12	2310.11
413.31	2373.30
413.50	2403.73
413.69	2382.67
413.88	2551.18
414.07	2513.74
414.26	2466.92
414.45	2427.14
414.64	2534.80
414.83	2525.44
415.02	2593.31
415.22	2649.49
415.41	2626.08
415.60	2700.98
415.79	2731.41
415.98	2600.34
416.17	2656.51
416.36	2675.23
416.55	2654.17
416.74	2839.07
416.93	2764.17
417.12	2885.88
417.31	2773.53
417.50	2850.77
417.69	2925.67
417.88	2871.84
418.07	2829.71
418.26	2832.05
418.45	3002.91
418.64	3014.61
418.83	3115.25
419.02	2951.42
419.21	3075.46
419.39	3201.85
419.58	3033.33
419.77	2960.78
419.96	3239.30
420.15	3073.12
420.34	3047.38
420.53	3258.03
420.72	3262.71
420.91	3265.05
421.10	3274.41
421.29	3276.75
421.48	3236.96
421.67	3243.98
421.86	3243.98
422.05	3419.52
422.24	3286.11
422.43	3403.14
422.61	3346.97
422.80	3389.10
422.99	3396.12
423.18	3492.08
423.37	3468.67
423.56	3398.46
423.75	3475.70
423.94	3384.41
424.13	3206.53
424.32	3243.98
424.50	3421.86
424.69	3503.78
424.88	3449.95
425.07	3332.92
425.26	3363.35
425.45	3471.01
425.64	3513.14
425.83	3393.78
426.01	3515.48
426.20	3456.97
426.39	3524.85
426.58	3440.59
426.77	3449.95
426.96	3463.99
427.15	3543.57
427.33	3543.57
427.52	3620.81
427.71	3576.34
427.90	3744.86
428.09	3611.45
428.28	3667.62
428.46	3658.26
428.65	3641.87
428.84	3761.24
429.03	3721.45
429.22	3616.13
429.40	3847.84
429.59	3676.98
429.78	3667.62
429.97	3578.68
430.16	3819.75
430.34	3939.12
430.53	3852.52
430.72	3847.84
430.91	3740.18
431.10	3880.61
431.28	3941.46
431.47	4049.13
431.66	3985.93
431.85	3985.93
432.03	4053.81
432.22	4149.77
432.41	4009.34
432.60	3887.63
432.79	3866.56
432.97	4060.83
433.16	4205.94
433.35	4098.28
433.54	4119.34
433.72	4257.43
433.91	4124.02
434.10	4219.99
434.28	4266.80
434.47	4250.41
434.66	4285.52
434.85	4334.67
435.03	4393.19
435.22	4339.35
435.41	4395.53
435.59	4379.14
435.78	4425.95
435.97	4421.27
436.16	4374.46
436.34	4322.97
436.53	4381.48
436.72	4557.02
436.90	4362.76
437.09	4491.49
437.28	4344.03
437.46	4554.68
437.65	4489.15
437.84	4648.30
438.02	4470.42
438.21	4678.73
438.40	4540.64
438.58	4711.50
438.77	4800.44
438.96	4774.69
439.14	4877.68
439.33	4957.25
439.52	4926.83
439.70	4938.53
439.89	5006.41
440.08	4945.55
440.26	4926.83
440.45	5062.58
440.63	5064.92
440.82	5205.35
441.01	5076.62
441.19	5205.35
441.38	5205.35
441.57	5249.82
441.75	5376.21
441.94	5357.49
442.12	5427.70
442.31	5362.17
442.50	5542.39
442.68	5458.13
442.87	5352.81
443.05	5582.18
443.24	5584.52
443.43	5713.25
443.61	5472.17
443.80	5706.23
443.98	5483.88
444.17	5298.97
444.35	5621.97
444.54	5750.70
444.73	5544.73
444.91	5621.97
445.10	5682.82
445.28	5645.37
445.47	5535.37
445.65	5872.40
445.84	5645.37
446.02	5795.17
446.21	5809.21
446.39	5605.58
446.58	5830.27
446.77	5783.46
446.95	5682.82
447.14	5727.29
447.32	5788.14
447.51	5696.86
447.69	5727.29
447.88	5734.31
448.06	5909.85
448.25	5832.62
448.43	5844.32
448.62	5994.11
448.80	5769.42
448.99	5867.72
449.17	5820.91
449.36	5902.83
449.54	6047.94
449.73	6064.33
449.91	6057.31
450.10	6047.94
450.28	6118.16
450.46	6153.27
450.65	6186.04
450.83	6347.53
451.02	6186.04
451.20	6260.93
451.39	6085.39
451.57	6139.23
451.76	6230.51
451.94	6235.19
452.13	6464.56
452.31	6183.70
452.49	6333.49
452.68	6115.82
452.86	6200.08
453.05	6352.21
453.23	6574.56
453.42	6532.44
453.60	6335.83
453.78	6441.15
453.97	6502.01
454.15	6609.67
454.34	6410.73
454.52	6555.84
454.70	6679.89
454.89	6516.05
455.07	6609.67
455.26	6637.76
455.44	6640.10
455.62	6705.63
455.81	6846.07
455.99	6675.21
456.17	6733.72
456.36	6857.77
456.54	6663.51
456.73	7000.54
456.91	7005.22
457.09	7122.25
457.28	7274.38
457.46	7148.00
457.64	7026.29
457.83	7094.16
458.01	6960.75
458.19	7178.42
458.38	7215.87
458.56	7190.13
458.74	7166.72
458.93	7075.44
459.11	7211.19
459.29	7192.47
459.48	7335.24
459.66	7314.17
459.84	7227.57
460.03	7478.01
460.21	7363.33
460.39	7494.40
460.57	7583.34
460.76	7557.59
460.94	7564.61
461.12	7611.42
461.31	7527.16
461.49	7559.93
461.67	7550.57
461.85	7735.47
462.04	7578.65
462.22	7967.18
462.40	7831.43
462.59	7630.15
462.77	7590.36
462.95	7644.19
463.13	7920.37
463.32	7688.66
463.50	7892.29
463.68	8049.10
463.86	8013.99
464.05	7793.98
464.23	7878.24
464.41	8072.51
464.59	7892.29
464.78	8058.46
464.96	8292.52
465.14	7889.95
465.32	8098.25
465.50	8278.47
465.69	8285.50
465.87	8053.78
466.05	8002.29
466.23	8187.19
466.41	8098.25
466.60	8571.04
466.78	8156.77
466.96	8109.96
467.14	8271.45
467.32	8369.76
467.51	8519.55
467.69	8372.10
467.87	8461.04
468.05	8454.02
468.23	8444.65
468.41	8189.53
468.60	8463.38
468.78	8578.06
468.96	8362.73
469.14	8636.58
469.32	8627.21
469.50	8313.58
469.69	8805.10
469.87	8791.05
470.05	8772.33
470.23	8718.50
470.41	8901.06
470.59	8917.44
470.77	8858.93
470.95	8938.51
471.14	8964.25
471.32	8835.52
471.50	9158.52
471.68	8912.76
471.86	9057.87
472.04	9139.79
472.22	9579.81
472.40	9177.24
472.58	9081.28
472.77	9247.46
472.95	9380.87
473.13	9493.21
473.31	9488.53
473.49	9331.72
473.67	9392.57
473.85	9575.13
474.03	9724.93
474.21	9750.67
474.39	9921.53
474.57	9844.29
474.75	9811.53
474.93	9937.91
475.12	9816.21
475.30	10045.58
475.48	9949.62
475.66	10389.64
475.84	10115.80
476.02	10263.25
476.20	10319.42
476.38	10410.70
476.56	10520.71
476.74	10586.24
476.92	10714.97
477.10	10513.69
477.28	10567.52
477.46	10642.42
477.64	10848.38
477.82	10979.45
478.00	11225.21
478.18	11042.65
478.36	11283.72
478.54	11150.31
478.72	11468.62
478.90	11538.84
479.08	11613.74
479.26	11410.11
479.44	11377.34
479.62	11735.45
479.80	11822.05
479.98	11850.13
480.16	12255.04
480.34	12100.57
480.52	12283.13
480.70	12112.27
480.88	12243.34
481.06	12458.67
481.24	12652.94
481.41	12650.60
481.59	12601.44
481.77	12767.62
481.95	12865.92
482.13	12961.89
482.31	12816.77
482.49	13458.08
482.67	13261.48
482.85	13369.14
483.03	13647.66
483.21	13776.39
483.39	13696.82
483.57	13968.32
483.74	13710.86
483.92	14104.07
484.10	13975.34
484.28	14214.07
484.46	14452.81
484.64	14829.63
484.82	14382.59
485.00	14558.13
485.18	14736.01
485.35	15208.80
485.53	14848.36
485.71	15152.63
485.89	15426.47
486.07	15255.61
486.25	15674.57
486.43	15323.49
486.61	15550.52
486.78	15817.34
486.96	15887.56
487.14	16023.31
487.32	16423.54
487.50	16269.06
487.68	16294.81
487.85	16458.65
488.03	16748.87
488.21	17011.01
488.39	17174.85
488.57	16996.97
488.75	17261.45
488.92	17270.81
489.10	17502.53
489.28	17621.89
489.46	17884.03
489.64	18050.21
489.81	17823.18
489.99	18260.86
490.17	18274.90
490.35	18604.92
490.53	18412.99
490.70	18806.20
490.88	18609.60
491.06	18853.02
491.24	19166.65
491.41	19183.03
491.59	19176.01
491.77	19246.23
491.95	19349.21
492.13	19985.83
492.30	19688.59
492.48	19866.47
492.66	19906.26
492.84	20034.99
493.01	20205.84
493.19	20156.69
493.37	20482.03
493.54	20276.06
493.72	20641.18
493.90	20320.53
494.08	20886.94
494.25	21128.02
494.43	21050.78
494.61	21249.72
494.79	21336.32
494.96	21223.98
495.14	21605.49
495.32	21781.03
495.49	21612.51
495.67	22036.14
495.85	21830.18
496.02	22228.07
496.20	22307.65
496.38	22239.77
496.55	22347.44
496.73	22785.12
496.91	22838.95
497.09	22993.42
497.26	23239.18
497.44	22892.78
497.62	22993.42
497.79	23417.06
497.97	23386.63
498.14	23508.34
498.32	23714.31
498.50	23674.52
498.67	23892.19
498.85	23798.57
499.03	24168.37
499.20	24327.53
499.38	24479.66
499.56	24100.50
499.73	24432.85
499.91	24685.63
500.08	24889.26
500.26	24444.56
500.44	24606.05
500.61	24805.00
500.79	24856.49
500.97	24973.52
501.14	25642.91
501.32	25378.43
501.49	25462.69
501.67	25401.83
501.84	25781.00
502.02	25476.73
502.20	25678.02
502.37	25839.51
502.55	25773.98
502.72	25867.60
502.90	25970.58
503.07	26073.57
503.25	25865.26
503.43	26106.34
503.60	26286.56
503.78	26654.02
503.95	26581.46
504.13	26651.68
504.30	26838.92
504.48	26829.56
504.65	27009.78
504.83	26984.04
505.01	26787.43
505.18	27220.43
505.36	27103.40
505.53	27248.52
505.71	27487.25
505.88	27168.94
506.06	27168.94
506.23	27484.91
506.41	27665.13
506.58	28013.87
506.76	28032.60
506.93	28140.26
507.11	28025.57
507.28	28011.53
507.46	28198.77
507.63	28404.74
507.81	28744.12
507.98	28842.42
508.16	28481.98
508.33	28720.71
508.50	28800.29
508.68	28851.78
508.85	28849.44
509.03	28769.86
509.20	28638.80
509.38	28856.46
509.55	28950.09
509.73	29357.34
509.90	29720.12
510.08	29223.93
510.25	29436.92
510.42	29661.61
510.60	29560.97
510.77	29731.83
510.95	30410.58
511.12	29832.47
511.30	30277.17
511.47	30225.68
511.64	30139.08
511.82	30536.97
511.99	30223.34
512.17	30532.29
512.34	30340.36
512.51	30497.18
512.69	31030.82
512.86	30443.35
513.04	30756.98
513.21	30939.54
513.38	31089.34
513.56	31218.07
513.73	31178.28
513.90	30986.35
514.08	31147.85
514.25	31599.57
514.43	31775.11
514.60	31531.70
514.77	31428.71
514.95	31847.67
515.12	31559.78
515.29	31590.21
515.47	32336.84
515.64	31850.01
515.81	32156.62
515.99	32053.64
516.16	32400.04
516.33	32435.14
516.51	32362.59
516.68	32325.14
516.85	32631.75
517.03	32933.68
517.20	32842.40
517.37	32833.04
517.54	32727.71
517.72	32708.99
517.89	33134.96
518.06	32851.76
518.24	33024.96
518.41	33036.66
518.58	32992.19
518.75	32826.01
518.93	33450.94
519.10	33149.01
519.27	33333.91
519.45	33369.02
519.62	33731.80
519.79	33415.83
519.96	34188.21
520.14	33780.95
520.31	33879.25
520.48	33902.66
520.65	34309.91
520.83	34433.96
521.00	34478.43
521.17	34099.26
521.34	34333.32
521.52	34436.30
521.69	34747.59
521.86	34614.18
522.03	34703.12
522.20	35047.18
522.38	34768.66
522.55	35093.99
522.72	34651.63
522.89	35159.53
523.07	35498.91
523.24	35283.58
523.41	35431.03
523.58	35494.22
523.75	35269.53
523.92	35412.31
524.10	35145.48
524.27	36027.87
524.44	35491.88
524.61	35955.31
524.78	35316.34
524.96	35924.88
525.13	35789.13
525.30	36313.41
525.47	36287.67
525.64	36128.51
525.81	36147.23
525.98	36231.49
526.16	36231.49
526.33	36362.56
526.50	36863.44
526.67	36383.63
526.84	36423.42
527.01	36685.56
527.18	37003.87
527.36	36369.58
527.53	36959.40
527.70	37294.10
527.87	37167.71
528.04	36519.38
528.21	37148.98
528.38	36818.97
528.55	37359.63
528.72	37146.64
528.89	37053.02
529.07	37071.75
529.24	37233.24
529.41	37261.33
529.58	37837.10
529.75	37113.87
529.92	37694.33
530.09	37411.12
530.26	37256.65
530.43	37734.12
530.60	37701.35
530.77	37455.59
530.94	37993.92
531.11	37764.54
531.28	38312.23
531.46	38457.34
531.63	38078.18
531.80	38309.89
531.97	38232.65
532.14	38433.94
532.31	38183.50
532.48	38749.91
532.65	38665.65
532.82	38328.61
532.99	38794.38
533.16	38532.24
533.33	38920.77
533.50	38679.69
533.67	38433.94
533.84	38653.95
534.01	38946.51
534.18	38490.11
534.35	39330.36
534.52	38969.92
534.69	39353.77
534.86	39620.59
535.03	38976.94
535.20	39313.98
535.37	39728.25
535.54	39627.61
535.71	39157.16
535.88	39777.40
536.05	39908.47
536.22	40062.95
536.38	39428.66
536.55	39805.49
536.72	39709.53
536.89	39569.10
537.06	39842.94
537.23	40140.19
537.40	39878.05
537.57	39941.24
537.74	40011.46
537.91	40343.81
538.08	40105.08
538.25	39798.47
538.42	40060.61
538.59	40596.59
538.75	40048.91
538.92	40552.12
539.09	40847.03
539.26	40769.79
539.43	40758.09
539.60	40755.75
539.77	40350.84
539.94	40779.15
540.11	41020.23
540.28	40875.12
540.44	40842.35
540.61	41020.23
540.78	40797.88
540.95	40582.55
541.12	40896.18
541.29	40947.67
541.46	40910.22
541.62	41106.83
541.79	41378.33
541.96	41097.47
542.13	40905.54
542.30	41483.66
542.47	41563.23
542.63	40987.46
542.80	41734.09
542.97	41890.91
543.14	41883.89
543.31	41467.27
543.48	42071.13
543.64	42251.35
543.81	42017.30
543.98	41972.83
544.15	42031.34
544.32	42525.19
544.48	42534.56
544.65	42363.70
544.82	42012.62
544.99	41944.74
545.16	42419.87
545.32	42714.78
545.49	42864.57
545.66	42916.06
545.83	42630.52
546.00	42733.50
546.16	42424.55
546.33	42382.42
546.50	42483.06
546.67	42525.19
546.83	42487.74
547.00	42639.88
547.17	42529.87
547.34	42902.02
547.50	42983.94
547.67	43253.10
547.84	43103.31
548.00	42927.77
548.17	43856.96
548.34	43569.07
548.51	43309.27
548.67	43688.44
548.84	43196.93
549.01	43590.14
549.18	43140.75
549.34	42862.23
549.51	43847.60
549.68	43679.08
549.84	43419.28
550.01	43650.99
550.18	42923.08
550.34	43697.80
550.51	43381.83
550.68	44020.80
550.84	43608.86
551.01	43817.17
551.18	43686.10
551.34	43662.69
551.51	44275.91
551.68	43814.83
551.84	44083.99
552.01	44053.56
552.18	43950.58
552.34	44060.58
552.51	43803.13
552.68	43620.56
552.84	44247.83
553.01	44074.63
553.18	44034.84
553.34	44406.98
553.51	44301.66
553.67	44318.04
553.84	44294.64
554.01	44535.71
554.17	44435.07
554.34	44622.31
554.51	44320.38
554.67	44488.90
554.84	44830.62
555.00	44172.93
555.17	44184.63
555.33	44612.95
555.50	45153.62
555.67	44502.95
555.83	44584.86
556.00	45085.74
556.16	45027.23
556.33	45219.15
556.50	44617.63
556.66	45291.71
556.83	44657.42
556.99	45172.34
557.16	45235.53
557.32	45256.60
557.49	45219.15
557.65	45146.59
557.82	45317.45
557.98	44959.35
558.15	45116.17
558.32	45542.14
558.48	45464.91
558.65	45352.56
558.81	44989.78
558.98	45186.38
559.14	45141.91
559.31	45095.10
559.47	45050.63
559.64	45310.43
559.80	45347.88
559.97	45015.52
560.13	44868.07
560.30	45471.93
560.46	45886.20
560.63	45715.34
560.79	45462.57
560.96	45888.54
561.12	45965.78
561.29	45663.85
561.45	45853.44
561.61	45757.47
561.78	45900.25
561.94	45808.96
562.11	45897.91
562.27	45401.71
562.44	45792.58
562.60	45603.00
562.77	45958.76
562.93	45806.62
563.10	46010.25
563.26	45921.31
563.42	46391.76
563.59	45991.53
563.75	45947.06
563.92	45984.51
564.08	45750.45
564.24	45996.21
564.41	45776.20
564.57	46213.88
564.74	46256.01
564.90	45979.82
565.07	46082.81
565.23	45923.65
565.39	45909.61
565.56	46040.68
565.72	46202.18
565.88	46089.83
566.05	46206.86
566.21	45947.06
566.38	46340.27
566.54	46457.29
566.70	46483.04
566.87	46536.87
567.03	46417.50
567.19	46480.70
567.36	46131.96
567.52	46279.41
567.68	46504.10
567.85	46499.42
568.01	46541.55
568.17	46611.77
568.34	46700.71
568.50	46511.13
568.66	46087.49
568.83	46593.04
568.99	46712.41
569.15	46375.37
569.32	46607.09
569.48	46637.51
569.64	46759.22
569.81	46696.03
569.97	46590.70
570.13	46653.90
570.30	46508.79
570.46	46843.48
570.62	46520.49
570.78	46611.77
570.95	46686.67
571.11	46983.91
571.27	46803.69
571.43	46433.89
571.60	46536.87
571.76	46284.09
571.92	46522.83
572.09	46726.46
572.25	46689.01
572.41	46646.88
572.57	47009.66
572.74	46990.94
572.90	46967.53
573.06	47227.33
573.22	47100.94
573.38	46923.06
573.55	47037.75
573.71	47316.27
573.87	47065.83
574.03	46759.22
574.20	47107.96
574.36	47152.43
574.52	46979.23
574.68	46976.89
574.84	47217.97
575.01	47332.65
575.17	47072.85
575.33	47049.45
575.49	46941.78
575.65	47269.46
575.82	47290.52
575.98	46997.96
576.14	47070.51
576.30	47159.45
576.46	46986.25
576.62	47131.37
576.79	47229.67
576.95	46658.58
577.11	46733.48
577.27	47232.01
577.43	46829.44
577.59	47330.31
577.75	46890.29
577.92	46990.94
578.08	47068.17
578.24	46976.89
578.40	47454.36
578.56	47419.25
578.72	47129.03
578.88	47381.80
579.04	47332.65
579.21	46920.72
579.37	47655.65
579.53	47433.30
579.69	46946.47
579.85	47100.94
580.01	46979.23
580.17	47004.98
580.33	47374.78
580.49	47126.69
580.65	47194.56
580.82	46906.68
580.98	47105.62
581.14	47042.43
581.30	47131.37
581.46	47068.17
581.62	46845.82
581.78	46902.00
581.94	47346.70
582.10	46923.06
582.26	47084.56
582.42	47433.30
582.58	47042.43
582.74	47159.45
582.90	47246.05
583.06	47426.28
583.22	47016.68
583.38	47824.17
583.54	47585.43
583.70	47171.16
583.86	47299.89
584.02	47299.89
584.18	47459.04
584.34	47737.57
584.50	47409.89
584.66	47323.29
584.82	47629.90
584.98	47615.86
585.14	47744.59
585.30	47239.03
585.46	47143.07
585.62	47402.87
585.78	47374.78
585.94	46995.62
586.10	47288.18
586.26	46838.80
586.42	47342.02
586.58	47367.76
586.74	47650.97
586.90	47248.39
587.06	47496.49
587.22	47665.01
587.38	46962.85
587.54	47526.92
587.70	47426.28
587.86	47873.32
588.02	47297.55
588.18	47339.68
588.34	47402.87
588.49	47278.82
588.65	47363.08
588.81	47625.22
588.97	47922.47
589.13	47587.77
589.29	47337.33
589.45	47702.46
589.61	47985.66
589.77	47646.29
589.93	47721.18
590.08	47672.03
