SpectraSuite Data File
++++++++++++++++++++++++++++++++++++
Date: Fri Oct 25 11:33:23 EDT 2013
User: price-jones
Dark Spectrum Present: No
Reference Spectrum Present: No
Number of Sampled Component Spectra: 1
Spectrometers: USB2+H05261
Integration Time (usec): 100000 (USB2+H05261)
Spectra Averaged: 1 (USB2+H05261)
Boxcar Smoothing: 0 (USB2+H05261)
Correct for Electrical Dark: No (USB2+H05261)
Strobe/Lamp Enabled: No (USB2+H05261)
Correct for Detector Non-linearity: No (USB2+H05261)
Correct for Stray Light: No (USB2+H05261)
Number of Pixels in Processed Spectrum: 2048
>>>>>Begin Processed Spectral Data<<<<<
365.73	220.01
365.92	220.01
366.12	220.01
366.32	252.78
366.52	208.31
366.72	241.08
366.91	142.77
367.11	86.60
367.31	189.58
367.51	196.60
367.70	194.26
367.90	262.14
368.10	168.52
368.30	152.13
368.49	161.50
368.69	189.58
368.89	243.42
369.09	124.05
369.28	154.48
369.48	126.39
369.68	236.39
369.87	201.29
370.07	203.63
370.27	276.18
370.47	322.99
370.66	435.34
370.86	489.17
371.06	545.34
371.25	493.85
371.45	573.43
371.65	552.37
371.84	552.37
372.04	538.32
372.24	564.07
372.44	521.94
372.63	655.35
372.83	610.88
373.03	634.29
373.22	664.71
373.42	662.37
373.62	596.84
373.81	610.88
374.01	660.03
374.21	634.29
374.40	688.12
374.60	613.22
374.79	634.29
374.99	636.63
375.19	685.78
375.38	709.18
375.58	645.99
375.78	690.46
375.97	645.99
376.17	690.46
376.37	624.92
376.56	662.37
376.76	683.44
376.95	631.94
377.15	746.63
377.35	702.16
377.54	678.76
377.74	671.73
377.93	767.70
378.13	655.35
378.33	760.67
378.52	718.54
378.72	653.01
378.91	697.48
379.11	746.63
379.31	713.86
379.50	643.65
379.70	802.80
379.89	758.33
380.09	702.16
380.28	664.71
380.48	784.08
380.68	767.70
380.87	716.20
381.07	786.42
381.26	795.78
381.46	770.04
381.65	802.80
381.85	725.57
382.04	748.97
382.24	751.31
382.43	767.70
382.63	774.72
382.83	847.27
383.02	812.17
383.22	830.89
383.41	727.91
383.61	800.46
383.80	777.06
384.00	819.19
384.19	763.01
384.39	821.53
384.58	819.19
384.78	861.32
384.97	807.48
385.17	770.04
385.36	819.19
385.56	910.47
385.75	812.17
385.95	828.55
386.14	973.66
386.34	807.48
386.53	922.17
386.72	819.19
386.92	840.25
387.11	896.43
387.31	898.77
387.50	903.45
387.70	835.57
387.89	854.30
388.09	884.72
388.28	837.91
388.48	940.90
388.67	1006.43
388.86	940.90
389.06	952.60
389.25	1006.43
389.45	861.32
389.64	908.13
389.84	999.41
390.03	983.02
390.22	961.96
390.42	931.53
390.61	950.26
390.81	905.79
391.00	1011.11
391.19	1081.33
391.39	1036.86
391.58	980.68
391.78	1034.52
391.97	1102.39
392.16	1011.11
392.36	1055.58
392.55	1069.62
392.75	1039.20
392.94	1071.97
393.13	1114.10
393.33	1034.52
393.52	1071.97
393.71	1062.60
393.91	1100.05
394.10	1137.50
394.29	1097.71
394.49	1093.03
394.68	1137.50
394.88	1118.78
395.07	1165.59
395.26	1240.48
395.46	1125.80
395.65	1217.08
395.84	1151.54
396.04	1242.82
396.23	1254.53
396.42	1188.99
396.62	1142.18
396.81	1226.44
397.00	1247.51
397.19	1306.02
397.39	1198.35
397.58	1191.33
397.77	1284.95
397.97	1310.70
398.16	1336.45
398.35	1345.81
398.55	1256.87
398.74	1238.14
398.93	1331.76
399.12	1350.49
399.32	1277.93
399.51	1331.76
399.70	1301.34
399.90	1242.82
400.09	1280.27
400.28	1399.64
400.47	1401.98
400.67	1432.41
400.86	1446.45
401.05	1418.36
401.24	1423.05
401.44	1465.18
401.63	1486.24
401.82	1490.92
402.01	1472.20
402.21	1401.98
402.40	1467.52
402.59	1497.94
402.78	1500.28
402.97	1488.58
403.17	1565.82
403.36	1551.78
403.55	1558.80
403.74	1605.61
403.93	1565.82
404.13	1561.14
404.32	1619.65
404.51	1589.22
404.70	1668.80
404.89	1666.46
405.09	1692.21
405.28	1699.23
405.47	1696.89
405.66	1643.06
405.85	1764.76
406.05	1713.27
406.24	1661.78
406.43	1732.00
406.62	1687.53
406.81	1753.06
407.00	1846.68
407.20	1816.26
407.39	1781.15
407.58	1827.96
407.77	1912.22
407.96	1837.32
408.15	1930.94
408.34	1912.22
408.54	1849.02
408.73	2043.29
408.92	1923.92
409.11	1914.56
409.30	1959.03
409.49	2078.40
409.68	1919.24
409.87	1935.62
410.07	2054.99
410.26	2031.58
410.45	2155.63
410.64	2125.21
410.83	2246.91
411.02	2050.31
411.21	2136.91
411.40	2129.89
411.59	2237.55
411.78	2244.57
411.98	2296.07
412.17	2284.36
412.36	2326.49
412.55	2289.04
412.74	2272.66
412.93	2415.43
413.12	2263.30
413.31	2377.98
413.50	2359.26
413.69	2429.48
413.88	2576.93
414.07	2457.56
414.26	2401.39
414.45	2612.04
414.64	2544.16
414.83	2595.65
415.02	2616.72
415.22	2726.72
415.41	2693.96
415.60	2670.55
415.79	2640.12
415.98	2792.26
416.17	2782.90
416.36	2661.19
416.55	2663.53
416.74	2808.64
416.93	2761.83
417.12	2768.85
417.31	2953.76
417.50	2867.16
417.69	2967.80
417.88	2918.65
418.07	2829.71
418.26	2815.66
418.45	2895.24
418.64	3019.29
418.83	3054.40
419.02	3049.72
419.21	3103.55
419.39	3218.24
419.58	3014.61
419.77	2993.55
419.96	3145.68
420.15	3173.77
420.34	3166.74
420.53	3176.11
420.72	3262.71
420.91	3229.94
421.10	3176.11
421.29	3293.13
421.48	3236.96
421.67	3251.00
421.86	3365.69
422.05	3309.52
422.24	3363.35
422.43	3440.59
422.61	3452.29
422.80	3368.03
422.99	3400.80
423.18	3442.93
423.37	3494.42
423.56	3513.14
423.75	3447.61
423.94	3396.12
424.13	3133.98
424.32	3365.69
424.50	3396.12
424.69	3543.57
424.88	3524.85
425.07	3398.46
425.26	3454.63
425.45	3307.18
425.64	3426.54
425.83	3527.19
426.01	3506.12
426.20	3463.99
426.39	3489.74
426.58	3485.06
426.77	3548.25
426.96	3571.66
427.15	3445.27
427.33	3555.27
427.52	3534.21
427.71	3644.21
427.90	3735.50
428.09	3695.71
428.28	3684.00
428.46	3651.24
428.65	3705.07
428.84	3726.13
429.03	3812.73
429.22	3702.73
429.40	3786.99
429.59	3840.82
429.78	3590.38
429.97	3693.37
430.16	3679.32
430.34	4023.38
430.53	3932.10
430.72	3906.35
430.91	3894.65
431.10	3896.99
431.28	3922.74
431.47	4023.38
431.66	3934.44
431.85	3894.65
432.03	4039.76
432.22	4070.19
432.41	3955.51
432.60	4140.41
432.79	4098.28
432.97	4262.12
433.16	4138.07
433.35	4168.49
433.54	4217.65
433.72	4262.12
433.91	4187.22
434.10	4238.71
434.28	4182.54
434.47	4390.84
434.66	4292.54
434.85	4322.97
435.03	4430.63
435.22	4308.93
435.41	4454.04
435.59	4437.66
435.78	4498.51
435.97	4376.80
436.16	4395.53
436.34	4475.10
436.53	4517.23
436.72	4669.37
436.90	4402.55
437.09	4627.24
437.28	4547.66
437.46	4585.11
437.65	4540.64
437.84	4580.43
438.02	4603.83
438.21	4798.10
438.40	4564.04
438.58	4777.03
438.77	4835.55
438.96	4741.93
439.14	4987.68
439.33	4788.74
439.52	5004.07
439.70	4762.99
439.89	4919.81
440.08	4975.98
440.26	5095.35
440.45	5174.92
440.63	5048.54
440.82	5263.86
441.01	5057.90
441.19	5324.72
441.38	5203.01
441.57	5296.63
441.75	5486.22
441.94	5364.51
442.12	5486.22
442.31	5502.60
442.50	5488.56
442.68	5345.78
442.87	5509.62
443.05	5411.32
443.24	5486.22
443.43	5542.39
443.61	5633.67
443.80	5839.64
443.98	5558.77
444.17	5411.32
444.35	5455.79
444.54	5809.21
444.73	5720.27
444.91	5682.82
445.10	5591.54
445.28	5650.05
445.47	5818.57
445.65	5692.18
445.84	5628.99
446.02	5816.23
446.21	5722.61
446.39	5540.05
446.58	5746.02
446.77	5771.76
446.95	5860.70
447.14	5720.27
447.32	5849.00
447.51	5823.25
447.69	5764.74
447.88	5809.21
448.06	5804.53
448.25	5841.98
448.43	5933.26
448.62	5790.49
448.80	5830.27
448.99	5905.17
449.17	5846.66
449.36	5888.79
449.54	6078.37
449.73	6101.78
449.91	6101.78
450.10	6230.51
450.28	6108.80
450.46	6260.93
450.65	6174.33
450.83	6186.04
451.02	6249.23
451.20	6286.68
451.39	6392.00
451.57	6230.51
451.76	6003.47
451.94	6377.96
452.13	6340.51
452.31	6349.87
452.49	6216.46
452.68	6403.71
452.86	6328.81
453.05	6424.77
453.23	6431.79
453.42	6342.85
453.60	6396.68
453.78	6375.62
453.97	6431.79
454.15	6242.21
454.34	6499.67
454.52	6759.47
454.70	6555.84
454.89	6551.16
455.07	6562.86
455.26	6607.33
455.44	6736.06
455.62	6939.69
455.81	6654.14
455.99	6658.82
456.17	6857.77
456.36	6953.73
456.54	6965.43
456.73	7000.54
456.91	7148.00
457.09	7023.95
457.28	6977.14
457.46	7035.65
457.64	7105.87
457.83	7220.55
458.01	6946.71
458.19	7136.29
458.38	7103.53
458.56	7199.49
458.74	7356.30
458.93	7342.26
459.11	7290.77
459.29	7344.60
459.48	7218.21
459.66	7335.24
459.84	7328.22
460.03	7590.36
460.21	7555.25
460.39	7332.90
460.57	7531.84
460.76	7398.43
460.94	7630.15
461.12	7618.44
461.31	7494.40
461.49	7620.78
461.67	7592.70
461.85	7747.17
462.04	7585.68
462.22	8006.97
462.40	7775.26
462.59	7716.75
462.77	7847.82
462.95	7751.85
463.13	8011.65
463.32	7721.43
463.50	7868.88
463.68	7932.08
463.86	7960.16
464.05	7815.05
464.23	7929.74
464.41	8102.93
464.59	7892.29
464.78	8238.69
464.96	8074.85
465.14	8112.30
465.32	8133.36
465.50	8081.87
465.69	8201.24
465.87	8121.66
466.05	8077.19
466.23	8002.29
466.41	8369.76
466.60	8355.71
466.78	8205.92
466.96	8215.28
467.14	8292.52
467.32	8367.42
467.51	8456.36
467.69	8423.59
467.87	8449.33
468.05	8397.84
468.23	8451.67
468.41	8418.91
468.60	8358.05
468.78	8652.96
468.96	8521.89
469.14	8634.24
469.32	8624.87
469.50	8435.29
469.69	8650.62
469.87	8720.84
470.05	8739.56
470.23	8931.48
470.41	8954.89
470.59	8940.85
470.77	8784.03
470.95	8849.57
471.14	9114.05
471.32	8910.42
471.50	9095.32
471.68	9114.05
471.86	9104.68
472.04	9097.66
472.22	9371.50
472.40	9214.69
472.58	9364.48
472.77	9310.65
472.95	9605.56
473.13	9671.09
473.31	9605.56
473.49	9603.22
473.67	9530.66
473.85	9455.76
474.03	9689.82
474.21	9870.04
474.39	10015.15
474.57	9827.91
474.75	9987.07
474.93	10024.51
475.12	9994.09
475.30	10237.50
475.48	9951.96
475.66	10190.69
475.84	10183.67
476.02	10155.58
476.20	10286.65
476.38	10438.79
476.56	10572.20
476.74	10773.49
476.92	10682.20
477.10	10539.43
477.28	10693.91
477.46	10808.59
477.64	10668.16
477.82	11000.52
478.00	11367.98
478.18	11220.53
478.36	11084.78
478.54	11417.13
478.72	11342.24
478.90	11576.29
479.08	11585.65
479.26	11840.77
479.44	11669.91
479.62	11866.52
479.80	11908.65
479.98	12142.70
480.16	12334.62
480.34	12100.57
480.52	12280.79
480.70	12561.66
480.88	12496.12
481.06	12601.44
481.24	12411.86
481.41	12479.74
481.59	12554.63
481.77	12861.24
481.95	12940.82
482.13	13036.78
482.31	13193.60
482.49	13521.27
482.67	13256.79
482.85	13390.20
483.03	13738.94
483.21	13832.57
483.39	14073.64
483.57	13806.82
483.74	14148.54
483.92	14239.82
484.10	14036.19
484.28	14544.09
484.46	14338.12
484.64	14878.79
484.82	14689.20
485.00	14944.32
485.18	15080.07
485.35	15257.95
485.53	15243.91
485.71	15040.28
485.89	15307.10
486.07	15641.80
486.25	15496.69
486.43	15566.90
486.61	15662.86
486.78	16020.97
486.96	16009.26
487.14	16095.86
487.32	16482.05
487.50	16393.11
487.68	16615.46
487.85	16837.81
488.03	16877.60
488.21	17319.96
488.39	16973.56
488.57	17249.75
488.75	17532.95
488.92	17387.84
489.10	17710.83
489.28	17776.37
489.46	17947.23
489.64	18045.53
489.81	18026.81
489.99	18551.09
490.17	18272.56
490.35	18595.56
490.53	18670.45
490.70	18838.97
490.88	18600.24
491.06	19124.52
491.24	18941.96
491.41	19108.13
491.59	19321.12
491.77	19337.51
491.95	19786.89
492.13	19618.37
492.30	19665.18
492.48	19742.42
492.66	19789.23
492.84	20269.04
493.01	20374.36
493.19	20191.80
493.37	20390.75
493.54	20336.91
493.72	20919.71
493.90	20620.12
494.08	20959.50
494.25	20889.28
494.43	21076.52
494.61	21291.85
494.79	21371.43
494.96	21462.71
495.14	21546.97
495.32	21972.95
495.49	21902.73
495.67	22031.46
495.85	22047.85
496.02	22462.12
496.20	22728.94
496.38	22539.36
496.55	22469.14
496.73	23105.77
496.91	22794.48
497.09	22848.31
497.26	23166.62
497.44	23337.48
497.62	23470.89
497.79	23761.12
497.97	23606.64
498.14	23917.93
498.32	24372.00
498.50	23845.38
498.67	24149.65
498.85	24240.93
499.03	24023.26
499.20	24353.27
499.38	24500.73
499.56	24505.41
499.73	24730.10
499.91	24634.14
500.08	24863.51
500.26	24620.10
500.44	25076.50
500.61	25142.03
500.79	24987.56
500.97	25425.24
501.14	25685.04
501.32	25645.25
501.49	25249.70
501.67	25401.83
501.84	25834.83
502.02	26045.48
502.20	25830.15
502.37	25935.48
502.55	26047.82
502.72	25940.16
502.90	25898.03
503.07	26305.28
503.25	26415.29
503.43	26188.25
503.60	26817.86
503.78	26740.62
503.95	26522.95
504.13	26499.55
504.30	27056.59
504.48	26642.32
504.65	27065.96
504.83	27424.06
505.01	27569.17
505.18	27468.53
505.36	27459.16
505.53	27393.63
505.71	27440.44
505.88	27419.38
506.06	27655.77
506.23	27866.42
506.41	27824.29
506.58	27887.48
506.76	28102.81
506.93	28140.26
507.11	28016.21
507.28	28341.55
507.46	28376.66
507.63	28856.46
507.81	28643.48
507.98	28393.04
508.16	28783.91
508.33	28685.61
508.50	29184.14
508.68	28830.72
508.85	29277.76
509.03	28830.72
509.20	29008.60
509.38	29820.77
509.55	29572.67
509.73	29738.85
509.90	29759.91
510.08	29926.09
510.25	29902.68
510.42	30012.69
510.60	29963.54
510.77	29769.27
510.95	30419.94
511.12	30075.88
511.30	30305.26
511.47	30148.44
511.64	30476.12
511.82	30473.78
511.99	30382.49
512.17	30431.65
512.34	30735.92
512.51	30815.49
512.69	31332.75
512.86	30967.63
513.04	31332.75
513.21	31267.22
513.38	31529.36
513.56	31058.91
513.73	30937.20
513.90	31524.68
514.08	31662.77
514.25	31779.79
514.43	31599.57
514.60	31969.38
514.77	31924.91
514.95	31805.54
515.12	31531.70
515.29	32128.53
515.47	32400.04
515.64	32568.55
515.81	32135.56
515.99	32601.32
516.16	32701.96
516.33	32435.14
516.51	32933.68
516.68	32102.79
516.85	32598.98
517.03	32854.10
517.20	32690.26
517.37	33017.94
517.54	33043.68
517.72	33132.62
517.89	33366.68
518.06	33500.09
518.24	33305.82
518.41	33308.16
518.58	33523.49
518.75	33371.36
518.93	33825.42
519.10	33713.08
519.27	33731.80
519.45	33731.80
519.62	34012.66
519.79	34101.61
519.96	33874.57
520.14	34117.99
520.31	33907.34
520.48	34368.43
520.65	34539.29
520.83	34621.20
521.00	34979.31
521.17	34419.92
521.34	34923.13
521.52	35079.95
521.69	34707.80
521.86	35379.54
522.03	35236.77
522.20	35255.49
522.38	35489.54
522.55	35187.61
522.72	35157.19
522.89	35213.36
523.07	35484.86
523.24	35503.59
523.41	35587.85
523.58	35014.41
523.75	35866.37
523.92	35648.70
524.10	36086.38
524.27	36168.30
524.44	35849.99
524.61	36137.87
524.78	36168.30
524.96	36432.78
525.13	36608.32
525.30	36318.09
525.47	36306.39
525.64	36304.05
525.81	36847.05
525.98	36086.38
526.16	36400.01
526.33	36336.82
526.50	37069.40
526.67	36699.60
526.84	37233.24
527.01	37165.37
527.18	37301.12
527.36	37530.49
527.53	36898.55
527.70	37537.51
527.87	37493.04
528.04	37078.77
528.21	37682.62
528.38	37315.16
528.55	37748.16
528.72	37848.80
528.89	37528.15
529.07	37603.05
529.24	37373.67
529.41	38078.18
529.58	37640.50
529.75	37750.50
529.92	37993.92
530.09	37958.81
530.26	37713.05
530.43	38120.31
530.60	37633.47
530.77	38000.94
530.94	38054.77
531.11	38195.20
531.28	38670.33
531.46	38424.57
531.63	38754.59
531.80	38473.73
531.97	38689.06
532.14	39091.63
532.31	38607.14
532.48	39026.09
532.65	38630.54
532.82	38834.17
532.99	38808.42
533.16	38902.04
533.33	38948.85
533.50	38621.18
533.67	39243.76
533.84	38763.95
534.01	38981.62
534.18	39182.91
534.35	39522.29
534.52	39466.11
534.69	39636.97
534.86	39981.03
535.03	39372.49
535.20	39583.14
535.37	40252.53
535.54	39709.53
535.71	39761.02
535.88	39763.36
536.05	40109.76
536.22	40210.40
536.38	39962.31
536.55	40076.99
536.72	40142.53
536.89	39922.52
537.06	40158.91
537.23	40278.28
537.40	40318.07
537.57	40039.54
537.74	40084.01
537.91	40327.43
538.08	40275.94
538.25	40217.43
538.42	40533.40
538.59	40587.23
538.75	40432.75
538.92	40531.06
539.09	40858.73
539.26	40547.44
539.43	40830.65
539.60	40886.82
539.77	40748.73
539.94	41200.45
540.11	41495.36
540.28	41263.64
540.44	41315.14
540.61	40861.07
540.78	41020.23
540.95	41097.47
541.12	41167.68
541.29	41378.33
541.46	41233.22
541.62	41596.00
541.79	41958.78
541.96	41205.13
542.13	40870.43
542.30	41450.89
542.47	41682.60
542.63	41364.29
542.80	42314.55
542.97	42637.54
543.14	42625.84
543.31	42401.14
543.48	41984.53
543.64	42579.03
543.81	42707.76
543.98	42445.62
544.15	41834.74
544.32	42803.72
544.48	43091.60
544.65	42541.58
544.82	42838.83
544.99	42188.16
545.16	42326.25
545.32	42646.90
545.49	42962.87
545.66	43019.05
545.83	42887.98
546.00	43171.18
546.16	42836.48
546.33	42841.17
546.50	42906.70
546.67	43344.38
546.83	42567.32
547.00	42845.85
547.17	42731.16
547.34	42635.20
547.50	43356.08
547.67	43365.45
547.84	43349.06
548.00	43517.58
548.17	43519.92
548.34	43611.20
548.51	43309.27
548.67	43793.76
548.84	43700.14
549.01	43667.37
549.18	43718.87
549.34	43842.92
549.51	44154.21
549.68	44126.12
549.84	44098.03
550.01	43695.46
550.18	43704.82
550.34	44079.31
550.51	43894.41
550.68	44292.30
550.84	43356.08
551.01	44463.16
551.18	43889.73
551.34	44364.85
551.51	44130.80
551.68	44406.98
551.84	44257.19
552.01	44069.95
552.18	44119.10
552.34	44442.09
552.51	44437.41
552.68	44172.93
552.84	44495.92
553.01	44299.32
553.18	44280.60
553.34	44790.83
553.51	44617.63
553.67	44652.74
553.84	45036.59
554.01	44493.58
554.17	44828.28
554.34	44928.92
554.51	44472.52
554.67	45165.32
554.84	44947.65
555.00	44725.30
555.17	45125.53
555.33	44748.70
555.50	44776.79
555.67	45420.44
555.83	45013.18
556.00	45186.38
556.16	45563.21
556.33	45464.91
556.50	45233.19
556.66	45052.97
556.83	45263.62
556.99	45610.02
557.16	45280.00
557.32	45750.45
557.49	45588.95
557.65	45368.94
557.82	45652.15
557.98	45649.81
558.15	45441.50
558.32	45666.19
558.48	45642.79
558.65	45497.67
558.81	45397.03
558.98	45881.52
559.14	45127.87
559.31	45378.31
559.47	45701.30
559.64	45500.01
559.80	45462.57
559.97	45865.14
560.13	45294.05
560.30	45776.20
560.46	45673.21
560.63	45865.14
560.79	45893.22
560.96	46190.47
561.12	45970.46
561.29	45930.67
561.45	46026.63
561.61	45867.48
561.78	45813.65
561.94	45984.51
562.11	45677.90
562.27	46185.79
562.44	46078.13
562.60	46473.68
562.77	46302.82
562.93	46153.02
563.10	46361.33
563.26	46440.91
563.42	46497.08
563.59	46321.54
563.75	46150.68
563.92	46351.97
564.08	46337.93
564.24	46586.02
564.41	46054.72
564.57	46539.21
564.74	46433.89
564.90	46490.06
565.07	46333.24
565.23	46153.02
565.39	46277.07
565.56	46780.29
565.72	46377.72
565.88	46162.39
566.05	46309.84
566.21	46649.22
566.38	46389.42
566.54	46494.74
566.70	46583.68
566.87	46506.44
567.03	46567.30
567.19	46916.04
567.36	46820.08
567.52	46916.04
567.68	47084.56
567.85	46768.58
568.01	46714.75
568.17	46880.93
568.34	46852.84
568.50	46878.59
568.66	46377.72
568.83	46705.39
568.99	47250.74
569.15	47033.07
569.32	46674.96
569.48	46775.61
569.64	47185.20
569.81	47126.69
569.97	46916.04
570.13	47356.06
570.30	46784.97
570.46	46761.56
570.62	47065.83
570.78	47372.44
570.95	47168.82
571.11	47143.07
571.27	46930.08
571.43	46747.52
571.60	46880.93
571.76	46672.62
571.92	47082.22
572.09	46829.44
572.25	47007.32
572.41	46829.44
572.57	46930.08
572.74	47868.64
572.90	47054.13
573.06	47281.16
573.22	47056.47
573.38	47203.92
573.55	47241.37
573.71	47650.97
573.87	47372.44
574.03	47276.48
574.20	47517.56
574.36	47597.13
574.52	47445.00
574.68	47452.02
574.84	47414.57
575.01	47435.64
575.17	47468.40
575.33	47416.91
575.49	47346.70
575.65	47388.83
575.82	47421.59
575.98	46965.19
576.14	47739.91
576.30	47569.05
576.46	47386.49
576.62	47166.48
576.79	47498.83
576.95	47056.47
577.11	47016.68
577.27	47409.89
577.43	47510.53
577.59	47571.39
577.75	47377.12
577.92	46983.91
578.08	47114.98
578.24	47365.42
578.40	47739.91
578.56	47288.18
578.72	47377.12
578.88	47515.22
579.04	47627.56
579.21	47168.82
579.37	47737.57
579.53	47576.07
579.69	47576.07
579.85	47143.07
580.01	47419.25
580.17	47512.88
580.33	47517.56
580.49	47704.80
580.65	47428.62
580.82	47714.16
580.98	47112.64
581.14	47161.79
581.30	47711.82
581.46	47632.24
581.62	47435.64
581.78	47386.49
581.94	47208.61
582.10	47494.15
582.26	47950.56
582.42	47578.41
582.58	47295.21
582.74	47594.79
582.90	47484.79
583.06	47611.18
583.22	47175.84
583.38	47707.14
583.54	47484.79
583.70	47922.47
583.86	47667.35
584.02	47430.96
584.18	47765.65
584.34	47800.76
584.50	47536.28
584.66	47945.87
584.82	47847.57
584.98	47835.87
585.14	48116.73
585.30	47503.51
585.46	47505.85
585.62	47194.56
585.78	47803.10
585.94	47655.65
586.10	47718.84
586.26	47419.25
586.42	47758.63
586.58	47894.38
586.74	47646.29
586.90	47419.25
587.06	47627.56
587.22	47889.70
587.38	47576.07
587.54	48353.13
587.70	48292.27
587.86	47459.04
588.02	47571.39
588.18	47852.25
588.34	47583.09
588.49	47564.37
588.65	47334.99
588.81	47840.55
588.97	47791.40
589.13	47557.35
589.29	47763.31
589.45	48383.55
589.61	48170.57
589.77	48243.12
589.93	47725.86
