SpectraSuite Data File
++++++++++++++++++++++++++++++++++++
Date: Fri Oct 25 11:25:16 EDT 2013
User: price-jones
Dark Spectrum Present: No
Reference Spectrum Present: No
Number of Sampled Component Spectra: 1
Spectrometers: USB2+H05261
Integration Time (usec): 100000 (USB2+H05261)
Spectra Averaged: 1 (USB2+H05261)
Boxcar Smoothing: 0 (USB2+H05261)
Correct for Electrical Dark: No (USB2+H05261)
Strobe/Lamp Enabled: No (USB2+H05261)
Correct for Detector Non-linearity: No (USB2+H05261)
Correct for Stray Light: No (USB2+H05261)
Number of Pixels in Processed Spectrum: 2048
>>>>>Begin Processed Spectral Data<<<<<
365.73	203.63
365.92	203.63
366.12	203.63
366.32	105.32
366.52	177.88
366.72	170.86
366.91	124.05
367.11	152.13
367.31	163.84
367.51	149.79
367.70	154.48
367.90	161.50
368.10	198.95
368.30	128.73
368.49	100.64
368.69	88.94
368.89	98.30
369.09	166.18
369.28	182.56
369.48	152.13
369.68	180.22
369.87	297.25
370.07	294.91
370.27	241.08
370.47	283.20
370.66	648.33
370.86	662.37
371.06	685.78
371.25	690.46
371.45	631.94
371.65	669.39
371.84	716.20
372.04	650.67
372.24	716.20
372.44	767.70
372.63	718.54
372.83	739.61
373.03	812.17
373.22	748.97
373.42	737.27
373.62	777.06
373.81	786.42
374.01	826.21
374.21	788.76
374.40	725.57
374.60	777.06
374.79	751.31
374.99	819.19
375.19	795.78
375.38	802.80
375.58	868.34
375.78	847.27
375.97	929.19
376.17	887.06
376.37	849.61
376.56	880.04
376.76	844.93
376.95	896.43
377.15	887.06
377.35	856.64
377.54	887.06
377.74	863.66
377.93	849.61
378.13	976.00
378.33	924.51
378.52	926.85
378.72	945.58
378.91	854.30
379.11	901.11
379.31	959.62
379.50	954.94
379.70	957.28
379.89	945.58
380.09	940.90
380.28	905.79
380.48	933.87
380.68	1025.15
380.87	1004.09
381.07	931.53
381.26	945.58
381.46	1025.15
381.65	959.62
381.85	1067.28
382.04	1102.39
382.24	1074.31
382.43	1060.26
382.63	1111.75
382.83	1088.35
383.02	1083.67
383.22	1020.47
383.41	1053.24
383.61	1111.75
383.80	1114.10
384.00	1121.12
384.19	1128.14
384.39	1181.97
384.58	1137.50
384.78	1076.65
384.97	1128.14
385.17	1165.59
385.36	1181.97
385.56	1221.76
385.75	1198.35
385.95	1296.66
386.14	1196.01
386.34	1214.74
386.53	1217.08
386.72	1116.44
386.92	1228.78
387.11	1233.46
387.31	1263.89
387.50	1238.14
387.70	1188.99
387.89	1275.59
388.09	1235.80
388.28	1179.63
388.48	1299.00
388.67	1270.91
388.86	1355.17
389.06	1301.34
389.25	1270.91
389.45	1390.28
389.64	1324.74
389.84	1306.02
390.03	1294.32
390.22	1373.89
390.42	1350.49
390.61	1348.15
390.81	1308.36
391.00	1465.18
391.19	1507.30
391.39	1411.34
391.58	1441.77
391.78	1383.26
391.97	1413.68
392.16	1495.60
392.36	1430.07
392.55	1439.43
392.75	1556.46
392.94	1526.03
393.13	1507.30
393.33	1486.24
393.52	1565.82
393.71	1521.35
393.91	1511.99
394.10	1579.86
394.29	1589.22
394.49	1490.92
394.68	1589.22
394.88	1582.20
395.07	1687.53
395.26	1657.10
395.46	1668.80
395.65	1654.76
395.84	1802.21
396.04	1804.55
396.23	1696.89
396.42	1743.70
396.62	1820.94
396.81	1834.98
397.00	1790.51
397.19	1774.13
397.39	1806.89
397.58	1774.13
397.77	1783.49
397.97	1879.45
398.16	1813.92
398.35	1905.20
398.55	1795.19
398.74	1909.88
398.93	1982.43
399.12	1947.33
399.32	2015.20
399.51	1921.58
399.70	1975.41
399.90	1884.13
400.09	1935.62
400.28	2059.67
400.47	2059.67
400.67	2099.46
400.86	2050.31
401.05	2071.37
401.24	2097.12
401.44	2120.53
401.63	2029.24
401.82	2265.64
402.01	2078.40
402.21	2129.89
402.40	2195.42
402.59	2211.81
402.78	2228.19
402.97	2204.78
403.17	2284.36
403.36	2249.25
403.55	2347.56
403.74	2314.79
403.93	2342.88
404.13	2284.36
404.32	2328.83
404.51	2289.04
404.70	2312.45
404.89	2246.91
405.09	2462.24
405.28	2431.82
405.47	2487.99
405.66	2392.03
405.85	2506.71
406.05	2480.97
406.24	2527.78
406.43	2572.25
406.62	2633.10
406.81	2600.34
407.00	2693.96
407.20	2487.99
407.39	2551.18
407.58	2705.66
407.77	2628.42
407.96	2654.17
408.15	2768.85
408.34	2715.02
408.54	2738.43
408.73	2665.87
408.92	2733.75
409.11	2888.22
409.30	2860.13
409.49	2836.73
409.68	2942.05
409.87	2902.26
410.07	2944.39
410.26	2967.80
410.45	3012.27
410.64	3045.04
410.83	3110.57
411.02	2970.14
411.21	3103.55
411.40	3026.31
411.59	3199.51
411.78	3152.70
411.98	3234.62
412.17	3276.75
412.36	3283.77
412.55	3386.76
412.74	3382.07
412.93	3300.16
413.12	3279.09
413.31	3389.10
413.50	3351.65
413.69	3482.72
413.88	3569.32
414.07	3571.66
414.26	3681.66
414.45	3585.70
414.64	3653.58
414.83	3648.90
415.02	3829.12
415.22	3686.34
415.41	3981.25
415.60	3812.73
415.79	3805.71
415.98	3878.27
416.17	3915.72
416.36	3861.88
416.55	4007.00
416.74	3967.21
416.93	3988.27
417.12	4044.45
417.31	4189.56
417.50	4009.34
417.69	4325.31
417.88	4276.16
418.07	4290.20
418.26	4287.86
418.45	4241.05
418.64	4390.84
418.83	4491.49
419.02	4461.06
419.21	4531.28
419.39	4634.26
419.58	4337.01
419.77	4479.79
419.96	4711.50
420.15	4645.96
420.34	4566.39
420.53	4535.96
420.72	4702.14
420.91	4702.14
421.10	4500.85
421.29	4786.40
421.48	4610.86
421.67	4816.82
421.86	4695.11
422.05	4854.27
422.24	4732.56
422.43	4814.48
422.61	4809.80
422.80	4891.72
422.99	4865.97
423.18	4924.49
423.37	4947.89
423.56	4758.31
423.75	4980.66
423.94	4880.02
424.13	4603.83
424.32	4512.55
424.50	4912.78
424.69	4858.95
424.88	5027.47
425.07	4980.66
425.26	4875.34
425.45	4865.97
425.64	4821.50
425.83	4901.08
426.01	5060.24
426.20	4865.97
426.39	5118.75
426.58	4997.04
426.77	5008.75
426.96	5006.41
427.15	5245.14
427.33	5151.52
427.52	5121.09
427.71	5273.23
427.90	5179.61
428.09	5100.03
428.28	5310.68
428.46	5228.76
428.65	5280.25
428.84	5521.32
429.03	5462.81
429.22	5352.81
429.40	5448.77
429.59	5411.32
429.78	5235.78
429.97	5233.44
430.16	5518.98
430.34	5521.32
430.53	5603.24
430.72	5486.22
430.91	5614.95
431.10	5661.76
431.28	5696.86
431.47	5743.67
431.66	5841.98
431.85	5657.07
432.03	5825.59
432.22	5846.66
432.41	5809.21
432.60	5940.28
432.79	5849.00
432.97	5968.37
433.16	6005.81
433.35	5951.98
433.54	6022.20
433.72	6005.81
433.91	5994.11
434.10	6181.35
434.28	5966.03
434.47	6111.14
434.66	6132.20
434.85	6078.37
435.03	6256.25
435.22	6200.08
435.41	6562.86
435.59	6300.72
435.78	6436.47
435.97	6363.92
436.16	6342.85
436.34	6396.68
436.53	6434.13
436.72	6595.63
436.90	6403.71
437.09	6600.31
437.28	6466.90
437.46	6511.37
437.65	6527.75
437.84	6787.55
438.02	6607.33
438.21	6658.82
438.40	6752.45
438.58	6808.62
438.77	6740.74
438.96	7110.55
439.14	6923.30
439.33	7131.61
439.52	7204.17
439.70	7187.79
439.89	7229.91
440.08	7297.79
440.26	7248.64
440.45	7286.09
440.63	7487.37
440.82	7492.05
441.01	7463.97
441.19	7620.78
441.38	7660.57
441.57	7719.09
441.75	7618.44
441.94	7920.37
442.12	7880.58
442.31	7929.74
442.50	7976.55
442.68	7847.82
442.87	8065.49
443.05	8105.28
443.24	8166.13
443.43	8053.78
443.61	8266.77
443.80	8421.25
443.98	7892.29
444.17	7691.00
444.35	8145.06
444.54	8131.02
444.73	8212.94
444.91	8381.46
445.10	8311.24
445.28	8184.85
445.47	8140.38
445.65	8177.83
445.84	8290.18
446.02	8498.49
446.21	8482.10
446.39	8222.30
446.58	8449.33
446.77	8322.94
446.95	8198.90
447.14	8294.86
447.32	8538.27
447.51	8528.91
447.69	8208.26
447.88	8332.31
448.06	8514.87
448.25	8332.31
448.43	8503.17
448.62	8521.89
448.80	8463.38
448.99	8772.33
449.17	8767.65
449.36	8493.80
449.54	8784.03
449.73	8877.65
449.91	8903.40
450.10	8964.25
450.28	9088.30
450.46	9231.07
450.65	8961.91
450.83	9083.62
451.02	8959.57
451.20	9207.67
451.39	9130.43
451.57	9081.28
451.76	8905.74
451.94	9025.11
452.13	9345.76
452.31	9240.44
452.49	8924.46
452.68	9549.39
452.86	9270.86
453.05	9446.40
453.23	9511.94
453.42	9432.36
453.60	9462.79
453.78	9518.96
453.97	9198.31
454.15	9430.02
454.34	9312.99
454.52	9743.65
454.70	9781.10
454.89	9614.92
455.07	9518.96
455.26	9652.37
455.44	9860.68
455.62	9886.42
455.81	9788.12
455.99	9980.04
456.17	10031.54
456.36	9907.49
456.54	10225.80
456.73	10335.81
456.91	10387.30
457.09	10298.36
457.28	10391.98
457.46	10178.99
457.64	10370.91
457.83	10399.00
458.01	10399.00
458.19	10670.50
458.38	10583.90
458.56	10890.51
458.74	10434.11
458.93	10523.05
459.11	10518.37
459.29	10654.12
459.48	10815.62
459.66	10675.18
459.84	11075.42
460.03	10974.77
460.21	10817.96
460.39	10920.94
460.57	10832.00
460.76	11042.65
460.94	11131.59
461.12	11260.32
461.31	11140.95
461.49	11000.52
461.67	11222.87
461.85	11377.34
462.04	11309.47
462.22	11726.08
462.40	11456.92
462.59	11227.55
462.77	11297.77
462.95	11440.54
463.13	11723.74
463.32	11482.67
463.50	11679.27
463.68	11602.04
463.86	11744.81
464.05	11620.76
464.23	11477.99
464.41	11983.54
464.59	11604.38
464.78	12102.91
464.96	11992.90
465.14	11695.66
465.32	11962.48
465.50	11857.15
465.69	12266.75
465.87	12119.29
466.05	12121.63
466.23	12095.89
466.41	12044.40
466.60	12500.80
466.78	12180.15
466.96	12320.58
467.14	12182.49
467.32	11978.86
467.51	12149.72
467.69	12233.98
467.87	12423.56
468.05	12650.60
468.23	12381.43
468.41	12411.86
468.60	12500.80
468.78	12638.89
468.96	12716.13
469.14	12685.70
469.32	12875.29
469.50	12449.31
469.69	12947.84
469.87	13032.10
470.05	12865.92
470.23	13069.55
470.41	13060.19
470.59	13036.78
470.77	13046.15
470.95	13247.43
471.14	13523.62
471.32	12936.14
471.50	13385.52
471.68	13446.38
471.86	13530.64
472.04	13689.79
472.22	13907.46
472.40	13689.79
472.58	13867.67
472.77	13874.70
472.95	13792.78
473.13	14408.34
473.31	13855.97
473.49	14066.62
473.67	14064.28
473.85	14246.84
474.03	14541.75
474.21	14497.28
474.39	14548.77
474.57	14476.21
474.75	14883.47
474.93	14946.66
475.12	14693.88
475.30	15213.48
475.48	14824.95
475.66	15442.85
475.84	15021.56
476.02	15382.00
476.20	14991.13
476.38	15576.27
476.56	15836.06
476.74	15812.66
476.92	15712.02
477.10	15819.68
477.28	16079.48
477.46	16128.63
477.64	16229.27
477.82	16063.10
478.00	16744.19
478.18	16659.93
478.36	16617.80
478.54	17050.80
478.72	17352.73
478.90	17174.85
479.08	17734.24
479.26	17715.51
479.44	17603.17
479.62	17703.81
479.80	17923.82
479.98	17907.44
480.16	18324.05
480.34	18312.35
480.52	18391.93
480.70	18345.12
480.88	18333.42
481.06	18347.46
481.24	18810.89
481.41	18862.38
481.59	19110.47
481.77	19456.87
481.95	19332.82
482.13	19772.85
482.31	19702.63
482.49	19978.81
482.67	20273.72
482.85	20210.53
483.03	20482.03
483.21	20739.49
483.39	20828.43
483.57	20971.20
483.74	20989.92
483.92	21193.55
484.10	20933.75
484.28	21619.53
484.46	21933.16
484.64	22150.83
484.82	22089.98
485.00	22331.05
485.18	22567.45
485.35	22759.37
485.53	22537.02
485.71	22845.97
485.89	23475.57
486.07	22918.53
486.25	23211.09
486.43	23452.17
486.61	23552.81
486.78	23955.38
486.96	23969.43
487.14	24575.62
487.32	24486.68
487.50	24622.44
487.68	24666.91
487.85	25142.03
488.03	25043.73
488.21	25682.70
488.39	25366.73
488.57	25713.13
488.75	26312.30
488.92	26380.18
489.10	26572.10
489.28	26642.32
489.46	26855.31
489.64	26714.87
489.81	27917.91
489.99	27555.13
490.17	27620.66
490.35	27880.46
490.53	27782.16
490.70	28362.61
490.88	28180.05
491.06	28510.07
491.24	28456.23
491.41	29139.67
491.59	29069.45
491.77	28751.14
491.95	29221.59
492.13	29404.15
492.30	29371.38
492.48	29591.39
492.66	30031.41
492.84	29930.77
493.01	30661.02
493.19	30934.86
493.37	31014.44
493.54	31112.74
493.72	31307.01
493.90	31431.05
494.08	31590.21
494.25	31747.03
494.43	31573.83
494.61	31793.84
494.79	32538.13
494.96	32458.55
495.14	32648.13
495.32	32699.62
495.49	32943.04
495.67	33284.76
495.85	33350.29
496.02	33574.98
496.20	34012.66
496.38	34029.05
496.55	33748.18
496.73	34677.38
496.91	34389.49
497.09	34878.66
497.26	35049.52
497.44	34824.83
497.62	35124.42
497.79	35342.09
497.97	35084.63
498.14	35831.26
498.32	36261.92
498.50	35861.69
498.67	36175.32
498.85	36627.04
499.03	36699.60
499.20	36641.09
499.38	36751.09
499.56	36917.27
499.73	36964.08
499.91	37146.64
500.08	37399.42
500.26	37277.71
500.44	37221.54
500.61	37502.40
500.79	37694.33
500.97	37523.47
501.14	38424.57
501.32	37986.89
501.49	38040.73
501.67	38108.60
501.84	38967.58
502.02	38366.06
502.20	38380.10
502.37	39072.90
502.55	38983.96
502.72	39346.75
502.90	39356.11
503.07	39620.59
503.25	39838.26
503.43	39175.89
503.60	39901.45
503.78	40217.43
503.95	39948.26
504.13	40266.58
504.30	40538.08
504.48	40456.16
504.65	40514.67
504.83	40549.78
505.01	41031.93
505.18	40847.03
505.36	41125.55
505.53	40718.30
505.71	41453.23
505.88	41591.32
506.06	41291.73
506.23	41670.90
506.41	41727.07
506.58	41706.01
506.76	41918.99
506.93	42131.98
507.11	42050.06
507.28	42164.75
507.46	42452.64
507.63	42321.57
507.81	42983.94
507.98	42471.36
508.16	42597.75
508.33	43030.75
508.50	43430.98
508.68	43192.25
508.85	43615.88
509.03	43512.90
509.20	43828.87
509.38	44165.91
509.55	44140.16
509.73	44154.21
509.90	44495.92
510.08	44594.23
510.25	44343.79
510.42	44217.40
510.60	45212.13
510.77	44456.14
510.95	45366.60
511.12	44835.30
511.30	44814.24
511.47	45387.67
511.64	45600.66
511.82	45280.00
511.99	45420.44
512.17	45471.93
512.34	45633.42
512.51	45783.22
512.69	46253.67
512.86	46230.26
513.04	46806.03
513.21	46323.88
513.38	46342.61
513.56	46501.76
513.73	46426.87
513.90	46333.24
514.08	46674.96
514.25	47019.02
514.43	47089.24
514.60	47264.78
514.77	46995.62
514.95	47421.59
515.12	47461.38
515.29	47236.69
515.47	48088.65
515.64	48088.65
515.81	47564.37
515.99	48053.54
516.16	48013.75
516.33	48421.00
516.51	48318.02
516.68	48051.20
516.85	48236.10
517.03	48392.92
517.20	48589.52
517.37	48760.38
517.54	48498.24
517.72	48872.73
517.89	49048.27
518.06	48987.41
518.24	49076.35
518.41	48940.60
518.58	49214.44
518.75	49230.83
518.93	49221.47
519.10	49071.67
519.27	49258.91
519.45	49581.91
519.62	49787.88
519.79	49734.04
519.96	49504.67
520.14	49991.50
520.31	49909.58
520.48	49916.61
520.65	50026.61
520.83	50487.70
521.00	50380.03
521.17	50227.90
521.34	50380.03
521.52	50733.45
521.69	50976.87
521.86	50454.93
522.03	50997.93
522.20	50946.44
522.38	51231.99
522.55	51061.13
522.72	51133.68
522.89	50918.35
523.07	51381.78
523.24	51260.07
523.41	51917.76
523.58	51299.86
523.75	51526.89
523.92	51281.14
524.10	51737.54
524.27	51885.00
524.44	51683.71
524.61	51870.95
524.78	51980.96
524.96	52191.61
525.13	52217.35
525.30	52275.87
525.47	52268.84
525.64	52343.74
525.81	52257.14
525.98	52774.40
526.16	52547.37
526.33	52495.88
526.50	52491.19
526.67	52919.51
526.84	52912.49
527.01	52966.32
527.18	52547.37
527.36	52933.56
527.53	52743.97
527.70	53167.61
527.87	53144.20
528.04	53069.31
528.21	53385.28
528.38	53160.59
528.55	53436.77
528.72	53155.91
528.89	53219.10
529.07	53471.88
529.24	53380.60
529.41	53401.66
529.58	53315.06
529.75	53357.19
529.92	53813.60
530.09	53565.50
530.26	53811.26
530.43	53844.02
530.60	53719.98
530.77	53764.45
530.94	54061.69
531.11	53963.39
531.28	54080.42
531.46	54160.00
531.63	54061.69
531.80	54265.32
531.97	54209.15
532.14	54258.30
532.31	54164.68
532.48	54396.39
532.65	54424.48
532.82	54482.99
532.99	54560.23
533.16	54298.09
533.33	54747.47
533.50	54539.16
533.67	54487.67
533.84	54429.16
534.01	54944.08
534.18	54663.21
534.35	55217.92
534.52	54805.98
534.69	54911.31
534.86	55267.07
535.03	54637.47
535.20	55358.35
535.37	54932.37
535.54	55323.24
535.71	55168.77
535.88	55334.95
536.05	55056.42
536.22	55498.78
536.38	55482.40
536.55	55213.24
536.72	55295.16
536.89	55243.66
537.06	55419.20
537.23	55620.49
537.40	55309.20
537.57	55573.68
537.74	55587.72
537.91	55955.19
538.08	55686.03
538.25	55407.50
538.42	55833.48
538.59	55985.61
538.75	55688.37
538.92	55711.77
539.09	55852.20
539.26	55826.46
539.43	55800.71
539.60	56306.27
539.77	56165.84
539.94	56196.26
540.11	56444.36
540.28	56392.87
540.44	56278.18
540.61	56425.64
540.78	56292.22
540.95	56385.85
541.12	56156.47
541.29	56158.81
541.46	56671.39
541.62	56287.54
541.79	56528.62
541.96	56189.24
542.13	56395.21
542.30	56601.18
542.47	56484.15
542.63	56802.46
542.80	56872.68
542.97	56985.02
543.14	57010.77
543.31	56996.73
543.48	57109.07
543.64	57289.29
543.81	57181.63
543.98	57158.22
544.15	57050.56
544.32	57549.09
544.48	57523.35
544.65	57233.12
544.82	57158.22
544.99	56917.15
545.16	57350.15
545.32	57059.92
545.49	57485.90
545.66	57558.45
545.83	57331.42
546.00	57488.24
546.16	57633.35
546.33	57282.27
546.50	57296.31
546.67	57607.61
546.83	57027.15
547.00	57652.08
547.17	57544.41
547.34	57675.48
547.50	57563.14
547.67	57900.17
547.84	57785.49
548.00	57872.09
548.17	58085.07
548.34	57928.26
548.51	58120.18
548.67	57956.35
548.84	57977.41
549.01	58066.35
549.18	58012.52
549.34	57935.28
549.51	58159.97
549.68	58066.35
549.84	58312.11
550.01	58342.53
550.18	58075.71
550.34	58450.20
550.51	58286.36
550.68	58220.83
550.84	58218.49
551.01	58431.47
551.18	58319.13
551.34	58492.33
551.51	58536.80
551.68	58499.35
551.84	58497.01
552.01	58216.14
552.18	58527.44
552.34	58424.45
552.51	58419.77
552.68	58515.73
552.84	58351.90
553.01	58808.30
553.18	58473.60
553.34	58726.38
553.51	58653.82
553.67	58628.08
553.84	58700.64
554.01	58824.68
554.17	58733.40
554.34	58899.58
554.51	58726.38
554.67	58766.17
554.84	58864.47
555.00	58812.98
555.17	58733.40
555.33	58862.13
555.50	58754.47
555.67	58567.23
555.83	58651.48
556.00	58962.78
556.16	59391.09
556.33	59437.90
556.50	59063.42
556.66	59185.13
556.83	59072.78
556.99	59393.43
557.16	59372.37
557.32	59419.18
557.49	59419.18
557.65	59140.66
557.82	59281.09
557.98	59302.15
558.15	59391.09
558.32	59405.14
558.48	59337.26
558.65	59269.39
558.81	59391.09
558.98	59267.05
559.14	59475.35
559.31	59447.27
559.47	59398.12
559.64	59615.79
559.80	59601.74
559.97	59388.75
560.13	59477.69
560.30	59583.02
560.46	59522.16
560.63	59723.45
560.79	59519.82
560.96	59496.42
561.12	59657.91
561.29	59676.64
561.45	59800.69
561.61	59601.74
561.78	59674.30
561.94	59646.21
562.11	59767.92
562.27	59849.84
562.44	59693.02
562.60	60020.70
562.77	59920.05
562.93	59512.80
563.10	59945.80
563.26	59690.68
563.42	60004.31
563.59	59852.18
563.75	59742.17
563.92	59985.59
564.08	59786.64
564.24	60203.26
564.41	60001.97
564.57	60156.45
564.74	60004.31
564.90	59966.87
565.07	60030.06
565.23	59922.40
565.39	60025.38
565.56	59945.80
565.72	59826.43
565.88	60104.96
566.05	60006.65
566.21	60074.53
566.38	60018.36
566.54	60130.70
566.70	60203.26
566.87	60243.05
567.03	60058.15
567.19	60282.84
567.36	60158.79
567.52	59994.95
567.68	60446.68
567.85	60179.85
568.01	60137.72
568.17	60111.98
568.34	60144.75
568.50	60165.81
568.66	60111.98
568.83	60196.24
568.99	60144.75
569.15	60128.36
569.32	60308.58
569.48	60266.45
569.64	60247.73
569.81	60322.63
569.97	60175.17
570.13	60374.12
570.30	60104.96
570.46	60301.56
570.62	60484.12
570.78	60491.15
570.95	60308.58
571.11	60463.06
571.27	60467.74
571.43	60203.26
571.60	60385.82
571.76	60317.95
571.92	60444.33
572.09	60350.71
572.25	60390.50
572.41	60477.10
572.57	60479.44
572.74	60889.04
572.90	60479.44
573.06	60556.68
573.22	60446.68
573.38	60465.40
573.55	60516.89
573.71	60687.75
573.87	60474.76
574.03	60460.72
574.20	60509.87
574.36	60294.54
574.52	60680.73
574.68	60699.45
574.84	60835.20
575.01	60615.19
575.17	60598.81
575.33	60444.33
575.49	60678.39
575.65	60449.02
575.82	60804.78
575.98	60659.66
576.14	60938.19
576.30	60767.33
576.46	60601.15
576.62	60474.76
576.79	60643.28
576.95	60535.62
577.11	60683.07
577.27	60704.13
577.43	60748.60
577.59	60701.79
577.75	60535.62
577.92	60376.46
578.08	60603.49
578.24	60568.38
578.40	60837.54
578.56	60795.42
578.72	60851.59
578.88	60973.30
579.04	60926.49
579.21	60687.75
579.37	60762.65
579.53	60739.24
579.69	60687.75
579.85	60568.38
580.01	60753.29
580.17	60350.71
580.33	60814.14
580.49	60650.30
580.65	60879.67
580.82	60844.57
580.98	60701.79
581.14	60493.49
581.30	60781.37
581.46	60673.71
581.62	60680.73
581.78	60910.10
581.94	60776.69
582.10	60687.75
582.26	60736.90
582.42	60732.22
582.58	60727.54
582.74	60626.90
582.90	60788.39
583.06	60715.84
583.22	60587.11
583.38	60814.14
583.54	60706.47
583.70	60584.77
583.86	60804.78
584.02	60556.68
584.18	60919.46
584.34	60783.71
584.50	60853.93
584.66	60910.10
584.82	60584.77
584.98	60874.99
585.14	60893.72
585.30	60757.97
585.46	60837.54
585.62	61118.41
585.78	61076.28
585.94	60722.86
586.10	60828.18
586.26	60743.92
586.42	60898.40
586.58	60987.34
586.74	61113.73
586.90	60867.97
587.06	60755.63
587.22	60938.19
587.38	61137.13
587.54	60975.64
587.70	61057.56
587.86	60980.32
588.02	60725.20
588.18	60977.98
588.34	60783.71
588.49	60952.23
