SpectraSuite Data File
++++++++++++++++++++++++++++++++++++
Date: Fri Oct 25 11:33:38 EDT 2013
User: price-jones
Dark Spectrum Present: No
Reference Spectrum Present: No
Number of Sampled Component Spectra: 1
Spectrometers: USB2+H05261
Integration Time (usec): 100000 (USB2+H05261)
Spectra Averaged: 1 (USB2+H05261)
Boxcar Smoothing: 0 (USB2+H05261)
Correct for Electrical Dark: No (USB2+H05261)
Strobe/Lamp Enabled: No (USB2+H05261)
Correct for Detector Non-linearity: No (USB2+H05261)
Correct for Stray Light: No (USB2+H05261)
Number of Pixels in Processed Spectrum: 2048
>>>>>Begin Processed Spectral Data<<<<<
365.73	311.29
365.92	311.29
366.12	311.29
366.32	187.24
366.52	184.90
366.72	177.88
366.91	222.35
367.11	231.71
367.31	180.22
367.51	166.18
367.70	147.45
367.90	180.22
368.10	159.16
368.30	149.79
368.49	135.75
368.69	196.60
368.89	131.07
369.09	290.23
369.28	208.31
369.48	156.82
369.68	222.35
369.87	208.31
370.07	264.48
370.27	344.06
370.47	346.40
370.66	465.77
370.86	582.79
371.06	559.39
371.25	566.41
371.45	543.00
371.65	543.00
371.84	554.71
372.04	489.17
372.24	606.20
372.44	505.56
372.63	615.56
372.83	587.47
373.03	582.79
373.22	587.47
373.42	592.16
373.62	582.79
373.81	608.54
374.01	678.76
374.21	655.35
374.40	627.26
374.60	594.50
374.79	641.31
374.99	620.24
375.19	564.07
375.38	657.69
375.58	622.58
375.78	716.20
375.97	669.39
376.17	699.82
376.37	620.24
376.56	629.60
376.76	734.93
376.95	617.90
377.15	678.76
377.35	674.07
377.54	610.88
377.74	711.52
377.93	746.63
378.13	720.88
378.33	699.82
378.52	592.16
378.72	725.57
378.91	779.40
379.11	774.72
379.31	699.82
379.50	706.84
379.70	737.27
379.89	734.93
380.09	718.54
380.28	835.57
380.48	741.95
380.68	760.67
380.87	826.21
381.07	711.52
381.26	751.31
381.46	770.04
381.65	854.30
381.85	706.84
382.04	809.83
382.24	725.57
382.43	802.80
382.63	788.76
382.83	772.38
383.02	802.80
383.22	772.38
383.41	753.65
383.61	784.08
383.80	760.67
384.00	734.93
384.19	884.72
384.39	833.23
384.58	819.19
384.78	849.61
384.97	781.74
385.17	819.19
385.36	873.02
385.56	896.43
385.75	833.23
385.95	842.59
386.14	863.66
386.34	976.00
386.53	851.96
386.72	772.38
386.92	905.79
387.11	919.83
387.31	912.81
387.50	828.55
387.70	910.47
387.89	929.19
388.09	924.51
388.28	889.40
388.48	917.49
388.67	929.19
388.86	922.17
389.06	978.34
389.25	1036.86
389.45	964.30
389.64	898.77
389.84	908.13
390.03	940.90
390.22	1069.62
390.42	931.53
390.61	933.87
390.81	976.00
391.00	1020.47
391.19	1121.12
391.39	1008.77
391.58	1032.18
391.78	1001.75
391.97	990.05
392.16	1062.60
392.36	957.28
392.55	957.28
392.75	1029.84
392.94	1022.81
393.13	943.24
393.33	1081.33
393.52	1036.86
393.71	1083.67
393.91	1093.03
394.10	1125.80
394.29	1130.48
394.49	1039.20
394.68	1041.54
394.88	1111.75
395.07	1174.95
395.26	1062.60
395.46	1116.44
395.65	1130.48
395.84	1128.14
396.04	1263.89
396.23	1193.67
396.42	1181.97
396.62	1238.14
396.81	1128.14
397.00	1235.80
397.19	1160.91
397.39	1181.97
397.58	1273.25
397.77	1306.02
397.97	1294.32
398.16	1308.36
398.35	1275.59
398.55	1327.08
398.74	1299.00
398.93	1284.95
399.12	1210.06
399.32	1224.10
399.51	1401.98
399.70	1245.16
399.90	1289.64
400.09	1357.51
400.28	1378.58
400.47	1404.32
400.67	1486.24
400.86	1392.62
401.05	1434.75
401.24	1511.99
401.44	1390.28
401.63	1427.73
401.82	1397.30
402.01	1430.07
402.21	1432.41
402.40	1451.13
402.59	1488.58
402.78	1425.39
402.97	1474.54
403.17	1603.27
403.36	1547.09
403.55	1528.37
403.74	1619.65
403.93	1586.88
404.13	1537.73
404.32	1584.54
404.51	1664.12
404.70	1605.61
404.89	1621.99
405.09	1706.25
405.28	1640.72
405.47	1652.42
405.66	1732.00
405.85	1724.97
406.05	1727.32
406.24	1703.91
406.43	1769.44
406.62	1778.81
406.81	1802.21
407.00	1767.10
407.20	1724.97
407.39	1879.45
407.58	1837.32
407.77	1834.98
407.96	1877.11
408.15	1900.52
408.34	1975.41
408.54	1895.83
408.73	1877.11
408.92	1921.58
409.11	1989.46
409.30	2008.18
409.49	1984.77
409.68	1891.15
409.87	2001.16
410.07	2029.24
410.26	2120.53
410.45	2087.76
410.64	2076.06
410.83	2059.67
411.02	2038.61
411.21	2139.25
411.40	2076.06
411.59	2228.19
411.78	2305.43
411.98	2272.66
412.17	2202.44
412.36	2258.62
412.55	2392.03
412.74	2275.00
412.93	2279.68
413.12	2331.17
413.31	2399.05
413.50	2441.18
413.69	2296.07
413.88	2520.76
414.07	2567.57
414.26	2590.97
414.45	2621.40
414.64	2590.97
414.83	2509.05
415.02	2565.23
415.22	2649.49
415.41	2590.97
415.60	2572.25
415.79	2654.17
415.98	2675.23
416.17	2654.17
416.36	2785.24
416.55	2768.85
416.74	2841.41
416.93	2785.24
417.12	2867.16
417.31	2827.37
417.50	2869.50
417.69	2806.30
417.88	2909.29
418.07	3028.65
418.26	3028.65
418.45	2906.95
418.64	3035.67
418.83	3042.70
419.02	3073.12
419.21	3126.96
419.39	3073.12
419.58	2991.20
419.77	3030.99
419.96	3152.70
420.15	3129.30
420.34	3204.19
420.53	3276.75
420.72	3243.98
420.91	3335.26
421.10	3136.32
421.29	3323.56
421.48	3220.58
421.67	3485.06
421.86	3267.39
422.05	3314.20
422.24	3246.32
422.43	3445.27
422.61	3398.46
422.80	3403.14
422.99	3290.79
423.18	3332.92
423.37	3588.04
423.56	3482.72
423.75	3363.35
423.94	3234.62
424.13	3227.60
424.32	3143.34
424.50	3529.53
424.69	3538.89
424.88	3445.27
425.07	3302.50
425.26	3410.16
425.45	3400.80
425.64	3412.50
425.83	3487.40
426.01	3609.11
426.20	3578.68
426.39	3602.08
426.58	3520.17
426.77	3559.95
426.96	3599.74
427.15	3433.57
427.33	3712.09
427.52	3581.02
427.71	3723.79
427.90	3534.21
428.09	3648.90
428.28	3805.71
428.46	3604.42
428.65	3805.71
428.84	3868.91
429.03	3868.91
429.22	3665.28
429.40	3693.37
429.59	3777.62
429.78	3506.12
429.97	3611.45
430.16	3873.59
430.34	3829.12
430.53	3894.65
430.72	3992.95
430.91	3934.44
431.10	3925.08
431.28	3946.14
431.47	3957.85
431.66	3911.04
431.85	3894.65
432.03	3962.53
432.22	3995.29
432.41	4032.74
432.60	4070.19
432.79	4028.06
432.97	4152.11
433.16	4234.03
433.35	4194.24
433.54	4231.69
433.72	4088.92
433.91	4191.90
434.10	4241.05
434.28	4196.58
434.47	4224.67
434.66	4322.97
434.85	4175.52
435.03	4344.03
435.22	4276.16
435.41	4442.34
435.59	4299.56
435.78	4362.76
435.97	4311.27
436.16	4379.14
436.34	4409.57
436.53	4285.52
436.72	4512.55
436.90	4407.23
437.09	4447.02
437.28	4358.08
437.46	4404.89
437.65	4482.13
437.84	4674.05
438.02	4622.56
438.21	4667.03
438.40	4587.45
438.58	4706.82
438.77	4856.61
438.96	4695.11
439.14	4772.35
439.33	4933.85
439.52	4873.00
439.70	4947.89
439.89	4985.34
440.08	5165.56
440.26	5135.14
440.45	4997.04
440.63	4971.30
440.82	5158.54
441.01	5083.64
441.19	5266.21
441.38	5268.55
441.57	5203.01
441.75	5298.97
441.94	5420.68
442.12	5245.14
442.31	5504.94
442.50	5427.70
442.68	5303.65
442.87	5401.96
443.05	5383.23
443.24	5867.72
443.43	5584.52
443.61	5338.76
443.80	5738.99
443.98	5542.39
444.17	5423.02
444.35	5584.52
444.54	5755.38
444.73	5654.73
444.91	5715.59
445.10	5640.69
445.28	5526.00
445.47	5666.44
445.65	5694.52
445.84	5790.49
446.02	5659.42
446.21	5746.02
446.39	5582.18
446.58	5731.97
446.77	5603.24
446.95	5568.13
447.14	5865.38
447.32	5863.04
447.51	5598.56
447.69	5643.03
447.88	5832.62
448.06	5713.25
448.25	5863.04
448.43	5944.96
448.62	5841.98
448.80	5865.38
448.99	5881.77
449.17	5893.47
449.36	5905.17
449.54	5956.66
449.73	6104.12
449.91	6211.78
450.10	6047.94
450.28	6097.10
450.46	6256.25
450.65	6045.60
450.83	6179.01
451.02	6279.66
451.20	6265.61
451.39	6146.25
451.57	6080.71
451.76	6190.72
451.94	6211.78
452.13	6382.64
452.31	6244.55
452.49	6300.72
452.68	6340.51
452.86	6251.57
453.05	6324.13
453.23	6401.37
453.42	6197.74
453.60	6225.82
453.78	6251.57
453.97	6408.39
454.15	6387.32
454.34	6408.39
454.52	6689.25
454.70	6640.10
454.89	6644.78
455.07	6520.73
455.26	6637.76
455.44	6658.82
455.62	6757.13
455.81	6707.98
455.99	6726.70
456.17	6712.66
456.36	7047.35
456.54	6902.24
456.73	7105.87
456.91	6991.18
457.09	7030.97
457.28	7185.44
457.46	6916.28
457.64	7019.27
457.83	7112.89
458.01	7047.35
458.19	6988.84
458.38	7061.40
458.56	7140.97
458.74	7105.87
458.93	7372.69
459.11	7330.56
459.29	7222.89
459.48	7204.17
459.66	7358.64
459.84	7419.50
460.03	7456.95
460.21	7522.48
460.39	7370.35
460.57	7382.05
460.76	7316.51
460.94	7597.38
461.12	7566.95
461.31	7396.09
461.49	7349.28
461.67	7632.49
461.85	7646.53
462.04	7506.10
462.22	7962.50
462.40	7796.32
462.59	7712.07
462.77	7740.15
462.95	7789.30
463.13	7709.72
463.32	7786.96
463.50	7758.88
463.68	7889.95
463.86	7882.92
464.05	7705.04
464.23	7880.58
464.41	7892.29
464.59	7852.50
464.78	8292.52
464.96	7887.61
465.14	7866.54
465.32	8121.66
465.50	8142.72
465.69	8128.68
465.87	8219.96
466.05	8400.18
466.23	8229.32
466.41	8063.15
466.60	8194.22
466.78	8212.94
466.96	8056.12
467.14	8077.19
467.32	8269.11
467.51	8308.90
467.69	8292.52
467.87	8423.59
468.05	8308.90
468.23	8400.18
468.41	8306.56
468.60	8402.52
468.78	8606.15
468.96	8428.27
469.14	8571.04
469.32	8573.38
469.50	8606.15
469.69	8741.90
469.87	8809.78
470.05	8847.22
470.23	8795.73
470.41	8753.60
470.59	8961.91
470.77	8802.75
470.95	9078.94
471.14	9100.00
471.32	8788.71
471.50	9102.34
471.68	9048.51
471.86	8992.34
472.04	8980.64
472.22	9259.16
472.40	9069.58
472.58	9329.38
472.77	9259.16
472.95	9535.34
473.13	9528.32
473.31	9383.21
473.49	9430.02
473.67	9523.64
473.85	9647.69
474.03	9825.57
474.21	9806.84
474.39	9760.03
474.57	9785.78
474.75	9565.77
474.93	9872.38
475.12	9813.87
475.30	9954.30
475.48	9902.81
475.66	10061.96
475.84	9977.70
476.02	10209.42
476.20	10207.08
476.38	10401.34
476.56	10637.73
476.74	10567.52
476.92	10413.04
477.10	10487.94
477.28	10700.93
477.46	10494.96
477.64	10867.11
477.82	10986.47
478.00	11152.65
478.18	11178.40
478.36	11157.33
478.54	11236.91
478.72	11501.39
478.90	11569.27
479.08	11527.14
479.26	11840.77
479.44	11712.04
479.62	11913.33
479.80	11847.79
479.98	11810.34
480.16	12241.00
480.34	12020.99
480.52	12690.38
480.70	12266.75
480.88	12208.23
481.06	12372.07
481.24	12276.11
481.41	12711.45
481.59	12657.62
481.77	12800.39
481.95	12903.37
482.13	12968.91
482.31	13090.62
482.49	13518.93
482.67	13359.78
482.85	13448.72
483.03	13680.43
483.21	13692.13
483.39	13928.53
483.57	13767.03
483.74	13713.20
483.92	13987.04
484.10	14026.83
484.28	14188.33
484.46	14406.00
484.64	15016.88
484.82	14281.95
485.00	14836.66
485.18	14925.60
485.35	15262.63
485.53	15234.55
485.71	15295.40
485.89	15480.30
486.07	15197.10
486.25	15756.49
486.43	15630.10
486.61	15609.03
486.78	15712.02
486.96	15894.58
487.14	16039.69
487.32	16198.85
487.50	16453.97
487.68	16259.70
487.85	16779.30
488.03	16507.80
488.21	16917.39
488.39	17062.51
488.57	16996.97
488.75	17125.70
488.92	17493.16
489.10	17631.26
489.28	17671.04
489.46	17781.05
489.64	17912.12
489.81	18164.90
489.99	18450.44
490.17	18200.01
490.35	18558.11
490.53	18473.85
490.70	18838.97
490.88	18469.17
491.06	18888.12
491.24	19005.15
491.41	19183.03
491.59	19220.48
491.77	19283.67
491.95	19597.31
492.13	19658.16
492.30	19791.57
492.48	19742.42
492.66	19892.21
492.84	19810.29
493.01	20236.27
493.19	20245.63
493.37	20449.26
493.54	20332.23
493.72	20526.50
493.90	20587.35
494.08	20669.27
494.25	20875.24
494.43	21102.27
494.61	21263.77
494.79	21207.59
494.96	21064.82
495.14	21301.22
495.32	21518.89
495.49	21865.28
495.67	21493.14
495.85	22183.60
496.02	22380.20
496.20	22242.11
496.38	22560.42
496.55	22565.10
496.73	22815.54
496.91	22644.68
497.09	23192.37
497.26	22904.48
497.44	22747.67
497.62	23094.07
497.79	23604.30
497.97	23459.19
498.14	23339.82
498.32	23929.64
498.50	23522.38
498.67	24081.77
498.85	23840.70
499.03	23955.38
499.20	24135.60
499.38	24219.86
499.56	24252.63
499.73	24491.37
499.91	24512.43
500.08	24486.68
500.26	24659.88
500.44	24542.86
500.61	24917.34
500.79	24924.36
500.97	25048.41
501.14	25242.68
501.32	25310.55
501.49	25256.72
501.67	25345.66
501.84	25813.77
502.02	25816.11
502.20	25596.10
502.37	25898.03
502.55	25874.62
502.72	25883.98
502.90	26148.46
503.07	25898.03
503.25	26274.85
503.43	25977.61
503.60	26370.82
503.78	26422.31
503.95	26361.45
504.13	26422.31
504.30	26934.88
504.48	26661.04
504.65	27091.70
504.83	27175.96
505.01	27555.13
505.18	26850.63
505.36	27531.72
505.53	26927.86
505.71	27384.27
505.88	27667.47
506.06	27417.04
506.23	27431.08
506.41	27538.74
506.58	27615.98
506.76	27868.76
506.93	28070.04
507.11	27828.97
507.28	28093.45
507.46	28334.53
507.63	28273.67
507.81	28533.47
507.98	28371.97
508.16	28430.49
508.33	28449.21
508.50	28554.54
508.68	28851.78
508.85	29186.48
509.03	28837.74
509.20	28713.69
509.38	29319.89
509.55	29092.86
509.73	29703.74
509.90	29233.29
510.08	29640.54
510.25	29610.12
510.42	30125.04
510.60	30073.54
510.77	29617.14
510.95	30265.47
511.12	29621.82
511.30	29883.96
511.47	30125.04
511.64	30005.67
511.82	30192.91
511.99	30361.43
512.17	30569.74
512.34	30424.62
512.51	30986.35
512.69	30920.82
512.86	30735.92
513.04	31028.48
513.21	31136.15
513.38	30960.61
513.56	31426.37
513.73	31384.24
513.90	31199.34
514.08	30904.43
514.25	31391.26
514.43	31440.42
514.60	31707.24
514.77	32006.83
514.95	31658.09
515.12	31824.26
515.29	31950.65
515.47	32570.90
515.64	32016.19
515.81	31791.50
515.99	32063.00
516.16	32711.33
516.33	32570.90
516.51	32772.18
516.68	32481.95
516.85	32575.58
517.03	32739.41
517.20	32685.58
517.37	32563.87
517.54	32779.20
517.72	33163.05
517.89	32889.21
518.06	32807.29
518.24	33469.66
518.41	33277.74
518.58	33186.46
518.75	33109.22
518.93	33242.63
519.10	33251.99
519.27	33441.57
519.45	33654.56
519.62	33654.56
519.79	33722.44
519.96	33628.82
520.14	33839.47
520.31	34094.58
520.48	33802.02
520.65	34424.60
520.83	34361.40
521.00	34506.52
521.17	34410.56
521.34	34696.10
521.52	34480.77
521.69	34672.70
521.86	34675.04
522.03	34506.52
522.20	35431.03
522.38	35283.58
522.55	35138.46
522.72	35103.35
522.89	34960.58
523.07	35515.29
523.24	35332.73
523.41	35793.81
523.58	35550.40
523.75	35824.24
523.92	35377.20
524.10	35639.34
524.27	35332.73
524.44	35920.20
524.61	35545.72
524.78	35945.95
524.96	36147.23
525.13	35976.37
525.30	36259.58
525.47	36304.05
525.64	36231.49
525.81	36407.03
525.98	36299.37
526.16	36315.75
526.33	36484.27
526.50	37167.71
526.67	36254.90
526.84	36617.68
527.01	36573.21
527.18	36924.29
527.36	37053.02
527.53	37148.98
527.70	37223.88
527.87	37373.67
528.04	36891.52
528.21	37380.70
528.38	37305.80
528.55	37333.89
528.72	37214.52
528.89	37230.90
529.07	37186.43
529.24	36847.05
529.41	37427.51
529.58	37539.85
529.75	37371.33
529.92	38078.18
530.09	37771.57
530.26	37652.20
530.43	38005.62
530.60	38213.93
530.77	37874.55
530.94	38022.00
531.11	37846.46
531.28	37961.15
531.46	38422.23
531.63	38249.03
531.80	37965.83
531.97	38567.35
532.14	38188.18
532.31	38333.29
532.48	39016.73
532.65	38876.30
532.82	38363.72
532.99	38562.67
533.16	38550.96
533.33	38518.20
533.50	38602.46
533.67	38969.92
533.84	38462.02
534.01	38309.89
534.18	38682.03
534.35	39196.95
534.52	39267.17
534.69	39648.68
534.86	39428.66
535.03	39515.26
535.20	39313.98
535.37	39515.26
535.54	40009.12
535.71	39819.53
535.88	39482.50
536.05	39728.25
536.22	40224.45
536.38	39566.76
536.55	39454.41
536.72	39737.62
536.89	39889.75
537.06	39831.24
537.23	40048.91
537.40	40163.59
537.57	40051.25
537.74	39924.86
537.91	40341.47
538.08	39789.11
538.25	40179.98
538.42	40423.39
538.59	40942.99
538.75	40062.95
538.92	40486.59
539.09	40734.68
539.26	40451.48
539.43	40811.92
539.60	40570.85
539.77	40814.26
539.94	40802.56
540.11	41008.53
540.28	40987.46
540.44	40666.81
540.61	40732.34
540.78	40502.97
540.95	41193.43
541.12	40765.11
541.29	40755.75
541.46	41078.74
541.62	41158.32
541.79	41535.15
541.96	40825.96
542.13	40790.86
542.30	41083.42
542.47	41500.04
542.63	41366.63
542.80	42050.06
542.97	42190.50
543.14	41907.29
543.31	41848.78
543.48	41881.55
543.64	41881.55
543.81	42195.18
543.98	41818.35
544.15	41661.54
544.32	42213.90
544.48	42637.54
544.65	42230.29
544.82	42195.18
544.99	42267.73
545.16	42377.74
545.32	42211.56
545.49	42370.72
545.66	42763.93
545.83	42728.82
546.00	42656.26
546.16	42457.32
546.33	42588.39
546.50	42445.62
546.67	42677.33
546.83	42557.96
547.00	42459.66
547.17	42862.23
547.34	42562.64
547.50	43290.55
547.67	42759.25
547.84	43002.66
548.00	43356.08
548.17	43679.08
548.34	43189.91
548.51	43283.53
548.67	43360.76
548.84	43426.30
549.01	43751.63
549.18	43452.05
549.34	43309.27
549.51	43723.55
549.68	43704.82
549.84	43150.12
550.01	43503.54
550.18	43548.01
550.34	43866.32
550.51	43753.97
550.68	43709.50
550.84	43428.64
551.01	44041.86
551.18	43505.88
551.34	43646.31
551.51	44245.49
551.68	43817.17
551.84	43753.97
552.01	43810.15
552.18	43903.77
552.34	43878.02
552.51	44128.46
552.68	44004.41
552.84	44072.29
553.01	44196.34
553.18	44062.93
553.34	44051.22
553.51	44254.85
553.67	44168.25
553.84	44465.50
554.01	44566.14
554.17	44240.81
554.34	44814.24
554.51	44877.43
554.67	44741.68
554.84	44952.33
555.00	44701.89
555.17	44502.95
555.33	45441.50
555.50	44872.75
555.67	44638.70
555.83	44470.18
556.00	44978.07
556.16	45181.70
556.33	44928.92
556.50	44781.47
556.66	44619.97
556.83	44488.90
556.99	45390.01
557.16	44957.01
557.32	44996.80
557.49	45357.24
557.65	44657.42
557.82	44809.56
557.98	45170.00
558.15	45057.65
558.32	45471.93
558.48	45137.23
558.65	45249.58
558.81	45551.51
558.98	45537.46
559.14	45315.11
559.31	45097.44
559.47	45228.51
559.64	45813.65
559.80	45378.31
559.97	45390.01
560.13	45113.83
560.30	45694.28
560.46	45900.25
560.63	46169.41
560.79	45504.70
560.96	45979.82
561.12	45853.44
561.29	45769.18
561.45	45727.05
561.61	45495.33
561.78	45872.16
561.94	45820.67
562.11	45750.45
562.27	45471.93
562.44	45991.53
562.60	46078.13
562.77	46047.70
562.93	45841.73
563.10	46061.74
563.26	45858.12
563.42	46473.68
563.59	45862.80
563.75	45743.43
563.92	45890.88
564.08	45537.46
564.24	46028.98
564.41	46164.73
564.57	46176.43
564.74	46131.96
564.90	45984.51
565.07	46099.19
565.23	46234.94
565.39	46019.61
565.56	46693.69
565.72	46153.02
565.88	46150.68
566.05	46642.20
566.21	46358.99
566.38	45867.48
566.54	46391.76
566.70	46328.56
566.87	46344.95
567.03	46223.24
567.19	46195.15
567.36	46396.44
567.52	46518.15
567.68	46995.62
567.85	46576.66
568.01	46581.34
568.17	46415.16
568.34	46499.42
568.50	46564.96
568.66	46588.36
568.83	46490.06
568.99	46550.91
569.15	46677.30
569.32	46307.50
569.48	46541.55
569.64	46808.37
569.81	46623.47
569.97	46534.53
570.13	47040.09
570.30	46834.12
570.46	46513.47
570.62	46937.10
570.78	46855.18
570.95	46782.63
571.11	47227.33
571.27	46883.27
571.43	46520.49
571.60	46768.58
571.76	46707.73
571.92	46625.81
572.09	46663.26
572.25	46710.07
572.41	46911.36
572.57	46913.70
572.74	47119.66
572.90	46799.01
573.06	47040.09
573.22	46927.74
573.38	46859.87
573.55	46897.31
573.71	47330.31
573.87	47414.57
574.03	46843.48
574.20	47346.70
574.36	47126.69
574.52	47072.85
574.68	46660.92
574.84	47283.50
575.01	47222.65
575.17	47278.82
575.33	47360.74
575.49	46958.17
575.65	47295.21
575.82	47051.79
575.98	47203.92
576.14	47250.74
576.30	47084.56
576.46	47208.61
576.62	46787.31
576.79	47056.47
576.95	47126.69
577.11	46890.29
577.27	46696.03
577.43	46831.78
577.59	47014.34
577.75	46981.57
577.92	46686.67
578.08	47215.63
578.24	47299.89
578.40	47622.88
578.56	47536.28
578.72	47143.07
578.88	47384.15
579.04	47468.40
579.21	46934.76
579.37	47028.38
579.53	46923.06
579.69	47117.32
579.85	47290.52
580.01	47283.50
580.17	47007.32
580.33	47276.48
580.49	47407.55
580.65	47356.06
580.82	47295.21
580.98	47133.71
581.14	46906.68
581.30	47372.44
581.46	47040.09
581.62	46728.80
581.78	46916.04
581.94	47267.12
582.10	47119.66
582.26	47538.62
582.42	46873.91
582.58	47601.82
582.74	47718.84
582.90	47487.13
583.06	47550.32
583.22	47320.95
583.38	47618.20
583.54	47477.77
583.70	47468.40
583.86	47484.79
584.02	47667.35
584.18	47772.67
584.34	47636.92
584.50	47585.43
584.66	47587.77
584.82	47838.21
584.98	48039.50
585.14	47784.38
585.30	47297.55
585.46	47674.37
585.62	47632.24
585.78	47608.84
585.94	47129.03
586.10	47533.94
586.26	47079.88
586.42	47178.18
586.58	47767.99
586.74	47395.85
586.90	47573.73
587.06	47107.96
587.22	47688.42
587.38	47569.05
587.54	47922.47
587.70	47592.45
587.86	47508.19
588.02	47356.06
588.18	47173.50
588.34	47330.31
588.49	47784.38
588.65	47767.99
588.81	47459.04
588.97	47618.20
589.13	47543.30
589.29	47391.17
589.45	47908.43
589.61	47461.38
589.77	47559.69
589.93	47957.58
590.08	48072.26
