SpectraSuite Data File
++++++++++++++++++++++++++++++++++++
Date: Fri Oct 25 11:23:47 EDT 2013
User: price-jones
Dark Spectrum Present: No
Reference Spectrum Present: No
Number of Sampled Component Spectra: 1
Spectrometers: USB2+H05261
Integration Time (usec): 100000 (USB2+H05261)
Spectra Averaged: 1 (USB2+H05261)
Boxcar Smoothing: 0 (USB2+H05261)
Correct for Electrical Dark: No (USB2+H05261)
Strobe/Lamp Enabled: No (USB2+H05261)
Correct for Detector Non-linearity: No (USB2+H05261)
Correct for Stray Light: No (USB2+H05261)
Number of Pixels in Processed Spectrum: 2048
>>>>>Begin Processed Spectral Data<<<<<
365.73	187.24
365.92	187.24
366.12	187.24
366.32	184.90
366.52	142.77
366.72	72.56
366.91	163.84
367.11	124.05
367.31	152.13
367.51	65.54
367.70	124.05
367.90	140.43
368.10	91.28
368.30	142.77
368.49	180.22
368.69	248.10
368.89	201.29
369.09	154.48
369.28	124.05
369.48	140.43
369.68	102.98
369.87	262.14
370.07	187.24
370.27	257.46
370.47	325.33
370.66	550.03
370.86	615.56
371.06	645.99
371.25	706.84
371.45	585.13
371.65	664.71
371.84	613.22
372.04	653.01
372.24	711.52
372.44	784.08
372.63	784.08
372.83	765.36
373.03	751.31
373.22	704.50
373.42	699.82
373.62	760.67
373.81	791.10
374.01	765.36
374.21	842.59
374.40	767.70
374.60	849.61
374.79	910.47
374.99	826.21
375.19	823.87
375.38	903.45
375.58	823.87
375.78	842.59
375.97	887.06
376.17	950.26
376.37	770.04
376.56	884.72
376.76	868.34
376.95	884.72
377.15	814.51
377.35	814.51
377.54	912.81
377.74	837.91
377.93	816.85
378.13	957.28
378.33	985.37
378.52	919.83
378.72	929.19
378.91	912.81
379.11	866.00
379.31	917.49
379.50	1027.50
379.70	978.34
379.89	919.83
380.09	1027.50
380.28	987.71
380.48	1043.88
380.68	1027.50
380.87	1004.09
381.07	1062.60
381.26	1057.92
381.46	1020.47
381.65	1034.52
381.85	1043.88
382.04	1025.15
382.24	994.73
382.43	1011.11
382.63	1076.65
382.83	1071.97
383.02	1069.62
383.22	1062.60
383.41	1121.12
383.61	1093.03
383.80	1137.50
384.00	1090.69
384.19	1083.67
384.39	1081.33
384.58	1188.99
384.78	1170.27
384.97	1144.52
385.17	1128.14
385.36	1174.95
385.56	1226.44
385.75	1081.33
385.95	1245.16
386.14	1245.16
386.34	1109.41
386.53	1160.91
386.72	1219.42
386.92	1207.72
387.11	1249.85
387.31	1254.53
387.50	1231.12
387.70	1214.74
387.89	1198.35
388.09	1167.93
388.28	1193.67
388.48	1390.28
388.67	1214.74
388.86	1245.16
389.06	1315.38
389.25	1268.57
389.45	1284.95
389.64	1341.13
389.84	1479.22
390.03	1469.86
390.22	1380.92
390.42	1380.92
390.61	1420.71
390.81	1455.81
391.00	1404.32
391.19	1479.22
391.39	1399.64
391.58	1451.13
391.78	1444.11
391.97	1476.88
392.16	1371.55
392.36	1526.03
392.55	1584.54
392.75	1474.54
392.94	1488.58
393.13	1544.75
393.33	1460.49
393.52	1533.05
393.71	1514.33
393.91	1589.22
394.10	1610.29
394.29	1633.69
394.49	1563.48
394.68	1631.35
394.88	1661.78
395.07	1603.27
395.26	1624.33
395.46	1696.89
395.65	1666.46
395.84	1713.27
396.04	1755.40
396.23	1764.76
396.42	1764.76
396.62	1858.39
396.81	1837.32
397.00	1720.29
397.19	1856.04
397.39	1849.02
397.58	1802.21
397.77	1776.47
397.97	1886.47
398.16	1783.49
398.35	1933.28
398.55	1797.53
398.74	1858.39
398.93	1884.13
399.12	1963.71
399.32	1982.43
399.51	2050.31
399.70	1963.71
399.90	1914.56
400.09	2118.18
400.28	2017.54
400.47	1914.56
400.67	2047.97
400.86	2010.52
401.05	2031.58
401.24	2115.84
401.44	2150.95
401.63	2127.55
401.82	2146.27
402.01	2108.82
402.21	2165.00
402.40	2214.15
402.59	2181.38
402.78	2183.72
402.97	2200.10
403.17	2237.55
403.36	2239.89
403.55	2286.70
403.74	2356.92
403.93	2415.43
404.13	2356.92
404.32	2349.90
404.51	2408.41
404.70	2455.22
404.89	2363.94
405.09	2504.37
405.28	2473.95
405.47	2441.18
405.66	2506.71
405.85	2523.10
406.05	2530.12
406.24	2490.33
406.43	2509.05
406.62	2672.89
406.81	2663.53
407.00	2495.01
407.20	2588.63
407.39	2654.17
407.58	2689.28
407.77	2794.60
407.96	2661.19
408.15	2752.47
408.34	2700.98
408.54	2813.32
408.73	2857.79
408.92	2745.45
409.11	2906.95
409.30	2881.20
409.49	2813.32
409.68	3014.61
409.87	3038.02
410.07	2918.65
410.26	3016.95
410.45	3162.06
410.64	3117.59
410.83	2965.46
411.02	3082.49
411.21	3129.30
411.40	3169.09
411.59	3105.89
411.78	3211.22
411.98	3232.28
412.17	3213.56
412.36	3365.69
412.55	3295.47
412.74	3386.76
412.93	3417.18
413.12	3456.97
413.31	3517.83
413.50	3471.01
413.69	3417.18
413.88	3669.96
414.07	3506.12
414.26	3632.51
414.45	3808.05
414.64	3618.47
414.83	3770.60
415.02	3873.59
415.22	3754.22
415.41	3969.55
415.60	3838.48
415.79	3962.53
415.98	3915.72
416.17	3796.35
416.36	4037.42
416.55	3892.31
416.74	4095.94
416.93	4152.11
417.12	4198.92
417.31	4224.67
417.50	4159.13
417.69	4386.16
417.88	4238.71
418.07	4243.39
418.26	4170.83
418.45	4376.80
418.64	4421.27
418.83	4514.89
419.02	4442.34
419.21	4447.02
419.39	4533.62
419.58	4533.62
419.77	4477.44
419.96	4603.83
420.15	4690.43
420.34	4580.43
420.53	4589.79
420.72	4723.20
420.91	4737.24
421.10	4732.56
421.29	4765.33
421.48	4620.22
421.67	4884.70
421.86	4870.65
422.05	4793.42
422.24	4823.84
422.43	4812.14
422.61	4863.63
422.80	4910.44
422.99	5013.43
423.18	4863.63
423.37	5130.45
423.56	4980.66
423.75	4987.68
423.94	4959.60
424.13	4795.76
424.32	4800.44
424.50	4975.98
424.69	5088.32
424.88	5029.81
425.07	5078.96
425.26	4884.70
425.45	4997.04
425.64	4952.57
425.83	4933.85
426.01	4994.70
426.20	5081.30
426.39	5193.65
426.58	5130.45
426.77	5083.64
426.96	5109.39
427.15	5078.96
427.33	5210.03
427.52	5125.77
427.71	5355.15
427.90	5294.29
428.09	5362.17
428.28	5472.17
428.46	5308.34
428.65	5397.28
428.84	5474.51
429.03	5561.11
429.22	5334.08
429.40	5584.52
429.59	5591.54
429.78	5305.99
429.97	5336.42
430.16	5462.81
430.34	5640.69
430.53	5680.48
430.72	5636.01
430.91	5659.42
431.10	5603.24
431.28	5675.80
431.47	6001.13
431.66	5865.38
431.85	5753.04
432.03	6050.28
432.22	5778.78
432.41	5895.81
432.60	5844.32
432.79	6026.88
432.97	6092.41
433.16	6085.39
433.35	5954.32
433.54	6050.28
433.72	6267.95
433.91	6260.93
434.10	6115.82
434.28	6076.03
434.47	6239.87
434.66	6235.19
434.85	6370.94
435.03	6272.64
435.22	6307.74
435.41	6560.52
435.59	6553.50
435.78	6387.32
435.97	6403.71
436.16	6310.08
436.34	6359.24
436.53	6539.46
436.72	6703.29
436.90	6417.75
437.09	6703.29
437.28	6586.27
437.46	6560.52
437.65	6738.40
437.84	6848.41
438.02	6834.36
438.21	6736.06
438.40	6752.45
438.58	7087.14
438.77	7101.19
438.96	7049.69
439.14	7185.44
439.33	7145.66
439.52	7265.02
439.70	7126.93
439.89	7232.26
440.08	7276.73
440.26	7375.03
440.45	7248.64
440.63	7517.80
440.82	7545.89
441.01	7529.50
441.19	7585.68
441.38	7611.42
441.57	7908.67
441.75	7805.69
441.94	8011.65
442.12	8095.91
442.31	8013.99
442.50	8133.36
442.68	7878.24
442.87	8112.30
443.05	8231.66
443.24	8234.00
443.43	8187.19
443.61	8109.96
443.80	8587.43
443.98	8145.06
444.17	7829.09
444.35	8245.71
444.54	8472.74
444.73	8243.37
444.91	8313.58
445.10	8444.65
445.28	8472.74
445.47	8369.76
445.65	8201.24
445.84	8229.32
446.02	8418.91
446.21	8554.66
446.39	8372.10
446.58	8638.92
446.77	8432.95
446.95	8306.56
447.14	8346.35
447.32	8552.32
447.51	8655.30
447.69	8674.03
447.88	8493.80
448.06	8409.54
448.25	8484.44
448.43	8428.27
448.62	8613.17
448.80	8470.40
448.99	8709.13
449.17	8674.03
449.36	8788.71
449.54	8788.71
449.73	9247.46
449.91	8971.27
450.10	8943.19
450.28	9046.17
450.46	9102.34
450.65	8968.93
450.83	9224.05
451.02	9060.21
451.20	9242.78
451.39	8987.66
451.57	9224.05
451.76	9151.49
451.94	9308.31
452.13	9364.48
452.31	9348.10
452.49	9151.49
452.68	9540.02
452.86	9357.46
453.05	9493.21
453.23	9359.80
453.42	9296.61
453.60	9163.20
453.78	9516.62
453.97	9502.58
454.15	9425.34
454.34	9584.49
454.52	9540.02
454.70	9694.50
454.89	9921.53
455.07	10010.47
455.26	10026.86
455.44	9937.91
455.62	9909.83
455.81	10057.28
455.99	9933.23
456.17	9963.66
456.36	10017.49
456.54	10120.48
456.73	10394.32
456.91	10370.91
457.09	10509.01
457.28	10583.90
457.46	10314.74
457.64	10609.65
457.83	10544.11
458.01	10523.05
458.19	10672.84
458.38	10593.26
458.56	10778.17
458.74	10738.38
458.93	10679.86
459.11	10611.99
459.29	10661.14
459.48	10621.35
459.66	10824.98
459.84	10871.79
460.03	11169.04
460.21	11044.99
460.39	11012.22
460.57	11047.33
460.76	11318.83
460.94	11103.50
461.12	11351.60
461.31	11157.33
461.49	11250.96
461.67	11211.17
461.85	11426.50
462.04	11307.13
462.22	11499.05
462.40	11529.48
462.59	11351.60
462.77	11452.24
462.95	11602.04
463.13	11630.12
463.32	11775.24
463.50	11763.53
463.68	11871.20
463.86	11997.59
464.05	11679.27
464.23	11927.37
464.41	11880.56
464.59	11939.07
464.78	12259.73
464.96	12163.76
465.14	11896.94
465.32	12079.50
465.50	12140.36
465.69	12145.04
465.87	12243.34
466.05	12037.38
466.23	12320.58
466.41	12147.38
466.60	12765.28
466.78	12229.30
466.96	12292.49
467.14	12264.41
467.32	12507.82
467.51	12442.29
467.69	12283.13
467.87	12351.01
468.05	12671.66
468.23	12500.80
468.41	12606.13
468.60	12774.64
468.78	12793.37
468.96	12493.78
469.14	12896.35
469.32	13083.59
469.50	12889.33
469.69	12996.99
469.87	13179.56
470.05	13050.83
470.23	13259.13
470.41	13198.28
470.59	13373.82
470.77	13273.18
470.95	13254.45
471.14	13460.42
471.32	13050.83
471.50	13610.22
471.68	13465.10
471.86	13504.89
472.04	13511.91
472.22	14174.28
472.40	13612.56
472.58	13879.38
472.77	14066.62
472.95	13926.19
473.13	14597.92
473.31	14185.99
473.49	14352.16
473.67	14359.19
473.85	14593.24
474.03	14658.78
474.21	14335.78
474.39	14780.48
474.57	14689.20
474.75	14726.65
474.93	15098.80
475.12	15021.56
475.30	15241.57
475.48	15304.76
475.66	15400.72
475.84	15138.58
476.02	15332.85
476.20	15405.41
476.38	15651.16
476.56	16390.77
476.74	16032.67
476.92	15775.21
477.10	15754.15
477.28	16318.22
477.46	16056.08
477.64	16400.13
477.82	16681.00
478.00	16891.65
478.18	16910.37
478.36	16835.47
478.54	17348.05
478.72	17254.43
478.90	17699.13
479.08	17652.32
479.26	17783.39
479.44	17752.96
479.62	17781.05
479.80	18307.67
479.98	18354.48
480.16	18441.08
480.34	18326.39
480.52	18691.52
480.70	18808.54
480.88	18569.81
481.06	18747.69
481.24	18597.90
481.41	19180.69
481.59	19480.28
481.77	19513.05
481.95	19620.71
482.13	19927.32
482.31	19630.07
482.49	20439.90
482.67	20161.37
482.85	20596.71
483.03	20570.97
483.21	20774.60
483.39	21245.04
483.57	21249.72
483.74	21223.98
483.92	21558.67
484.10	21483.78
484.28	21671.02
484.46	22082.95
484.64	22452.76
484.82	21872.31
485.00	22614.26
485.18	22890.44
485.35	23040.23
485.53	22780.43
485.71	22881.08
485.89	23353.87
486.07	23620.69
486.25	23325.78
486.43	24020.92
486.61	23929.64
486.78	24119.22
486.96	24493.71
487.14	24734.78
487.32	24587.33
487.50	25069.48
487.68	25411.20
487.85	25406.52
488.03	25638.23
488.21	25902.71
488.39	26008.03
488.57	26139.10
488.75	26630.62
488.92	26675.09
489.10	26747.64
489.28	27014.46
489.46	26843.60
489.64	27028.51
489.81	27754.07
489.99	27580.87
490.17	27796.20
490.35	28353.25
490.53	28407.08
490.70	28638.80
490.88	28388.36
491.06	29008.60
491.24	28772.21
491.41	29153.71
491.59	29390.11
491.77	29184.14
491.95	29848.85
492.13	29537.56
492.30	29813.74
492.48	30038.44
492.66	29766.93
492.84	30543.99
493.01	30581.44
493.19	30607.19
493.37	31201.68
493.54	31545.74
493.72	31484.89
493.90	31356.16
494.08	32051.30
494.25	32231.52
494.43	32074.70
494.61	32591.96
494.79	32793.25
494.96	32676.22
495.14	32643.45
495.32	33268.37
495.49	33474.34
495.67	33401.79
495.85	33298.80
496.02	33991.60
496.20	33905.00
496.38	34536.94
496.55	34106.29
496.73	34895.05
496.91	34632.91
497.09	35049.52
497.26	35243.79
497.44	35297.62
497.62	35147.82
497.79	35524.65
497.97	35241.45
498.14	35913.18
498.32	36343.84
498.50	36086.38
498.67	36790.88
498.85	36624.70
499.03	36458.52
499.20	37013.23
499.38	37191.11
499.56	37130.26
499.73	37488.36
499.91	37331.54
500.08	38478.41
500.26	37771.57
500.44	37902.64
500.61	37853.48
500.79	37848.80
500.97	38148.39
501.14	38611.82
501.32	38532.24
501.49	38567.35
501.67	38403.51
501.84	39189.93
502.02	39091.63
502.20	39119.71
502.37	39185.25
502.55	39051.84
502.72	39295.25
502.90	39730.59
503.07	40161.25
503.25	39756.34
503.43	39887.41
503.60	40332.11
503.78	40142.53
503.95	40149.55
504.13	40971.08
504.30	41015.55
504.48	40727.66
504.65	40856.39
504.83	40924.27
505.01	41429.82
505.18	41542.17
505.36	41420.46
505.53	41511.74
505.71	41963.46
505.88	42089.85
506.06	42190.50
506.23	42064.11
506.41	42361.36
506.58	42483.06
506.76	42555.62
506.93	42890.32
507.11	42576.69
507.28	42389.44
507.46	43063.52
507.63	42883.30
507.81	43309.27
507.98	43199.27
508.16	43484.81
508.33	43618.22
508.50	43679.08
508.68	43662.69
508.85	43810.15
509.03	44357.83
509.20	44133.14
509.38	44189.31
509.55	43966.96
509.73	44488.90
509.90	44502.95
510.08	44926.58
510.25	44935.95
510.42	45062.33
510.60	45167.66
510.77	45343.20
510.95	45577.25
511.12	45312.77
511.30	45773.86
511.47	45350.22
511.64	45614.70
511.82	45570.23
511.99	45783.22
512.17	46321.54
512.34	46096.85
512.51	46670.28
512.69	46555.60
512.86	46160.05
513.04	46761.56
513.21	46960.51
513.38	46967.53
513.56	47042.43
513.73	46780.29
513.90	47215.63
514.08	46576.66
514.25	47526.92
514.43	47585.43
514.60	47468.40
514.77	47814.80
514.95	47758.63
515.12	47643.94
515.29	48037.16
515.47	48027.79
515.64	47978.64
515.81	48093.33
515.99	48460.79
516.16	48428.02
516.33	48603.56
516.51	49294.02
516.68	48673.78
516.85	48755.70
517.03	49148.91
517.20	48786.13
517.37	48697.19
517.54	49483.61
517.72	49200.40
517.89	49123.16
518.06	49045.93
518.24	49193.38
518.41	49371.26
518.58	49602.97
518.75	49474.24
518.93	50031.29
519.10	49708.30
519.27	49961.08
519.45	49820.64
519.62	50092.15
519.79	50241.94
519.96	50103.85
520.14	50138.96
520.31	50431.52
520.48	50855.16
520.65	50707.71
520.83	50831.75
521.00	50777.92
521.17	50740.47
521.34	51000.27
521.52	51037.72
521.69	51194.54
521.86	50920.70
522.03	51154.75
522.20	51529.23
522.38	51452.00
522.55	51620.52
522.72	51353.69
522.89	51531.57
523.07	51913.08
523.24	51437.95
523.41	52044.15
523.58	51632.22
523.75	52039.47
523.92	52030.11
524.10	52100.32
524.27	51978.62
524.44	52355.44
524.61	52119.05
524.78	52467.79
524.96	52273.52
525.13	52254.80
525.30	52444.38
525.47	52786.10
525.64	52219.69
525.81	52388.21
525.98	53034.20
526.16	52404.59
526.33	52591.84
526.50	53151.23
526.67	52971.00
526.84	52931.22
527.01	52886.74
527.18	52858.66
527.36	53050.58
527.53	52982.71
527.70	53450.81
527.87	53521.03
528.04	53111.44
528.21	53380.60
528.38	53261.23
528.55	53879.13
528.72	53375.92
528.89	53595.93
529.07	53600.61
529.24	53308.04
529.41	53937.65
529.58	53956.37
529.75	53668.48
529.92	53862.75
530.09	54117.87
530.26	54014.88
530.43	54031.27
530.60	53925.94
530.77	54024.25
530.94	54174.04
531.11	54216.17
531.28	54279.36
531.46	54333.20
531.63	54784.92
531.80	54468.95
531.97	54527.46
532.14	54368.30
532.31	54555.55
532.48	54703.00
532.65	54777.90
532.82	54628.10
532.99	54749.81
533.16	54740.45
533.33	54927.69
533.50	55143.02
533.67	54756.83
533.84	54911.31
534.01	54731.09
534.18	54820.03
534.35	55489.42
534.52	55241.32
534.69	55229.62
534.86	55320.90
535.03	55063.44
535.20	55456.65
535.37	55580.70
535.54	55709.43
535.71	55206.22
535.88	55597.09
536.05	55622.83
536.22	55709.43
536.38	55718.79
536.55	55700.07
536.72	55777.31
536.89	55772.63
537.06	55999.66
537.23	55657.94
537.40	55789.01
537.57	55660.28
537.74	55856.88
537.91	55938.80
538.08	55931.78
538.25	55819.44
538.42	56083.92
538.59	56296.91
538.75	56076.90
538.92	56023.06
539.09	56451.38
539.26	56151.79
539.43	56369.46
539.60	56119.02
539.77	56233.71
539.94	56708.84
540.11	56537.98
540.28	56315.63
540.44	56350.74
540.61	56566.07
540.78	56423.29
540.95	56577.77
541.12	56563.73
541.29	56435.00
541.46	56671.39
541.62	56956.94
541.79	56591.81
541.96	56556.70
542.13	56694.80
542.30	56853.95
542.47	56966.30
542.63	57043.54
542.80	57073.96
542.97	57071.62
543.14	57153.54
543.31	57052.90
543.48	57350.15
543.64	57752.72
543.81	57396.96
543.98	57308.02
544.15	57382.91
544.32	57539.73
544.48	57719.95
544.65	57350.15
544.82	57549.09
544.99	57488.24
545.16	57771.44
545.32	57450.79
545.49	57780.81
545.66	57778.46
545.83	57609.95
546.00	57968.05
546.16	57939.96
546.33	57670.80
546.50	57462.49
546.67	57780.81
546.83	57511.64
547.00	57949.32
547.17	57766.76
547.34	57729.31
547.50	57975.07
547.67	58106.14
547.84	58124.86
548.00	58131.89
548.17	58314.45
548.34	58323.81
548.51	58391.68
548.67	58354.24
548.84	58197.42
549.01	58382.32
549.18	58452.54
549.34	58265.30
549.51	58518.07
549.68	58286.36
549.84	58534.46
550.01	58576.59
550.18	58398.71
550.34	58672.55
550.51	58717.02
550.68	58508.71
550.84	58394.03
551.01	58541.48
551.18	58614.04
551.34	58710.00
551.51	58686.59
551.68	58710.00
551.84	58869.15
552.01	58408.07
552.18	58908.94
552.34	58623.40
552.51	58752.13
552.68	58576.59
552.84	58829.37
553.01	59072.78
553.18	58862.13
553.34	58885.54
553.51	58745.11
553.67	59063.42
553.84	58990.86
554.01	59159.38
554.17	58953.41
554.34	59035.33
554.51	59075.12
554.67	59311.52
554.84	59112.57
555.00	59276.41
555.17	58791.92
555.33	59072.78
555.50	59154.70
555.67	58951.07
555.83	59004.91
556.00	59084.48
556.16	59458.97
556.33	59372.37
556.50	59494.08
556.66	59650.89
556.83	59374.71
556.99	59306.83
557.16	59477.69
557.32	59540.89
557.49	59618.13
557.65	59512.80
557.82	59444.93
557.98	59517.48
558.15	59477.69
558.32	59489.40
558.48	59442.59
558.65	59676.64
558.81	59627.49
558.98	59615.79
559.14	59739.83
559.31	59629.83
559.47	59877.93
559.64	59650.89
559.80	59765.58
559.97	59781.96
560.13	59674.30
560.30	59805.37
560.46	59700.04
560.63	59824.09
560.79	59945.80
560.96	59877.93
561.12	59924.74
561.29	59936.44
561.45	59966.87
561.61	60025.38
561.78	60030.06
561.94	59779.62
562.11	59983.25
562.27	59950.48
562.44	59868.56
562.60	60032.40
562.77	59983.25
562.93	59966.87
563.10	60123.68
563.26	59969.21
563.42	60130.70
563.59	60175.17
563.75	60109.64
563.92	60074.53
564.08	60168.15
564.24	60383.48
564.41	60301.56
564.57	60168.15
564.74	60322.63
564.90	60006.65
565.07	60214.96
565.23	60140.07
565.39	60346.03
565.56	60339.01
565.72	60341.35
565.88	60423.27
566.05	60308.58
566.21	60467.74
566.38	60346.03
566.54	60285.18
566.70	60238.37
566.87	60411.57
567.03	60268.79
567.19	60598.81
567.36	60507.53
567.52	60397.52
567.68	60683.07
567.85	60441.99
568.01	60367.10
568.17	60402.21
568.34	60437.31
568.50	60615.19
568.66	60608.17
568.83	60638.60
568.99	60427.95
569.15	60404.55
569.32	60491.15
569.48	60339.01
569.64	60669.03
569.81	60554.34
569.97	60416.25
570.13	60619.88
570.30	60491.15
570.46	60570.72
570.62	60767.33
570.78	60540.30
570.95	60575.40
571.11	60713.50
571.27	60577.75
571.43	60631.58
571.60	60706.47
571.76	60708.82
571.92	60692.43
572.09	60814.14
572.25	60807.12
572.41	60825.84
572.57	60671.37
572.74	60882.02
572.90	60858.61
573.06	60900.74
573.22	60816.48
573.38	60643.28
573.55	60741.58
573.71	60956.91
573.87	60680.73
574.03	60432.63
574.20	60760.31
574.36	60631.58
574.52	60736.90
574.68	60877.33
574.84	60935.85
575.01	60926.49
575.17	60687.75
575.33	60807.12
575.49	60652.64
575.65	60952.23
575.82	60753.29
575.98	60938.19
576.14	61038.83
576.30	61001.38
576.46	60851.59
576.62	60608.17
576.79	60996.70
576.95	60825.84
577.11	60896.06
577.27	61066.92
577.43	60837.54
577.59	61031.81
577.75	60732.22
577.92	60725.20
578.08	60786.05
578.24	60893.72
578.40	61120.75
578.56	61055.21
578.72	61123.09
578.88	61195.65
579.04	60905.42
579.21	61010.74
579.37	61034.15
579.53	61270.54
579.69	60767.33
579.85	60912.44
580.01	60893.72
580.17	60882.02
580.33	60982.66
580.49	60980.32
580.65	60973.30
580.82	60755.63
580.98	60772.01
581.14	60959.25
581.30	60926.49
581.46	60987.34
581.62	61076.28
581.78	61045.85
581.94	61076.28
582.10	61151.18
582.26	61099.68
582.42	61029.47
582.58	60973.30
582.74	60844.57
582.90	60912.44
583.06	61127.77
583.22	60832.86
583.38	61132.45
583.54	61209.69
583.70	61195.65
583.86	61087.98
584.02	60973.30
584.18	61113.73
584.34	61111.39
584.50	61151.18
584.66	61043.51
584.82	60823.50
584.98	61183.94
585.14	61153.52
585.30	60917.12
585.46	61064.58
585.62	61329.06
585.78	61116.07
585.94	61020.11
586.10	61249.48
586.26	61080.96
586.42	61190.97
586.58	61190.97
586.74	61312.67
586.90	61195.65
587.06	61024.79
587.22	61401.61
587.38	61183.94
587.54	61179.26
587.70	61258.84
587.86	61176.92
588.02	61305.65
588.18	61256.50
588.34	61188.63
