SpectraSuite Data File
++++++++++++++++++++++++++++++++++++
Date: Fri Oct 25 11:23:03 EDT 2013
User: price-jones
Dark Spectrum Present: No
Reference Spectrum Present: No
Number of Sampled Component Spectra: 1
Spectrometers: USB2+H05261
Integration Time (usec): 100000 (USB2+H05261)
Spectra Averaged: 1 (USB2+H05261)
Boxcar Smoothing: 0 (USB2+H05261)
Correct for Electrical Dark: No (USB2+H05261)
Strobe/Lamp Enabled: No (USB2+H05261)
Correct for Detector Non-linearity: No (USB2+H05261)
Correct for Stray Light: No (USB2+H05261)
Number of Pixels in Processed Spectrum: 2048
>>>>>Begin Processed Spectral Data<<<<<
365.73	189.58
365.92	189.58
366.12	189.58
366.32	187.24
366.52	166.18
366.72	100.64
366.91	98.30
367.11	128.73
367.31	128.73
367.51	117.03
367.70	65.54
367.90	72.56
368.10	110.01
368.30	112.35
368.49	145.11
368.69	140.43
368.89	138.09
369.09	105.32
369.28	156.82
369.48	88.94
369.68	159.16
369.87	215.33
370.07	175.54
370.27	320.65
370.47	278.52
370.66	596.84
370.86	610.88
371.06	624.92
371.25	657.69
371.45	695.14
371.65	678.76
371.84	557.05
372.04	697.48
372.24	697.48
372.44	734.93
372.63	723.23
372.83	781.74
373.03	678.76
373.22	765.36
373.42	819.19
373.62	751.31
373.81	863.66
374.01	807.48
374.21	781.74
374.40	798.12
374.60	823.87
374.79	784.08
374.99	777.06
375.19	812.17
375.38	809.83
375.58	837.91
375.78	767.70
375.97	840.25
376.17	891.74
376.37	894.08
376.56	819.19
376.76	863.66
376.95	809.83
377.15	889.40
377.35	917.49
377.54	964.30
377.74	894.08
377.93	805.14
378.13	809.83
378.33	917.49
378.52	938.55
378.72	922.17
378.91	999.41
379.11	898.77
379.31	978.34
379.50	987.71
379.70	1006.43
379.89	945.58
380.09	983.02
380.28	947.92
380.48	968.98
380.68	961.96
380.87	1025.15
381.07	978.34
381.26	1081.33
381.46	1057.92
381.65	1123.46
381.85	1076.65
382.04	1071.97
382.24	1053.24
382.43	987.71
382.63	1095.37
382.83	1046.22
383.02	1069.62
383.22	1018.13
383.41	987.71
383.61	1137.50
383.80	1149.20
384.00	1165.59
384.19	1069.62
384.39	1172.61
384.58	1156.22
384.78	1188.99
384.97	1153.88
385.17	1219.42
385.36	1135.16
385.56	1226.44
385.75	1121.12
385.95	1186.65
386.14	1280.27
386.34	1142.18
386.53	1207.72
386.72	1104.73
386.92	1214.74
387.11	1235.80
387.31	1256.87
387.50	1135.16
387.70	1242.82
387.89	1224.10
388.09	1282.61
388.28	1210.06
388.48	1294.32
388.67	1294.32
388.86	1376.24
389.06	1387.94
389.25	1315.38
389.45	1327.08
389.64	1315.38
389.84	1371.55
390.03	1488.58
390.22	1390.28
390.42	1401.98
390.61	1357.51
390.81	1406.66
391.00	1413.68
391.19	1439.43
391.39	1373.89
391.58	1472.20
391.78	1511.99
391.97	1540.07
392.16	1453.47
392.36	1504.96
392.55	1502.62
392.75	1479.22
392.94	1530.71
393.13	1516.67
393.33	1568.16
393.52	1586.88
393.71	1647.74
393.91	1624.33
394.10	1582.20
394.29	1577.52
394.49	1654.76
394.68	1633.69
394.88	1593.90
395.07	1624.33
395.26	1729.66
395.46	1631.35
395.65	1699.23
395.84	1668.80
396.04	1741.36
396.23	1722.63
396.42	1748.38
396.62	1837.32
396.81	1771.79
397.00	1813.92
397.19	1713.27
397.39	1881.79
397.58	1898.17
397.77	1919.24
397.97	1942.64
398.16	1764.76
398.35	1858.39
398.55	1856.04
398.74	1827.96
398.93	2019.88
399.12	1916.90
399.32	1954.35
399.51	1933.28
399.70	2003.50
399.90	2029.24
400.09	2043.29
400.28	2031.58
400.47	2073.71
400.67	2111.16
400.86	2050.31
401.05	2115.84
401.24	2078.40
401.44	2188.40
401.63	2155.63
401.82	2111.16
402.01	2097.12
402.21	2228.19
402.40	2249.25
402.59	2094.78
402.78	2155.63
402.97	2263.30
403.17	2253.94
403.36	2186.06
403.55	2431.82
403.74	2370.96
403.93	2434.16
404.13	2289.04
404.32	2403.73
404.51	2387.35
404.70	2483.31
404.89	2422.45
405.09	2457.56
405.28	2396.71
405.47	2497.35
405.66	2590.97
405.85	2518.42
406.05	2579.27
406.24	2623.74
406.43	2551.18
406.62	2691.62
406.81	2593.31
407.00	2663.53
407.20	2569.91
407.39	2745.45
407.58	2677.57
407.77	2717.36
407.96	2698.64
408.15	2745.45
408.34	2801.62
408.54	2869.50
408.73	2792.26
408.92	2726.72
409.11	2782.90
409.30	2951.42
409.49	2935.03
409.68	2979.50
409.87	2860.13
410.07	2942.05
410.26	3066.10
410.45	3002.91
410.64	3073.12
410.83	3180.79
411.02	3068.44
411.21	3150.36
411.40	3122.27
411.59	3272.07
411.78	3229.94
411.98	3213.56
412.17	3302.50
412.36	3321.22
412.55	3405.48
412.74	3449.95
412.93	3442.93
413.12	3365.69
413.31	3641.87
413.50	3595.06
413.69	3555.27
413.88	3522.51
414.07	3592.72
414.26	3719.11
414.45	3672.30
414.64	3775.28
414.83	3712.09
415.02	3777.62
415.22	3866.56
415.41	3716.77
415.60	3798.69
415.79	3805.71
415.98	3941.46
416.17	4014.02
416.36	3964.87
416.55	3920.40
416.74	4056.15
416.93	4117.00
417.12	4292.54
417.31	4241.05
417.50	4189.56
417.69	4325.31
417.88	4341.69
418.07	4304.25
418.26	4278.50
418.45	4416.59
418.64	4442.34
418.83	4482.13
419.02	4528.94
419.21	4580.43
419.39	4767.67
419.58	4587.45
419.77	4435.32
419.96	4503.19
420.15	4557.02
420.34	4507.87
420.53	4606.17
420.72	4692.77
420.91	4699.80
421.10	4795.76
421.29	4816.82
421.48	4788.74
421.67	4847.25
421.86	4751.29
422.05	4858.95
422.24	4910.44
422.43	4912.78
422.61	5067.26
422.80	5013.43
422.99	4903.42
423.18	5001.72
423.37	5095.35
423.56	4865.97
423.75	4940.87
423.94	4830.87
424.13	4774.69
424.32	4802.78
424.50	4931.51
424.69	5153.86
424.88	5071.94
425.07	5160.88
425.26	4807.46
425.45	5064.92
425.64	5013.43
425.83	5125.77
426.01	5114.07
426.20	5114.07
426.39	5116.41
426.58	4961.94
426.77	5032.15
426.96	5303.65
427.15	5186.63
427.33	5249.82
427.52	5111.73
427.71	5460.47
427.90	5465.15
428.09	5448.77
428.28	5411.32
428.46	5547.07
428.65	5390.25
428.84	5425.36
429.03	5607.92
429.22	5441.75
429.40	5481.53
429.59	5479.19
429.78	5373.87
429.97	5247.48
430.16	5423.02
430.34	5584.52
430.53	5776.44
430.72	5717.93
430.91	5701.54
431.10	5715.59
431.28	5727.29
431.47	5872.40
431.66	5912.19
431.85	5699.20
432.03	5933.26
432.22	5984.75
432.41	5961.34
432.60	5884.11
432.79	5994.11
432.97	5935.60
433.16	6169.65
433.35	6031.56
433.54	6171.99
433.72	6312.42
433.91	6090.07
434.10	6258.59
434.28	6181.35
434.47	6069.01
434.66	6347.53
434.85	6272.64
435.03	6347.53
435.22	6207.10
435.41	6490.31
435.59	6389.66
435.78	6413.07
435.97	6466.90
436.16	6434.13
436.34	6492.65
436.53	6530.09
436.72	6558.18
436.90	6457.54
437.09	6740.74
437.28	6588.61
437.46	6499.67
437.65	6661.16
437.84	6927.99
438.02	6803.94
438.21	6843.73
438.40	6778.19
438.58	6899.90
438.77	7148.00
438.96	6963.09
439.14	7234.60
439.33	7136.29
439.52	7286.09
439.70	7321.20
439.89	7487.37
440.08	7485.03
440.26	7332.90
440.45	7372.69
440.63	7541.21
440.82	7641.85
441.01	7777.60
441.19	7651.21
441.38	7789.30
441.57	7941.44
441.75	8011.65
441.94	7967.18
442.12	8023.36
442.31	8269.11
442.50	8152.09
442.68	8182.51
442.87	8091.23
443.05	8355.71
443.24	8435.29
443.43	8074.85
443.61	8236.35
443.80	8439.97
443.98	8086.55
444.17	8018.68
444.35	8250.39
444.54	8575.72
444.73	8329.97
444.91	8283.16
445.10	8418.91
445.28	8526.57
445.47	8402.52
445.65	8538.27
445.84	8468.06
446.02	8477.42
446.21	8472.74
446.39	8400.18
446.58	8681.05
446.77	8552.32
446.95	8208.26
447.14	8486.78
447.32	8781.69
447.51	8446.99
447.69	8559.34
447.88	8533.59
448.06	8535.93
448.25	8596.79
448.43	8711.47
448.62	8659.98
448.80	8716.16
448.99	8809.78
449.17	8723.18
449.36	8561.68
449.54	8929.14
449.73	9095.32
449.91	9067.24
450.10	8844.88
450.28	9160.86
450.46	9081.28
450.65	9172.56
450.83	9015.74
451.02	9324.69
451.20	9100.00
451.39	9202.99
451.57	9137.45
451.76	9195.96
451.94	9327.03
452.13	9280.22
452.31	9275.54
452.49	9312.99
452.68	9474.49
452.86	9247.46
453.05	9511.94
453.23	9633.64
453.42	9617.26
453.60	9277.88
453.78	9762.37
453.97	9502.58
454.15	9640.67
454.34	9481.51
454.52	9612.58
454.70	9678.12
454.89	9914.51
455.07	9820.89
455.26	9996.43
455.44	10097.07
455.62	9923.87
455.81	9944.94
455.99	10071.33
456.17	10045.58
456.36	10115.80
456.54	10370.91
456.73	10307.72
456.91	10621.35
457.09	10490.28
457.28	10633.05
457.46	10464.54
457.64	10581.56
457.83	10537.09
458.01	10501.98
458.19	10736.04
458.38	10740.72
458.56	10705.61
458.74	10839.02
458.93	10506.66
459.11	10958.39
459.29	10754.76
459.48	10906.90
459.66	10782.85
459.84	10785.19
460.03	11267.34
460.21	10998.18
460.39	11136.27
460.57	11059.03
460.76	11199.46
460.94	11204.14
461.12	11365.64
461.31	11218.19
461.49	11279.04
461.67	11192.44
461.85	11342.24
462.04	11529.48
462.22	11784.60
462.40	11660.55
462.59	11573.95
462.77	11564.59
462.95	11566.93
463.13	11719.06
463.32	11637.14
463.50	11908.65
463.68	11899.28
463.86	12053.76
464.05	11641.82
464.23	11918.01
464.41	12175.47
464.59	11559.91
464.78	11978.86
464.96	12233.98
465.14	12116.95
465.32	12086.53
465.50	12105.25
465.69	12400.16
465.87	12306.54
466.05	12217.60
466.23	12276.11
466.41	12482.08
466.60	12479.74
466.78	12346.33
466.96	12351.01
467.14	12336.96
467.32	12606.13
467.51	12566.34
467.69	12381.43
467.87	12943.16
468.05	12631.87
468.23	12697.41
468.41	12643.57
468.60	13050.83
468.78	12908.05
468.96	12961.89
469.14	12858.90
469.32	13275.52
469.50	12751.24
469.69	13226.37
469.87	13242.75
470.05	13125.72
470.23	13327.01
470.41	13312.97
470.59	13455.74
470.77	13359.78
470.95	13231.05
471.14	13415.95
471.32	13462.76
471.50	13521.27
471.68	13635.96
471.86	13734.26
472.04	13544.68
472.22	14008.11
472.40	13708.52
472.58	13870.01
472.77	14256.20
472.95	14249.18
473.13	14700.90
473.31	14288.97
473.49	14160.24
473.67	14148.54
473.85	14494.94
474.03	14684.52
474.21	14794.53
474.39	14995.81
474.57	14649.41
474.75	15005.17
474.93	15129.22
475.12	15442.85
475.30	15246.25
475.48	15103.48
475.66	15300.08
475.84	15318.81
476.02	15648.82
476.20	15393.70
476.38	15829.04
476.56	15983.52
476.74	16231.62
476.92	16065.44
477.10	16093.52
477.28	15922.66
477.46	16311.19
477.64	16517.16
477.82	16484.39
478.00	17142.08
478.18	16678.66
478.36	16959.52
478.54	17177.19
478.72	17444.01
478.90	17479.12
479.08	17701.47
479.26	17729.56
479.44	17769.35
479.62	18054.89
479.80	18225.75
479.98	18431.72
480.16	19009.83
480.34	18450.44
480.52	18862.38
480.70	18452.78
480.88	18796.84
481.06	18845.99
481.24	18977.06
481.41	19051.96
481.59	19475.60
481.77	19620.71
481.95	19644.12
482.13	19969.45
482.31	19796.25
482.49	20662.25
482.67	20367.34
482.85	20671.61
483.03	21039.08
483.21	21088.23
483.39	21186.53
483.57	21013.33
483.74	21116.31
483.92	21493.14
484.10	21064.82
484.28	21734.21
484.46	22309.99
484.64	22427.01
484.82	22223.39
485.00	22831.93
485.18	22878.74
485.35	22958.31
485.53	22794.48
485.71	23295.35
485.89	23857.08
486.07	23262.58
486.25	23531.75
486.43	23590.26
486.61	24041.98
486.78	24215.18
486.96	24465.62
487.14	24774.57
487.32	24959.47
487.50	25064.80
487.68	25476.73
487.85	25439.28
488.03	25563.33
488.21	25837.17
488.39	25797.38
488.57	26452.73
488.75	26576.78
488.92	26476.14
489.10	27000.42
489.28	27190.00
489.46	27412.35
489.64	27194.68
489.81	27527.04
489.99	27861.74
490.17	28123.88
490.35	28210.48
490.53	28259.63
490.70	28552.20
490.88	28355.59
491.06	29298.83
491.24	29174.78
491.41	29397.13
491.59	29359.68
491.77	29670.97
491.95	29813.74
492.13	30073.54
492.30	30373.13
492.48	30838.90
492.66	30504.20
492.84	30679.74
493.01	30726.55
493.19	31014.44
493.37	31262.54
493.54	31531.70
493.72	31943.63
493.90	31824.26
494.08	31747.03
494.25	32180.03
494.43	32142.58
494.61	32563.87
494.79	32631.75
494.96	32905.59
495.14	33078.79
495.32	33504.77
495.49	33221.56
495.67	33464.98
495.85	33247.31
496.02	34110.97
496.20	34087.56
496.38	34623.54
496.55	34000.96
496.73	34944.20
496.91	34869.30
497.09	35236.77
497.26	35264.85
497.44	35304.64
497.62	35688.49
497.79	36084.04
497.97	35955.31
498.14	36095.74
498.32	36493.63
498.50	36603.64
498.67	36793.22
498.85	37013.23
499.03	36622.36
499.20	37078.77
499.38	37394.74
499.56	37273.03
499.73	37364.31
499.91	38054.77
500.08	37916.68
500.26	38026.68
500.44	37741.14
500.61	38286.48
500.79	38213.93
500.97	38553.30
501.14	38986.30
501.32	39014.39
501.49	38927.79
501.67	39164.18
501.84	39494.20
502.02	38934.81
502.20	39826.56
502.37	39683.78
502.55	39669.74
502.72	39878.05
502.90	39992.73
503.07	39796.13
503.25	39878.05
503.43	40311.05
503.60	40395.31
503.78	40507.65
503.95	40886.82
504.13	40566.16
504.30	41104.49
504.48	40765.11
504.65	41153.64
504.83	41392.37
505.01	41289.39
505.18	41581.96
505.36	41673.24
505.53	41436.84
505.71	41874.52
505.88	42043.04
506.06	41947.08
506.23	42878.61
506.41	42422.21
506.58	42494.77
506.76	42410.51
506.93	42810.74
507.11	42892.66
507.28	43117.35
507.46	42937.13
507.63	43559.71
507.81	43676.74
507.98	43522.26
508.16	43859.30
508.33	43634.61
508.50	43952.92
508.68	43929.51
508.85	44083.99
509.03	43981.01
509.20	44786.15
509.38	44755.72
509.55	44938.29
509.73	44842.32
509.90	45067.02
510.08	44776.79
510.25	44800.19
510.42	44872.75
510.60	45268.30
510.77	45614.70
510.95	45570.23
511.12	45282.34
511.30	45507.04
511.47	45811.31
511.64	46078.13
511.82	46040.68
511.99	45951.74
512.17	46181.11
512.34	46314.52
512.51	46396.44
512.69	46609.43
512.86	46841.14
513.04	47145.41
513.21	47234.35
513.38	47430.96
513.56	47145.41
513.73	47091.58
513.90	47533.94
514.08	47302.23
514.25	47742.25
514.43	47962.26
514.60	47704.80
514.77	48259.51
514.95	48399.94
515.12	48193.97
515.29	48165.88
515.47	47835.87
515.64	48158.86
515.81	48116.73
515.99	48318.02
516.16	48931.24
516.33	48751.02
516.51	48570.80
516.68	48797.83
516.85	48872.73
517.03	49155.93
517.20	49387.64
517.37	49258.91
517.54	49191.04
517.72	48956.99
517.89	49581.91
518.06	49469.56
518.24	49523.40
518.41	49954.05
518.58	49944.69
518.75	49610.00
518.93	50185.77
519.10	49867.45
519.27	50344.92
519.45	50195.13
519.62	50391.73
519.79	50335.56
519.96	49972.78
520.14	50883.25
520.31	50609.40
520.48	50878.57
520.65	50539.19
520.83	51255.39
521.00	50674.94
521.17	51044.74
521.34	50672.60
521.52	51079.85
521.69	50899.63
521.86	51435.61
522.03	51515.19
522.20	51400.50
522.38	51615.83
522.55	51739.88
522.72	51674.35
522.89	51346.67
523.07	52245.44
523.24	51812.44
523.41	52310.97
523.58	51744.56
523.75	51966.91
523.92	52142.45
524.10	52020.75
524.27	52072.24
524.44	52547.37
524.61	52294.59
524.78	52313.31
524.96	52327.36
525.13	52315.65
525.30	52521.62
525.47	52659.71
525.64	52893.77
525.81	53069.31
525.98	53043.56
526.16	52811.85
526.33	52961.64
526.50	53275.27
526.67	52931.22
526.84	53455.50
527.01	53193.36
527.18	53127.82
527.36	53258.89
527.53	53242.51
527.70	53633.38
527.87	53485.92
528.04	53476.56
528.21	53609.97
528.38	53652.10
528.55	53829.98
528.72	53317.40
528.89	53684.87
529.07	53528.05
529.24	53476.56
529.41	54021.90
529.58	53970.41
529.75	53691.89
529.92	53829.98
530.09	54377.67
530.26	54293.41
530.43	54443.20
530.60	53993.82
530.77	54316.81
530.94	54244.26
531.11	54148.29
531.28	54440.86
531.46	54372.99
531.63	54557.89
531.80	54529.80
531.97	54630.44
532.14	54607.04
532.31	54667.89
532.48	54997.91
532.65	54660.87
532.82	54794.28
532.99	55093.87
533.16	54906.63
533.33	55049.40
533.50	55194.51
533.67	55117.28
533.84	55028.34
534.01	55037.70
534.18	55334.95
534.35	55444.95
534.52	55327.92
534.69	55508.14
534.86	55601.77
535.03	55388.78
535.20	55524.53
535.37	55620.49
535.54	55529.21
535.71	55435.59
535.88	55657.94
536.05	55636.87
536.22	55845.18
536.38	55786.67
536.55	55618.15
536.72	55697.73
536.89	55863.91
537.06	55793.69
537.23	56076.90
537.40	55873.27
537.57	55915.40
537.74	56039.45
537.91	56121.37
538.08	56186.90
538.25	56060.51
538.42	56236.05
538.59	56287.54
538.75	56268.82
538.92	56128.39
539.09	56273.50
539.26	56336.69
539.43	56257.12
539.60	56336.69
539.77	56430.32
539.94	56491.17
540.11	56296.91
540.28	56591.81
540.44	56647.99
540.61	56556.70
540.78	56755.65
540.95	56540.32
541.12	56491.17
541.29	56622.24
541.46	56779.06
541.62	56949.92
541.79	56985.02
541.96	56678.41
542.13	56821.19
542.30	56603.52
542.47	57083.33
542.63	57190.99
542.80	57013.11
542.97	57233.12
543.14	57272.91
543.31	57240.14
543.48	57546.75
543.64	57574.84
543.81	57530.37
543.98	57654.42
544.15	57549.09
544.32	57708.25
544.48	57815.91
544.65	57563.14
544.82	57776.12
544.99	57645.05
545.16	57605.26
545.32	57904.85
545.49	58054.65
545.66	57925.92
545.83	57939.96
546.00	58150.61
546.16	57911.88
546.33	57893.15
546.50	57766.76
546.67	58003.16
546.83	57544.41
547.00	58169.33
547.17	57771.44
547.34	58096.78
547.50	58255.93
547.67	58372.96
547.84	58150.61
548.00	58234.87
548.17	58466.58
548.34	58398.71
548.51	58614.04
548.67	58403.39
548.84	58394.03
549.01	58241.89
549.18	58489.99
549.34	58379.98
549.51	58454.88
549.68	58527.44
549.84	58468.92
550.01	58735.74
550.18	58482.97
550.34	58698.30
550.51	58618.72
550.68	58590.63
550.84	58564.88
551.01	58831.71
551.18	58635.10
551.34	58798.94
551.51	58920.65
551.68	59028.31
551.84	58731.06
552.01	58808.30
552.18	59063.42
552.34	58721.70
552.51	58850.43
552.68	58885.54
552.84	59018.95
553.01	59117.25
553.18	59128.95
553.34	59070.44
553.51	59096.19
553.67	59091.51
553.84	59253.00
554.01	59037.67
554.17	59267.05
554.34	59290.45
554.51	59161.72
554.67	59281.09
554.84	59192.15
555.00	59110.23
555.17	59250.66
555.33	59178.10
555.50	59128.95
555.67	59110.23
555.83	59208.53
556.00	59262.36
556.16	59573.66
556.33	59325.56
556.50	59508.12
556.66	59667.28
556.83	59199.17
556.99	59643.87
557.16	59749.20
557.32	59561.95
557.49	59835.80
557.65	59580.68
557.82	59447.27
557.98	59620.47
558.15	59590.04
558.32	59723.45
558.48	59653.23
558.65	59714.09
558.81	59767.92
558.98	59903.67
559.14	59985.59
559.31	59824.09
559.47	59898.99
559.64	60006.65
559.80	59870.90
559.97	60046.44
560.13	59877.93
560.30	59973.89
560.46	59934.10
560.63	60030.06
560.79	59969.21
560.96	60156.45
561.12	60074.53
561.29	60186.88
561.45	60013.68
561.61	60165.81
561.78	60060.49
561.94	60041.76
562.11	60055.81
562.27	60189.22
562.44	60004.31
562.60	60186.88
562.77	60135.38
562.93	59915.37
563.10	60383.48
563.26	60259.43
563.42	60495.83
563.59	60229.01
563.75	60376.46
563.92	60133.04
564.08	60273.48
564.24	60479.44
564.41	60254.75
564.57	60296.88
564.74	60310.92
564.90	60509.87
565.07	60491.15
565.23	60348.37
565.39	60413.91
565.56	60498.17
565.72	60409.23
565.88	60500.51
566.05	60299.22
566.21	60374.12
566.38	60559.02
566.54	60434.97
566.70	60654.98
566.87	60547.32
567.03	60566.04
567.19	60465.40
567.36	60458.38
567.52	60530.93
567.68	60619.88
567.85	60662.00
568.01	60638.60
568.17	60640.94
568.34	60718.18
568.50	60580.09
568.66	60512.21
568.83	60669.03
568.99	60481.78
569.15	60584.77
569.32	60509.87
569.48	60715.84
569.64	60755.63
569.81	60804.78
569.97	60584.77
570.13	60692.43
570.30	60718.18
570.46	60495.83
570.62	60715.84
570.78	60552.00
570.95	60870.31
571.11	60638.60
571.27	60589.45
571.43	60711.16
571.60	60975.64
571.76	60802.44
571.92	60739.24
572.09	60797.76
572.25	60849.25
572.41	60884.36
572.57	60914.78
572.74	60994.36
572.90	60952.23
573.06	60664.35
573.22	60678.39
573.38	60865.63
573.55	60727.54
573.71	61160.54
573.87	61013.08
574.03	60807.12
574.20	60933.51
574.36	60753.29
574.52	61024.79
574.68	61062.24
574.84	60945.21
575.01	60961.59
575.17	60835.20
575.33	60896.06
575.49	60818.82
575.65	61083.30
575.82	60985.00
575.98	60905.42
576.14	61062.24
576.30	61071.60
576.46	60865.63
576.62	60807.12
576.79	60992.02
576.95	60769.67
577.11	61123.09
577.27	61045.85
577.43	61066.92
577.59	60907.76
577.75	60807.12
577.92	60893.72
578.08	61020.11
578.24	61212.03
578.40	61083.30
578.56	61024.79
578.72	61083.30
578.88	61111.39
579.04	61183.94
579.21	61261.18
579.37	61167.56
579.53	61029.47
579.69	61066.92
579.85	61085.64
580.01	60921.80
580.17	60856.27
580.33	61193.31
580.49	61006.06
580.65	61172.24
580.82	60954.57
580.98	61155.86
581.14	60917.12
581.30	61401.61
581.46	61008.40
581.62	60985.00
581.78	61097.34
581.94	61226.07
582.10	61202.67
582.26	61069.26
582.42	61242.46
582.58	61319.70
582.74	61254.16
582.90	61167.56
583.06	61148.84
583.22	60949.89
583.38	61125.43
583.54	61317.35
583.70	61020.11
583.86	61148.84
584.02	60989.68
584.18	61354.80
584.34	61062.24
584.50	61326.72
584.66	61123.09
584.82	61024.79
584.98	61296.29
585.14	61240.12
585.30	61048.19
585.46	61268.20
585.62	61352.46
585.78	61443.74
585.94	60940.53
586.10	61174.58
586.26	61195.65
586.42	61352.46
586.58	61450.77
586.74	61200.33
586.90	60917.12
587.06	61099.68
587.22	61366.51
587.38	61291.61
587.54	61425.02
587.70	61420.34
587.86	61291.61
588.02	61492.89
588.18	61413.32
588.34	61104.37
588.49	61279.91
