SpectraSuite Data File
++++++++++++++++++++++++++++++++++++
Date: Fri Oct 25 11:34:23 EDT 2013
User: price-jones
Dark Spectrum Present: No
Reference Spectrum Present: No
Number of Sampled Component Spectra: 1
Spectrometers: USB2+H05261
Integration Time (usec): 100000 (USB2+H05261)
Spectra Averaged: 1 (USB2+H05261)
Boxcar Smoothing: 0 (USB2+H05261)
Correct for Electrical Dark: No (USB2+H05261)
Strobe/Lamp Enabled: No (USB2+H05261)
Correct for Detector Non-linearity: No (USB2+H05261)
Correct for Stray Light: No (USB2+H05261)
Number of Pixels in Processed Spectrum: 2048
>>>>>Begin Processed Spectral Data<<<<<
365.73	322.99
365.92	322.99
366.12	322.99
366.32	198.95
366.52	184.90
366.72	215.33
366.91	159.16
367.11	166.18
367.31	154.48
367.51	236.39
367.70	107.66
367.90	203.63
368.10	145.11
368.30	266.82
368.49	173.20
368.69	243.42
368.89	198.95
369.09	159.16
369.28	264.48
369.48	201.29
369.68	222.35
369.87	287.89
370.07	140.43
370.27	283.20
370.47	297.25
370.66	433.00
370.86	491.51
371.06	554.71
371.25	564.07
371.45	519.60
371.65	517.26
371.84	486.83
372.04	571.09
372.24	603.86
372.44	589.82
372.63	587.47
372.83	620.24
373.03	564.07
373.22	634.29
373.42	664.71
373.62	667.05
373.81	613.22
374.01	650.67
374.21	657.69
374.40	624.92
374.60	631.94
374.79	674.07
374.99	599.18
375.19	578.11
375.38	725.57
375.58	664.71
375.78	681.10
375.97	615.56
376.17	732.59
376.37	676.41
376.56	699.82
376.76	706.84
376.95	653.01
377.15	638.97
377.35	683.44
377.54	713.86
377.74	690.46
377.93	636.63
378.13	763.01
378.33	653.01
378.52	734.93
378.72	779.40
378.91	667.05
379.11	704.50
379.31	636.63
379.50	709.18
379.70	835.57
379.89	748.97
380.09	718.54
380.28	716.20
380.48	732.59
380.68	655.35
380.87	767.70
381.07	709.18
381.26	695.14
381.46	758.33
381.65	695.14
381.85	664.71
382.04	737.27
382.24	753.65
382.43	755.99
382.63	748.97
382.83	716.20
383.02	737.27
383.22	709.18
383.41	819.19
383.61	692.80
383.80	842.59
384.00	800.46
384.19	690.46
384.39	835.57
384.58	737.27
384.78	847.27
384.97	791.10
385.17	777.06
385.36	793.44
385.56	821.53
385.75	777.06
385.95	807.48
386.14	812.17
386.34	814.51
386.53	821.53
386.72	807.48
386.92	866.00
387.11	940.90
387.31	894.08
387.50	887.06
387.70	901.11
387.89	819.19
388.09	830.89
388.28	856.64
388.48	917.49
388.67	950.26
388.86	880.04
389.06	1013.45
389.25	987.71
389.45	905.79
389.64	917.49
389.84	987.71
390.03	936.21
390.22	945.58
390.42	938.55
390.61	915.15
390.81	903.45
391.00	1025.15
391.19	1036.86
391.39	997.07
391.58	929.19
391.78	978.34
391.97	961.96
392.16	964.30
392.36	959.62
392.55	1020.47
392.75	1013.45
392.94	1036.86
393.13	1071.97
393.33	1008.77
393.52	1090.69
393.71	1083.67
393.91	1118.78
394.10	1046.22
394.29	1055.58
394.49	1064.94
394.68	1027.50
394.88	1146.86
395.07	1139.84
395.26	1144.52
395.46	1139.84
395.65	1179.63
395.84	1142.18
396.04	1121.12
396.23	1041.54
396.42	1060.26
396.62	1188.99
396.81	1214.74
397.00	1196.01
397.19	1177.29
397.39	1156.22
397.58	1146.86
397.77	1144.52
397.97	1118.78
398.16	1273.25
398.35	1177.29
398.55	1212.40
398.74	1320.06
398.93	1359.85
399.12	1158.57
399.32	1268.57
399.51	1226.44
399.70	1348.15
399.90	1355.17
400.09	1397.30
400.28	1343.47
400.47	1350.49
400.67	1373.89
400.86	1444.11
401.05	1394.96
401.24	1357.51
401.44	1334.11
401.63	1432.41
401.82	1362.19
402.01	1446.45
402.21	1357.51
402.40	1392.62
402.59	1390.28
402.78	1380.92
402.97	1502.62
403.17	1387.94
403.36	1575.18
403.55	1465.18
403.74	1589.22
403.93	1467.52
404.13	1544.75
404.32	1540.07
404.51	1397.30
404.70	1732.00
404.89	1575.18
405.09	1636.03
405.28	1593.90
405.47	1680.50
405.66	1624.33
405.85	1694.55
406.05	1743.70
406.24	1685.19
406.43	1687.53
406.62	1762.42
406.81	1682.85
407.00	1661.78
407.20	1760.08
407.39	1732.00
407.58	1867.75
407.77	1739.02
407.96	1839.66
408.15	1813.92
408.34	1734.34
408.54	1832.64
408.73	1806.89
408.92	1872.43
409.11	1952.01
409.30	1893.49
409.49	1928.60
409.68	1844.34
409.87	1916.90
410.07	2062.01
410.26	1994.14
410.45	2008.18
410.64	2069.03
410.83	2071.37
411.02	2143.93
411.21	1987.11
411.40	2069.03
411.59	2237.55
411.78	2160.31
411.98	2101.80
412.17	2125.21
412.36	2209.47
412.55	2267.98
412.74	2181.38
412.93	2445.86
413.12	2202.44
413.31	2289.04
413.50	2246.91
413.69	2410.75
413.88	2459.90
414.07	2431.82
414.26	2445.86
414.45	2455.22
414.64	2621.40
414.83	2565.23
415.02	2567.57
415.22	2574.59
415.41	2595.65
415.60	2621.40
415.79	2614.38
415.98	2719.70
416.17	2710.34
416.36	2558.21
416.55	2633.10
416.74	2729.06
416.93	2775.88
417.12	2733.75
417.31	2806.30
417.50	2792.26
417.69	2850.77
417.88	2925.67
418.07	2937.37
418.26	2853.11
418.45	2904.60
418.64	2920.99
418.83	2963.12
419.02	2846.09
419.21	2991.20
419.39	3009.93
419.58	3070.78
419.77	2965.46
419.96	2953.76
420.15	3094.19
420.34	2993.55
420.53	3091.85
420.72	3211.22
420.91	3206.53
421.10	3173.77
421.29	3145.68
421.48	3063.76
421.67	3361.01
421.86	3063.76
422.05	3133.98
422.24	3201.85
422.43	3272.07
422.61	3220.58
422.80	3241.64
422.99	3325.90
423.18	3281.43
423.37	3239.30
423.56	3346.97
423.75	3276.75
423.94	3293.13
424.13	3059.08
424.32	3141.00
424.50	3330.58
424.69	3391.44
424.88	3379.73
425.07	3379.73
425.26	3236.96
425.45	3227.60
425.64	3337.60
425.83	3365.69
426.01	3260.37
426.20	3382.07
426.39	3323.56
426.58	3501.44
426.77	3297.81
426.96	3492.08
427.15	3463.99
427.33	3515.48
427.52	3466.33
427.71	3576.34
427.90	3480.38
428.09	3543.57
428.28	3508.46
428.46	3552.93
428.65	3559.95
428.84	3606.77
429.03	3660.60
429.22	3581.02
429.40	3613.79
429.59	3569.32
429.78	3492.08
429.97	3463.99
430.16	3669.96
430.34	3768.26
430.53	3712.09
430.72	3712.09
430.91	3763.58
431.10	3791.67
431.28	3843.16
431.47	3920.40
431.66	3791.67
431.85	3693.37
432.03	3875.93
432.22	4042.11
432.41	3925.08
432.60	3880.61
432.79	3904.01
432.97	3964.87
433.16	4044.45
433.35	3955.51
433.54	4060.83
433.72	4021.04
433.91	4070.19
434.10	4018.70
434.28	4002.32
434.47	4074.87
434.66	4161.47
434.85	4285.52
435.03	4236.37
435.22	4117.00
435.41	4259.78
435.59	4280.84
435.78	4259.78
435.97	4236.37
436.16	4252.75
436.34	4332.33
436.53	4308.93
436.72	4404.89
436.90	4304.25
437.09	4458.72
437.28	4294.88
437.46	4191.90
437.65	4540.64
437.84	4444.68
438.02	4379.14
438.21	4573.41
438.40	4395.53
438.58	4507.87
438.77	4624.90
438.96	4594.47
439.14	4662.35
439.33	4690.43
439.52	4741.93
439.70	4678.73
439.89	4770.01
440.08	4847.25
440.26	5015.77
440.45	4823.84
440.63	4826.18
440.82	5036.83
441.01	4816.82
441.19	4887.04
441.38	5039.17
441.57	5118.75
441.75	4975.98
441.94	5254.50
442.12	5195.99
442.31	5263.86
442.50	5249.82
442.68	5100.03
442.87	5418.34
443.05	5242.80
443.24	5437.06
443.43	5406.64
443.61	5418.34
443.80	5685.16
443.98	5394.93
444.17	5085.98
444.35	5261.52
444.54	5394.93
444.73	5401.96
444.91	5467.49
445.10	5483.88
445.28	5462.81
445.47	5305.99
445.65	5418.34
445.84	5544.73
446.02	5600.90
446.21	5387.91
446.39	5416.00
446.58	5490.90
446.77	5568.13
446.95	5322.38
447.14	5467.49
447.32	5516.64
447.51	5542.39
447.69	5535.37
447.88	5628.99
448.06	5586.86
448.25	5399.62
448.43	5558.77
448.62	5668.78
448.80	5547.07
448.99	5846.66
449.17	5788.14
449.36	5708.57
449.54	5795.17
449.73	5863.04
449.91	5851.34
450.10	5966.03
450.28	5823.25
450.46	5963.68
450.65	5893.47
450.83	5823.25
451.02	5865.38
451.20	5966.03
451.39	5914.53
451.57	6024.54
451.76	5813.89
451.94	5980.07
452.13	6218.80
452.31	6083.05
452.49	6008.16
452.68	6134.54
452.86	5963.68
453.05	6246.89
453.23	6141.57
453.42	6078.37
453.60	6141.57
453.78	6076.03
453.97	6113.48
454.15	6270.30
454.34	6228.17
454.52	6179.01
454.70	6120.50
454.89	6314.77
455.07	6392.00
455.26	6497.33
455.44	6377.96
455.62	6420.09
455.81	6349.87
455.99	6417.75
456.17	6590.95
456.36	6523.07
456.54	6558.18
456.73	6712.66
456.91	6853.09
457.09	6698.61
457.28	6733.72
457.46	6668.19
457.64	6885.86
457.83	6719.68
458.01	6771.17
458.19	7152.68
458.38	6906.92
458.56	7091.82
458.74	7026.29
458.93	7133.95
459.11	6972.46
459.29	6974.80
459.48	6965.43
459.66	7040.33
459.84	7023.95
460.03	7332.90
460.21	7234.60
460.39	7185.44
460.57	7157.36
460.76	7281.41
460.94	7173.74
461.12	7262.68
461.31	7213.53
461.49	7232.26
461.67	7213.53
461.85	7496.74
462.04	7176.08
462.22	7707.38
462.40	7449.93
462.59	7407.80
462.77	7400.77
462.95	7597.38
463.13	7365.67
463.32	7644.19
463.50	7510.78
463.68	7679.30
463.86	7630.15
464.05	7520.14
464.23	7679.30
464.41	7616.10
464.59	7634.83
464.78	7756.54
464.96	7681.64
465.14	7871.22
465.32	7749.51
465.50	7786.96
465.69	7768.24
465.87	7798.66
466.05	7892.29
466.23	7953.14
466.41	7784.62
466.60	8079.53
466.78	7915.69
466.96	7941.44
467.14	7875.90
467.32	8067.83
467.51	8198.90
467.69	7962.50
467.87	7946.12
468.05	8292.52
468.23	8046.76
468.41	8278.47
468.60	8025.70
468.78	8152.09
468.96	8009.31
469.14	8238.69
469.32	8175.49
469.50	8224.64
469.69	8198.90
469.87	8470.40
470.05	8430.61
470.23	8622.53
470.41	8313.58
470.59	8650.62
470.77	8589.77
470.95	8568.70
471.14	8826.16
471.32	8477.42
471.50	8807.44
471.68	8716.16
471.86	8816.80
472.04	8830.84
472.22	8760.63
472.40	8840.20
472.58	8849.57
472.77	8863.61
472.95	8947.87
473.13	9238.09
473.31	8931.48
473.49	9149.15
473.67	8999.36
473.85	9324.69
474.03	9228.73
474.21	9486.19
474.39	9423.00
474.57	9544.70
474.75	9383.21
474.93	9713.22
475.12	9575.13
475.30	9671.09
475.48	9612.58
475.66	9844.29
475.84	9525.98
476.02	9724.93
476.20	9886.42
476.38	9895.78
476.56	10422.41
476.74	10195.37
476.92	10370.91
477.10	10216.44
477.28	10340.49
477.46	9984.73
477.64	10555.82
477.82	10347.51
478.00	10569.86
478.18	10630.71
478.36	10710.29
478.54	10956.05
478.72	10939.66
478.90	11082.44
479.08	11075.42
479.26	11265.00
479.44	11290.74
479.62	11316.49
479.80	11655.87
479.98	11452.24
480.16	11964.82
480.34	11604.38
480.52	11705.02
480.70	11744.81
480.88	11407.77
481.06	11730.76
481.24	11819.71
481.41	11964.82
481.59	12470.37
481.77	12526.55
481.95	12278.45
482.13	12638.89
482.31	12395.48
482.49	12898.69
482.67	12456.33
482.85	12999.34
483.03	12912.74
483.21	12940.82
483.39	13390.20
483.57	13291.90
483.74	13483.83
483.92	13214.66
484.10	13650.00
484.28	13893.42
484.46	13792.78
484.64	14017.47
484.82	13781.07
485.00	14083.00
485.18	14338.12
485.35	14590.90
485.53	14516.00
485.71	14558.13
485.89	14977.09
486.07	14661.12
486.25	14675.16
486.43	14850.70
486.61	15061.35
486.78	15473.28
486.96	15386.68
487.14	15538.82
487.32	15419.45
487.50	15751.81
487.68	15892.24
487.85	15950.75
488.03	16219.91
488.21	16383.75
488.39	16449.28
488.57	16744.19
488.75	16449.28
488.92	16812.07
489.10	17069.53
489.28	16816.75
489.46	17177.19
489.64	17083.57
489.81	17511.89
489.99	17458.06
490.17	17397.20
490.35	17696.79
490.53	17785.73
490.70	17977.65
490.88	17713.17
491.06	17977.65
491.24	18064.25
491.41	18513.64
491.59	18675.13
491.77	18249.16
491.95	18459.81
492.13	18911.53
492.30	18897.49
492.48	18766.42
492.66	18930.25
492.84	19213.46
493.01	19171.33
493.19	19204.10
493.37	19690.93
493.54	19777.53
493.72	19805.61
493.90	19798.59
494.08	19988.18
494.25	20152.01
494.43	20346.28
494.61	20166.06
494.79	20329.89
494.96	20531.18
495.14	20493.73
495.32	20917.37
495.49	20812.04
495.67	20823.75
495.85	21284.83
496.02	21317.60
496.20	21523.57
496.38	21528.25
496.55	21429.94
496.73	21975.29
496.91	21900.39
497.09	21783.37
497.26	21972.95
497.44	22104.02
497.62	22490.21
497.79	22401.27
497.97	22548.72
498.14	22506.59
498.32	22717.24
498.50	22834.27
498.67	22541.70
498.85	22871.72
499.03	23005.13
499.20	23241.52
499.38	23197.05
499.56	23201.73
499.73	23641.75
499.91	23859.42
500.08	23910.91
500.26	23637.07
500.44	23779.84
500.61	23683.88
500.79	23775.16
500.97	24086.45
501.14	24355.61
501.32	24102.84
501.49	24208.16
501.67	24683.29
501.84	24528.81
502.02	24505.41
502.20	24362.64
502.37	25003.94
502.55	24758.19
502.72	24828.40
502.90	24854.15
503.07	24659.88
503.25	25235.66
503.43	24936.07
503.60	25312.89
503.78	25195.87
503.95	25153.74
504.13	25841.85
504.30	25628.87
504.48	25998.67
504.65	25825.47
504.83	25458.01
505.01	25865.26
505.18	25745.89
505.36	26314.64
505.53	25862.92
505.71	26527.63
505.88	26307.62
506.06	26195.28
506.23	26822.54
506.41	26518.27
506.58	26162.51
506.76	26689.13
506.93	27056.59
507.11	26932.54
507.28	27180.64
507.46	26745.30
507.63	27239.15
507.81	27126.81
507.98	26803.82
508.16	27356.18
508.33	27683.86
508.50	27538.74
508.68	27868.76
508.85	27999.83
509.03	27679.18
509.20	27992.81
509.38	28046.64
509.55	28041.96
509.73	28439.85
509.90	28297.08
510.08	28154.30
510.25	28226.86
510.42	28278.35
510.60	28261.97
510.77	28603.69
510.95	28898.59
511.12	28414.10
511.30	28788.59
511.47	28959.45
511.64	29062.43
511.82	28924.34
511.99	29310.53
512.17	29474.37
512.34	29041.37
512.51	29727.14
512.69	29874.60
512.86	29535.22
513.04	29883.96
513.21	29502.45
513.38	29757.57
513.56	29944.81
513.73	29673.31
513.90	30075.88
514.08	29937.79
514.25	30284.19
514.43	30155.46
514.60	30494.84
514.77	30347.39
514.95	30789.75
515.12	30347.39
515.29	30345.05
515.47	30820.17
515.64	30785.07
515.81	30649.32
515.99	30843.58
516.16	31353.82
516.33	30878.69
516.51	31391.26
516.68	30939.54
516.85	31424.03
517.03	31606.59
517.20	31208.70
517.37	31241.47
517.54	31363.18
517.72	31709.58
517.89	31653.40
518.06	31711.92
518.24	31828.95
518.41	31789.16
518.58	31831.29
518.75	31828.95
518.93	31814.90
519.10	31826.60
519.27	32273.65
519.45	32301.73
519.62	32577.92
519.79	32313.44
519.96	32161.30
520.14	32343.86
520.31	32561.53
520.48	32694.94
520.65	32507.70
520.83	32779.20
521.00	32903.25
521.17	33319.87
521.34	33186.46
521.52	33191.14
521.69	33048.36
521.86	33099.86
522.03	33357.32
522.20	33134.96
522.38	33692.01
522.55	33684.99
522.72	33584.35
522.89	33654.56
523.07	34115.65
523.24	33820.74
523.41	34211.61
523.58	34204.59
523.75	34160.12
523.92	33708.40
524.10	34206.93
524.27	34309.91
524.44	34457.37
524.61	34391.83
524.78	34003.30
524.96	34693.76
525.13	34457.37
525.30	34532.26
525.47	34689.08
525.64	34476.09
525.81	35016.75
525.98	34717.17
526.16	35199.32
526.33	34895.05
526.50	35161.87
526.67	34572.05
526.84	35115.06
527.01	35189.95
527.18	35281.24
527.36	35377.20
527.53	35566.78
527.70	35796.15
527.87	35592.53
528.04	35990.42
528.21	35578.48
528.38	35309.32
528.55	35931.90
528.72	35594.87
528.89	36077.02
529.07	35644.02
529.24	35651.04
529.41	36521.72
529.58	35840.62
529.75	35875.73
529.92	35969.35
530.09	36388.31
530.26	36025.53
530.43	36500.65
530.60	35751.68
530.77	36123.83
530.94	36648.11
531.11	36392.99
531.28	36350.86
531.46	36795.56
531.63	36652.79
531.80	36627.04
531.97	36601.30
532.14	36870.46
532.31	36683.22
532.48	37371.33
532.65	36893.86
532.82	37350.27
532.99	36982.80
533.16	37120.90
533.33	37544.53
533.50	37553.90
533.67	37399.42
533.84	37067.06
534.01	37551.56
534.18	36961.74
534.35	37706.03
534.52	37530.49
534.69	37853.48
534.86	37696.67
535.03	37589.00
535.20	37635.81
535.37	37787.95
535.54	38103.92
535.71	37872.21
535.88	38050.09
536.05	37755.18
536.22	38036.05
536.38	38199.88
536.55	38216.27
536.72	38323.93
536.89	38141.37
537.06	38148.39
537.23	38410.53
537.40	38094.56
537.57	38436.28
537.74	38450.32
537.91	38983.96
538.08	38440.96
538.25	38227.97
538.42	38918.43
538.59	38576.71
538.75	38373.08
538.92	38775.66
539.09	39091.63
539.26	38527.56
539.43	39208.65
539.60	39012.05
539.77	39157.16
539.94	39316.32
540.11	39124.40
540.28	39070.56
540.44	38953.54
540.61	39269.51
540.78	38778.00
540.95	39491.86
541.12	39250.78
541.29	39288.23
541.46	39505.90
541.62	39428.66
541.79	39409.94
541.96	39161.84
542.13	39697.83
542.30	39754.00
542.47	39763.36
542.63	39758.68
542.80	39997.41
542.97	40395.31
543.14	40488.93
543.31	40004.44
543.48	40240.83
543.64	40657.45
543.81	40421.05
543.98	40383.60
544.15	40123.80
544.32	40664.47
544.48	41034.27
544.65	40687.87
544.82	40404.67
544.99	40191.68
545.16	40484.25
545.32	41050.66
545.49	40940.65
545.66	41191.09
545.83	40814.26
546.00	41116.19
546.16	41127.89
546.33	40877.46
546.50	40493.61
546.67	41165.34
546.83	40751.07
547.00	41053.00
547.17	40931.29
547.34	41099.81
547.50	41116.19
547.67	41776.22
547.84	40982.78
548.00	41736.43
548.17	41916.65
548.34	41102.15
548.51	41326.84
548.67	41294.07
548.84	41436.84
549.01	41745.80
549.18	41467.27
549.34	41853.46
549.51	41645.15
549.68	42192.84
549.84	41923.68
550.01	41977.51
550.18	41558.55
550.34	41731.75
550.51	41935.38
550.68	42000.91
550.84	41619.41
551.01	41926.02
551.18	41446.21
551.34	41951.76
551.51	42162.41
551.68	42096.88
551.84	42251.35
552.01	42277.10
552.18	42459.66
552.34	42085.17
552.51	42122.62
552.68	42302.84
552.84	42174.11
553.01	42431.57
553.18	42326.25
553.34	42600.09
553.51	42106.24
553.67	42464.34
553.84	43126.71
554.01	42932.45
554.17	42717.12
554.34	42927.77
554.51	42827.12
554.67	43091.60
554.84	43129.05
555.00	43005.00
555.17	42920.74
555.33	42979.26
555.50	42777.97
555.67	43047.13
555.83	43332.68
556.00	42906.70
556.16	43594.82
556.33	43248.42
556.50	42962.87
556.66	43196.93
556.83	42986.28
556.99	43526.94
557.16	43058.84
557.32	43381.83
557.49	43632.27
557.65	43185.22
557.82	43550.35
557.98	43438.00
558.15	43468.43
558.32	43145.44
558.48	43416.94
558.65	43761.00
558.81	43704.82
558.98	43351.40
559.14	43145.44
559.31	43292.89
559.47	43690.78
559.64	43863.98
559.80	43873.34
559.97	43709.50
560.13	43562.05
560.30	43742.27
560.46	43777.38
560.63	44114.42
560.79	43889.73
560.96	43962.28
561.12	44280.60
561.29	44062.93
561.45	44158.89
561.61	44053.56
561.78	44048.88
561.94	43988.03
562.11	43749.29
562.27	43632.27
562.44	43721.21
562.60	44524.01
562.77	44121.44
562.93	44158.89
563.10	44746.36
563.26	44217.40
563.42	44552.10
563.59	44119.10
563.75	43985.69
563.92	44177.61
564.08	43789.08
564.24	44168.25
564.41	43917.81
564.57	44205.70
564.74	44493.58
564.90	44397.62
565.07	44432.73
565.23	44605.93
565.39	44273.57
565.56	44615.29
565.72	44456.14
565.88	44301.66
566.05	44563.80
566.21	44566.14
566.38	44507.63
566.54	44657.42
566.70	44807.22
566.87	44636.36
567.03	44399.96
567.19	44793.17
567.36	44399.96
567.52	44552.10
567.68	44828.28
567.85	44872.75
568.01	44938.29
568.17	44753.38
568.34	44807.22
568.50	44591.89
568.66	44886.79
568.83	44655.08
568.99	44947.65
569.15	45315.11
569.32	44760.40
569.48	44451.45
569.64	45118.51
569.81	44811.90
569.97	44751.04
570.13	45226.17
570.30	45024.89
570.46	44516.99
570.62	44762.75
570.78	44856.37
570.95	45010.84
571.11	45280.00
571.27	44566.14
571.43	44697.21
571.60	44964.03
571.76	44636.36
571.92	44872.75
572.09	44947.65
572.25	44722.96
572.41	44837.64
572.57	44851.69
572.74	45256.60
572.90	45282.34
573.06	45048.29
573.22	45123.19
573.38	45214.47
573.55	45743.43
573.71	45762.15
573.87	45516.40
574.03	45071.70
574.20	45216.81
574.36	44978.07
574.52	45432.14
574.68	45193.40
574.84	45090.42
575.01	45418.10
575.17	45387.67
575.33	45663.85
575.49	44949.99
575.65	45443.84
575.82	45432.14
575.98	45090.42
576.14	45514.06
576.30	45420.44
576.46	45031.91
576.62	45261.28
576.79	45460.23
576.95	45099.78
577.11	45223.83
577.27	45277.66
577.43	45132.55
577.59	45572.57
577.75	45387.67
577.92	44737.00
578.08	45291.71
578.24	45357.24
578.40	45846.41
578.56	45759.81
578.72	45497.67
578.88	45715.34
579.04	45595.98
579.21	45106.80
579.37	45755.13
579.53	45925.99
579.69	45382.99
579.85	45088.08
580.01	45682.58
580.17	45382.99
580.33	45551.51
580.49	45361.92
580.65	45605.34
580.82	45755.13
580.98	45425.12
581.14	45373.63
581.30	45457.88
581.46	45340.86
581.62	45633.42
581.78	45188.72
581.94	45556.19
582.10	45464.91
582.26	45628.74
582.42	45116.17
582.58	45521.08
582.74	45698.96
582.90	45813.65
583.06	45715.34
583.22	45212.13
583.38	45937.69
583.54	45691.94
583.70	45591.30
583.86	45888.54
584.02	45558.53
584.18	46026.63
584.34	46197.49
584.50	45631.08
584.66	45787.90
584.82	46106.21
584.98	46263.03
585.14	45614.70
585.30	45689.60
585.46	45558.53
585.62	45628.74
585.78	45727.05
585.94	45434.48
586.10	45705.98
586.26	45233.19
586.42	45310.43
586.58	45371.28
586.74	45549.17
586.90	45837.05
587.06	45727.05
587.22	45518.74
587.38	45886.20
587.54	46052.38
587.70	45862.80
587.86	45825.35
588.02	45502.35
588.18	45598.32
588.34	45619.38
588.49	45949.40
588.65	45347.88
588.81	45715.34
588.97	45476.61
589.13	45652.15
589.29	45755.13
589.45	46103.87
589.61	45792.58
589.77	45881.52
589.93	45797.26
590.08	46167.07
