SpectraSuite Data File
++++++++++++++++++++++++++++++++++++
Date: Fri Oct 25 11:34:41 EDT 2013
User: price-jones
Dark Spectrum Present: No
Reference Spectrum Present: No
Number of Sampled Component Spectra: 1
Spectrometers: USB2+H05261
Integration Time (usec): 100000 (USB2+H05261)
Spectra Averaged: 1 (USB2+H05261)
Boxcar Smoothing: 0 (USB2+H05261)
Correct for Electrical Dark: No (USB2+H05261)
Strobe/Lamp Enabled: No (USB2+H05261)
Correct for Detector Non-linearity: No (USB2+H05261)
Correct for Stray Light: No (USB2+H05261)
Number of Pixels in Processed Spectrum: 2048
>>>>>Begin Processed Spectral Data<<<<<
365.73	304.27
365.92	304.27
366.12	304.27
366.32	182.56
366.52	191.92
366.72	107.66
366.91	166.18
367.11	166.18
367.31	194.26
367.51	149.79
367.70	222.35
367.90	238.73
368.10	149.79
368.30	131.07
368.49	229.37
368.69	229.37
368.89	210.65
369.09	149.79
369.28	243.42
369.48	180.22
369.68	229.37
369.87	208.31
370.07	269.16
370.27	276.18
370.47	421.30
370.66	510.24
370.86	521.94
371.06	524.28
371.25	571.09
371.45	545.34
371.65	521.94
371.84	573.43
372.04	589.82
372.24	592.16
372.44	587.47
372.63	617.90
372.83	599.18
373.03	568.75
373.22	498.53
373.42	594.50
373.62	575.77
373.81	615.56
374.01	606.20
374.21	664.71
374.40	660.03
374.60	657.69
374.79	615.56
374.99	575.77
375.19	601.52
375.38	697.48
375.58	634.29
375.78	648.33
375.97	713.86
376.17	685.78
376.37	615.56
376.56	671.73
376.76	648.33
376.95	650.67
377.15	683.44
377.35	688.12
377.54	669.39
377.74	634.29
377.93	650.67
378.13	730.25
378.33	723.23
378.52	601.52
378.72	678.76
378.91	732.59
379.11	641.31
379.31	753.65
379.50	713.86
379.70	748.97
379.89	671.73
380.09	748.97
380.28	669.39
380.48	692.80
380.68	697.48
380.87	734.93
381.07	692.80
381.26	784.08
381.46	711.52
381.65	730.25
381.85	706.84
382.04	779.40
382.24	720.88
382.43	725.57
382.63	739.61
382.83	702.16
383.02	772.38
383.22	770.04
383.41	734.93
383.61	774.72
383.80	837.91
384.00	765.36
384.19	805.14
384.39	800.46
384.58	795.78
384.78	896.43
384.97	837.91
385.17	816.85
385.36	798.12
385.56	929.19
385.75	802.80
385.95	748.97
386.14	877.70
386.34	840.25
386.53	873.02
386.72	777.06
386.92	835.57
387.11	908.13
387.31	894.08
387.50	812.17
387.70	840.25
387.89	910.47
388.09	805.14
388.28	823.87
388.48	851.96
388.67	884.72
388.86	908.13
389.06	847.27
389.25	896.43
389.45	964.30
389.64	931.53
389.84	896.43
390.03	912.81
390.22	830.89
390.42	940.90
390.61	858.98
390.81	966.64
391.00	990.05
391.19	1034.52
391.39	936.21
391.58	1015.79
391.78	976.00
391.97	961.96
392.16	999.41
392.36	1022.81
392.55	1062.60
392.75	1067.28
392.94	947.92
393.13	1097.71
393.33	987.71
393.52	1043.88
393.71	1078.99
393.91	985.37
394.10	1027.50
394.29	1069.62
394.49	1123.46
394.68	1125.80
394.88	1135.16
395.07	1151.54
395.26	1104.73
395.46	1104.73
395.65	1125.80
395.84	1114.10
396.04	1111.75
396.23	1142.18
396.42	1214.74
396.62	1170.27
396.81	1125.80
397.00	1259.21
397.19	1172.61
397.39	1149.20
397.58	1235.80
397.77	1245.16
397.97	1235.80
398.16	1231.12
398.35	1179.63
398.55	1160.91
398.74	1296.66
398.93	1294.32
399.12	1280.27
399.32	1270.91
399.51	1181.97
399.70	1301.34
399.90	1268.57
400.09	1334.11
400.28	1273.25
400.47	1329.42
400.67	1327.08
400.86	1378.58
401.05	1369.21
401.24	1441.77
401.44	1378.58
401.63	1364.53
401.82	1383.26
402.01	1430.07
402.21	1511.99
402.40	1472.20
402.59	1343.47
402.78	1460.49
402.97	1413.68
403.17	1474.54
403.36	1495.60
403.55	1467.52
403.74	1451.13
403.93	1572.84
404.13	1399.64
404.32	1593.90
404.51	1526.03
404.70	1568.16
404.89	1523.69
405.09	1619.65
405.28	1626.67
405.47	1610.29
405.66	1692.21
405.85	1636.03
406.05	1654.76
406.24	1600.93
406.43	1605.61
406.62	1743.70
406.81	1746.04
407.00	1706.25
407.20	1645.40
407.39	1727.32
407.58	1781.15
407.77	1788.17
407.96	1753.06
408.15	1832.64
408.34	1753.06
408.54	1877.11
408.73	1909.88
408.92	1834.98
409.11	1783.49
409.30	1902.86
409.49	1940.30
409.68	1914.56
409.87	1944.99
410.07	1966.05
410.26	1994.14
410.45	2059.67
410.64	1998.82
410.83	2036.27
411.02	2139.25
411.21	2120.53
411.40	2043.29
411.59	2029.24
411.78	2069.03
411.98	2064.35
412.17	2146.27
412.36	2136.91
412.55	2207.13
412.74	2253.94
412.93	2286.70
413.12	2230.53
413.31	2284.36
413.50	2230.53
413.69	2253.94
413.88	2373.30
414.07	2385.01
414.26	2335.85
414.45	2389.69
414.64	2406.07
414.83	2399.05
415.02	2495.01
415.22	2530.12
415.41	2546.50
415.60	2534.80
415.79	2551.18
415.98	2696.30
416.17	2663.53
416.36	2623.74
416.55	2597.99
416.74	2602.68
416.93	2726.72
417.12	2656.51
417.31	2703.32
417.50	2724.38
417.69	2853.11
417.88	2700.98
418.07	2799.28
418.26	2825.03
418.45	2799.28
418.64	3009.93
418.83	2937.37
419.02	2801.62
419.21	2958.44
419.39	3070.78
419.58	2984.18
419.77	2829.71
419.96	2911.63
420.15	3026.31
420.34	2991.20
420.53	3059.08
420.72	2942.05
420.91	3087.17
421.10	3028.65
421.29	3143.34
421.48	3150.36
421.67	3234.62
421.86	3103.55
422.05	3162.06
422.24	3218.24
422.43	3304.84
422.61	3192.49
422.80	3194.83
422.99	3105.89
423.18	3225.26
423.37	3356.33
423.56	3152.70
423.75	3162.06
423.94	3143.34
424.13	3005.25
424.32	3045.04
424.50	3267.39
424.69	3300.16
424.88	3337.60
425.07	3382.07
425.26	3246.32
425.45	3300.16
425.64	3215.90
425.83	3201.85
426.01	3368.03
426.20	3449.95
426.39	3342.28
426.58	3297.81
426.77	3379.73
426.96	3304.84
427.15	3358.67
427.33	3405.48
427.52	3337.60
427.71	3398.46
427.90	3363.35
428.09	3478.04
428.28	3576.34
428.46	3485.06
428.65	3592.72
428.84	3681.66
429.03	3681.66
429.22	3510.80
429.40	3590.38
429.59	3618.47
429.78	3356.33
429.97	3426.54
430.16	3632.51
430.34	3627.83
430.53	3599.74
430.72	3651.24
430.91	3695.71
431.10	3606.77
431.28	3679.32
431.47	3712.09
431.66	3861.88
431.85	3829.12
432.03	3784.65
432.22	3833.80
432.41	3911.04
432.60	3974.23
432.79	3922.74
432.97	4011.68
433.16	3878.27
433.35	3957.85
433.54	3981.25
433.72	4063.17
433.91	3932.10
434.10	3997.64
434.28	4042.11
434.47	3985.93
434.66	4119.34
434.85	4081.89
435.03	4117.00
435.22	4149.77
435.41	4105.30
435.59	4184.88
435.78	4205.94
435.97	4311.27
436.16	4215.30
436.34	4205.94
436.53	4095.94
436.72	4383.82
436.90	4219.99
437.09	4358.08
437.28	4320.63
437.46	4203.60
437.65	4264.46
437.84	4227.01
438.02	4276.16
438.21	4510.21
438.40	4322.97
438.58	4585.11
438.77	4416.59
438.96	4418.93
439.14	4432.97
439.33	4678.73
439.52	4627.24
439.70	4791.08
439.89	4774.69
440.08	4732.56
440.26	4709.16
440.45	4723.20
440.63	4844.91
440.82	4922.15
441.01	4812.14
441.19	4873.00
441.38	5125.77
441.57	5156.20
441.75	4978.32
441.94	4985.34
442.12	5097.69
442.31	5256.84
442.50	5221.74
442.68	5221.74
442.87	5254.50
443.05	5226.42
443.24	5266.21
443.43	5268.55
443.61	5348.12
443.80	5343.44
443.98	5165.56
444.17	5060.24
444.35	5294.29
444.54	5294.29
444.73	5416.00
444.91	5287.27
445.10	5413.66
445.28	5437.06
445.47	5397.28
445.65	5282.59
445.84	5509.62
446.02	5408.98
446.21	5301.31
446.39	5427.70
446.58	5502.60
446.77	5413.66
446.95	5397.28
447.14	5455.79
447.32	5549.41
447.51	5399.62
447.69	5322.38
447.88	5369.19
448.06	5521.32
448.25	5460.47
448.43	5570.48
448.62	5628.99
448.80	5633.67
448.99	5717.93
449.17	5624.31
449.36	5561.11
449.54	5612.60
449.73	5685.16
449.91	5771.76
450.10	5797.51
450.28	5783.46
450.46	5825.59
450.65	5746.02
450.83	5834.96
451.02	5778.78
451.20	5804.53
451.39	5790.49
451.57	5839.64
451.76	5783.46
451.94	5987.09
452.13	6010.50
452.31	5942.62
452.49	5837.30
452.68	6029.22
452.86	5888.79
453.05	6059.65
453.23	6087.73
453.42	6104.12
453.60	6019.86
453.78	6094.76
453.97	5987.09
454.15	6122.84
454.34	5977.73
454.52	6143.91
454.70	6097.10
454.89	6179.01
455.07	6157.95
455.26	6256.25
455.44	6272.64
455.62	6431.79
455.81	6209.44
455.99	6387.32
456.17	6431.79
456.36	6368.60
456.54	6530.09
456.73	6532.44
456.91	6705.63
457.09	6597.97
457.28	6691.59
457.46	6438.81
457.64	6726.70
457.83	6600.31
458.01	6497.33
458.19	6942.03
458.38	6691.59
458.56	6703.29
458.74	6857.77
458.93	6747.76
459.11	6724.36
459.29	6965.43
459.48	6843.73
459.66	6951.39
459.84	6750.10
460.03	6932.67
460.21	6920.96
460.39	6899.90
460.57	7021.61
460.76	6986.50
460.94	7030.97
461.12	7169.06
461.31	7157.36
461.49	7045.01
461.67	7073.10
461.85	7262.68
462.04	7265.02
462.22	7602.06
462.40	7337.58
462.59	7290.77
462.77	7344.60
462.95	7246.30
463.13	7353.96
463.32	7435.88
463.50	7573.97
463.68	7585.68
463.86	7686.32
464.05	7550.57
464.23	7442.90
464.41	7510.78
464.59	7433.54
464.78	7445.24
464.96	7576.31
465.14	7487.37
465.32	7529.50
465.50	7691.00
465.69	7623.12
465.87	7798.66
466.05	7639.51
466.23	7864.20
466.41	7585.68
466.60	7866.54
466.78	7700.36
466.96	7772.92
467.14	7765.90
467.32	7857.18
467.51	8042.08
467.69	7761.22
467.87	7943.78
468.05	7967.18
468.23	7969.52
468.41	7901.65
468.60	7850.16
468.78	8053.78
468.96	7873.56
469.14	8140.38
469.32	8182.51
469.50	8079.53
469.69	8304.22
469.87	8208.26
470.05	8271.45
470.23	8365.07
470.41	8208.26
470.59	8353.37
470.77	8442.31
470.95	8353.37
471.14	8664.66
471.32	8294.86
471.50	8475.08
471.68	8615.51
471.86	8606.15
472.04	8624.87
472.22	8674.03
472.40	8704.45
472.58	8650.62
472.77	8622.53
472.95	8699.77
473.13	9032.13
473.31	8879.99
473.49	8877.65
473.67	8898.72
473.85	8919.78
474.03	9102.34
474.21	9291.93
474.39	9481.51
474.57	9219.37
474.75	9317.67
474.93	9380.87
475.12	9392.57
475.30	9472.15
475.48	9523.64
475.66	9507.26
475.84	9514.28
476.02	9724.93
476.20	9713.22
476.38	9858.34
476.56	9898.13
476.74	9886.42
476.92	10003.45
477.10	10092.39
477.28	10153.24
477.46	10150.90
477.64	10223.46
477.82	10480.92
478.00	10567.52
478.18	10237.50
478.36	10675.18
478.54	10567.52
478.72	10710.29
478.90	10778.17
479.08	11084.78
479.26	11066.05
479.44	11052.01
479.62	11140.95
479.80	11503.73
479.98	11328.19
480.16	11513.10
480.34	11595.01
480.52	11592.67
480.70	11564.59
480.88	11431.18
481.06	11681.61
481.24	11426.50
481.41	11922.69
481.59	12058.44
481.77	12037.38
481.95	12123.98
482.13	12196.53
482.31	12215.26
482.49	12734.85
482.67	12596.76
482.85	12765.28
483.03	12952.52
483.21	12898.69
483.39	12964.23
483.57	12924.44
483.74	13200.62
483.92	13322.33
484.10	13069.55
484.28	13411.27
484.46	13689.79
484.64	13872.36
484.82	13610.22
485.00	13802.14
485.18	14181.31
485.35	14253.86
485.53	14111.09
485.71	14389.61
485.89	14693.88
486.07	14429.40
486.25	14658.78
486.43	14532.39
486.61	14743.03
486.78	15082.41
486.96	15133.90
487.14	15353.91
487.32	15211.14
487.50	15297.74
487.68	15566.90
487.85	15522.43
488.03	15798.62
488.21	15917.98
488.39	15829.04
488.57	16166.08
488.75	16414.18
488.92	16421.20
489.10	16683.34
489.28	16702.06
489.46	16879.94
489.64	16594.40
489.81	17114.00
489.99	17242.73
490.17	17338.69
490.35	17163.15
490.53	17172.51
490.70	17642.96
490.88	17504.87
491.06	17839.56
491.24	17984.68
491.41	18015.10
491.59	17963.61
491.77	17987.02
491.95	18387.25
492.13	18597.90
492.30	18415.34
492.48	18623.64
492.66	18462.15
492.84	18909.19
493.01	18860.04
493.19	18953.66
493.37	19159.63
493.54	19370.27
493.72	19503.68
493.90	19335.17
494.08	19344.53
494.25	19302.40
494.43	19728.38
494.61	20119.24
494.79	19857.10
494.96	19822.00
495.14	20219.89
495.32	20500.75
495.49	20566.29
495.67	20943.11
495.85	20716.08
496.02	20849.49
496.20	21104.61
496.38	20992.26
496.55	21207.59
496.73	21579.74
496.91	21549.31
497.09	21322.28
497.26	21633.57
497.44	21532.93
497.62	21530.59
497.79	22089.98
497.97	22050.19
498.14	22073.59
498.32	22277.22
498.50	22169.55
498.67	22284.24
498.85	22614.26
499.03	22757.03
499.20	22801.50
499.38	22675.11
499.56	22806.18
499.73	22904.48
499.91	23267.27
500.08	22895.12
500.26	23012.15
500.44	23428.76
500.61	23218.11
500.79	23175.98
500.97	23679.20
501.14	24140.29
501.32	24016.24
501.49	23702.61
501.67	23967.09
501.84	24294.76
502.02	24144.97
502.20	24154.33
502.37	24252.63
502.55	24144.97
502.72	24432.85
502.90	24613.07
503.07	24357.96
503.25	24283.06
503.43	24711.38
503.60	24608.39
503.78	24964.15
503.95	24917.34
504.13	24971.18
504.30	25050.75
504.48	25200.55
504.65	25401.83
504.83	25132.67
505.01	25621.84
505.18	25502.48
505.36	25727.17
505.53	25682.70
505.71	25715.47
505.88	25776.32
506.06	25717.81
506.23	26047.82
506.41	26118.04
506.58	26288.90
506.76	25982.29
506.93	26448.05
507.11	26525.29
507.28	26850.63
507.46	26696.15
507.63	26703.17
507.81	26876.37
507.98	26616.57
508.16	27049.57
508.33	26852.97
508.50	27122.13
508.68	27166.60
508.85	27431.08
509.03	27037.87
509.20	27204.05
509.38	27800.88
509.55	27503.64
509.73	27580.87
509.90	27894.50
510.08	27770.46
510.25	27850.03
510.42	27716.62
510.60	28140.26
510.77	27946.00
510.95	28563.90
511.12	28287.71
511.30	28620.07
511.47	28222.18
511.64	28444.53
511.82	28465.60
511.99	28453.89
512.17	28601.35
512.34	29043.71
512.51	28870.51
512.69	28886.89
512.86	29198.18
513.04	29083.50
513.21	29123.29
513.38	29233.29
513.56	29284.78
513.73	28978.17
513.90	29467.34
514.08	29450.96
514.25	29780.98
514.43	29680.33
514.60	29589.05
514.77	30174.19
514.95	30148.44
515.12	29528.20
515.29	30410.58
515.47	30094.61
515.64	30281.85
515.81	29968.22
515.99	30253.76
516.16	30560.37
516.33	30656.34
516.51	30712.51
516.68	30733.57
516.85	30618.89
517.03	30513.56
517.20	30747.62
517.37	30822.51
517.54	31063.59
517.72	31016.78
517.89	31409.99
518.06	30984.01
518.24	31339.77
518.41	31365.52
518.58	31285.94
518.75	31159.55
518.93	31885.12
519.10	31337.43
519.27	31463.82
519.45	31751.71
519.62	31681.49
519.79	31910.86
519.96	32100.45
520.14	32203.43
520.31	31573.83
520.48	31974.06
520.65	32142.58
520.83	32173.00
521.00	32072.36
521.17	32402.38
521.34	32055.98
521.52	32266.63
521.69	32524.08
521.86	32582.60
522.03	32561.53
522.20	32687.92
522.38	33099.86
522.55	32996.87
522.72	32996.87
522.89	32959.42
523.07	33333.91
523.24	33298.80
523.41	33287.10
523.58	33053.05
523.75	33469.66
523.92	33455.62
524.10	33226.24
524.27	33628.82
524.44	33633.50
524.61	33937.77
524.78	33525.83
524.96	33687.33
525.13	33823.08
525.30	34129.69
525.47	33743.50
525.64	33692.01
525.81	34157.78
525.98	34183.52
526.16	34452.69
526.33	34195.23
526.50	34501.84
526.67	34169.48
526.84	34368.43
527.01	34703.12
527.18	34677.38
527.36	34623.54
527.53	34653.97
527.70	35157.19
527.87	34871.64
528.04	34621.20
528.21	35290.60
528.38	34728.87
528.55	35519.97
528.72	35178.25
528.89	34965.26
529.07	34967.60
529.24	34983.99
529.41	35676.79
529.58	35400.60
529.75	35431.03
529.92	35384.22
530.09	35234.42
530.26	35622.95
530.43	35475.50
530.60	35585.50
530.77	36055.95
530.94	35742.32
531.11	35732.96
531.28	35831.26
531.46	35828.92
531.63	36098.08
531.80	36112.13
531.97	36474.91
532.14	36465.55
532.31	36114.47
532.48	36521.72
532.65	36577.89
532.82	36357.88
532.99	36715.98
533.16	36182.34
533.33	36194.04
533.50	36353.20
533.67	36893.86
533.84	36385.97
534.01	37003.87
534.18	36924.29
534.35	37254.31
534.52	36823.65
534.69	37240.26
534.86	37284.73
535.03	37064.72
535.20	37216.86
535.37	37263.67
535.54	37078.77
535.71	37172.39
535.88	37565.60
536.05	37219.20
536.22	37406.44
536.38	37347.93
536.55	37495.38
536.72	37221.54
536.89	37322.18
537.06	37301.12
537.23	37572.62
537.40	37869.87
537.57	37483.68
537.74	37298.78
537.91	38010.30
538.08	37720.07
538.25	37722.41
538.42	37890.93
538.59	37787.95
538.75	38066.47
538.92	38813.10
539.09	38534.58
539.26	38382.45
539.43	38239.67
539.60	38237.33
539.77	38316.91
539.94	38312.23
540.11	38195.20
540.28	38260.74
540.44	38602.46
540.61	38164.78
540.78	38550.96
540.95	38508.83
541.12	38291.16
541.29	38782.68
541.46	38394.15
541.62	38485.43
541.79	39023.75
541.96	38422.23
542.13	38714.80
542.30	39372.49
542.47	39035.45
542.63	38899.70
542.80	39433.35
542.97	39632.29
543.14	39344.41
543.31	39519.95
543.48	39318.66
543.64	39784.43
543.81	40055.93
543.98	39625.27
544.15	39578.46
544.32	39693.15
544.48	39985.71
544.65	40062.95
544.82	39927.20
544.99	39632.29
545.16	39971.67
545.32	39835.92
545.49	40477.22
545.66	40542.76
545.83	40039.54
546.00	40617.66
546.16	40671.49
546.33	39674.42
546.50	40149.55
546.67	40486.59
546.83	39789.11
547.00	40765.11
547.17	39990.39
547.34	39950.60
547.50	40542.76
547.67	40620.00
547.84	40612.98
548.00	40648.08
548.17	41221.52
548.34	41010.87
548.51	40875.12
548.67	40825.96
548.84	40575.53
549.01	40751.07
549.18	41036.61
549.34	41106.83
549.51	41301.09
549.68	40825.96
549.84	40690.21
550.01	41242.58
550.18	41127.89
550.34	41282.37
550.51	41591.32
550.68	41237.90
550.84	40659.79
551.01	41813.67
551.18	40779.15
551.34	41296.41
551.51	41312.80
551.68	41593.66
551.84	41603.02
552.01	41020.23
552.18	41544.51
552.34	41155.98
552.51	41282.37
552.68	41265.99
552.84	41668.56
553.01	41706.01
553.18	41434.50
553.34	41696.64
553.51	41991.55
553.67	41584.30
553.84	41979.85
554.01	41783.24
554.17	41455.57
554.34	42080.49
554.51	42239.65
554.67	42440.93
554.84	41633.45
555.00	42223.26
555.17	42106.24
555.33	41867.50
555.50	42429.23
555.67	42171.77
555.83	41909.63
556.00	42820.10
556.16	42684.35
556.33	42562.64
556.50	42340.29
556.66	42548.60
556.83	42249.01
556.99	42712.44
557.16	42511.15
557.32	42682.01
557.49	42644.56
557.65	42370.72
557.82	42731.16
557.98	42246.67
558.15	42885.64
558.32	42789.67
558.48	42302.84
558.65	42501.79
558.81	43246.08
558.98	42635.20
559.14	42763.93
559.31	42347.31
559.47	42822.44
559.64	43152.46
559.80	42869.25
559.97	43271.82
560.13	42593.07
560.30	42600.09
560.46	42972.24
560.63	42831.80
560.79	43344.38
560.96	43819.51
561.12	43323.32
561.29	43442.68
561.45	43313.95
561.61	43133.73
561.78	43232.04
561.94	43302.25
562.11	43297.57
562.27	42960.53
562.44	43159.48
562.60	43363.11
562.77	43393.53
562.93	42990.96
563.10	43557.37
563.26	43393.53
563.42	43714.19
563.59	43185.22
563.75	43384.17
563.92	43358.42
564.08	43044.79
564.24	43536.30
564.41	43475.45
564.57	43505.88
564.74	43604.18
564.90	43882.70
565.07	43409.92
565.23	43732.91
565.39	44069.95
565.56	43845.26
565.72	43700.14
565.88	43676.74
566.05	43714.19
566.21	44282.94
566.38	44151.87
566.54	43868.66
566.70	44304.00
566.87	43908.45
567.03	43831.21
567.19	44161.23
567.36	43419.28
567.52	43973.98
567.68	44002.07
567.85	43885.04
568.01	44591.89
568.17	43772.70
568.34	44156.55
568.50	43779.72
568.66	43625.25
568.83	43999.73
568.99	44278.25
569.15	44027.82
569.32	43854.62
569.48	43491.83
569.64	44308.68
569.81	44013.77
569.97	44240.81
570.13	43969.30
570.30	43604.18
570.46	44238.47
570.62	44421.03
570.78	44404.64
570.95	44247.83
571.11	43969.30
571.27	43667.37
571.43	44100.37
571.60	44287.62
571.76	43597.16
571.92	44142.50
572.09	44479.54
572.25	43934.20
572.41	44414.01
572.57	44083.99
572.74	44751.04
572.90	44151.87
573.06	44304.00
573.22	44449.11
573.38	44453.79
573.55	44818.92
573.71	44767.43
573.87	44369.54
574.03	44479.54
574.20	45120.85
574.36	44418.69
574.52	44802.53
574.68	44624.65
574.84	44528.69
575.01	44128.46
575.17	44439.75
575.33	44453.79
575.49	44156.55
575.65	44477.20
575.82	44732.32
575.98	44481.88
576.14	44847.00
576.30	44545.08
576.46	44467.84
576.62	44484.22
576.79	44711.25
576.95	44191.65
577.11	44446.77
577.27	44664.44
577.43	44687.85
577.59	44538.05
577.75	44678.49
577.92	44144.84
578.08	44491.24
578.24	44261.87
578.40	44788.49
578.56	44758.06
578.72	44594.23
578.88	44905.52
579.04	44676.15
579.21	44538.05
579.37	44994.46
579.53	44648.06
579.69	44392.94
579.85	44289.96
580.01	44601.25
580.17	44692.53
580.33	44376.56
580.49	44655.08
580.65	44957.01
580.82	44516.99
580.98	44388.26
581.14	44570.82
581.30	44744.02
581.46	44861.05
581.62	44762.75
581.78	44210.38
581.94	44898.50
582.10	44971.05
582.26	44914.88
582.42	44734.66
582.58	44673.81
582.74	44758.06
582.90	45027.23
583.06	45022.54
583.22	45200.43
583.38	44465.50
583.54	45006.16
583.70	45071.70
583.86	45165.32
584.02	45034.25
584.18	45209.79
584.34	45003.82
584.50	44765.09
584.66	44978.07
584.82	44516.99
584.98	45179.36
585.14	44704.23
585.30	44488.90
585.46	44587.21
585.62	44694.87
585.78	44938.29
585.94	44999.14
586.10	45134.89
586.26	44603.59
586.42	44739.34
586.58	44498.26
586.74	44814.24
586.90	44687.85
587.06	44835.30
587.22	45003.82
587.38	44601.25
587.54	45291.71
587.70	45436.82
587.86	45045.95
588.02	44753.38
588.18	44800.19
588.34	45249.58
588.49	45249.58
588.65	44891.48
588.81	45177.02
588.97	44767.43
589.13	45198.09
589.29	44825.94
589.45	44942.97
589.61	44889.13
589.77	45083.40
589.93	45148.93
590.08	45340.86
