SpectraSuite Data File
++++++++++++++++++++++++++++++++++++
Date: Fri Oct 25 11:33:56 EDT 2013
User: price-jones
Dark Spectrum Present: No
Reference Spectrum Present: No
Number of Sampled Component Spectra: 1
Spectrometers: USB2+H05261
Integration Time (usec): 100000 (USB2+H05261)
Spectra Averaged: 1 (USB2+H05261)
Boxcar Smoothing: 0 (USB2+H05261)
Correct for Electrical Dark: No (USB2+H05261)
Strobe/Lamp Enabled: No (USB2+H05261)
Correct for Detector Non-linearity: No (USB2+H05261)
Correct for Stray Light: No (USB2+H05261)
Number of Pixels in Processed Spectrum: 2048
>>>>>Begin Processed Spectral Data<<<<<
365.73	344.06
365.92	344.06
366.12	344.06
366.32	236.39
366.52	182.56
366.72	196.60
366.91	154.48
367.11	149.79
367.31	161.50
367.51	196.60
367.70	196.60
367.90	147.45
368.10	205.97
368.30	145.11
368.49	187.24
368.69	196.60
368.89	187.24
369.09	117.03
369.28	161.50
369.48	301.93
369.68	301.93
369.87	271.50
370.07	217.67
370.27	250.44
370.47	248.10
370.66	491.51
370.86	575.77
371.06	486.83
371.25	627.26
371.45	557.05
371.65	582.79
371.84	585.13
372.04	559.39
372.24	664.71
372.44	582.79
372.63	587.47
372.83	580.45
373.03	568.75
373.22	634.29
373.42	561.73
373.62	704.50
373.81	676.41
374.01	683.44
374.21	613.22
374.40	617.90
374.60	645.99
374.79	631.94
374.99	629.60
375.19	655.35
375.38	613.22
375.58	655.35
375.78	709.18
375.97	564.07
376.17	695.14
376.37	629.60
376.56	685.78
376.76	653.01
376.95	744.29
377.15	777.06
377.35	685.78
377.54	737.27
377.74	678.76
377.93	727.91
378.13	622.58
378.33	648.33
378.52	746.63
378.72	657.69
378.91	730.25
379.11	683.44
379.31	751.31
379.50	734.93
379.70	734.93
379.89	669.39
380.09	671.73
380.28	737.27
380.48	779.40
380.68	779.40
380.87	734.93
381.07	868.34
381.26	730.25
381.46	767.70
381.65	713.86
381.85	755.99
382.04	772.38
382.24	777.06
382.43	779.40
382.63	777.06
382.83	751.31
383.02	858.98
383.22	788.76
383.41	786.42
383.61	767.70
383.80	833.23
384.00	842.59
384.19	802.80
384.39	795.78
384.58	821.53
384.78	873.02
384.97	844.93
385.17	861.32
385.36	807.48
385.56	856.64
385.75	753.65
385.95	830.89
386.14	863.66
386.34	800.46
386.53	873.02
386.72	802.80
386.92	828.55
387.11	908.13
387.31	791.10
387.50	805.14
387.70	877.70
387.89	912.81
388.09	901.11
388.28	985.37
388.48	898.77
388.67	987.71
388.86	884.72
389.06	910.47
389.25	903.45
389.45	901.11
389.64	910.47
389.84	978.34
390.03	952.60
390.22	973.66
390.42	952.60
390.61	1050.90
390.81	968.98
391.00	985.37
391.19	1086.01
391.39	990.05
391.58	1081.33
391.78	1041.54
391.97	1027.50
392.16	968.98
392.36	1076.65
392.55	1093.03
392.75	1022.81
392.94	973.66
393.13	1095.37
393.33	976.00
393.52	1139.84
393.71	1104.73
393.91	1081.33
394.10	1153.88
394.29	1153.88
394.49	1034.52
394.68	1107.07
394.88	1139.84
395.07	1107.07
395.26	1186.65
395.46	1160.91
395.65	1160.91
395.84	1214.74
396.04	1200.69
396.23	1254.53
396.42	1153.88
396.62	1179.63
396.81	1165.59
397.00	1277.93
397.19	1277.93
397.39	1242.82
397.58	1266.23
397.77	1205.38
397.97	1214.74
398.16	1198.35
398.35	1294.32
398.55	1315.38
398.74	1310.70
398.93	1331.76
399.12	1261.55
399.32	1284.95
399.51	1245.16
399.70	1409.00
399.90	1303.68
400.09	1294.32
400.28	1392.62
400.47	1357.51
400.67	1369.21
400.86	1394.96
401.05	1416.02
401.24	1406.66
401.44	1523.69
401.63	1516.67
401.82	1479.22
402.01	1448.79
402.21	1509.65
402.40	1535.39
402.59	1479.22
402.78	1472.20
402.97	1509.65
403.17	1493.26
403.36	1521.35
403.55	1586.88
403.74	1589.22
403.93	1589.22
404.13	1607.95
404.32	1528.37
404.51	1570.50
404.70	1652.42
404.89	1579.86
405.09	1722.63
405.28	1710.93
405.47	1528.37
405.66	1650.08
405.85	1783.49
406.05	1802.21
406.24	1710.93
406.43	1757.74
406.62	1724.97
406.81	1846.68
407.00	1699.23
407.20	1673.48
407.39	1760.08
407.58	1842.00
407.77	1877.11
407.96	1818.60
408.15	1856.04
408.34	1795.19
408.54	1832.64
408.73	1980.09
408.92	1942.64
409.11	1944.99
409.30	2043.29
409.49	1968.39
409.68	2040.95
409.87	1994.14
410.07	2076.06
410.26	2050.31
410.45	2125.21
410.64	1830.30
410.83	2106.48
411.02	2101.80
411.21	2193.08
411.40	2108.82
411.59	2092.44
411.78	2209.47
411.98	2244.57
412.17	2186.06
412.36	2174.36
412.55	2260.96
412.74	2342.88
412.93	2324.15
413.12	2197.76
413.31	2380.32
413.50	2438.84
413.69	2373.30
413.88	2450.54
414.07	2352.24
414.26	2485.65
414.45	2590.97
414.64	2373.30
414.83	2502.03
415.02	2525.44
415.22	2642.46
415.41	2647.15
415.60	2640.12
415.79	2679.91
415.98	2808.64
416.17	2661.19
416.36	2658.85
416.55	2729.06
416.74	2829.71
416.93	2773.53
417.12	2822.69
417.31	2810.98
417.50	2904.60
417.69	2951.42
417.88	2928.01
418.07	2942.05
418.26	2932.69
418.45	2995.89
418.64	3061.42
418.83	3040.36
419.02	3040.36
419.21	3059.08
419.39	3129.30
419.58	3070.78
419.77	3180.79
419.96	3164.40
420.15	3243.98
420.34	3138.66
420.53	3281.43
420.72	3218.24
420.91	3232.28
421.10	3243.98
421.29	3199.51
421.48	3122.27
421.67	3323.56
421.86	3185.47
422.05	3356.33
422.24	3302.50
422.43	3309.52
422.61	3433.57
422.80	3442.93
422.99	3293.13
423.18	3480.38
423.37	3578.68
423.56	3426.54
423.75	3346.97
423.94	3311.86
424.13	3260.37
424.32	3251.00
424.50	3426.54
424.69	3412.50
424.88	3548.25
425.07	3449.95
425.26	3379.73
425.45	3421.86
425.64	3431.23
425.83	3510.80
426.01	3548.25
426.20	3524.85
426.39	3494.42
426.58	3506.12
426.77	3342.28
426.96	3456.97
427.15	3508.46
427.33	3501.44
427.52	3552.93
427.71	3688.68
427.90	3463.99
428.09	3637.19
428.28	3702.73
428.46	3658.26
428.65	3550.59
428.84	3751.88
429.03	3740.18
429.22	3534.21
429.40	3742.52
429.59	3723.79
429.78	3585.70
429.97	3625.49
430.16	3817.41
430.34	3772.94
430.53	3796.35
430.72	3777.62
430.91	3850.18
431.10	3786.99
431.28	3915.72
431.47	3927.42
431.66	4173.18
431.85	3934.44
432.03	4095.94
432.22	4065.51
432.41	3922.74
432.60	4009.34
432.79	4077.21
432.97	4091.26
433.16	4067.85
433.35	3962.53
433.54	4177.86
433.72	4320.63
433.91	4149.77
434.10	4046.79
434.28	4236.37
434.47	4264.46
434.66	4189.56
434.85	4212.96
435.03	4451.70
435.22	4276.16
435.41	4367.44
435.59	4381.48
435.78	4437.66
435.97	4479.79
436.16	4421.27
436.34	4322.97
436.53	4402.55
436.72	4662.35
436.90	4259.78
437.09	4521.92
437.28	4395.53
437.46	4491.49
437.65	4542.98
437.84	4573.41
438.02	4690.43
438.21	4528.94
438.40	4578.09
438.58	4800.44
438.77	4809.80
438.96	4770.01
439.14	4922.15
439.33	4938.53
439.52	4889.38
439.70	4947.89
439.89	4971.30
440.08	4968.96
440.26	4971.30
440.45	4957.25
440.63	5001.72
440.82	5217.05
441.01	4990.02
441.19	5212.37
441.38	5362.17
441.57	5320.04
441.75	5331.74
441.94	5359.83
442.12	5296.63
442.31	5387.91
442.50	5373.87
442.68	5380.89
442.87	5607.92
443.05	5554.09
443.24	5570.48
443.43	5563.45
443.61	5444.09
443.80	5741.33
443.98	5467.49
444.17	5200.67
444.35	5401.96
444.54	5577.50
444.73	5706.23
444.91	5507.28
445.10	5678.14
445.28	5624.31
445.47	5710.91
445.65	5469.83
445.84	5664.10
446.02	5748.36
446.21	5628.99
446.39	5717.93
446.58	5671.12
446.77	5628.99
446.95	5689.84
447.14	5717.93
447.32	5757.72
447.51	5891.13
447.69	5680.48
447.88	5774.10
448.06	5724.95
448.25	5678.14
448.43	5783.46
448.62	5853.68
448.80	5753.04
448.99	5825.59
449.17	5980.07
449.36	5914.53
449.54	5989.43
449.73	6047.94
449.91	6139.23
450.10	5977.73
450.28	6066.67
450.46	6087.73
450.65	5949.64
450.83	6197.74
451.02	6228.17
451.20	6193.06
451.39	6293.70
451.57	6190.72
451.76	6101.78
451.94	6293.70
452.13	6333.49
452.31	6303.06
452.49	6209.44
452.68	6307.74
452.86	6333.49
453.05	6523.07
453.23	6307.74
453.42	6249.23
453.60	6324.13
453.78	6438.81
453.97	6216.46
454.15	6443.49
454.34	6335.83
454.52	6478.60
454.70	6595.63
454.89	6558.18
455.07	6651.80
455.26	6546.48
455.44	6740.74
455.62	6562.86
455.81	6801.60
455.99	6612.01
456.17	6722.02
456.36	6663.51
456.54	6647.12
456.73	7033.31
456.91	7185.44
457.09	6778.19
457.28	7094.16
457.46	6958.41
457.64	7101.19
457.83	6902.24
458.01	7002.88
458.19	7183.10
458.38	6906.92
458.56	7077.78
458.74	7190.13
458.93	7094.16
459.11	7185.44
459.29	7351.62
459.48	7232.26
459.66	7061.40
459.84	7335.24
460.03	7368.01
460.21	7323.54
460.39	7417.16
460.57	7461.63
460.76	7454.61
460.94	7449.93
461.12	7541.21
461.31	7595.04
461.49	7566.95
461.67	7302.47
461.85	7728.45
462.04	7609.08
462.22	7948.46
462.40	7772.92
462.59	7737.81
462.77	7581.00
462.95	7873.56
463.13	7857.18
463.32	7768.24
463.50	7908.67
463.68	7695.68
463.86	8060.80
464.05	7581.00
464.23	7751.85
464.41	7882.92
464.59	7857.18
464.78	8051.44
464.96	7971.86
465.14	7974.21
465.32	8051.44
465.50	8049.10
465.69	8210.60
465.87	8119.32
466.05	8163.79
466.23	8081.87
466.41	8173.15
466.60	8297.20
466.78	8219.96
466.96	8077.19
467.14	8135.70
467.32	8318.26
467.51	8224.64
467.69	8072.51
467.87	8306.56
468.05	8442.31
468.23	8559.34
468.41	8348.69
468.60	8423.59
468.78	8470.40
468.96	8575.72
469.14	8538.27
469.32	8631.90
469.50	8348.69
469.69	8589.77
469.87	8547.64
470.05	8716.16
470.23	8624.87
470.41	8704.45
470.59	8664.66
470.77	8744.24
470.95	8847.22
471.14	8781.69
471.32	8599.13
471.50	8957.23
471.68	8994.68
471.86	9006.38
472.04	9252.14
472.22	9369.16
472.40	9137.45
472.58	8966.59
472.77	9088.30
472.95	9324.69
473.13	9415.98
473.31	9226.39
473.49	9235.75
473.67	9404.27
473.85	9394.91
474.03	9413.63
474.21	9706.20
474.39	9792.80
474.57	9741.31
474.75	9774.08
474.93	9788.12
475.12	9820.89
475.30	9958.98
475.48	9980.04
475.66	10178.99
475.84	10169.63
476.02	10281.97
476.20	10200.05
476.38	10335.81
476.56	10377.94
476.74	10541.77
476.92	10413.04
477.10	10619.01
477.28	10682.20
477.46	10520.71
477.64	10895.19
477.82	11145.63
478.00	11178.40
478.18	10892.85
478.36	11372.66
478.54	11302.45
478.72	11363.30
478.90	11318.83
479.08	11552.88
479.26	11609.06
479.44	11655.87
479.62	11616.08
479.80	11915.67
479.98	11836.09
480.16	12013.97
480.34	11791.62
480.52	12053.76
480.70	12320.58
480.88	12023.33
481.06	12421.22
481.24	12271.43
481.41	12779.32
481.59	12606.13
481.77	12676.34
481.95	12706.77
482.13	12917.42
482.31	13104.66
482.49	13273.18
482.67	13209.98
482.85	13575.11
483.03	13537.66
483.21	13575.11
483.39	13823.20
483.57	13530.64
483.74	13912.14
483.92	13848.95
484.10	13860.65
484.28	14136.84
484.46	14338.12
484.64	14628.35
484.82	14307.69
485.00	14684.52
485.18	15007.52
485.35	15112.84
485.53	15157.31
485.71	15176.03
485.89	15229.87
486.07	15159.65
486.25	15302.42
486.43	15513.07
486.61	15688.61
486.78	15431.15
486.96	15646.48
487.14	16060.76
487.32	16133.31
487.50	16027.99
487.68	16320.56
487.85	16631.85
488.03	16842.50
488.21	16865.90
488.39	16996.97
488.57	17015.69
488.75	17252.09
488.92	17247.41
489.10	17469.76
489.28	17544.66
489.46	17755.30
489.64	17785.73
489.81	18263.20
489.99	17879.35
490.17	18052.55
490.35	18197.67
490.53	18347.46
490.70	18382.57
490.88	18431.72
491.06	18586.19
491.24	18867.06
491.41	18829.61
491.59	19227.50
491.77	19328.14
491.95	19255.59
492.13	19398.36
492.30	19613.69
492.48	19370.27
492.66	19531.77
492.84	19667.52
493.01	19948.39
493.19	20180.10
493.37	20168.40
493.54	20379.04
493.72	20301.81
493.90	20379.04
494.08	20519.48
494.25	20671.61
494.43	20929.07
494.61	20910.35
494.79	21301.22
494.96	21048.44
495.14	21333.98
495.32	21563.36
495.49	21769.32
495.67	21191.21
495.85	21666.34
496.02	22155.51
496.20	22106.36
496.38	22239.77
496.55	22005.72
496.73	22829.59
496.91	22625.96
497.09	22658.73
497.26	22572.13
497.44	22766.39
497.62	22979.38
497.79	23438.12
497.97	23087.04
498.14	23049.60
498.32	23550.47
498.50	23784.52
498.67	23583.24
498.85	23838.36
499.03	23751.76
499.20	24159.01
499.38	24364.98
499.56	24137.94
499.73	24379.02
499.91	24627.12
500.08	24802.66
500.26	24123.90
500.44	24493.71
500.61	24748.82
500.79	24318.17
500.97	24753.51
501.14	25972.92
501.32	25280.13
501.49	25151.40
501.67	25017.99
501.84	25605.46
502.02	25366.73
502.20	25441.62
502.37	25818.45
502.55	25642.91
502.72	26026.76
502.90	25832.49
503.07	25621.84
503.25	26003.35
503.43	26127.40
503.60	26089.95
503.78	26082.93
503.95	25914.41
504.13	26405.92
504.30	26745.30
504.48	26359.11
504.65	26551.04
504.83	27019.14
505.01	27009.78
505.18	26995.74
505.36	26899.78
505.53	27138.51
505.71	26862.33
505.88	27548.11
506.06	26953.61
506.23	27721.30
506.41	27342.14
506.58	27239.15
506.76	27770.46
506.93	27821.95
507.11	27934.29
507.28	27859.40
507.46	27843.01
507.63	28070.04
507.81	28727.74
507.98	27824.29
508.16	27971.74
508.33	28002.17
508.50	28673.90
508.68	28769.86
508.85	28549.85
509.03	28322.82
509.20	28713.69
509.38	29149.03
509.55	28828.38
509.73	28917.32
509.90	29106.90
510.08	29179.46
510.25	29301.17
510.42	29305.85
510.60	29448.62
510.77	29710.76
510.95	30092.27
511.12	29572.67
511.30	29434.58
511.47	29961.20
511.64	30082.91
511.82	30143.76
511.99	29867.58
512.17	30103.97
512.34	30263.13
512.51	30572.08
512.69	30815.49
512.86	30874.01
513.04	30972.31
513.21	30506.54
513.38	30941.88
513.56	31229.77
513.73	30937.20
513.90	31040.18
514.08	31044.87
514.25	31288.28
514.43	31379.56
514.60	31452.12
514.77	31428.71
514.95	31438.08
515.12	31208.70
515.29	31646.38
515.47	31721.28
515.64	32032.57
515.81	31344.45
515.99	32301.73
516.16	32381.31
516.33	31913.20
516.51	32652.81
516.68	31931.93
516.85	32154.28
517.03	32601.32
517.20	32737.07
517.37	32573.24
517.54	32645.79
517.72	32615.37
517.89	32606.00
518.06	32556.85
518.24	32538.13
518.41	32526.42
518.58	33031.98
518.75	33174.75
518.93	32905.59
519.10	33144.33
519.27	33198.16
519.45	33120.92
519.62	33883.94
519.79	33273.06
519.96	33621.80
520.14	33535.20
520.31	33635.84
520.48	33926.07
520.65	33895.64
520.83	34244.38
521.00	34127.35
521.17	34181.18
521.34	33785.63
521.52	34522.90
521.69	34190.55
521.86	34740.57
522.03	34417.58
522.20	34581.42
522.38	34876.32
522.55	34684.40
522.72	34787.38
522.89	34960.58
523.07	35185.27
523.24	34993.35
523.41	35180.59
523.58	34719.51
523.75	35093.99
523.92	35311.66
524.10	35501.25
524.27	35225.06
524.44	35681.47
524.61	35524.65
524.78	35583.16
524.96	35981.06
525.13	35840.62
525.30	35772.75
525.47	35988.08
525.64	35885.09
525.81	35959.99
525.98	35967.01
526.16	36285.33
526.33	36229.15
526.50	36528.74
526.67	36219.79
526.84	36004.46
527.01	36685.56
527.18	35894.46
527.36	36648.11
527.53	36575.55
527.70	37202.82
527.87	37170.05
528.04	36573.21
528.21	37366.65
528.38	36734.71
528.55	37289.42
528.72	36690.24
528.89	37237.92
529.07	36982.80
529.24	36844.71
529.41	37457.93
529.58	37006.21
529.75	37275.37
529.92	37612.41
530.09	37333.89
530.26	37563.26
530.43	38092.22
530.60	37371.33
530.77	37364.31
530.94	37930.72
531.11	37853.48
531.28	37818.38
531.46	37731.78
531.63	38124.99
531.80	37825.40
531.97	38337.98
532.14	38071.15
532.31	38068.81
532.48	38267.76
532.65	38522.88
532.82	38139.03
532.99	38848.21
533.16	38274.78
533.33	38721.82
533.50	38225.63
533.67	38529.90
533.84	38679.69
534.01	38534.58
534.18	38480.75
534.35	38735.87
534.52	38855.23
534.69	39290.57
534.86	39119.71
535.03	38698.42
535.20	39234.40
535.37	39257.81
535.54	39751.66
535.71	39550.37
535.88	39103.33
536.05	39573.78
536.22	39524.63
536.38	39098.65
536.55	39550.37
536.72	39945.92
536.89	39826.56
537.06	39718.89
537.23	39545.69
537.40	39555.05
537.57	39491.86
537.74	39707.19
537.91	40088.70
538.08	39824.22
538.25	40034.86
538.42	39639.31
538.59	40322.75
538.75	39503.56
538.92	40308.71
539.09	40306.37
539.26	40243.17
539.43	40112.10
539.60	40507.65
539.77	40119.12
539.94	40641.06
540.11	40500.63
540.28	40533.40
540.44	40718.30
540.61	40102.74
540.78	40282.96
540.95	40830.65
541.12	40552.12
541.29	40547.44
541.46	40629.36
541.62	40971.08
541.79	40828.30
541.96	40392.97
542.13	40687.87
542.30	41198.11
542.47	40992.14
542.63	41404.08
542.80	41336.20
542.97	41628.77
543.14	41301.09
543.31	41261.30
543.48	41853.46
543.64	42188.16
543.81	42150.71
543.98	41593.66
544.15	41862.82
544.32	42241.99
544.48	42354.33
544.65	41862.82
544.82	42445.62
544.99	41720.05
545.16	42021.98
545.32	42099.22
545.49	42309.86
545.66	42902.02
545.83	42344.97
546.00	42583.71
546.16	42557.96
546.33	42462.00
546.50	42003.25
546.67	42567.32
546.83	41986.87
547.00	42405.83
547.17	42192.84
547.34	42529.87
547.50	43084.58
547.67	42892.66
547.84	42328.59
548.00	42925.42
548.17	43166.50
548.34	42892.66
548.51	43175.86
548.67	42988.62
548.84	43009.68
549.01	43093.94
549.18	43124.37
549.34	43234.38
549.51	42944.15
549.68	43412.26
549.84	42829.46
550.01	43246.08
550.18	43257.78
550.34	43356.08
550.51	43426.30
550.68	43580.78
550.84	43283.53
551.01	43604.18
551.18	43793.76
551.34	43768.02
551.51	43320.98
551.68	43636.95
551.84	43653.33
552.01	43313.95
552.18	43861.64
552.34	43718.87
552.51	43447.36
552.68	43393.53
552.84	44006.75
553.01	43798.44
553.18	43997.39
553.34	43700.14
553.51	43948.24
553.67	43875.68
553.84	43927.17
554.01	44533.37
554.17	44018.46
554.34	44346.13
554.51	44203.36
554.67	44563.80
554.84	44385.92
555.00	44186.97
555.17	44325.07
555.33	44526.35
555.50	44540.39
555.67	44367.20
555.83	44678.49
556.00	44526.35
556.16	45256.60
556.33	44711.25
556.50	44479.54
556.66	44617.63
556.83	44519.33
556.99	44877.43
557.16	45010.84
557.32	44734.66
557.49	45130.21
557.65	44376.56
557.82	45413.41
557.98	44980.42
558.15	45074.04
558.32	45130.21
558.48	44832.96
558.65	45132.55
558.81	45200.43
558.98	44992.12
559.14	44994.46
559.31	45198.09
559.47	44507.63
559.64	45563.21
559.80	45160.64
559.97	45111.49
560.13	44978.07
560.30	45170.00
560.46	45359.58
560.63	45357.24
560.79	45345.54
560.96	45202.77
561.12	45708.32
561.29	45509.38
561.45	45483.63
561.61	45291.71
561.78	45492.99
561.94	45347.88
562.11	45500.01
562.27	45790.24
562.44	45317.45
562.60	45612.36
562.77	45764.49
562.93	45586.61
563.10	46211.54
563.26	45462.57
563.42	46403.46
563.59	45492.99
563.75	45846.41
563.92	45865.14
564.08	45773.86
564.24	45872.16
564.41	45738.75
564.57	46012.59
564.74	45930.67
564.90	46028.98
565.07	45881.52
565.23	45610.02
565.39	46075.79
565.56	46038.34
565.72	45635.77
565.88	46043.02
566.05	46293.46
566.21	45993.87
566.38	45923.65
566.54	46188.13
566.70	46391.76
566.87	46293.46
567.03	45752.79
567.19	45984.51
567.36	45942.38
567.52	46124.94
567.68	46382.40
567.85	46337.93
568.01	46014.93
568.17	45928.33
568.34	46291.12
568.50	45876.84
568.66	46124.94
568.83	46223.24
568.99	46073.45
569.15	46373.03
569.32	46071.10
569.48	46162.39
569.64	46618.79
569.81	46043.02
569.97	46712.41
570.13	46438.57
570.30	46614.11
570.46	45876.84
570.62	46316.86
570.78	46330.90
570.95	46457.29
571.11	46845.82
571.27	46494.74
571.43	46492.40
571.60	46494.74
571.76	46433.89
571.92	46714.75
572.09	46447.93
572.25	45886.20
572.41	46412.82
572.57	46646.88
572.74	46707.73
572.90	46588.36
573.06	46508.79
573.22	47007.32
573.38	46681.98
573.55	46616.45
573.71	47086.90
573.87	46681.98
574.03	46726.46
574.20	47033.07
574.36	46644.54
574.52	46986.25
574.68	46714.75
574.84	46794.33
575.01	46843.48
575.17	46588.36
575.33	46820.08
575.49	46405.80
575.65	46916.04
575.82	46728.80
575.98	46841.14
576.14	47082.22
576.30	46635.17
576.46	46384.74
576.62	46621.13
576.79	46588.36
576.95	46337.93
577.11	46138.98
577.27	46527.51
577.43	46607.09
577.59	46693.69
577.75	46567.30
577.92	46579.00
578.08	46735.82
578.24	47145.41
578.40	47028.38
578.56	46948.81
578.72	46773.27
578.88	46726.46
579.04	46897.31
579.21	46401.12
579.37	46784.97
579.53	47098.60
579.69	46529.85
579.85	47117.32
580.01	46897.31
580.17	46869.23
580.33	47091.58
580.49	47056.47
580.65	47007.32
580.82	46911.36
580.98	47178.18
581.14	46932.42
581.30	46899.65
581.46	47150.09
581.62	46897.31
581.78	46759.22
581.94	46700.71
582.10	46808.37
582.26	47323.29
582.42	46932.42
582.58	46911.36
582.74	47377.12
582.90	46841.14
583.06	47114.98
583.22	46742.84
583.38	46763.90
583.54	47147.75
583.70	47070.51
583.86	47028.38
584.02	47334.99
584.18	47150.09
584.34	46965.19
584.50	47213.29
584.66	47143.07
584.82	47309.25
584.98	47704.80
585.14	47175.84
585.30	47051.79
585.46	47166.48
585.62	47100.94
585.78	47206.26
585.94	46660.92
586.10	46927.74
586.26	47103.28
586.42	46834.12
586.58	47452.02
586.74	46836.46
586.90	46960.51
587.06	47196.90
587.22	47342.02
587.38	47241.37
587.54	47098.60
587.70	46756.88
587.86	47327.97
588.02	47072.85
588.18	46918.38
588.34	47405.21
588.49	47068.17
588.65	47402.87
588.81	47271.80
588.97	47098.60
589.13	47243.71
589.29	47370.10
589.45	47540.96
589.61	47077.54
589.77	47349.04
589.93	47468.40
590.08	47229.67
