SpectraSuite Data File
++++++++++++++++++++++++++++++++++++
Date: Fri Oct 25 10:44:01 EDT 2013
User: price-jones
Dark Spectrum Present: No
Reference Spectrum Present: No
Number of Sampled Component Spectra: 1
Spectrometers: USB2+H05261
Integration Time (usec): 100000 (USB2+H05261)
Spectra Averaged: 1 (USB2+H05261)
Boxcar Smoothing: 0 (USB2+H05261)
Correct for Electrical Dark: No (USB2+H05261)
Strobe/Lamp Enabled: No (USB2+H05261)
Correct for Detector Non-linearity: No (USB2+H05261)
Correct for Stray Light: No (USB2+H05261)
Number of Pixels in Processed Spectrum: 2048
>>>>>Begin Processed Spectral Data<<<<<
365.73	140.43
365.92	140.43
366.12	140.43
366.32	23.41
366.52	11.70
366.72	65.54
366.91	42.13
367.11	0.00
367.31	14.04
367.51	65.54
367.70	0.00
367.90	91.28
368.10	21.06
368.30	37.45
368.49	7.02
368.69	79.58
368.89	119.37
369.09	35.11
369.28	0.00
369.48	77.24
369.68	56.17
369.87	152.13
370.07	124.05
370.27	110.01
370.47	154.48
370.66	383.85
370.86	381.51
371.06	491.51
371.25	479.81
371.45	484.49
371.65	550.03
371.84	524.28
372.04	547.69
372.24	575.77
372.44	435.34
372.63	543.00
372.83	528.96
373.03	468.11
373.22	510.24
373.42	547.69
373.62	496.19
373.81	491.51
374.01	552.37
374.21	540.66
374.40	601.52
374.60	531.30
374.79	545.34
374.99	550.03
375.19	575.77
375.38	578.11
375.58	667.05
375.78	622.58
375.97	615.56
376.17	671.73
376.37	594.50
376.56	641.31
376.76	592.16
376.95	662.37
377.15	620.24
377.35	697.48
377.54	641.31
377.74	674.07
377.93	620.24
378.13	657.69
378.33	608.54
378.52	718.54
378.72	692.80
378.91	629.60
379.11	594.50
379.31	648.33
379.50	653.01
379.70	669.39
379.89	650.67
380.09	660.03
380.28	779.40
380.48	671.73
380.68	662.37
380.87	653.01
381.07	716.20
381.26	751.31
381.46	746.63
381.65	737.27
381.85	716.20
382.04	798.12
382.24	760.67
382.43	718.54
382.63	648.33
382.83	739.61
383.02	718.54
383.22	781.74
383.41	730.25
383.61	812.17
383.80	779.40
384.00	772.38
384.19	812.17
384.39	819.19
384.58	784.08
384.78	816.85
384.97	793.44
385.17	833.23
385.36	784.08
385.56	718.54
385.75	816.85
385.95	758.33
386.14	884.72
386.34	863.66
386.53	961.96
386.72	912.81
386.92	919.83
387.11	929.19
387.31	922.17
387.50	851.96
387.70	866.00
387.89	875.36
388.09	943.24
388.28	905.79
388.48	847.27
388.67	971.32
388.86	917.49
389.06	919.83
389.25	1050.90
389.45	1069.62
389.64	1029.84
389.84	968.98
390.03	994.73
390.22	1032.18
390.42	1043.88
390.61	1015.79
390.81	1027.50
391.00	959.62
391.19	1074.31
391.39	1006.43
391.58	1123.46
391.78	1046.22
391.97	1064.94
392.16	1078.99
392.36	1060.26
392.55	1074.31
392.75	976.00
392.94	1041.54
393.13	1029.84
393.33	1034.52
393.52	1095.37
393.71	1060.26
393.91	1123.46
394.10	1235.80
394.29	1123.46
394.49	1188.99
394.68	1151.54
394.88	1280.27
395.07	1390.28
395.26	1331.76
395.46	1282.61
395.65	1233.46
395.84	1156.22
396.04	1296.66
396.23	1249.85
396.42	1116.44
396.62	1287.29
396.81	1191.33
397.00	1252.19
397.19	1409.00
397.39	1261.55
397.58	1465.18
397.77	1416.02
397.97	1472.20
398.16	1418.36
398.35	1504.96
398.55	1458.15
398.74	1554.12
398.93	1497.94
399.12	1453.47
399.32	1476.88
399.51	1570.50
399.70	1502.62
399.90	1612.63
400.09	1699.23
400.28	1593.90
400.47	1598.59
400.67	1535.39
400.86	1621.99
401.05	1682.85
401.24	1668.80
401.44	1820.94
401.63	1764.76
401.82	1734.34
402.01	1722.63
402.21	1781.15
402.40	1830.30
402.59	1809.23
402.78	1680.50
402.97	1886.47
403.17	1797.53
403.36	1797.53
403.55	1940.30
403.74	1928.60
403.93	1935.62
404.13	1970.73
404.32	1872.43
404.51	1844.34
404.70	2052.65
404.89	1944.99
405.09	1998.82
405.28	2094.78
405.47	1987.11
405.66	2066.69
405.85	2038.61
406.05	2029.24
406.24	2097.12
406.43	2064.35
406.62	2094.78
406.81	2062.01
407.00	2115.84
407.20	2162.66
407.39	2127.55
407.58	2186.06
407.77	2172.02
407.96	2328.83
408.15	2347.56
408.34	2321.81
408.54	2349.90
408.73	2354.58
408.92	2422.45
409.11	2387.35
409.30	2401.39
409.49	2289.04
409.68	2448.20
409.87	2282.02
410.07	2441.18
410.26	2284.36
410.45	2363.94
410.64	2431.82
410.83	2466.92
411.02	2600.34
411.21	2677.57
411.40	2642.46
411.59	2815.66
411.78	2684.59
411.98	2628.42
412.17	2780.56
412.36	2670.55
412.55	2810.98
412.74	2745.45
412.93	2764.17
413.12	2764.17
413.31	3009.93
413.50	2780.56
413.69	2867.16
413.88	3063.76
414.07	2895.24
414.26	2918.65
414.45	3035.67
414.64	3068.44
414.83	3103.55
415.02	3103.55
415.22	3162.06
415.41	3274.41
415.60	3131.64
415.79	3253.34
415.98	3293.13
416.17	3370.37
416.36	3463.99
416.55	3361.01
416.74	3389.10
416.93	3288.45
417.12	3393.78
417.31	3375.05
417.50	3375.05
417.69	3529.53
417.88	3438.25
418.07	3669.96
418.26	3377.39
418.45	3602.08
418.64	3604.42
418.83	3744.86
419.02	3595.06
419.21	3557.61
419.39	3576.34
419.58	3716.77
419.77	3548.25
419.96	3679.32
420.15	3747.20
420.34	3756.56
420.53	4023.38
420.72	3941.46
420.91	3967.21
421.10	3997.64
421.29	3911.04
421.48	3861.88
421.67	4025.72
421.86	3946.14
422.05	3915.72
422.24	3803.37
422.43	3939.12
422.61	3946.14
422.80	3866.56
422.99	3988.27
423.18	4042.11
423.37	4011.68
423.56	4067.85
423.75	4079.55
423.94	3978.91
424.13	3770.60
424.32	3882.95
424.50	4112.32
424.69	4189.56
424.88	4119.34
425.07	4109.98
425.26	3985.93
425.45	4093.60
425.64	4032.74
425.83	4030.40
426.01	4016.36
426.20	4067.85
426.39	4060.83
426.58	3988.27
426.77	3997.64
426.96	3880.61
427.15	4091.26
427.33	4212.96
427.52	4248.07
427.71	4308.93
427.90	4124.02
428.09	4325.31
428.28	4212.96
428.46	4208.28
428.65	4346.37
428.84	4374.46
429.03	4407.23
429.22	4252.75
429.40	4280.84
429.59	4205.94
429.78	4044.45
429.97	4007.00
430.16	4117.00
430.34	4159.13
430.53	4238.71
430.72	4397.87
430.91	4442.34
431.10	4353.40
431.28	4559.36
431.47	4645.96
431.66	4683.41
431.85	4554.68
432.03	4594.47
432.22	4751.29
432.41	4664.69
432.60	4748.95
432.79	4774.69
432.97	4802.78
433.16	4702.14
433.35	4716.18
433.54	4725.54
433.72	4882.36
433.91	4929.17
434.10	4851.93
434.28	4896.40
434.47	4952.57
434.66	4980.66
434.85	5205.35
435.03	4940.87
435.22	4940.87
435.41	5221.74
435.59	5217.05
435.78	5268.55
435.97	5317.70
436.16	5277.91
436.34	5212.37
436.53	5263.86
436.72	5296.63
436.90	5221.74
437.09	5467.49
437.28	5261.52
437.46	5177.26
437.65	5153.86
437.84	5207.69
438.02	5263.86
438.21	5111.73
438.40	5315.36
438.58	5535.37
438.77	5577.50
438.96	5518.98
439.14	5839.64
439.33	5673.46
439.52	5664.10
439.70	5706.23
439.89	5682.82
440.08	5736.65
440.26	5813.89
440.45	5937.94
440.63	5959.00
440.82	6104.12
441.01	6017.52
441.19	6125.18
441.38	6305.40
441.57	6246.89
441.75	6242.21
441.94	6532.44
442.12	6516.05
442.31	6387.32
442.50	6544.14
442.68	6445.84
442.87	6520.73
443.05	6396.68
443.24	6621.38
443.43	6644.78
443.61	6511.37
443.80	6689.25
443.98	6703.29
444.17	6497.33
444.35	6665.85
444.54	6670.53
444.73	6759.47
444.91	6698.61
445.10	6476.26
445.28	6509.03
445.47	6553.50
445.65	6759.47
445.84	6661.16
446.02	6740.74
446.21	6712.66
446.39	6614.35
446.58	6906.92
446.77	6768.83
446.95	6738.40
447.14	6782.87
447.32	6899.90
447.51	6841.39
447.69	6771.17
447.88	6780.53
448.06	6752.45
448.25	6839.05
448.43	7026.29
448.62	6820.32
448.80	6906.92
448.99	7000.54
449.17	7248.64
449.36	6843.73
449.54	7052.03
449.73	7396.09
449.91	7194.81
450.10	7328.22
450.28	7379.71
450.46	7307.15
450.65	7211.19
450.83	7283.75
451.02	7290.77
451.20	7419.50
451.39	7300.13
451.57	7309.49
451.76	7375.03
451.94	7492.05
452.13	7480.35
452.31	7241.62
452.49	7131.61
452.68	7386.73
452.86	7370.35
453.05	7318.86
453.23	7585.68
453.42	7513.12
453.60	7485.03
453.78	7637.17
453.97	7463.97
454.15	7555.25
454.34	7391.41
454.52	7702.70
454.70	7557.59
454.89	7864.20
455.07	7513.12
455.26	7836.11
455.44	8046.76
455.62	7922.71
455.81	8105.28
455.99	8037.40
456.17	8226.98
456.36	8074.85
456.54	8332.31
456.73	7974.21
456.91	8334.65
457.09	8198.90
457.28	8421.25
457.46	8093.57
457.64	8222.30
457.83	8234.00
458.01	8105.28
458.19	8353.37
458.38	8035.06
458.56	8458.70
458.74	8454.02
458.93	8325.29
459.11	8484.44
459.29	8409.54
459.48	8613.17
459.66	8510.19
459.84	8603.81
460.03	8847.22
460.21	8795.73
460.39	8713.81
460.57	8636.58
460.76	8727.86
460.94	8659.98
461.12	8648.28
461.31	8945.53
461.49	8800.41
461.67	8746.58
461.85	9210.01
462.04	8816.80
462.22	9645.35
462.40	9004.04
462.59	8990.00
462.77	8973.61
462.95	8973.61
463.13	9118.73
463.32	9158.52
463.50	9170.22
463.68	9179.58
463.86	9055.53
464.05	9013.40
464.23	9029.79
464.41	9156.18
464.59	9149.15
464.78	9324.69
464.96	9135.11
465.14	9149.15
465.32	9083.62
465.50	9483.85
465.69	9502.58
465.87	9376.19
466.05	9474.49
466.23	9336.40
466.41	9432.36
466.60	9582.15
466.78	9240.44
466.96	9570.45
467.14	9460.45
467.32	9605.56
467.51	9760.03
467.69	9617.26
467.87	9731.95
468.05	9813.87
468.23	9710.88
468.41	9661.73
468.60	9692.16
468.78	9848.97
468.96	9785.78
469.14	9694.50
469.32	10015.15
469.50	9713.22
469.69	9912.17
469.87	10083.03
470.05	9980.04
470.23	10104.09
470.41	10012.81
470.59	10188.35
470.77	10164.95
470.95	10270.27
471.14	9942.60
471.32	10326.44
471.50	10391.98
471.68	10583.90
471.86	10499.64
472.04	10539.43
472.22	10927.96
472.40	10569.86
472.58	10824.98
472.77	10483.26
472.95	10572.20
473.13	11089.46
473.31	10796.89
473.49	10700.93
473.67	10827.32
473.85	11059.03
474.03	11068.39
474.21	11426.50
474.39	11281.38
474.57	11325.85
474.75	11475.65
474.93	11524.80
475.12	11531.82
475.30	11618.42
475.48	11758.85
475.66	11761.19
475.84	11463.94
476.02	11840.77
476.20	11623.10
476.38	11587.99
476.56	12245.68
476.74	12271.43
476.92	12313.56
477.10	12224.62
477.28	12442.29
477.46	12308.88
477.64	12498.46
477.82	12552.29
478.00	12779.32
478.18	13149.13
478.36	12681.02
478.54	12917.42
478.72	12936.14
478.90	13107.00
479.08	13202.96
479.26	13298.92
479.44	13362.12
479.62	13509.57
479.80	13771.71
479.98	13645.32
480.16	14181.31
480.34	13811.50
480.52	14167.26
480.70	14256.20
480.88	13886.40
481.06	14047.90
481.24	14272.59
481.41	14588.56
481.59	14780.48
481.77	14895.17
481.95	14651.75
482.13	14874.10
482.31	14946.66
482.49	15164.33
482.67	15358.60
482.85	15159.65
483.03	15447.54
483.21	15562.22
483.39	15566.90
483.57	15899.26
483.74	15939.05
483.92	15831.38
484.10	15889.90
484.28	16067.78
484.46	16402.47
484.64	16631.85
484.82	16336.94
485.00	16451.63
485.18	16931.44
485.35	16844.84
485.53	16418.86
485.71	16535.88
485.89	16875.26
486.07	16791.00
486.25	16779.30
486.43	17275.49
486.61	17308.26
486.78	17502.53
486.96	17776.37
487.14	18010.42
487.32	18178.94
487.50	18272.56
487.68	18408.31
487.85	18876.42
488.03	18906.85
488.21	19393.68
488.39	19117.50
488.57	19054.30
488.75	19176.01
488.92	19557.52
489.10	19709.65
489.28	19871.15
489.46	20168.40
489.64	20037.33
489.81	20659.91
489.99	20723.10
490.17	20315.85
490.35	20919.71
490.53	20521.82
490.70	20854.17
490.88	21235.68
491.06	21640.59
491.24	20978.22
491.41	21085.89
491.59	21205.25
491.77	21284.83
491.95	21458.03
492.13	21671.02
492.30	22113.38
492.48	22195.30
492.66	22291.26
492.84	22127.42
493.01	22537.02
493.19	22480.85
493.37	22583.83
493.54	22733.62
493.72	23290.67
493.90	23047.26
494.08	23229.82
494.25	23850.06
494.43	23707.29
494.61	23859.42
494.79	23807.93
494.96	24142.63
495.14	24474.98
495.32	24154.33
495.49	23906.23
495.67	24552.22
495.85	24428.17
496.02	24311.14
496.20	24702.01
496.38	25013.31
496.55	24957.13
496.73	25713.13
496.91	25048.41
497.09	25607.80
497.26	25656.95
497.44	25432.26
497.62	25366.73
497.79	26096.97
497.97	25764.62
498.14	25867.60
498.32	26389.54
498.50	26101.65
498.67	26602.53
498.85	26335.71
499.03	26864.67
499.20	26663.38
499.38	26764.03
499.56	27152.55
499.73	27037.87
499.91	26829.56
500.08	27087.02
500.26	26904.46
500.44	26991.06
500.61	27208.73
500.79	27080.00
500.97	27402.99
501.14	27550.45
501.32	27587.89
501.49	27770.46
501.67	27948.34
501.84	28130.90
502.02	27983.44
502.20	28332.18
502.37	28158.99
502.55	28294.74
502.72	28325.16
502.90	28510.07
503.07	28474.96
503.25	28863.49
503.43	28362.61
503.60	28868.17
503.78	28982.85
503.95	28914.98
504.13	29043.71
504.30	29652.25
504.48	29043.71
504.65	29490.75
504.83	29804.38
505.01	30003.33
505.18	29799.70
505.36	29729.48
505.53	30010.35
505.71	30436.33
505.88	30328.66
506.06	29867.58
506.23	30281.85
506.41	30272.49
506.58	30625.91
506.76	30504.20
506.93	30785.07
507.11	30686.76
507.28	30815.49
507.46	30724.21
507.63	30536.97
507.81	31042.53
507.98	30998.06
508.16	30874.01
508.33	31175.94
508.50	31346.79
508.68	31527.02
508.85	31922.57
509.03	31725.96
509.20	31695.53
509.38	31999.80
509.55	31590.21
509.73	31892.14
509.90	32079.38
510.08	31999.80
510.25	32161.30
510.42	31920.23
510.60	31945.97
510.77	32334.50
510.95	32528.77
511.12	32552.17
511.30	32580.26
511.47	33308.16
511.64	32936.02
511.82	33546.90
511.99	32748.78
512.17	32718.35
512.34	33111.56
512.51	33167.73
512.69	33317.53
512.86	33261.35
513.04	33118.58
513.21	32954.74
513.38	33031.98
513.56	33397.10
513.73	32985.17
513.90	33553.92
514.08	33855.85
514.25	33790.31
514.43	33916.70
514.60	33886.28
514.77	34209.27
514.95	34242.04
515.12	33820.74
515.29	34019.69
515.47	34698.44
515.64	34565.03
515.81	34455.03
515.99	34607.16
516.16	34403.53
516.33	33626.48
516.51	34192.89
516.68	33738.82
516.85	33687.33
517.03	33853.51
517.20	34146.08
517.37	34801.43
517.54	34862.28
517.72	35126.76
517.89	34719.51
518.06	34576.73
518.24	34939.52
518.41	34888.03
518.58	34838.87
518.75	35192.30
518.93	35674.45
519.10	35281.24
519.27	35473.16
519.45	35695.51
519.62	35594.87
519.79	36079.36
519.96	35662.74
520.14	36453.84
520.31	35899.14
520.48	36566.19
520.65	35990.42
520.83	36217.45
521.00	36655.13
521.17	36945.36
521.34	36718.32
521.52	36636.41
521.69	36657.47
521.86	37013.23
522.03	37013.23
522.20	36453.84
522.38	36954.72
522.55	37088.13
522.72	36987.49
522.89	36893.86
523.07	37368.99
523.24	37195.79
523.41	37443.89
523.58	37434.53
523.75	38195.20
523.92	38162.43
524.10	38249.03
524.27	37659.22
524.44	37839.44
524.61	38143.71
524.78	37998.60
524.96	38249.03
525.13	38064.13
525.30	38323.93
525.47	38749.91
525.64	38337.98
525.81	38389.47
525.98	37809.01
526.16	37949.45
526.33	38176.48
526.50	38024.34
526.67	37771.57
526.84	38253.72
527.01	37858.17
527.18	38829.49
527.36	38686.71
527.53	38820.13
527.70	39014.39
527.87	39173.55
528.04	38955.88
528.21	39112.69
528.38	39189.93
528.55	39555.05
528.72	39552.71
528.89	39374.83
529.07	39435.69
529.24	39030.77
529.41	39271.85
529.58	39536.33
529.75	39730.59
529.92	39213.34
530.09	39449.73
530.26	39969.33
530.43	39873.37
530.60	39754.00
530.77	39817.19
530.94	40407.01
531.11	39913.16
531.28	40149.55
531.46	39889.75
531.63	40257.21
531.80	40308.71
531.97	39702.51
532.14	40086.36
532.31	39840.60
532.48	39517.60
532.65	40147.21
532.82	40158.91
532.99	40175.30
533.16	40545.10
533.33	40411.69
533.50	40971.08
533.67	40921.93
533.84	40343.81
534.01	40935.97
534.18	40568.51
534.35	40893.84
534.52	41045.97
534.69	41010.87
534.86	41170.02
535.03	41172.36
535.20	41514.08
535.37	41771.54
535.54	41455.57
535.71	41364.29
535.88	41546.85
536.05	41551.53
536.22	41219.17
536.38	41277.69
536.55	41720.05
536.72	41090.44
536.89	41123.21
537.06	41249.60
537.23	41626.43
537.40	41570.25
537.57	41883.89
537.74	41715.37
537.91	42361.36
538.08	41881.55
538.25	41855.80
538.42	41930.70
538.59	42066.45
538.75	41710.69
538.92	42192.84
539.09	41961.12
539.26	41675.58
539.43	41558.55
539.60	42115.60
539.77	41710.69
539.94	42005.59
540.11	42019.64
540.28	41874.52
540.44	42066.45
540.61	42499.45
540.78	41879.21
540.95	42080.49
541.12	42361.36
541.29	42040.70
541.46	42312.20
541.62	42457.32
541.79	42614.13
541.96	42583.71
542.13	42199.86
542.30	42777.97
542.47	43159.48
542.63	42721.80
542.80	42993.30
542.97	43426.30
543.14	43487.15
543.31	43049.47
543.48	42866.91
543.64	43515.24
543.81	43948.24
543.98	43667.37
544.15	43461.41
544.32	43370.13
544.48	43723.55
544.65	43618.22
544.82	43917.81
544.99	43718.87
545.16	43566.73
545.32	43627.59
545.49	44142.50
545.66	44079.31
545.83	44208.04
546.00	43641.63
546.16	43880.36
546.33	43821.85
546.50	43311.61
546.67	44165.91
546.83	43629.93
547.00	43629.93
547.17	43957.60
547.34	44016.11
547.50	43859.30
547.67	44322.72
547.84	43871.00
548.00	44385.92
548.17	44449.11
548.34	44360.17
548.51	44737.00
548.67	44563.80
548.84	44343.79
549.01	44009.09
549.18	44292.30
549.34	43964.62
549.51	44701.89
549.68	44556.78
549.84	44676.15
550.01	44603.59
550.18	44500.61
550.34	44416.35
550.51	44350.81
550.68	44484.22
550.84	44514.65
551.01	44828.28
551.18	44821.26
551.34	44903.18
551.51	45097.44
551.68	45109.14
551.84	44886.79
552.01	44814.24
552.18	44847.00
552.34	44758.06
552.51	44964.03
552.68	44940.63
552.84	45373.63
553.01	45322.13
553.18	45207.45
553.34	44949.99
553.51	44879.77
553.67	45427.46
553.84	45474.27
554.01	45382.99
554.17	45558.53
554.34	45422.78
554.51	45256.60
554.67	45368.94
554.84	45453.20
555.00	45429.80
555.17	44966.37
555.33	45518.74
555.50	45006.16
555.67	45310.43
555.83	45525.76
556.00	45579.59
556.16	46078.13
556.33	45684.92
556.50	45172.34
556.66	45488.31
556.83	45001.48
556.99	45647.47
557.16	45677.90
557.32	45975.14
557.49	45577.25
557.65	45563.21
557.82	45769.18
557.98	45588.95
558.15	45703.64
558.32	46134.30
558.48	45757.47
558.65	45577.25
558.81	45553.85
558.98	45766.84
559.14	45462.57
559.31	45556.19
559.47	46171.75
559.64	45989.19
559.80	46323.88
559.97	46127.28
560.13	45661.51
560.30	45951.74
560.46	45839.39
560.63	46136.64
560.79	46146.00
560.96	46485.38
561.12	46412.82
561.29	45684.92
561.45	46045.36
561.61	46237.28
561.78	46082.81
561.94	46157.70
562.11	45991.53
562.27	46162.39
562.44	46263.03
562.60	46450.27
562.77	46225.58
562.93	46094.51
563.10	46651.56
563.26	45874.50
563.42	46225.58
563.59	45876.84
563.75	46595.38
563.92	46204.52
564.08	46115.58
564.24	46380.06
564.41	46382.40
564.57	46162.39
564.74	46021.95
564.90	45923.65
565.07	46457.29
565.23	46195.15
565.39	46192.81
565.56	46487.72
565.72	46050.04
565.88	46363.67
566.05	45872.16
566.21	46061.74
566.38	46232.60
566.54	46211.54
566.70	46520.49
566.87	46726.46
567.03	46628.15
567.19	46679.64
567.36	46513.47
567.52	46899.65
567.68	46286.43
567.85	46080.47
568.01	46452.61
568.17	46293.46
568.34	46429.21
568.50	46199.83
568.66	46569.64
568.83	46197.49
568.99	46050.04
569.15	46368.35
569.32	46038.34
569.48	46183.45
569.64	46513.47
569.81	46731.14
569.97	46408.14
570.13	46347.29
570.30	46274.73
570.46	46113.23
570.62	46248.99
570.78	46167.07
570.95	46213.88
571.11	46944.12
571.27	46426.87
571.43	46658.58
571.60	46316.86
571.76	46375.37
571.92	46660.92
572.09	46789.65
572.25	46424.53
572.41	46871.57
572.57	46747.52
572.74	46710.07
572.90	46763.90
573.06	46831.78
573.22	46642.20
573.38	46770.93
573.55	46148.34
573.71	46644.54
573.87	46607.09
574.03	46721.77
574.20	46602.41
574.36	46738.16
574.52	46623.47
574.68	46866.89
574.84	46635.17
575.01	46291.12
575.17	46609.43
575.33	46248.99
575.49	46384.74
575.65	46686.67
575.82	47037.75
575.98	46499.42
576.14	46817.74
576.30	46913.70
576.46	46616.45
576.62	46564.96
576.79	46768.58
576.95	46677.30
577.11	46651.56
577.27	47082.22
577.43	46199.83
577.59	46536.87
577.75	46150.68
577.92	46204.52
578.08	46204.52
578.24	46136.64
578.40	46674.96
578.56	46536.87
578.72	46862.21
578.88	46735.82
579.04	46934.76
579.21	46653.90
579.37	46611.77
579.53	46403.46
579.69	46286.43
579.85	46333.24
580.01	46714.75
580.17	46707.73
580.33	46857.52
580.49	46981.57
580.65	46253.67
580.82	46642.20
580.98	46518.15
581.14	46167.07
581.30	46951.15
581.46	46766.24
581.62	46630.49
581.78	46801.35
581.94	47047.11
582.10	46499.42
582.26	46761.56
582.42	46916.04
582.58	46855.18
582.74	46899.65
582.90	46799.01
583.06	46878.59
583.22	46906.68
583.38	46859.87
583.54	47140.73
583.70	46770.93
583.86	46831.78
584.02	46440.91
584.18	46878.59
584.34	46557.94
584.50	46939.44
584.66	46504.10
584.82	46403.46
584.98	47199.24
585.14	46644.54
585.30	46862.21
585.46	46527.51
585.62	46520.49
585.78	46658.58
585.94	46637.51
586.10	46946.47
586.26	46555.60
586.42	46946.47
586.58	47288.18
586.74	47000.30
586.90	46948.81
587.06	46536.87
587.22	46714.75
587.38	46188.13
587.54	46651.56
587.70	47012.00
587.86	46602.41
588.02	46763.90
588.18	46913.70
588.34	46328.56
588.49	46155.36
588.65	46038.34
588.81	45970.46
588.97	46230.26
589.13	46260.69
589.29	46749.86
589.45	46494.74
589.61	46787.31
589.77	46770.93
589.93	46794.33
