SpectraSuite Data File
++++++++++++++++++++++++++++++++++++
Date: Fri Oct 25 10:43:16 EDT 2013
User: price-jones
Dark Spectrum Present: No
Reference Spectrum Present: No
Number of Sampled Component Spectra: 1
Spectrometers: USB2+H05261
Integration Time (usec): 100000 (USB2+H05261)
Spectra Averaged: 1 (USB2+H05261)
Boxcar Smoothing: 0 (USB2+H05261)
Correct for Electrical Dark: No (USB2+H05261)
Strobe/Lamp Enabled: No (USB2+H05261)
Correct for Detector Non-linearity: No (USB2+H05261)
Correct for Stray Light: No (USB2+H05261)
Number of Pixels in Processed Spectrum: 2048
>>>>>Begin Processed Spectral Data<<<<<
365.73	170.86
365.92	170.86
366.12	170.86
366.32	110.01
366.52	0.00
366.72	0.00
366.91	65.54
367.11	77.24
367.31	23.41
367.51	51.49
367.70	37.45
367.90	25.75
368.10	107.66
368.30	49.15
368.49	0.00
368.69	0.00
368.89	49.15
369.09	0.00
369.28	7.02
369.48	44.47
369.68	84.26
369.87	49.15
370.07	81.92
370.27	72.56
370.47	149.79
370.66	369.80
370.86	428.32
371.06	489.17
371.25	507.90
371.45	442.36
371.65	393.21
371.84	461.09
372.04	409.59
372.24	449.38
372.44	489.17
372.63	475.13
372.83	517.26
373.03	533.64
373.22	519.60
373.42	451.72
373.62	585.13
373.81	603.86
374.01	606.20
374.21	613.22
374.40	503.22
374.60	547.69
374.79	592.16
374.99	643.65
375.19	573.43
375.38	599.18
375.58	592.16
375.78	589.82
375.97	517.26
376.17	702.16
376.37	596.84
376.56	559.39
376.76	676.41
376.95	606.20
377.15	589.82
377.35	557.05
377.54	662.37
377.74	594.50
377.93	688.12
378.13	664.71
378.33	653.01
378.52	589.82
378.72	662.37
378.91	545.34
379.11	624.92
379.31	662.37
379.50	601.52
379.70	748.97
379.89	610.88
380.09	727.91
380.28	718.54
380.48	702.16
380.68	657.69
380.87	638.97
381.07	636.63
381.26	692.80
381.46	711.52
381.65	699.82
381.85	732.59
382.04	774.72
382.24	692.80
382.43	692.80
382.63	706.84
382.83	709.18
383.02	748.97
383.22	709.18
383.41	732.59
383.61	650.67
383.80	786.42
384.00	734.93
384.19	774.72
384.39	755.99
384.58	765.36
384.78	770.04
384.97	770.04
385.17	816.85
385.36	896.43
385.56	854.30
385.75	697.48
385.95	898.77
386.14	826.21
386.34	800.46
386.53	828.55
386.72	826.21
386.92	884.72
387.11	898.77
387.31	945.58
387.50	985.37
387.70	903.45
387.89	837.91
388.09	940.90
388.28	826.21
388.48	978.34
388.67	971.32
388.86	968.98
389.06	964.30
389.25	994.73
389.45	1046.22
389.64	987.71
389.84	957.28
390.03	1020.47
390.22	1004.09
390.42	1069.62
390.61	983.02
390.81	950.26
391.00	1020.47
391.19	1039.20
391.39	1076.65
391.58	1146.86
391.78	1053.24
391.97	1055.58
392.16	1128.14
392.36	1034.52
392.55	999.41
392.75	971.32
392.94	1011.11
393.13	1008.77
393.33	966.64
393.52	976.00
393.71	1102.39
393.91	1097.71
394.10	1144.52
394.29	1121.12
394.49	1132.82
394.68	1196.01
394.88	1174.95
395.07	1210.06
395.26	1289.64
395.46	1245.16
395.65	1362.19
395.84	1146.86
396.04	1118.78
396.23	1193.67
396.42	1076.65
396.62	1200.69
396.81	1172.61
397.00	1320.06
397.19	1228.78
397.39	1249.85
397.58	1446.45
397.77	1334.11
397.97	1348.15
398.16	1399.64
398.35	1483.90
398.55	1462.83
398.74	1455.81
398.93	1509.65
399.12	1476.88
399.32	1497.94
399.51	1526.03
399.70	1645.40
399.90	1584.54
400.09	1537.73
400.28	1652.42
400.47	1577.52
400.67	1652.42
400.86	1629.01
401.05	1678.16
401.24	1774.13
401.44	1811.57
401.63	1741.36
401.82	1762.42
402.01	1661.78
402.21	1802.21
402.40	1739.02
402.59	1792.85
402.78	1748.38
402.97	1680.50
403.17	1853.70
403.36	1809.23
403.55	1811.57
403.74	2022.22
403.93	1769.44
404.13	1825.62
404.32	1832.64
404.51	1872.43
404.70	1944.99
404.89	1872.43
405.09	2066.69
405.28	1975.41
405.47	1966.05
405.66	1947.33
405.85	2033.93
406.05	1947.33
406.24	1975.41
406.43	2045.63
406.62	2090.10
406.81	2174.36
407.00	2043.29
407.20	2057.33
407.39	2052.65
407.58	2230.53
407.77	2179.04
407.96	2228.19
408.15	2260.96
408.34	2282.02
408.54	2377.98
408.73	2326.49
408.92	2289.04
409.11	2263.30
409.30	2338.20
409.49	2284.36
409.68	2298.41
409.87	2307.77
410.07	2279.68
410.26	2347.56
410.45	2399.05
410.64	2396.71
410.83	2518.42
411.02	2567.57
411.21	2619.06
411.40	2523.10
411.59	2574.59
411.78	2635.44
411.98	2654.17
412.17	2614.38
412.36	2675.23
412.55	2672.89
412.74	2855.45
412.93	2754.81
413.12	2635.44
413.31	2841.41
413.50	2740.77
413.69	2764.17
413.88	2855.45
414.07	2913.97
414.26	2899.92
414.45	2963.12
414.64	2998.23
414.83	3049.72
415.02	3178.45
415.22	3042.70
415.41	3068.44
415.60	3089.51
415.79	3215.90
415.98	3180.79
416.17	3302.50
416.36	3145.68
416.55	3239.30
416.74	3382.07
416.93	3232.28
417.12	3276.75
417.31	3251.00
417.50	3438.25
417.69	3403.14
417.88	3517.83
418.07	3478.04
418.26	3552.93
418.45	3520.17
418.64	3641.87
418.83	3639.53
419.02	3564.64
419.21	3609.11
419.39	3527.19
419.58	3541.23
419.77	3480.38
419.96	3627.83
420.15	3691.02
420.34	3721.45
420.53	3761.24
420.72	3772.94
420.91	3801.03
421.10	3936.78
421.29	3988.27
421.48	3861.88
421.67	3829.12
421.86	3864.22
422.05	3772.94
422.24	3609.11
422.43	3852.52
422.61	3936.78
422.80	3925.08
422.99	3939.12
423.18	3995.29
423.37	4084.23
423.56	3957.85
423.75	3908.69
423.94	3943.80
424.13	3688.68
424.32	3857.20
424.50	3904.01
424.69	3889.97
424.88	3920.40
425.07	3946.14
425.26	3850.18
425.45	4046.79
425.64	4007.00
425.83	3990.61
426.01	4009.34
426.20	3904.01
426.39	4067.85
426.58	3941.46
426.77	3978.91
426.96	3934.44
427.15	3925.08
427.33	4093.60
427.52	4173.18
427.71	4046.79
427.90	4182.54
428.09	4145.09
428.28	4205.94
428.46	4025.72
428.65	4095.94
428.84	4224.67
429.03	4234.03
429.22	4147.43
429.40	4217.65
429.59	4018.70
429.78	3868.91
429.97	3864.22
430.16	3936.78
430.34	4088.92
430.53	4046.79
430.72	4145.09
430.91	4124.02
431.10	4388.50
431.28	4507.87
431.47	4695.11
431.66	4732.56
431.85	4540.64
432.03	4578.09
432.22	4739.58
432.41	4411.91
432.60	4730.22
432.79	4795.76
432.97	4840.23
433.16	4777.03
433.35	4798.10
433.54	4718.52
433.72	4650.64
433.91	4650.64
434.10	4807.46
434.28	4760.65
434.47	4802.78
434.66	4943.21
434.85	4870.65
435.03	4971.30
435.22	5018.11
435.41	5191.31
435.59	5090.67
435.78	5083.64
435.97	5191.31
436.16	5214.71
436.34	5090.67
436.53	5277.91
436.72	5240.46
436.90	5121.09
437.09	5298.97
437.28	5097.69
437.46	5170.24
437.65	5238.12
437.84	4950.23
438.02	5193.65
438.21	5221.74
438.40	5364.51
438.58	5366.85
438.77	5650.05
438.96	5376.21
439.14	5530.69
439.33	5617.29
439.52	5621.97
439.70	5558.77
439.89	5720.27
440.08	5713.25
440.26	5811.55
440.45	5612.60
440.63	5776.44
440.82	5825.59
441.01	5921.56
441.19	5856.02
441.38	5970.71
441.57	6321.79
441.75	6197.74
441.94	6331.15
442.12	6097.10
442.31	6417.75
442.50	6260.93
442.68	6214.12
442.87	6207.10
443.05	6377.96
443.24	6244.55
443.43	6375.62
443.61	6504.35
443.80	6590.95
443.98	6253.91
444.17	6207.10
444.35	6541.80
444.54	6619.04
444.73	6354.55
444.91	6595.63
445.10	6434.13
445.28	6497.33
445.47	6431.79
445.65	6473.92
445.84	6576.91
446.02	6548.82
446.21	6558.18
446.39	6441.15
446.58	6745.42
446.77	6511.37
446.95	6630.74
447.14	6516.05
447.32	6754.79
447.51	6668.19
447.69	6775.85
447.88	6700.95
448.06	6626.06
448.25	6693.93
448.43	6923.30
448.62	6722.02
448.80	6703.29
448.99	6778.19
449.17	6939.69
449.36	6766.49
449.54	6967.77
449.73	7063.74
449.91	7105.87
450.10	7138.63
450.28	7260.34
450.46	7403.11
450.65	7241.62
450.83	7206.51
451.02	7283.75
451.20	7302.47
451.39	7382.05
451.57	7253.32
451.76	7115.23
451.94	7379.71
452.13	7353.96
452.31	7236.94
452.49	7047.35
452.68	7166.72
452.86	7073.10
453.05	7403.11
453.23	7344.60
453.42	7288.43
453.60	7274.38
453.78	7400.77
453.97	7386.73
454.15	7356.30
454.34	7166.72
454.52	7602.06
454.70	7562.27
454.89	7573.97
455.07	7557.59
455.26	7698.02
455.44	7833.77
455.62	7662.91
455.81	7751.85
455.99	7885.26
456.17	7630.15
456.36	7730.79
456.54	7882.92
456.73	7882.92
456.91	8182.51
457.09	8133.36
457.28	8205.92
457.46	7957.82
457.64	8109.96
457.83	8070.17
458.01	8079.53
458.19	8241.03
458.38	8049.10
458.56	8147.40
458.74	8297.20
458.93	8252.73
459.11	8355.71
459.29	8116.98
459.48	8519.55
459.66	8336.99
459.84	8456.36
460.03	8559.34
460.21	8514.87
460.39	8788.71
460.57	8664.66
460.76	8557.00
460.94	8606.15
461.12	8578.06
461.31	8627.21
461.49	8631.90
461.67	8692.75
461.85	9015.74
462.04	8720.84
462.22	9177.24
462.40	8957.23
462.59	8910.42
462.77	8936.17
462.95	9081.28
463.13	8842.54
463.32	9036.81
463.50	9081.28
463.68	9036.81
463.86	8884.67
464.05	8917.44
464.23	8762.97
464.41	8968.93
464.59	8863.61
464.78	9170.22
464.96	9207.67
465.14	9170.22
465.32	9081.28
465.50	9310.65
465.69	9495.55
465.87	9156.18
466.05	9294.27
466.23	9123.41
466.41	9109.36
466.60	9305.97
466.78	9210.01
466.96	9462.79
467.14	9453.42
467.32	9329.38
467.51	9439.38
467.69	9240.44
467.87	9509.60
468.05	9589.17
468.23	9549.39
468.41	9455.76
468.60	9399.59
468.78	9598.54
468.96	9518.96
469.14	9624.28
469.32	9802.16
469.50	9434.70
469.69	9760.03
469.87	9884.08
470.05	9816.21
470.23	9881.74
470.41	9879.40
470.59	9994.09
470.77	10029.20
470.95	9919.19
471.14	10218.78
471.32	9919.19
471.50	10368.57
471.68	10431.77
471.86	10349.85
472.04	10354.53
472.22	10527.73
472.40	10251.55
472.58	10324.10
472.77	10471.56
472.95	10644.76
473.13	10808.59
473.31	10368.57
473.49	10509.01
473.67	10682.20
473.85	10640.08
474.03	10979.45
474.21	11056.69
474.39	10874.13
474.57	11110.52
474.75	11035.63
474.93	11274.36
475.12	11166.70
475.30	11035.63
475.48	11077.76
475.66	11297.77
475.84	11274.36
476.02	11524.80
476.20	11534.16
476.38	11864.18
476.56	11782.26
476.74	11976.52
476.92	11878.22
477.10	11871.20
477.28	12273.77
477.46	12208.23
477.64	12255.04
477.82	12280.79
478.00	12524.21
478.18	12332.28
478.36	12573.36
478.54	12741.88
478.72	12702.09
478.90	12884.65
479.08	13266.16
479.26	13343.39
479.44	13170.19
479.62	13245.09
479.80	12973.59
479.98	13348.08
480.16	13729.58
480.34	13532.98
480.52	13778.73
480.70	13947.25
480.88	13572.77
481.06	13926.19
481.24	14005.77
481.41	14389.61
481.59	14396.64
481.77	14403.66
481.95	14508.98
482.13	14670.48
482.31	14637.71
482.49	15056.67
482.67	14764.10
482.85	14911.55
483.03	15073.05
483.21	15253.27
483.39	15424.13
483.57	15342.21
483.74	15398.38
483.92	15669.89
484.10	15513.07
484.28	15985.86
484.46	15920.32
484.64	16769.94
484.82	16386.09
485.00	16280.77
485.18	16325.24
485.35	16374.39
485.53	16112.25
485.71	15985.86
485.89	16414.18
486.07	16313.53
486.25	16599.08
486.43	16704.40
486.61	17137.40
486.78	17226.34
486.96	17193.58
487.14	17734.24
487.32	17649.98
487.50	17970.63
487.68	18036.17
487.85	18286.61
488.03	18471.51
488.21	18628.32
488.39	18553.43
488.57	18569.81
488.75	18682.16
488.92	19026.21
489.10	19377.30
489.28	19344.53
489.46	19527.09
489.64	19721.35
489.81	20161.37
489.99	20175.42
490.17	20180.10
490.35	20322.87
490.53	20114.56
490.70	20465.64
490.88	20580.33
491.06	20896.30
491.24	20645.87
491.41	20769.91
491.59	20870.56
491.77	20655.23
491.95	20996.95
492.13	21497.82
492.30	21341.00
492.48	21832.52
492.66	21813.79
492.84	21734.21
493.01	22258.49
493.19	21958.91
493.37	22185.94
493.54	22101.68
493.72	22485.53
493.90	22668.09
494.08	22923.21
494.25	22827.24
494.43	23300.03
494.61	23412.38
494.79	23728.35
494.96	23548.13
495.14	23468.55
495.32	23763.46
495.49	23660.48
495.67	23960.06
495.85	24056.03
496.02	23934.32
496.20	24177.73
496.38	24119.22
496.55	24299.44
496.73	25102.25
496.91	24449.24
497.09	24950.11
497.26	25263.74
497.44	24924.36
497.62	25156.08
497.79	25366.73
497.97	24879.89
498.14	25338.64
498.32	25560.99
498.50	25652.27
498.67	25914.41
498.85	26015.05
499.03	25930.80
499.20	26113.36
499.38	25991.65
499.56	26092.29
499.73	26464.44
499.91	26843.60
500.08	26443.37
500.26	26635.30
500.44	26625.93
500.61	26642.32
500.79	26249.11
500.97	26597.85
501.14	26845.94
501.32	27204.05
501.49	27068.30
501.67	26799.13
501.84	27370.22
502.02	27410.01
502.20	27358.52
502.37	27751.73
502.55	27606.62
502.72	27854.72
502.90	27805.56
503.07	27962.38
503.25	28180.05
503.43	27899.19
503.60	27922.59
503.78	27927.27
503.95	28329.84
504.13	28168.35
504.30	28603.69
504.48	28299.42
504.65	28938.38
504.83	28769.86
505.01	28999.24
505.18	29017.96
505.36	29553.94
505.53	29195.84
505.71	29589.05
505.88	29670.97
506.06	29495.43
506.23	29528.20
506.41	29792.68
506.58	29846.51
506.76	29848.85
506.93	30125.04
507.11	29759.91
507.28	29972.90
507.46	30026.73
507.63	30033.75
507.81	30139.08
507.98	30103.97
508.16	30316.96
508.33	30724.21
508.50	30976.99
508.68	30691.44
508.85	31087.00
509.03	30984.01
509.20	31395.95
509.38	31112.74
509.55	31005.08
509.73	31157.21
509.90	31070.61
510.08	31342.11
510.25	31009.76
510.42	31807.88
510.60	31161.89
510.77	31821.92
510.95	31941.29
511.12	31971.72
511.30	31908.52
511.47	32130.87
511.64	31871.07
511.82	32517.06
511.99	32231.52
512.17	32507.70
512.34	32130.87
512.51	32285.35
512.69	32322.80
512.86	32407.06
513.04	32769.84
513.21	32650.47
513.38	32875.16
513.56	33097.52
513.73	32170.66
513.90	32760.48
514.08	33048.36
514.25	33064.75
514.43	33139.65
514.60	33277.74
514.77	33357.32
514.95	33797.34
515.12	33343.27
515.29	33757.55
515.47	33752.87
515.64	33895.64
515.81	33574.98
515.99	33530.51
516.16	33804.36
516.33	33603.07
516.51	33394.76
516.68	33376.04
516.85	33546.90
517.03	33401.79
517.20	33523.49
517.37	34202.25
517.54	34588.44
517.72	34284.17
517.89	33916.70
518.06	33977.56
518.24	34199.91
518.41	34232.68
518.58	34698.44
518.75	34270.12
518.93	34881.00
519.10	34295.87
519.27	34902.07
519.45	35098.67
519.62	34934.84
519.79	35454.44
519.96	35098.67
520.14	35648.70
520.31	35213.36
520.48	35122.08
520.65	35339.75
520.83	35974.03
521.00	35992.76
521.17	35945.95
521.34	35838.28
521.52	35952.97
521.69	35812.54
521.86	35924.88
522.03	36130.85
522.20	35992.76
522.38	36589.59
522.55	36556.83
522.72	35880.41
522.89	36320.43
523.07	37060.04
523.24	36521.72
523.41	36676.19
523.58	36690.24
523.75	37209.84
523.92	36776.84
524.10	37156.00
524.27	36975.78
524.44	37022.59
524.61	37074.09
524.78	36968.76
524.96	37156.00
525.13	37406.44
525.30	37589.00
525.47	37830.08
525.64	37799.65
525.81	37647.52
525.98	37652.20
526.16	37301.12
526.33	37146.64
526.50	37427.51
526.67	36959.40
526.84	37376.01
527.01	37219.20
527.18	37848.80
527.36	38040.73
527.53	38059.45
527.70	38593.09
527.87	37823.06
528.04	38085.20
528.21	38167.12
528.38	38293.50
528.55	38543.94
528.72	38857.57
528.89	39100.99
529.07	38728.84
529.24	38438.62
529.41	38763.95
529.58	38436.28
529.75	38703.10
529.92	38941.83
530.09	39136.10
530.26	39290.57
530.43	39267.17
530.60	38934.81
530.77	38902.04
530.94	39290.57
531.11	38969.92
531.28	39613.57
531.46	39335.04
531.63	39662.72
531.80	39166.52
531.97	39122.05
532.14	39161.84
532.31	39533.99
532.48	39243.76
532.65	39426.32
532.82	39562.08
532.99	39796.13
533.16	39576.12
533.33	39903.79
533.50	39812.51
533.67	39746.98
533.84	39480.16
534.01	39831.24
534.18	40189.34
534.35	40549.78
534.52	40243.17
534.69	40215.08
534.86	40713.62
535.03	40453.82
535.20	40741.71
535.37	40690.21
535.54	40807.24
535.71	40870.43
535.88	40971.08
536.05	40699.58
536.22	40879.80
536.38	40774.47
536.55	40299.34
536.72	40540.42
536.89	40491.27
537.06	40261.90
537.23	40900.86
537.40	41373.65
537.57	40912.56
537.74	40739.36
537.91	41214.49
538.08	41490.68
538.25	40952.35
538.42	41027.25
538.59	41242.58
538.75	41013.21
538.92	41258.96
539.09	41354.93
539.26	41193.43
539.43	41710.69
539.60	41528.13
539.77	41392.37
539.94	40952.35
540.11	41092.79
540.28	41345.56
540.44	41422.80
540.61	41240.24
540.78	41083.42
540.95	41244.92
541.12	41064.70
541.29	41633.45
541.46	41872.18
541.62	41727.07
541.79	41521.10
541.96	41579.62
542.13	41860.48
542.30	41710.69
542.47	41720.05
542.63	41493.02
542.80	42183.48
542.97	42426.89
543.14	42637.54
543.31	42211.56
543.48	42277.10
543.64	42639.88
543.81	42543.92
543.98	42583.71
544.15	42422.21
544.32	42511.15
544.48	43313.95
544.65	42906.70
544.82	42609.45
544.99	42543.92
545.16	42806.06
545.32	42653.92
545.49	43100.97
545.66	42948.83
545.83	43072.88
546.00	42799.04
546.16	42656.26
546.33	42885.64
546.50	42948.83
546.67	43388.85
546.83	43154.80
547.00	43037.77
547.17	43276.51
547.34	42988.62
547.50	43482.47
547.67	43316.29
547.84	43782.06
548.00	43761.00
548.17	43693.12
548.34	43702.48
548.51	43271.82
548.67	43517.58
548.84	43660.35
549.01	43250.76
549.18	42993.30
549.34	43498.86
549.51	43447.36
549.68	43941.22
549.84	43337.36
550.01	43578.43
550.18	43725.89
550.34	43564.39
550.51	43681.42
550.68	43957.60
550.84	43402.89
551.01	44072.29
551.18	43688.44
551.34	44069.95
551.51	44322.72
551.68	44112.08
551.84	43693.12
552.01	44062.93
552.18	43782.06
552.34	43566.73
552.51	43981.01
552.68	44058.24
552.84	43775.04
553.01	44430.39
553.18	44313.36
553.34	44561.46
553.51	43913.13
553.67	44516.99
553.84	44673.81
554.01	44617.63
554.17	44676.15
554.34	44856.37
554.51	44442.09
554.67	44575.50
554.84	44980.42
555.00	44215.06
555.17	44678.49
555.33	44563.80
555.50	44587.21
555.67	44540.39
555.83	44800.19
556.00	44446.77
556.16	45104.46
556.33	44797.85
556.50	44708.91
556.66	44650.40
556.83	44456.14
556.99	44935.95
557.16	44463.16
557.32	44713.59
557.49	44968.71
557.65	44643.38
557.82	44498.26
557.98	45017.86
558.15	45137.23
558.32	45158.30
558.48	44828.28
558.65	45184.04
558.81	44839.98
558.98	44931.26
559.14	44861.05
559.31	44830.62
559.47	44811.90
559.64	45130.21
559.80	44858.71
559.97	45099.78
560.13	44732.32
560.30	45687.26
560.46	45207.45
560.63	45233.19
560.79	44907.86
560.96	45523.42
561.12	45287.03
561.29	45186.38
561.45	45460.23
561.61	45223.83
561.78	45394.69
561.94	45038.93
562.11	44856.37
562.27	45258.94
562.44	45097.44
562.60	45198.09
562.77	45333.84
562.93	44886.79
563.10	45528.10
563.26	45322.13
563.42	45682.58
563.59	45275.32
563.75	45525.76
563.92	45703.64
564.08	45492.99
564.24	45635.77
564.41	45532.78
564.57	45418.10
564.74	45462.57
564.90	45326.81
565.07	45715.34
565.23	45104.46
565.39	45727.05
565.56	45350.22
565.72	45191.06
565.88	45909.61
566.05	44643.38
566.21	45230.85
566.38	45595.98
566.54	45572.57
566.70	46028.98
566.87	45708.32
567.03	45869.82
567.19	46003.23
567.36	45778.54
567.52	45752.79
567.68	45858.12
567.85	45249.58
568.01	45783.22
568.17	45792.58
568.34	45982.16
568.50	45422.78
568.66	45553.85
568.83	45748.11
568.99	45399.37
569.15	45408.73
569.32	45212.13
569.48	45720.02
569.64	46155.36
569.81	45904.93
569.97	46113.23
570.13	45741.09
570.30	45137.23
570.46	45675.55
570.62	45057.65
570.78	44903.18
570.95	44790.83
571.11	45851.09
571.27	45132.55
571.43	45305.75
571.60	46000.89
571.76	45715.34
571.92	45603.00
572.09	45385.33
572.25	46204.52
572.41	45778.54
572.57	46052.38
572.74	45778.54
572.90	45951.74
573.06	46218.56
573.22	45563.21
573.38	45961.10
573.55	45390.01
573.71	46155.36
573.87	45764.49
574.03	45897.91
574.20	45631.08
574.36	45830.03
574.52	46265.37
574.68	45773.86
574.84	45734.07
575.01	45820.67
575.17	45914.29
575.33	45638.11
575.49	45677.90
575.65	45801.94
575.82	46197.49
575.98	45382.99
576.14	45977.48
576.30	46003.23
576.46	45399.37
576.62	45481.29
576.79	45502.35
576.95	45488.31
577.11	45848.75
577.27	46239.62
577.43	45586.61
577.59	45324.47
577.75	45565.55
577.92	45258.94
578.08	45670.87
578.24	45769.18
578.40	45696.62
578.56	45787.90
578.72	45645.13
578.88	46344.95
579.04	45815.99
579.21	45696.62
579.37	46075.79
579.53	45996.21
579.69	45741.09
579.85	46092.17
580.01	46157.70
580.17	45808.96
580.33	45757.47
580.49	45998.55
580.65	46000.89
580.82	45621.72
580.98	45909.61
581.14	45865.14
581.30	46178.77
581.46	46012.59
581.62	46099.19
581.78	45839.39
581.94	46246.65
582.10	45951.74
582.26	45975.14
582.42	46043.02
582.58	45902.59
582.74	46071.10
582.90	46146.00
583.06	46124.94
583.22	46136.64
583.38	46541.55
583.54	46522.83
583.70	46213.88
583.86	45860.46
584.02	45869.82
584.18	45551.51
584.34	46075.79
584.50	46211.54
584.66	46061.74
584.82	45504.70
584.98	45989.19
585.14	45869.82
585.30	45925.99
585.46	45825.35
585.62	45291.71
585.78	45542.14
585.94	45422.78
586.10	45647.47
586.26	45584.27
586.42	45881.52
586.58	46124.94
586.74	46330.90
586.90	46138.98
587.06	45918.97
587.22	45698.96
587.38	45745.77
587.54	46344.95
587.70	46138.98
587.86	45893.22
588.02	45687.26
588.18	45825.35
588.34	45755.13
588.49	45642.79
588.65	45478.95
588.81	45139.57
588.97	45617.04
589.13	45008.50
589.29	45748.11
589.45	45551.51
589.61	45958.76
589.77	46003.23
589.93	46134.30
590.08	46078.13
