SpectraSuite Data File
++++++++++++++++++++++++++++++++++++
Date: Fri Oct 25 11:25:15 EDT 2013
User: price-jones
Dark Spectrum Present: No
Reference Spectrum Present: No
Number of Sampled Component Spectra: 1
Spectrometers: USB2+H05261
Integration Time (usec): 100000 (USB2+H05261)
Spectra Averaged: 1 (USB2+H05261)
Boxcar Smoothing: 0 (USB2+H05261)
Correct for Electrical Dark: No (USB2+H05261)
Strobe/Lamp Enabled: No (USB2+H05261)
Correct for Detector Non-linearity: No (USB2+H05261)
Correct for Stray Light: No (USB2+H05261)
Number of Pixels in Processed Spectrum: 2048
>>>>>Begin Processed Spectral Data<<<<<
365.73	241.08
365.92	241.08
366.12	241.08
366.32	175.54
366.52	70.22
366.72	180.22
366.91	170.86
367.11	135.75
367.31	114.69
367.51	117.03
367.70	119.37
367.90	182.56
368.10	124.05
368.30	147.45
368.49	128.73
368.69	126.39
368.89	163.84
369.09	133.41
369.28	170.86
369.48	138.09
369.68	210.65
369.87	203.63
370.07	210.65
370.27	255.12
370.47	297.25
370.66	599.18
370.86	620.24
371.06	732.59
371.25	692.80
371.45	610.88
371.65	608.54
371.84	688.12
372.04	638.97
372.24	770.04
372.44	730.25
372.63	660.03
372.83	758.33
373.03	702.16
373.22	695.14
373.42	706.84
373.62	802.80
373.81	767.70
374.01	863.66
374.21	746.63
374.40	788.76
374.60	781.74
374.79	858.98
374.99	816.85
375.19	882.38
375.38	882.38
375.58	828.55
375.78	882.38
375.97	891.74
376.17	940.90
376.37	894.08
376.56	882.38
376.76	854.30
376.95	814.51
377.15	840.25
377.35	847.27
377.54	915.15
377.74	903.45
377.93	908.13
378.13	931.53
378.33	966.64
378.52	947.92
378.72	1008.77
378.91	950.26
379.11	877.70
379.31	947.92
379.50	858.98
379.70	1008.77
379.89	1013.45
380.09	903.45
380.28	1041.54
380.48	999.41
380.68	1025.15
380.87	999.41
381.07	1043.88
381.26	1053.24
381.46	1071.97
381.65	1100.05
381.85	1057.92
382.04	1025.15
382.24	978.34
382.43	1048.56
382.63	1071.97
382.83	1090.69
383.02	1071.97
383.22	1137.50
383.41	1039.20
383.61	1118.78
383.80	1165.59
384.00	1118.78
384.19	1139.84
384.39	1097.71
384.58	1198.35
384.78	1123.46
384.97	1167.93
385.17	1174.95
385.36	1144.52
385.56	1214.74
385.75	1212.40
385.95	1156.22
386.14	1228.78
386.34	1291.98
386.53	1240.48
386.72	1210.06
386.92	1170.27
387.11	1224.10
387.31	1198.35
387.50	1167.93
387.70	1282.61
387.89	1235.80
388.09	1317.72
388.28	1203.04
388.48	1235.80
388.67	1306.02
388.86	1373.89
389.06	1247.51
389.25	1256.87
389.45	1366.87
389.64	1352.83
389.84	1427.73
390.03	1366.87
390.22	1315.38
390.42	1416.02
390.61	1329.42
390.81	1291.98
391.00	1362.19
391.19	1404.32
391.39	1385.60
391.58	1444.11
391.78	1397.30
391.97	1493.26
392.16	1425.39
392.36	1523.69
392.55	1404.32
392.75	1603.27
392.94	1479.22
393.13	1516.67
393.33	1554.12
393.52	1558.80
393.71	1490.92
393.91	1696.89
394.10	1521.35
394.29	1549.43
394.49	1540.07
394.68	1617.31
394.88	1633.69
395.07	1607.95
395.26	1640.72
395.46	1610.29
395.65	1706.25
395.84	1671.14
396.04	1795.19
396.23	1755.40
396.42	1764.76
396.62	1795.19
396.81	1750.72
397.00	1729.66
397.19	1729.66
397.39	1701.57
397.58	1834.98
397.77	1760.08
397.97	1849.02
398.16	1877.11
398.35	1923.92
398.55	1926.26
398.74	1881.79
398.93	1928.60
399.12	1991.80
399.32	1818.60
399.51	1865.41
399.70	1930.94
399.90	1968.39
400.09	1980.09
400.28	2080.74
400.47	1991.80
400.67	2040.95
400.86	2069.03
401.05	2015.20
401.24	2157.97
401.44	2073.71
401.63	2148.61
401.82	2064.35
402.01	2069.03
402.21	2277.34
402.40	2122.87
402.59	2136.91
402.78	2202.44
402.97	2190.74
403.17	2293.72
403.36	2237.55
403.55	2328.83
403.74	2359.26
403.93	2370.96
404.13	2279.68
404.32	2319.47
404.51	2382.67
404.70	2375.64
404.89	2359.26
405.09	2424.80
405.28	2415.43
405.47	2476.29
405.66	2502.03
405.85	2492.67
406.05	2527.78
406.24	2532.46
406.43	2553.52
406.62	2668.21
406.81	2675.23
407.00	2567.57
407.20	2567.57
407.39	2647.15
407.58	2712.68
407.77	2710.34
407.96	2729.06
408.15	2771.19
408.34	2658.85
408.54	2818.00
408.73	2670.55
408.92	2808.64
409.11	2853.11
409.30	2773.53
409.49	2904.60
409.68	2937.37
409.87	2827.37
410.07	2925.67
410.26	2923.33
410.45	3049.72
410.64	3052.06
410.83	3061.42
411.02	3213.56
411.21	3110.57
411.40	3070.78
411.59	3218.24
411.78	3169.09
411.98	3321.22
412.17	3234.62
412.36	3370.37
412.55	3330.58
412.74	3314.20
412.93	3466.33
413.12	3431.23
413.31	3485.06
413.50	3496.76
413.69	3454.63
413.88	3637.19
414.07	3620.81
414.26	3574.00
414.45	3684.00
414.64	3695.71
414.83	3777.62
415.02	3625.49
415.22	3801.03
415.41	3850.18
415.60	3747.20
415.79	3798.69
415.98	3810.39
416.17	4070.19
416.36	3941.46
416.55	3976.57
416.74	4037.42
416.93	3976.57
417.12	4105.30
417.31	4229.35
417.50	4112.32
417.69	4241.05
417.88	4285.52
418.07	4243.39
418.26	4194.24
418.45	4423.61
418.64	4409.57
418.83	4468.08
419.02	4355.74
419.21	4561.70
419.39	4550.00
419.58	4418.93
419.77	4339.35
419.96	4484.47
420.15	4552.34
420.34	4704.48
420.53	4545.32
420.72	4751.29
420.91	4697.46
421.10	4730.22
421.29	4713.84
421.48	4706.82
421.67	4519.57
421.86	4636.60
422.05	4758.31
422.24	4868.31
422.43	4856.61
422.61	4877.68
422.80	4938.53
422.99	4837.89
423.18	4891.72
423.37	4968.96
423.56	4744.27
423.75	4950.23
423.94	4819.16
424.13	4578.09
424.32	4767.67
424.50	4919.81
424.69	5074.28
424.88	5046.20
425.07	4926.83
425.26	5018.11
425.45	4964.28
425.64	5006.41
425.83	4917.47
426.01	5100.03
426.20	5170.24
426.39	5090.67
426.58	5001.72
426.77	5090.67
426.96	5158.54
427.15	5034.49
427.33	5118.75
427.52	5095.35
427.71	5277.91
427.90	5228.76
428.09	5310.68
428.28	5291.95
428.46	5343.44
428.65	5423.02
428.84	5366.85
429.03	5455.79
429.22	5214.71
429.40	5593.88
429.59	5488.56
429.78	5149.18
429.97	5174.92
430.16	5493.24
430.34	5591.54
430.53	5549.41
430.72	5682.82
430.91	5652.39
431.10	5540.05
431.28	5774.10
431.47	5813.89
431.66	5839.64
431.85	5729.63
432.03	5825.59
432.22	5966.03
432.41	5764.74
432.60	5797.51
432.79	5935.60
432.97	5919.21
433.16	6085.39
433.35	5930.92
433.54	6052.63
433.72	6073.69
433.91	5954.32
434.10	6019.86
434.28	6057.31
434.47	6106.46
434.66	6155.61
434.85	6279.66
435.03	6179.01
435.22	6284.34
435.41	6399.02
435.59	6363.92
435.78	6349.87
435.97	6492.65
436.16	6274.98
436.34	6345.19
436.53	6483.28
436.72	6574.56
436.90	6354.55
437.09	6572.22
437.28	6387.32
437.46	6576.91
437.65	6623.72
437.84	6541.80
438.02	6562.86
438.21	6817.98
438.40	6860.11
438.58	6885.86
438.77	6909.26
438.96	6981.82
439.14	7096.50
439.33	7225.23
439.52	7199.49
439.70	7136.29
439.89	7344.60
440.08	7164.38
440.26	7424.18
440.45	7258.00
440.63	7433.54
440.82	7592.70
441.01	7438.22
441.19	7681.64
441.38	7655.89
441.57	7665.25
441.75	7695.68
441.94	7875.90
442.12	7913.35
442.31	7801.01
442.50	8016.33
442.68	7974.21
442.87	8006.97
443.05	7908.67
443.24	8189.53
443.43	8187.19
443.61	8128.68
443.80	8390.82
443.98	8058.46
444.17	7875.90
444.35	8116.98
444.54	8283.16
444.73	8365.07
444.91	8271.45
445.10	8285.50
445.28	8252.73
445.47	8266.77
445.65	8360.39
445.84	8372.10
446.02	8285.50
446.21	8210.60
446.39	8276.13
446.58	8542.96
446.77	8475.08
446.95	8222.30
447.14	8250.39
447.32	8376.78
447.51	8418.91
447.69	8549.98
447.88	8421.25
448.06	8571.04
448.25	8526.57
448.43	8507.85
448.62	8320.60
448.80	8493.80
448.99	8493.80
449.17	8704.45
449.36	8884.67
449.54	8732.54
449.73	9156.18
449.91	8945.53
450.10	8744.24
450.28	9109.36
450.46	9001.70
450.65	9067.24
450.83	9109.36
451.02	8945.53
451.20	9217.03
451.39	9167.88
451.57	9221.71
451.76	9130.43
451.94	8952.55
452.13	9198.31
452.31	9263.84
452.49	9123.41
452.68	9317.67
452.86	9315.33
453.05	9350.44
453.23	9362.14
453.42	9198.31
453.60	9298.95
453.78	9383.21
453.97	9240.44
454.15	9446.40
454.34	9366.82
454.52	9479.17
454.70	9631.30
454.89	9504.92
455.07	9666.41
455.26	9650.03
455.44	10094.73
455.62	9795.14
455.81	9848.97
455.99	9909.83
456.17	9956.64
456.36	9912.17
456.54	9858.34
456.73	10148.56
456.91	10490.28
457.09	10483.26
457.28	10569.86
457.46	10190.69
457.64	10626.03
457.83	10396.66
458.01	10450.49
458.19	10593.26
458.38	10319.42
458.56	10829.66
458.74	10679.86
458.93	10679.86
459.11	10822.64
459.29	10668.16
459.48	10656.46
459.66	10377.94
459.84	10623.69
460.03	10963.07
460.21	10796.89
460.39	10890.51
460.57	10895.19
460.76	10829.66
460.94	11007.54
461.12	11080.10
461.31	11133.93
461.49	11236.91
461.67	11077.76
461.85	11585.65
462.04	11166.70
462.22	11674.59
462.40	11501.39
462.59	11431.18
462.77	11489.69
462.95	11499.05
463.13	11473.31
463.32	11482.67
463.50	11548.20
463.68	11442.88
463.86	11763.53
464.05	11648.85
464.23	11564.59
464.41	11737.79
464.59	11529.48
464.78	12226.96
464.96	11779.92
465.14	11845.45
465.32	11936.73
465.50	12198.87
465.69	12088.87
465.87	12037.38
466.05	12058.44
466.23	11974.18
466.41	11953.12
466.60	12425.90
466.78	12109.93
466.96	12046.74
467.14	12072.48
467.32	12397.82
467.51	12432.93
467.69	12084.19
467.87	12479.74
468.05	12262.07
468.23	12386.12
468.41	12397.82
468.60	12678.68
468.78	12458.67
468.96	12524.21
469.14	12891.67
469.32	13029.76
469.50	12631.87
469.69	12856.56
469.87	12996.99
470.05	13025.08
470.23	13102.32
470.41	13074.23
470.59	13132.75
470.77	12982.95
470.95	13275.52
471.14	13549.36
471.32	12973.59
471.50	13514.25
471.68	13364.46
471.86	13675.75
472.04	13781.07
472.22	13872.36
472.40	13638.30
472.58	13591.49
472.77	13893.42
472.95	13949.59
473.13	14626.01
473.31	13994.06
473.49	14038.53
473.67	14120.45
473.85	14113.43
474.03	14473.87
474.21	14457.49
474.39	14752.40
474.57	14487.92
474.75	14822.61
474.93	14841.34
475.12	15077.73
475.30	14778.14
475.48	14785.16
475.66	14848.36
475.84	15061.35
476.02	15279.02
476.20	15487.32
476.38	15805.64
476.56	15833.72
476.74	15826.70
476.92	15578.61
477.10	15854.79
477.28	16161.40
477.46	16135.65
477.64	16217.57
477.82	16393.11
478.00	16910.37
478.18	16561.63
478.36	16779.30
478.54	17032.08
478.72	17064.85
478.90	17294.22
479.08	17563.38
479.26	17631.26
479.44	17624.23
479.62	17572.74
479.80	17825.52
479.98	17954.25
480.16	18307.67
480.34	18389.59
480.52	18389.59
480.70	18246.82
480.88	18434.06
481.06	18635.35
481.24	18583.85
481.41	18925.57
481.59	19197.07
481.77	19412.40
481.95	19520.07
482.13	19536.45
482.31	19459.21
482.49	20060.73
482.67	20137.97
482.85	20283.08
483.03	20343.94
483.21	20664.59
483.39	20790.98
483.57	20840.13
483.74	20863.54
483.92	21586.76
484.10	21095.25
484.28	21481.44
484.46	21783.37
484.64	22155.51
484.82	22005.72
485.00	22288.92
485.18	22391.91
485.35	23030.87
485.53	22579.15
485.71	22733.62
485.89	23346.84
486.07	23302.37
486.25	22970.02
486.43	23660.48
486.61	23529.41
486.78	23953.04
486.96	23805.59
487.14	24364.98
487.32	24645.84
487.50	24807.34
487.68	24709.04
487.85	24858.83
488.03	25212.25
488.21	25729.51
488.39	25766.96
488.57	25680.36
488.75	25914.41
488.92	26082.93
489.10	26412.95
489.28	26607.21
489.46	27082.34
489.64	26654.02
489.81	27110.43
489.99	27218.09
490.17	27707.26
490.35	28109.83
490.53	28231.54
490.70	28095.79
490.88	27950.68
491.06	28102.81
491.24	28453.89
491.41	28966.47
491.59	29493.09
491.77	29111.58
491.95	29432.24
492.13	29729.48
492.30	29827.79
492.48	29572.67
492.66	29626.50
492.84	29933.11
493.01	30323.98
493.19	30300.58
493.37	31101.04
493.54	30927.84
493.72	31531.70
493.90	31234.45
494.08	31309.35
494.25	31676.81
494.43	31824.26
494.61	32177.68
494.79	32273.65
494.96	32086.40
495.14	32610.68
495.32	32767.50
495.49	32727.71
495.67	32964.10
495.85	33036.66
496.02	33914.36
496.20	33928.41
496.38	33855.85
496.55	34012.66
496.73	34579.07
496.91	33968.19
497.09	34363.75
497.26	34284.17
497.44	34387.15
497.62	35058.88
497.79	35360.81
497.97	35372.52
498.14	35629.98
498.32	35999.78
498.50	35882.75
498.67	36484.27
498.85	36294.69
499.03	36596.62
499.20	36671.51
499.38	36594.28
499.56	37022.59
499.73	37148.98
499.91	37013.23
500.08	37237.92
500.26	37228.56
500.44	37448.57
500.61	37399.42
500.79	37460.27
500.97	37752.84
501.14	38501.81
501.32	38398.83
501.49	38242.01
501.67	37771.57
501.84	38403.51
502.02	38696.08
502.20	38799.06
502.37	38803.74
502.55	39044.82
502.72	39367.81
502.90	39714.21
503.07	39187.59
503.25	39636.97
503.43	39313.98
503.60	39674.42
503.78	39885.07
503.95	39868.69
504.13	40107.42
504.30	40608.29
504.48	40371.90
504.65	40814.26
504.83	40994.48
505.01	41191.09
505.18	40868.09
505.36	41415.78
505.53	41495.36
505.71	41083.42
505.88	41537.49
506.06	41394.71
506.23	41706.01
506.41	41450.89
506.58	41818.35
506.76	41497.70
506.93	42059.43
507.11	41886.23
507.28	42153.05
507.46	42586.05
507.63	42878.61
507.81	43122.03
507.98	42480.72
508.16	42899.68
508.33	43098.62
508.50	43620.56
508.68	43529.28
508.85	43454.39
509.03	43250.76
509.20	43564.39
509.38	43871.00
509.55	44095.69
509.73	44425.71
509.90	44083.99
510.08	44296.98
510.25	44636.36
510.42	44226.76
510.60	44891.48
510.77	44898.50
510.95	45455.54
511.12	44594.23
511.30	44837.64
511.47	45212.13
511.64	45256.60
511.82	45705.98
511.99	45179.36
512.17	45762.15
512.34	45366.60
512.51	46181.11
512.69	46536.87
512.86	46258.35
513.04	46396.44
513.21	46358.99
513.38	46583.68
513.56	46321.54
513.73	46319.20
513.90	46726.46
514.08	46164.73
514.25	46571.98
514.43	46625.81
514.60	47199.24
514.77	47147.75
514.95	47295.21
515.12	47512.88
515.29	47215.63
515.47	47653.31
515.64	47531.60
515.81	47274.14
515.99	47927.15
516.16	48222.06
516.33	48151.84
516.51	48481.86
516.68	48210.35
516.85	48339.08
517.03	48301.64
517.20	48802.51
517.37	48720.59
517.54	48413.98
517.72	48919.54
517.89	48858.68
518.06	49226.15
518.24	49008.48
518.41	48994.43
518.58	49193.38
518.75	49029.54
518.93	49354.88
519.10	49357.22
519.27	49427.43
519.45	49368.92
519.62	49572.55
519.79	49963.42
519.96	49577.23
520.14	49961.08
520.31	49610.00
520.48	50066.40
520.65	50314.50
520.83	50459.61
521.00	50150.66
521.17	50323.86
521.34	50277.05
521.52	50391.73
521.69	50728.77
521.86	50759.20
522.03	50848.14
522.20	51416.89
522.38	51035.38
522.55	51201.56
522.72	50703.03
522.89	51143.05
523.07	51285.82
523.24	51222.62
523.41	51508.17
523.58	51503.49
523.75	51760.95
523.92	51704.77
524.10	51629.88
524.27	51749.24
524.44	51770.31
524.61	51611.15
524.78	51835.84
524.96	52137.77
525.13	52058.20
525.30	52240.76
525.47	52383.53
525.64	51957.55
525.81	52065.22
525.98	52758.02
526.16	52334.38
526.33	52594.18
526.50	52830.57
526.67	52500.56
526.84	52760.36
527.01	52556.73
527.18	52523.96
527.36	52570.77
527.53	52809.51
527.70	53034.20
527.87	53186.33
528.04	53193.36
528.21	53270.59
528.38	53350.17
528.55	53427.41
528.72	53275.27
528.89	53109.10
529.07	53324.43
529.24	53485.92
529.41	53427.41
529.58	53392.30
529.75	53839.34
529.92	53469.54
530.09	53715.29
530.26	53698.91
530.43	53804.24
530.60	53602.95
530.77	53652.10
530.94	53942.33
531.11	53986.80
531.28	54042.97
531.46	53925.94
531.63	54255.96
531.80	53956.37
531.97	53844.02
532.14	54164.68
532.31	54408.09
532.48	54504.06
532.65	54464.27
532.82	54419.80
532.99	54527.46
533.16	54131.91
533.33	54351.92
533.50	54695.98
533.67	54536.82
533.84	54291.07
534.01	54714.70
534.18	54824.71
534.35	55002.59
534.52	54946.42
534.69	55054.08
534.86	54899.61
535.03	55000.25
535.20	54946.42
535.37	55189.83
535.54	55014.29
535.71	54962.80
535.88	55341.97
536.05	55222.60
536.22	55409.84
536.38	55423.89
536.55	55606.45
536.72	55629.85
536.89	55246.00
537.06	55098.55
537.23	55845.18
537.40	55341.97
537.57	55697.73
537.74	55564.32
537.91	55884.97
538.08	55824.12
538.25	55482.40
538.42	55718.79
538.59	56025.40
538.75	55704.75
538.92	55938.80
539.09	55959.87
539.26	56023.06
539.43	55973.91
539.60	55952.85
539.77	56200.94
539.94	56383.51
540.11	56119.02
540.28	56292.22
540.44	56140.09
540.61	56280.52
540.78	55957.53
540.95	56343.72
541.12	56039.45
541.29	56044.13
541.46	56334.35
541.62	56322.65
541.79	56374.14
541.96	56055.83
542.13	56507.55
542.30	56528.62
542.47	56769.69
542.63	56619.90
542.80	56940.55
542.97	57055.24
543.14	57066.94
543.31	56898.42
543.48	57209.71
543.64	57181.63
543.81	56970.98
543.98	57123.11
544.15	57200.35
544.32	57214.40
544.48	57277.59
544.65	57024.81
544.82	57301.00
544.99	57162.90
545.16	57434.41
545.32	57289.29
545.49	57563.14
545.66	57598.24
545.83	57432.07
546.00	57656.76
546.16	57570.16
546.33	57415.68
546.50	57343.12
546.67	57584.20
546.83	57174.61
547.00	57563.14
547.17	57490.58
547.34	57467.17
547.50	57846.34
547.67	57982.09
547.84	57783.15
548.00	57808.89
548.17	57982.09
548.34	57687.18
548.51	57862.72
548.67	58185.72
548.84	58026.56
549.01	57937.62
549.18	57932.94
549.34	57979.75
549.51	57911.88
549.68	57972.73
549.84	58089.76
550.01	58436.16
550.18	57989.11
550.34	58234.87
550.51	58501.69
550.68	58190.40
550.84	58000.82
551.01	58372.96
551.18	58080.39
551.34	58431.47
551.51	58396.37
551.68	58358.92
551.84	58394.03
552.01	58475.94
552.18	58450.20
552.34	58328.49
552.51	58562.54
552.68	58387.00
552.84	58604.67
553.01	58745.11
553.18	58569.57
553.34	58670.21
553.51	58534.46
553.67	58665.53
553.84	58901.92
554.01	58681.91
554.17	58726.38
554.34	58714.68
554.51	58925.33
554.67	58607.01
554.84	58993.20
555.00	58791.92
555.17	58901.92
555.33	58845.75
555.50	58796.60
555.67	58862.13
555.83	58864.47
556.00	58728.72
556.16	59332.58
556.33	59030.65
556.50	59112.57
556.66	59255.34
556.83	58866.81
556.99	59255.34
557.16	59171.08
557.32	59297.47
557.49	59510.46
557.65	59276.41
557.82	59217.89
557.98	59164.06
558.15	59304.49
558.32	59494.08
558.48	59238.96
558.65	59531.53
558.81	59480.03
558.98	59370.03
559.14	59592.38
559.31	59458.97
559.47	59627.49
559.64	59477.69
559.80	59615.79
559.97	59440.24
560.13	59407.48
560.30	59442.59
560.46	59678.98
560.63	59674.30
560.79	59564.29
560.96	59831.11
561.12	59674.30
561.29	59613.44
561.45	59700.04
561.61	59730.47
561.78	59428.54
561.94	59477.69
562.11	59547.91
562.27	59767.92
562.44	59753.88
562.60	59835.80
562.77	59931.76
562.93	59627.49
563.10	59737.49
563.26	59786.64
563.42	59985.59
563.59	59657.91
563.75	60023.04
563.92	59803.03
564.08	59758.56
564.24	60088.57
564.41	59980.91
564.57	59962.18
564.74	60027.72
564.90	59948.14
565.07	59978.57
565.23	59833.46
565.39	59934.10
565.56	60076.87
565.72	60001.97
565.88	60100.28
566.05	60090.91
566.21	59945.80
566.38	60088.57
566.54	59934.10
566.70	60306.24
566.87	60088.57
567.03	60016.02
567.19	60341.35
567.36	60299.22
567.52	60114.32
567.68	60266.45
567.85	60168.15
568.01	60231.35
568.17	60212.62
568.34	60477.10
568.50	60296.88
568.66	60343.69
568.83	60229.01
568.99	60018.36
569.15	60144.75
569.32	60334.33
569.48	60111.98
569.64	60493.49
569.81	60317.95
569.97	60168.15
570.13	60317.95
570.30	60488.80
570.46	60275.82
570.62	60376.46
570.78	60399.86
570.95	60266.45
571.11	60456.04
571.27	60453.70
571.43	60343.69
571.60	60341.35
571.76	60264.11
571.92	60566.04
572.09	60570.72
572.25	60322.63
572.41	60453.70
572.57	60556.68
572.74	60580.09
572.90	60374.12
573.06	60383.48
573.22	60360.08
573.38	60605.83
573.55	60397.52
573.71	60697.11
573.87	60549.66
574.03	60418.59
574.20	60563.70
574.36	60434.97
574.52	60645.62
574.68	60636.26
574.84	60643.28
575.01	60633.92
575.17	60617.53
575.33	60561.36
575.49	60409.23
575.65	60596.47
575.82	60594.13
575.98	60659.66
576.14	60905.42
576.30	60748.60
576.46	60692.43
576.62	60453.70
576.79	60816.48
576.95	60743.92
577.11	60463.06
577.27	60570.72
577.43	60556.68
577.59	60708.82
577.75	60647.96
577.92	60544.98
578.08	60718.18
578.24	60683.07
578.40	60786.05
578.56	60720.52
578.72	60776.69
578.88	60757.97
579.04	60701.79
579.21	60598.81
579.37	60809.46
579.53	60959.25
579.69	60624.56
579.85	60573.06
580.01	60636.26
580.17	60512.21
580.33	60844.57
580.49	60713.50
580.65	60793.07
580.82	60715.84
580.98	60760.31
581.14	60795.42
581.30	60729.88
581.46	60769.67
581.62	60954.57
581.78	60643.28
581.94	60804.78
582.10	60886.70
582.26	60669.03
582.42	60863.29
582.58	60654.98
582.74	60706.47
582.90	60720.52
583.06	60893.72
583.22	60727.54
583.38	60640.94
583.54	60865.63
583.70	60818.82
583.86	60863.29
584.02	60715.84
584.18	60977.98
584.34	60666.69
584.50	60580.09
584.66	60776.69
584.82	60807.12
584.98	60940.53
585.14	60832.86
585.30	60985.00
585.46	60779.03
585.62	60811.80
585.78	61071.60
585.94	60725.20
586.10	61006.06
586.26	60905.42
586.42	61010.74
586.58	60931.17
586.74	60811.80
586.90	60760.31
587.06	60725.20
587.22	61059.90
587.38	61064.58
587.54	61069.26
587.70	61069.26
587.86	61020.11
588.02	60870.31
588.18	61038.83
588.34	60940.53
588.49	61013.08
