SpectraSuite Data File
++++++++++++++++++++++++++++++++++++
Date: Fri Oct 25 11:34:38 EDT 2013
User: price-jones
Dark Spectrum Present: No
Reference Spectrum Present: No
Number of Sampled Component Spectra: 1
Spectrometers: USB2+H05261
Integration Time (usec): 100000 (USB2+H05261)
Spectra Averaged: 1 (USB2+H05261)
Boxcar Smoothing: 0 (USB2+H05261)
Correct for Electrical Dark: No (USB2+H05261)
Strobe/Lamp Enabled: No (USB2+H05261)
Correct for Detector Non-linearity: No (USB2+H05261)
Correct for Stray Light: No (USB2+H05261)
Number of Pixels in Processed Spectrum: 2048
>>>>>Begin Processed Spectral Data<<<<<
365.73	248.10
365.92	248.10
366.12	248.10
366.32	266.82
366.52	147.45
366.72	236.39
366.91	205.97
367.11	198.95
367.31	191.92
367.51	177.88
367.70	201.29
367.90	187.24
368.10	154.48
368.30	196.60
368.49	203.63
368.69	168.52
368.89	196.60
369.09	255.12
369.28	198.95
369.48	212.99
369.68	196.60
369.87	259.80
370.07	264.48
370.27	285.55
370.47	348.74
370.66	442.36
370.86	458.74
371.06	428.32
371.25	547.69
371.45	545.34
371.65	580.45
371.84	580.45
372.04	587.47
372.24	557.05
372.44	580.45
372.63	601.52
372.83	592.16
373.03	547.69
373.22	587.47
373.42	631.94
373.62	587.47
373.81	594.50
374.01	641.31
374.21	638.97
374.40	660.03
374.60	631.94
374.79	615.56
374.99	674.07
375.19	620.24
375.38	681.10
375.58	627.26
375.78	643.65
375.97	645.99
376.17	760.67
376.37	702.16
376.56	702.16
376.76	704.50
376.95	718.54
377.15	641.31
377.35	725.57
377.54	755.99
377.74	629.60
377.93	718.54
378.13	695.14
378.33	716.20
378.52	709.18
378.72	737.27
378.91	657.69
379.11	641.31
379.31	695.14
379.50	709.18
379.70	802.80
379.89	613.22
380.09	699.82
380.28	695.14
380.48	695.14
380.68	727.91
380.87	751.31
381.07	746.63
381.26	660.03
381.46	727.91
381.65	763.01
381.85	739.61
382.04	697.48
382.24	760.67
382.43	716.20
382.63	704.50
382.83	732.59
383.02	826.21
383.22	840.25
383.41	814.51
383.61	781.74
383.80	851.96
384.00	828.55
384.19	791.10
384.39	847.27
384.58	814.51
384.78	777.06
384.97	828.55
385.17	788.76
385.36	830.89
385.56	821.53
385.75	849.61
385.95	877.70
386.14	882.38
386.34	821.53
386.53	807.48
386.72	833.23
386.92	830.89
387.11	844.93
387.31	833.23
387.50	805.14
387.70	880.04
387.89	940.90
388.09	856.64
388.28	861.32
388.48	887.06
388.67	861.32
388.86	905.79
389.06	926.85
389.25	889.40
389.45	891.74
389.64	894.08
389.84	898.77
390.03	1001.75
390.22	896.43
390.42	945.58
390.61	882.38
390.81	957.28
391.00	938.55
391.19	903.45
391.39	926.85
391.58	950.26
391.78	997.07
391.97	1025.15
392.16	1029.84
392.36	971.32
392.55	1008.77
392.75	1050.90
392.94	950.26
393.13	999.41
393.33	966.64
393.52	1034.52
393.71	1053.24
393.91	1088.35
394.10	1025.15
394.29	990.05
394.49	1015.79
394.68	1095.37
394.88	1114.10
395.07	1116.44
395.26	1062.60
395.46	1121.12
395.65	1097.71
395.84	1109.41
396.04	1210.06
396.23	1174.95
396.42	1184.31
396.62	1088.35
396.81	1217.08
397.00	1142.18
397.19	1170.27
397.39	1191.33
397.58	1289.64
397.77	1196.01
397.97	1224.10
398.16	1167.93
398.35	1245.16
398.55	1174.95
398.74	1219.42
398.93	1306.02
399.12	1268.57
399.32	1235.80
399.51	1212.40
399.70	1350.49
399.90	1254.53
400.09	1296.66
400.28	1322.40
400.47	1366.87
400.67	1355.17
400.86	1392.62
401.05	1329.42
401.24	1252.19
401.44	1366.87
401.63	1399.64
401.82	1371.55
402.01	1371.55
402.21	1418.36
402.40	1371.55
402.59	1387.94
402.78	1495.60
402.97	1483.90
403.17	1301.34
403.36	1502.62
403.55	1430.07
403.74	1528.37
403.93	1516.67
404.13	1551.78
404.32	1514.33
404.51	1521.35
404.70	1551.78
404.89	1568.16
405.09	1619.65
405.28	1591.56
405.47	1549.43
405.66	1678.16
405.85	1722.63
406.05	1537.73
406.24	1652.42
406.43	1591.56
406.62	1748.38
406.81	1715.61
407.00	1664.12
407.20	1746.04
407.39	1736.68
407.58	1692.21
407.77	1767.10
407.96	1827.96
408.15	1818.60
408.34	1865.41
408.54	1799.87
408.73	1827.96
408.92	1774.13
409.11	1867.75
409.30	1860.73
409.49	1937.96
409.68	1891.15
409.87	1902.86
410.07	2050.31
410.26	2017.54
410.45	1923.92
410.64	1989.46
410.83	1987.11
411.02	2033.93
411.21	2115.84
411.40	2078.40
411.59	2143.93
411.78	2050.31
411.98	2038.61
412.17	2094.78
412.36	2057.33
412.55	2150.95
412.74	2155.63
412.93	2284.36
413.12	2214.15
413.31	2296.07
413.50	2244.57
413.69	2284.36
413.88	2445.86
414.07	2319.47
414.26	2314.79
414.45	2415.43
414.64	2401.39
414.83	2551.18
415.02	2525.44
415.22	2452.88
415.41	2520.76
415.60	2525.44
415.79	2413.09
415.98	2626.08
416.17	2607.36
416.36	2551.18
416.55	2647.15
416.74	2640.12
416.93	2581.61
417.12	2649.49
417.31	2686.94
417.50	2794.60
417.69	2857.79
417.88	2822.69
418.07	2832.05
418.26	2843.75
418.45	2747.79
418.64	2895.24
418.83	2902.26
419.02	2895.24
419.21	3019.29
419.39	2860.13
419.58	2902.26
419.77	3007.59
419.96	2988.86
420.15	2949.08
420.34	3052.06
420.53	3059.08
420.72	2977.16
420.91	3098.87
421.10	3112.91
421.29	2984.18
421.48	3236.96
421.67	3089.51
421.86	3077.80
422.05	3159.72
422.24	3173.77
422.43	3176.11
422.61	3108.23
422.80	3225.26
422.99	3227.60
423.18	3276.75
423.37	3295.47
423.56	3166.74
423.75	3330.58
423.94	3028.65
424.13	3178.45
424.32	3122.27
424.50	3251.00
424.69	3382.07
424.88	3442.93
425.07	3281.43
425.26	3311.86
425.45	3330.58
425.64	3225.26
425.83	3103.55
426.01	3485.06
426.20	3426.54
426.39	3349.31
426.58	3248.66
426.77	3288.45
426.96	3332.92
427.15	3522.51
427.33	3363.35
427.52	3424.20
427.71	3475.70
427.90	3503.78
428.09	3396.12
428.28	3494.42
428.46	3545.91
428.65	3417.18
428.84	3632.51
429.03	3609.11
429.22	3452.29
429.40	3548.25
429.59	3534.21
429.78	3419.52
429.97	3480.38
430.16	3559.95
430.34	3651.24
430.53	3817.41
430.72	3590.38
430.91	3667.62
431.10	3555.27
431.28	3822.09
431.47	3772.94
431.66	3639.53
431.85	3747.20
432.03	3838.48
432.22	3934.44
432.41	3850.18
432.60	3829.12
432.79	4002.32
432.97	3925.08
433.16	3861.88
433.35	3983.59
433.54	3918.06
433.72	4014.02
433.91	4018.70
434.10	3922.74
434.28	4042.11
434.47	3864.22
434.66	4102.96
434.85	4060.83
435.03	4175.52
435.22	4084.23
435.41	4191.90
435.59	4147.43
435.78	4234.03
435.97	4147.43
436.16	4250.41
436.34	4170.83
436.53	4329.99
436.72	4159.13
436.90	4212.96
437.09	4301.90
437.28	4234.03
437.46	4341.69
437.65	4278.50
437.84	4428.29
438.02	4362.76
438.21	4280.84
438.40	4301.90
438.58	4322.97
438.77	4624.90
438.96	4533.62
439.14	4620.22
439.33	4662.35
439.52	4624.90
439.70	4819.16
439.89	4622.56
440.08	4767.67
440.26	4889.38
440.45	4795.76
440.63	4856.61
440.82	4964.28
441.01	4936.19
441.19	4887.04
441.38	4880.02
441.57	4898.74
441.75	5001.72
441.94	5107.05
442.12	5004.07
442.31	5184.29
442.50	5186.63
442.68	5081.30
442.87	5221.74
443.05	5041.51
443.24	5287.27
443.43	5359.83
443.61	5256.84
443.80	5352.81
443.98	5210.03
444.17	5034.49
444.35	5324.72
444.54	5490.90
444.73	5334.08
444.91	5425.36
445.10	5270.89
445.28	5408.98
445.47	5303.65
445.65	5324.72
445.84	5401.96
446.02	5390.25
446.21	5465.15
446.39	5301.31
446.58	5537.71
446.77	5357.49
446.95	5205.35
447.14	5439.40
447.32	5502.60
447.51	5472.17
447.69	5408.98
447.88	5603.24
448.06	5542.39
448.25	5586.86
448.43	5507.28
448.62	5495.58
448.80	5455.79
448.99	5636.01
449.17	5577.50
449.36	5563.45
449.54	5668.78
449.73	5668.78
449.91	5919.21
450.10	5731.97
450.28	5760.06
450.46	5701.54
450.65	5877.09
450.83	5809.21
451.02	5738.99
451.20	5860.70
451.39	5746.02
451.57	5659.42
451.76	5961.34
451.94	6033.90
452.13	6003.47
452.31	5949.64
452.49	5902.83
452.68	5949.64
452.86	5963.68
453.05	6061.99
453.23	6010.50
453.42	5980.07
453.60	5987.09
453.78	5984.75
453.97	6040.92
454.15	5982.41
454.34	6080.71
454.52	6300.72
454.70	6244.55
454.89	6186.04
455.07	6225.82
455.26	6377.96
455.44	6380.30
455.62	6319.45
455.81	6415.41
455.99	6623.72
456.17	6490.31
456.36	6499.67
456.54	6408.39
456.73	6567.54
456.91	6672.87
457.09	6661.16
457.28	6729.04
457.46	6565.20
457.64	6827.34
457.83	6803.94
458.01	6675.21
458.19	6927.99
458.38	6733.72
458.56	6930.33
458.74	6825.00
458.93	6675.21
459.11	6759.47
459.29	6773.51
459.48	6871.81
459.66	6752.45
459.84	7035.65
460.03	7281.41
460.21	7033.31
460.39	6883.52
460.57	6850.75
460.76	7094.16
460.94	7201.83
461.12	7368.01
461.31	7117.57
461.49	7045.01
461.67	7061.40
461.85	7220.55
462.04	7215.87
462.22	7719.09
462.40	7508.44
462.59	7370.35
462.77	7246.30
462.95	7255.66
463.13	7349.28
463.32	7503.76
463.50	7344.60
463.68	7555.25
463.86	7688.66
464.05	7248.64
464.23	7379.71
464.41	7573.97
464.59	7466.31
464.78	7693.34
464.96	7679.30
465.14	7564.61
465.32	7620.78
465.50	7749.51
465.69	7789.30
465.87	7644.19
466.05	7761.22
466.23	7756.54
466.41	7672.28
466.60	7751.85
466.78	7702.70
466.96	7810.37
467.14	7786.96
467.32	7967.18
467.51	7871.22
467.69	7672.28
467.87	7740.15
468.05	7911.01
468.23	7691.00
468.41	7934.42
468.60	8077.19
468.78	7988.25
468.96	8098.25
469.14	7866.54
469.32	8194.22
469.50	7946.12
469.69	8191.88
469.87	8231.66
470.05	8365.07
470.23	8276.13
470.41	8336.99
470.59	8592.11
470.77	8355.71
470.95	8159.11
471.14	8589.77
471.32	8325.29
471.50	8582.74
471.68	8402.52
471.86	8531.25
472.04	8601.47
472.22	8748.92
472.40	8585.08
472.58	8727.86
472.77	8769.99
472.95	8917.44
473.13	8982.98
473.31	8702.11
473.49	8940.85
473.67	9090.64
473.85	9076.60
474.03	9043.83
474.21	9266.18
474.39	9224.05
474.57	9275.54
474.75	9404.27
474.93	9430.02
475.12	9481.51
475.30	9427.68
475.48	9207.67
475.66	9537.68
475.84	9462.79
476.02	9633.64
476.20	9640.67
476.38	9666.41
476.56	9933.23
476.74	9989.41
476.92	9673.43
477.10	10061.96
477.28	10026.86
477.46	10087.71
477.64	10356.87
477.82	10326.44
478.00	10478.58
478.18	10478.58
478.36	10679.86
478.54	10647.10
478.72	10712.63
478.90	10832.00
479.08	10965.41
479.26	10782.85
479.44	10913.92
479.62	11253.30
479.80	11133.93
479.98	11215.85
480.16	11431.18
480.34	11480.33
480.52	11690.98
480.70	11520.12
480.88	11389.05
481.06	11646.51
481.24	11503.73
481.41	11843.11
481.59	12023.33
481.77	12205.89
481.95	12418.88
482.13	12259.73
482.31	12430.59
482.49	12634.21
482.67	12615.49
482.85	12767.62
483.03	13018.06
483.21	12844.86
483.39	13095.30
483.57	12929.12
483.74	13174.88
483.92	13268.50
484.10	13198.28
484.28	13523.62
484.46	13579.79
484.64	13776.39
484.82	13825.54
485.00	13776.39
485.18	14036.19
485.35	14176.62
485.53	14307.69
485.71	14211.73
485.89	14719.63
486.07	14469.19
486.25	14628.35
486.43	14445.79
486.61	14721.97
486.78	15115.18
486.96	14951.34
487.14	15152.63
487.32	15098.80
487.50	15550.52
487.68	15435.83
487.85	15548.18
488.03	15744.78
488.21	16182.46
488.39	16016.29
488.57	16240.98
488.75	16402.47
488.92	16578.01
489.10	16355.66
489.28	16456.31
489.46	16702.06
489.64	16826.11
489.81	17394.86
489.99	17158.47
490.17	17280.18
490.35	17277.83
490.53	17371.46
490.70	17708.49
490.88	17582.10
491.06	17951.91
491.24	17741.26
491.41	18368.52
491.59	17867.65
491.77	18195.32
491.95	18265.54
492.13	18211.71
492.30	18270.22
492.48	18625.98
492.66	18824.93
492.84	18822.59
493.01	19190.05
493.19	18960.68
493.37	19248.57
493.54	19173.67
493.72	19571.56
493.90	19475.60
494.08	19667.52
494.25	19857.10
494.43	19847.74
494.61	20128.61
494.79	20226.91
494.96	20030.30
495.14	20046.69
495.32	20739.49
495.49	20278.40
495.67	20430.54
495.85	20779.28
496.02	20751.19
496.20	21165.46
496.38	20973.54
496.55	21270.79
496.73	21326.96
496.91	21458.03
497.09	21287.17
497.26	21640.59
497.44	21600.80
497.62	21673.36
497.79	21970.61
497.97	22085.30
498.14	22345.09
498.32	22253.81
498.50	22429.35
498.67	22771.07
498.85	22305.31
499.03	22845.97
499.20	22944.27
499.38	22532.34
499.56	22487.87
499.73	23243.86
499.91	23227.48
500.08	23475.57
500.26	23218.11
500.44	23407.70
500.61	23676.86
500.79	23276.63
500.97	23796.23
501.14	24137.94
501.32	24105.18
501.49	23864.10
501.67	23707.29
501.84	24180.07
502.02	24264.33
502.20	24180.07
502.37	24240.93
502.55	24004.53
502.72	24760.53
502.90	24341.57
503.07	24407.11
503.25	24725.42
503.43	24727.76
503.60	24819.04
503.78	24844.79
503.95	25226.29
504.13	24929.05
504.30	25268.42
504.48	25404.17
504.65	25425.24
504.83	25153.74
505.01	25846.54
505.18	25860.58
505.36	25537.59
505.53	25827.81
505.71	25979.95
505.88	26043.14
506.06	25551.63
506.23	26410.60
506.41	26026.76
506.58	25993.99
506.76	26272.51
506.93	26497.20
507.11	26204.64
507.28	26728.92
507.46	26689.13
507.63	26740.62
507.81	26742.96
507.98	26635.30
508.16	26761.69
508.33	26754.66
508.50	27016.80
508.68	27292.99
508.85	27157.24
509.03	27007.44
509.20	26930.20
509.38	27683.86
509.55	27740.03
509.73	27545.76
509.90	27772.80
510.08	27679.18
510.25	27758.75
510.42	27859.40
510.60	28032.60
510.77	28292.40
510.95	28678.58
511.12	28332.18
511.30	28299.42
511.47	28847.10
511.64	28687.95
511.82	28524.11
511.99	28514.75
512.17	28456.23
512.34	28680.92
512.51	29132.65
512.69	28964.13
512.86	29053.07
513.04	29041.37
513.21	28959.45
513.38	29345.64
513.56	29357.34
513.73	29369.04
513.90	29542.24
514.08	29418.19
514.25	29872.26
514.43	29743.53
514.60	29715.44
514.77	29965.88
514.95	29921.41
515.12	29951.84
515.29	30092.27
515.47	29869.92
515.64	30022.05
515.81	30312.28
515.99	30232.70
516.16	30565.06
516.33	30483.14
516.51	30764.00
516.68	30277.17
516.85	30897.41
517.03	30780.39
517.20	30569.74
517.37	31007.42
517.54	31138.49
517.72	31182.96
517.89	31098.70
518.06	31250.83
518.24	30993.37
518.41	31328.07
518.58	31079.97
518.75	31178.28
518.93	31683.83
519.10	31292.96
519.27	31644.04
519.45	31592.55
519.62	31580.85
519.79	31405.31
519.96	31658.09
520.14	32158.96
520.31	31819.58
520.48	32456.21
520.65	32290.03
520.83	32486.64
521.00	32158.96
521.17	32514.72
521.34	32203.43
521.52	32636.43
521.69	32411.74
521.86	32336.84
522.03	32786.22
522.20	32751.12
522.38	33275.40
522.55	33034.32
522.72	32903.25
522.89	33170.07
523.07	33249.65
523.24	32779.20
523.41	33603.07
523.58	33282.42
523.75	33865.21
523.92	33078.79
524.10	33902.66
524.27	33773.93
524.44	33696.69
524.61	33734.14
524.78	33516.47
524.96	33886.28
525.13	34066.50
525.30	34342.68
525.47	33975.22
525.64	33797.34
525.81	34609.50
525.98	34026.71
526.16	34113.31
526.33	34349.70
526.50	34595.46
526.67	34354.38
526.84	34595.46
527.01	34314.59
527.18	34696.10
527.36	34747.59
527.53	34749.93
527.70	35213.36
527.87	35473.16
528.04	34579.07
528.21	34972.28
528.38	35140.80
528.55	35351.45
528.72	35037.82
528.89	35330.39
529.07	35335.07
529.24	35119.74
529.41	35367.84
529.58	35082.29
529.75	35384.22
529.92	35899.14
530.09	35545.72
530.26	35608.91
530.43	35494.22
530.60	35365.49
530.77	35424.01
530.94	35754.02
531.11	35756.36
531.28	35665.08
531.46	36285.33
531.63	35817.22
531.80	35934.24
531.97	36133.19
532.14	36409.37
532.31	35896.80
532.48	36500.65
532.65	36811.95
532.82	36196.38
532.99	36460.87
533.16	36154.26
533.33	36561.51
533.50	36671.51
533.67	36753.43
533.84	36364.90
534.01	36708.96
534.18	36814.29
534.35	37097.49
534.52	36952.38
534.69	36786.20
534.86	37170.05
535.03	36940.68
535.20	37088.13
535.37	37205.16
535.54	37277.71
535.71	37200.47
535.88	37237.92
536.05	37230.90
536.22	37116.22
536.38	37659.22
536.55	37277.71
536.72	37558.58
536.89	37420.48
537.06	37483.68
537.23	37670.92
537.40	37921.36
537.57	37823.06
537.74	37680.28
537.91	38176.48
538.08	38277.12
538.25	37797.31
538.42	37703.69
538.59	37965.83
538.75	38124.99
538.92	38237.33
539.09	38639.90
539.26	38181.16
539.43	38588.41
539.60	38288.82
539.77	38794.38
539.94	38349.68
540.11	38450.32
540.28	38333.29
540.44	38759.27
540.61	38361.38
540.78	38415.21
540.95	38497.13
541.12	38607.14
541.29	38572.03
541.46	38944.17
541.62	39168.87
541.79	38958.22
541.96	38787.36
542.13	38653.95
542.30	38639.90
542.47	39220.36
542.63	38958.22
542.80	39117.37
542.97	39150.14
543.14	39454.41
543.31	39328.02
543.48	39281.21
543.64	39662.72
543.81	39835.92
543.98	39714.21
544.15	40006.78
544.32	39634.63
544.48	39746.98
544.65	40020.82
544.82	39779.74
544.99	39667.40
545.16	40058.27
545.32	40268.92
545.49	40596.59
545.66	40350.84
545.83	40465.52
546.00	39990.39
546.16	40318.07
546.33	40378.92
546.50	40048.91
546.67	40708.94
546.83	39754.00
547.00	40041.88
547.17	40341.47
547.34	40505.31
547.50	40512.33
547.67	40851.71
547.84	40638.72
548.00	40772.13
548.17	40877.46
548.34	41146.62
548.51	40531.06
548.67	40781.49
548.84	41144.28
549.01	41029.59
549.18	40891.50
549.34	40966.40
549.51	41392.37
549.68	40722.98
549.84	40982.78
550.01	40931.29
550.18	40830.65
550.34	40982.78
550.51	41294.07
550.68	41607.70
550.84	41137.26
551.01	41785.58
551.18	40828.30
551.34	41036.61
551.51	41415.78
551.68	41752.82
551.84	40980.44
552.01	41324.50
552.18	41521.10
552.34	41034.27
552.51	41516.42
552.68	41560.89
552.84	41607.70
553.01	41968.15
553.18	41806.65
553.34	41853.46
553.51	41455.57
553.67	41907.29
553.84	42621.16
554.01	41858.14
554.17	41724.73
554.34	42155.39
554.51	42211.56
554.67	42176.45
554.84	41816.01
555.00	42131.98
555.17	41706.01
555.33	42401.14
555.50	42401.14
555.67	42036.02
555.83	42431.57
556.00	41993.89
556.16	42408.17
556.33	42422.21
556.50	42424.55
556.66	42541.58
556.83	42485.40
556.99	43063.52
557.16	42813.08
557.32	42410.51
557.49	42583.71
557.65	42663.28
557.82	42356.67
557.98	42487.74
558.15	42689.03
558.32	42780.31
558.48	42476.04
558.65	42721.80
558.81	42646.90
558.98	43070.54
559.14	42541.58
559.31	43005.00
559.47	43051.81
559.64	42742.86
559.80	42593.07
559.97	43260.12
560.13	42796.70
560.30	42873.93
560.46	43000.32
560.63	42990.96
560.79	43620.56
560.96	43377.15
561.12	43035.43
561.29	43285.87
561.45	43711.84
561.61	43463.75
561.78	43386.51
561.94	43253.10
562.11	43501.20
562.27	43189.91
562.44	43414.60
562.60	43653.33
562.77	43391.19
562.93	43426.30
563.10	43714.19
563.26	43187.56
563.42	43707.16
563.59	43164.16
563.75	43199.27
563.92	43480.13
564.08	43339.70
564.24	43746.95
564.41	43679.08
564.57	43798.44
564.74	43627.59
564.90	43540.99
565.07	43592.48
565.23	43636.95
565.39	43852.28
565.56	44069.95
565.72	43372.47
565.88	43882.70
566.05	43587.80
566.21	43814.83
566.38	43412.26
566.54	44107.40
566.70	43915.47
566.87	43901.43
567.03	43571.41
567.19	43571.41
567.36	43751.63
567.52	44025.48
567.68	44130.80
567.85	43917.81
568.01	44135.48
568.17	43915.47
568.34	44304.00
568.50	43983.35
568.66	43676.74
568.83	44233.78
568.99	43805.47
569.15	44067.61
569.32	43800.79
569.48	43990.37
569.64	43782.06
569.81	44371.88
569.97	44271.23
570.13	44411.67
570.30	44074.63
570.46	44442.09
570.62	44898.50
570.78	44037.18
570.95	43992.71
571.11	44500.61
571.27	43938.88
571.43	44114.42
571.60	44453.79
571.76	44201.02
571.92	44528.69
572.09	43915.47
572.25	44795.51
572.41	44172.93
572.57	44147.18
572.74	44570.82
572.90	43999.73
573.06	44381.24
573.22	44383.58
573.38	44425.71
573.55	44271.23
573.71	44788.49
573.87	44725.30
574.03	45074.04
574.20	44502.95
574.36	44669.12
574.52	44486.56
574.68	44430.39
574.84	44851.69
575.01	44877.43
575.17	44945.31
575.33	44552.10
575.49	44280.60
575.65	44706.57
575.82	44924.24
575.98	44280.60
576.14	45123.19
576.30	44580.18
576.46	44591.89
576.62	44849.35
576.79	44666.78
576.95	44336.77
577.11	44495.92
577.27	44584.86
577.43	44947.65
577.59	44636.36
577.75	44477.20
577.92	44069.95
578.08	45008.50
578.24	44839.98
578.40	45036.59
578.56	44624.65
578.72	44545.08
578.88	44526.35
579.04	44685.51
579.21	44409.32
579.37	44435.07
579.53	44861.05
579.69	44662.10
579.85	44498.26
580.01	44486.56
580.17	44367.20
580.33	44570.82
580.49	44655.08
580.65	44804.88
580.82	44760.40
580.98	44521.67
581.14	44395.28
581.30	44825.94
581.46	44598.91
581.62	44591.89
581.78	44673.81
581.94	44973.39
582.10	45097.44
582.26	44917.22
582.42	45174.68
582.58	45287.03
582.74	44830.62
582.90	44685.51
583.06	44793.17
583.22	44863.39
583.38	44910.20
583.54	44811.90
583.70	44769.77
583.86	44547.42
584.02	44992.12
584.18	44900.84
584.34	44947.65
584.50	44814.24
584.66	45375.97
584.82	45071.70
584.98	45067.02
585.14	45167.66
585.30	44727.64
585.46	45043.61
585.62	44875.09
585.78	45287.03
585.94	44662.10
586.10	45146.59
586.26	44542.74
586.42	44935.95
586.58	45312.77
586.74	44636.36
586.90	44942.97
587.06	44699.55
587.22	44788.49
587.38	44755.72
587.54	45074.04
587.70	45244.90
587.86	45233.19
588.02	45034.25
588.18	44603.59
588.34	44844.66
588.49	44809.56
588.65	44645.72
588.81	44800.19
588.97	45188.72
589.13	45155.96
589.29	44912.54
589.45	45467.25
589.61	45020.20
589.77	45574.91
589.93	44947.65
590.08	45151.27
590.24	45289.37
