SpectraSuite Data File
++++++++++++++++++++++++++++++++++++
Date: Fri Oct 25 10:44:21 EDT 2013
User: price-jones
Dark Spectrum Present: No
Reference Spectrum Present: No
Number of Sampled Component Spectra: 1
Spectrometers: USB2+H05261
Integration Time (usec): 100000 (USB2+H05261)
Spectra Averaged: 1 (USB2+H05261)
Boxcar Smoothing: 0 (USB2+H05261)
Correct for Electrical Dark: No (USB2+H05261)
Strobe/Lamp Enabled: No (USB2+H05261)
Correct for Detector Non-linearity: No (USB2+H05261)
Correct for Stray Light: No (USB2+H05261)
Number of Pixels in Processed Spectrum: 2048
>>>>>Begin Processed Spectral Data<<<<<
365.73	124.05
365.92	124.05
366.12	124.05
366.32	77.24
366.52	0.00
366.72	70.22
366.91	49.15
367.11	51.49
367.31	0.00
367.51	46.81
367.70	44.47
367.90	16.38
368.10	28.09
368.30	11.70
368.49	102.98
368.69	121.71
368.89	63.19
369.09	98.30
369.28	37.45
369.48	30.43
369.68	37.45
369.87	133.41
370.07	131.07
370.27	114.69
370.47	135.75
370.66	334.70
370.86	402.57
371.06	477.47
371.25	477.47
371.45	437.68
371.65	484.49
371.84	458.74
372.04	500.87
372.24	528.96
372.44	510.24
372.63	479.81
372.83	547.69
373.03	472.79
373.22	575.77
373.42	521.94
373.62	603.86
373.81	550.03
374.01	493.85
374.21	512.58
374.40	615.56
374.60	608.54
374.79	617.90
374.99	580.45
375.19	627.26
375.38	610.88
375.58	524.28
375.78	695.14
375.97	585.13
376.17	606.20
376.37	568.75
376.56	634.29
376.76	617.90
376.95	580.45
377.15	631.94
377.35	638.97
377.54	655.35
377.74	664.71
377.93	655.35
378.13	650.67
378.33	713.86
378.52	692.80
378.72	725.57
378.91	629.60
379.11	657.69
379.31	620.24
379.50	713.86
379.70	739.61
379.89	690.46
380.09	627.26
380.28	716.20
380.48	695.14
380.68	653.01
380.87	690.46
381.07	809.83
381.26	793.44
381.46	767.70
381.65	821.53
381.85	737.27
382.04	751.31
382.24	713.86
382.43	767.70
382.63	746.63
382.83	737.27
383.02	774.72
383.22	758.33
383.41	779.40
383.61	699.82
383.80	812.17
384.00	741.95
384.19	746.63
384.39	798.12
384.58	800.46
384.78	770.04
384.97	746.63
385.17	784.08
385.36	830.89
385.56	830.89
385.75	793.44
385.95	854.30
386.14	870.68
386.34	912.81
386.53	844.93
386.72	830.89
386.92	842.59
387.11	903.45
387.31	945.58
387.50	964.30
387.70	826.21
387.89	940.90
388.09	919.83
388.28	926.85
388.48	882.38
388.67	950.26
388.86	1001.75
389.06	968.98
389.25	971.32
389.45	947.92
389.64	1107.07
389.84	971.32
390.03	950.26
390.22	1041.54
390.42	1137.50
390.61	1025.15
390.81	1018.13
391.00	1118.78
391.19	1116.44
391.39	1060.26
391.58	990.05
391.78	1069.62
391.97	1071.97
392.16	1083.67
392.36	1067.28
392.55	1121.12
392.75	1053.24
392.94	903.45
393.13	1046.22
393.33	1015.79
393.52	1048.56
393.71	1196.01
393.91	1177.29
394.10	1165.59
394.29	1149.20
394.49	1254.53
394.68	1245.16
394.88	1179.63
395.07	1296.66
395.26	1249.85
395.46	1324.74
395.65	1263.89
395.84	1275.59
396.04	1345.81
396.23	1212.40
396.42	1097.71
396.62	1135.16
396.81	1270.91
397.00	1324.74
397.19	1277.93
397.39	1331.76
397.58	1432.41
397.77	1493.26
397.97	1458.15
398.16	1483.90
398.35	1530.71
398.55	1542.41
398.74	1551.78
398.93	1652.42
399.12	1586.88
399.32	1638.38
399.51	1565.82
399.70	1570.50
399.90	1544.75
400.09	1788.17
400.28	1675.82
400.47	1720.29
400.67	1680.50
400.86	1783.49
401.05	1734.34
401.24	1799.87
401.44	1949.67
401.63	1877.11
401.82	1834.98
402.01	1853.70
402.21	1806.89
402.40	1820.94
402.59	1792.85
402.78	1834.98
402.97	1937.96
403.17	1818.60
403.36	1872.43
403.55	1905.20
403.74	1874.77
403.93	2019.88
404.13	1940.30
404.32	1919.24
404.51	1968.39
404.70	1968.39
404.89	1970.73
405.09	2064.35
405.28	2132.23
405.47	2080.74
405.66	2115.84
405.85	2214.15
406.05	2188.40
406.24	2101.80
406.43	2122.87
406.62	2188.40
406.81	2235.21
407.00	2179.04
407.20	2111.16
407.39	2157.97
407.58	2148.61
407.77	2246.91
407.96	2272.66
408.15	2427.14
408.34	2342.88
408.54	2438.84
408.73	2375.64
408.92	2473.95
409.11	2471.61
409.30	2363.94
409.49	2443.52
409.68	2415.43
409.87	2370.96
410.07	2380.32
410.26	2471.61
410.45	2429.48
410.64	2595.65
410.83	2649.49
411.02	2675.23
411.21	2715.02
411.40	2780.56
411.59	2761.83
411.78	2670.55
411.98	2672.89
412.17	2785.24
412.36	2808.64
412.55	2813.32
412.74	2836.73
412.93	2801.62
413.12	2876.52
413.31	2937.37
413.50	2888.22
413.69	2998.23
413.88	2925.67
414.07	3033.33
414.26	3218.24
414.45	3061.42
414.64	3122.27
414.83	3082.49
415.02	3105.89
415.22	3253.34
415.41	3185.47
415.60	3084.83
415.79	3283.77
415.98	3372.71
416.17	3297.81
416.36	3485.06
416.55	3400.80
416.74	3410.16
416.93	3318.88
417.12	3353.99
417.31	3480.38
417.50	3515.48
417.69	3646.55
417.88	3665.28
418.07	3592.72
418.26	3623.15
418.45	3585.70
418.64	3887.63
418.83	3597.40
419.02	3625.49
419.21	3803.37
419.39	3695.71
419.58	3679.32
419.77	3742.52
419.96	3789.33
420.15	3969.55
420.34	3866.56
420.53	3782.31
420.72	4056.15
420.91	3906.35
421.10	4058.49
421.29	4046.79
421.48	3976.57
421.67	4072.53
421.86	4100.62
422.05	3941.46
422.24	3868.91
422.43	4037.42
422.61	3990.61
422.80	4009.34
422.99	4063.17
423.18	4105.30
423.37	4100.62
423.56	4135.73
423.75	4124.02
423.94	4058.49
424.13	3803.37
424.32	3988.27
424.50	4152.11
424.69	4208.28
424.88	4276.16
425.07	3999.98
425.26	4100.62
425.45	4023.38
425.64	4091.26
425.83	4067.85
426.01	4243.39
426.20	4180.20
426.39	4051.47
426.58	4133.39
426.77	4053.81
426.96	4245.73
427.15	4166.15
427.33	4138.07
427.52	4329.99
427.71	4297.22
427.90	4294.88
428.09	4243.39
428.28	4308.93
428.46	4500.85
428.65	4365.10
428.84	4409.57
429.03	4423.61
429.22	4283.18
429.40	4348.72
429.59	4215.30
429.78	4039.76
429.97	4086.58
430.16	4042.11
430.34	4259.78
430.53	4365.10
430.72	4360.42
430.91	4341.69
431.10	4566.39
431.28	4683.41
431.47	4751.29
431.66	4882.36
431.85	4758.31
432.03	4919.81
432.22	4821.50
432.41	4842.57
432.60	4945.55
432.79	4926.83
432.97	5078.96
433.16	5090.67
433.35	4826.18
433.54	4826.18
433.72	4863.63
433.91	4809.80
434.10	4999.38
434.28	4947.89
434.47	4945.55
434.66	5172.58
434.85	5076.62
435.03	5121.09
435.22	5085.98
435.41	5280.25
435.59	5313.02
435.78	5268.55
435.97	5387.91
436.16	5270.89
436.34	5315.36
436.53	5394.93
436.72	5439.40
436.90	5151.52
437.09	5320.04
437.28	5334.08
437.46	5504.94
437.65	5378.55
437.84	5373.87
438.02	5207.69
438.21	5411.32
438.40	5247.48
438.58	5540.05
438.77	5673.46
438.96	5771.76
439.14	5872.40
439.33	5881.77
439.52	5902.83
439.70	5921.56
439.89	5804.53
440.08	5872.40
440.26	5860.70
440.45	5977.73
440.63	6164.97
440.82	6249.23
441.01	6352.21
441.19	6029.22
441.38	6274.98
441.57	6324.13
441.75	6450.52
441.94	6485.62
442.12	6532.44
442.31	6654.14
442.50	6604.99
442.68	6562.86
442.87	6438.81
443.05	6537.12
443.24	7021.61
443.43	6715.00
443.61	6761.81
443.80	6897.56
443.98	6633.08
444.17	6480.94
444.35	6757.13
444.54	7171.40
444.73	6551.16
444.91	6764.15
445.10	6773.51
445.28	6686.91
445.47	6703.29
445.65	6731.38
445.84	6815.64
446.02	6745.42
446.21	6864.79
446.39	6733.72
446.58	6918.62
446.77	6925.65
446.95	6951.39
447.14	7080.12
447.32	7077.78
447.51	6958.41
447.69	7007.56
447.88	7037.99
448.06	6977.14
448.25	6913.94
448.43	6916.28
448.62	6935.01
448.80	7101.19
448.99	7211.19
449.17	7105.87
449.36	7073.10
449.54	7293.11
449.73	7279.07
449.91	7503.76
450.10	7213.53
450.28	7365.67
450.46	7454.61
450.65	7700.36
450.83	7424.18
451.02	7417.16
451.20	7618.44
451.39	7515.46
451.57	7569.29
451.76	7478.01
451.94	7405.46
452.13	7433.54
452.31	7531.84
452.49	7431.20
452.68	7527.16
452.86	7428.86
453.05	7606.74
453.23	7454.61
453.42	7639.51
453.60	7513.12
453.78	7658.23
453.97	7634.83
454.15	7756.54
454.34	7646.53
454.52	7777.60
454.70	7768.24
454.89	7840.79
455.07	7847.82
455.26	7932.08
455.44	8053.78
455.62	8102.93
455.81	8086.55
455.99	8140.38
456.17	7929.74
456.36	7990.59
456.54	8348.69
456.73	8248.05
456.91	8578.06
457.09	8538.27
457.28	8568.70
457.46	8454.02
457.64	8482.10
457.83	8397.84
458.01	8390.82
458.19	8540.61
458.38	8582.74
458.56	8582.74
458.74	8631.90
458.93	8678.71
459.11	8690.41
459.29	8648.28
459.48	8624.87
459.66	8709.13
459.84	8713.81
460.03	9118.73
460.21	8851.91
460.39	8858.93
460.57	8849.57
460.76	8793.39
460.94	8917.44
461.12	9015.74
461.31	9025.11
461.49	8978.30
461.67	8774.67
461.85	9226.39
462.04	9111.71
462.22	9245.12
462.40	9207.67
462.59	9287.25
462.77	9212.35
462.95	9324.69
463.13	9254.48
463.32	9324.69
463.50	9334.06
463.68	9493.21
463.86	9537.68
464.05	9392.57
464.23	9177.24
464.41	9413.63
464.59	9308.31
464.78	9558.75
464.96	9455.76
465.14	9685.14
465.32	9717.90
465.50	9551.73
465.69	9488.53
465.87	9575.13
466.05	9528.32
466.23	9811.53
466.41	9610.24
466.60	9696.84
466.78	9558.75
466.96	9638.33
467.14	9582.15
467.32	9554.07
467.51	9783.44
467.69	9743.65
467.87	9841.95
468.05	9745.99
468.23	9884.08
468.41	9865.36
468.60	9762.37
468.78	10083.03
468.96	9776.42
469.14	10122.82
469.32	9949.62
469.50	10111.11
469.69	10090.05
469.87	10274.95
470.05	10340.49
470.23	10195.37
470.41	10141.54
470.59	10289.00
470.77	10228.14
470.95	10335.81
471.14	10537.09
471.32	10431.77
471.50	10682.20
471.68	10619.01
471.86	10766.46
472.04	10740.72
472.22	11007.54
472.40	10757.10
472.58	10764.12
472.77	10869.45
472.95	10820.30
473.13	11122.23
473.31	11070.73
473.49	10930.30
473.67	10981.79
473.85	11201.80
474.03	11426.50
474.21	11456.92
474.39	11169.04
474.57	11227.55
474.75	11480.33
474.93	11758.85
475.12	11527.14
475.30	11520.12
475.48	11637.14
475.66	11761.19
475.84	11623.10
476.02	11723.74
476.20	11768.21
476.38	12112.27
476.56	12514.84
476.74	12241.00
476.92	12365.05
477.10	12339.30
477.28	12835.50
477.46	12510.16
477.64	12798.05
477.82	12982.95
478.00	12915.08
478.18	12994.65
478.36	13280.20
478.54	13015.72
478.72	13329.35
478.90	13352.76
479.08	13579.79
479.26	13413.61
479.44	13703.84
479.62	13738.94
479.80	13914.48
479.98	14204.71
480.16	14333.44
480.34	14317.06
480.52	14415.36
480.70	14387.27
480.88	14298.33
481.06	14370.89
481.24	14508.98
481.41	14724.31
481.59	15124.54
481.77	14958.36
481.95	14895.17
482.13	15012.20
482.31	15154.97
482.49	15761.17
482.67	15531.80
482.85	15599.67
483.03	15791.59
483.21	15831.38
483.39	16093.52
483.57	15953.09
483.74	16053.73
483.92	16400.13
484.10	16159.06
484.28	16346.30
484.46	16645.89
484.64	16947.82
484.82	16748.87
485.00	16802.71
485.18	17090.59
485.35	16922.07
485.53	16823.77
485.71	16617.80
485.89	17116.34
486.07	16940.80
486.25	17062.51
486.43	17296.56
486.61	17741.26
486.78	17905.10
486.96	18223.41
487.14	18530.02
487.32	18515.98
487.50	18464.49
487.68	19084.73
487.85	19157.28
488.03	18981.74
488.21	19293.04
488.39	19159.63
488.57	19225.16
488.75	19494.32
488.92	19632.41
489.10	20173.08
489.28	20215.21
489.46	20732.47
489.64	20262.02
489.81	20807.36
489.99	20819.07
490.17	20723.10
490.35	21151.42
490.53	20973.54
490.70	21205.25
490.88	21249.72
491.06	21799.75
491.24	21621.87
491.41	21422.92
491.59	21549.31
491.77	21282.49
491.95	21558.67
492.13	22061.89
492.30	22307.65
492.48	22504.25
492.66	22714.90
492.84	22466.80
493.01	22721.92
493.19	22857.67
493.37	23037.89
493.54	23047.26
493.72	23410.04
493.90	23414.72
494.08	23997.51
494.25	23690.90
494.43	24196.46
494.61	24453.92
494.79	24166.03
494.96	24231.57
495.14	24353.27
495.32	24545.20
495.49	24329.87
495.67	24973.52
495.85	24954.79
496.02	25006.28
496.20	25448.64
496.38	25497.80
496.55	25198.21
496.73	25972.92
496.91	25724.83
497.09	25876.96
497.26	25975.27
497.44	26174.21
497.62	26150.81
497.79	26487.84
497.97	26122.72
498.14	26024.42
498.32	26445.71
498.50	26429.33
498.67	27145.53
498.85	26787.43
499.03	27398.31
499.20	27337.46
499.38	27175.96
499.56	27316.39
499.73	27536.40
499.91	27655.77
500.08	27536.40
500.26	27585.55
500.44	27489.59
500.61	27843.01
500.79	27257.88
500.97	27695.56
501.14	27999.83
501.32	27948.34
501.49	27845.35
501.67	27814.93
501.84	28339.21
502.02	28158.99
502.20	28620.07
502.37	28802.63
502.55	28943.06
502.72	29046.05
502.90	29212.23
503.07	29013.28
503.25	29125.63
503.43	29090.52
503.60	29123.29
503.78	29144.35
503.95	29249.67
504.13	29687.36
504.30	29521.18
504.48	29565.65
504.65	29675.65
504.83	29792.68
505.01	30405.90
505.18	29949.50
505.36	30206.95
505.53	30642.29
505.71	30604.84
505.88	30848.26
506.06	30331.00
506.23	30593.14
506.41	30642.29
506.58	30771.02
506.76	30553.35
506.93	30862.30
507.11	30866.98
507.28	31302.32
507.46	30937.20
507.63	31508.29
507.81	31075.29
507.98	30930.18
508.16	31360.84
508.33	31615.96
508.50	32189.39
508.68	32147.26
508.85	32610.68
509.03	32208.11
509.20	32027.89
509.38	32304.07
509.55	32362.59
509.73	32512.38
509.90	32638.77
510.08	32046.62
510.25	32533.45
510.42	32231.52
510.60	33034.32
510.77	33090.49
510.95	33050.70
511.12	32936.02
511.30	33455.62
511.47	33830.10
511.64	33713.08
511.82	33294.12
511.99	33141.99
512.17	33486.04
512.34	33256.67
512.51	33521.15
512.69	34017.35
512.86	33230.93
513.04	33926.07
513.21	33841.81
513.38	33652.22
513.56	33890.96
513.73	34099.26
513.90	34227.99
514.08	34089.90
514.25	34665.67
514.43	34249.06
514.60	34869.30
514.77	34696.10
514.95	34923.13
515.12	34237.36
515.29	34845.90
515.47	35044.84
515.64	35072.93
515.81	34902.07
515.99	34827.17
516.16	34951.22
516.33	34822.49
516.51	34487.79
516.68	34171.82
516.85	34078.20
517.03	34642.27
517.20	34747.59
517.37	35079.95
517.54	35407.62
517.72	35484.86
517.89	34632.91
518.06	34932.50
518.24	35194.64
518.41	34976.97
518.58	35449.75
518.75	35416.99
518.93	36088.72
519.10	35276.55
519.27	36163.62
519.45	36208.09
519.62	36727.69
519.79	36589.59
519.96	36432.78
520.14	36439.80
520.31	36311.07
520.48	36470.23
520.65	36818.97
520.83	37539.85
521.00	37308.14
521.17	36945.36
521.34	37294.10
521.52	37090.47
521.69	37181.75
521.86	37694.33
522.03	37483.68
522.20	37148.98
522.38	37689.65
522.55	37411.12
522.72	37661.56
522.89	37298.78
523.07	37799.65
523.24	37855.82
523.41	37881.57
523.58	38501.81
523.75	38190.52
523.92	38164.78
524.10	38557.99
524.27	38244.35
524.44	38843.53
524.61	38541.60
524.78	38852.89
524.96	38948.85
525.13	38579.05
525.30	38909.07
525.47	39260.15
525.64	39100.99
525.81	39335.04
525.98	38527.56
526.16	38445.64
526.33	38312.23
526.50	38485.43
526.67	38373.08
526.84	38483.09
527.01	38178.82
527.18	39042.48
527.36	39426.32
527.53	39423.98
527.70	39370.15
527.87	39419.30
528.04	39042.48
528.21	39002.69
528.38	39470.79
528.55	40048.91
528.72	40261.90
528.89	40147.21
529.07	40271.26
529.24	39768.04
529.41	40165.93
529.58	40013.80
529.75	39962.31
529.92	40470.20
530.09	39978.69
530.26	40126.14
530.43	40287.64
530.60	40456.16
530.77	40332.11
530.94	40350.84
531.11	40287.64
531.28	40552.12
531.46	40779.15
531.63	40711.28
531.80	40666.81
531.97	40739.36
532.14	40748.73
532.31	40374.24
532.48	40615.32
532.65	40821.28
532.82	40989.80
532.99	41340.88
533.16	40786.18
533.33	41013.21
533.50	41413.44
533.67	41198.11
533.84	40753.41
534.01	41338.54
534.18	41125.55
534.35	41504.72
534.52	41385.35
534.69	41521.10
534.86	41804.31
535.03	41418.12
535.20	42108.58
535.37	42139.00
535.54	42445.62
535.71	41724.73
535.88	41872.18
536.05	41888.57
536.22	41984.53
536.38	42064.11
536.55	42373.06
536.72	42092.19
536.89	41567.91
537.06	41844.10
537.23	42363.70
537.40	41727.07
537.57	42204.54
537.74	42220.92
537.91	42483.06
538.08	41900.27
538.25	42043.04
538.42	42726.48
538.59	42710.10
538.75	42136.66
538.92	42497.11
539.09	42534.56
539.26	42801.38
539.43	42679.67
539.60	42518.17
539.77	42653.92
539.94	42883.30
540.11	42600.09
540.28	42787.33
540.44	42639.88
540.61	42639.88
540.78	42717.12
540.95	42237.31
541.12	42693.71
541.29	42522.85
541.46	43161.82
541.62	42782.65
541.79	43370.13
541.96	42534.56
542.13	42670.31
542.30	43264.80
542.47	43014.37
542.63	43632.27
542.80	43262.46
542.97	43648.65
543.14	44072.29
543.31	43459.07
543.48	43548.01
543.64	44765.09
543.81	44203.36
543.98	43915.47
544.15	43903.77
544.32	43992.71
544.48	44184.63
544.65	43746.95
544.82	44172.93
544.99	44065.27
545.16	44065.27
545.32	43871.00
545.49	44423.37
545.66	44313.36
545.83	44725.30
546.00	44289.96
546.16	44268.89
546.33	44184.63
546.50	44194.00
546.67	44151.87
546.83	43878.02
547.00	44240.81
547.17	44308.68
547.34	44123.78
547.50	44289.96
547.67	45240.21
547.84	44727.64
548.00	44776.79
548.17	44847.00
548.34	44755.72
548.51	45120.85
548.67	44659.76
548.84	45111.49
549.01	44472.52
549.18	45055.31
549.34	44631.68
549.51	45013.18
549.68	45038.93
549.84	44879.77
550.01	45373.63
550.18	44949.99
550.34	45132.55
550.51	45074.04
550.68	45113.83
550.84	44898.50
551.01	45125.53
551.18	45146.59
551.34	45214.47
551.51	45214.47
551.68	45221.49
551.84	45560.87
552.01	45397.03
552.18	45153.62
552.34	45001.48
552.51	45277.66
552.68	45324.47
552.84	45600.66
553.01	45507.04
553.18	45350.22
553.34	45586.61
553.51	45059.99
553.67	45907.27
553.84	46174.09
554.01	46106.21
554.17	45603.00
554.34	46028.98
554.51	46253.67
554.67	45956.42
554.84	45722.37
555.00	45595.98
555.17	45146.59
555.33	45874.50
555.50	45729.39
555.67	45855.78
555.83	45869.82
556.00	45792.58
556.16	46122.60
556.33	46335.59
556.50	45729.39
556.66	45581.93
556.83	45963.44
556.99	46195.15
557.16	46370.69
557.32	46209.20
557.49	46298.14
557.65	45778.54
557.82	46241.96
557.98	46401.12
558.15	45862.80
558.32	46113.23
558.48	46007.91
558.65	46033.66
558.81	45776.20
558.98	45989.19
559.14	46188.13
559.31	46305.16
559.47	45911.95
559.64	46438.57
559.80	46120.26
559.97	46473.68
560.13	45989.19
560.30	46347.29
560.46	46431.55
560.63	46440.91
560.79	47063.49
560.96	46880.93
561.12	46464.32
561.29	46569.64
561.45	46394.10
561.61	46330.90
561.78	46274.73
561.94	46054.72
562.11	46447.93
562.27	46302.82
562.44	46916.04
562.60	46955.83
562.77	46939.44
562.93	46686.67
563.10	47068.17
563.26	46312.18
563.42	46707.73
563.59	46511.13
563.75	46335.59
563.92	46740.50
564.08	46698.37
564.24	46855.18
564.41	46689.01
564.57	46251.33
564.74	46529.85
564.90	46616.45
565.07	46501.76
565.23	46796.67
565.39	46349.63
565.56	46815.40
565.72	46508.79
565.88	46443.25
566.05	46354.31
566.21	46834.12
566.38	46679.64
566.54	46728.80
566.70	47344.36
566.87	47344.36
567.03	46948.81
567.19	47019.02
567.36	47112.64
567.52	46202.18
567.68	47234.35
567.85	46733.48
568.01	46710.07
568.17	46815.40
568.34	46700.71
568.50	46490.06
568.66	46501.76
568.83	46913.70
568.99	46490.06
569.15	46480.70
569.32	46293.46
569.48	46447.93
569.64	47196.90
569.81	46944.12
569.97	46749.86
570.13	46883.27
570.30	46932.42
570.46	46600.07
570.62	46738.16
570.78	46548.57
570.95	46754.54
571.11	46902.00
571.27	46852.84
571.43	46916.04
571.60	46965.19
571.76	47138.39
571.92	46810.71
572.09	46770.93
572.25	46726.46
572.41	46930.08
572.57	47098.60
572.74	47248.39
572.90	46777.95
573.06	47297.55
573.22	47379.46
573.38	47065.83
573.55	46869.23
573.71	47124.35
573.87	47098.60
574.03	46871.57
574.20	47033.07
574.36	46916.04
574.52	47337.33
574.68	47217.97
574.84	47215.63
575.01	46869.23
575.17	46918.38
575.33	46806.03
575.49	46799.01
575.65	47274.14
575.82	47175.84
575.98	46579.00
576.14	47224.99
576.30	47470.75
576.46	47379.46
576.62	47217.97
576.79	47145.41
576.95	47042.43
577.11	46934.76
577.27	47199.24
577.43	47175.84
577.59	47206.26
577.75	47136.05
577.92	46483.04
578.08	46452.61
578.24	46911.36
578.40	46782.63
578.56	46756.88
578.72	46799.01
578.88	47569.05
579.04	47334.99
579.21	47199.24
579.37	47154.77
579.53	47400.53
579.69	46955.83
579.85	46768.58
580.01	47255.42
580.17	46981.57
580.33	47281.16
580.49	47327.97
580.65	47105.62
580.82	47016.68
580.98	47349.04
581.14	46967.53
581.30	47302.23
581.46	47201.58
581.62	46920.72
581.78	47133.71
581.94	47302.23
582.10	47311.59
582.26	47166.48
582.42	47173.50
582.58	47330.31
582.74	47068.17
582.90	47356.06
583.06	47831.19
583.22	47643.94
583.38	47337.33
583.54	47529.26
583.70	47166.48
583.86	47136.05
584.02	46815.40
584.18	47562.03
584.34	47044.77
584.50	46808.37
584.66	46791.99
584.82	46894.97
584.98	47370.10
585.14	47168.82
585.30	47049.45
585.46	47339.68
585.62	46635.17
585.78	46993.28
585.94	46703.05
586.10	47084.56
586.26	46721.77
586.42	47016.68
586.58	47281.16
586.74	47061.15
586.90	47327.97
587.06	46981.57
587.22	47730.54
587.38	46621.13
587.54	47236.69
587.70	47606.50
587.86	47356.06
588.02	47002.64
588.18	47480.11
588.34	47014.34
588.49	46576.66
588.65	46422.19
588.81	46305.16
588.97	46541.55
589.13	46614.11
589.29	46541.55
589.45	46894.97
589.61	47096.26
589.77	46927.74
