SpectraSuite Data File
++++++++++++++++++++++++++++++++++++
Date: Fri Oct 25 11:26:36 EDT 2013
User: price-jones
Dark Spectrum Present: No
Reference Spectrum Present: No
Number of Sampled Component Spectra: 1
Spectrometers: USB2+H05261
Integration Time (usec): 100000 (USB2+H05261)
Spectra Averaged: 1 (USB2+H05261)
Boxcar Smoothing: 0 (USB2+H05261)
Correct for Electrical Dark: No (USB2+H05261)
Strobe/Lamp Enabled: No (USB2+H05261)
Correct for Detector Non-linearity: No (USB2+H05261)
Correct for Stray Light: No (USB2+H05261)
Number of Pixels in Processed Spectrum: 2048
>>>>>Begin Processed Spectral Data<<<<<
365.73	259.80
365.92	259.80
366.12	259.80
366.32	121.71
366.52	81.92
366.72	145.11
366.91	163.84
367.11	149.79
367.31	220.01
367.51	100.64
367.70	159.16
367.90	112.35
368.10	67.88
368.30	170.86
368.49	126.39
368.69	189.58
368.89	149.79
369.09	163.84
369.28	191.92
369.48	203.63
369.68	142.77
369.87	259.80
370.07	215.33
370.27	224.69
370.47	315.97
370.66	592.16
370.86	688.12
371.06	704.50
371.25	734.93
371.45	622.58
371.65	709.18
371.84	793.44
372.04	755.99
372.24	734.93
372.44	805.14
372.63	730.25
372.83	784.08
373.03	746.63
373.22	851.96
373.42	723.23
373.62	812.17
373.81	835.57
374.01	842.59
374.21	826.21
374.40	802.80
374.60	933.87
374.79	814.51
374.99	847.27
375.19	819.19
375.38	786.42
375.58	919.83
375.78	842.59
375.97	990.05
376.17	919.83
376.37	915.15
376.56	863.66
376.76	863.66
376.95	835.57
377.15	947.92
377.35	924.51
377.54	884.72
377.74	905.79
377.93	870.68
378.13	903.45
378.33	980.68
378.52	929.19
378.72	954.94
378.91	889.40
379.11	931.53
379.31	877.70
379.50	929.19
379.70	1015.79
379.89	1001.75
380.09	1013.45
380.28	1013.45
380.48	976.00
380.68	1004.09
380.87	971.32
381.07	976.00
381.26	980.68
381.46	1034.52
381.65	1046.22
381.85	1095.37
382.04	1041.54
382.24	1020.47
382.43	1102.39
382.63	1057.92
382.83	1104.73
383.02	1046.22
383.22	1139.84
383.41	1078.99
383.61	1198.35
383.80	1212.40
384.00	1179.63
384.19	1034.52
384.39	1118.78
384.58	1186.65
384.78	1114.10
384.97	1191.33
385.17	1083.67
385.36	1181.97
385.56	1198.35
385.75	1219.42
385.95	1214.74
386.14	1186.65
386.34	1252.19
386.53	1231.12
386.72	1198.35
386.92	1331.76
387.11	1228.78
387.31	1167.93
387.50	1315.38
387.70	1261.55
387.89	1303.68
388.09	1336.45
388.28	1306.02
388.48	1303.68
388.67	1392.62
388.86	1284.95
389.06	1266.23
389.25	1308.36
389.45	1282.61
389.64	1338.79
389.84	1331.76
390.03	1455.81
390.22	1371.55
390.42	1364.53
390.61	1359.85
390.81	1390.28
391.00	1369.21
391.19	1502.62
391.39	1537.73
391.58	1453.47
391.78	1427.73
391.97	1479.22
392.16	1434.75
392.36	1549.43
392.55	1523.69
392.75	1540.07
392.94	1542.41
393.13	1537.73
393.33	1549.43
393.52	1568.16
393.71	1530.71
393.91	1579.86
394.10	1556.46
394.29	1617.31
394.49	1521.35
394.68	1694.55
394.88	1507.30
395.07	1666.46
395.26	1652.42
395.46	1614.97
395.65	1710.93
395.84	1797.53
396.04	1898.17
396.23	1706.25
396.42	1736.68
396.62	1820.94
396.81	1788.17
397.00	1713.27
397.19	1757.74
397.39	1720.29
397.58	1813.92
397.77	1846.68
397.97	1888.81
398.16	1825.62
398.35	1923.92
398.55	1921.58
398.74	1851.36
398.93	2003.50
399.12	1942.64
399.32	1914.56
399.51	1928.60
399.70	1984.77
399.90	2003.50
400.09	2003.50
400.28	2085.42
400.47	2066.69
400.67	2129.89
400.86	2073.71
401.05	2183.72
401.24	2057.33
401.44	2244.57
401.63	2136.91
401.82	2223.51
402.01	2195.42
402.21	2129.89
402.40	2160.31
402.59	2216.49
402.78	2165.00
402.97	2179.04
403.17	2249.25
403.36	2211.81
403.55	2284.36
403.74	2326.49
403.93	2312.45
404.13	2452.88
404.32	2293.72
404.51	2253.94
404.70	2455.22
404.89	2478.63
405.09	2394.37
405.28	2541.82
405.47	2492.67
405.66	2492.67
405.85	2544.16
406.05	2553.52
406.24	2630.76
406.43	2616.72
406.62	2579.27
406.81	2715.02
407.00	2628.42
407.20	2518.42
407.39	2614.38
407.58	2733.75
407.77	2789.92
407.96	2869.50
408.15	2808.64
408.34	2787.58
408.54	2881.20
408.73	2794.60
408.92	2801.62
409.11	2801.62
409.30	2853.11
409.49	2874.18
409.68	2899.92
409.87	2970.14
410.07	2902.26
410.26	3061.42
410.45	3000.57
410.64	3070.78
410.83	3166.74
411.02	3047.38
411.21	3159.72
411.40	3122.27
411.59	3101.21
411.78	3173.77
411.98	3138.66
412.17	3318.88
412.36	3403.14
412.55	3426.54
412.74	3321.22
412.93	3304.84
413.12	3433.57
413.31	3513.14
413.50	3478.04
413.69	3473.36
413.88	3592.72
414.07	3672.30
414.26	3648.90
414.45	3620.81
414.64	3688.68
414.83	3735.50
415.02	3885.29
415.22	3904.01
415.41	3838.48
415.60	3843.16
415.79	3948.48
415.98	4021.04
416.17	4084.23
416.36	3904.01
416.55	3880.61
416.74	4021.04
416.93	4229.35
417.12	4035.08
417.31	4203.60
417.50	4210.62
417.69	4325.31
417.88	4339.35
418.07	4250.41
418.26	4276.16
418.45	4322.97
418.64	4538.30
418.83	4510.21
419.02	4390.84
419.21	4367.44
419.39	4540.64
419.58	4465.74
419.77	4498.51
419.96	4447.02
420.15	4498.51
420.34	4629.58
420.53	4718.52
420.72	4903.42
420.91	4840.23
421.10	4861.29
421.29	4699.80
421.48	4648.30
421.67	4802.78
421.86	4737.24
422.05	4891.72
422.24	4896.40
422.43	4957.25
422.61	4924.49
422.80	4954.91
422.99	4961.94
423.18	4905.76
423.37	5093.01
423.56	4992.36
423.75	4983.00
423.94	4856.61
424.13	4678.73
424.32	4620.22
424.50	5081.30
424.69	5132.79
424.88	5158.54
425.07	5039.17
425.26	5071.94
425.45	5036.83
425.64	5116.41
425.83	4798.10
426.01	5064.92
426.20	5172.58
426.39	5029.81
426.58	5149.18
426.77	5020.45
426.96	5116.41
427.15	5280.25
427.33	5167.90
427.52	5060.24
427.71	5336.42
427.90	5352.81
428.09	5338.76
428.28	5371.53
428.46	5406.64
428.65	5387.91
428.84	5575.16
429.03	5586.86
429.22	5404.30
429.40	5481.53
429.59	5540.05
429.78	5486.22
429.97	5373.87
430.16	5476.85
430.34	5696.86
430.53	5748.36
430.72	5795.17
430.91	5664.10
431.10	5596.22
431.28	5706.23
431.47	5830.27
431.66	5736.65
431.85	5774.10
432.03	5914.53
432.22	5928.58
432.41	5921.56
432.60	6188.38
432.79	5856.02
432.97	6057.31
433.16	5996.45
433.35	5989.43
433.54	6043.26
433.72	6059.65
433.91	6146.25
434.10	6314.77
434.28	6132.20
434.47	6260.93
434.66	6282.00
434.85	6321.79
435.03	6366.26
435.22	6214.12
435.41	6497.33
435.59	6225.82
435.78	6401.37
435.97	6504.35
436.16	6485.62
436.34	6373.28
436.53	6576.91
436.72	6707.98
436.90	6478.60
437.09	6567.54
437.28	6548.82
437.46	6682.23
437.65	6736.06
437.84	6672.87
438.02	6822.66
438.21	6712.66
438.40	6719.68
438.58	6995.86
438.77	7052.03
438.96	6970.12
439.14	7096.50
439.33	7169.06
439.52	7218.21
439.70	7377.37
439.89	7335.24
440.08	7449.93
440.26	7274.38
440.45	7258.00
440.63	7463.97
440.82	7527.16
441.01	7625.47
441.19	7709.72
441.38	7756.54
441.57	7889.95
441.75	7775.26
441.94	7911.01
442.12	7925.05
442.31	8119.32
442.50	8013.99
442.68	7976.55
442.87	8049.10
443.05	8226.98
443.24	8088.89
443.43	8325.29
443.61	8177.83
443.80	8500.83
443.98	8114.64
444.17	7911.01
444.35	8208.26
444.54	8224.64
444.73	8449.33
444.91	8322.94
445.10	8262.09
445.28	8458.70
445.47	8262.09
445.65	8348.69
445.84	8493.80
446.02	8575.72
446.21	8238.69
446.39	8636.58
446.58	8493.80
446.77	8711.47
446.95	8355.71
447.14	8521.89
447.32	8437.63
447.51	8351.03
447.69	8404.86
447.88	8423.59
448.06	8463.38
448.25	8564.02
448.43	8559.34
448.62	8636.58
448.80	8470.40
448.99	8795.73
449.17	8608.49
449.36	8894.04
449.54	8802.75
449.73	8961.91
449.91	9109.36
450.10	9034.47
450.28	9076.60
450.46	9364.48
450.65	9188.94
450.83	9130.43
451.02	9137.45
451.20	9298.95
451.39	9259.16
451.57	9277.88
451.76	9179.58
451.94	9441.72
452.13	9317.67
452.31	9385.55
452.49	9184.26
452.68	9392.57
452.86	9547.05
453.05	9596.20
453.23	9425.34
453.42	9327.03
453.60	9584.49
453.78	9788.12
453.97	9486.19
454.15	9703.86
454.34	9631.30
454.52	9736.63
454.70	9579.81
454.89	9799.82
455.07	9811.53
455.26	9841.95
455.44	9874.72
455.62	9914.51
455.81	10024.51
455.99	10101.75
456.17	10071.33
456.36	10197.71
456.54	9914.51
456.73	10326.44
456.91	10569.86
457.09	10443.47
457.28	10459.85
457.46	10354.53
457.64	10464.54
457.83	10527.73
458.01	10314.74
458.19	10602.63
458.38	10597.95
458.56	10590.92
458.74	10736.04
458.93	10640.08
459.11	10637.73
459.29	10913.92
459.48	10832.00
459.66	10874.13
459.84	10834.34
460.03	11199.46
460.21	11061.37
460.39	11073.07
460.57	10927.96
460.76	11222.87
460.94	11557.57
461.12	11257.98
461.31	11145.63
461.49	11117.54
461.67	11194.78
461.85	11597.35
462.04	11360.96
462.22	11674.59
462.40	11742.47
462.59	11800.98
462.77	11578.63
462.95	11681.61
463.13	11676.93
463.32	11644.17
463.50	11747.15
463.68	11730.76
463.86	11800.98
464.05	11747.15
464.23	11712.04
464.41	12035.03
464.59	11683.95
464.78	12013.97
464.96	11843.11
465.14	11756.51
465.32	12203.55
465.50	12418.88
465.69	12224.62
465.87	12037.38
466.05	12152.06
466.23	12381.43
466.41	12477.40
466.60	12648.26
466.78	12154.40
466.96	12449.31
467.14	12079.50
467.32	12257.39
467.51	12449.31
467.69	12304.20
467.87	12547.61
468.05	12638.89
468.23	12229.30
468.41	12554.63
468.60	12809.75
468.78	12620.17
468.96	12636.55
469.14	12734.85
469.32	12961.89
469.50	12828.48
469.69	12835.50
469.87	13179.56
470.05	13142.11
470.23	13352.76
470.41	13319.99
470.59	13490.85
470.77	13242.75
470.95	13261.48
471.14	13584.47
471.32	13029.76
471.50	13455.74
471.68	13671.07
471.86	13930.87
472.04	13715.54
472.22	13790.44
472.40	13657.03
472.58	13930.87
472.77	13940.23
472.95	14408.34
473.13	14441.11
473.31	14225.78
473.49	14281.95
473.67	14270.25
473.85	14443.45
474.03	14808.57
474.21	14513.66
474.39	14721.97
474.57	14766.44
474.75	14995.81
474.93	14885.81
475.12	15049.64
475.30	15019.22
475.48	15208.80
475.66	15215.82
475.84	15286.04
476.02	15431.15
476.20	15370.30
476.38	15861.81
476.56	16053.73
476.74	15672.23
476.92	15962.45
477.10	16009.26
477.28	16355.66
477.46	16224.59
477.64	16269.06
477.82	16718.45
478.00	16858.88
478.18	16725.47
478.36	16933.78
478.54	17123.36
478.72	17521.25
478.90	17256.77
479.08	17603.17
479.26	17699.13
479.44	17755.30
479.62	17710.83
479.80	18401.29
479.98	18272.56
480.16	18429.38
480.34	18523.00
480.52	18499.59
480.70	18436.40
480.88	18331.08
481.06	18731.31
481.24	18998.13
481.41	19115.16
481.59	19410.06
481.77	19328.14
481.95	19424.11
482.13	19861.79
482.31	19658.16
482.49	20196.48
482.67	20397.77
482.85	20388.41
483.03	20980.56
483.21	20734.81
483.39	21116.31
483.57	20725.44
483.74	21341.00
483.92	21308.24
484.10	21486.12
484.28	21586.76
484.46	22197.64
484.64	22572.13
484.82	22115.72
485.00	22593.19
485.18	23033.21
485.35	23014.49
485.53	22946.61
485.71	23293.01
485.89	23606.64
486.07	23496.64
486.25	23672.18
486.43	23639.41
486.61	23850.06
486.78	24271.36
486.96	24196.46
487.14	24528.81
487.32	24739.46
487.50	24847.13
487.68	24882.24
487.85	25233.32
488.03	25509.50
488.21	25933.14
488.39	26033.78
488.57	26181.23
488.75	26239.75
488.92	26590.83
489.10	26834.24
489.28	26864.67
489.46	27143.19
489.64	26951.27
489.81	27545.76
489.99	27669.81
490.17	27772.80
490.35	27896.85
490.53	27995.15
490.70	28102.81
490.88	28105.15
491.06	28755.82
491.24	29036.69
491.41	29198.18
491.59	29476.71
491.77	29340.96
491.95	29893.32
492.13	29582.03
492.30	29542.24
492.48	29855.87
492.66	30183.55
492.84	30665.70
493.01	31000.40
493.19	30967.63
493.37	30953.58
493.54	31087.00
493.72	31550.42
493.90	31522.34
494.08	31569.15
494.25	32196.41
494.43	32135.56
494.61	32603.66
494.79	32336.84
494.96	32758.14
495.14	32828.35
495.32	33441.57
495.49	33205.18
495.67	33326.89
495.85	33432.21
496.02	33619.46
496.20	34330.98
496.38	34377.79
496.55	34658.65
496.73	35185.27
496.91	34260.76
497.09	34906.75
497.26	34937.18
497.44	35054.20
497.62	35442.73
497.79	35728.28
497.97	35503.59
498.14	35903.82
498.32	36243.20
498.50	36589.59
498.67	36840.03
498.85	36596.62
499.03	36858.76
499.20	37064.72
499.38	36767.48
499.56	37647.52
499.73	37106.85
499.91	37244.94
500.08	37574.96
500.26	37626.45
500.44	37818.38
500.61	38230.31
500.79	37563.26
500.97	37956.47
501.14	38759.27
501.32	38426.92
501.49	38778.00
501.67	38806.08
501.84	39360.79
502.02	38993.32
502.20	39171.21
502.37	39501.22
502.55	39321.00
502.72	39775.06
502.90	39746.98
503.07	39421.64
503.25	39988.05
503.43	39695.49
503.60	40376.58
503.78	40505.31
503.95	40294.66
504.13	40261.90
504.30	40734.68
504.48	40882.14
504.65	40779.15
504.83	41088.10
505.01	41375.99
505.18	41572.60
505.36	42131.98
505.53	41827.71
505.71	41780.90
505.88	42157.73
506.06	40947.67
506.23	41778.56
506.41	41755.16
506.58	42059.43
506.76	42190.50
506.93	42773.29
507.11	42394.12
507.28	42822.44
507.46	42656.26
507.63	43194.59
507.81	43091.60
507.98	43147.78
508.16	43014.37
508.33	43253.10
508.50	43529.28
508.68	44278.25
508.85	44186.97
509.03	43812.49
509.20	44179.95
509.38	44502.95
509.55	44692.53
509.73	44516.99
509.90	44753.38
510.08	44774.45
510.25	44409.32
510.42	44989.78
510.60	45291.71
510.77	45640.45
510.95	45378.31
511.12	45104.46
511.30	45401.71
511.47	45581.93
511.64	45872.16
511.82	46286.43
511.99	46047.70
512.17	45811.31
512.34	46312.18
512.51	46469.00
512.69	46466.66
512.86	46752.20
513.04	46794.33
513.21	46710.07
513.38	46974.55
513.56	47028.38
513.73	47072.85
513.90	47161.79
514.08	46525.17
514.25	47213.29
514.43	47814.80
514.60	47213.29
514.77	47559.69
514.95	47222.65
515.12	47557.35
515.29	47622.88
515.47	48105.03
515.64	48250.14
515.81	47983.32
515.99	48350.79
516.16	48203.33
516.33	48205.67
516.51	48233.76
516.68	48708.89
516.85	48924.22
517.03	49148.91
517.20	48872.73
517.37	49090.40
517.54	48905.49
517.72	48900.81
517.89	49139.55
518.06	49397.01
518.24	49038.90
518.41	48945.28
518.58	49499.99
518.75	49340.83
518.93	49563.18
519.10	49495.31
519.27	49881.50
519.45	50033.63
519.62	49738.72
519.79	49748.09
519.96	50176.40
520.14	50550.89
520.31	50227.90
520.48	50143.64
520.65	50576.64
520.83	50761.54
521.00	50752.18
521.17	50630.47
521.34	50803.67
521.52	50916.01
521.69	50824.73
521.86	50974.53
522.03	51054.11
522.20	51543.28
522.38	51566.68
522.55	51316.25
522.72	51349.01
522.89	51292.84
523.07	51835.84
523.24	51842.87
523.41	51847.55
523.58	51400.50
523.75	52032.45
523.92	52023.09
524.10	52182.24
524.27	52076.92
524.44	52222.03
524.61	52083.94
524.78	52186.92
524.96	52395.23
525.13	52236.08
525.30	52727.59
525.47	52591.84
525.64	52301.61
525.81	52736.95
525.98	52573.11
526.16	52662.05
526.33	52662.05
526.50	53153.57
526.67	53038.88
526.84	52952.28
527.01	52804.83
527.18	52940.58
527.36	53195.70
527.53	53106.76
527.70	53574.86
527.87	53474.22
528.04	53497.62
528.21	53394.64
528.38	53343.15
528.55	53687.21
528.72	53284.64
528.89	53509.33
529.07	53544.44
529.24	53574.86
529.41	53773.81
529.58	53490.60
529.75	53907.22
529.92	53708.27
530.09	53930.62
530.26	53914.24
530.43	54115.53
530.60	53834.66
530.77	53787.85
530.94	54117.87
531.11	54234.89
531.28	54237.23
531.46	54419.80
531.63	54356.60
531.80	54064.03
531.97	54473.63
532.14	54541.50
532.31	54384.69
532.48	54698.32
532.65	54747.47
532.82	54602.36
532.99	54887.90
533.16	54822.37
533.33	54836.41
533.50	55086.85
533.67	54855.14
533.84	54719.38
534.01	54873.86
534.18	55201.53
534.35	55227.28
534.52	54958.12
534.69	55344.31
534.86	55571.34
535.03	55030.68
535.20	55147.70
535.37	55253.03
535.54	55283.45
535.71	55585.38
535.88	55496.44
536.05	55449.63
536.22	55739.86
536.38	55627.51
536.55	55620.49
536.72	55910.72
536.89	55671.98
537.06	55466.02
537.23	55789.01
537.40	55714.11
537.57	55756.24
537.74	55962.21
537.91	55971.57
538.08	55929.44
538.25	55667.30
538.42	56011.36
538.59	56369.46
538.75	55847.52
538.92	56158.81
539.09	55999.66
539.26	55915.40
539.43	56353.08
539.60	56430.32
539.77	56341.38
539.94	56484.15
540.11	56563.73
540.28	56460.74
540.44	56636.28
540.61	56736.93
540.78	56540.32
540.95	56577.77
541.12	56376.48
541.29	56568.41
541.46	56425.64
541.62	56779.06
541.79	56692.46
541.96	56507.55
542.13	56783.74
542.30	56788.42
542.47	56889.06
542.63	56978.00
542.80	56973.32
542.97	57172.27
543.14	57471.85
543.31	57420.36
543.48	57364.19
543.64	57567.82
543.81	57347.81
543.98	57317.38
544.15	57371.21
544.32	57570.16
544.48	57499.94
544.65	57364.19
544.82	57483.56
544.99	57511.64
545.16	57675.48
545.32	57574.84
545.49	57691.86
545.66	57886.13
545.83	57532.71
546.00	57841.66
546.16	57694.21
546.33	57631.01
546.50	57563.14
546.67	57762.08
546.83	57563.14
547.00	57881.45
547.17	57869.75
547.34	57827.62
547.50	58059.33
547.67	58145.93
547.84	58237.21
548.00	58412.75
548.17	58281.68
548.34	58092.10
548.51	58309.77
548.67	58223.17
548.84	58150.61
549.01	57958.69
549.18	58356.58
549.34	58408.07
549.51	58347.21
549.68	58340.19
549.84	58555.52
550.01	58440.84
550.18	58265.30
550.34	58213.80
550.51	58658.51
550.68	58536.80
550.84	58220.83
551.01	58599.99
551.18	58546.16
551.34	58731.06
551.51	58515.73
551.68	58660.85
551.84	58623.40
552.01	58410.41
552.18	58674.89
552.34	58557.86
552.51	58873.84
552.68	58644.46
552.84	58672.55
553.01	58941.71
553.18	58831.71
553.34	59119.59
553.51	58754.47
553.67	59042.35
553.84	58808.30
554.01	59018.95
554.17	58965.12
554.34	59135.98
554.51	59220.23
554.67	59114.91
554.84	59028.31
555.00	58981.50
555.17	59032.99
555.33	59131.29
555.50	58927.67
555.67	58869.15
555.83	59047.04
556.00	59128.95
556.16	59402.80
556.33	59484.72
556.50	59196.83
556.66	59271.73
556.83	59248.32
556.99	59444.93
557.16	59423.86
557.32	59604.08
557.49	59707.07
557.65	59316.20
557.82	59412.16
557.98	59695.36
558.15	59676.64
558.32	59454.29
558.48	59414.50
558.65	59573.66
558.81	59667.28
558.98	59447.27
559.14	59442.59
559.31	59615.79
559.47	59543.23
559.64	59648.55
559.80	59737.49
559.97	59877.93
560.13	59714.09
560.30	59629.83
560.46	59821.75
560.63	59791.33
560.79	59674.30
560.96	59845.16
561.12	59784.30
561.29	59983.25
561.45	59831.11
561.61	59845.16
561.78	59842.82
561.94	60013.68
562.11	59920.05
562.27	59994.95
562.44	59887.29
562.60	60158.79
562.77	60023.04
562.93	59861.54
563.10	60177.51
563.26	59943.46
563.42	60289.86
563.59	60182.19
563.75	60097.94
563.92	60097.94
564.08	59990.27
564.24	60289.86
564.41	60273.48
564.57	60196.24
564.74	60193.90
564.90	60205.60
565.07	60226.66
565.23	60191.56
565.39	60196.24
565.56	60163.47
565.72	60229.01
565.88	60301.56
566.05	60107.30
566.21	60275.82
566.38	60158.79
566.54	60514.55
566.70	60364.76
566.87	60292.20
567.03	60399.86
567.19	60692.43
567.36	60341.35
567.52	60172.83
567.68	60647.96
567.85	60329.65
568.01	60530.93
568.17	60306.24
568.34	60355.39
568.50	60458.38
568.66	60395.18
568.83	60392.84
568.99	60203.26
569.15	60582.43
569.32	60523.91
569.48	60580.09
569.64	60666.69
569.81	60470.08
569.97	60392.84
570.13	60364.76
570.30	60252.41
570.46	60568.38
570.62	60451.36
570.78	60605.83
570.95	60306.24
571.11	60692.43
571.27	60530.93
571.43	60528.59
571.60	60601.15
571.76	60556.68
571.92	60645.62
572.09	60701.79
572.25	60561.36
572.41	60456.04
572.57	60835.20
572.74	60807.12
572.90	60537.96
573.06	60772.01
573.22	60743.92
573.38	60582.43
573.55	60676.05
573.71	60860.95
573.87	61038.83
574.03	60544.98
574.20	60729.88
574.36	60853.93
574.52	60818.82
574.68	60870.31
574.84	60708.82
575.01	60879.67
575.17	60512.21
575.33	60779.03
575.49	60640.94
575.65	60807.12
575.82	60835.20
575.98	60659.66
576.14	61024.79
576.30	60732.22
576.46	60830.52
576.62	60729.88
576.79	60514.55
576.95	60612.85
577.11	60947.55
577.27	60825.84
577.43	60865.63
577.59	60884.36
577.75	60928.83
577.92	60835.20
578.08	60750.94
578.24	60905.42
578.40	60893.72
578.56	60942.87
578.72	60823.50
578.88	60992.02
579.04	61155.86
579.21	60938.19
579.37	61134.79
579.53	61064.58
579.69	60807.12
579.85	60790.73
580.01	60692.43
580.17	60612.85
580.33	60961.59
580.49	60947.55
580.65	60919.46
580.82	60917.12
580.98	60657.32
581.14	60919.46
581.30	61020.11
581.46	60863.29
581.62	60935.85
581.78	60891.38
581.94	60914.78
582.10	60917.12
582.26	60963.93
582.42	60832.86
582.58	60961.59
582.74	60811.80
582.90	60928.83
583.06	60905.42
583.22	60940.53
583.38	60846.91
583.54	60973.30
583.70	61076.28
583.86	61195.65
584.02	60940.53
584.18	61137.13
584.34	61024.79
584.50	61106.71
584.66	60963.93
584.82	60956.91
584.98	61146.50
585.14	61059.90
585.30	61041.17
585.46	61111.39
585.62	61139.47
585.78	61165.22
585.94	60631.58
586.10	61123.09
586.26	61155.86
586.42	61165.22
586.58	61174.58
586.74	61197.99
586.90	61099.68
587.06	60985.00
587.22	61277.57
587.38	61017.77
587.54	61195.65
587.70	61291.61
587.86	61176.92
588.02	61027.13
588.18	61291.61
588.34	60994.36
588.49	61165.22
