SpectraSuite Data File
++++++++++++++++++++++++++++++++++++
Date: Fri Oct 25 10:44:17 EDT 2013
User: price-jones
Dark Spectrum Present: No
Reference Spectrum Present: No
Number of Sampled Component Spectra: 1
Spectrometers: USB2+H05261
Integration Time (usec): 100000 (USB2+H05261)
Spectra Averaged: 1 (USB2+H05261)
Boxcar Smoothing: 0 (USB2+H05261)
Correct for Electrical Dark: No (USB2+H05261)
Strobe/Lamp Enabled: No (USB2+H05261)
Correct for Detector Non-linearity: No (USB2+H05261)
Correct for Stray Light: No (USB2+H05261)
Number of Pixels in Processed Spectrum: 2048
>>>>>Begin Processed Spectral Data<<<<<
365.73	121.71
365.92	121.71
366.12	121.71
366.32	126.39
366.52	32.77
366.72	37.45
366.91	18.72
367.11	0.00
367.31	46.81
367.51	53.83
367.70	58.51
367.90	9.36
368.10	67.88
368.30	0.00
368.49	0.00
368.69	65.54
368.89	23.41
369.09	56.17
369.28	112.35
369.48	44.47
369.68	49.15
369.87	25.75
370.07	14.04
370.27	145.11
370.47	205.97
370.66	404.91
370.86	437.68
371.06	444.70
371.25	458.74
371.45	475.13
371.65	472.79
371.84	407.25
372.04	388.53
372.24	512.58
372.44	554.71
372.63	470.45
372.83	491.51
373.03	557.05
373.22	543.00
373.42	493.85
373.62	615.56
373.81	545.34
374.01	535.98
374.21	582.79
374.40	531.30
374.60	636.63
374.79	535.98
374.99	613.22
375.19	505.56
375.38	594.50
375.58	533.64
375.78	585.13
375.97	592.16
376.17	634.29
376.37	599.18
376.56	566.41
376.76	587.47
376.95	613.22
377.15	592.16
377.35	608.54
377.54	664.71
377.74	676.41
377.93	615.56
378.13	620.24
378.33	763.01
378.52	592.16
378.72	674.07
378.91	627.26
379.11	636.63
379.31	706.84
379.50	613.22
379.70	678.76
379.89	688.12
380.09	648.33
380.28	662.37
380.48	730.25
380.68	718.54
380.87	720.88
381.07	746.63
381.26	744.29
381.46	725.57
381.65	786.42
381.85	777.06
382.04	685.78
382.24	678.76
382.43	667.05
382.63	746.63
382.83	725.57
383.02	751.31
383.22	739.61
383.41	641.31
383.61	697.48
383.80	830.89
384.00	772.38
384.19	828.55
384.39	805.14
384.58	795.78
384.78	744.29
384.97	697.48
385.17	788.76
385.36	744.29
385.56	812.17
385.75	854.30
385.95	809.83
386.14	826.21
386.34	861.32
386.53	833.23
386.72	863.66
386.92	823.87
387.11	903.45
387.31	931.53
387.50	777.06
387.70	940.90
387.89	922.17
388.09	828.55
388.28	861.32
388.48	943.24
388.67	987.71
388.86	966.64
389.06	926.85
389.25	983.02
389.45	994.73
389.64	997.07
389.84	997.07
390.03	1046.22
390.22	971.32
390.42	957.28
390.61	980.68
390.81	1018.13
391.00	1078.99
391.19	1081.33
391.39	1013.45
391.58	985.37
391.78	1039.20
391.97	1043.88
392.16	1067.28
392.36	1078.99
392.55	1050.90
392.75	1036.86
392.94	959.62
393.13	1074.31
393.33	938.55
393.52	1076.65
393.71	1118.78
393.91	1198.35
394.10	1041.54
394.29	1163.25
394.49	1149.20
394.68	1132.82
394.88	1177.29
395.07	1252.19
395.26	1228.78
395.46	1217.08
395.65	1320.06
395.84	1188.99
396.04	1217.08
396.23	1240.48
396.42	1095.37
396.62	1179.63
396.81	1226.44
397.00	1179.63
397.19	1315.38
397.39	1219.42
397.58	1369.21
397.77	1413.68
397.97	1493.26
398.16	1479.22
398.35	1446.45
398.55	1376.24
398.74	1462.83
398.93	1528.37
399.12	1619.65
399.32	1519.01
399.51	1549.43
399.70	1493.26
399.90	1420.71
400.09	1666.46
400.28	1636.03
400.47	1668.80
400.67	1633.69
400.86	1629.01
401.05	1762.42
401.24	1577.52
401.44	1687.53
401.63	1612.63
401.82	1741.36
402.01	1741.36
402.21	1680.50
402.40	1640.72
402.59	1774.13
402.78	1795.19
402.97	1813.92
403.17	1717.95
403.36	1767.10
403.55	1764.76
403.74	1926.26
403.93	1933.28
404.13	1811.57
404.32	1837.32
404.51	2005.84
404.70	1942.64
404.89	1842.00
405.09	1989.46
405.28	1919.24
405.47	2115.84
405.66	1982.43
405.85	2001.16
406.05	1863.07
406.24	2064.35
406.43	2080.74
406.62	2062.01
406.81	2129.89
407.00	2146.27
407.20	2008.18
407.39	2127.55
407.58	2087.76
407.77	2167.34
407.96	2275.00
408.15	2303.09
408.34	2155.63
408.54	2216.49
408.73	2286.70
408.92	2317.13
409.11	2298.41
409.30	2256.28
409.49	2211.81
409.68	2263.30
409.87	2214.15
410.07	2277.34
410.26	2328.83
410.45	2480.97
410.64	2464.58
410.83	2427.14
411.02	2565.23
411.21	2597.99
411.40	2504.37
411.59	2640.12
411.78	2583.95
411.98	2637.78
412.17	2616.72
412.36	2679.91
412.55	2703.32
412.74	2686.94
412.93	2768.85
413.12	2703.32
413.31	2850.77
413.50	2818.00
413.69	2813.32
413.88	2949.08
414.07	2935.03
414.26	2970.14
414.45	2963.12
414.64	2876.52
414.83	2972.48
415.02	3047.38
415.22	3061.42
415.41	3101.21
415.60	3169.09
415.79	3007.59
415.98	3251.00
416.17	3314.20
416.36	3155.04
416.55	3260.37
416.74	3272.07
416.93	3253.34
417.12	3166.74
417.31	3281.43
417.50	3295.47
417.69	3396.12
417.88	3417.18
418.07	3440.59
418.26	3492.08
418.45	3389.10
418.64	3616.13
418.83	3555.27
419.02	3520.17
419.21	3536.55
419.39	3461.65
419.58	3545.91
419.77	3492.08
419.96	3583.36
420.15	3691.02
420.34	3611.45
420.53	3791.67
420.72	3749.54
420.91	3770.60
421.10	3695.71
421.29	3911.04
421.48	3770.60
421.67	3932.10
421.86	3892.31
422.05	3805.71
422.24	3810.39
422.43	3765.92
422.61	3812.73
422.80	3911.04
422.99	3918.06
423.18	3990.61
423.37	4053.81
423.56	4093.60
423.75	3969.55
423.94	3932.10
424.13	3740.18
424.32	3749.54
424.50	4138.07
424.69	3955.51
424.88	3988.27
425.07	3950.82
425.26	3892.31
425.45	4065.51
425.64	3899.33
425.83	3990.61
426.01	4098.28
426.20	4063.17
426.39	3805.71
426.58	3936.78
426.77	3899.33
426.96	3927.42
427.15	3864.22
427.33	3962.53
427.52	4173.18
427.71	4156.79
427.90	4252.75
428.09	4126.36
428.28	4198.92
428.46	4147.43
428.65	4084.23
428.84	4365.10
429.03	4379.14
429.22	4234.03
429.40	4051.47
429.59	4257.43
429.78	3978.91
429.97	3803.37
430.16	4030.40
430.34	4177.86
430.53	4196.58
430.72	4205.94
430.91	4245.73
431.10	4147.43
431.28	4425.95
431.47	4674.05
431.66	4610.86
431.85	4629.58
432.03	4540.64
432.22	4624.90
432.41	4615.54
432.60	4685.75
432.79	4685.75
432.97	4725.54
433.16	4753.63
433.35	4690.43
433.54	4770.01
433.72	4627.24
433.91	4657.67
434.10	4802.78
434.28	4723.20
434.47	4746.61
434.66	4992.36
434.85	4929.17
435.03	4868.31
435.22	4950.23
435.41	5219.39
435.59	5132.79
435.78	5062.58
435.97	5069.60
436.16	5011.09
436.34	5205.35
436.53	5200.67
436.72	5210.03
436.90	5088.32
437.09	5261.52
437.28	5153.86
437.46	5163.22
437.65	5186.63
437.84	5226.42
438.02	5018.11
438.21	5139.82
438.40	5107.05
438.58	5371.53
438.77	5359.83
438.96	5432.38
439.14	5568.13
439.33	5664.10
439.52	5610.26
439.70	5731.97
439.89	5626.65
440.08	5621.97
440.26	5703.89
440.45	5638.35
440.63	5949.64
440.82	5907.51
441.01	5923.90
441.19	6108.80
441.38	6054.97
441.57	6141.57
441.75	6050.28
441.94	6188.38
442.12	6289.02
442.31	6401.37
442.50	6375.62
442.68	6277.32
442.87	6410.73
443.05	6279.66
443.24	6443.49
443.43	6387.32
443.61	6560.52
443.80	6675.21
443.98	6263.27
444.17	6429.45
444.35	6312.42
444.54	6567.54
444.73	6511.37
444.91	6504.35
445.10	6541.80
445.28	6328.81
445.47	6387.32
445.65	6523.07
445.84	6588.61
446.02	6534.78
446.21	6633.08
446.39	6469.24
446.58	6658.82
446.77	6792.23
446.95	6534.78
447.14	6684.57
447.32	6717.34
447.51	6670.53
447.69	6586.27
447.88	6817.98
448.06	6834.36
448.25	6813.30
448.43	6843.73
448.62	6719.68
448.80	6703.29
448.99	6717.34
449.17	6930.33
449.36	6944.37
449.54	7157.36
449.73	7148.00
449.91	7066.08
450.10	7138.63
450.28	7094.16
450.46	7300.13
450.65	7213.53
450.83	7265.02
451.02	7267.36
451.20	7304.81
451.39	7370.35
451.57	7297.79
451.76	7087.14
451.94	7126.93
452.13	7164.38
452.31	7258.00
452.49	7138.63
452.68	7164.38
452.86	7194.81
453.05	7346.94
453.23	7243.96
453.42	7227.57
453.60	7344.60
453.78	7648.87
453.97	7253.32
454.15	7358.64
454.34	7325.88
454.52	7536.52
454.70	7644.19
454.89	7604.40
455.07	7719.09
455.26	7478.01
455.44	7925.05
455.62	7754.19
455.81	7824.41
455.99	7889.95
456.17	7728.45
456.36	7723.77
456.54	8058.46
456.73	8018.68
456.91	8243.37
457.09	8252.73
457.28	8210.60
457.46	8159.11
457.64	8285.50
457.83	8016.33
458.01	7971.86
458.19	8271.45
458.38	8079.53
458.56	8320.60
458.74	8355.71
458.93	7969.52
459.11	8248.05
459.29	8322.94
459.48	8283.16
459.66	8063.15
459.84	8484.44
460.03	8386.14
460.21	8505.51
460.39	8505.51
460.57	8468.06
460.76	8575.72
460.94	8671.68
461.12	8861.27
461.31	8620.19
461.49	8711.47
461.67	8643.60
461.85	8879.99
462.04	8807.44
462.22	8781.69
462.40	8823.82
462.59	8847.22
462.77	8847.22
462.95	8791.05
463.13	8877.65
463.32	9092.98
463.50	9146.81
463.68	9081.28
463.86	9043.83
464.05	8933.82
464.23	8964.25
464.41	8908.08
464.59	8884.67
464.78	9214.69
464.96	9359.80
465.14	9053.19
465.32	9289.59
465.50	9233.41
465.69	9247.46
465.87	9338.74
466.05	9268.52
466.23	9268.52
466.41	9233.41
466.60	9430.02
466.78	9172.56
466.96	9195.96
467.14	9338.74
467.32	9575.13
467.51	9373.85
467.69	9064.89
467.87	9462.79
468.05	9481.51
468.23	9523.64
468.41	9694.50
468.60	9724.93
468.78	9490.87
468.96	9610.24
469.14	9657.05
469.32	9736.63
469.50	9551.73
469.69	9589.17
469.87	9673.43
470.05	9643.01
470.23	9790.46
470.41	9926.21
470.59	9865.36
470.77	9909.83
470.95	10136.86
471.14	10200.05
471.32	9837.27
471.50	10359.21
471.68	10258.57
471.86	10424.75
472.04	10389.64
472.22	10380.28
472.40	10092.39
472.58	10562.84
472.77	10396.66
472.95	10497.30
473.13	10789.87
473.31	10560.50
473.49	10651.78
473.67	10693.91
473.85	10611.99
474.03	11000.52
474.21	11084.78
474.39	11091.80
474.57	11026.26
474.75	11335.21
474.93	11154.99
475.12	11159.67
475.30	11241.59
475.48	11321.17
475.66	11487.35
475.84	11239.25
476.02	11337.56
476.20	11349.26
476.38	11641.82
476.56	12006.95
476.74	11768.21
476.92	11529.48
477.10	12093.55
477.28	12042.06
477.46	12173.13
477.64	12189.51
477.82	12336.96
478.00	12624.85
478.18	12737.20
478.36	12636.55
478.54	12671.66
478.72	12823.80
478.90	12915.08
479.08	13214.66
479.26	13008.70
479.44	13284.88
479.62	13158.49
479.80	13205.30
479.98	13467.44
480.16	13549.36
480.34	13603.19
480.52	13792.78
480.70	13975.34
480.88	13401.91
481.06	14043.21
481.24	14087.68
481.41	14061.94
481.59	14347.48
481.77	14485.58
481.95	14441.11
482.13	14630.69
482.31	14738.35
482.49	15049.64
482.67	14963.04
482.85	15108.16
483.03	15351.57
483.21	15269.66
483.39	15379.66
483.57	15250.93
483.74	15609.03
483.92	15885.22
484.10	15756.49
484.28	15969.48
484.46	16283.11
484.64	16453.97
484.82	16063.10
485.00	16240.98
485.18	16365.03
485.35	16542.91
485.53	16367.37
485.71	16074.80
485.89	16308.85
486.07	16554.61
486.25	16732.49
486.43	16542.91
486.61	16957.18
486.78	17315.28
486.96	17399.54
487.14	17605.51
487.32	17689.77
487.50	18331.08
487.68	17972.97
487.85	18473.85
488.03	18476.19
488.21	18473.85
488.39	18633.00
488.57	18745.35
488.75	18867.06
488.92	18937.27
489.10	19545.81
489.28	19728.38
489.46	19555.18
489.64	19686.25
489.81	20285.42
489.99	20470.33
490.17	20112.22
490.35	20388.41
490.53	20189.46
490.70	20563.95
490.88	20718.42
491.06	20814.38
491.24	21043.76
491.41	21088.23
491.59	20863.54
491.77	20931.41
491.95	21219.30
492.13	21399.52
492.30	21771.66
492.48	21364.41
492.66	21579.74
492.84	21619.53
493.01	22368.50
493.19	22036.14
493.37	22061.89
493.54	22597.87
493.72	22644.68
493.90	22623.62
494.08	23154.92
494.25	23152.58
494.43	23234.50
494.61	23449.83
494.79	23882.83
494.96	23187.69
495.14	23140.88
495.32	23777.50
495.49	23765.80
495.67	24088.79
495.85	24390.72
496.02	24201.14
496.20	24315.83
496.38	24304.12
496.55	24847.13
496.73	25083.52
496.91	24697.33
497.09	24877.55
497.26	25216.93
497.44	25116.29
497.62	25092.88
497.79	25270.76
497.97	25284.81
498.14	25546.95
498.32	25762.28
498.50	25570.35
498.67	26181.23
498.85	25972.92
499.03	26181.23
499.20	26221.02
499.38	26340.39
499.56	26340.39
499.73	26366.13
499.91	26368.48
500.08	26485.50
500.26	26316.98
500.44	26747.64
500.61	26497.20
500.79	26995.74
500.97	27288.31
501.14	27019.14
501.32	27140.85
501.49	27220.43
501.67	27072.98
501.84	27386.61
502.02	27431.08
502.20	27992.81
502.37	27910.89
502.55	27707.26
502.72	27749.39
502.90	28023.23
503.07	28063.02
503.25	28250.27
503.43	27988.13
503.60	28170.69
503.78	28313.46
503.95	28325.16
504.13	28514.75
504.30	28800.29
504.48	28437.51
504.65	29132.65
504.83	28936.04
505.01	29130.31
505.18	29453.30
505.36	29390.11
505.53	29502.45
505.71	29685.01
505.88	29900.34
506.06	29064.77
506.23	29350.32
506.41	29666.29
506.58	30054.82
506.76	29883.96
506.93	29727.14
507.11	30167.16
507.28	30029.07
507.46	30146.10
507.63	30452.71
507.81	30050.14
507.98	30356.75
508.16	30476.12
508.33	30934.86
508.50	30876.35
508.68	31030.82
508.85	30733.57
509.03	30916.14
509.20	30766.34
509.38	31131.47
509.55	31384.24
509.73	31239.13
509.90	31812.56
510.08	31299.98
510.25	31552.76
510.42	31592.55
510.60	31882.78
510.77	31941.29
510.95	32294.71
511.12	31864.05
511.30	32439.82
511.47	32472.59
511.64	32360.25
511.82	32893.89
511.99	32215.13
512.17	32161.30
512.34	32383.65
512.51	32701.96
512.69	32706.65
512.86	32971.13
513.04	32786.22
513.21	33158.37
513.38	33195.82
513.56	32907.93
513.73	32858.78
513.90	33092.83
514.08	33172.41
514.25	33422.85
514.43	33411.15
514.60	33448.60
514.77	33715.42
514.95	33846.49
515.12	33661.58
515.29	33926.07
515.47	34026.71
515.64	34251.40
515.81	33823.08
515.99	33956.49
516.16	33645.20
516.33	33787.97
516.51	33881.60
516.68	33542.22
516.85	34043.09
517.03	33593.71
517.20	34223.31
517.37	34204.59
517.54	34426.94
517.72	34532.26
517.89	34066.50
518.06	34398.85
518.24	34588.44
518.41	34218.63
518.58	34452.69
518.75	34672.70
518.93	35021.44
519.10	34916.11
519.27	35117.40
519.45	35409.96
519.62	35283.58
519.79	35524.65
519.96	35475.50
520.14	35428.69
520.31	35299.96
520.48	35360.81
520.65	35779.77
520.83	36149.57
521.00	35800.83
521.17	35688.49
521.34	36219.79
521.52	35995.10
521.69	36259.58
521.86	36378.95
522.03	36395.33
522.20	36229.15
522.38	36776.84
522.55	36676.19
522.72	36500.65
522.89	36517.04
523.07	36715.98
523.24	36624.70
523.41	36856.42
523.58	36879.82
523.75	37383.04
523.92	37544.53
524.10	36947.70
524.27	37537.51
524.44	37659.22
524.61	37373.67
524.78	37799.65
524.96	37654.54
525.13	37617.09
525.30	38087.54
525.47	37691.99
525.64	37668.58
525.81	37645.18
525.98	37563.26
526.16	37221.54
526.33	37528.15
526.50	37413.46
526.67	37380.70
526.84	37832.42
527.01	37399.42
527.18	37663.90
527.36	38543.94
527.53	38462.02
527.70	39131.42
527.87	38576.71
528.04	38462.02
528.21	38567.35
528.38	38616.50
528.55	38902.04
528.72	38763.95
528.89	39384.19
529.07	38213.93
529.24	38501.81
529.41	39213.34
529.58	38658.63
529.75	38848.21
529.92	39021.41
530.09	39117.37
530.26	38965.24
530.43	39707.19
530.60	39538.67
530.77	39255.46
530.94	39548.03
531.11	39035.45
531.28	39367.81
531.46	39711.87
531.63	39847.62
531.80	39908.47
531.97	39639.31
532.14	39655.70
532.31	39325.68
532.48	39239.08
532.65	39711.87
532.82	39793.79
532.99	40224.45
533.16	39557.39
533.33	40645.74
533.50	40605.95
533.67	40313.39
533.84	39922.52
534.01	40304.02
534.18	40182.32
534.35	40708.94
534.52	40182.32
534.69	40278.28
534.86	40687.87
535.03	40444.46
535.20	41359.61
535.37	40938.31
535.54	41102.15
535.71	40648.08
535.88	41097.47
536.05	40676.17
536.22	40872.78
536.38	41064.70
536.55	41226.20
536.72	40968.74
536.89	40481.91
537.06	41060.02
537.23	41322.16
537.40	41212.15
537.57	41069.38
537.74	41081.08
537.91	41432.16
538.08	41244.92
538.25	41249.60
538.42	41216.83
538.59	41504.72
538.75	41165.34
538.92	41273.01
539.09	41366.63
539.26	41645.15
539.43	41242.58
539.60	41904.95
539.77	41736.43
539.94	41338.54
540.11	41757.50
540.28	41588.98
540.44	41556.21
540.61	41198.11
540.78	42017.30
540.95	41614.72
541.12	41759.84
541.29	41855.80
541.46	41893.25
541.62	42047.72
541.79	42075.81
541.96	41567.91
542.13	42148.37
542.30	41879.21
542.47	42120.28
542.63	42639.88
542.80	42417.53
542.97	43098.62
543.14	43227.35
543.31	43217.99
543.48	42855.21
543.64	43234.38
543.81	43171.18
543.98	42808.40
544.15	43173.52
544.32	43138.41
544.48	43648.65
544.65	43374.81
544.82	43007.34
544.99	42885.64
545.16	42965.21
545.32	43129.05
545.49	43267.14
545.66	43887.39
545.83	43416.94
546.00	43299.91
546.16	43683.76
546.33	43271.82
546.50	43047.13
546.67	43428.64
546.83	43332.68
547.00	43068.20
547.17	43302.25
547.34	43803.13
547.50	43391.19
547.67	43491.83
547.84	43491.83
548.00	43423.96
548.17	43950.58
548.34	43976.33
548.51	44191.65
548.67	44107.40
548.84	43723.55
549.01	43915.47
549.18	43768.02
549.34	44105.06
549.51	43924.83
549.68	44428.05
549.84	43793.76
550.01	44641.04
550.18	44233.78
550.34	44509.97
550.51	44236.12
550.68	43976.33
550.84	43871.00
551.01	44210.38
551.18	44109.74
551.34	44252.51
551.51	44320.38
551.68	44399.96
551.84	44081.65
552.01	44369.54
552.18	44481.88
552.34	44023.14
552.51	44573.16
552.68	44598.91
552.84	44521.67
553.01	44582.52
553.18	44987.44
553.34	44367.20
553.51	44580.18
553.67	44786.15
553.84	44839.98
554.01	44849.35
554.17	45099.78
554.34	45226.17
554.51	44919.56
554.67	44952.33
554.84	44652.74
555.00	45067.02
555.17	44872.75
555.33	45373.63
555.50	44612.95
555.67	44839.98
555.83	44973.39
556.00	45064.67
556.16	45441.50
556.33	44678.49
556.50	45202.77
556.66	45067.02
556.83	44781.47
556.99	45291.71
557.16	45310.43
557.32	45390.01
557.49	45467.25
557.65	45027.23
557.82	45305.75
557.98	45275.32
558.15	45415.76
558.32	45371.28
558.48	45223.83
558.65	45240.21
558.81	45102.12
558.98	45132.55
559.14	45067.02
559.31	45432.14
559.47	45694.28
559.64	45715.34
559.80	45720.02
559.97	45497.67
560.13	45382.99
560.30	45710.66
560.46	45359.58
560.63	45595.98
560.79	45581.93
560.96	45776.20
561.12	45673.21
561.29	45521.08
561.45	45610.02
561.61	45535.12
561.78	45642.79
561.94	45326.81
562.11	45869.82
562.27	45703.64
562.44	45584.27
562.60	45785.56
562.77	45839.39
562.93	45495.33
563.10	45918.97
563.26	45132.55
563.42	45858.12
563.59	45390.01
563.75	45687.26
563.92	45748.11
564.08	45666.19
564.24	45937.69
564.41	45846.41
564.57	45991.53
564.74	45701.30
564.90	45909.61
565.07	45928.33
565.23	45965.78
565.39	45294.05
565.56	45970.46
565.72	45820.67
565.88	45904.93
566.05	45961.10
566.21	45832.37
566.38	45525.76
566.54	45792.58
566.70	46351.97
566.87	46417.50
567.03	46138.98
567.19	46794.33
567.36	46335.59
567.52	45724.71
567.68	46403.46
567.85	46141.32
568.01	46447.93
568.17	45855.78
568.34	46258.35
568.50	45865.14
568.66	46019.61
568.83	45968.12
568.99	45766.84
569.15	45977.48
569.32	46176.43
569.48	45610.02
569.64	46211.54
569.81	46415.16
569.97	45961.10
570.13	46220.90
570.30	45769.18
570.46	45965.78
570.62	45811.31
570.78	45904.93
570.95	45755.13
571.11	46408.14
571.27	45722.37
571.43	45940.04
571.60	46401.12
571.76	45914.29
571.92	46272.39
572.09	45792.58
572.25	46136.64
572.41	46457.29
572.57	46354.31
572.74	46532.19
572.90	46157.70
573.06	46265.37
573.22	45956.42
573.38	46017.27
573.55	46293.46
573.71	46108.55
573.87	46138.98
574.03	46099.19
574.20	46368.35
574.36	46454.95
574.52	46370.69
574.68	46000.89
574.84	46171.75
575.01	45982.16
575.17	46232.60
575.33	46270.05
575.49	46043.02
575.65	46068.76
575.82	46494.74
575.98	46127.28
576.14	45961.10
576.30	46487.72
576.46	46124.94
576.62	46122.60
576.79	46190.47
576.95	45900.25
577.11	46183.45
577.27	46616.45
577.43	46270.05
577.59	46122.60
577.75	46492.40
577.92	45937.69
578.08	45879.18
578.24	45947.06
578.40	45965.78
578.56	46223.24
578.72	46391.76
578.88	46195.15
579.04	46639.86
579.21	46206.86
579.37	46061.74
579.53	46316.86
579.69	45705.98
579.85	45991.53
580.01	46141.32
580.17	46426.87
580.33	46405.80
580.49	46562.62
580.65	46564.96
580.82	46607.09
580.98	46454.95
581.14	46248.99
581.30	46555.60
581.46	46504.10
581.62	46234.94
581.78	46066.42
581.94	46347.29
582.10	46342.61
582.26	46424.53
582.42	46188.13
582.58	46450.27
582.74	46190.47
582.90	46349.63
583.06	46667.94
583.22	46777.95
583.38	46602.41
583.54	46501.76
583.70	46981.57
583.86	46490.06
584.02	46380.06
584.18	46398.78
584.34	46389.42
584.50	46391.76
584.66	46330.90
584.82	46246.65
584.98	46726.46
585.14	46536.87
585.30	46279.41
585.46	46857.52
585.62	46040.68
585.78	46471.34
585.94	45942.38
586.10	45834.71
586.26	46241.96
586.42	46539.21
586.58	46550.91
586.74	46515.81
586.90	46082.81
587.06	46246.65
587.22	46190.47
587.38	46014.93
587.54	46630.49
587.70	46621.13
587.86	46583.68
588.02	46759.22
588.18	46602.41
588.34	46457.29
588.49	45949.40
588.65	46176.43
588.81	45872.16
588.97	45956.42
589.13	45839.39
589.29	46307.50
589.45	46555.60
589.61	46160.05
589.77	46284.09
589.93	46520.49
