SpectraSuite Data File
++++++++++++++++++++++++++++++++++++
Date: Fri Oct 25 11:34:29 EDT 2013
User: price-jones
Dark Spectrum Present: No
Reference Spectrum Present: No
Number of Sampled Component Spectra: 1
Spectrometers: USB2+H05261
Integration Time (usec): 100000 (USB2+H05261)
Spectra Averaged: 1 (USB2+H05261)
Boxcar Smoothing: 0 (USB2+H05261)
Correct for Electrical Dark: No (USB2+H05261)
Strobe/Lamp Enabled: No (USB2+H05261)
Correct for Detector Non-linearity: No (USB2+H05261)
Correct for Stray Light: No (USB2+H05261)
Number of Pixels in Processed Spectrum: 2048
>>>>>Begin Processed Spectral Data<<<<<
365.73	257.46
365.92	257.46
366.12	257.46
366.32	262.14
366.52	189.58
366.72	205.97
366.91	180.22
367.11	227.03
367.31	149.79
367.51	187.24
367.70	126.39
367.90	224.69
368.10	203.63
368.30	177.88
368.49	203.63
368.69	175.54
368.89	196.60
369.09	231.71
369.28	196.60
369.48	257.46
369.68	280.86
369.87	231.71
370.07	278.52
370.27	304.27
370.47	348.74
370.66	503.22
370.86	444.70
371.06	545.34
371.25	543.00
371.45	557.05
371.65	575.77
371.84	552.37
372.04	543.00
372.24	557.05
372.44	582.79
372.63	596.84
372.83	564.07
373.03	582.79
373.22	566.41
373.42	622.58
373.62	660.03
373.81	638.97
374.01	648.33
374.21	585.13
374.40	657.69
374.60	603.86
374.79	531.30
374.99	660.03
375.19	662.37
375.38	718.54
375.58	617.90
375.78	678.76
375.97	706.84
376.17	690.46
376.37	634.29
376.56	725.57
376.76	636.63
376.95	678.76
377.15	692.80
377.35	732.59
377.54	704.50
377.74	650.67
377.93	594.50
378.13	631.94
378.33	699.82
378.52	688.12
378.72	702.16
378.91	739.61
379.11	753.65
379.31	725.57
379.50	662.37
379.70	676.41
379.89	704.50
380.09	643.65
380.28	704.50
380.48	723.23
380.68	685.78
380.87	725.57
381.07	734.93
381.26	704.50
381.46	791.10
381.65	816.85
381.85	760.67
382.04	695.14
382.24	784.08
382.43	812.17
382.63	823.87
382.83	723.23
383.02	725.57
383.22	748.97
383.41	835.57
383.61	786.42
383.80	800.46
384.00	791.10
384.19	866.00
384.39	777.06
384.58	760.67
384.78	851.96
384.97	842.59
385.17	795.78
385.36	798.12
385.56	844.93
385.75	816.85
385.95	873.02
386.14	861.32
386.34	807.48
386.53	814.51
386.72	870.68
386.92	903.45
387.11	844.93
387.31	858.98
387.50	828.55
387.70	863.66
387.89	873.02
388.09	915.15
388.28	873.02
388.48	873.02
388.67	945.58
388.86	952.60
389.06	919.83
389.25	891.74
389.45	854.30
389.64	896.43
389.84	957.28
390.03	976.00
390.22	912.81
390.42	959.62
390.61	931.53
390.81	922.17
391.00	1011.11
391.19	889.40
391.39	968.98
391.58	994.73
391.78	1020.47
391.97	994.73
392.16	997.07
392.36	1022.81
392.55	1095.37
392.75	1015.79
392.94	1006.43
393.13	1088.35
393.33	1022.81
393.52	1029.84
393.71	1018.13
393.91	1046.22
394.10	1121.12
394.29	1039.20
394.49	1132.82
394.68	1067.28
394.88	1095.37
395.07	1165.59
395.26	1104.73
395.46	1165.59
395.65	1144.52
395.84	1083.67
396.04	1174.95
396.23	1114.10
396.42	1188.99
396.62	1217.08
396.81	1177.29
397.00	1163.25
397.19	1163.25
397.39	1207.72
397.58	1210.06
397.77	1093.03
397.97	1254.53
398.16	1193.67
398.35	1247.51
398.55	1254.53
398.74	1226.44
398.93	1336.45
399.12	1322.40
399.32	1352.83
399.51	1277.93
399.70	1418.36
399.90	1252.19
400.09	1240.48
400.28	1397.30
400.47	1280.27
400.67	1362.19
400.86	1310.70
401.05	1390.28
401.24	1448.79
401.44	1495.60
401.63	1371.55
401.82	1413.68
402.01	1432.41
402.21	1540.07
402.40	1476.88
402.59	1465.18
402.78	1394.96
402.97	1519.01
403.17	1537.73
403.36	1418.36
403.55	1483.90
403.74	1507.30
403.93	1516.67
404.13	1502.62
404.32	1675.82
404.51	1427.73
404.70	1530.71
404.89	1586.88
405.09	1605.61
405.28	1629.01
405.47	1565.82
405.66	1605.61
405.85	1682.85
406.05	1610.29
406.24	1753.06
406.43	1631.35
406.62	1778.81
406.81	1631.35
407.00	1764.76
407.20	1666.46
407.39	1678.16
407.58	1713.27
407.77	1741.36
407.96	1888.81
408.15	1942.64
408.34	1734.34
408.54	1874.77
408.73	1783.49
408.92	1886.47
409.11	1881.79
409.30	1944.99
409.49	1884.13
409.68	1982.43
409.87	1914.56
410.07	1881.79
410.26	1973.07
410.45	1989.46
410.64	2026.90
410.83	2043.29
411.02	2101.80
411.21	2076.06
411.40	1975.41
411.59	2066.69
411.78	2071.37
411.98	2115.84
412.17	2160.31
412.36	2078.40
412.55	2242.23
412.74	2406.07
412.93	2258.62
413.12	2251.60
413.31	2251.60
413.50	2314.79
413.69	2200.10
413.88	2352.24
414.07	2361.60
414.26	2427.14
414.45	2443.52
414.64	2420.11
414.83	2534.80
415.02	2487.99
415.22	2476.29
415.41	2471.61
415.60	2525.44
415.79	2558.21
415.98	2738.43
416.17	2576.93
416.36	2724.38
416.55	2656.51
416.74	2700.98
416.93	2712.68
417.12	2757.15
417.31	2698.64
417.50	2740.77
417.69	2799.28
417.88	2836.73
418.07	2860.13
418.26	2857.79
418.45	2897.58
418.64	2860.13
418.83	3009.93
419.02	2899.92
419.21	3066.10
419.39	2956.10
419.58	2988.86
419.77	2902.26
419.96	3115.25
420.15	2979.50
420.34	3096.53
420.53	3110.57
420.72	3101.21
420.91	3066.10
421.10	3129.30
421.29	3206.53
421.48	3098.87
421.67	3075.46
421.86	3131.64
422.05	3187.81
422.24	3164.40
422.43	3339.94
422.61	3206.53
422.80	3393.78
422.99	3300.16
423.18	3248.66
423.37	3375.05
423.56	3157.38
423.75	3316.54
423.94	3260.37
424.13	3052.06
424.32	3176.11
424.50	3286.11
424.69	3433.57
424.88	3410.16
425.07	3243.98
425.26	3112.91
425.45	3529.53
425.64	3262.71
425.83	3279.09
426.01	3276.75
426.20	3384.41
426.39	3300.16
426.58	3379.73
426.77	3356.33
426.96	3342.28
427.15	3513.14
427.33	3421.86
427.52	3534.21
427.71	3609.11
427.90	3417.18
428.09	3534.21
428.28	3623.15
428.46	3545.91
428.65	3454.63
428.84	3585.70
429.03	3644.21
429.22	3545.91
429.40	3531.87
429.59	3634.85
429.78	3620.81
429.97	3403.14
430.16	3592.72
430.34	3662.94
430.53	3658.26
430.72	3665.28
430.91	3620.81
431.10	3662.94
431.28	3789.33
431.47	3861.88
431.66	3880.61
431.85	3768.26
432.03	4032.74
432.22	3981.25
432.41	3843.16
432.60	3932.10
432.79	3871.25
432.97	3772.94
433.16	3908.69
433.35	3941.46
433.54	4056.15
433.72	4126.36
433.91	4149.77
434.10	3985.93
434.28	4051.47
434.47	3955.51
434.66	4140.41
434.85	4128.70
435.03	4168.49
435.22	4053.81
435.41	4217.65
435.59	4259.78
435.78	4222.33
435.97	4414.25
436.16	4215.30
436.34	4159.13
436.53	4299.56
436.72	4339.35
436.90	4264.46
437.09	4236.37
437.28	4198.92
437.46	4358.08
437.65	4327.65
437.84	4503.19
438.02	4407.23
438.21	4533.62
438.40	4315.95
438.58	4545.32
438.77	4629.58
438.96	4603.83
439.14	4739.58
439.33	4681.07
439.52	4737.24
439.70	4660.01
439.89	4744.27
440.08	4873.00
440.26	4938.53
440.45	4734.90
440.63	4999.38
440.82	5064.92
441.01	4863.63
441.19	5118.75
441.38	5118.75
441.57	5088.32
441.75	5158.54
441.94	5184.29
442.12	5245.14
442.31	5221.74
442.50	5317.70
442.68	5242.80
442.87	5205.35
443.05	5294.29
443.24	5327.06
443.43	5287.27
443.61	5303.65
443.80	5565.79
443.98	5188.97
444.17	5081.30
444.35	5434.72
444.54	5404.30
444.73	5387.91
444.91	5472.17
445.10	5497.92
445.28	5380.89
445.47	5467.49
445.65	5404.30
445.84	5404.30
446.02	5610.26
446.21	5514.30
446.39	5486.22
446.58	5348.12
446.77	5542.39
446.95	5397.28
447.14	5432.38
447.32	5509.62
447.51	5666.44
447.69	5483.88
447.88	5547.07
448.06	5521.32
448.25	5495.58
448.43	5495.58
448.62	5551.75
448.80	5551.75
448.99	5600.90
449.17	5673.46
449.36	5638.35
449.54	5834.96
449.73	5785.80
449.91	5881.77
450.10	5849.00
450.28	5940.28
450.46	5921.56
450.65	5870.06
450.83	5893.47
451.02	5879.43
451.20	5902.83
451.39	5832.62
451.57	5666.44
451.76	6090.07
451.94	5895.81
452.13	5949.64
452.31	6033.90
452.49	5989.43
452.68	6141.57
452.86	6108.80
453.05	6286.68
453.23	6200.08
453.42	6008.16
453.60	6120.50
453.78	6256.25
453.97	6157.95
454.15	5956.66
454.34	6244.55
454.52	6310.08
454.70	6218.80
454.89	6221.14
455.07	6340.51
455.26	6335.83
455.44	6406.05
455.62	6457.54
455.81	6459.88
455.99	6499.67
456.17	6434.13
456.36	6375.62
456.54	6396.68
456.73	6675.21
456.91	6736.06
457.09	6736.06
457.28	6916.28
457.46	6647.12
457.64	6806.28
457.83	6773.51
458.01	6696.27
458.19	6885.86
458.38	6827.34
458.56	6857.77
458.74	6909.26
458.93	6904.58
459.11	7129.27
459.29	6979.48
459.48	6843.73
459.66	7080.12
459.84	6972.46
460.03	7225.23
460.21	6897.56
460.39	6913.94
460.57	7152.68
460.76	7201.83
460.94	7148.00
461.12	7236.94
461.31	7112.89
461.49	6988.84
461.67	7183.10
461.85	7372.69
462.04	7199.49
462.22	7784.62
462.40	7536.52
462.59	7527.16
462.77	7267.36
462.95	7733.13
463.13	7489.71
463.32	7426.52
463.50	7658.23
463.68	7611.42
463.86	7744.83
464.05	7431.20
464.23	7555.25
464.41	7625.47
464.59	7487.37
464.78	7817.39
464.96	7768.24
465.14	7730.79
465.32	7747.17
465.50	7941.44
465.69	7857.18
465.87	7669.94
466.05	7840.79
466.23	7756.54
466.41	7955.48
466.60	7922.71
466.78	7981.23
466.96	7852.50
467.14	8156.77
467.32	7978.89
467.51	8088.89
467.69	7793.98
467.87	8072.51
468.05	7997.61
468.23	7889.95
468.41	7887.61
468.60	8156.77
468.78	8287.84
468.96	8025.70
469.14	8166.13
469.32	8241.03
469.50	8030.38
469.69	8383.80
469.87	8538.27
470.05	8409.54
470.23	8390.82
470.41	8421.25
470.59	8500.83
470.77	8540.61
470.95	8393.16
471.14	8526.57
471.32	8519.55
471.50	8688.07
471.68	8507.85
471.86	8739.56
472.04	8777.01
472.22	8821.48
472.40	8709.13
472.58	8865.95
472.77	8980.64
472.95	9004.04
473.13	9238.09
473.31	8887.01
473.49	9034.47
473.67	9144.47
473.85	9102.34
474.03	9322.35
474.21	9263.84
474.39	9411.29
474.57	9289.59
474.75	9455.76
474.93	9577.47
475.12	9523.64
475.30	9701.52
475.48	9640.67
475.66	9834.93
475.84	9795.14
476.02	9589.17
476.20	9537.68
476.38	9947.28
476.56	10202.40
476.74	10176.65
476.92	10057.28
477.10	10101.75
477.28	10209.42
477.46	10045.58
477.64	10214.10
477.82	10520.71
478.00	10850.72
478.18	10675.18
478.36	10721.99
478.54	10857.75
478.72	10759.44
478.90	10843.70
479.08	11190.10
479.26	11183.08
479.44	11185.42
479.62	11173.72
479.80	11438.20
479.98	11564.59
480.16	11550.54
480.34	11421.81
480.52	11758.85
480.70	11894.60
480.88	11779.92
481.06	11948.43
481.24	12037.38
481.41	11936.73
481.59	12229.30
481.77	12264.41
481.95	12449.31
482.13	12425.90
482.31	12294.83
482.49	12669.32
482.67	12718.47
482.85	12905.71
483.03	13027.42
483.21	13158.49
483.39	13242.75
483.57	13116.36
483.74	13280.20
483.92	13350.42
484.10	13383.18
484.28	13537.66
484.46	14033.85
484.64	13912.14
484.82	13900.44
485.00	14075.98
485.18	14300.67
485.35	14513.66
485.53	14181.31
485.71	14459.83
485.89	14979.43
486.07	14600.26
486.25	14644.73
486.43	14881.13
486.61	14991.13
486.78	15126.88
486.96	15463.92
487.14	15241.57
487.32	15335.19
487.50	15571.58
487.68	15758.83
487.85	15962.45
488.03	15943.73
488.21	16149.70
488.39	16306.51
488.57	16226.93
488.75	16451.63
488.92	16578.01
489.10	16919.73
489.28	16776.96
489.46	16664.61
489.64	17029.74
489.81	17472.10
489.99	17315.28
490.17	17425.29
490.35	17514.23
490.53	17748.28
490.70	17657.00
490.88	17741.26
491.06	18424.70
491.24	17858.29
491.41	18401.29
491.59	18394.27
491.77	18455.12
491.95	18520.66
492.13	18787.48
492.30	19056.64
492.48	18635.35
492.66	18965.36
492.84	19250.91
493.01	19274.31
493.19	19225.16
493.37	19250.91
493.54	19264.95
493.72	19967.11
493.90	19791.57
494.08	19751.78
494.25	20093.50
494.43	20095.84
494.61	19913.28
494.79	20592.03
494.96	20135.63
495.14	20493.73
495.32	20730.12
495.49	21186.53
495.67	20702.04
495.85	21074.18
496.02	21062.48
496.20	21282.49
496.38	21500.16
496.55	21460.37
496.73	21633.57
496.91	21458.03
497.09	21916.78
497.26	21881.67
497.44	21745.92
497.62	22342.75
497.79	22600.21
497.97	22480.85
498.14	22434.03
498.32	22583.83
498.50	22541.70
498.67	23068.32
498.85	22815.54
499.03	22960.66
499.20	22869.37
499.38	23309.40
499.56	23271.95
499.73	23328.12
499.91	23454.51
500.08	23616.01
500.26	23723.67
500.44	23630.05
500.61	23426.42
500.79	23744.73
500.97	23831.33
501.14	24545.20
501.32	24180.07
501.49	24360.30
501.67	24269.01
501.84	24297.10
502.02	24339.23
502.20	24713.72
502.37	24425.83
502.55	24671.59
502.72	24842.45
502.90	24788.61
503.07	24610.73
503.25	25216.93
503.43	24851.81
503.60	25270.76
503.78	25125.65
503.95	25333.96
504.13	25317.57
504.30	25493.12
504.48	25443.96
504.65	25490.77
504.83	25607.80
505.01	25642.91
505.18	25631.21
505.36	26293.58
505.53	25944.84
505.71	26157.83
505.88	25979.95
506.06	25919.09
506.23	26389.54
506.41	26202.30
506.58	26588.49
506.76	26717.22
506.93	26391.88
507.11	26911.48
507.28	26628.27
507.46	26864.67
507.63	27089.36
507.81	26829.56
507.98	26850.63
508.16	27068.30
508.33	27435.76
508.50	27637.05
508.68	27615.98
508.85	27470.87
509.03	27688.54
509.20	27868.76
509.38	28053.66
509.55	28397.72
509.73	28027.92
509.90	28037.28
510.08	28304.10
510.25	28348.57
510.42	28594.32
510.60	28367.29
510.77	28479.64
510.95	28938.38
511.12	28655.18
511.30	28732.42
511.47	28758.16
511.64	28868.17
511.82	29336.27
511.99	29380.74
512.17	29102.22
512.34	28788.59
512.51	29399.47
512.69	29556.28
512.86	29413.51
513.04	29717.78
513.21	29682.67
513.38	29832.47
513.56	29984.60
513.73	29563.31
513.90	29745.87
514.08	29757.57
514.25	30302.92
514.43	30450.37
514.60	30431.65
514.77	30206.95
514.95	30396.54
515.12	30099.29
515.29	30228.02
515.47	30555.69
515.64	30794.43
515.81	30485.48
515.99	30801.45
516.16	31335.09
516.33	31051.89
516.51	30911.46
516.68	31208.70
516.85	30806.13
517.03	31323.39
517.20	31161.89
517.37	31232.11
517.54	31316.37
517.72	31367.86
517.89	31386.58
518.06	31772.77
518.24	31388.92
518.41	31580.85
518.58	31424.03
518.75	31669.79
518.93	31845.33
519.10	32039.59
519.27	31957.67
519.45	31740.00
519.62	32055.98
519.79	32151.94
519.96	31955.33
520.14	32407.06
520.31	32205.77
520.48	32545.15
520.65	32257.26
520.83	32720.69
521.00	33371.36
521.17	32802.61
521.34	32500.68
521.52	33125.60
521.69	33076.45
521.86	33085.81
522.03	33394.76
522.20	33413.49
522.38	33495.41
522.55	33397.10
522.72	33343.27
522.89	33310.50
523.07	33652.22
523.24	33862.87
523.41	33776.27
523.58	33820.74
523.75	33567.96
523.92	33921.38
524.10	33921.38
524.27	34256.08
524.44	34157.78
524.61	34162.46
524.78	34504.18
524.96	34073.52
525.13	34651.63
525.30	34504.18
525.47	34878.66
525.64	34429.28
525.81	34508.86
525.98	34597.80
526.16	34712.49
526.33	34583.76
526.50	35044.84
526.67	34728.87
526.84	35398.26
527.01	34948.88
527.18	35143.14
527.36	34995.69
527.53	35309.32
527.70	35192.30
527.87	35414.65
528.04	35154.85
528.21	35189.95
528.38	35398.26
528.55	35763.39
528.72	35697.85
528.89	35358.47
529.07	35658.06
529.24	35452.09
529.41	35983.40
529.58	35772.75
529.75	35754.02
529.92	35859.35
530.09	36018.50
530.26	35880.41
530.43	36168.30
530.60	35782.11
530.77	35833.60
530.94	36137.87
531.11	36023.19
531.28	36280.64
531.46	36070.00
531.63	36282.98
531.80	36493.63
531.97	36332.14
532.14	36332.14
532.31	36404.69
532.48	36727.69
532.65	36886.84
532.82	37050.68
532.99	36985.15
533.16	36865.78
533.33	37223.88
533.50	37195.79
533.67	37113.87
533.84	37010.89
534.01	37467.30
534.18	37373.67
534.35	37790.29
534.52	37383.04
534.69	37619.43
534.86	37820.72
535.03	37565.60
535.20	37762.20
535.37	37589.00
535.54	38110.94
535.71	37846.46
535.88	37745.82
536.05	37460.27
536.22	38253.72
536.38	37720.07
536.55	37970.51
536.72	37879.23
536.89	38174.14
537.06	38106.26
537.23	38405.85
537.40	38080.52
537.57	38483.09
537.74	37827.74
537.91	38663.31
538.08	38976.94
538.25	38251.38
538.42	38593.09
538.59	38799.06
538.75	38712.46
538.92	38955.88
539.09	38930.13
539.26	38653.95
539.43	38902.04
539.60	38726.50
539.77	38778.00
539.94	39150.14
540.11	38803.74
540.28	39236.74
540.44	39194.61
540.61	38986.30
540.78	38944.17
540.95	38918.43
541.12	39072.90
541.29	39414.62
541.46	39388.88
541.62	39381.85
541.79	39206.31
541.96	38754.59
542.13	39321.00
542.30	39222.70
542.47	39604.20
542.63	39585.48
542.80	39629.95
542.97	40236.15
543.14	40289.98
543.31	39882.73
543.48	39920.18
543.64	40458.50
543.81	40156.57
543.98	40311.05
544.15	40102.74
544.32	40254.87
544.48	40659.79
544.65	39782.09
544.82	40313.39
544.99	40210.40
545.16	40315.73
545.32	40278.28
545.49	40907.88
545.66	40999.16
545.83	40706.60
546.00	40769.79
546.16	40931.29
546.33	40844.69
546.50	40250.19
546.67	41069.38
546.83	40407.01
547.00	40790.86
547.17	40657.45
547.34	40940.65
547.50	40961.72
547.67	40856.39
547.84	41205.13
548.00	41546.85
548.17	41024.91
548.34	41579.62
548.51	41450.89
548.67	41343.22
548.84	40975.76
549.01	41577.28
549.18	41200.45
549.34	42005.59
549.51	41581.96
549.68	41797.29
549.84	41415.78
550.01	41607.70
550.18	41762.18
550.34	41975.17
550.51	41668.56
550.68	42403.49
550.84	41703.67
551.01	41581.96
551.18	41923.68
551.34	41806.65
551.51	41830.05
551.68	41659.20
551.84	41865.16
552.01	41837.08
552.18	42295.82
552.34	42139.00
552.51	41837.08
552.68	42007.94
552.84	41624.09
553.01	42169.43
553.18	41551.53
553.34	42454.98
553.51	42213.90
553.67	42686.69
553.84	42733.50
554.01	42412.85
554.17	43131.39
554.34	42635.20
554.51	42349.65
554.67	42855.21
554.84	43044.79
555.00	42792.01
555.17	42260.71
555.33	43374.81
555.50	42948.83
555.67	42789.67
555.83	42742.86
556.00	42684.35
556.16	43667.37
556.33	43201.61
556.50	42759.25
556.66	42686.69
556.83	42997.98
556.99	42969.90
557.16	43285.87
557.32	43531.62
557.49	42909.04
557.65	42976.92
557.82	43007.34
557.98	42953.51
558.15	42927.77
558.32	43470.77
558.48	43168.84
558.65	43196.93
558.81	43297.57
558.98	43112.67
559.14	43056.50
559.31	43447.36
559.47	43147.78
559.64	43335.02
559.80	43737.59
559.97	43896.75
560.13	43484.81
560.30	43203.95
560.46	43571.41
560.63	43629.93
560.79	43435.66
560.96	43587.80
561.12	43777.38
561.29	44053.56
561.45	43772.70
561.61	43742.27
561.78	43508.22
561.94	43803.13
562.11	43433.32
562.27	43655.67
562.44	43749.29
562.60	44013.77
562.77	43826.53
562.93	43831.21
563.10	44074.63
563.26	43927.17
563.42	44364.85
563.59	43899.09
563.75	43859.30
563.92	44037.18
564.08	43959.94
564.24	44170.59
564.41	44179.95
564.57	44229.10
564.74	43938.88
564.90	44076.97
565.07	43985.69
565.23	43995.05
565.39	44371.88
565.56	44189.31
565.72	44296.98
565.88	44191.65
566.05	44425.71
566.21	44446.77
566.38	44451.45
566.54	44275.91
566.70	44308.68
566.87	44428.05
567.03	44219.74
567.19	44732.32
567.36	44605.93
567.52	44414.01
567.68	44404.64
567.85	44474.86
568.01	44690.19
568.17	44804.88
568.34	44421.03
568.50	44790.83
568.66	44816.58
568.83	44540.39
568.99	44587.21
569.15	44711.25
569.32	44278.25
569.48	44891.48
569.64	44966.37
569.81	44725.30
569.97	44971.05
570.13	45130.21
570.30	44622.31
570.46	44903.18
570.62	45024.89
570.78	44598.91
570.95	44622.31
571.11	45340.86
571.27	44769.77
571.43	44748.70
571.60	44692.53
571.76	44669.12
571.92	44870.41
572.09	44301.66
572.25	44477.20
572.41	44664.44
572.57	44830.62
572.74	45120.85
572.90	44566.14
573.06	45118.51
573.22	45186.38
573.38	45106.80
573.55	44720.62
573.71	45146.59
573.87	45116.17
574.03	44659.76
574.20	45109.14
574.36	45174.68
574.52	44980.42
574.68	45181.70
574.84	45352.56
575.01	45186.38
575.17	45179.36
575.33	44851.69
575.49	45385.33
575.65	45254.26
575.82	45263.62
575.98	44957.01
576.14	45289.37
576.30	45247.24
576.46	45088.08
576.62	44797.85
576.79	44989.78
576.95	44428.05
577.11	45462.57
577.27	44739.34
577.43	44940.63
577.59	45226.17
577.75	44814.24
577.92	45170.00
578.08	45425.12
578.24	45141.91
578.40	45326.81
578.56	45563.21
578.72	45450.86
578.88	45460.23
579.04	45146.59
579.21	45223.83
579.37	45158.30
579.53	45443.84
579.69	44905.52
579.85	44868.07
580.01	45254.26
580.17	45270.64
580.33	44903.18
580.49	45598.32
580.65	45109.14
580.82	45263.62
580.98	45148.93
581.14	45195.74
581.30	45333.84
581.46	45162.98
581.62	45251.92
581.78	45116.17
581.94	45350.22
582.10	45401.71
582.26	45537.46
582.42	45345.54
582.58	44964.03
582.74	45340.86
582.90	45467.25
583.06	45134.89
583.22	45092.76
583.38	45427.46
583.54	45387.67
583.70	45106.80
583.86	45174.68
584.02	45090.42
584.18	45457.88
584.34	45301.07
584.50	45366.60
584.66	45652.15
584.82	45434.48
584.98	45619.38
585.14	45181.70
585.30	45411.07
585.46	45450.86
585.62	45492.99
585.78	45476.61
585.94	44989.78
586.10	45869.82
586.26	45303.41
586.42	45478.95
586.58	45584.27
586.74	45394.69
586.90	45364.26
587.06	45455.54
587.22	45921.31
587.38	45542.14
587.54	45485.97
587.70	45787.90
587.86	45050.63
588.02	45027.23
588.18	45911.95
588.34	45551.51
588.49	45492.99
588.65	45275.32
588.81	45642.79
588.97	45570.23
589.13	45633.42
589.29	45808.96
589.45	46045.36
589.61	45659.17
589.77	45453.20
589.93	45504.70
590.08	46066.42
