SpectraSuite Data File
++++++++++++++++++++++++++++++++++++
Date: Fri Oct 25 10:47:47 EDT 2013
User: price-jones
Dark Spectrum Present: No
Reference Spectrum Present: No
Number of Sampled Component Spectra: 1
Spectrometers: USB2+H05261
Integration Time (usec): 100000 (USB2+H05261)
Spectra Averaged: 1 (USB2+H05261)
Boxcar Smoothing: 0 (USB2+H05261)
Correct for Electrical Dark: No (USB2+H05261)
Strobe/Lamp Enabled: No (USB2+H05261)
Correct for Detector Non-linearity: No (USB2+H05261)
Correct for Stray Light: No (USB2+H05261)
Number of Pixels in Processed Spectrum: 2048
>>>>>Begin Processed Spectral Data<<<<<
365.73	107.66
365.92	107.66
366.12	107.66
366.32	67.88
366.52	0.00
366.72	46.81
366.91	0.00
367.11	51.49
367.31	21.06
367.51	77.24
367.70	79.58
367.90	49.15
368.10	79.58
368.30	25.75
368.49	37.45
368.69	79.58
368.89	102.98
369.09	14.04
369.28	51.49
369.48	23.41
369.68	77.24
369.87	156.82
370.07	112.35
370.27	72.56
370.47	168.52
370.66	376.83
370.86	435.34
371.06	435.34
371.25	468.11
371.45	374.49
371.65	421.30
371.84	393.21
372.04	390.87
372.24	470.45
372.44	409.59
372.63	540.66
372.83	622.58
373.03	496.19
373.22	407.25
373.42	528.96
373.62	568.75
373.81	514.92
374.01	610.88
374.21	519.60
374.40	514.92
374.60	517.26
374.79	528.96
374.99	528.96
375.19	578.11
375.38	610.88
375.58	559.39
375.78	531.30
375.97	571.09
376.17	629.60
376.37	634.29
376.56	545.34
376.76	589.82
376.95	634.29
377.15	594.50
377.35	547.69
377.54	683.44
377.74	624.92
377.93	580.45
378.13	596.84
378.33	648.33
378.52	608.54
378.72	685.78
378.91	608.54
379.11	580.45
379.31	578.11
379.50	599.18
379.70	709.18
379.89	662.37
380.09	617.90
380.28	585.13
380.48	629.60
380.68	620.24
380.87	681.10
381.07	620.24
381.26	699.82
381.46	573.43
381.65	671.73
381.85	695.14
382.04	711.52
382.24	720.88
382.43	655.35
382.63	615.56
382.83	688.12
383.02	617.90
383.22	779.40
383.41	613.22
383.61	699.82
383.80	767.70
384.00	702.16
384.19	744.29
384.39	791.10
384.58	709.18
384.78	716.20
384.97	709.18
385.17	772.38
385.36	697.48
385.56	763.01
385.75	697.48
385.95	781.74
386.14	819.19
386.34	777.06
386.53	772.38
386.72	851.96
386.92	793.44
387.11	823.87
387.31	868.34
387.50	828.55
387.70	777.06
387.89	781.74
388.09	805.14
388.28	788.76
388.48	758.33
388.67	884.72
388.86	851.96
389.06	891.74
389.25	870.68
389.45	940.90
389.64	954.94
389.84	922.17
390.03	866.00
390.22	919.83
390.42	987.71
390.61	887.06
390.81	940.90
391.00	990.05
391.19	1036.86
391.39	1001.75
391.58	1027.50
391.78	985.37
391.97	922.17
392.16	952.60
392.36	1097.71
392.55	954.94
392.75	985.37
392.94	924.51
393.13	933.87
393.33	973.66
393.52	964.30
393.71	994.73
393.91	1060.26
394.10	1053.24
394.29	1074.31
394.49	1034.52
394.68	1111.75
394.88	1153.88
395.07	1074.31
395.26	1193.67
395.46	1006.43
395.65	1144.52
395.84	1116.44
396.04	1160.91
396.23	1217.08
396.42	1165.59
396.62	1107.07
396.81	1078.99
397.00	1146.86
397.19	1221.76
397.39	1191.33
397.58	1315.38
397.77	1282.61
397.97	1270.91
398.16	1299.00
398.35	1320.06
398.55	1362.19
398.74	1235.80
398.93	1270.91
399.12	1371.55
399.32	1268.57
399.51	1355.17
399.70	1371.55
399.90	1355.17
400.09	1472.20
400.28	1387.94
400.47	1420.71
400.67	1511.99
400.86	1348.15
401.05	1416.02
401.24	1462.83
401.44	1572.84
401.63	1511.99
401.82	1481.56
402.01	1439.43
402.21	1509.65
402.40	1495.60
402.59	1568.16
402.78	1570.50
402.97	1537.73
403.17	1603.27
403.36	1563.48
403.55	1621.99
403.74	1586.88
403.93	1668.80
404.13	1713.27
404.32	1629.01
404.51	1636.03
404.70	1631.35
404.89	1605.61
405.09	1741.36
405.28	1657.10
405.47	1771.79
405.66	1699.23
405.85	1762.42
406.05	1760.08
406.24	1830.30
406.43	1856.04
406.62	1872.43
406.81	1996.48
407.00	1853.70
407.20	1842.00
407.39	1722.63
407.58	1916.90
407.77	1858.39
407.96	2062.01
408.15	1811.57
408.34	1795.19
408.54	1998.82
408.73	1982.43
408.92	2038.61
409.11	2085.42
409.30	2099.46
409.49	2057.33
409.68	2050.31
409.87	2080.74
410.07	2045.63
410.26	2066.69
410.45	2136.91
410.64	2127.55
410.83	2197.76
411.02	2225.85
411.21	2228.19
411.40	2214.15
411.59	2370.96
411.78	2312.45
411.98	2328.83
412.17	2279.68
412.36	2382.67
412.55	2415.43
412.74	2420.11
412.93	2370.96
413.12	2363.94
413.31	2593.31
413.50	2518.42
413.69	2502.03
413.88	2567.57
414.07	2553.52
414.26	2649.49
414.45	2647.15
414.64	2572.25
414.83	2642.46
415.02	2775.88
415.22	2693.96
415.41	2960.78
415.60	2785.24
415.79	2930.35
415.98	2913.97
416.17	2937.37
416.36	2885.88
416.55	2923.33
416.74	2860.13
416.93	2932.69
417.12	2874.18
417.31	2979.50
417.50	2878.86
417.69	3145.68
417.88	3103.55
418.07	3014.61
418.26	2928.01
418.45	3157.38
418.64	3276.75
418.83	3169.09
419.02	3110.57
419.21	3265.05
419.39	3171.43
419.58	2991.20
419.77	3103.55
419.96	3424.20
420.15	3337.60
420.34	3290.79
420.53	3253.34
420.72	3405.48
420.91	3304.84
421.10	3463.99
421.29	3503.78
421.48	3485.06
421.67	3400.80
421.86	3386.76
422.05	3407.82
422.24	3391.44
422.43	3379.73
422.61	3414.84
422.80	3574.00
422.99	3480.38
423.18	3604.42
423.37	3644.21
423.56	3431.23
423.75	3536.55
423.94	3461.65
424.13	3389.10
424.32	3318.88
424.50	3459.31
424.69	3676.98
424.88	3590.38
425.07	3449.95
425.26	3562.30
425.45	3583.36
425.64	3440.59
425.83	3459.31
426.01	3637.19
426.20	3496.76
426.39	3515.48
426.58	3665.28
426.77	3576.34
426.96	3566.98
427.15	3581.02
427.33	3566.98
427.52	3765.92
427.71	3592.72
427.90	3684.00
428.09	3768.26
428.28	3709.75
428.46	3819.75
428.65	3719.11
428.84	3798.69
429.03	3967.21
429.22	3721.45
429.40	3756.56
429.59	3826.78
429.78	3637.19
429.97	3609.11
430.16	3637.19
430.34	3906.35
430.53	4002.32
430.72	3971.89
430.91	3901.67
431.10	4042.11
431.28	3969.55
431.47	4234.03
431.66	4152.11
431.85	4074.87
432.03	4140.41
432.22	4133.39
432.41	4250.41
432.60	4238.71
432.79	4304.25
432.97	4264.46
433.16	4205.94
433.35	4135.73
433.54	4212.96
433.72	4327.65
433.91	4184.88
434.10	4238.71
434.28	4315.95
434.47	4367.44
434.66	4346.37
434.85	4402.55
435.03	4493.83
435.22	4493.83
435.41	4575.75
435.59	4561.70
435.78	4498.51
435.97	4535.96
436.16	4561.70
436.34	4599.15
436.53	4636.60
436.72	4870.65
436.90	4608.51
437.09	4648.30
437.28	4585.11
437.46	4671.71
437.65	4636.60
437.84	4669.37
438.02	4784.06
438.21	4755.97
438.40	4411.91
438.58	4997.04
438.77	4770.01
438.96	4856.61
439.14	4884.70
439.33	4889.38
439.52	4943.21
439.70	4957.25
439.89	5078.96
440.08	5078.96
440.26	5083.64
440.45	5144.50
440.63	5207.69
440.82	5427.70
441.01	5277.91
441.19	5469.83
441.38	5317.70
441.57	5376.21
441.75	5589.20
441.94	5598.56
442.12	5621.97
442.31	5607.92
442.50	5764.74
442.68	5659.42
442.87	5518.98
443.05	5657.07
443.24	5612.60
443.43	5785.80
443.61	5675.80
443.80	5914.53
443.98	5886.45
444.17	5626.65
444.35	5921.56
444.54	5949.64
444.73	5944.96
444.91	5849.00
445.10	5762.40
445.28	5771.76
445.47	5650.05
445.65	5722.61
445.84	5799.85
446.02	5933.26
446.21	5959.00
446.39	5694.52
446.58	5919.21
446.77	6045.60
446.95	5846.66
447.14	5860.70
447.32	6003.47
447.51	6024.54
447.69	5872.40
447.88	5982.41
448.06	6061.99
448.25	5968.37
448.43	5973.05
448.62	5947.30
448.80	6008.16
448.99	5968.37
449.17	6186.04
449.36	6146.25
449.54	6373.28
449.73	6324.13
449.91	6417.75
450.10	6370.94
450.28	6516.05
450.46	6298.38
450.65	6420.09
450.83	6413.07
451.02	6251.57
451.20	6413.07
451.39	6352.21
451.57	6441.15
451.76	6506.69
451.94	6480.94
452.13	6539.46
452.31	6396.68
452.49	6232.85
452.68	6445.84
452.86	6387.32
453.05	6443.49
453.23	6649.46
453.42	6356.90
453.60	6581.59
453.78	6630.74
453.97	6525.41
454.15	6506.69
454.34	6600.31
454.52	6867.13
454.70	6771.17
454.89	6679.89
455.07	6792.23
455.26	6892.88
455.44	6956.07
455.62	7105.87
455.81	6935.01
455.99	6918.62
456.17	7021.61
456.36	6991.18
456.54	7005.22
456.73	7138.63
456.91	7351.62
457.09	7286.09
457.28	7414.82
457.46	7204.17
457.64	7379.71
457.83	7492.05
458.01	7045.01
458.19	7461.63
458.38	7321.20
458.56	7564.61
458.74	7360.98
458.93	7440.56
459.11	7281.41
459.29	7543.55
459.48	7522.48
459.66	7414.82
459.84	7442.90
460.03	7648.87
460.21	7679.30
460.39	7639.51
460.57	7611.42
460.76	7646.53
460.94	7803.35
461.12	7873.56
461.31	7894.63
461.49	7557.59
461.67	7679.30
461.85	7929.74
462.04	7815.05
462.22	8276.13
462.40	8002.29
462.59	8124.00
462.77	8077.19
462.95	7999.95
463.13	8149.75
463.32	8030.38
463.50	8098.25
463.68	8107.62
463.86	8241.03
464.05	8079.53
464.23	8074.85
464.41	8105.28
464.59	8224.64
464.78	8421.25
464.96	8292.52
465.14	8128.68
465.32	8264.43
465.50	8358.05
465.69	8484.44
465.87	8346.35
466.05	8358.05
466.23	8374.44
466.41	8564.02
466.60	8634.24
466.78	8276.13
466.96	8381.46
467.14	8477.42
467.32	8418.91
467.51	8711.47
467.69	8482.10
467.87	8528.91
468.05	8423.59
468.23	8486.78
468.41	8294.86
468.60	8585.08
468.78	8739.56
468.96	8702.11
469.14	8868.29
469.32	8772.33
469.50	8540.61
469.69	9006.38
469.87	8924.46
470.05	8945.53
470.23	8959.57
470.41	8840.20
470.59	9041.49
470.77	8943.19
470.95	9041.49
471.14	9221.71
471.32	9107.02
471.50	9184.26
471.68	8978.30
471.86	9226.39
472.04	9430.02
472.22	9514.28
472.40	9357.46
472.58	9427.68
472.77	9521.30
472.95	9741.31
473.13	9851.31
473.31	9664.07
473.49	9607.90
473.67	9633.64
473.85	9633.64
474.03	10015.15
474.21	9811.53
474.39	10129.84
474.57	9937.91
474.75	10005.79
474.93	10326.44
475.12	10169.63
475.30	10076.01
475.48	10183.67
475.66	10349.85
475.84	10377.94
476.02	10471.56
476.20	10441.13
476.38	10511.35
476.56	10834.34
476.74	10714.97
476.92	10698.59
477.10	10965.41
477.28	10951.37
477.46	10836.68
477.64	11073.07
477.82	11246.27
478.00	11438.20
478.18	11206.48
478.36	11367.98
478.54	11627.78
478.72	11578.63
478.90	11651.19
479.08	11978.86
479.26	11892.26
479.44	12147.38
479.62	11976.52
479.80	12201.21
479.98	11978.86
480.16	12475.06
480.34	12280.79
480.52	12273.77
480.70	12390.80
480.88	12463.35
481.06	12446.97
481.24	12779.32
481.41	12929.12
481.59	13149.13
481.77	13132.75
481.95	13226.37
482.13	13284.88
482.31	13336.37
482.49	13692.13
482.67	13654.69
482.85	13600.85
483.03	13935.55
483.21	13975.34
483.39	13933.21
483.57	14092.37
483.74	14249.18
483.92	14434.08
484.10	13991.72
484.28	14609.62
484.46	14532.39
484.64	15140.93
484.82	15122.20
485.00	14853.04
485.18	14998.15
485.35	14998.15
485.53	14885.81
485.71	15049.64
485.89	15344.55
486.07	15391.36
486.25	15276.68
486.43	15662.86
486.61	15604.35
486.78	15686.27
486.96	15906.28
487.14	16194.17
487.32	16156.72
487.50	16477.37
487.68	16739.51
487.85	16683.34
488.03	16819.09
488.21	16975.91
488.39	17013.35
488.57	17097.61
488.75	17238.05
488.92	17619.55
489.10	17687.43
489.28	17516.57
489.46	17867.65
489.64	17846.58
489.81	18354.48
489.99	18015.10
490.17	18246.82
490.35	18546.40
490.53	18621.30
490.70	18595.56
490.88	18771.10
491.06	19321.12
491.24	18941.96
491.41	19403.04
491.59	19005.15
491.77	19105.79
491.95	19510.71
492.13	19477.94
492.30	19749.44
492.48	20002.22
492.66	19899.23
492.84	19964.77
493.01	20156.69
493.19	20177.76
493.37	20259.68
493.54	20407.13
493.72	20608.42
493.90	20809.70
494.08	21153.76
494.25	21289.51
494.43	21418.24
494.61	21132.70
494.79	21371.43
494.96	21348.03
495.14	21486.12
495.32	21589.10
495.49	21898.05
495.67	21982.31
495.85	22148.49
496.02	22223.39
496.20	22469.14
496.38	22473.82
496.55	22602.55
496.73	23094.07
496.91	22583.83
497.09	22745.33
497.26	23087.04
497.44	22902.14
497.62	23023.85
497.79	23618.35
497.97	23131.51
498.14	23435.78
498.32	23805.59
498.50	23936.66
498.67	23896.87
498.85	24217.52
499.03	23990.49
499.20	23847.72
499.38	24231.57
499.56	24467.96
499.73	24346.25
499.91	24526.47
500.08	24746.48
500.26	24283.06
500.44	24936.07
500.61	24643.50
500.79	24837.76
500.97	25010.96
501.14	25427.58
501.32	25022.67
501.49	25338.64
501.67	24985.22
501.84	25275.45
502.02	25111.61
502.20	25415.88
502.37	25851.22
502.55	25577.37
502.72	25586.74
502.90	25876.96
503.07	25907.39
503.25	26082.93
503.43	25668.66
503.60	26120.38
503.78	26160.17
503.95	26101.65
504.13	26424.65
504.30	26927.86
504.48	26754.66
504.65	26546.36
504.83	27058.93
505.01	26745.30
505.18	26820.20
505.36	27257.88
505.53	27119.79
505.71	27318.73
505.88	27426.40
506.06	26906.80
506.23	27456.82
506.41	27431.08
506.58	27711.94
506.76	27566.83
506.93	27810.25
507.11	27489.59
507.28	27742.37
507.46	27566.83
507.63	27864.08
507.81	28236.22
507.98	27997.49
508.16	27892.16
508.33	28283.03
508.50	28500.70
508.68	28409.42
508.85	28755.82
509.03	28837.74
509.20	28975.83
509.38	29179.46
509.55	29153.71
509.73	29195.84
509.90	28938.38
510.08	28910.30
510.25	29404.15
510.42	29223.93
510.60	29692.04
510.77	29741.19
510.95	29549.26
511.12	29507.13
511.30	29764.59
511.47	29907.37
511.64	29928.43
511.82	30059.50
511.99	30139.08
512.17	30146.10
512.34	29818.42
512.51	30569.74
512.69	30794.43
512.86	30541.65
513.04	30675.06
513.21	30513.56
513.38	30838.90
513.56	30525.27
513.73	30536.97
513.90	30918.48
514.08	30639.95
514.25	30969.97
514.43	31070.61
514.60	30843.58
514.77	30609.53
514.95	31639.36
515.12	30848.26
515.29	31002.74
515.47	31658.09
515.64	31737.66
515.81	31470.84
515.99	31786.82
516.16	31852.35
516.33	31353.82
516.51	31915.54
516.68	31307.01
516.85	31276.58
517.03	31835.97
517.20	32037.25
517.37	32041.93
517.54	32376.63
517.72	32629.41
517.89	32259.60
518.06	32112.15
518.24	32016.19
518.41	32196.41
518.58	32287.69
518.75	32308.76
518.93	32271.31
519.10	32966.45
519.27	32954.74
519.45	32687.92
519.62	33132.62
519.79	33254.33
519.96	33104.54
520.14	33345.61
520.31	33322.21
520.48	33462.64
520.65	33298.80
520.83	33663.93
521.00	34043.09
521.17	33319.87
521.34	33921.38
521.52	33429.87
521.69	34197.57
521.86	33930.75
522.03	34199.91
522.20	34087.56
522.38	34050.11
522.55	34026.71
522.72	34682.06
522.89	34139.05
523.07	34682.06
523.24	34106.29
523.41	34448.00
523.58	34927.81
523.75	34714.83
523.92	34948.88
524.10	34836.53
524.27	34815.47
524.44	34761.64
524.61	34843.56
524.78	35173.57
524.96	35424.01
525.13	35115.06
525.30	35461.46
525.47	35370.18
525.64	35065.91
525.81	35227.40
525.98	35442.73
526.16	35271.87
526.33	35201.66
526.50	35845.30
526.67	35477.84
526.84	35250.81
527.01	35431.03
527.18	35447.41
527.36	36151.91
527.53	35826.58
527.70	36481.93
527.87	36128.51
528.04	36004.46
528.21	36044.25
528.38	36128.51
528.55	36034.89
528.72	36233.83
528.89	36364.90
529.07	36435.12
529.24	36168.30
529.41	36795.56
529.58	36685.56
529.75	36552.15
529.92	36540.44
530.09	37071.75
530.26	36374.27
530.43	36928.97
530.60	36444.48
530.77	36795.56
530.94	37338.57
531.11	37191.11
531.28	37411.12
531.46	37427.51
531.63	37570.28
531.80	36933.65
531.97	37266.01
532.14	37226.22
532.31	36971.10
532.48	37387.72
532.65	37876.89
532.82	37418.14
532.99	37799.65
533.16	37186.43
533.33	38012.64
533.50	37729.44
533.67	37801.99
533.84	37579.64
534.01	37762.20
534.18	37937.74
534.35	38052.43
534.52	37940.08
534.69	37993.92
534.86	38040.73
535.03	37860.51
535.20	38403.51
535.37	38375.42
535.54	38888.00
535.71	38632.88
535.88	38579.05
536.05	38487.77
536.22	38466.70
536.38	38803.74
536.55	38909.07
536.72	38352.02
536.89	38288.82
537.06	38302.87
537.23	38703.10
537.40	38597.77
537.57	39100.99
537.74	38651.61
537.91	38866.94
538.08	38862.26
538.25	38787.36
538.42	39433.35
538.59	39248.44
538.75	38988.64
538.92	39192.27
539.09	39503.56
539.26	39253.12
539.43	39627.61
539.60	39187.59
539.77	39232.06
539.94	39365.47
540.11	39533.99
540.28	39431.01
540.44	39662.72
540.61	39583.14
540.78	39377.17
540.95	39679.10
541.12	39512.92
541.29	39290.57
541.46	39281.21
541.62	39838.26
541.79	40121.46
541.96	39241.42
542.13	39952.94
542.30	39732.93
542.47	40151.89
542.63	40074.65
542.80	39856.98
542.97	40002.10
543.14	40465.52
543.31	40133.17
543.48	40526.38
543.64	40971.08
543.81	40774.47
543.98	40362.54
544.15	40680.85
544.32	40725.32
544.48	40994.48
544.65	40570.85
544.82	40800.22
544.99	40488.93
545.16	40673.83
545.32	41045.97
545.49	41008.53
545.66	41111.51
545.83	41099.81
546.00	41446.21
546.16	41223.86
546.33	41151.30
546.50	40690.21
546.67	41116.19
546.83	40992.14
547.00	41191.09
547.17	41120.87
547.34	41167.68
547.50	41167.68
547.67	41219.17
547.84	41373.65
548.00	41476.63
548.17	41645.15
548.34	41291.73
548.51	41645.15
548.67	41668.56
548.84	41715.37
549.01	41450.89
549.18	41560.89
549.34	41628.77
549.51	41825.37
549.68	41869.84
549.84	41474.29
550.01	42038.36
550.18	42071.13
550.34	41989.21
550.51	41867.50
550.68	41670.90
550.84	41687.28
551.01	42342.63
551.18	41972.83
551.34	42256.03
551.51	42185.82
551.68	41984.53
551.84	42260.71
552.01	41897.93
552.18	42040.70
552.34	42160.07
552.51	42384.76
552.68	42316.89
552.84	42356.67
553.01	42522.85
553.18	42422.21
553.34	42230.29
553.51	42466.68
553.67	42469.02
553.84	42689.03
554.01	43075.22
554.17	42796.70
554.34	42836.48
554.51	42611.79
554.67	43166.50
554.84	42543.92
555.00	42082.83
555.17	42597.75
555.33	43136.07
555.50	42623.50
555.67	43047.13
555.83	42820.10
556.00	42754.57
556.16	43012.02
556.33	42993.30
556.50	43042.45
556.66	43049.47
556.83	42773.29
556.99	43068.20
557.16	43124.37
557.32	43012.02
557.49	43030.75
557.65	42827.12
557.82	43070.54
557.98	42960.53
558.15	43344.38
558.32	43503.54
558.48	43356.08
558.65	43386.51
558.81	42974.58
558.98	43435.66
559.14	43349.06
559.31	43482.47
559.47	43557.37
559.64	43498.86
559.80	43325.66
559.97	43543.33
560.13	43473.11
560.30	43510.56
560.46	43695.46
560.63	43175.86
560.79	43875.68
560.96	43807.81
561.12	43606.52
561.29	43962.28
561.45	43267.14
561.61	43805.47
561.78	43182.88
561.94	43122.03
562.11	43360.76
562.27	43494.18
562.44	43384.17
562.60	43878.02
562.77	43875.68
562.93	43658.01
563.10	44198.68
563.26	43381.83
563.42	43599.50
563.59	43922.49
563.75	43786.74
563.92	44095.69
564.08	43711.84
564.24	44107.40
564.41	44037.18
564.57	43583.12
564.74	43721.21
564.90	43679.08
565.07	43639.29
565.23	43840.57
565.39	43810.15
565.56	44409.32
565.72	43796.10
565.88	43686.10
566.05	43936.54
566.21	44037.18
566.38	43992.71
566.54	43789.08
566.70	44020.80
566.87	44418.69
567.03	44179.95
567.19	44835.30
567.36	44105.06
567.52	43957.60
567.68	44362.51
567.85	44392.94
568.01	44624.65
568.17	44364.85
568.34	44109.74
568.50	44383.58
568.66	44259.53
568.83	44273.57
568.99	44044.20
569.15	44402.30
569.32	44165.91
569.48	44446.77
569.64	44346.13
569.81	44081.65
569.97	44451.45
570.13	43985.69
570.30	44004.41
570.46	44189.31
570.62	43892.07
570.78	44287.62
570.95	43966.96
571.11	44053.56
571.27	44243.15
571.43	44477.20
571.60	44266.55
571.76	44587.21
571.92	44278.25
572.09	44339.11
572.25	44406.98
572.41	44287.62
572.57	44751.04
572.74	44807.22
572.90	44626.99
573.06	44584.86
573.22	44669.12
573.38	44636.36
573.55	43782.06
573.71	44561.46
573.87	44669.12
574.03	44493.58
574.20	44751.04
574.36	44395.28
574.52	44748.70
574.68	44194.00
574.84	44603.59
575.01	44439.75
575.17	44472.52
575.33	44495.92
575.49	44692.53
575.65	44751.04
575.82	44823.60
575.98	44212.72
576.14	44762.75
576.30	44641.04
576.46	44163.57
576.62	44453.79
576.79	44313.36
576.95	44140.16
577.11	44573.16
577.27	44739.34
577.43	44645.72
577.59	44306.34
577.75	44788.49
577.92	43997.39
578.08	44130.80
578.24	44016.11
578.40	44556.78
578.56	44673.81
578.72	44334.43
578.88	44744.02
579.04	44594.23
579.21	44847.00
579.37	44601.25
579.53	44500.61
579.69	44575.50
579.85	44449.11
580.01	44376.56
580.17	44645.72
580.33	44563.80
580.49	45010.84
580.65	45055.31
580.82	44680.83
580.98	44381.24
581.14	44655.08
581.30	44746.36
581.46	44680.83
581.62	44889.13
581.78	44683.17
581.94	44863.39
582.10	44795.51
582.26	45029.57
582.42	44744.02
582.58	44582.52
582.74	44713.59
582.90	44765.09
583.06	44961.69
583.22	44924.24
583.38	44994.46
583.54	44638.70
583.70	44751.04
583.86	44870.41
584.02	44470.18
584.18	44779.13
584.34	44507.63
584.50	45144.25
584.66	44795.51
584.82	44233.78
584.98	44870.41
585.14	44931.26
585.30	44673.81
585.46	44390.60
585.62	44612.95
585.78	44772.11
585.94	44411.67
586.10	44755.72
586.26	44652.74
586.42	44556.78
586.58	45247.24
586.74	44818.92
586.90	44617.63
587.06	44793.17
587.22	44666.78
587.38	44662.10
587.54	45120.85
587.70	45167.66
587.86	44954.67
588.02	44999.14
588.18	44987.44
588.34	44605.93
588.49	44690.19
588.65	44671.46
588.81	44081.65
588.97	44664.44
589.13	44587.21
589.29	44978.07
589.45	44746.36
589.61	44711.25
589.77	45380.65
589.93	44596.57
590.08	45092.76
590.24	44924.24
