SpectraSuite Data File
++++++++++++++++++++++++++++++++++++
Date: Fri Oct 25 11:33:29 EDT 2013
User: price-jones
Dark Spectrum Present: No
Reference Spectrum Present: No
Number of Sampled Component Spectra: 1
Spectrometers: USB2+H05261
Integration Time (usec): 100000 (USB2+H05261)
Spectra Averaged: 1 (USB2+H05261)
Boxcar Smoothing: 0 (USB2+H05261)
Correct for Electrical Dark: No (USB2+H05261)
Strobe/Lamp Enabled: No (USB2+H05261)
Correct for Detector Non-linearity: No (USB2+H05261)
Correct for Stray Light: No (USB2+H05261)
Number of Pixels in Processed Spectrum: 2048
>>>>>Begin Processed Spectral Data<<<<<
365.73	208.31
365.92	208.31
366.12	208.31
366.32	220.01
366.52	170.86
366.72	243.42
366.91	215.33
367.11	198.95
367.31	175.54
367.51	114.69
367.70	198.95
367.90	227.03
368.10	161.50
368.30	149.79
368.49	187.24
368.69	231.71
368.89	212.99
369.09	217.67
369.28	234.05
369.48	180.22
369.68	231.71
369.87	257.46
370.07	257.46
370.27	306.61
370.47	355.76
370.66	491.51
370.86	510.24
371.06	535.98
371.25	592.16
371.45	489.17
371.65	582.79
371.84	500.87
372.04	528.96
372.24	498.53
372.44	566.41
372.63	603.86
372.83	627.26
373.03	552.37
373.22	547.69
373.42	601.52
373.62	634.29
373.81	636.63
374.01	690.46
374.21	716.20
374.40	636.63
374.60	704.50
374.79	690.46
374.99	674.07
375.19	575.77
375.38	683.44
375.58	685.78
375.78	653.01
375.97	695.14
376.17	772.38
376.37	653.01
376.56	760.67
376.76	688.12
376.95	739.61
377.15	718.54
377.35	697.48
377.54	720.88
377.74	697.48
377.93	690.46
378.13	643.65
378.33	671.73
378.52	753.65
378.72	688.12
378.91	706.84
379.11	653.01
379.31	678.76
379.50	648.33
379.70	854.30
379.89	695.14
380.09	751.31
380.28	734.93
380.48	709.18
380.68	711.52
380.87	636.63
381.07	777.06
381.26	837.91
381.46	741.95
381.65	777.06
381.85	828.55
382.04	751.31
382.24	835.57
382.43	844.93
382.63	702.16
382.83	755.99
383.02	784.08
383.22	826.21
383.41	748.97
383.61	868.34
383.80	887.06
384.00	812.17
384.19	821.53
384.39	901.11
384.58	856.64
384.78	774.72
384.97	898.77
385.17	901.11
385.36	821.53
385.56	784.08
385.75	718.54
385.95	847.27
386.14	917.49
386.34	849.61
386.53	823.87
386.72	784.08
386.92	863.66
387.11	964.30
387.31	760.67
387.50	812.17
387.70	884.72
387.89	877.70
388.09	917.49
388.28	931.53
388.48	828.55
388.67	971.32
388.86	922.17
389.06	851.96
389.25	936.21
389.45	933.87
389.64	898.77
389.84	915.15
390.03	868.34
390.22	947.92
390.42	952.60
390.61	938.55
390.81	1018.13
391.00	961.96
391.19	931.53
391.39	1093.03
391.58	1055.58
391.78	1057.92
391.97	994.73
392.16	1062.60
392.36	1074.31
392.55	1043.88
392.75	1022.81
392.94	1078.99
393.13	954.94
393.33	992.39
393.52	1095.37
393.71	1151.54
393.91	1097.71
394.10	1043.88
394.29	1146.86
394.49	1041.54
394.68	1064.94
394.88	1130.48
395.07	1086.01
395.26	1116.44
395.46	1203.04
395.65	1151.54
395.84	1188.99
396.04	1207.72
396.23	1128.14
396.42	1167.93
396.62	1167.93
396.81	1249.85
397.00	1261.55
397.19	1181.97
397.39	1221.76
397.58	1254.53
397.77	1275.59
397.97	1277.93
398.16	1254.53
398.35	1355.17
398.55	1196.01
398.74	1247.51
398.93	1369.21
399.12	1184.31
399.32	1371.55
399.51	1287.29
399.70	1401.98
399.90	1343.47
400.09	1313.04
400.28	1299.00
400.47	1401.98
400.67	1437.09
400.86	1371.55
401.05	1458.15
401.24	1378.58
401.44	1394.96
401.63	1465.18
401.82	1523.69
402.01	1350.49
402.21	1446.45
402.40	1465.18
402.59	1418.36
402.78	1472.20
402.97	1610.29
403.17	1530.71
403.36	1474.54
403.55	1619.65
403.74	1558.80
403.93	1575.18
404.13	1671.14
404.32	1589.22
404.51	1666.46
404.70	1708.59
404.89	1633.69
405.09	1598.59
405.28	1661.78
405.47	1621.99
405.66	1638.38
405.85	1694.55
406.05	1797.53
406.24	1727.32
406.43	1776.47
406.62	1717.95
406.81	1849.02
407.00	1776.47
407.20	1720.29
407.39	1849.02
407.58	1818.60
407.77	1802.21
407.96	1743.70
408.15	1867.75
408.34	1813.92
408.54	1968.39
408.73	2001.16
408.92	1973.07
409.11	1966.05
409.30	1928.60
409.49	1947.33
409.68	2019.88
409.87	2015.20
410.07	2033.93
410.26	2017.54
410.45	1952.01
410.64	2099.46
410.83	2122.87
411.02	2083.08
411.21	2134.57
411.40	2195.42
411.59	2246.91
411.78	2260.96
411.98	2179.04
412.17	2172.02
412.36	2237.55
412.55	2251.60
412.74	2314.79
412.93	2413.09
413.12	2282.02
413.31	2469.27
413.50	2284.36
413.69	2382.67
413.88	2480.97
414.07	2434.16
414.26	2443.52
414.45	2548.84
414.64	2530.12
414.83	2705.66
415.02	2588.63
415.22	2614.38
415.41	2757.15
415.60	2607.36
415.79	2663.53
415.98	2719.70
416.17	2773.53
416.36	2724.38
416.55	2736.09
416.74	2829.71
416.93	2883.54
417.12	2942.05
417.31	2963.12
417.50	2829.71
417.69	2890.56
417.88	2916.31
418.07	2881.20
418.26	2892.90
418.45	2956.10
418.64	2974.82
418.83	3035.67
419.02	3082.49
419.21	3054.40
419.39	3157.38
419.58	3073.12
419.77	3063.76
419.96	3145.68
420.15	3164.40
420.34	3133.98
420.53	3176.11
420.72	3290.79
420.91	3265.05
421.10	3314.20
421.29	3279.09
421.48	3232.28
421.67	3255.69
421.86	3335.26
422.05	3269.73
422.24	3372.71
422.43	3332.92
422.61	3288.45
422.80	3407.82
422.99	3318.88
423.18	3456.97
423.37	3485.06
423.56	3344.63
423.75	3435.91
423.94	3461.65
424.13	3122.27
424.32	3286.11
424.50	3407.82
424.69	3482.72
424.88	3552.93
425.07	3454.63
425.26	3433.57
425.45	3342.28
425.64	3335.26
425.83	3337.60
426.01	3552.93
426.20	3552.93
426.39	3496.76
426.58	3330.58
426.77	3417.18
426.96	3478.04
427.15	3433.57
427.33	3660.60
427.52	3562.30
427.71	3602.08
427.90	3620.81
428.09	3632.51
428.28	3618.47
428.46	3721.45
428.65	3686.34
428.84	3859.54
429.03	3749.54
429.22	3681.66
429.40	3702.73
429.59	3789.33
429.78	3597.40
429.97	3630.17
430.16	3794.01
430.34	3894.65
430.53	3882.95
430.72	3871.25
430.91	3882.95
431.10	3887.63
431.28	3962.53
431.47	3889.97
431.66	4112.32
431.85	4011.68
432.03	3971.89
432.22	4053.81
432.41	4102.96
432.60	4002.32
432.79	4025.72
432.97	4271.48
433.16	4145.09
433.35	4145.09
433.54	4236.37
433.72	4250.41
433.91	4301.90
434.10	4091.26
434.28	3967.21
434.47	4117.00
434.66	4297.22
434.85	4156.79
435.03	4299.56
435.22	4381.48
435.41	4456.38
435.59	4329.99
435.78	4318.29
435.97	4301.90
436.16	4311.27
436.34	4397.87
436.53	4360.42
436.72	4589.79
436.90	4355.74
437.09	4521.92
437.28	4402.55
437.46	4311.27
437.65	4463.40
437.84	4514.89
438.02	4620.22
438.21	4631.92
438.40	4500.85
438.58	4706.82
438.77	4727.88
438.96	4758.31
439.14	4800.44
439.33	4884.70
439.52	4952.57
439.70	4966.62
439.89	5109.39
440.08	5160.88
440.26	5123.43
440.45	4887.04
440.63	4997.04
440.82	5254.50
441.01	5151.52
441.19	5181.95
441.38	5172.58
441.57	5231.10
441.75	5210.03
441.94	5493.24
442.12	5476.85
442.31	5317.70
442.50	5490.90
442.68	5411.32
442.87	5474.51
443.05	5469.83
443.24	5586.86
443.43	5544.73
443.61	5476.85
443.80	5614.95
443.98	5469.83
444.17	5341.10
444.35	5570.48
444.54	5633.67
444.73	5664.10
444.91	5577.50
445.10	5724.95
445.28	5778.78
445.47	5544.73
445.65	5785.80
445.84	5769.42
446.02	5731.97
446.21	5748.36
446.39	5586.86
446.58	5743.67
446.77	5923.90
446.95	5563.45
447.14	5734.31
447.32	5977.73
447.51	5715.59
447.69	5877.09
447.88	5687.50
448.06	5865.38
448.25	5668.78
448.43	5776.44
448.62	5783.46
448.80	5755.38
448.99	5900.49
449.17	5858.36
449.36	5867.72
449.54	5951.98
449.73	6036.24
449.91	6260.93
450.10	6040.92
450.28	6073.69
450.46	5856.02
450.65	6211.78
450.83	6157.95
451.02	6050.28
451.20	6146.25
451.39	6263.27
451.57	6314.77
451.76	6267.95
451.94	6263.27
452.13	6230.51
452.31	6190.72
452.49	6361.58
452.68	6349.87
452.86	6389.66
453.05	6380.30
453.23	6415.41
453.42	6347.53
453.60	6326.47
453.78	6473.92
453.97	6347.53
454.15	6345.19
454.34	6511.37
454.52	6516.05
454.70	6612.01
454.89	6441.15
455.07	6656.48
455.26	6684.57
455.44	6654.14
455.62	6707.98
455.81	6651.80
455.99	6750.10
456.17	6663.51
456.36	6616.69
456.54	6722.02
456.73	6869.47
456.91	7030.97
457.09	7199.49
457.28	7211.19
457.46	6916.28
457.64	7098.84
457.83	6956.07
458.01	7042.67
458.19	7243.96
458.38	7103.53
458.56	7194.81
458.74	7082.46
458.93	7281.41
459.11	7389.07
459.29	7169.06
459.48	7452.27
459.66	7250.98
459.84	7176.08
460.03	7403.11
460.21	7419.50
460.39	7470.99
460.57	7358.64
460.76	7487.37
460.94	7524.82
461.12	7510.78
461.31	7606.74
461.49	7620.78
461.67	7379.71
461.85	7936.76
462.04	7611.42
462.22	8016.33
462.40	7754.19
462.59	7648.87
462.77	7676.96
462.95	7779.94
463.13	7620.78
463.32	7698.02
463.50	7779.94
463.68	7889.95
463.86	7964.84
464.05	7847.82
464.23	8049.10
464.41	8098.25
464.59	8107.62
464.78	8032.72
464.96	7943.78
465.14	7796.32
465.32	8140.38
465.50	8112.30
465.69	8018.68
465.87	8163.79
466.05	8126.34
466.23	8203.58
466.41	8219.96
466.60	8241.03
466.78	8173.15
466.96	8159.11
467.14	8124.00
467.32	8105.28
467.51	8463.38
467.69	7997.61
467.87	8294.86
468.05	8446.99
468.23	8280.82
468.41	8407.20
468.60	8386.14
468.78	8557.00
468.96	8315.92
469.14	8542.96
469.32	8645.94
469.50	8489.12
469.69	8741.90
469.87	8788.71
470.05	8879.99
470.23	8795.73
470.41	8861.27
470.59	8777.01
470.77	8882.33
470.95	8971.27
471.14	8926.80
471.32	8931.48
471.50	9137.45
471.68	9111.71
471.86	9053.19
472.04	9207.67
472.22	9474.49
472.40	8973.61
472.58	8940.85
472.77	9238.09
472.95	9415.98
473.13	9561.09
473.31	9455.76
473.49	9404.27
473.67	9476.83
473.85	9577.47
474.03	9596.20
474.21	9561.09
474.39	9809.19
474.57	9900.47
474.75	9776.42
474.93	10148.56
475.12	9980.04
475.30	10008.13
475.48	10036.22
475.66	10342.83
475.84	10078.35
476.02	10328.78
476.20	10155.58
476.38	10375.59
476.56	10492.62
476.74	10841.36
476.92	10534.75
477.10	10473.90
477.28	10691.57
477.46	10565.18
477.64	10724.33
477.82	10944.34
478.00	11119.89
478.18	11049.67
478.36	11358.62
478.54	11426.50
478.72	11257.98
478.90	11499.05
479.08	11566.93
479.26	11730.76
479.44	11592.67
479.62	11854.81
479.80	11700.34
479.98	11936.73
480.16	12329.94
480.34	11941.41
480.52	12217.60
480.70	12264.41
480.88	12400.16
481.06	12425.90
481.24	12475.06
481.41	12400.16
481.59	12858.90
481.77	13015.72
481.95	12884.65
482.13	13029.76
482.31	12865.92
482.49	13207.64
482.67	13165.51
482.85	13401.91
483.03	13701.50
483.21	13745.97
483.39	13816.18
483.57	13818.52
483.74	14024.49
483.92	14052.58
484.10	13982.36
484.28	14427.06
484.46	14799.21
484.64	14768.78
484.82	14565.15
485.00	14534.73
485.18	14853.04
485.35	15101.14
485.53	14963.04
485.71	15276.68
485.89	15215.82
486.07	15482.64
486.25	15164.33
486.43	15578.61
486.61	15449.88
486.78	15793.94
486.96	15803.30
487.14	16184.80
487.32	15927.35
487.50	16365.03
487.68	16451.63
487.85	16262.04
488.03	16725.47
488.21	17291.88
488.39	16709.08
488.57	16947.82
488.75	17256.77
488.92	17624.23
489.10	17771.69
489.28	17474.44
489.46	18064.25
489.64	17500.19
489.81	18216.39
489.99	18249.16
490.17	18185.96
490.35	18361.50
490.53	18597.90
490.70	18813.23
490.88	18766.42
491.06	18752.37
491.24	18719.60
491.41	19236.86
491.59	19257.93
491.77	19398.36
491.95	19190.05
492.13	19679.22
492.30	19714.33
492.48	19641.78
492.66	19704.97
492.84	19917.96
493.01	20079.46
493.19	20123.93
493.37	20311.17
493.54	20243.29
493.72	20608.42
493.90	20620.12
494.08	20854.17
494.25	21048.44
494.43	21212.28
494.61	21062.48
494.79	21429.94
494.96	21188.87
495.14	21233.34
495.32	21816.13
495.49	21624.21
495.67	21750.60
495.85	22139.13
496.02	22188.28
496.20	22363.82
496.38	22539.36
496.55	22618.94
496.73	22932.57
496.91	22890.44
497.09	22473.82
497.26	22970.02
497.44	23531.75
497.62	23178.33
497.79	23342.16
497.97	23262.58
498.14	23599.62
498.32	24006.87
498.50	23861.76
498.67	24156.67
498.85	23889.85
499.03	24252.63
499.20	23957.72
499.38	23887.51
499.56	24149.65
499.73	24606.05
499.91	24559.24
500.08	24844.79
500.26	24725.42
500.44	24636.48
500.61	24863.51
500.79	24994.58
500.97	24915.00
501.14	25427.58
501.32	25385.45
501.49	25460.35
501.67	25427.58
501.84	25886.32
502.02	25523.54
502.20	25603.12
502.37	25741.21
502.55	25832.49
502.72	26106.34
502.90	25869.94
503.07	25427.58
503.25	26352.09
503.43	26148.46
503.60	26396.56
503.78	26525.29
503.95	26157.83
504.13	26831.90
504.30	26988.72
504.48	26382.52
504.65	27213.41
504.83	27292.99
505.01	27400.65
505.18	27175.96
505.36	27756.41
505.53	27300.01
505.71	27316.39
505.88	27515.34
506.06	27395.97
506.23	27461.51
506.41	27800.88
506.58	27426.40
506.76	28030.26
506.93	27679.18
507.11	27995.15
507.28	28063.02
507.46	28238.56
507.63	28187.07
507.81	28418.78
507.98	28561.56
508.16	28418.78
508.33	28662.20
508.50	28734.76
508.68	28765.18
508.85	28931.36
509.03	28938.38
509.20	28999.24
509.38	29380.74
509.55	29387.77
509.73	29017.96
509.90	29542.24
510.08	29673.31
510.25	29553.94
510.42	29556.28
510.60	29656.93
510.77	29675.65
510.95	30225.68
511.12	29963.54
511.30	30031.41
511.47	29956.52
511.64	30487.82
511.82	30438.67
511.99	30672.72
512.17	30328.66
512.34	30209.29
512.51	30703.15
512.69	30960.61
512.86	30780.39
513.04	31335.09
513.21	30918.48
513.38	31330.41
513.56	31473.18
513.73	31391.26
513.90	31082.31
514.08	31330.41
514.25	31431.05
514.43	31545.74
514.60	31484.89
514.77	31847.67
514.95	31512.97
515.12	31501.27
515.29	31648.72
515.47	32259.60
515.64	31992.78
515.81	31620.64
515.99	32474.93
516.16	32591.96
516.33	32058.32
516.51	32268.97
516.68	32084.06
516.85	32161.30
517.03	32606.00
517.20	32687.92
517.37	32882.19
517.54	33235.61
517.72	33256.67
517.89	33233.27
518.06	33053.05
518.24	32671.54
518.41	33010.92
518.58	33392.42
518.75	33216.88
518.93	33078.79
519.10	33233.27
519.27	33596.05
519.45	33156.03
519.62	33661.58
519.79	33989.26
519.96	33640.52
520.14	33727.12
520.31	34139.05
520.48	33635.84
520.65	34218.63
520.83	34354.38
521.00	34595.46
521.17	34628.23
521.34	34450.35
521.52	34534.60
521.69	34714.83
521.86	34930.16
522.03	34724.19
522.20	35152.51
522.38	34953.56
522.55	35381.88
522.72	34639.93
522.89	34937.18
523.07	35718.92
523.24	35407.62
523.41	35538.69
523.58	35232.08
523.75	35599.55
523.92	35592.53
524.10	35552.74
524.27	35779.77
524.44	35775.09
524.61	36027.87
524.78	36018.50
524.96	36048.93
525.13	36231.49
525.30	36257.24
525.47	36180.00
525.64	36240.86
525.81	36570.87
525.98	36282.98
526.16	36488.95
526.33	36460.87
526.50	36762.79
526.67	36650.45
526.84	36783.86
527.01	36814.29
527.18	36598.96
527.36	37130.26
527.53	36538.10
527.70	37186.43
527.87	36996.85
528.04	37013.23
528.21	37003.87
528.38	36928.97
528.55	37785.61
528.72	36690.24
528.89	37734.12
529.07	37654.54
529.24	37305.80
529.41	37776.25
529.58	37453.25
529.75	37532.83
529.92	37820.72
530.09	37666.24
530.26	37565.60
530.43	37970.51
530.60	37399.42
530.77	38066.47
530.94	37874.55
531.11	38157.75
531.28	38164.78
531.46	38022.00
531.63	38031.36
531.80	37900.29
531.97	38190.52
532.14	38218.61
532.31	38256.06
532.48	38548.62
532.65	38637.56
532.82	38827.15
532.99	38639.90
533.16	38689.06
533.33	38967.58
533.50	39009.71
533.67	38902.04
533.84	38909.07
534.01	38677.35
534.18	39159.50
534.35	39400.58
534.52	39344.41
534.69	39377.17
534.86	39079.92
535.03	38888.00
535.20	39533.99
535.37	39775.06
535.54	39435.69
535.71	40011.46
535.88	39395.90
536.05	39491.86
536.22	39917.84
536.38	39416.96
536.55	39531.65
536.72	39866.34
536.89	39812.51
537.06	39618.25
537.23	40201.04
537.40	39688.46
537.57	39903.79
537.74	40023.16
537.91	40416.37
538.08	40245.51
538.25	40006.78
538.42	40563.82
538.59	40350.84
538.75	40332.11
538.92	40378.92
539.09	40397.65
539.26	40549.78
539.43	40271.26
539.60	41123.21
539.77	40491.27
539.94	41242.58
540.11	40751.07
540.28	41050.66
540.44	40779.15
540.61	41109.17
540.78	40928.95
540.95	40994.48
541.12	41289.39
541.29	41141.94
541.46	41067.04
541.62	40814.26
541.79	41254.28
541.96	40903.20
542.13	40664.47
542.30	41383.01
542.47	41202.79
542.63	41425.14
542.80	41535.15
542.97	41603.02
543.14	41823.03
543.31	41752.82
543.48	42096.88
543.64	41933.04
543.81	42031.34
543.98	42181.13
544.15	41979.85
544.32	42445.62
544.48	42508.81
544.65	42272.42
544.82	42302.84
544.99	42251.35
545.16	42291.14
545.32	42487.74
545.49	42572.00
545.66	42745.20
545.83	42555.62
546.00	42651.58
546.16	42974.58
546.33	42665.63
546.50	42604.77
546.67	42953.51
546.83	42454.98
547.00	42754.57
547.17	42630.52
547.34	42745.20
547.50	42955.85
547.67	43330.34
547.84	42890.32
548.00	43203.95
548.17	43372.47
548.34	43489.49
548.51	43173.52
548.67	43208.63
548.84	43494.18
549.01	43388.85
549.18	43480.13
549.34	43536.30
549.51	43463.75
549.68	44039.52
549.84	43416.94
550.01	43751.63
550.18	43608.86
550.34	43686.10
550.51	43985.69
550.68	44016.11
550.84	43508.22
551.01	43683.76
551.18	43653.33
551.34	43807.81
551.51	44083.99
551.68	43742.27
551.84	44011.43
552.01	44086.33
552.18	43959.94
552.34	44086.33
552.51	43929.51
552.68	43995.05
552.84	44292.30
553.01	44292.30
553.18	44126.12
553.34	44362.51
553.51	44041.86
553.67	44521.67
553.84	44388.26
554.01	44491.24
554.17	44219.74
554.34	44863.39
554.51	44587.21
554.67	44678.49
554.84	44818.92
555.00	44531.03
555.17	44690.19
555.33	45078.72
555.50	44847.00
555.67	44594.23
555.83	44467.84
556.00	45331.50
556.16	45029.57
556.33	45151.27
556.50	45050.63
556.66	45237.87
556.83	44339.11
556.99	45052.97
557.16	45263.62
557.32	45652.15
557.49	45287.03
557.65	45029.57
557.82	45375.97
557.98	45390.01
558.15	44465.50
558.32	45420.44
558.48	45088.08
558.65	45022.54
558.81	45261.28
558.98	45188.72
559.14	44961.69
559.31	45357.24
559.47	45343.20
559.64	45392.35
559.80	45392.35
559.97	45399.37
560.13	45422.78
560.30	45275.32
560.46	45949.40
560.63	45387.67
560.79	45614.70
560.96	45727.05
561.12	45818.33
561.29	45830.03
561.45	45785.56
561.61	45635.77
561.78	45603.00
561.94	45640.45
562.11	45823.01
562.27	45649.81
562.44	45523.42
562.60	46087.49
562.77	46120.26
562.93	45853.44
563.10	46424.53
563.26	45839.39
563.42	46454.95
563.59	46073.45
563.75	45970.46
563.92	46014.93
564.08	45902.59
564.24	46150.68
564.41	46270.05
564.57	45921.31
564.74	46440.91
564.90	45911.95
565.07	45890.88
565.23	46295.80
565.39	45619.38
565.56	46593.04
565.72	46103.87
565.88	46457.29
566.05	46326.22
566.21	46082.81
566.38	46660.92
566.54	46564.96
566.70	46632.83
566.87	46131.96
567.03	46429.21
567.19	46745.18
567.36	46747.52
567.52	46256.01
567.68	46691.35
567.85	46967.53
568.01	46492.40
568.17	46272.39
568.34	46443.25
568.50	46366.01
568.66	46263.03
568.83	46625.81
568.99	46700.71
569.15	46525.17
569.32	46349.63
569.48	46445.59
569.64	46930.08
569.81	46466.66
569.97	46759.22
570.13	46689.01
570.30	46471.34
570.46	46557.94
570.62	46780.29
570.78	46511.13
570.95	46546.23
571.11	47004.98
571.27	46244.30
571.43	47030.72
571.60	46651.56
571.76	46363.67
571.92	46726.46
572.09	46377.72
572.25	46663.26
572.41	46976.89
572.57	46801.35
572.74	47232.01
572.90	46820.08
573.06	47344.36
573.22	47079.88
573.38	47318.61
573.55	46902.00
573.71	47100.94
573.87	47175.84
574.03	47009.66
574.20	47515.22
574.36	47194.56
574.52	47028.38
574.68	47285.84
574.84	47028.38
575.01	47138.39
575.17	47232.01
575.33	47103.28
575.49	46962.85
575.65	47033.07
575.82	47309.25
575.98	46873.91
576.14	47423.93
576.30	47086.90
576.46	47313.93
576.62	47089.24
576.79	47274.14
576.95	46534.53
577.11	46794.33
577.27	46953.49
577.43	46864.55
577.59	47215.63
577.75	47103.28
577.92	46679.64
578.08	46997.96
578.24	46941.78
578.40	47461.38
578.56	47035.41
578.72	46986.25
578.88	47519.90
579.04	47463.72
579.21	47145.41
579.37	47498.83
579.53	47529.26
579.69	47260.10
579.85	47016.68
580.01	47283.50
580.17	46934.76
580.33	47044.77
580.49	47304.57
580.65	47145.41
580.82	47114.98
580.98	47316.27
581.14	46909.02
581.30	47334.99
581.46	46880.93
581.62	47002.64
581.78	46955.83
581.94	47414.57
582.10	47105.62
582.26	47320.95
582.42	47065.83
582.58	47384.15
582.74	47547.98
582.90	47112.64
583.06	47730.54
583.22	47491.81
583.38	47533.94
583.54	47459.04
583.70	47398.19
583.86	47161.79
584.02	47171.16
584.18	47622.88
584.34	47454.36
584.50	47517.56
584.66	47723.52
584.82	47409.89
584.98	47899.06
585.14	47414.57
585.30	47019.02
585.46	47880.34
585.62	47395.85
585.78	47676.71
585.94	47040.09
586.10	47356.06
586.26	47370.10
586.42	47669.69
586.58	47636.92
586.74	47529.26
586.90	47241.37
587.06	47679.05
587.22	47419.25
587.38	47449.68
587.54	47964.60
587.70	48004.39
587.86	47634.58
588.02	46993.28
588.18	47583.09
588.34	47477.77
588.49	47849.91
588.65	47421.59
588.81	47351.38
588.97	47503.51
589.13	47555.00
589.29	47285.84
589.45	47676.71
589.61	48039.50
589.77	47798.42
589.93	47529.26
590.08	48318.02
