SpectraSuite Data File
++++++++++++++++++++++++++++++++++++
Date: Fri Oct 25 11:26:38 EDT 2013
User: price-jones
Dark Spectrum Present: No
Reference Spectrum Present: No
Number of Sampled Component Spectra: 1
Spectrometers: USB2+H05261
Integration Time (usec): 100000 (USB2+H05261)
Spectra Averaged: 1 (USB2+H05261)
Boxcar Smoothing: 0 (USB2+H05261)
Correct for Electrical Dark: No (USB2+H05261)
Strobe/Lamp Enabled: No (USB2+H05261)
Correct for Detector Non-linearity: No (USB2+H05261)
Correct for Stray Light: No (USB2+H05261)
Number of Pixels in Processed Spectrum: 2048
>>>>>Begin Processed Spectral Data<<<<<
365.73	250.44
365.92	250.44
366.12	250.44
366.32	131.07
366.52	243.42
366.72	175.54
366.91	173.20
367.11	124.05
367.31	173.20
367.51	152.13
367.70	98.30
367.90	98.30
368.10	187.24
368.30	173.20
368.49	135.75
368.69	243.42
368.89	215.33
369.09	170.86
369.28	145.11
369.48	184.90
369.68	203.63
369.87	201.29
370.07	163.84
370.27	262.14
370.47	299.59
370.66	564.07
370.86	603.86
371.06	706.84
371.25	678.76
371.45	674.07
371.65	678.76
371.84	610.88
372.04	674.07
372.24	760.67
372.44	741.95
372.63	734.93
372.83	744.29
373.03	692.80
373.22	770.04
373.42	826.21
373.62	798.12
373.81	844.93
374.01	809.83
374.21	835.57
374.40	795.78
374.60	849.61
374.79	793.44
374.99	884.72
375.19	807.48
375.38	763.01
375.58	814.51
375.78	849.61
375.97	924.51
376.17	898.77
376.37	898.77
376.56	873.02
376.76	828.55
376.95	858.98
377.15	835.57
377.35	901.11
377.54	915.15
377.74	959.62
377.93	929.19
378.13	983.02
378.33	964.30
378.52	896.43
378.72	992.39
378.91	968.98
379.11	854.30
379.31	938.55
379.50	964.30
379.70	997.07
379.89	1011.11
380.09	1048.56
380.28	966.64
380.48	945.58
380.68	985.37
380.87	1008.77
381.07	1067.28
381.26	1100.05
381.46	999.41
381.65	1020.47
381.85	1008.77
382.04	1013.45
382.24	1034.52
382.43	1071.97
382.63	1027.50
382.83	997.07
383.02	966.64
383.22	1104.73
383.41	1128.14
383.61	1088.35
383.80	1170.27
384.00	1032.18
384.19	1116.44
384.39	1167.93
384.58	1146.86
384.78	1135.16
384.97	1135.16
385.17	1050.90
385.36	1121.12
385.56	1125.80
385.75	1125.80
385.95	1205.38
386.14	1231.12
386.34	1263.89
386.53	1266.23
386.72	1233.46
386.92	1306.02
387.11	1266.23
387.31	1277.93
387.50	1282.61
387.70	1273.25
387.89	1252.19
388.09	1371.55
388.28	1329.42
388.48	1294.32
388.67	1315.38
388.86	1359.85
389.06	1322.40
389.25	1338.79
389.45	1310.70
389.64	1331.76
389.84	1380.92
390.03	1327.08
390.22	1348.15
390.42	1413.68
390.61	1399.64
390.81	1437.09
391.00	1460.49
391.19	1472.20
391.39	1427.73
391.58	1502.62
391.78	1448.79
391.97	1530.71
392.16	1486.24
392.36	1474.54
392.55	1610.29
392.75	1544.75
392.94	1523.69
393.13	1519.01
393.33	1514.33
393.52	1572.84
393.71	1605.61
393.91	1619.65
394.10	1544.75
394.29	1664.12
394.49	1519.01
394.68	1675.82
394.88	1722.63
395.07	1671.14
395.26	1621.99
395.46	1706.25
395.65	1708.59
395.84	1788.17
396.04	1760.08
396.23	1708.59
396.42	1706.25
396.62	1680.50
396.81	1785.83
397.00	1809.23
397.19	1757.74
397.39	1816.26
397.58	1823.28
397.77	1874.77
397.97	1891.15
398.16	1842.00
398.35	1895.83
398.55	1837.32
398.74	1874.77
398.93	1919.24
399.12	1891.15
399.32	1893.49
399.51	1966.05
399.70	2038.61
399.90	2040.95
400.09	1895.83
400.28	2092.44
400.47	1998.82
400.67	2176.70
400.86	2062.01
401.05	2052.65
401.24	2069.03
401.44	2167.34
401.63	2092.44
401.82	2183.72
402.01	2207.13
402.21	2230.53
402.40	2181.38
402.59	2174.36
402.78	2139.25
402.97	2312.45
403.17	2214.15
403.36	2300.75
403.55	2279.68
403.74	2406.07
403.93	2317.13
404.13	2417.77
404.32	2265.64
404.51	2335.85
404.70	2385.01
404.89	2448.20
405.09	2513.74
405.28	2483.31
405.47	2495.01
405.66	2499.69
405.85	2506.71
406.05	2523.10
406.24	2530.12
406.43	2567.57
406.62	2623.74
406.81	2796.94
407.00	2569.91
407.20	2682.25
407.39	2649.49
407.58	2682.25
407.77	2712.68
407.96	2731.41
408.15	2729.06
408.34	2757.15
408.54	2792.26
408.73	2871.84
408.92	2885.88
409.11	2850.77
409.30	2761.83
409.49	2843.75
409.68	2951.42
409.87	2944.39
410.07	2972.48
410.26	2977.16
410.45	2998.23
410.64	2979.50
410.83	3115.25
411.02	3115.25
411.21	3206.53
411.40	3169.09
411.59	3206.53
411.78	3325.90
411.98	3082.49
412.17	3370.37
412.36	3297.81
412.55	3379.73
412.74	3445.27
412.93	3506.12
413.12	3410.16
413.31	3557.61
413.50	3482.72
413.69	3541.23
413.88	3662.94
414.07	3569.32
414.26	3655.92
414.45	3684.00
414.64	3779.97
414.83	3765.92
415.02	3789.33
415.22	3765.92
415.41	3831.46
415.60	3899.33
415.79	4016.36
415.98	3896.99
416.17	4028.06
416.36	3892.31
416.55	4063.17
416.74	4109.98
416.93	4086.58
417.12	3992.95
417.31	4128.70
417.50	4091.26
417.69	4297.22
417.88	4292.54
418.07	4344.03
418.26	4325.31
418.45	4184.88
418.64	4538.30
418.83	4470.42
419.02	4397.87
419.21	4505.53
419.39	4512.55
419.58	4550.00
419.77	4575.75
419.96	4587.45
420.15	4613.20
420.34	4634.26
420.53	4538.30
420.72	4727.88
420.91	4727.88
421.10	4685.75
421.29	4795.76
421.48	4760.65
421.67	4877.68
421.86	4725.54
422.05	4732.56
422.24	4898.74
422.43	4858.95
422.61	4823.84
422.80	5053.22
422.99	4856.61
423.18	4978.32
423.37	4961.94
423.56	4975.98
423.75	4919.81
423.94	4816.82
424.13	4533.62
424.32	4823.84
424.50	5027.47
424.69	5088.32
424.88	5060.24
425.07	5060.24
425.26	4952.57
425.45	4905.76
425.64	4966.62
425.83	4903.42
426.01	5095.35
426.20	4952.57
426.39	4882.36
426.58	5039.17
426.77	5078.96
426.96	5022.79
427.15	5093.01
427.33	5242.80
427.52	5221.74
427.71	5362.17
427.90	5254.50
428.09	5430.04
428.28	5502.60
428.46	5371.53
428.65	5392.59
428.84	5568.13
429.03	5554.09
429.22	5348.12
429.40	5418.34
429.59	5474.51
429.78	5366.85
429.97	5195.99
430.16	5542.39
430.34	5685.16
430.53	5490.90
430.72	5579.84
430.91	5561.11
431.10	5774.10
431.28	5879.43
431.47	5771.76
431.66	6047.94
431.85	5851.34
432.03	6017.52
432.22	6183.70
432.41	5973.05
432.60	5961.34
432.79	5935.60
432.97	5963.68
433.16	6083.05
433.35	5975.39
433.54	6097.10
433.72	6064.33
433.91	6106.46
434.10	6202.42
434.28	6179.01
434.47	6235.19
434.66	6246.89
434.85	6415.41
435.03	6328.81
435.22	6457.54
435.41	6377.96
435.59	6427.11
435.78	6464.56
435.97	6483.28
436.16	6553.50
436.34	6555.84
436.53	6590.95
436.72	6635.42
436.90	6614.35
437.09	6394.34
437.28	6480.94
437.46	6614.35
437.65	6656.48
437.84	6635.42
438.02	6647.12
438.21	6785.21
438.40	6516.05
438.58	6946.71
438.77	6972.46
438.96	7082.46
439.14	7089.48
439.33	7279.07
439.52	7246.30
439.70	7091.82
439.89	7581.00
440.08	7466.31
440.26	7396.09
440.45	7466.31
440.63	7578.65
440.82	7585.68
441.01	7438.22
441.19	7676.96
441.38	7723.77
441.57	7751.85
441.75	7892.29
441.94	8028.04
442.12	8053.78
442.31	8159.11
442.50	8149.75
442.68	7882.92
442.87	7939.10
443.05	7964.84
443.24	8170.81
443.43	8252.73
443.61	8077.19
443.80	8559.34
443.98	8189.53
444.17	7845.48
444.35	8245.71
444.54	8306.56
444.73	8299.54
444.91	8320.60
445.10	8266.77
445.28	8301.88
445.47	8315.92
445.65	8383.80
445.84	8278.47
446.02	8461.04
446.21	8367.42
446.39	8290.18
446.58	8648.28
446.77	8411.89
446.95	8203.58
447.14	8400.18
447.32	8697.43
447.51	8423.59
447.69	8203.58
447.88	8407.20
448.06	8772.33
448.25	8454.02
448.43	8578.06
448.62	8624.87
448.80	8526.57
448.99	8844.88
449.17	8793.39
449.36	8723.18
449.54	8877.65
449.73	8966.59
449.91	8933.82
450.10	9011.06
450.28	9247.46
450.46	9083.62
450.65	9046.17
450.83	9142.13
451.02	9097.66
451.20	9191.28
451.39	9125.75
451.57	9128.09
451.76	9191.28
451.94	9167.88
452.13	9280.22
452.31	9219.37
452.49	9254.48
452.68	9423.00
452.86	9537.68
453.05	9444.06
453.23	9619.60
453.42	9362.14
453.60	9280.22
453.78	9460.45
453.97	9493.21
454.15	9462.79
454.34	9638.33
454.52	9769.40
454.70	9820.89
454.89	9788.12
455.07	9991.75
455.26	9884.08
455.44	9848.97
455.62	9954.30
455.81	9895.78
455.99	10059.62
456.17	10303.04
456.36	10115.80
456.54	10438.79
456.73	10408.36
456.91	10600.29
457.09	10340.49
457.28	10607.31
457.46	10408.36
457.64	10417.72
457.83	10623.69
458.01	10607.31
458.19	10822.64
458.38	10672.84
458.56	10714.97
458.74	10792.21
458.93	10707.95
459.11	10832.00
459.29	10747.74
459.48	10726.68
459.66	10834.34
459.84	10892.85
460.03	10916.26
460.21	11014.56
460.39	11108.18
460.57	10916.26
460.76	11005.20
460.94	11370.32
461.12	11318.83
461.31	11225.21
461.49	11239.25
461.67	11197.12
461.85	11501.39
462.04	11262.66
462.22	11541.18
462.40	11602.04
462.59	11517.78
462.77	11477.99
462.95	11524.80
463.13	11658.21
463.32	11693.32
463.50	11737.79
463.68	11672.25
463.86	11873.54
464.05	11693.32
464.23	11637.14
464.41	12006.95
464.59	11974.18
464.78	12063.12
464.96	11808.00
465.14	11946.09
465.32	12039.72
465.50	12088.87
465.69	12133.34
465.87	12004.61
466.05	12233.98
466.23	12215.26
466.41	12098.23
466.60	12348.67
466.78	12184.83
466.96	12468.03
467.14	12114.61
467.32	12283.13
467.51	12194.19
467.69	12372.07
467.87	12456.33
468.05	12620.17
468.23	12512.50
468.41	12776.98
468.60	12915.08
468.78	12868.27
468.96	12610.81
469.14	12765.28
469.32	12915.08
469.50	12776.98
469.69	13032.10
469.87	13071.89
470.05	13069.55
470.23	13020.40
470.41	13130.41
470.59	13296.58
470.77	13371.48
470.95	13394.89
471.14	13671.07
471.32	13427.65
471.50	13757.67
471.68	13579.79
471.86	13832.57
472.04	13703.84
472.22	14171.94
472.40	13827.88
472.58	13846.61
472.77	13998.74
472.95	14193.01
473.13	14635.37
473.31	14153.22
473.49	14010.45
473.67	14155.56
473.85	14319.40
474.03	14544.09
474.21	14530.05
474.39	14677.50
474.57	14771.12
474.75	14862.40
474.93	15026.24
475.12	15009.86
475.30	15110.50
475.48	15056.67
475.66	15360.94
475.84	15204.12
476.02	15590.31
476.20	15548.18
476.38	15620.74
476.56	16180.12
476.74	16184.80
476.92	15978.84
477.10	15857.13
477.28	16116.93
477.46	16432.90
477.64	16496.10
477.82	16704.40
478.00	16968.88
478.18	16915.05
478.36	17064.85
478.54	17191.23
478.72	17219.32
478.90	17404.22
479.08	17497.84
479.26	17654.66
479.44	17638.28
479.62	17846.58
479.80	18171.92
479.98	18340.44
480.16	18333.42
480.34	18267.88
480.52	18661.09
480.70	18593.22
480.88	18293.63
481.06	18792.16
481.24	18644.71
481.41	19267.29
481.59	19461.55
481.77	19630.07
481.95	19693.27
482.13	19955.41
482.31	19814.98
482.49	20299.47
482.67	19915.62
482.85	20922.05
483.03	20755.87
483.21	20800.34
483.39	21312.92
483.57	20744.17
483.74	21261.43
483.92	21621.87
484.10	21322.28
484.28	21692.08
484.46	21715.49
484.64	22377.86
484.82	22190.62
485.00	22307.65
485.18	22761.71
485.35	23124.49
485.53	22918.53
485.71	23098.75
485.89	23859.42
486.07	23407.70
486.25	23396.00
486.43	23917.93
486.61	24058.37
486.78	24189.44
486.96	24198.80
487.14	24470.30
487.32	24599.03
487.50	25081.18
487.68	25057.78
487.85	25221.61
488.03	25614.82
488.21	26059.52
488.39	25898.03
488.57	26096.97
488.75	26391.88
488.92	26490.18
489.10	26906.80
489.28	26724.24
489.46	27122.13
489.64	27035.53
489.81	27480.23
489.99	27463.85
490.17	27660.45
490.35	28299.42
490.53	27793.86
490.70	28390.70
490.88	28442.19
491.06	28793.27
491.24	29015.62
491.41	28994.56
491.59	29268.40
491.77	29465.00
491.95	29860.55
492.13	29722.46
492.30	30110.99
492.48	29872.26
492.66	30403.56
492.84	30176.53
493.01	30787.41
493.19	30625.91
493.37	30897.41
493.54	31522.34
493.72	31412.33
493.90	31337.43
494.08	31952.99
494.25	32093.43
494.43	31812.56
494.61	32577.92
494.79	32584.94
494.96	32877.51
495.14	32540.47
495.32	33202.84
495.49	33013.26
495.67	32903.25
495.85	33645.20
496.02	34162.46
496.20	34120.33
496.38	34417.58
496.55	34113.31
496.73	34981.65
496.91	34703.12
497.09	34911.43
497.26	34841.21
497.44	35115.06
497.62	35276.55
497.79	36091.06
497.97	35199.32
498.14	36210.43
498.32	36376.61
498.50	36004.46
498.67	36669.17
498.85	36088.72
499.03	36746.41
499.20	36730.03
499.38	36598.96
499.56	36989.83
499.73	37315.16
499.91	37785.61
500.08	37914.34
500.26	37640.50
500.44	38085.20
500.61	37991.58
500.79	38066.47
500.97	38284.14
501.14	38728.84
501.32	38424.57
501.49	38698.42
501.67	38892.68
501.84	39199.29
502.02	38995.67
502.20	39274.19
502.37	39281.21
502.55	39281.21
502.72	39831.24
502.90	39405.26
503.07	39639.31
503.25	40044.23
503.43	40002.10
503.60	39962.31
503.78	40177.64
503.95	40133.17
504.13	40765.11
504.30	40847.03
504.48	40449.14
504.65	40854.05
504.83	41085.76
505.01	41486.00
505.18	41336.20
505.36	41851.12
505.53	41462.59
505.71	41329.18
505.88	41553.87
506.06	41434.50
506.23	42031.34
506.41	41904.95
506.58	41986.87
506.76	42220.92
506.93	42834.14
507.11	42555.62
507.28	42754.57
507.46	43110.33
507.63	43119.69
507.81	43232.04
507.98	43093.94
508.16	43498.86
508.33	43892.07
508.50	43564.39
508.68	44011.43
508.85	43665.03
509.03	44250.17
509.20	44201.02
509.38	44458.48
509.55	44215.06
509.73	44341.45
509.90	44603.59
510.08	44594.23
510.25	44982.76
510.42	44828.28
510.60	45104.46
510.77	45565.55
510.95	45305.75
511.12	45270.64
511.30	45198.09
511.47	45504.70
511.64	45811.31
511.82	45741.09
511.99	45769.18
512.17	45792.58
512.34	46113.23
512.51	46314.52
512.69	46412.82
512.86	46319.20
513.04	46756.88
513.21	46632.83
513.38	46813.05
513.56	47157.11
513.73	46761.56
513.90	47339.68
514.08	46646.88
514.25	47489.47
514.43	47320.95
514.60	47442.66
514.77	47306.91
514.95	47653.31
515.12	47349.04
515.29	47484.79
515.47	47800.76
515.64	47983.32
515.81	48210.35
515.99	48020.77
516.16	48617.61
516.33	48327.38
516.51	48758.04
516.68	48500.58
516.85	48772.08
517.03	48858.68
517.20	49024.86
517.37	49038.90
517.54	48994.43
517.72	49401.69
517.89	49373.60
518.06	49097.42
518.24	49242.53
518.41	49488.29
518.58	49333.81
518.75	49448.50
518.93	49518.71
519.10	49769.15
519.27	49815.96
519.45	49734.04
519.62	49680.21
519.79	49979.80
519.96	50031.29
520.14	50356.63
520.31	50073.42
520.48	50426.84
520.65	50199.81
520.83	50824.73
521.00	50665.58
521.17	50485.36
521.34	50791.97
521.52	50859.84
521.69	50637.49
521.86	50791.97
522.03	51379.44
522.20	51531.57
522.38	51763.29
522.55	51402.85
522.72	51313.90
522.89	51391.14
523.07	51674.35
523.24	51604.13
523.41	51721.16
523.58	51772.65
523.75	51856.91
523.92	51847.55
524.10	51917.76
524.27	51854.57
524.44	51856.91
524.61	52105.01
524.78	51985.64
524.96	52357.78
525.13	52533.32
525.30	52308.63
525.47	52875.04
525.64	52341.40
525.81	52729.93
525.98	52589.50
526.16	52596.52
526.33	52486.51
526.50	52956.96
526.67	52732.27
526.84	52971.00
527.01	53336.13
527.18	53158.25
527.36	52924.19
527.53	53118.46
527.70	53404.00
527.87	53137.18
528.04	53279.96
528.21	53380.60
528.38	53375.92
528.55	53776.15
528.72	53361.87
528.89	53375.92
529.07	53331.45
529.24	53705.93
529.41	53602.95
529.58	53839.34
529.75	53705.93
529.92	53797.21
530.09	53918.92
530.26	53808.92
530.43	54204.47
530.60	53881.47
530.77	54047.65
530.94	54478.31
531.11	54328.52
531.28	54260.64
531.46	54031.27
531.63	54185.74
531.80	54061.69
531.97	54440.86
532.14	54398.73
532.31	54422.14
532.48	54391.71
532.65	54429.16
532.82	54473.63
532.99	54864.50
533.16	54515.76
533.33	54721.72
533.50	54871.52
533.67	54817.69
533.84	54461.93
534.01	55040.04
534.18	54759.17
534.35	55269.41
534.52	55037.70
534.69	55208.56
534.86	55199.19
535.03	55023.65
535.20	55199.19
535.37	55440.27
535.54	55299.84
535.71	55627.51
535.88	55674.32
536.05	55650.92
536.22	55501.12
536.38	55798.37
536.55	55700.07
536.72	55760.92
536.89	55920.08
537.06	55620.49
537.23	55774.97
537.40	55580.70
537.57	55597.09
537.74	55805.39
537.91	56156.47
538.08	56100.30
538.25	55821.78
538.42	55943.48
538.59	56060.51
538.75	55854.54
538.92	56203.28
539.09	55880.29
539.26	56156.47
539.43	56037.11
539.60	56336.69
539.77	56327.33
539.94	56399.89
540.11	56224.35
540.28	56430.32
540.44	56645.65
540.61	56500.53
540.78	56299.25
540.95	56647.99
541.12	56566.07
541.29	56535.64
541.46	56439.68
541.62	56809.48
541.79	56767.35
541.96	56580.11
542.13	56657.35
542.30	56596.49
542.47	56933.53
542.63	56910.13
542.80	57104.39
542.97	57256.53
543.14	57219.08
543.31	57148.86
543.48	57481.22
543.64	57509.30
543.81	57427.38
543.98	57350.15
544.15	57286.95
544.32	57373.55
544.48	57649.74
544.65	57485.90
544.82	57446.11
544.99	57450.79
545.16	57535.05
545.32	57389.94
545.49	57640.37
545.66	57579.52
545.83	57663.78
546.00	57799.53
546.16	57860.38
546.33	57642.71
546.50	57251.84
546.67	57846.34
546.83	57649.74
547.00	57766.76
547.17	57886.13
547.34	57825.28
547.50	58028.90
547.67	58110.82
547.84	58061.67
548.00	58073.37
548.17	58213.80
548.34	58000.82
548.51	58213.80
548.67	58223.17
548.84	58269.98
549.01	58183.38
549.18	58424.45
549.34	58141.25
549.51	58199.76
549.68	58354.24
549.84	58361.26
550.01	58450.20
550.18	58291.04
550.34	58504.03
550.51	58454.88
550.68	58450.20
550.84	58269.98
551.01	58457.22
551.18	58377.64
551.34	58520.41
551.51	58604.67
551.68	58546.16
551.84	58522.76
552.01	58618.72
552.18	58553.18
552.34	58710.00
552.51	58850.43
552.68	58529.78
552.84	58674.89
553.01	58976.82
553.18	58883.20
553.34	58829.37
553.51	58731.06
553.67	58946.39
553.84	58960.44
554.01	58892.56
554.17	59086.82
554.34	59128.95
554.51	58876.18
554.67	58937.03
554.84	59009.59
555.00	59009.59
555.17	59007.25
555.33	59140.66
555.50	59030.65
555.67	58918.31
555.83	59014.27
556.00	59100.87
556.16	59178.10
556.33	59260.02
556.50	59229.60
556.66	59157.04
556.83	59114.91
556.99	59227.26
557.16	59576.00
557.32	59318.54
557.49	59840.48
557.65	59381.73
557.82	59262.36
557.98	59519.82
558.15	59484.72
558.32	59456.63
558.48	59505.78
558.65	59437.90
558.81	59437.90
558.98	59522.16
559.14	59587.70
559.31	59742.17
559.47	59592.38
559.64	59693.02
559.80	59826.43
559.97	59660.26
560.13	59702.38
560.30	59758.56
560.46	59915.37
560.63	59833.46
560.79	59833.46
560.96	59990.27
561.12	59980.91
561.29	59784.30
561.45	59889.63
561.61	59732.81
561.78	59901.33
561.94	59796.01
562.11	59936.44
562.27	60140.07
562.44	59990.27
562.60	60254.75
562.77	59927.08
562.93	59737.49
563.10	60247.73
563.26	59749.20
563.42	60158.79
563.59	59962.18
563.75	59891.97
563.92	60207.94
564.08	60097.94
564.24	60149.43
564.41	60151.77
564.57	60182.19
564.74	60060.49
564.90	60154.11
565.07	60168.15
565.23	60203.26
565.39	59997.29
565.56	60177.51
565.72	60268.79
565.88	60130.70
566.05	60217.30
566.21	60135.38
566.38	60151.77
566.54	60500.51
566.70	60449.02
566.87	60355.39
567.03	60367.10
567.19	60427.95
567.36	60308.58
567.52	60198.58
567.68	60619.88
567.85	60535.62
568.01	60528.59
568.17	60434.97
568.34	60329.65
568.50	60425.61
568.66	60425.61
568.83	60310.92
568.99	60460.72
569.15	60427.95
569.32	60444.33
569.48	60346.03
569.64	60685.41
569.81	60633.92
569.97	60371.78
570.13	60528.59
570.30	60355.39
570.46	60664.35
570.62	60409.23
570.78	60645.62
570.95	60404.55
571.11	60554.34
571.27	60313.26
571.43	60540.30
571.60	60772.01
571.76	60727.54
571.92	60605.83
572.09	60610.51
572.25	60491.15
572.41	60556.68
572.57	60596.47
572.74	60968.61
572.90	60718.18
573.06	60701.79
573.22	60516.89
573.38	60694.77
573.55	60647.96
573.71	60760.31
573.87	60645.62
574.03	60505.19
574.20	60889.04
574.36	60809.46
574.52	60781.37
574.68	60554.34
574.84	60886.70
575.01	60882.02
575.17	60610.51
575.33	60629.24
575.49	60669.03
575.65	60718.18
575.82	60830.52
575.98	60804.78
576.14	60966.27
576.30	60727.54
576.46	60697.11
576.62	60706.47
576.79	60650.30
576.95	60498.17
577.11	60788.39
577.27	60694.77
577.43	60849.25
577.59	60830.52
577.75	60685.41
577.92	60727.54
578.08	60921.80
578.24	60959.25
578.40	61158.20
578.56	61240.12
578.72	60877.33
578.88	61066.92
579.04	61092.66
579.21	60968.61
579.37	60825.84
579.53	60945.21
579.69	60853.93
579.85	60896.06
580.01	61010.74
580.17	60851.59
580.33	61001.38
580.49	60844.57
580.65	60907.76
580.82	61146.50
580.98	60743.92
581.14	60919.46
581.30	61066.92
581.46	61006.06
581.62	60896.06
581.78	60882.02
581.94	60856.27
582.10	60921.80
582.26	61027.13
582.42	60870.31
582.58	60844.57
582.74	61010.74
582.90	60860.95
583.06	60999.04
583.22	60743.92
583.38	61097.34
583.54	60863.29
583.70	60912.44
583.86	61020.11
584.02	61080.96
584.18	61111.39
584.34	60926.49
584.50	60842.23
584.66	60926.49
584.82	60893.72
584.98	61205.01
585.14	61062.24
585.30	60914.78
585.46	60994.36
585.62	61048.19
585.78	61181.60
585.94	60874.99
586.10	60933.51
586.26	61141.81
586.42	61293.95
586.58	61160.54
586.74	60940.53
586.90	61020.11
587.06	61006.06
587.22	61277.57
587.38	61048.19
587.54	61216.71
587.70	61291.61
587.86	61340.76
588.02	61064.58
588.18	61230.75
588.34	61092.66
588.49	61223.73
