SpectraSuite Data File
++++++++++++++++++++++++++++++++++++
Date: Fri Oct 25 10:44:17 EDT 2013
User: price-jones
Dark Spectrum Present: No
Reference Spectrum Present: No
Number of Sampled Component Spectra: 1
Spectrometers: USB2+H05261
Integration Time (usec): 100000 (USB2+H05261)
Spectra Averaged: 1 (USB2+H05261)
Boxcar Smoothing: 0 (USB2+H05261)
Correct for Electrical Dark: No (USB2+H05261)
Strobe/Lamp Enabled: No (USB2+H05261)
Correct for Detector Non-linearity: No (USB2+H05261)
Correct for Stray Light: No (USB2+H05261)
Number of Pixels in Processed Spectrum: 2048
>>>>>Begin Processed Spectral Data<<<<<
365.73	196.60
365.92	196.60
366.12	196.60
366.32	67.88
366.52	0.00
366.72	65.54
366.91	30.43
367.11	14.04
367.31	58.51
367.51	7.02
367.70	32.77
367.90	44.47
368.10	0.00
368.30	70.22
368.49	7.02
368.69	79.58
368.89	56.17
369.09	18.72
369.28	0.00
369.48	0.00
369.68	0.00
369.87	56.17
370.07	154.48
370.27	154.48
370.47	180.22
370.66	372.15
370.86	407.25
371.06	451.72
371.25	479.81
371.45	440.02
371.65	430.66
371.84	402.57
372.04	519.60
372.24	505.56
372.44	531.30
372.63	526.62
372.83	599.18
373.03	599.18
373.22	491.51
373.42	468.11
373.62	463.43
373.81	526.62
374.01	580.45
374.21	517.26
374.40	568.75
374.60	545.34
374.79	578.11
374.99	533.64
375.19	582.79
375.38	587.47
375.58	645.99
375.78	671.73
375.97	620.24
376.17	573.43
376.37	587.47
376.56	507.90
376.76	554.71
376.95	636.63
377.15	662.37
377.35	662.37
377.54	692.80
377.74	704.50
377.93	669.39
378.13	634.29
378.33	643.65
378.52	645.99
378.72	669.39
378.91	685.78
379.11	589.82
379.31	664.71
379.50	603.86
379.70	692.80
379.89	641.31
380.09	702.16
380.28	676.41
380.48	725.57
380.68	655.35
380.87	641.31
381.07	648.33
381.26	695.14
381.46	653.01
381.65	695.14
381.85	739.61
382.04	737.27
382.24	695.14
382.43	784.08
382.63	638.97
382.83	711.52
383.02	791.10
383.22	704.50
383.41	674.07
383.61	713.86
383.80	793.44
384.00	805.14
384.19	807.48
384.39	788.76
384.58	823.87
384.78	751.31
384.97	781.74
385.17	727.91
385.36	793.44
385.56	858.98
385.75	725.57
385.95	777.06
386.14	807.48
386.34	758.33
386.53	798.12
386.72	821.53
386.92	833.23
387.11	922.17
387.31	800.46
387.50	866.00
387.70	912.81
387.89	931.53
388.09	877.70
388.28	877.70
388.48	854.30
388.67	1011.11
388.86	983.02
389.06	912.81
389.25	980.68
389.45	929.19
389.64	926.85
389.84	912.81
390.03	1020.47
390.22	1032.18
390.42	1057.92
390.61	1006.43
390.81	1041.54
391.00	1034.52
391.19	1100.05
391.39	1060.26
391.58	1071.97
391.78	997.07
391.97	1104.73
392.16	976.00
392.36	1039.20
392.55	945.58
392.75	992.39
392.94	978.34
393.13	980.68
393.33	1032.18
393.52	1107.07
393.71	1135.16
393.91	1102.39
394.10	1132.82
394.29	1104.73
394.49	1170.27
394.68	1214.74
394.88	1301.34
395.07	1273.25
395.26	1179.63
395.46	1210.06
395.65	1315.38
395.84	1217.08
396.04	1282.61
396.23	1170.27
396.42	1186.65
396.62	1228.78
396.81	1261.55
397.00	1291.98
397.19	1268.57
397.39	1355.17
397.58	1366.87
397.77	1383.26
397.97	1423.05
398.16	1394.96
398.35	1357.51
398.55	1514.33
398.74	1406.66
398.93	1519.01
399.12	1465.18
399.32	1481.56
399.51	1507.30
399.70	1504.96
399.90	1542.41
400.09	1502.62
400.28	1579.86
400.47	1666.46
400.67	1739.02
400.86	1612.63
401.05	1657.10
401.24	1673.48
401.44	1666.46
401.63	1802.21
401.82	1652.42
402.01	1706.25
402.21	1769.44
402.40	1788.17
402.59	1732.00
402.78	1746.04
402.97	1708.59
403.17	1774.13
403.36	1769.44
403.55	1858.39
403.74	1900.52
403.93	1802.21
404.13	1842.00
404.32	1811.57
404.51	1905.20
404.70	1912.22
404.89	1947.33
405.09	1898.17
405.28	1970.73
405.47	1996.48
405.66	2038.61
405.85	2010.52
406.05	1970.73
406.24	2101.80
406.43	1998.82
406.62	2176.70
406.81	2125.21
407.00	2012.86
407.20	2026.90
407.39	2195.42
407.58	2132.23
407.77	2080.74
407.96	2160.31
408.15	2153.29
408.34	2333.51
408.54	2286.70
408.73	2244.57
408.92	2228.19
409.11	2251.60
409.30	2249.25
409.49	2239.89
409.68	2223.51
409.87	2314.79
410.07	2368.62
410.26	2342.88
410.45	2438.84
410.64	2544.16
410.83	2487.99
411.02	2593.31
411.21	2509.05
411.40	2541.82
411.59	2640.12
411.78	2677.57
411.98	2562.89
412.17	2621.40
412.36	2658.85
412.55	2668.21
412.74	2729.06
412.93	2878.86
413.12	2640.12
413.31	2820.35
413.50	2801.62
413.69	2820.35
413.88	2853.11
414.07	2874.18
414.26	2963.12
414.45	2953.76
414.64	3075.46
414.83	3019.29
415.02	3059.08
415.22	3056.74
415.41	3176.11
415.60	3052.06
415.79	3103.55
415.98	3229.94
416.17	3405.48
416.36	3183.13
416.55	3215.90
416.74	3265.05
416.93	3293.13
417.12	3138.66
417.31	3192.49
417.50	3384.41
417.69	3473.36
417.88	3466.33
418.07	3440.59
418.26	3442.93
418.45	3459.31
418.64	3559.95
418.83	3529.53
419.02	3569.32
419.21	3644.21
419.39	3744.86
419.58	3599.74
419.77	3508.46
419.96	3506.12
420.15	3662.94
420.34	3730.81
420.53	3864.22
420.72	3747.20
420.91	3861.88
421.10	3824.44
421.29	3861.88
421.48	3779.97
421.67	3936.78
421.86	3878.27
422.05	3824.44
422.24	3911.04
422.43	3939.12
422.61	3812.73
422.80	3889.97
422.99	3943.80
423.18	3826.78
423.37	4039.76
423.56	3955.51
423.75	3960.19
423.94	3936.78
424.13	3723.79
424.32	3786.99
424.50	3999.98
424.69	4004.66
424.88	4023.38
425.07	4028.06
425.26	4025.72
425.45	3772.94
425.64	3941.46
425.83	3969.55
426.01	4079.55
426.20	4070.19
426.39	3985.93
426.58	3899.33
426.77	3997.64
426.96	4074.87
427.15	4084.23
427.33	4032.74
427.52	4072.53
427.71	4194.24
427.90	4102.96
428.09	4262.12
428.28	4114.66
428.46	4325.31
428.65	4074.87
428.84	4175.52
429.03	4358.08
429.22	4147.43
429.40	4091.26
429.59	4365.10
429.78	4009.34
429.97	3896.99
430.16	3985.93
430.34	4091.26
430.53	4042.11
430.72	4159.13
430.91	4283.18
431.10	4355.74
431.28	4510.21
431.47	4695.11
431.66	4643.62
431.85	4505.53
432.03	4643.62
432.22	4730.22
432.41	4720.86
432.60	4601.49
432.79	4786.40
432.97	4788.74
433.16	4812.14
433.35	4624.90
433.54	4472.76
433.72	4662.35
433.91	4784.06
434.10	4702.14
434.28	4716.18
434.47	4865.97
434.66	5076.62
434.85	4966.62
435.03	4940.87
435.22	4968.96
435.41	4997.04
435.59	5114.07
435.78	5046.20
435.97	5172.58
436.16	5118.75
436.34	5362.17
436.53	5247.48
436.72	5249.82
436.90	5060.24
437.09	5434.72
437.28	5153.86
437.46	5130.45
437.65	5308.34
437.84	5156.20
438.02	5172.58
438.21	5179.61
438.40	5158.54
438.58	5392.59
438.77	5235.78
438.96	5387.91
439.14	5586.86
439.33	5397.28
439.52	5598.56
439.70	5706.23
439.89	5514.30
440.08	5621.97
440.26	5724.95
440.45	5673.46
440.63	5647.71
440.82	5994.11
441.01	5844.32
441.19	5994.11
441.38	6146.25
441.57	6150.93
441.75	6057.31
441.94	6289.02
442.12	6352.21
442.31	6326.47
442.50	6253.91
442.68	6265.61
442.87	6452.86
443.05	6317.11
443.24	6443.49
443.43	6427.11
443.61	6560.52
443.80	6656.48
443.98	6335.83
444.17	6253.91
444.35	6572.22
444.54	6637.76
444.73	6689.25
444.91	6597.97
445.10	6658.82
445.28	6504.35
445.47	6406.05
445.65	6509.03
445.84	6562.86
446.02	6614.35
446.21	6593.29
446.39	6494.99
446.58	6691.59
446.77	6593.29
446.95	6586.27
447.14	6703.29
447.32	6871.81
447.51	6630.74
447.69	6712.66
447.88	6609.67
448.06	6740.74
448.25	6911.60
448.43	6909.26
448.62	6675.21
448.80	6593.29
448.99	6815.64
449.17	6956.07
449.36	6953.73
449.54	7089.48
449.73	7213.53
449.91	7138.63
450.10	6998.20
450.28	7265.02
450.46	7234.60
450.65	7115.23
450.83	7096.50
451.02	7190.13
451.20	7330.56
451.39	7269.70
451.57	7033.31
451.76	7178.42
451.94	7258.00
452.13	7297.79
452.31	7227.57
452.49	7138.63
452.68	7335.24
452.86	7372.69
453.05	7283.75
453.23	7269.70
453.42	7445.24
453.60	7419.50
453.78	7508.44
453.97	7255.66
454.15	7529.50
454.34	7279.07
454.52	7630.15
454.70	7494.40
454.89	7604.40
455.07	7466.31
455.26	7538.87
455.44	7681.64
455.62	7864.20
455.81	7791.64
455.99	7791.64
456.17	7712.07
456.36	7960.16
456.54	8004.63
456.73	8039.74
456.91	8301.88
457.09	7936.76
457.28	8299.54
457.46	8159.11
457.64	8065.49
457.83	8133.36
458.01	7889.95
458.19	8248.05
458.38	8072.51
458.56	8297.20
458.74	8243.37
458.93	8231.66
459.11	8208.26
459.29	8210.60
459.48	8439.97
459.66	8273.79
459.84	8208.26
460.03	8491.46
460.21	8594.45
460.39	8557.00
460.57	8383.80
460.76	8315.92
460.94	8524.23
461.12	8685.73
461.31	8730.20
461.49	8521.89
461.67	8688.07
461.85	9001.70
462.04	8549.98
462.22	8931.48
462.40	8901.06
462.59	8947.87
462.77	8877.65
462.95	8891.70
463.13	8812.12
463.32	9001.70
463.50	9156.18
463.68	9202.99
463.86	9153.84
464.05	8758.28
464.23	8765.31
464.41	9170.22
464.59	8945.53
464.78	9322.35
464.96	9107.02
465.14	9090.64
465.32	9167.88
465.50	9327.03
465.69	9207.67
465.87	9088.30
466.05	9327.03
466.23	9179.58
466.41	9277.88
466.60	9460.45
466.78	9224.05
466.96	9238.09
467.14	9282.56
467.32	9584.49
467.51	9696.84
467.69	9245.12
467.87	9434.70
468.05	9514.28
468.23	9420.66
468.41	9638.33
468.60	9359.80
468.78	9547.05
468.96	9582.15
469.14	9811.53
469.32	9853.66
469.50	9460.45
469.69	9811.53
469.87	9542.36
470.05	9645.35
470.23	9844.29
470.41	9951.96
470.59	9958.98
470.77	9769.40
470.95	9994.09
471.14	10195.37
471.32	10155.58
471.50	10387.30
471.68	10377.94
471.86	10455.17
472.04	10443.47
472.22	10555.82
472.40	10436.45
472.58	10424.75
472.77	10501.98
472.95	10485.60
473.13	10743.06
473.31	10523.05
473.49	10464.54
473.67	10782.85
473.85	10663.48
474.03	10906.90
474.21	11190.10
474.39	11077.76
474.57	10930.30
474.75	11232.23
474.93	11236.91
475.12	11405.43
475.30	11290.74
475.48	11566.93
475.66	11185.42
475.84	11442.88
476.02	11384.37
476.20	11389.05
476.38	11676.93
476.56	12035.03
476.74	11990.56
476.92	11679.27
477.10	11915.67
477.28	11997.59
477.46	11978.86
477.64	12402.50
477.82	12587.40
478.00	12601.44
478.18	12549.95
478.36	12592.08
478.54	12748.90
478.72	12657.62
478.90	13107.00
479.08	12973.59
479.26	13088.28
479.44	13556.38
479.62	13043.81
479.80	13020.40
479.98	13319.99
480.16	13692.13
480.34	13561.06
480.52	13633.62
480.70	13862.99
480.88	13680.43
481.06	13996.40
481.24	13886.40
481.41	14441.11
481.59	14244.50
481.77	14597.92
481.95	14649.41
482.13	14413.02
482.31	14588.56
482.49	14951.34
482.67	14794.53
482.85	14817.93
483.03	15105.82
483.21	15468.60
483.39	15496.69
483.57	15405.41
483.74	15562.22
483.92	15651.16
484.10	15550.52
484.28	15957.77
484.46	15810.32
484.64	16437.58
484.82	16236.30
485.00	16175.44
485.18	16280.77
485.35	16514.82
485.53	16238.64
485.71	16257.36
485.89	16327.58
486.07	16510.14
486.25	16643.55
486.43	16798.02
486.61	17188.89
486.78	17366.78
486.96	17547.00
487.14	17696.79
487.32	17912.12
487.50	17970.63
487.68	18544.06
487.85	18450.44
488.03	18836.63
488.21	18656.41
488.39	18743.01
488.57	18920.89
488.75	18668.11
488.92	19208.78
489.10	19496.66
489.28	19566.88
489.46	19737.74
489.64	19814.98
489.81	20453.94
489.99	19955.41
490.17	20362.66
490.35	20212.87
490.53	20123.93
490.70	20577.99
490.88	20549.90
491.06	21055.46
491.24	20702.04
491.41	20826.09
491.59	21104.61
491.77	20952.48
491.95	21212.28
492.13	21315.26
492.30	21490.80
492.48	21549.31
492.66	21734.21
492.84	21422.92
493.01	22291.26
493.19	22075.93
493.37	22277.22
493.54	22197.64
493.72	22848.31
493.90	22689.15
494.08	22675.11
494.25	22946.61
494.43	23236.84
494.61	23068.32
494.79	23857.08
494.96	23454.51
495.14	23461.53
495.32	23810.27
495.49	23599.62
495.67	23812.61
495.85	24049.00
496.02	24182.42
496.20	24503.07
496.38	24437.53
496.55	24800.32
496.73	24835.42
496.91	25144.38
497.09	25235.66
497.26	25308.21
497.44	24835.42
497.62	25474.39
497.79	25511.84
497.97	25205.23
498.14	25317.57
498.32	25628.87
498.50	25493.12
498.67	26059.52
498.85	25862.92
499.03	26312.30
499.20	26356.77
499.38	26394.22
499.56	26103.99
499.73	26539.33
499.91	26429.33
500.08	26686.79
500.26	26553.38
500.44	26522.95
500.61	26403.58
500.79	26707.85
500.97	26752.32
501.14	27227.45
501.32	27061.27
501.49	26927.86
501.67	27190.00
501.84	27576.19
502.02	27370.22
502.20	27861.74
502.37	27992.81
502.55	27868.76
502.72	28009.19
502.90	28116.86
503.07	28095.79
503.25	28130.90
503.43	28133.24
503.60	28346.23
503.78	28182.39
503.95	28367.29
504.13	28563.90
504.30	29032.00
504.48	28723.05
504.65	28872.85
504.83	29017.96
505.01	29612.46
505.18	29378.40
505.36	29750.55
505.53	29867.58
505.71	29717.78
505.88	29689.70
506.06	29839.49
506.23	29799.70
506.41	29535.22
506.58	30230.36
506.76	29862.90
506.93	30321.64
507.11	29895.66
507.28	30242.06
507.46	29961.20
507.63	30235.04
507.81	30232.70
507.98	30244.40
508.16	30195.25
508.33	30693.79
508.50	30897.41
508.68	30834.22
508.85	31267.22
509.03	31133.81
509.20	31159.55
509.38	31363.18
509.55	31594.89
509.73	31218.07
509.90	31875.76
510.08	30937.20
510.25	31644.04
510.42	31917.89
510.60	32048.96
510.77	32077.04
510.95	32261.94
511.12	31936.61
511.30	32086.40
511.47	32472.59
511.64	32732.39
511.82	32397.70
511.99	32428.12
512.17	32636.43
512.34	32278.33
512.51	32732.39
512.69	32809.63
512.86	32680.90
513.04	33369.02
513.21	32744.09
513.38	33046.02
513.56	32919.63
513.73	32964.10
513.90	33273.06
514.08	33244.97
514.25	33270.72
514.43	33340.93
514.60	33642.86
514.77	33490.73
514.95	33640.52
515.12	33598.39
515.29	33593.71
515.47	34122.67
515.64	33951.81
515.81	33734.14
515.99	34466.73
516.16	33507.11
516.33	33624.14
516.51	34068.84
516.68	33378.38
516.85	33631.16
517.03	33762.23
517.20	33855.85
517.37	34293.53
517.54	34696.10
517.72	34639.93
517.89	33977.56
518.06	34377.79
518.24	34431.62
518.41	34242.04
518.58	34527.58
518.75	34822.49
518.93	35110.38
519.10	34883.34
519.27	35164.21
519.45	34909.09
519.62	35648.70
519.79	35051.86
519.96	35477.84
520.14	35920.20
520.31	34965.26
520.48	35445.07
520.65	35735.30
520.83	36217.45
521.00	35981.06
521.17	35871.05
521.34	36002.12
521.52	36182.34
521.69	36376.61
521.86	36177.66
522.03	36456.18
522.20	36451.50
522.38	36517.04
522.55	36505.34
522.72	36526.40
522.89	36091.06
523.07	36582.57
523.24	36458.52
523.41	36790.88
523.58	36926.63
523.75	37567.94
523.92	36884.50
524.10	37481.34
524.27	37500.06
524.44	37163.03
524.61	37453.25
524.78	37736.46
524.96	37530.49
525.13	37687.31
525.30	37809.01
525.47	37731.78
525.64	37734.12
525.81	37776.25
525.98	37797.31
526.16	37507.08
526.33	37137.28
526.50	37771.57
526.67	37364.31
526.84	37125.58
527.01	37387.72
527.18	37958.81
527.36	38576.71
527.53	38190.52
527.70	38855.23
527.87	38335.63
528.04	38532.24
528.21	38829.49
528.38	38412.87
528.55	38775.66
528.72	39016.73
528.89	38939.49
529.07	38347.34
529.24	38665.65
529.41	39037.80
529.58	38672.67
529.75	39005.03
529.92	39150.14
530.09	39517.60
530.26	39236.74
530.43	39592.50
530.60	39421.64
530.77	39428.66
530.94	39473.13
531.11	39395.90
531.28	39871.03
531.46	39906.13
531.63	39709.53
531.80	39725.91
531.97	39765.70
532.14	39423.98
532.31	39316.32
532.48	39749.32
532.65	39758.68
532.82	40053.59
532.99	39812.51
533.16	40067.63
533.33	39988.05
533.50	40329.77
533.67	40114.44
533.84	40137.85
534.01	40243.17
534.18	40198.70
534.35	40189.34
534.52	40226.79
534.69	40673.83
534.86	40292.32
535.03	40294.66
535.20	41041.29
535.37	40720.64
535.54	41273.01
535.71	40919.59
535.88	41134.92
536.05	40671.49
536.22	40882.14
536.38	40561.48
536.55	41268.33
536.72	40767.45
536.89	40615.32
537.06	40804.90
537.23	41057.68
537.40	41315.14
537.57	41069.38
537.74	40966.40
537.91	41233.22
538.08	41212.15
538.25	40968.74
538.42	41322.16
538.59	41773.88
538.75	41291.73
538.92	42019.64
539.09	41771.54
539.26	41502.38
539.43	41490.68
539.60	41308.11
539.77	41581.96
539.94	41949.42
540.11	41556.21
540.28	41308.11
540.44	41525.78
540.61	41464.93
540.78	41848.78
540.95	41343.22
541.12	41584.30
541.29	41904.95
541.46	42134.32
541.62	42014.96
541.79	42300.50
541.96	41703.67
542.13	41752.82
542.30	42075.81
542.47	41750.48
542.63	42225.60
542.80	41968.15
542.97	42616.47
543.14	43196.93
543.31	42698.39
543.48	42726.48
543.64	43426.30
543.81	43136.07
543.98	43400.55
544.15	42457.32
544.32	42983.94
544.48	43143.09
544.65	43093.94
544.82	43571.41
544.99	43058.84
545.16	43435.66
545.32	42532.22
545.49	43225.01
545.66	43292.89
545.83	43395.87
546.00	43693.12
546.16	43131.39
546.33	43239.06
546.50	42815.42
546.67	43550.35
546.83	42862.23
547.00	43213.31
547.17	43412.26
547.34	43353.74
547.50	43421.62
547.67	43679.08
547.84	43751.63
548.00	44013.77
548.17	43721.21
548.34	43751.63
548.51	44123.78
548.67	43835.89
548.84	43955.26
549.01	43863.98
549.18	43629.93
549.34	44250.17
549.51	44268.89
549.68	43749.29
549.84	44788.49
550.01	44147.18
550.18	44285.28
550.34	44243.15
550.51	44414.01
550.68	43868.66
550.84	44231.44
551.01	43973.98
551.18	44350.81
551.34	44332.09
551.51	44657.42
551.68	44491.24
551.84	44762.75
552.01	44257.19
552.18	44442.09
552.34	44364.85
552.51	44505.29
552.68	44591.89
552.84	44715.93
553.01	44594.23
553.18	44495.92
553.34	44666.78
553.51	44477.20
553.67	44964.03
553.84	45052.97
554.01	44914.88
554.17	45001.48
554.34	44708.91
554.51	44680.83
554.67	45184.04
554.84	45219.15
555.00	45191.06
555.17	44715.93
555.33	45020.20
555.50	44744.02
555.67	44729.98
555.83	45118.51
556.00	44767.43
556.16	45200.43
556.33	44900.84
556.50	45083.40
556.66	45055.31
556.83	45165.32
556.99	45474.27
557.16	45394.69
557.32	45088.08
557.49	45024.89
557.65	44788.49
557.82	45116.17
557.98	45338.52
558.15	45036.59
558.32	45397.03
558.48	44933.60
558.65	44968.71
558.81	44872.75
558.98	44795.51
559.14	45586.61
559.31	45635.77
559.47	45272.98
559.64	45441.50
559.80	45600.66
559.97	45324.47
560.13	45010.84
560.30	45371.28
560.46	45734.07
560.63	45897.91
560.79	45577.25
560.96	45956.42
561.12	45441.50
561.29	45577.25
561.45	45617.04
561.61	45319.79
561.78	45523.42
561.94	45546.82
562.11	45490.65
562.27	45420.44
562.44	45855.78
562.60	45741.09
562.77	46066.42
562.93	45670.87
563.10	45930.67
563.26	45556.19
563.42	45736.41
563.59	45261.28
563.75	45745.77
563.92	45825.35
564.08	45689.60
564.24	46052.38
564.41	45968.12
564.57	45780.88
564.74	46096.85
564.90	45783.22
565.07	46010.25
565.23	45713.00
565.39	45865.14
565.56	45649.81
565.72	45713.00
565.88	45518.74
566.05	45848.75
566.21	45647.47
566.38	46038.34
566.54	46124.94
566.70	46560.28
566.87	46576.66
567.03	46356.65
567.19	46146.00
567.36	46337.93
567.52	45652.15
567.68	46190.47
567.85	45766.84
568.01	46164.73
568.17	45799.60
568.34	46115.58
568.50	45947.06
568.66	45748.11
568.83	45757.47
568.99	45841.73
569.15	45764.49
569.32	45701.30
569.48	45916.63
569.64	46003.23
569.81	45897.91
569.97	46068.76
570.13	46068.76
570.30	46040.68
570.46	45984.51
570.62	45514.06
570.78	45705.98
570.95	45586.61
571.11	45940.04
571.27	46248.99
571.43	46164.73
571.60	45961.10
571.76	46017.27
571.92	46232.60
572.09	46192.81
572.25	45991.53
572.41	45958.76
572.57	46176.43
572.74	46686.67
572.90	46155.36
573.06	46349.63
573.22	46286.43
573.38	46429.21
573.55	45982.16
573.71	46658.58
573.87	45776.20
574.03	46036.00
574.20	46450.27
574.36	46028.98
574.52	46148.34
574.68	46155.36
574.84	45890.88
575.01	46492.40
575.17	45923.65
575.33	46131.96
575.49	45874.50
575.65	46466.66
575.82	46064.08
575.98	46164.73
576.14	46113.23
576.30	46766.24
576.46	46089.83
576.62	46127.28
576.79	46218.56
576.95	45935.35
577.11	45954.08
577.27	46567.30
577.43	46614.11
577.59	45696.62
577.75	46501.76
577.92	45846.41
578.08	45923.65
578.24	45834.71
578.40	46075.79
578.56	46223.24
578.72	46232.60
578.88	46349.63
579.04	46461.97
579.21	46525.17
579.37	46216.22
579.53	46429.21
579.69	46291.12
579.85	46543.89
580.01	46251.33
580.17	46391.76
580.33	46454.95
580.49	46043.02
580.65	46756.88
580.82	46581.34
580.98	46646.88
581.14	45886.20
581.30	46389.42
581.46	46277.07
581.62	46459.63
581.78	46050.04
581.94	46122.60
582.10	46176.43
582.26	46581.34
582.42	46344.95
582.58	46714.75
582.74	46417.50
582.90	46909.02
583.06	46550.91
583.22	46368.35
583.38	46590.70
583.54	46822.42
583.70	46412.82
583.86	46887.95
584.02	46300.48
584.18	46852.84
584.34	46457.29
584.50	46373.03
584.66	46256.01
584.82	46251.33
584.98	46391.76
585.14	46284.09
585.30	46302.82
585.46	46394.10
585.62	46064.08
585.78	46415.16
585.94	46333.24
586.10	46583.68
586.26	46763.90
586.42	46667.94
586.58	46590.70
586.74	46712.41
586.90	46078.13
587.06	46389.42
587.22	46518.15
587.38	45841.73
587.54	46354.31
587.70	46894.97
587.86	46363.67
588.02	46501.76
588.18	46564.96
588.34	45851.09
588.49	46033.66
588.65	45806.62
588.81	45769.18
588.97	45846.41
589.13	45727.05
589.29	45986.85
589.45	46003.23
589.61	46148.34
589.77	46684.33
589.93	46356.65
590.08	46815.40
