SpectraSuite Data File
++++++++++++++++++++++++++++++++++++
Date: Fri Oct 25 11:25:35 EDT 2013
User: price-jones
Dark Spectrum Present: No
Reference Spectrum Present: No
Number of Sampled Component Spectra: 1
Spectrometers: USB2+H05261
Integration Time (usec): 100000 (USB2+H05261)
Spectra Averaged: 1 (USB2+H05261)
Boxcar Smoothing: 0 (USB2+H05261)
Correct for Electrical Dark: No (USB2+H05261)
Strobe/Lamp Enabled: No (USB2+H05261)
Correct for Detector Non-linearity: No (USB2+H05261)
Correct for Stray Light: No (USB2+H05261)
Number of Pixels in Processed Spectrum: 2048
>>>>>Begin Processed Spectral Data<<<<<
365.73	250.44
365.92	250.44
366.12	250.44
366.32	168.52
366.52	161.50
366.72	135.75
366.91	117.03
367.11	149.79
367.31	114.69
367.51	119.37
367.70	180.22
367.90	102.98
368.10	110.01
368.30	198.95
368.49	152.13
368.69	128.73
368.89	112.35
369.09	236.39
369.28	145.11
369.48	168.52
369.68	175.54
369.87	198.95
370.07	170.86
370.27	215.33
370.47	322.99
370.66	528.96
370.86	561.73
371.06	678.76
371.25	653.01
371.45	653.01
371.65	711.52
371.84	716.20
372.04	695.14
372.24	753.65
372.44	688.12
372.63	713.86
372.83	802.80
373.03	690.46
373.22	772.38
373.42	739.61
373.62	748.97
373.81	809.83
374.01	842.59
374.21	805.14
374.40	784.08
374.60	866.00
374.79	828.55
374.99	830.89
375.19	915.15
375.38	847.27
375.58	873.02
375.78	858.98
375.97	844.93
376.17	910.47
376.37	854.30
376.56	877.70
376.76	901.11
376.95	929.19
377.15	891.74
377.35	891.74
377.54	910.47
377.74	912.81
377.93	924.51
378.13	1001.75
378.33	936.21
378.52	952.60
378.72	929.19
378.91	924.51
379.11	910.47
379.31	917.49
379.50	884.72
379.70	905.79
379.89	1008.77
380.09	1004.09
380.28	908.13
380.48	1041.54
380.68	924.51
380.87	940.90
381.07	959.62
381.26	1053.24
381.46	1006.43
381.65	1022.81
381.85	999.41
382.04	987.71
382.24	1022.81
382.43	1034.52
382.63	1088.35
382.83	1144.52
383.02	1041.54
383.22	1135.16
383.41	1013.45
383.61	1114.10
383.80	1114.10
384.00	1137.50
384.19	1114.10
384.39	1109.41
384.58	1193.67
384.78	1186.65
384.97	1221.76
385.17	1142.18
385.36	1121.12
385.56	1217.08
385.75	1128.14
385.95	1193.67
386.14	1224.10
386.34	1088.35
386.53	1212.40
386.72	1284.95
386.92	1226.44
387.11	1259.21
387.31	1263.89
387.50	1139.84
387.70	1252.19
387.89	1277.93
388.09	1296.66
388.28	1224.10
388.48	1287.29
388.67	1364.53
388.86	1411.34
389.06	1338.79
389.25	1291.98
389.45	1294.32
389.64	1378.58
389.84	1324.74
390.03	1416.02
390.22	1348.15
390.42	1458.15
390.61	1313.04
390.81	1343.47
391.00	1352.83
391.19	1427.73
391.39	1462.83
391.58	1441.77
391.78	1502.62
391.97	1444.11
392.16	1507.30
392.36	1458.15
392.55	1493.26
392.75	1451.13
392.94	1472.20
393.13	1465.18
393.33	1476.88
393.52	1544.75
393.71	1600.93
393.91	1554.12
394.10	1610.29
394.29	1598.59
394.49	1521.35
394.68	1593.90
394.88	1732.00
395.07	1682.85
395.26	1743.70
395.46	1680.50
395.65	1703.91
395.84	1664.12
396.04	1856.04
396.23	1762.42
396.42	1657.10
396.62	1727.32
396.81	1849.02
397.00	1755.40
397.19	1767.10
397.39	1715.61
397.58	1781.15
397.77	1867.75
397.97	1820.94
398.16	1891.15
398.35	1830.30
398.55	1839.66
398.74	1952.01
398.93	1959.03
399.12	1832.64
399.32	1858.39
399.51	1940.30
399.70	1973.07
399.90	1837.32
400.09	1919.24
400.28	1984.77
400.47	1987.11
400.67	2083.08
400.86	2045.63
401.05	2090.10
401.24	2045.63
401.44	2108.82
401.63	2050.31
401.82	2172.02
402.01	2129.89
402.21	2146.27
402.40	2188.40
402.59	2139.25
402.78	2176.70
402.97	2218.83
403.17	2202.44
403.36	2165.00
403.55	2289.04
403.74	2459.90
403.93	2363.94
404.13	2282.02
404.32	2363.94
404.51	2361.60
404.70	2431.82
404.89	2298.41
405.09	2410.75
405.28	2476.29
405.47	2476.29
405.66	2457.56
405.85	2429.48
406.05	2516.08
406.24	2462.24
406.43	2569.91
406.62	2527.78
406.81	2738.43
407.00	2621.40
407.20	2520.76
407.39	2581.61
407.58	2764.17
407.77	2724.38
407.96	2740.77
408.15	2743.11
408.34	2803.96
408.54	2911.63
408.73	2815.66
408.92	2715.02
409.11	2766.51
409.30	2928.01
409.49	2937.37
409.68	2885.88
409.87	2984.18
410.07	2963.12
410.26	2911.63
410.45	2902.26
410.64	3040.36
410.83	3143.34
411.02	3112.91
411.21	3014.61
411.40	3042.70
411.59	3323.56
411.78	3159.72
411.98	3148.02
412.17	3281.43
412.36	3314.20
412.55	3318.88
412.74	3365.69
412.93	3492.08
413.12	3248.66
413.31	3566.98
413.50	3398.46
413.69	3379.73
413.88	3524.85
414.07	3592.72
414.26	3602.08
414.45	3646.55
414.64	3681.66
414.83	3714.43
415.02	3810.39
415.22	3904.01
415.41	3847.84
415.60	3716.77
415.79	3810.39
415.98	3911.04
416.17	4018.70
416.36	4051.47
416.55	4035.08
416.74	4004.66
416.93	4084.23
417.12	3988.27
417.31	4161.47
417.50	4180.20
417.69	4245.73
417.88	4264.46
418.07	4257.43
418.26	4210.62
418.45	4285.52
418.64	4507.87
418.83	4463.40
419.02	4484.47
419.21	4475.10
419.39	4365.10
419.58	4430.63
419.77	4491.49
419.96	4610.86
420.15	4648.30
420.34	4573.41
420.53	4592.13
420.72	4655.33
420.91	4631.92
421.10	4760.65
421.29	4847.25
421.48	4709.16
421.67	4606.17
421.86	4760.65
422.05	4837.89
422.24	4828.53
422.43	4786.40
422.61	4765.33
422.80	4844.91
422.99	4968.96
423.18	4870.65
423.37	5048.54
423.56	4837.89
423.75	5111.73
423.94	4975.98
424.13	4592.13
424.32	4702.14
424.50	4905.76
424.69	5212.37
424.88	5123.43
425.07	4961.94
425.26	5116.41
425.45	4959.60
425.64	4798.10
425.83	4997.04
426.01	5057.90
426.20	4929.17
426.39	4990.02
426.58	5004.07
426.77	5081.30
426.96	5048.54
427.15	5144.50
427.33	5104.71
427.52	5046.20
427.71	5294.29
427.90	5139.82
428.09	5195.99
428.28	5322.38
428.46	5387.91
428.65	5289.61
428.84	5432.38
429.03	5420.68
429.22	5266.21
429.40	5490.90
429.59	5549.41
429.78	5430.04
429.97	5240.46
430.16	5483.88
430.34	5572.82
430.53	5528.35
430.72	5760.06
430.91	5607.92
431.10	5486.22
431.28	5769.42
431.47	5664.10
431.66	5788.14
431.85	5865.38
432.03	5832.62
432.22	6129.86
432.41	6073.69
432.60	5916.87
432.79	5879.43
432.97	6076.03
433.16	5954.32
433.35	5832.62
433.54	6019.86
433.72	6047.94
433.91	6125.18
434.10	6174.33
434.28	6052.63
434.47	6195.40
434.66	6272.64
434.85	6583.93
435.03	6209.44
435.22	6307.74
435.41	6581.59
435.59	6441.15
435.78	6333.49
435.97	6434.13
436.16	6494.99
436.34	6314.77
436.53	6518.39
436.72	6733.72
436.90	6471.58
437.09	6583.93
437.28	6476.26
437.46	6651.80
437.65	6738.40
437.84	6733.72
438.02	6663.51
438.21	6827.34
438.40	6649.46
438.58	6846.07
438.77	7075.44
438.96	6895.22
439.14	7105.87
439.33	7103.53
439.52	7068.42
439.70	7307.15
439.89	7478.01
440.08	7337.58
440.26	7260.34
440.45	7169.06
440.63	7400.77
440.82	7637.17
441.01	7548.23
441.19	7660.57
441.38	7506.10
441.57	7728.45
441.75	7903.99
441.94	7967.18
442.12	7978.89
442.31	8009.31
442.50	7918.03
442.68	7997.61
442.87	7847.82
443.05	8208.26
443.24	8386.14
443.43	8074.85
443.61	8039.74
443.80	8234.00
443.98	8112.30
444.17	7782.28
444.35	8074.85
444.54	8358.05
444.73	8177.83
444.91	8161.45
445.10	8325.29
445.28	8322.94
445.47	8306.56
445.65	8269.11
445.84	8463.38
446.02	8470.40
446.21	8346.35
446.39	8482.10
446.58	8402.52
446.77	8503.17
446.95	8255.07
447.14	8353.37
447.32	8456.36
447.51	8435.29
447.69	8414.23
447.88	8491.46
448.06	8531.25
448.25	8655.30
448.43	8641.26
448.62	8517.21
448.80	8439.97
448.99	8627.21
449.17	8706.79
449.36	8681.05
449.54	8739.56
449.73	8704.45
449.91	8828.50
450.10	8877.65
450.28	8961.91
450.46	9064.89
450.65	9001.70
450.83	9245.12
451.02	8964.25
451.20	9121.07
451.39	9184.26
451.57	9025.11
451.76	9097.66
451.94	9214.69
452.13	9303.63
452.31	9034.47
452.49	9015.74
452.68	9387.89
452.86	9364.48
453.05	9432.36
453.23	9439.38
453.42	9394.91
453.60	9186.60
453.78	9500.23
453.97	9341.08
454.15	9383.21
454.34	9392.57
454.52	9659.39
454.70	9671.09
454.89	9731.95
455.07	9743.65
455.26	9949.62
455.44	10003.45
455.62	9975.36
455.81	9823.23
455.99	9991.75
456.17	10090.05
456.36	9982.38
456.54	10097.07
456.73	10125.16
456.91	10296.02
457.09	10319.42
457.28	10579.22
457.46	10239.84
457.64	10469.22
457.83	10305.38
458.01	10448.15
458.19	10836.68
458.38	10448.15
458.56	10298.36
458.74	10663.48
458.93	10736.04
459.11	10593.26
459.29	10602.63
459.48	10761.78
459.66	10834.34
459.84	10839.02
460.03	11152.65
460.21	10771.15
460.39	10766.46
460.57	11061.37
460.76	10988.82
460.94	11442.88
461.12	11080.10
461.31	11400.75
461.49	11021.58
461.67	11108.18
461.85	11360.96
462.04	11281.38
462.22	11733.11
462.40	11508.41
462.59	11456.92
462.77	11449.90
462.95	11463.94
463.13	11548.20
463.32	11618.42
463.50	11728.42
463.68	11700.34
463.86	11927.37
464.05	11632.46
464.23	11482.67
464.41	11880.56
464.59	11611.40
464.78	12175.47
464.96	12168.45
465.14	11754.17
465.32	11997.59
465.50	11974.18
465.69	12023.33
465.87	12079.50
466.05	11950.78
466.23	12056.10
466.41	12013.97
466.60	12435.27
466.78	12128.66
466.96	12208.23
467.14	12264.41
467.32	12215.26
467.51	12662.30
467.69	12037.38
467.87	12278.45
468.05	12802.73
468.23	12327.60
468.41	12351.01
468.60	12233.98
468.78	12645.91
468.96	12671.66
469.14	12652.94
469.32	12767.62
469.50	12603.78
469.69	12800.39
469.87	13135.09
470.05	13109.34
470.23	13212.32
470.41	12833.16
470.59	13355.10
470.77	13214.66
470.95	13254.45
471.14	13448.72
471.32	12989.97
471.50	13460.42
471.68	13511.91
471.86	13579.79
472.04	13530.64
472.22	13860.65
472.40	13497.87
472.58	13645.32
472.77	14085.34
472.95	14010.45
473.13	14558.13
473.31	13970.66
473.49	14202.37
473.67	13951.93
473.85	14295.99
474.03	14586.22
474.21	14342.80
474.39	14450.47
474.57	14546.43
474.75	15089.43
474.93	14869.42
475.12	15007.52
475.30	15367.96
475.48	15075.39
475.66	15166.67
475.84	14946.66
476.02	15442.85
476.20	15356.25
476.38	15683.93
476.56	15786.91
476.74	15763.51
476.92	15693.29
477.10	16009.26
477.28	15976.50
477.46	16074.80
477.64	16322.90
477.82	16418.86
478.00	16992.29
478.18	16767.60
478.36	16800.37
478.54	17050.80
478.72	17069.53
478.90	17453.37
479.08	17572.74
479.26	17591.47
479.44	17736.58
479.62	17579.76
479.80	18270.22
479.98	17994.04
480.16	18600.24
480.34	18256.18
480.52	18668.11
480.70	18450.44
480.88	18464.49
481.06	18654.07
481.24	18794.50
481.41	19108.13
481.59	19314.10
481.77	19644.12
481.95	19370.27
482.13	19585.60
482.31	19653.48
482.49	20112.22
482.67	20269.04
482.85	20472.67
483.03	20577.99
483.21	20744.17
483.39	21113.97
483.57	20744.17
483.74	21067.16
483.92	21355.05
484.10	21135.04
484.28	21418.24
484.46	21776.34
484.64	22244.45
484.82	22162.53
485.00	22422.33
485.18	22590.85
485.35	23227.48
485.53	22747.67
485.71	23143.22
485.89	23545.79
486.07	23463.87
486.25	23271.95
486.43	23466.21
486.61	23826.65
486.78	23763.46
486.96	24261.99
487.14	24526.47
487.32	24556.90
487.50	24650.52
487.68	25123.31
487.85	24917.34
488.03	25125.65
488.21	25689.72
488.39	25986.97
488.57	25771.64
488.75	25809.09
488.92	26197.62
489.10	26490.18
489.28	26403.58
489.46	26902.12
489.64	26686.79
489.81	27704.92
489.99	27281.28
490.17	27960.04
490.35	27908.55
490.53	27978.76
490.70	27995.15
490.88	27821.95
491.06	28900.94
491.24	28865.83
491.41	28643.48
491.59	29443.94
491.77	29074.13
491.95	29191.16
492.13	29776.30
492.30	29806.72
492.48	29837.15
492.66	30312.28
492.84	30316.96
493.01	30810.81
493.19	30501.86
493.37	30586.12
493.54	31307.01
493.72	31681.49
493.90	31208.70
494.08	31594.89
494.25	32009.17
494.43	31758.73
494.61	32072.36
494.79	32275.99
494.96	31833.63
495.14	32727.71
495.32	33322.21
495.49	33022.62
495.67	33163.05
495.85	33640.52
496.02	33603.07
496.20	33696.69
496.38	33684.99
496.55	34087.56
496.73	34443.32
496.91	34089.90
497.09	34817.81
497.26	34897.39
497.44	34600.14
497.62	34951.22
497.79	35512.95
497.97	35679.13
498.14	35887.43
498.32	36091.06
498.50	35978.72
498.67	36198.73
498.85	36163.62
499.03	37074.09
499.20	36479.59
499.38	36627.04
499.56	36912.59
499.73	36610.66
499.91	37141.96
500.08	37310.48
500.26	37191.11
500.44	37443.89
500.61	37624.11
500.79	37357.29
500.97	37874.55
501.14	38401.17
501.32	38352.02
501.49	38536.92
501.67	38623.52
501.84	39077.58
502.02	38588.41
502.20	39035.45
502.37	39131.42
502.55	39154.82
502.72	39941.24
502.90	39056.52
503.07	38988.64
503.25	39812.51
503.43	39842.94
503.60	39819.53
503.78	39828.90
503.95	40418.71
504.13	40360.20
504.30	40570.85
504.48	40100.40
504.65	40699.58
504.83	41202.79
505.01	40722.98
505.18	41212.15
505.36	41284.71
505.53	40863.41
505.71	41296.41
505.88	41474.29
506.06	41635.79
506.23	42356.67
506.41	41333.86
506.58	41673.24
506.76	42190.50
506.93	41872.18
507.11	42415.19
507.28	42480.72
507.46	42923.08
507.63	42864.57
507.81	42962.87
507.98	42288.80
508.16	43185.22
508.33	43674.40
508.50	43442.68
508.68	43580.78
508.85	43749.29
509.03	43812.49
509.20	43896.75
509.38	43983.35
509.55	44156.55
509.73	44729.98
509.90	44760.40
510.08	44495.92
510.25	44779.13
510.42	44549.76
510.60	45109.14
510.77	45008.50
510.95	45364.26
511.12	45027.23
511.30	44725.30
511.47	45153.62
511.64	45083.40
511.82	45593.64
511.99	45450.86
512.17	45876.84
512.34	45923.65
512.51	45771.52
512.69	46021.95
512.86	46241.96
513.04	46611.77
513.21	46246.65
513.38	46506.44
513.56	46485.38
513.73	46691.35
513.90	46747.52
514.08	47042.43
514.25	47393.51
514.43	47196.90
514.60	47573.73
514.77	47599.47
514.95	47559.69
515.12	47386.49
515.29	47505.85
515.47	47430.96
515.64	48456.11
515.81	47501.17
515.99	48009.07
516.16	48523.99
516.33	48287.59
516.51	48638.67
516.68	48158.86
516.85	48662.08
517.03	48708.89
517.20	49010.82
517.37	48598.88
517.54	48596.54
517.72	48671.44
517.89	48889.11
518.06	49450.84
518.24	49219.13
518.41	48954.64
518.58	49177.00
518.75	48940.60
518.93	49298.70
519.10	49364.24
519.27	49731.70
519.45	49481.27
519.62	49883.84
519.79	49862.77
519.96	49862.77
520.14	50305.13
520.31	50080.44
520.48	50248.96
520.65	49918.95
520.83	50506.42
521.00	50433.86
521.17	50405.78
521.34	50424.50
521.52	50782.60
521.69	50667.92
521.86	50670.26
522.03	50951.12
522.20	51208.58
522.38	51093.89
522.55	51065.81
522.72	51196.88
522.89	51210.92
523.07	51763.29
523.24	51517.53
523.41	51625.20
523.58	51421.57
523.75	51716.48
523.92	51683.71
524.10	51873.29
524.27	51767.97
524.44	51931.81
524.61	52072.24
524.78	51838.18
524.96	52016.07
525.13	52343.74
525.30	52252.46
525.47	52498.22
525.64	52123.73
525.81	52589.50
525.98	52659.71
526.16	52425.66
526.33	52828.23
526.50	52914.83
526.67	52556.73
526.84	52741.63
527.01	52669.08
527.18	52821.21
527.36	52802.49
527.53	53008.45
527.70	53279.96
527.87	53338.47
528.04	53251.87
528.21	53359.53
528.38	53027.18
528.55	53373.58
528.72	53017.82
528.89	53319.74
529.07	53198.04
529.24	53448.47
529.41	53207.40
529.58	53895.52
529.75	53609.97
529.92	53642.74
530.09	53549.12
530.26	53858.07
530.43	53769.13
530.60	53839.34
530.77	53932.96
530.94	53787.85
531.11	54054.67
531.28	54164.68
531.46	54038.29
531.63	53907.22
531.80	54164.68
531.97	54464.27
532.14	54368.30
532.31	54188.08
532.48	54674.91
532.65	54447.88
532.82	54454.90
532.99	54527.46
533.16	54459.58
533.33	54698.32
533.50	54766.20
533.67	54857.48
533.84	54674.91
534.01	54656.19
534.18	54487.67
534.35	55297.50
534.52	54976.84
534.69	54955.78
534.86	55224.94
535.03	54934.71
535.20	55051.74
535.37	55435.59
535.54	55161.75
535.71	55194.51
535.88	55318.56
536.05	55236.64
536.22	55419.20
536.38	55367.71
536.55	55451.97
536.72	55531.55
536.89	55189.83
537.06	55253.03
537.23	55620.49
537.40	55454.31
537.57	55627.51
537.74	55604.11
537.91	55969.23
538.08	55955.19
538.25	55758.58
538.42	55512.83
538.59	56100.30
538.75	55742.20
538.92	55887.31
539.09	56107.32
539.26	55868.59
539.43	55990.30
539.60	56182.22
539.77	56240.73
539.94	56388.19
540.11	56128.39
540.28	56350.74
540.44	56275.84
540.61	56081.58
540.78	56322.65
540.95	56179.88
541.12	56292.22
541.29	56278.18
541.46	56605.86
541.62	56449.04
541.79	56425.64
541.96	56254.78
542.13	56282.86
542.30	56589.47
542.47	56739.27
542.63	56781.40
542.80	56882.04
542.97	57069.28
543.14	56945.23
543.31	56970.98
543.48	57333.76
543.64	57361.85
543.81	57333.76
543.98	57359.51
544.15	57181.63
544.32	57504.62
544.48	57359.51
544.65	57406.32
544.82	57315.04
544.99	57219.08
545.16	57450.79
545.32	57305.68
545.49	57591.22
545.66	57801.87
545.83	57251.84
546.00	57649.74
546.16	57467.17
546.33	57516.32
546.50	57235.46
546.67	57542.07
546.83	57331.42
547.00	57598.24
547.17	57499.94
547.34	57855.70
547.50	57867.40
547.67	58305.09
547.84	57968.05
548.00	58078.05
548.17	58056.99
548.34	58094.44
548.51	58267.64
548.67	58019.54
548.84	57984.43
549.01	58052.31
549.18	58185.72
549.34	57954.00
549.51	58291.04
549.68	58471.26
549.84	58279.34
550.01	58211.46
550.18	58108.48
550.34	58347.21
550.51	58323.81
550.68	58417.43
550.84	58195.08
551.01	58382.32
551.18	58267.64
551.34	58199.76
551.51	58286.36
551.68	58541.48
551.84	58707.66
552.01	58555.52
552.18	58508.71
552.34	58244.23
552.51	58543.82
552.68	58438.50
552.84	58695.95
553.01	58583.61
553.18	58794.26
553.34	58918.31
553.51	58569.57
553.67	58691.27
553.84	58960.44
554.01	58822.34
554.17	58702.98
554.34	58951.07
554.51	58756.81
554.67	58967.46
554.84	59070.44
555.00	58824.68
555.17	58841.07
555.33	59110.23
555.50	58707.66
555.67	58702.98
555.83	58922.99
556.00	59107.89
556.16	59267.05
556.33	59330.24
556.50	59234.28
556.66	59121.93
556.83	59056.40
556.99	59290.45
557.16	59255.34
557.32	59367.69
557.49	59398.12
557.65	59274.07
557.82	59377.05
557.98	59339.60
558.15	59269.39
558.32	59428.54
558.48	59089.16
558.65	59355.99
558.81	59487.06
558.98	59365.35
559.14	59229.60
559.31	59470.67
559.47	59477.69
559.64	59686.00
559.80	59503.44
559.97	59678.98
560.13	59428.54
560.30	59536.21
560.46	59793.67
560.63	59746.86
560.79	59662.60
560.96	60048.78
561.12	59793.67
561.29	59641.53
561.45	59824.09
561.61	59767.92
561.78	59746.86
561.94	59678.98
562.11	59678.98
562.27	59674.30
562.44	59704.73
562.60	59833.46
562.77	59875.58
562.93	59618.13
563.10	59873.24
563.26	59653.23
563.42	60083.89
563.59	60083.89
563.75	59840.48
563.92	59997.29
564.08	59807.71
564.24	60030.06
564.41	59959.84
564.57	60041.76
564.74	59833.46
564.90	59702.38
565.07	59929.42
565.23	60079.21
565.39	60011.34
565.56	59941.12
565.72	60074.53
565.88	60041.76
566.05	60142.41
566.21	59842.82
566.38	60271.14
566.54	60111.98
566.70	60280.50
566.87	60123.68
567.03	60210.28
567.19	60294.54
567.36	60320.29
567.52	60360.08
567.68	60521.57
567.85	60385.82
568.01	60193.90
568.17	60175.17
568.34	60397.52
568.50	60212.62
568.66	60207.94
568.83	60418.59
568.99	60119.00
569.15	60374.12
569.32	60322.63
569.48	60299.22
569.64	60336.67
569.81	60348.37
569.97	60083.89
570.13	60530.93
570.30	60294.54
570.46	60418.59
570.62	60306.24
570.78	60441.99
570.95	60523.91
571.11	60502.85
571.27	60229.01
571.43	60280.50
571.60	60566.04
571.76	60348.37
571.92	60460.72
572.09	60554.34
572.25	60261.77
572.41	60294.54
572.57	60521.57
572.74	60643.28
572.90	60313.26
573.06	60472.42
573.22	60526.25
573.38	60533.28
573.55	60432.63
573.71	60678.39
573.87	60575.40
574.03	60446.68
574.20	60561.36
574.36	60584.77
574.52	60776.69
574.68	60533.28
574.84	60659.66
575.01	60570.72
575.17	60718.18
575.33	60528.59
575.49	60516.89
575.65	60816.48
575.82	60615.19
575.98	60575.40
576.14	60774.35
576.30	60631.58
576.46	60589.45
576.62	60814.14
576.79	60671.37
576.95	60669.03
577.11	60699.45
577.27	60657.32
577.43	60624.56
577.59	60776.69
577.75	60741.58
577.92	60573.06
578.08	60683.07
578.24	60818.82
578.40	60587.11
578.56	60867.97
578.72	60704.13
578.88	60786.05
579.04	61013.08
579.21	60863.29
579.37	60851.59
579.53	60924.14
579.69	60701.79
579.85	60727.54
580.01	60830.52
580.17	60739.24
580.33	60853.93
580.49	60870.31
580.65	60748.60
580.82	60816.48
580.98	60631.58
581.14	60746.26
581.30	60853.93
581.46	60790.73
581.62	60725.20
581.78	60678.39
581.94	60996.70
582.10	61022.45
582.26	60563.70
582.42	60671.37
582.58	60912.44
582.74	60886.70
582.90	60788.39
583.06	60931.17
583.22	60891.38
583.38	60900.74
583.54	60804.78
583.70	60921.80
583.86	60945.21
584.02	60767.33
584.18	60889.04
584.34	60757.97
584.50	60821.16
584.66	60786.05
584.82	60839.89
584.98	61193.31
585.14	61130.11
585.30	60809.46
585.46	60928.83
585.62	60872.65
585.78	61057.56
585.94	60683.07
586.10	61015.43
586.26	60867.97
586.42	60910.10
586.58	61080.96
586.74	60940.53
586.90	61003.72
587.06	60835.20
587.22	61006.06
587.38	60952.23
587.54	61090.32
587.70	61167.56
587.86	60879.67
588.02	60931.17
588.18	61057.56
588.34	60842.23
588.49	60980.32
