SpectraSuite Data File
++++++++++++++++++++++++++++++++++++
Date: Fri Oct 25 10:44:47 EDT 2013
User: price-jones
Dark Spectrum Present: No
Reference Spectrum Present: No
Number of Sampled Component Spectra: 1
Spectrometers: USB2+H05261
Integration Time (usec): 100000 (USB2+H05261)
Spectra Averaged: 1 (USB2+H05261)
Boxcar Smoothing: 0 (USB2+H05261)
Correct for Electrical Dark: No (USB2+H05261)
Strobe/Lamp Enabled: No (USB2+H05261)
Correct for Detector Non-linearity: No (USB2+H05261)
Correct for Stray Light: No (USB2+H05261)
Number of Pixels in Processed Spectrum: 2048
>>>>>Begin Processed Spectral Data<<<<<
365.73	142.77
365.92	142.77
366.12	142.77
366.32	168.52
366.52	51.49
366.72	86.60
366.91	0.00
367.11	0.00
367.31	93.62
367.51	30.43
367.70	0.00
367.90	39.79
368.10	79.58
368.30	37.45
368.49	42.13
368.69	23.41
368.89	32.77
369.09	16.38
369.28	39.79
369.48	88.94
369.68	28.09
369.87	105.32
370.07	60.85
370.27	110.01
370.47	224.69
370.66	304.27
370.86	402.57
371.06	379.17
371.25	463.43
371.45	348.74
371.65	402.57
371.84	400.23
372.04	402.57
372.24	512.58
372.44	512.58
372.63	475.13
372.83	421.30
373.03	470.45
373.22	512.58
373.42	454.06
373.62	533.64
373.81	554.71
374.01	589.82
374.21	578.11
374.40	528.96
374.60	503.22
374.79	500.87
374.99	578.11
375.19	601.52
375.38	540.66
375.58	552.37
375.78	489.17
375.97	547.69
376.17	615.56
376.37	538.32
376.56	557.05
376.76	578.11
376.95	622.58
377.15	596.84
377.35	578.11
377.54	631.94
377.74	573.43
377.93	638.97
378.13	603.86
378.33	582.79
378.52	582.79
378.72	657.69
378.91	594.50
379.11	582.79
379.31	631.94
379.50	622.58
379.70	608.54
379.89	648.33
380.09	571.09
380.28	603.86
380.48	685.78
380.68	669.39
380.87	622.58
381.07	725.57
381.26	746.63
381.46	711.52
381.65	699.82
381.85	615.56
382.04	580.45
382.24	709.18
382.43	627.26
382.63	622.58
382.83	650.67
383.02	702.16
383.22	711.52
383.41	667.05
383.61	709.18
383.80	674.07
384.00	699.82
384.19	641.31
384.39	711.52
384.58	823.87
384.78	718.54
384.97	793.44
385.17	739.61
385.36	758.33
385.56	732.59
385.75	777.06
385.95	819.19
386.14	816.85
386.34	690.46
386.53	777.06
386.72	809.83
386.92	727.91
387.11	819.19
387.31	781.74
387.50	788.76
387.70	765.36
387.89	760.67
388.09	784.08
388.28	851.96
388.48	807.48
388.67	905.79
388.86	861.32
389.06	856.64
389.25	809.83
389.45	929.19
389.64	814.51
389.84	882.38
390.03	968.98
390.22	933.87
390.42	903.45
390.61	950.26
390.81	954.94
391.00	961.96
391.19	901.11
391.39	1027.50
391.58	1008.77
391.78	954.94
391.97	961.96
392.16	856.64
392.36	1018.13
392.55	968.98
392.75	952.60
392.94	891.74
393.13	866.00
393.33	882.38
393.52	1015.79
393.71	968.98
393.91	978.34
394.10	1069.62
394.29	1095.37
394.49	1100.05
394.68	1041.54
394.88	1071.97
395.07	1067.28
395.26	1191.33
395.46	1174.95
395.65	1163.25
395.84	1067.28
396.04	1146.86
396.23	1064.94
396.42	1071.97
396.62	1053.24
396.81	1118.78
397.00	1083.67
397.19	1228.78
397.39	1181.97
397.58	1263.89
397.77	1233.46
397.97	1306.02
398.16	1205.38
398.35	1315.38
398.55	1282.61
398.74	1357.51
398.93	1357.51
399.12	1362.19
399.32	1399.64
399.51	1373.89
399.70	1355.17
399.90	1416.02
400.09	1341.13
400.28	1357.51
400.47	1413.68
400.67	1411.34
400.86	1427.73
401.05	1481.56
401.24	1467.52
401.44	1387.94
401.63	1493.26
401.82	1591.56
402.01	1448.79
402.21	1558.80
402.40	1542.41
402.59	1490.92
402.78	1519.01
402.97	1633.69
403.17	1589.22
403.36	1582.20
403.55	1540.07
403.74	1645.40
403.93	1629.01
404.13	1795.19
404.32	1577.52
404.51	1584.54
404.70	1614.97
404.89	1680.50
405.09	1732.00
405.28	1720.29
405.47	1703.91
405.66	1680.50
405.85	1699.23
406.05	1757.74
406.24	1797.53
406.43	1790.51
406.62	1743.70
406.81	1928.60
407.00	1834.98
407.20	1750.72
407.39	1881.79
407.58	1891.15
407.77	1902.86
407.96	1949.67
408.15	1820.94
408.34	2015.20
408.54	2017.54
408.73	1973.07
408.92	1963.71
409.11	2043.29
409.30	2050.31
409.49	2069.03
409.68	1921.58
409.87	1956.69
410.07	1980.09
410.26	2115.84
410.45	2132.23
410.64	2193.08
410.83	2160.31
411.02	2286.70
411.21	2361.60
411.40	2251.60
411.59	2469.27
411.78	2312.45
411.98	2282.02
412.17	2424.80
412.36	2246.91
412.55	2408.41
412.74	2427.14
412.93	2373.30
413.12	2457.56
413.31	2525.44
413.50	2457.56
413.69	2408.41
413.88	2619.06
414.07	2459.90
414.26	2612.04
414.45	2576.93
414.64	2595.65
414.83	2523.10
415.02	2637.78
415.22	2691.62
415.41	2834.39
415.60	2736.09
415.79	2799.28
415.98	2789.92
416.17	2841.41
416.36	2972.48
416.55	3000.57
416.74	2862.48
416.93	2965.46
417.12	2963.12
417.31	3005.25
417.50	2993.55
417.69	3066.10
417.88	3038.02
418.07	3169.09
418.26	3045.04
418.45	3108.23
418.64	3215.90
418.83	3201.85
419.02	3073.12
419.21	3227.60
419.39	3131.64
419.58	3309.52
419.77	3185.47
419.96	3265.05
420.15	3269.73
420.34	3307.18
420.53	3304.84
420.72	3480.38
420.91	3452.29
421.10	3435.91
421.29	3538.89
421.48	3349.31
421.67	3344.63
421.86	3419.52
422.05	3332.92
422.24	3452.29
422.43	3407.82
422.61	3428.88
422.80	3583.36
422.99	3471.01
423.18	3545.91
423.37	3555.27
423.56	3574.00
423.75	3578.68
423.94	3489.74
424.13	3288.45
424.32	3389.10
424.50	3705.07
424.69	3679.32
424.88	3679.32
425.07	3508.46
425.26	3550.59
425.45	3515.48
425.64	3592.72
425.83	3609.11
426.01	3552.93
426.20	3676.98
426.39	3578.68
426.58	3543.57
426.77	3543.57
426.96	3611.45
427.15	3669.96
427.33	3513.14
427.52	3679.32
427.71	3719.11
427.90	3721.45
428.09	3810.39
428.28	3719.11
428.46	3681.66
428.65	3751.88
428.84	3779.97
429.03	3941.46
429.22	3763.58
429.40	3815.07
429.59	3749.54
429.78	3681.66
429.97	3737.84
430.16	3730.81
430.34	3705.07
430.53	3948.48
430.72	3791.67
430.91	3957.85
431.10	3932.10
431.28	4128.70
431.47	4241.05
431.66	4283.18
431.85	4138.07
432.03	4156.79
432.22	4194.24
432.41	4149.77
432.60	4191.90
432.79	4428.29
432.97	4299.56
433.16	4315.95
433.35	4290.20
433.54	4264.46
433.72	4294.88
433.91	4166.15
434.10	4489.15
434.28	4243.39
434.47	4306.59
434.66	4308.93
434.85	4397.87
435.03	4564.04
435.22	4491.49
435.41	4709.16
435.59	4489.15
435.78	4634.26
435.97	4755.97
436.16	4627.24
436.34	4683.41
436.53	4622.56
436.72	4690.43
436.90	4568.73
437.09	4723.20
437.28	4702.14
437.46	4552.34
437.65	4713.84
437.84	4880.02
438.02	4788.74
438.21	4802.78
438.40	4596.81
438.58	4849.59
438.77	4840.23
438.96	4884.70
439.14	5100.03
439.33	4992.36
439.52	5109.39
439.70	5060.24
439.89	5212.37
440.08	5249.82
440.26	5191.31
440.45	5116.41
440.63	5263.86
440.82	5310.68
441.01	5441.75
441.19	5439.40
441.38	5465.15
441.57	5516.64
441.75	5540.05
441.94	5762.40
442.12	5591.54
442.31	5696.86
442.50	5612.60
442.68	5762.40
442.87	5647.71
443.05	5818.57
443.24	5781.12
443.43	5713.25
443.61	5757.72
443.80	5870.06
443.98	5746.02
444.17	5657.07
444.35	5795.17
444.54	5940.28
444.73	5778.78
444.91	5907.51
445.10	5741.33
445.28	5851.34
445.47	5898.15
445.65	5877.09
445.84	6024.54
446.02	5982.41
446.21	5966.03
446.39	5942.62
446.58	6026.88
446.77	5872.40
446.95	5909.85
447.14	6010.50
447.32	6087.73
447.51	5888.79
447.69	5982.41
447.88	6008.16
448.06	6118.16
448.25	5888.79
448.43	6038.58
448.62	5900.49
448.80	6015.18
448.99	6253.91
449.17	6155.61
449.36	5991.77
449.54	6368.60
449.73	6253.91
449.91	6368.60
450.10	6373.28
450.28	6534.78
450.46	6399.02
450.65	6665.85
450.83	6513.71
451.02	6314.77
451.20	6534.78
451.39	6455.20
451.57	6408.39
451.76	6338.17
451.94	6518.39
452.13	6649.46
452.31	6581.59
452.49	6459.88
452.68	6312.42
452.86	6469.24
453.05	6534.78
453.23	6649.46
453.42	6560.52
453.60	6579.25
453.78	6698.61
453.97	6675.21
454.15	6604.99
454.34	6679.89
454.52	6705.63
454.70	6801.60
454.89	6757.13
455.07	6974.80
455.26	6998.20
455.44	6890.54
455.62	7148.00
455.81	6913.94
455.99	7059.06
456.17	7016.93
456.36	7094.16
456.54	7243.96
456.73	7213.53
456.91	7225.23
457.09	7325.88
457.28	7386.73
457.46	7122.25
457.64	7281.41
457.83	7239.28
458.01	7133.95
458.19	7536.52
458.38	7379.71
458.56	7585.68
458.74	7480.35
458.93	7426.52
459.11	7258.00
459.29	7669.94
459.48	7768.24
459.66	7442.90
459.84	7545.89
460.03	7630.15
460.21	7681.64
460.39	7583.34
460.57	7702.70
460.76	7644.19
460.94	7838.45
461.12	7873.56
461.31	7812.71
461.49	7826.75
461.67	7805.69
461.85	7857.18
462.04	7911.01
462.22	8189.53
462.40	8116.98
462.59	7899.31
462.77	8023.36
462.95	8152.09
463.13	8018.68
463.32	7901.65
463.50	7934.42
463.68	7964.84
463.86	8231.66
464.05	8109.96
464.23	8327.63
464.41	8294.86
464.59	8077.19
464.78	8262.09
464.96	8472.74
465.14	8236.35
465.32	8407.20
465.50	8374.44
465.69	8395.50
465.87	8304.22
466.05	8451.67
466.23	8217.62
466.41	8304.22
466.60	8636.58
466.78	8472.74
466.96	8514.87
467.14	8439.97
467.32	8559.34
467.51	8688.07
467.69	8358.05
467.87	8594.45
468.05	8622.53
468.23	8723.18
468.41	8762.97
468.60	8793.39
468.78	8505.51
468.96	8699.77
469.14	8781.69
469.32	8945.53
469.50	8702.11
469.69	9062.55
469.87	8968.93
470.05	9041.49
470.23	8990.00
470.41	9041.49
470.59	8940.85
470.77	8842.54
470.95	9036.81
471.14	9200.65
471.32	9032.13
471.50	9331.72
471.68	9240.44
471.86	9401.93
472.04	9205.33
472.22	9729.61
472.40	9362.14
472.58	9411.29
472.77	9600.88
472.95	9659.39
473.13	9708.54
473.31	9657.05
473.49	9650.03
473.67	9589.17
473.85	9753.01
474.03	9919.19
474.21	10033.88
474.39	10059.62
474.57	9996.43
474.75	10204.74
474.93	10281.97
475.12	10214.10
475.30	10237.50
475.48	10235.16
475.66	10115.80
475.84	10291.34
476.02	10415.38
476.20	10506.66
476.38	10562.84
476.56	10796.89
476.74	10944.34
476.92	11030.94
477.10	10595.61
477.28	10888.17
477.46	10920.94
477.64	11267.34
477.82	11410.11
478.00	11529.48
478.18	11407.77
478.36	11396.07
478.54	11435.86
478.72	11644.17
478.90	11836.09
479.08	12030.35
479.26	11967.16
479.44	11999.93
479.62	11974.18
479.80	12135.68
479.98	12208.23
480.16	12407.18
480.34	12549.95
480.52	12531.23
480.70	12512.50
480.88	12430.59
481.06	12610.81
481.24	12807.41
481.41	12879.97
481.59	13081.25
481.77	13181.90
481.95	12931.46
482.13	13287.22
482.31	13224.03
482.49	13514.25
482.67	13530.64
482.85	13591.49
483.03	13879.38
483.21	14040.87
483.39	13781.07
483.57	14160.24
483.74	14150.88
483.92	14190.67
484.10	14429.40
484.28	14572.18
484.46	14766.44
484.64	15218.16
484.82	14712.61
485.00	14993.47
485.18	15140.93
485.35	15218.16
485.53	14930.28
485.71	15131.56
485.89	15307.10
486.07	15269.66
486.25	15433.49
486.43	15618.39
486.61	15789.25
486.78	16060.76
486.96	16262.04
487.14	16374.39
487.32	16306.51
487.50	16538.23
487.68	16769.94
487.85	17003.99
488.03	16908.03
488.21	16978.25
488.39	17263.79
488.57	17303.58
488.75	17441.67
488.92	17509.55
489.10	17862.97
489.28	17764.67
489.46	18068.94
489.64	18106.38
489.81	18424.70
489.99	18354.48
490.17	18583.85
490.35	18871.74
490.53	18684.50
490.70	18670.45
490.88	18867.06
491.06	18904.51
491.24	18904.51
491.41	18883.44
491.59	19229.84
491.77	19056.64
491.95	19557.52
492.13	19623.05
492.30	19459.21
492.48	19917.96
492.66	19901.58
492.84	20046.69
493.01	20411.81
493.19	20308.83
493.37	20547.56
493.54	20290.10
493.72	21032.05
493.90	21043.76
494.08	20891.62
494.25	21186.53
494.43	21553.99
494.61	21305.90
494.79	21596.12
494.96	21270.79
495.14	21876.99
495.32	21804.43
495.49	21589.10
495.67	21872.31
495.85	22183.60
496.02	22319.35
496.20	22391.91
496.38	22534.68
496.55	22553.40
496.73	22981.72
496.91	22892.78
497.09	23051.94
497.26	22979.38
497.44	22967.68
497.62	23316.42
497.79	23208.75
497.97	23604.30
498.14	23768.14
498.32	23807.93
498.50	23714.31
498.67	23885.17
498.85	24126.24
499.03	24306.46
499.20	24322.85
499.38	24374.34
499.56	24435.19
499.73	24837.76
499.91	24847.13
500.08	24676.27
500.26	24636.48
500.44	24959.47
500.61	24603.71
500.79	24713.72
500.97	25010.96
501.14	25371.41
501.32	25118.63
501.49	24840.11
501.67	25465.03
501.84	25362.04
502.02	25359.70
502.20	25525.88
502.37	25823.13
502.55	25764.62
502.72	25834.83
502.90	25984.63
503.07	26092.29
503.25	26050.16
503.43	26073.57
503.60	26148.46
503.78	26349.75
503.95	26167.19
504.13	26305.28
504.30	26630.62
504.48	26979.36
504.65	26752.32
504.83	27337.46
505.01	26962.97
505.18	27070.64
505.36	27182.98
505.53	27016.80
505.71	27325.75
505.88	28009.19
506.06	27255.54
506.23	27489.59
506.41	27292.99
506.58	27683.86
506.76	27669.81
506.93	28166.01
507.11	27878.12
507.28	27861.74
507.46	27938.97
507.63	27999.83
507.81	28041.96
507.98	27924.93
508.16	27978.76
508.33	28390.70
508.50	28755.82
508.68	28716.03
508.85	28954.77
509.03	28648.16
509.20	28741.78
509.38	29006.26
509.55	29083.50
509.73	29127.97
509.90	29448.62
510.08	29191.16
510.25	29340.96
510.42	29167.76
510.60	29649.91
510.77	29668.63
510.95	30050.14
511.12	29680.33
511.30	29603.10
511.47	30593.14
511.64	30438.67
511.82	30448.03
511.99	29979.92
512.17	30188.23
512.34	29921.41
512.51	30464.41
512.69	30506.54
512.86	30532.29
513.04	30820.17
513.21	30749.96
513.38	30668.04
513.56	30843.58
513.73	30920.82
513.90	30899.75
514.08	31056.57
514.25	30745.28
514.43	31065.93
514.60	31087.00
514.77	31227.43
514.95	31332.75
515.12	31138.49
515.29	31253.17
515.47	31861.71
515.64	31824.26
515.81	31571.49
515.99	31421.69
516.16	31777.45
516.33	31723.62
516.51	31967.04
516.68	31309.35
516.85	32027.89
517.03	31304.67
517.20	32236.20
517.37	32210.45
517.54	32203.43
517.72	32173.00
517.89	32423.44
518.06	31945.97
518.24	31786.82
518.41	32252.58
518.58	32582.60
518.75	32121.51
518.93	32730.05
519.10	32809.63
519.27	32961.76
519.45	32488.98
519.62	32929.00
519.79	33043.68
519.96	33174.75
520.14	33270.72
520.31	33141.99
520.48	33472.00
520.65	33209.86
520.83	33596.05
521.00	33907.34
521.17	33895.64
521.34	33832.44
521.52	33677.97
521.69	34115.65
521.86	34167.14
522.03	33951.81
522.20	33956.49
522.38	34115.65
522.55	34232.68
522.72	34040.75
522.89	33970.54
523.07	34237.36
523.24	34181.18
523.41	34976.97
523.58	34525.24
523.75	35276.55
523.92	34979.31
524.10	34981.65
524.27	35405.28
524.44	35112.72
524.61	35393.58
524.78	35622.95
524.96	35482.52
525.13	35545.72
525.30	35424.01
525.47	35718.92
525.64	35335.07
525.81	35849.99
525.98	35480.18
526.16	35491.88
526.33	35196.98
526.50	35695.51
526.67	35222.72
526.84	35501.25
527.01	35800.83
527.18	36009.14
527.36	36437.46
527.53	36123.83
527.70	36388.31
527.87	36495.97
528.04	35896.80
528.21	36205.75
528.38	35915.52
528.55	36299.37
528.72	36240.86
528.89	36669.17
529.07	36615.34
529.24	36381.29
529.41	36566.19
529.58	36510.02
529.75	36311.07
529.92	36748.75
530.09	36678.54
530.26	36577.89
530.43	36776.84
530.60	36446.82
530.77	36603.64
530.94	37069.40
531.11	37179.41
531.28	37563.26
531.46	37308.14
531.63	37088.13
531.80	37177.07
531.97	37174.73
532.14	37038.98
532.31	37244.94
532.48	37450.91
532.65	37322.18
532.82	37610.07
532.99	37652.20
533.16	37462.61
533.33	37748.16
533.50	37748.16
533.67	37574.96
533.84	37502.40
534.01	37883.91
534.18	37673.26
534.35	38068.81
534.52	38052.43
534.69	38045.41
534.86	38305.21
535.03	38106.26
535.20	38506.49
535.37	38373.08
535.54	38822.47
535.71	38469.04
535.88	38431.60
536.05	38120.31
536.22	38902.04
536.38	38705.44
536.55	38696.08
536.72	38639.90
536.89	38597.77
537.06	38689.06
537.23	38794.38
537.40	38738.21
537.57	38878.64
537.74	39105.67
537.91	39065.88
538.08	38782.68
538.25	38607.14
538.42	38923.11
538.59	39346.75
538.75	38817.78
538.92	38946.51
539.09	39365.47
539.26	39185.25
539.43	39353.77
539.60	39061.20
539.77	39089.29
539.94	39218.02
540.11	39442.71
540.28	39653.36
540.44	39608.89
540.61	39463.77
540.78	39030.77
540.95	39704.85
541.12	39533.99
541.29	39299.94
541.46	39606.55
541.62	39526.97
541.79	39805.49
541.96	39655.70
542.13	39819.53
542.30	39922.52
542.47	40201.04
542.63	39969.33
542.80	40140.19
542.97	40683.19
543.14	40797.88
543.31	40652.76
543.48	40657.45
543.64	41081.08
543.81	40711.28
543.98	40730.00
544.15	40570.85
544.32	40652.76
544.48	40722.98
544.65	40772.13
544.82	40741.71
544.99	40669.15
545.16	41191.09
545.32	40701.92
545.49	41329.18
545.66	41144.28
545.83	41326.84
546.00	41605.36
546.16	41179.39
546.33	40830.65
546.50	41134.92
546.67	41109.17
546.83	40884.48
547.00	41249.60
547.17	41170.02
547.34	40851.71
547.50	40900.86
547.67	41698.98
547.84	41263.64
548.00	41745.80
548.17	41872.18
548.34	41776.22
548.51	41652.17
548.67	41837.08
548.84	41577.28
549.01	41104.49
549.18	41565.57
549.34	41748.14
549.51	41839.42
549.68	41893.25
549.84	42366.04
550.01	41748.14
550.18	41759.84
550.34	42103.90
550.51	41858.14
550.68	42092.19
550.84	41691.96
551.01	41949.42
551.18	41940.06
551.34	42227.95
551.51	41766.86
551.68	42649.24
551.84	42099.22
552.01	42223.26
552.18	42431.57
552.34	42169.43
552.51	42677.33
552.68	42422.21
552.84	42607.11
553.01	42822.44
553.18	42330.93
553.34	42511.15
553.51	41673.24
553.67	42447.96
553.84	42799.04
554.01	42686.69
554.17	42887.98
554.34	42644.56
554.51	42679.67
554.67	42749.88
554.84	42506.47
555.00	42553.28
555.17	42155.39
555.33	42958.19
555.50	42883.30
555.67	42674.99
555.83	42672.65
556.00	43370.13
556.16	43147.78
556.33	43335.02
556.50	42988.62
556.66	42899.68
556.83	43203.95
556.99	43199.27
557.16	43337.36
557.32	43065.86
557.49	43386.51
557.65	42707.76
557.82	42880.95
557.98	43288.21
558.15	43035.43
558.32	43524.60
558.48	43187.56
558.65	43150.12
558.81	42674.99
558.98	43077.56
559.14	43213.31
559.31	42976.92
559.47	43047.13
559.64	43351.40
559.80	43658.01
559.97	43285.87
560.13	43250.76
560.30	43536.30
560.46	43503.54
560.63	43349.06
560.79	43360.76
560.96	43810.15
561.12	43604.18
561.29	43583.12
561.45	43519.92
561.61	43550.35
561.78	43522.26
561.94	43632.27
562.11	43592.48
562.27	43217.99
562.44	43634.61
562.60	43571.41
562.77	44048.88
562.93	43751.63
563.10	43824.19
563.26	43409.92
563.42	43894.41
563.59	43379.49
563.75	43985.69
563.92	43679.08
564.08	43540.99
564.24	43917.81
564.41	43988.03
564.57	43849.94
564.74	43381.83
564.90	44062.93
565.07	44149.53
565.23	44144.84
565.39	43725.89
565.56	44079.31
565.72	43922.49
565.88	44142.50
566.05	44343.79
566.21	43714.19
566.38	44044.20
566.54	44343.79
566.70	44320.38
566.87	44296.98
567.03	44121.44
567.19	44158.89
567.36	44179.95
567.52	43920.15
567.68	44397.62
567.85	43948.24
568.01	44245.49
568.17	44091.01
568.34	44123.78
568.50	43875.68
568.66	44299.32
568.83	44098.03
568.99	43786.74
569.15	43793.76
569.32	44226.76
569.48	43775.04
569.64	44215.06
569.81	44107.40
569.97	44301.66
570.13	44362.51
570.30	43711.84
570.46	43894.41
570.62	44046.54
570.78	44048.88
570.95	43868.66
571.11	44334.43
571.27	44137.82
571.43	44051.22
571.60	43901.43
571.76	44032.50
571.92	44280.60
572.09	44018.46
572.25	43938.88
572.41	43814.83
572.57	44463.16
572.74	44685.51
572.90	44512.31
573.06	43983.35
573.22	44502.95
573.38	43962.28
573.55	44095.69
573.71	44465.50
573.87	44053.56
574.03	43655.67
574.20	44460.82
574.36	44516.99
574.52	44587.21
574.68	44388.26
574.84	44325.07
575.01	44168.25
575.17	44762.75
575.33	44437.41
575.49	43973.98
575.65	44460.82
575.82	44257.19
575.98	44259.53
576.14	44903.18
576.30	44233.78
576.46	44051.22
576.62	44619.97
576.79	44561.46
576.95	43768.02
577.11	44428.05
577.27	44453.79
577.43	44381.24
577.59	44378.90
577.75	44636.36
577.92	43810.15
578.08	44123.78
578.24	44364.85
578.40	44378.90
578.56	44353.15
578.72	44591.89
578.88	44751.04
579.04	44662.10
579.21	44320.38
579.37	44107.40
579.53	44547.42
579.69	44236.12
579.85	44561.46
580.01	44465.50
580.17	44264.21
580.33	44832.96
580.49	44170.59
580.65	44367.20
580.82	44748.70
580.98	44414.01
581.14	44526.35
581.30	44662.10
581.46	44900.84
581.62	44715.93
581.78	44348.47
581.94	44666.78
582.10	44439.75
582.26	44364.85
582.42	44325.07
582.58	44683.17
582.74	44619.97
582.90	44898.50
583.06	44692.53
583.22	44236.12
583.38	44999.14
583.54	44610.61
583.70	44535.71
583.86	44737.00
584.02	44467.84
584.18	44699.55
584.34	44526.35
584.50	44542.74
584.66	44547.42
584.82	44575.50
584.98	44741.68
585.14	44739.34
585.30	44811.90
585.46	44484.22
585.62	44348.47
585.78	44184.63
585.94	44037.18
586.10	44280.60
586.26	44151.87
586.42	44839.98
586.58	44856.37
586.74	44346.13
586.90	44451.45
587.06	44453.79
587.22	44657.42
587.38	44535.71
587.54	44456.14
587.70	44671.46
587.86	44563.80
588.02	44708.91
588.18	44992.12
588.34	44526.35
588.49	44538.05
588.65	43498.86
588.81	44027.82
588.97	44109.74
589.13	44294.64
589.29	44587.21
589.45	44882.11
589.61	44275.91
589.77	45132.55
589.93	45146.59
590.08	44435.07
590.24	44495.92
