SpectraSuite Data File
++++++++++++++++++++++++++++++++++++
Date: Fri Oct 25 11:23:10 EDT 2013
User: price-jones
Dark Spectrum Present: No
Reference Spectrum Present: No
Number of Sampled Component Spectra: 1
Spectrometers: USB2+H05261
Integration Time (usec): 100000 (USB2+H05261)
Spectra Averaged: 1 (USB2+H05261)
Boxcar Smoothing: 0 (USB2+H05261)
Correct for Electrical Dark: No (USB2+H05261)
Strobe/Lamp Enabled: No (USB2+H05261)
Correct for Detector Non-linearity: No (USB2+H05261)
Correct for Stray Light: No (USB2+H05261)
Number of Pixels in Processed Spectrum: 2048
>>>>>Begin Processed Spectral Data<<<<<
365.73	248.10
365.92	248.10
366.12	248.10
366.32	170.86
366.52	159.16
366.72	145.11
366.91	133.41
367.11	156.82
367.31	72.56
367.51	100.64
367.70	67.88
367.90	102.98
368.10	105.32
368.30	102.98
368.49	0.00
368.69	152.13
368.89	168.52
369.09	126.39
369.28	140.43
369.48	156.82
369.68	194.26
369.87	180.22
370.07	198.95
370.27	177.88
370.47	365.12
370.66	629.60
370.86	641.31
371.06	667.05
371.25	727.91
371.45	587.47
371.65	664.71
371.84	594.50
372.04	688.12
372.24	685.78
372.44	676.41
372.63	774.72
372.83	716.20
373.03	706.84
373.22	681.10
373.42	837.91
373.62	788.76
373.81	821.53
374.01	830.89
374.21	863.66
374.40	840.25
374.60	781.74
374.79	870.68
374.99	814.51
375.19	793.44
375.38	870.68
375.58	854.30
375.78	772.38
375.97	760.67
376.17	880.04
376.37	875.36
376.56	915.15
376.76	889.40
376.95	835.57
377.15	908.13
377.35	814.51
377.54	898.77
377.74	828.55
377.93	922.17
378.13	952.60
378.33	968.98
378.52	957.28
378.72	863.66
378.91	926.85
379.11	994.73
379.31	882.38
379.50	964.30
379.70	933.87
379.89	976.00
380.09	961.96
380.28	964.30
380.48	997.07
380.68	954.94
380.87	976.00
381.07	1036.86
381.26	985.37
381.46	1027.50
381.65	1100.05
381.85	1067.28
382.04	1083.67
382.24	1060.26
382.43	1149.20
382.63	1069.62
382.83	1067.28
383.02	1184.31
383.22	1090.69
383.41	1071.97
383.61	1097.71
383.80	1114.10
384.00	1214.74
384.19	1114.10
384.39	1088.35
384.58	1114.10
384.78	1097.71
384.97	1228.78
385.17	1100.05
385.36	1160.91
385.56	1153.88
385.75	1125.80
385.95	1191.33
386.14	1102.39
386.34	1277.93
386.53	1203.04
386.72	1186.65
386.92	1170.27
387.11	1226.44
387.31	1263.89
387.50	1254.53
387.70	1203.04
387.89	1315.38
388.09	1299.00
388.28	1275.59
388.48	1268.57
388.67	1282.61
388.86	1245.16
389.06	1322.40
389.25	1413.68
389.45	1366.87
389.64	1287.29
389.84	1430.07
390.03	1401.98
390.22	1453.47
390.42	1385.60
390.61	1411.34
390.81	1348.15
391.00	1399.64
391.19	1394.96
391.39	1441.77
391.58	1432.41
391.78	1474.54
391.97	1416.02
392.16	1413.68
392.36	1474.54
392.55	1537.73
392.75	1549.43
392.94	1504.96
393.13	1488.58
393.33	1542.41
393.52	1556.46
393.71	1593.90
393.91	1537.73
394.10	1652.42
394.29	1640.72
394.49	1633.69
394.68	1664.12
394.88	1647.74
395.07	1687.53
395.26	1598.59
395.46	1680.50
395.65	1746.04
395.84	1764.76
396.04	1795.19
396.23	1778.81
396.42	1792.85
396.62	1727.32
396.81	1799.87
397.00	1802.21
397.19	1654.76
397.39	1827.96
397.58	1865.41
397.77	1825.62
397.97	1867.75
398.16	1832.64
398.35	1961.37
398.55	1884.13
398.74	1914.56
398.93	1975.41
399.12	1874.77
399.32	1856.04
399.51	1865.41
399.70	2052.65
399.90	2071.37
400.09	2036.27
400.28	2057.33
400.47	2062.01
400.67	2071.37
400.86	2099.46
401.05	2029.24
401.24	2188.40
401.44	2122.87
401.63	2174.36
401.82	2157.97
402.01	2078.40
402.21	2174.36
402.40	2101.80
402.59	2223.51
402.78	2246.91
402.97	2209.47
403.17	2331.17
403.36	2225.85
403.55	2396.71
403.74	2368.62
403.93	2331.17
404.13	2333.51
404.32	2417.77
404.51	2380.32
404.70	2487.99
404.89	2338.20
405.09	2551.18
405.28	2401.39
405.47	2523.10
405.66	2382.67
405.85	2532.46
406.05	2579.27
406.24	2635.44
406.43	2609.70
406.62	2661.19
406.81	2621.40
407.00	2640.12
407.20	2574.59
407.39	2637.78
407.58	2712.68
407.77	2693.96
407.96	2689.28
408.15	2780.56
408.34	2773.53
408.54	2757.15
408.73	2853.11
408.92	2862.48
409.11	2970.14
409.30	2860.13
409.49	2972.48
409.68	3005.25
409.87	3016.95
410.07	3056.74
410.26	3056.74
410.45	3068.44
410.64	3052.06
410.83	3098.87
411.02	3183.13
411.21	3192.49
411.40	3038.02
411.59	3276.75
411.78	3276.75
411.98	3197.17
412.17	3253.34
412.36	3410.16
412.55	3304.84
412.74	3487.40
412.93	3384.41
413.12	3361.01
413.31	3515.48
413.50	3473.36
413.69	3574.00
413.88	3590.38
414.07	3674.64
414.26	3784.65
414.45	3693.37
414.64	3602.08
414.83	3801.03
415.02	3838.48
415.22	3934.44
415.41	3847.84
415.60	4016.36
415.79	3779.97
415.98	4046.79
416.17	4117.00
416.36	3969.55
416.55	4042.11
416.74	3967.21
416.93	4159.13
417.12	4021.04
417.31	4219.99
417.50	4170.83
417.69	4294.88
417.88	4210.62
418.07	4208.28
418.26	4341.69
418.45	4348.72
418.64	4709.16
418.83	4393.19
419.02	4477.44
419.21	4491.49
419.39	4674.05
419.58	4482.13
419.77	4678.73
419.96	4578.09
420.15	4674.05
420.34	4603.83
420.53	4732.56
420.72	4753.63
420.91	4535.96
421.10	4821.50
421.29	4840.23
421.48	4812.14
421.67	4734.90
421.86	4702.14
422.05	4849.59
422.24	4865.97
422.43	4868.31
422.61	4905.76
422.80	4877.68
422.99	4990.02
423.18	4954.91
423.37	5048.54
423.56	4978.32
423.75	4936.19
423.94	4901.08
424.13	4777.03
424.32	4713.84
424.50	5018.11
424.69	5210.03
424.88	5078.96
425.07	5018.11
425.26	4973.64
425.45	4903.42
425.64	5039.17
425.83	4999.38
426.01	5100.03
426.20	5034.49
426.39	5006.41
426.58	5097.69
426.77	5107.05
426.96	5235.78
427.15	5074.28
427.33	5261.52
427.52	5249.82
427.71	5423.02
427.90	5191.31
428.09	5282.59
428.28	5439.40
428.46	5280.25
428.65	5434.72
428.84	5636.01
429.03	5411.32
429.22	5336.42
429.40	5544.73
429.59	5549.41
429.78	5437.06
429.97	5350.46
430.16	5432.38
430.34	5565.79
430.53	5746.02
430.72	5846.66
430.91	5708.57
431.10	5605.58
431.28	5790.49
431.47	5830.27
431.66	5933.26
431.85	5785.80
432.03	6026.88
432.22	5935.60
432.41	5970.71
432.60	5928.58
432.79	6090.07
432.97	6087.73
433.16	6083.05
433.35	6146.25
433.54	6111.14
433.72	6197.74
433.91	6270.30
434.10	6186.04
434.28	6263.27
434.47	6181.35
434.66	6349.87
434.85	6356.90
435.03	6314.77
435.22	6230.51
435.41	6469.24
435.59	6392.00
435.78	6483.28
435.97	6445.84
436.16	6504.35
436.34	6464.56
436.53	6553.50
436.72	6691.59
436.90	6487.96
437.09	6817.98
437.28	6497.33
437.46	6485.62
437.65	6834.36
437.84	6853.09
438.02	6773.51
438.21	6724.36
438.40	6864.79
438.58	6902.24
438.77	7232.26
438.96	6953.73
439.14	7185.44
439.33	7232.26
439.52	7311.83
439.70	7190.13
439.89	7389.07
440.08	7449.93
440.26	7508.44
440.45	7316.51
440.63	7548.23
440.82	7627.81
441.01	7632.49
441.19	7777.60
441.38	7749.51
441.57	7981.23
441.75	7861.86
441.94	8084.21
442.12	7981.23
442.31	8086.55
442.50	8084.21
442.68	8004.63
442.87	8063.15
443.05	8056.12
443.24	8182.51
443.43	8327.63
443.61	8294.86
443.80	8458.70
443.98	8142.72
444.17	7747.17
444.35	8423.59
444.54	8489.12
444.73	8372.10
444.91	8463.38
445.10	8379.12
445.28	8311.24
445.47	8542.96
445.65	8386.14
445.84	8498.49
446.02	8496.14
446.21	8435.29
446.39	8549.98
446.58	8571.04
446.77	8507.85
446.95	8507.85
447.14	8559.34
447.32	8744.24
447.51	8664.66
447.69	8627.21
447.88	8470.40
448.06	8383.80
448.25	8578.06
448.43	8521.89
448.62	8622.53
448.80	8755.94
448.99	8870.63
449.17	8784.03
449.36	8741.90
449.54	8842.54
449.73	8933.82
449.91	8966.59
450.10	9036.81
450.28	9200.65
450.46	9076.60
450.65	9184.26
450.83	9050.85
451.02	9228.73
451.20	9235.75
451.39	9064.89
451.57	9158.52
451.76	9231.07
451.94	9118.73
452.13	9434.70
452.31	9310.65
452.49	9357.46
452.68	9617.26
452.86	9275.54
453.05	9586.83
453.23	9507.26
453.42	9483.85
453.60	9268.52
453.78	9565.77
453.97	9441.72
454.15	9570.45
454.34	9430.02
454.52	9717.90
454.70	9778.76
454.89	9741.31
455.07	9809.19
455.26	9818.55
455.44	10031.54
455.62	10052.60
455.81	9905.15
455.99	10043.24
456.17	10207.08
456.36	10106.43
456.54	10228.14
456.73	10466.88
456.91	10506.66
457.09	10373.25
457.28	10731.36
457.46	10281.97
457.64	10724.33
457.83	10595.61
458.01	10614.33
458.19	10789.87
458.38	10839.02
458.56	10616.67
458.74	10712.63
458.93	10927.96
459.11	10684.55
459.29	10967.75
459.48	10806.25
459.66	11009.88
459.84	11000.52
460.03	11222.87
460.21	11037.97
460.39	10951.37
460.57	10965.41
460.76	11363.30
460.94	11389.05
461.12	11283.72
461.31	11318.83
461.49	11265.00
461.67	11405.43
461.85	11297.77
462.04	11365.64
462.22	11555.22
462.40	11878.22
462.59	11508.41
462.77	11412.45
462.95	11927.37
463.13	11922.69
463.32	11721.40
463.50	11829.07
463.68	11992.90
463.86	11981.20
464.05	11700.34
464.23	12056.10
464.41	11815.02
464.59	11590.33
464.78	12320.58
464.96	12081.85
465.14	11999.93
465.32	12486.76
465.50	12266.75
465.69	12224.62
465.87	12152.06
466.05	12210.57
466.23	12180.15
466.41	12461.01
466.60	12428.24
466.78	12215.26
466.96	12400.16
467.14	12542.93
467.32	12489.10
467.51	12631.87
467.69	12224.62
467.87	12479.74
468.05	12573.36
468.23	12517.18
468.41	12545.27
468.60	12753.58
468.78	12835.50
468.96	12659.96
469.14	12791.03
469.32	12943.16
469.50	12716.13
469.69	12959.55
469.87	13397.23
470.05	13146.79
470.23	13303.60
470.41	13252.11
470.59	13359.78
470.77	13308.29
470.95	13235.73
471.14	13577.45
471.32	13172.54
471.50	13413.61
471.68	13631.28
471.86	13776.39
472.04	13612.56
472.22	14139.18
472.40	13795.12
472.58	13956.61
472.77	14335.78
472.95	14174.28
473.13	14843.68
473.31	14221.10
473.49	14366.21
473.67	14239.82
473.85	14415.36
474.03	14682.18
474.21	14497.28
474.39	14850.70
474.57	14853.04
474.75	14984.11
474.93	14885.81
475.12	15047.30
475.30	15143.27
475.48	15091.77
475.66	15676.91
475.84	15417.11
476.02	15697.97
476.20	15569.24
476.38	15995.22
476.56	16135.65
476.74	16222.25
476.92	15815.00
477.10	16067.78
477.28	16475.03
477.46	16479.71
477.64	16702.06
477.82	16662.27
478.00	17214.64
478.18	16587.38
478.36	16903.35
478.54	17174.85
478.72	17394.86
478.90	17736.58
479.08	17514.23
479.26	17926.16
479.44	17795.09
479.62	18120.43
479.80	18370.86
479.98	18291.29
480.16	18686.84
480.34	18412.99
480.52	19033.24
480.70	18691.52
480.88	18546.40
481.06	18972.38
481.24	19115.16
481.41	19077.71
481.59	19653.48
481.77	19428.79
481.95	19894.55
482.13	20025.62
482.31	19740.08
482.49	20240.95
482.67	20484.37
482.85	20505.43
483.03	20856.51
483.21	21085.89
483.39	21088.23
483.57	21069.50
483.74	21125.68
483.92	21549.31
484.10	21277.81
484.28	21579.74
484.46	22288.92
484.64	22471.48
484.82	22064.23
485.00	22295.94
485.18	22768.73
485.35	23154.92
485.53	23019.17
485.71	23325.78
485.89	23597.28
486.07	23702.61
486.25	23335.14
486.43	23524.72
486.61	24294.76
486.78	24187.10
486.96	24259.65
487.14	24517.11
487.32	24599.03
487.50	24905.64
487.68	25289.49
487.85	25652.27
488.03	26038.46
488.21	25846.54
488.39	25991.65
488.57	26263.15
488.75	26359.11
488.92	26824.88
489.10	26677.43
489.28	26838.92
489.46	27356.18
489.64	27487.25
489.81	27988.13
489.99	27957.70
490.17	27917.91
490.35	28907.96
490.53	28503.04
490.70	28325.16
490.88	28180.05
491.06	28746.46
491.24	29118.60
491.41	29144.35
491.59	29268.40
491.77	29291.80
491.95	29832.47
492.13	30045.46
492.30	30429.30
492.48	30417.60
492.66	30696.13
492.84	30471.43
493.01	30895.07
493.19	30731.23
493.37	31168.91
493.54	31278.92
493.72	31793.84
493.90	31896.82
494.08	31985.76
494.25	32219.81
494.43	32439.82
494.61	32577.92
494.79	32856.44
494.96	32816.65
495.14	32907.93
495.32	33446.26
495.49	33738.82
495.67	33448.60
495.85	33729.46
496.02	34092.24
496.20	34192.89
496.38	34635.25
496.55	34270.12
496.73	34782.70
496.91	35236.77
497.09	35173.57
497.26	35033.14
497.44	35388.90
497.62	35058.88
497.79	35833.60
497.97	36093.40
498.14	36510.02
498.32	36552.15
498.50	36271.28
498.67	37024.93
498.85	37001.53
499.03	37120.90
499.20	36727.69
499.38	37031.96
499.56	37324.52
499.73	37626.45
499.91	37612.41
500.08	37809.01
500.26	38106.26
500.44	38363.72
500.61	38061.79
500.79	38033.71
500.97	38272.44
501.14	38850.55
501.32	38855.23
501.49	38396.49
501.67	39033.11
501.84	39412.28
502.02	39384.19
502.20	39381.85
502.37	39548.03
502.55	39391.22
502.72	39342.06
502.90	39814.85
503.07	39910.82
503.25	40233.81
503.43	40046.57
503.60	40339.13
503.78	40505.31
503.95	40432.75
504.13	40746.39
504.30	40664.47
504.48	41064.70
504.65	40980.44
504.83	41148.96
505.01	41556.21
505.18	41572.60
505.36	42005.59
505.53	41507.06
505.71	42103.90
505.88	42256.03
506.06	41766.86
506.23	42632.86
506.41	41902.61
506.58	42183.48
506.76	43002.66
506.93	42501.79
507.11	42859.89
507.28	43040.11
507.46	42789.67
507.63	43021.39
507.81	43639.29
507.98	42710.10
508.16	43812.49
508.33	43615.88
508.50	44079.31
508.68	44086.33
508.85	44182.29
509.03	44039.52
509.20	44245.49
509.38	44987.44
509.55	44886.79
509.73	44486.56
509.90	45233.19
510.08	44505.29
510.25	44952.33
510.42	45425.12
510.60	45525.76
510.77	45855.78
510.95	45530.44
511.12	45221.49
511.30	45549.17
511.47	45614.70
511.64	45666.19
511.82	46190.47
511.99	45874.50
512.17	46361.33
512.34	46394.10
512.51	46658.58
512.69	46953.49
512.86	46621.13
513.04	47100.94
513.21	46859.87
513.38	47229.67
513.56	47239.03
513.73	47150.09
513.90	47019.02
514.08	47316.27
514.25	47599.47
514.43	47866.30
514.60	47686.07
514.77	47934.17
514.95	48095.67
515.12	48004.39
515.29	47777.36
515.47	48318.02
515.64	48243.12
515.81	48409.30
515.99	48350.79
516.16	48629.31
516.33	48800.17
516.51	49123.16
516.68	48830.60
516.85	49191.04
517.03	49113.80
517.20	49394.67
517.37	48804.85
517.54	49598.29
517.72	49357.22
517.89	49380.62
518.06	49801.92
518.24	49097.42
518.41	49645.10
518.58	49694.25
518.75	49694.25
518.93	50021.93
519.10	49879.16
519.27	50061.72
519.45	49918.95
519.62	50190.45
519.79	50365.99
519.96	50265.34
520.14	50316.84
520.31	50384.71
520.48	50836.44
520.65	51037.72
520.83	51033.04
521.00	50829.41
521.17	50911.33
521.34	51110.28
521.52	51091.55
521.69	50946.44
521.86	51313.90
522.03	51613.49
522.20	51765.63
522.38	51714.14
522.55	51723.50
522.72	51632.22
522.89	51578.39
523.07	51899.04
523.24	51821.80
523.41	51997.34
523.58	51805.42
523.75	52470.13
523.92	51997.34
524.10	52390.55
524.27	52435.02
524.44	52481.83
524.61	52779.08
524.78	52676.10
524.96	52390.55
525.13	52750.99
525.30	52814.19
525.47	53006.11
525.64	52444.38
525.81	53073.99
525.98	52959.30
526.16	52910.15
526.33	53020.16
526.50	53043.56
526.67	53277.61
526.84	53282.30
527.01	52982.71
527.18	53242.51
527.36	53385.28
527.53	53317.40
527.70	53787.85
527.87	53373.58
528.04	53392.30
528.21	53778.49
528.38	53666.14
528.55	53799.55
528.72	53673.16
528.89	53783.17
529.07	53612.31
529.24	53698.91
529.41	54057.01
529.58	53923.60
529.75	54042.97
529.92	54087.44
530.09	54199.79
530.26	54342.56
530.43	54244.26
530.60	53848.71
530.77	54262.98
530.94	54494.69
531.11	54316.81
531.28	54415.11
531.46	54450.22
531.63	54693.64
531.80	54686.62
531.97	55077.49
532.14	54770.88
532.31	54773.22
532.48	54946.42
532.65	54805.98
532.82	54810.67
532.99	55105.57
533.16	54733.43
533.33	54974.50
533.50	55105.57
533.67	54813.01
533.84	54906.63
534.01	55018.97
534.18	55276.43
534.35	55531.55
534.52	55311.54
534.69	55384.10
534.86	55824.12
535.03	55433.25
535.20	55627.51
535.37	55330.26
535.54	55711.77
535.71	55454.31
535.88	55545.59
536.05	55456.65
536.22	55922.42
536.38	55920.08
536.55	55774.97
536.72	55941.14
536.89	55718.79
537.06	55959.87
537.23	56065.19
537.40	55718.79
537.57	55948.17
537.74	56191.58
537.91	56205.62
538.08	56037.11
538.25	56032.42
538.42	55950.51
538.59	56540.32
538.75	56062.85
538.92	56381.16
539.09	56376.48
539.26	56481.81
539.43	56500.53
539.60	56341.38
539.77	56664.37
539.94	56598.83
540.11	56533.30
540.28	56828.21
540.44	56736.93
540.61	56617.56
540.78	56584.79
540.95	56652.67
541.12	56687.78
541.29	56498.19
541.46	56823.53
541.62	56676.07
541.79	56795.44
541.96	56643.30
542.13	56781.40
542.30	56963.96
542.47	57038.86
542.63	57223.76
542.80	57202.69
542.97	57518.67
543.14	57354.83
543.31	57467.17
543.48	57446.11
543.64	57469.51
543.81	57488.24
543.98	57286.95
544.15	57553.77
544.32	57822.93
544.48	57790.17
544.65	57453.13
544.82	57710.59
544.99	57413.34
545.16	57773.78
545.32	57705.91
545.49	57769.10
545.66	57900.17
545.83	57886.13
546.00	57834.64
546.16	57946.98
546.33	57827.62
546.50	57659.10
546.67	57682.50
546.83	57581.86
547.00	57991.45
547.17	58148.27
547.34	57970.39
547.50	58026.56
547.67	58426.79
547.84	57958.69
548.00	58269.98
548.17	58616.38
548.34	58475.94
548.51	58426.79
548.67	58447.86
548.84	58185.72
549.01	58433.81
549.18	58415.09
549.34	58485.31
549.51	58452.54
549.68	58487.65
549.84	58539.14
550.01	58674.89
550.18	58557.86
550.34	58707.66
550.51	58532.12
550.68	58607.01
550.84	58571.91
551.01	58820.00
551.18	58735.74
551.34	58719.36
551.51	58775.53
551.68	58951.07
551.84	58590.63
552.01	58562.54
552.18	59061.08
552.34	58656.17
552.51	58869.15
552.68	58726.38
552.84	58710.00
553.01	59245.98
553.18	58726.38
553.34	58969.80
553.51	58890.22
553.67	59199.17
553.84	59037.67
554.01	59150.02
554.17	59262.36
554.34	59255.34
554.51	59285.77
554.67	59416.84
554.84	59292.79
555.00	59285.77
555.17	59185.13
555.33	59220.23
555.50	59093.85
555.67	59159.38
555.83	59255.34
556.00	59281.09
556.16	59447.27
556.33	59587.70
556.50	59599.40
556.66	59496.42
556.83	59440.24
556.99	59468.33
557.16	59714.09
557.32	59599.40
557.49	59831.11
557.65	59409.82
557.82	59683.66
557.98	59561.95
558.15	59529.19
558.32	59625.15
558.48	59615.79
558.65	59751.54
558.81	59721.11
558.98	59716.43
559.14	59824.09
559.31	59763.24
559.47	59826.43
559.64	60025.38
559.80	60011.34
559.97	60044.10
560.13	59751.54
560.30	59927.08
560.46	60140.07
560.63	60032.40
560.79	60013.68
560.96	60151.77
561.12	59840.48
561.29	59861.54
561.45	60030.06
561.61	60100.28
561.78	59882.61
561.94	60151.77
562.11	60074.53
562.27	60030.06
562.44	60104.96
562.60	60172.83
562.77	60177.51
562.93	60039.42
563.10	60072.19
563.26	60186.88
563.42	60523.91
563.59	60154.11
563.75	60203.26
563.92	60264.11
564.08	60264.11
564.24	60217.30
564.41	60198.58
564.57	60275.82
564.74	60390.50
564.90	60402.21
565.07	60247.73
565.23	60212.62
565.39	60193.90
565.56	60470.08
565.72	60156.45
565.88	60320.29
566.05	60404.55
566.21	60434.97
566.38	60371.78
566.54	60313.26
566.70	60500.51
566.87	60645.62
567.03	60322.63
567.19	60683.07
567.36	60303.90
567.52	60413.91
567.68	60725.20
567.85	60776.69
568.01	60570.72
568.17	60467.74
568.34	60406.89
568.50	60540.30
568.66	60516.89
568.83	60697.11
568.99	60488.80
569.15	60463.06
569.32	60552.00
569.48	60563.70
569.64	60554.34
569.81	60825.84
569.97	60563.70
570.13	60617.53
570.30	60446.68
570.46	60797.76
570.62	60757.97
570.78	60846.91
570.95	60697.11
571.11	60659.66
571.27	60640.94
571.43	60788.39
571.60	60970.96
571.76	60757.97
571.92	60573.06
572.09	60874.99
572.25	60781.37
572.41	60739.24
572.57	60692.43
572.74	60982.66
572.90	60603.49
573.06	60921.80
573.22	60870.31
573.38	60956.91
573.55	60755.63
573.71	60935.85
573.87	60893.72
574.03	60577.75
574.20	60959.25
574.36	61017.77
574.52	60837.54
574.68	60767.33
574.84	60940.53
575.01	60872.65
575.17	60933.51
575.33	60795.42
575.49	60739.24
575.65	60832.86
575.82	61001.38
575.98	60975.64
576.14	61174.58
576.30	61071.60
576.46	60797.76
576.62	60961.59
576.79	60842.23
576.95	60910.10
577.11	61055.21
577.27	60914.78
577.43	60662.00
577.59	60809.46
577.75	61116.07
577.92	60987.34
578.08	61003.72
578.24	61036.49
578.40	61212.03
578.56	60851.59
578.72	61015.43
578.88	61034.15
579.04	61310.33
579.21	61052.87
579.37	61195.65
579.53	61148.84
579.69	60961.59
579.85	61020.11
580.01	61193.31
580.17	61066.92
580.33	61375.87
580.49	61249.48
580.65	61057.56
580.82	61102.03
580.98	60872.65
581.14	60959.25
581.30	61261.18
581.46	61165.22
581.62	61139.47
581.78	61015.43
581.94	61083.30
582.10	61263.52
582.26	60968.61
582.42	61022.45
582.58	61095.00
582.74	61066.92
582.90	61104.37
583.06	61144.16
583.22	61034.15
583.38	61205.01
583.54	60952.23
583.70	61141.81
583.86	61125.43
584.02	61008.40
584.18	61202.67
584.34	61497.58
584.50	61153.52
584.66	61205.01
584.82	61048.19
584.98	61258.84
585.14	61251.82
585.30	61095.00
585.46	61345.44
585.62	61268.20
585.78	61469.49
585.94	61118.41
586.10	61153.52
586.26	61179.26
586.42	61322.04
586.58	61293.95
586.74	61205.01
586.90	61277.57
587.06	61155.86
587.22	61476.51
587.38	61106.71
587.54	61296.29
587.70	61263.52
587.86	61307.99
588.02	61300.97
588.18	61233.10
588.34	61249.48
588.49	61429.70
