SpectraSuite Data File
++++++++++++++++++++++++++++++++++++
Date: Fri Oct 25 11:26:21 EDT 2013
User: price-jones
Dark Spectrum Present: No
Reference Spectrum Present: No
Number of Sampled Component Spectra: 1
Spectrometers: USB2+H05261
Integration Time (usec): 100000 (USB2+H05261)
Spectra Averaged: 1 (USB2+H05261)
Boxcar Smoothing: 0 (USB2+H05261)
Correct for Electrical Dark: No (USB2+H05261)
Strobe/Lamp Enabled: No (USB2+H05261)
Correct for Detector Non-linearity: No (USB2+H05261)
Correct for Stray Light: No (USB2+H05261)
Number of Pixels in Processed Spectrum: 2048
>>>>>Begin Processed Spectral Data<<<<<
365.73	297.25
365.92	297.25
366.12	297.25
366.32	184.90
366.52	166.18
366.72	149.79
366.91	124.05
367.11	145.11
367.31	124.05
367.51	156.82
367.70	124.05
367.90	102.98
368.10	100.64
368.30	114.69
368.49	175.54
368.69	154.48
368.89	163.84
369.09	117.03
369.28	135.75
369.48	154.48
369.68	128.73
369.87	196.60
370.07	189.58
370.27	257.46
370.47	285.55
370.66	533.64
370.86	685.78
371.06	685.78
371.25	641.31
371.45	746.63
371.65	634.29
371.84	636.63
372.04	676.41
372.24	793.44
372.44	744.29
372.63	798.12
372.83	706.84
373.03	770.04
373.22	725.57
373.42	781.74
373.62	807.48
373.81	784.08
374.01	800.46
374.21	805.14
374.40	823.87
374.60	842.59
374.79	802.80
374.99	823.87
375.19	877.70
375.38	798.12
375.58	823.87
375.78	835.57
375.97	924.51
376.17	971.32
376.37	880.04
376.56	847.27
376.76	884.72
376.95	880.04
377.15	870.68
377.35	894.08
377.54	858.98
377.74	851.96
377.93	961.96
378.13	947.92
378.33	933.87
378.52	968.98
378.72	866.00
378.91	903.45
379.11	957.28
379.31	931.53
379.50	877.70
379.70	971.32
379.89	1006.43
380.09	973.66
380.28	1001.75
380.48	940.90
380.68	961.96
380.87	978.34
381.07	1048.56
381.26	1100.05
381.46	1043.88
381.65	1062.60
381.85	983.02
382.04	994.73
382.24	1137.50
382.43	1008.77
382.63	1018.13
382.83	1086.01
383.02	1146.86
383.22	1100.05
383.41	1048.56
383.61	1067.28
383.80	1095.37
384.00	1200.69
384.19	1214.74
384.39	1170.27
384.58	1102.39
384.78	1064.94
384.97	1191.33
385.17	1226.44
385.36	1118.78
385.56	1121.12
385.75	1151.54
385.95	1163.25
386.14	1214.74
386.34	1167.93
386.53	1184.31
386.72	1207.72
386.92	1205.38
387.11	1217.08
387.31	1289.64
387.50	1270.91
387.70	1249.85
387.89	1287.29
388.09	1261.55
388.28	1336.45
388.48	1308.36
388.67	1369.21
388.86	1275.59
389.06	1423.05
389.25	1406.66
389.45	1284.95
389.64	1317.72
389.84	1411.34
390.03	1455.81
390.22	1409.00
390.42	1399.64
390.61	1404.32
390.81	1418.36
391.00	1434.75
391.19	1394.96
391.39	1376.24
391.58	1364.53
391.78	1495.60
391.97	1385.60
392.16	1476.88
392.36	1549.43
392.55	1535.39
392.75	1607.95
392.94	1455.81
393.13	1591.56
393.33	1565.82
393.52	1577.52
393.71	1575.18
393.91	1488.58
394.10	1614.97
394.29	1584.54
394.49	1647.74
394.68	1645.40
394.88	1596.25
395.07	1652.42
395.26	1687.53
395.46	1710.93
395.65	1692.21
395.84	1727.32
396.04	1755.40
396.23	1795.19
396.42	1624.33
396.62	1736.68
396.81	1736.68
397.00	1802.21
397.19	1788.17
397.39	1858.39
397.58	1851.36
397.77	1762.42
397.97	1820.94
398.16	1870.09
398.35	1863.07
398.55	1851.36
398.74	1750.72
398.93	1994.14
399.12	1872.43
399.32	1933.28
399.51	1933.28
399.70	1961.37
399.90	1966.05
400.09	2057.33
400.28	1973.07
400.47	1989.46
400.67	2155.63
400.86	1898.17
401.05	2113.50
401.24	2101.80
401.44	2153.29
401.63	2113.50
401.82	2101.80
402.01	2122.87
402.21	2099.46
402.40	2207.13
402.59	2148.61
402.78	2188.40
402.97	2172.02
403.17	2275.00
403.36	2230.53
403.55	2370.96
403.74	2382.67
403.93	2321.81
404.13	2338.20
404.32	2452.88
404.51	2410.75
404.70	2387.35
404.89	2399.05
405.09	2422.45
405.28	2370.96
405.47	2427.14
405.66	2473.95
405.85	2511.39
406.05	2490.33
406.24	2560.55
406.43	2642.46
406.62	2576.93
406.81	2621.40
407.00	2647.15
407.20	2471.61
407.39	2609.70
407.58	2644.81
407.77	2665.87
407.96	2719.70
408.15	2815.66
408.34	2649.49
408.54	2766.51
408.73	2593.31
408.92	2757.15
409.11	2820.35
409.30	2862.48
409.49	2963.12
409.68	2916.31
409.87	2822.69
410.07	2902.26
410.26	3056.74
410.45	2979.50
410.64	3136.32
410.83	3103.55
411.02	3094.19
411.21	3281.43
411.40	3028.65
411.59	3286.11
411.78	3194.83
411.98	3162.06
412.17	3211.22
412.36	3328.24
412.55	3232.28
412.74	3339.94
412.93	3379.73
413.12	3311.86
413.31	3527.19
413.50	3396.12
413.69	3508.46
413.88	3597.40
414.07	3503.78
414.26	3538.89
414.45	3571.66
414.64	3658.26
414.83	3758.90
415.02	3789.33
415.22	3819.75
415.41	3817.41
415.60	3794.01
415.79	3859.54
415.98	3948.48
416.17	4037.42
416.36	4009.34
416.55	3997.64
416.74	4135.73
416.93	4011.68
417.12	4044.45
417.31	4236.37
417.50	4156.79
417.69	4285.52
417.88	4161.47
418.07	4278.50
418.26	4248.07
418.45	4369.78
418.64	4313.61
418.83	4425.95
419.02	4348.72
419.21	4559.36
419.39	4540.64
419.58	4400.21
419.77	4479.79
419.96	4463.40
420.15	4468.08
420.34	4585.11
420.53	4582.77
420.72	4580.43
420.91	4571.07
421.10	4875.34
421.29	4798.10
421.48	4681.07
421.67	4699.80
421.86	4718.52
422.05	4851.93
422.24	4760.65
422.43	4844.91
422.61	4922.15
422.80	4961.94
422.99	4835.55
423.18	4835.55
423.37	4983.00
423.56	4957.25
423.75	4884.70
423.94	4898.74
424.13	4674.05
424.32	4716.18
424.50	4863.63
424.69	5046.20
424.88	5050.88
425.07	4901.08
425.26	4826.18
425.45	4821.50
425.64	4966.62
425.83	4851.93
426.01	5015.77
426.20	4954.91
426.39	5179.61
426.58	5029.81
426.77	5011.09
426.96	5118.75
427.15	5132.79
427.33	5137.48
427.52	5034.49
427.71	5104.71
427.90	5100.03
428.09	5219.39
428.28	5453.45
428.46	5245.14
428.65	5212.37
428.84	5469.83
429.03	5504.94
429.22	5320.04
429.40	5359.83
429.59	5432.38
429.78	5324.72
429.97	5195.99
430.16	5366.85
430.34	5633.67
430.53	5535.37
430.72	5556.43
430.91	5451.11
431.10	5605.58
431.28	5727.29
431.47	5710.91
431.66	5839.64
431.85	5717.93
432.03	5937.94
432.22	5937.94
432.41	5696.86
432.60	5977.73
432.79	5895.81
432.97	5919.21
433.16	6010.50
433.35	6005.81
433.54	6012.84
433.72	6136.88
433.91	6094.76
434.10	6118.16
434.28	6019.86
434.47	6122.84
434.66	6171.99
434.85	6349.87
435.03	6253.91
435.22	6139.23
435.41	6410.73
435.59	6363.92
435.78	6541.80
435.97	6525.41
436.16	6375.62
436.34	6509.03
436.53	6448.18
436.72	6700.95
436.90	6380.30
437.09	6445.84
437.28	6429.45
437.46	6513.71
437.65	6513.71
437.84	6881.18
438.02	6661.16
438.21	6754.79
438.40	6738.40
438.58	7033.31
438.77	7037.99
438.96	6867.13
439.14	7152.68
439.33	7218.21
439.52	7122.25
439.70	7084.80
439.89	7288.43
440.08	7335.24
440.26	7206.51
440.45	7255.66
440.63	7424.18
440.82	7641.85
441.01	7269.70
441.19	7585.68
441.38	7559.93
441.57	7644.19
441.75	7653.55
441.94	7733.13
442.12	7871.22
442.31	7892.29
442.50	7946.12
442.68	7875.90
442.87	7992.93
443.05	8173.15
443.24	8044.42
443.43	8182.51
443.61	8217.62
443.80	8439.97
443.98	8023.36
444.17	7815.05
444.35	7932.08
444.54	8355.71
444.73	8271.45
444.91	8311.24
445.10	8234.00
445.28	8318.26
445.47	8182.51
445.65	8168.47
445.84	8383.80
446.02	8336.99
446.21	8400.18
446.39	8287.84
446.58	8376.78
446.77	8381.46
446.95	8346.35
447.14	8519.55
447.32	8526.57
447.51	8545.30
447.69	8503.17
447.88	8634.24
448.06	8397.84
448.25	8505.51
448.43	8655.30
448.62	8475.08
448.80	8559.34
448.99	8599.13
449.17	8737.22
449.36	8573.38
449.54	8720.84
449.73	8884.67
449.91	8924.46
450.10	8842.54
450.28	9043.83
450.46	8865.95
450.65	8854.25
450.83	9036.81
451.02	8940.85
451.20	9198.31
451.39	9191.28
451.57	9036.81
451.76	8769.99
451.94	9146.81
452.13	9226.39
452.31	9336.40
452.49	9053.19
452.68	9303.63
452.86	9329.38
453.05	9268.52
453.23	9329.38
453.42	9425.34
453.60	9378.53
453.78	9188.94
453.97	9327.03
454.15	9364.48
454.34	9525.98
454.52	9591.52
454.70	9797.48
454.89	9720.24
455.07	9776.42
455.26	9771.74
455.44	9848.97
455.62	9863.02
455.81	9916.85
455.99	9944.94
456.17	10015.15
456.36	10115.80
456.54	10160.27
456.73	10136.86
456.91	10450.49
457.09	10237.50
457.28	10450.49
457.46	10195.37
457.64	10567.52
457.83	10239.84
458.01	10352.19
458.19	10768.80
458.38	10532.41
458.56	10743.06
458.74	10541.77
458.93	10560.50
459.11	10801.57
459.29	10656.46
459.48	10710.29
459.66	10633.05
459.84	10918.60
460.03	10773.49
460.21	10822.64
460.39	10913.92
460.57	10895.19
460.76	10885.83
460.94	10967.75
461.12	10991.16
461.31	11199.46
461.49	11227.55
461.67	11206.48
461.85	11485.01
462.04	11428.84
462.22	11726.08
462.40	11419.47
462.59	11466.28
462.77	11344.58
462.95	11477.99
463.13	11529.48
463.32	11410.11
463.50	11690.98
463.68	11772.89
463.86	11475.65
464.05	11723.74
464.23	11719.06
464.41	11800.98
464.59	11651.19
464.78	12030.35
464.96	11833.75
465.14	11735.45
465.32	11840.77
465.50	12177.81
465.69	12175.47
465.87	11847.79
466.05	12107.59
466.23	12084.19
466.41	12184.83
466.60	12177.81
466.78	12236.32
466.96	12060.78
467.14	12070.14
467.32	12449.31
467.51	12594.42
467.69	12138.02
467.87	12346.33
468.05	12425.90
468.23	12334.62
468.41	12531.23
468.60	12381.43
468.78	12526.55
468.96	12299.52
469.14	12765.28
469.32	12807.41
469.50	12505.48
469.69	12791.03
469.87	12987.63
470.05	12931.46
470.23	13064.87
470.41	12819.11
470.59	13507.23
470.77	12748.90
470.95	13233.39
471.14	13408.93
471.32	13158.49
471.50	13427.65
471.68	13296.58
471.86	13605.53
472.04	13659.37
472.22	13982.36
472.40	13818.52
472.58	13734.26
472.77	13930.87
472.95	13982.36
473.13	14530.05
473.31	14064.28
473.49	14022.15
473.67	14015.13
473.85	14204.71
474.03	14590.90
474.21	14504.30
474.39	14537.07
474.57	14434.08
474.75	14806.23
474.93	15019.22
475.12	14892.83
475.30	14785.16
475.48	14831.97
475.66	15119.86
475.84	14967.73
476.02	15243.91
476.20	15206.46
476.38	15494.35
476.56	15843.09
476.74	15896.92
476.92	15810.32
477.10	15747.12
477.28	15854.79
477.46	16070.12
477.64	16313.53
477.82	16592.06
478.00	16582.70
478.18	16629.51
478.36	16814.41
478.54	16861.22
478.72	16793.34
478.90	17184.21
479.08	17479.12
479.26	17444.01
479.44	17596.15
479.62	17500.19
479.80	17977.65
479.98	18064.25
480.16	18508.96
480.34	18097.02
480.52	18548.75
480.70	18277.24
480.88	18284.26
481.06	18438.74
481.24	18728.97
481.41	19005.15
481.59	19491.98
481.77	19503.68
481.95	19335.17
482.13	19882.85
482.31	19482.62
482.49	20034.99
482.67	20320.53
482.85	20231.59
483.03	20423.51
483.21	20505.43
483.39	20652.89
483.57	20893.96
483.74	21034.39
483.92	21385.47
484.10	21331.64
484.28	21364.41
484.46	21994.01
484.64	21846.56
484.82	21603.14
485.00	22391.91
485.18	22815.54
485.35	22930.23
485.53	22581.49
485.71	22714.90
485.89	23243.86
486.07	23077.68
486.25	23517.70
486.43	22881.08
486.61	23552.81
486.78	23704.95
486.96	24137.94
487.14	24264.33
487.32	24393.06
487.50	24582.65
487.68	24767.55
487.85	25315.23
488.03	24999.26
488.21	25565.67
488.39	25638.23
488.57	25818.45
488.75	25895.69
488.92	26361.45
489.10	26462.10
489.28	26415.29
489.46	27014.46
489.64	26817.86
489.81	27562.15
489.99	27527.04
490.17	27428.74
490.35	28048.98
490.53	27742.37
490.70	28079.41
490.88	27697.90
491.06	28657.52
491.24	29027.32
491.41	28638.80
491.59	28947.75
491.77	29450.96
491.95	29434.58
492.13	29586.71
492.30	30108.65
492.48	29848.85
492.66	30015.03
492.84	30036.09
493.01	30754.64
493.19	30441.01
493.37	30476.12
493.54	30890.39
493.72	31346.79
493.90	31264.88
494.08	31395.95
494.25	31744.69
494.43	31777.45
494.61	31821.92
494.79	32165.98
494.96	31807.88
495.14	32247.90
495.32	33057.73
495.49	32877.51
495.67	33024.96
495.85	33247.31
496.02	33401.79
496.20	33715.42
496.38	33574.98
496.55	33682.65
496.73	34637.59
496.91	34094.58
497.09	34543.97
497.26	34778.02
497.44	34595.46
497.62	34815.47
497.79	35751.68
497.97	34976.97
498.14	35538.69
498.32	35941.27
498.50	36257.24
498.67	36552.15
498.85	36311.07
499.03	36701.94
499.20	36402.35
499.38	36360.22
499.56	36821.31
499.73	36987.49
499.91	36767.48
500.08	37443.89
500.26	37170.05
500.44	37383.04
500.61	37879.23
500.79	37464.96
500.97	38045.41
501.14	38756.93
501.32	38031.36
501.49	38218.61
501.67	38918.43
501.84	38836.51
502.02	38644.59
502.20	38576.71
502.37	38962.90
502.55	38799.06
502.72	38880.98
502.90	39400.58
503.07	39026.09
503.25	39772.72
503.43	39704.85
503.60	40076.99
503.78	40236.15
503.95	40027.84
504.13	40409.35
504.30	40126.14
504.48	40259.55
504.65	40229.13
504.83	40645.74
505.01	40760.43
505.18	40821.28
505.36	41282.37
505.53	41043.63
505.71	41345.56
505.88	41696.64
506.06	40882.14
506.23	42045.38
506.41	41493.02
506.58	41979.85
506.76	41862.82
506.93	41874.52
507.11	42321.57
507.28	42637.54
507.46	42410.51
507.63	42642.22
507.81	42925.42
507.98	42604.77
508.16	42848.19
508.33	43274.16
508.50	42974.58
508.68	43302.25
508.85	43505.88
509.03	43643.97
509.20	43540.99
509.38	44144.84
509.55	44217.40
509.73	44163.57
509.90	44587.21
510.08	43906.11
510.25	44596.57
510.42	44460.82
510.60	44509.97
510.77	44849.35
510.95	45364.26
511.12	44884.45
511.30	44933.60
511.47	45289.37
511.64	45261.28
511.82	45635.77
511.99	45195.74
512.17	45675.55
512.34	45553.85
512.51	45614.70
512.69	46014.93
512.86	46342.61
513.04	46284.09
513.21	46375.37
513.38	46527.51
513.56	46485.38
513.73	46340.27
513.90	46841.14
514.08	46628.15
514.25	47564.37
514.43	47021.36
514.60	46665.60
514.77	46909.02
514.95	47103.28
515.12	47416.91
515.29	46960.51
515.47	47580.75
515.64	47482.45
515.81	47962.26
515.99	47695.44
516.16	47978.64
516.33	48406.96
516.51	48055.88
516.68	48418.66
516.85	48432.71
517.03	48687.82
517.20	48671.44
517.37	48655.06
517.54	48624.63
517.72	48573.14
517.89	48781.45
518.06	48926.56
518.24	49350.20
518.41	49106.78
518.58	49057.63
518.75	49097.42
518.93	49209.76
519.10	49387.64
519.27	49359.56
519.45	49602.97
519.62	49801.92
519.79	49172.31
519.96	49640.42
520.14	50014.91
520.31	49872.14
520.48	50288.75
520.65	49958.73
520.83	50202.15
521.00	50630.47
521.17	50384.71
521.34	49977.46
521.52	50674.94
521.69	50480.67
521.86	50536.85
522.03	50712.39
522.20	51098.58
522.38	51084.53
522.55	51168.79
522.72	51096.24
522.89	50782.60
523.07	51409.87
523.24	51019.00
523.41	51470.72
523.58	51173.47
523.75	51356.03
523.92	51826.48
524.10	51620.52
524.27	52044.15
524.44	51971.60
524.61	51955.21
524.78	51840.53
524.96	51985.64
525.13	52273.52
525.30	52055.85
525.47	52058.20
525.64	52456.09
525.81	52451.41
525.98	52514.60
526.16	52395.23
526.33	52299.27
526.50	52584.82
526.67	52505.24
526.84	52526.30
527.01	52683.12
527.18	52673.76
527.36	52875.04
527.53	52959.30
527.70	53162.93
527.87	53176.97
528.04	53057.60
528.21	53186.33
528.38	53326.77
528.55	53153.57
528.72	53188.67
528.89	53139.52
529.07	53151.23
529.24	53361.87
529.41	53219.10
529.58	53680.19
529.75	53387.62
529.92	53418.05
530.09	53200.38
530.26	53918.92
530.43	53876.79
530.60	53291.66
530.77	53865.09
530.94	53947.01
531.11	53523.37
531.28	53895.52
531.46	54120.21
531.63	53766.79
531.80	54059.35
531.97	54052.33
532.14	54391.71
532.31	54031.27
532.48	54204.47
532.65	54199.79
532.82	54152.97
532.99	54468.95
533.16	54511.08
533.33	54473.63
533.50	54763.85
533.67	54681.94
533.84	54410.43
534.01	54466.61
534.18	54939.39
534.35	55271.75
534.52	54710.02
534.69	55028.34
534.86	55100.89
535.03	54798.96
535.20	55119.62
535.37	54923.01
535.54	55255.37
535.71	55014.29
535.88	55262.39
536.05	55325.58
536.22	55180.47
536.38	55058.76
536.55	55508.14
536.72	55487.08
536.89	55138.34
537.06	55393.46
537.23	55547.93
537.40	55313.88
537.57	55379.42
537.74	55531.55
537.91	55444.95
538.08	55819.44
538.25	55430.91
538.42	55580.70
538.59	55877.95
538.75	55648.58
538.92	55870.93
539.09	56018.38
539.26	56121.37
539.43	55931.78
539.60	55950.51
539.77	56140.09
539.94	56294.56
540.11	56081.58
540.28	55992.64
540.44	56505.21
540.61	56498.19
540.78	56278.18
540.95	56247.75
541.12	56119.02
541.29	56219.67
541.46	56301.59
541.62	56371.80
541.79	56430.32
541.96	56287.54
542.13	56559.05
542.30	56596.49
542.47	56486.49
542.63	56554.36
542.80	56727.56
542.97	56872.68
543.14	57085.67
543.31	57071.62
543.48	57116.09
543.64	57055.24
543.81	57261.21
543.98	57165.24
544.15	57071.62
544.32	57205.03
544.48	57368.87
544.65	57003.75
544.82	57434.41
544.99	56975.66
545.16	57441.43
545.32	57322.06
545.49	57441.43
545.66	57499.94
545.83	57375.89
546.00	57865.06
546.16	57422.70
546.33	57513.98
546.50	57366.53
546.67	57570.16
546.83	57125.46
547.00	57537.39
547.17	57347.81
547.34	57743.36
547.50	57588.88
547.67	57715.27
547.84	57794.85
548.00	57874.43
548.17	57939.96
548.34	58000.82
548.51	58028.90
548.67	58145.93
548.84	57844.00
549.01	57851.02
549.18	57963.37
549.34	57921.24
549.51	58181.04
549.68	58068.69
549.84	58185.72
550.01	57954.00
550.18	57986.77
550.34	58066.35
550.51	58349.56
550.68	58335.51
550.84	58204.44
551.01	58305.09
551.18	58269.98
551.34	58387.00
551.51	58574.25
551.68	58445.52
551.84	58389.34
552.01	58354.24
552.18	58571.91
552.34	58260.62
552.51	58497.01
552.68	58120.18
552.84	58604.67
553.01	58602.33
553.18	58527.44
553.34	58602.33
553.51	58504.03
553.67	58590.63
553.84	58873.84
554.01	58691.27
554.17	58920.65
554.34	58789.58
554.51	58878.52
554.67	58883.20
554.84	58866.81
555.00	58836.39
555.17	58752.13
555.33	58901.92
555.50	58649.14
555.67	58908.94
555.83	58801.28
556.00	58836.39
556.16	59367.69
556.33	59068.10
556.50	59107.89
556.66	58979.16
556.83	58878.52
556.99	59168.74
557.16	59222.58
557.32	59253.00
557.49	59463.65
557.65	59173.42
557.82	59192.15
557.98	59168.74
558.15	59372.37
558.32	59491.74
558.48	58962.78
558.65	59470.67
558.81	59304.49
558.98	59512.80
559.14	59316.20
559.31	59559.61
559.47	59407.48
559.64	59571.32
559.80	59735.15
559.97	59489.40
560.13	59496.42
560.30	59372.37
560.46	59646.21
560.63	59676.64
560.79	59395.77
560.96	59625.15
561.12	59671.96
561.29	59678.98
561.45	59723.45
561.61	59540.89
561.78	59615.79
561.94	59590.04
562.11	59758.56
562.27	59718.77
562.44	59927.08
562.60	59842.82
562.77	59877.93
562.93	59749.20
563.10	60030.06
563.26	59896.65
563.42	60081.55
563.59	59936.44
563.75	59728.13
563.92	59767.92
564.08	59618.13
564.24	59978.57
564.41	59777.28
564.57	59990.27
564.74	60079.21
564.90	59803.03
565.07	59957.50
565.23	59896.65
565.39	59798.35
565.56	59798.35
565.72	60006.65
565.88	60126.02
566.05	59861.54
566.21	59943.46
566.38	60093.25
566.54	59959.84
566.70	60212.62
566.87	60193.90
567.03	60083.89
567.19	60168.15
567.36	60130.70
567.52	60032.40
567.68	60285.18
567.85	60149.43
568.01	60336.67
568.17	60119.00
568.34	60346.03
568.50	60243.05
568.66	60224.32
568.83	60282.84
568.99	60088.57
569.15	60182.19
569.32	60268.79
569.48	60109.64
569.64	60182.19
569.81	60313.26
569.97	60168.15
570.13	60390.50
570.30	60233.69
570.46	60247.73
570.62	60353.05
570.78	60348.37
570.95	60292.20
571.11	60528.59
571.27	60224.32
571.43	60313.26
571.60	60500.51
571.76	60453.70
571.92	60554.34
572.09	60451.36
572.25	60561.36
572.41	60420.93
572.57	60397.52
572.74	60500.51
572.90	60512.21
573.06	60383.48
573.22	60371.78
573.38	60530.93
573.55	60542.64
573.71	60631.58
573.87	60573.06
574.03	60453.70
574.20	60570.72
574.36	60425.61
574.52	60638.60
574.68	60477.10
574.84	60711.16
575.01	60626.90
575.17	60523.91
575.33	60757.97
575.49	60774.35
575.65	60636.26
575.82	60839.89
575.98	60669.03
576.14	60837.54
576.30	60636.26
576.46	60650.30
576.62	60474.76
576.79	60577.75
576.95	60458.38
577.11	60617.53
577.27	60530.93
577.43	60566.04
577.59	60514.55
577.75	60612.85
577.92	60456.04
578.08	60495.83
578.24	60647.96
578.40	60739.24
578.56	60898.40
578.72	60678.39
578.88	60797.76
579.04	60931.17
579.21	60732.22
579.37	60809.46
579.53	60795.42
579.69	60486.46
579.85	60767.33
580.01	60720.52
580.17	60643.28
580.33	60842.23
580.49	60753.29
580.65	60860.95
580.82	60919.46
580.98	60575.40
581.14	60591.79
581.30	60877.33
581.46	60760.31
581.62	60879.67
581.78	60605.83
581.94	60821.16
582.10	60804.78
582.26	60725.20
582.42	60729.88
582.58	60685.41
582.74	60743.92
582.90	60694.77
583.06	60823.50
583.22	60671.37
583.38	60947.55
583.54	60924.14
583.70	60774.35
583.86	60842.23
584.02	60523.91
584.18	60708.82
584.34	60774.35
584.50	60666.69
584.66	60704.13
584.82	60809.46
584.98	61223.73
585.14	60905.42
585.30	60748.60
585.46	60786.05
585.62	60842.23
585.78	60987.34
585.94	60573.06
586.10	60800.10
586.26	60842.23
586.42	60692.43
586.58	60931.17
586.74	60907.76
586.90	60851.59
587.06	60832.86
587.22	60844.57
587.38	61017.77
587.54	61125.43
587.70	61066.92
587.86	60769.67
588.02	60814.14
588.18	60879.67
588.34	60949.89
588.49	60863.29
