SpectraSuite Data File
++++++++++++++++++++++++++++++++++++
Date: Fri Oct 25 11:25:28 EDT 2013
User: price-jones
Dark Spectrum Present: No
Reference Spectrum Present: No
Number of Sampled Component Spectra: 1
Spectrometers: USB2+H05261
Integration Time (usec): 100000 (USB2+H05261)
Spectra Averaged: 1 (USB2+H05261)
Boxcar Smoothing: 0 (USB2+H05261)
Correct for Electrical Dark: No (USB2+H05261)
Strobe/Lamp Enabled: No (USB2+H05261)
Correct for Detector Non-linearity: No (USB2+H05261)
Correct for Stray Light: No (USB2+H05261)
Number of Pixels in Processed Spectrum: 2048
>>>>>Begin Processed Spectral Data<<<<<
365.73	283.20
365.92	283.20
366.12	283.20
366.32	110.01
366.52	147.45
366.72	149.79
366.91	95.96
367.11	135.75
367.31	184.90
367.51	110.01
367.70	95.96
367.90	161.50
368.10	198.95
368.30	121.71
368.49	145.11
368.69	133.41
368.89	107.66
369.09	138.09
369.28	189.58
369.48	191.92
369.68	147.45
369.87	250.44
370.07	166.18
370.27	255.12
370.47	273.84
370.66	559.39
370.86	622.58
371.06	685.78
371.25	641.31
371.45	629.60
371.65	690.46
371.84	674.07
372.04	685.78
372.24	713.86
372.44	608.54
372.63	725.57
372.83	741.95
373.03	744.29
373.22	688.12
373.42	791.10
373.62	793.44
373.81	709.18
374.01	767.70
374.21	821.53
374.40	720.88
374.60	826.21
374.79	828.55
374.99	800.46
375.19	814.51
375.38	835.57
375.58	847.27
375.78	856.64
375.97	851.96
376.17	952.60
376.37	868.34
376.56	873.02
376.76	830.89
376.95	823.87
377.15	933.87
377.35	936.21
377.54	891.74
377.74	889.40
377.93	940.90
378.13	987.71
378.33	952.60
378.52	1020.47
378.72	844.93
378.91	1011.11
379.11	978.34
379.31	968.98
379.50	924.51
379.70	1011.11
379.89	1008.77
380.09	1022.81
380.28	959.62
380.48	971.32
380.68	940.90
380.87	1006.43
381.07	980.68
381.26	1027.50
381.46	952.60
381.65	952.60
381.85	968.98
382.04	997.07
382.24	1121.12
382.43	1041.54
382.63	1086.01
382.83	1060.26
383.02	1111.75
383.22	1078.99
383.41	1095.37
383.61	1053.24
383.80	1069.62
384.00	1121.12
384.19	1198.35
384.39	1104.73
384.58	1137.50
384.78	1156.22
384.97	1221.76
385.17	1067.28
385.36	1158.57
385.56	1132.82
385.75	1083.67
385.95	1050.90
386.14	1198.35
386.34	1212.40
386.53	1240.48
386.72	1224.10
386.92	1226.44
387.11	1231.12
387.31	1188.99
387.50	1221.76
387.70	1228.78
387.89	1331.76
388.09	1263.89
388.28	1280.27
388.48	1313.04
388.67	1378.58
388.86	1228.78
389.06	1364.53
389.25	1369.21
389.45	1327.08
389.64	1413.68
389.84	1380.92
390.03	1373.89
390.22	1362.19
390.42	1432.41
390.61	1397.30
390.81	1313.04
391.00	1420.71
391.19	1497.94
391.39	1446.45
391.58	1476.88
391.78	1425.39
391.97	1483.90
392.16	1411.34
392.36	1533.05
392.55	1558.80
392.75	1540.07
392.94	1537.73
393.13	1439.43
393.33	1479.22
393.52	1544.75
393.71	1570.50
393.91	1617.31
394.10	1570.50
394.29	1533.05
394.49	1549.43
394.68	1682.85
394.88	1668.80
395.07	1586.88
395.26	1610.29
395.46	1717.95
395.65	1708.59
395.84	1748.38
396.04	1778.81
396.23	1713.27
396.42	1818.60
396.62	1739.02
396.81	1825.62
397.00	1802.21
397.19	1741.36
397.39	1834.98
397.58	1839.66
397.77	1710.93
397.97	1771.79
398.16	1851.36
398.35	1884.13
398.55	1881.79
398.74	1874.77
398.93	1858.39
399.12	1860.73
399.32	1849.02
399.51	1982.43
399.70	2012.86
399.90	1935.62
400.09	1874.77
400.28	2019.88
400.47	1998.82
400.67	1959.03
400.86	2017.54
401.05	2101.80
401.24	2064.35
401.44	1984.77
401.63	2113.50
401.82	2087.76
402.01	2099.46
402.21	2122.87
402.40	2099.46
402.59	2122.87
402.78	2115.84
402.97	2204.78
403.17	2216.49
403.36	2195.42
403.55	2228.19
403.74	2321.81
403.93	2359.26
404.13	2258.62
404.32	2427.14
404.51	2289.04
404.70	2436.50
404.89	2342.88
405.09	2462.24
405.28	2497.35
405.47	2462.24
405.66	2436.50
405.85	2441.18
406.05	2466.92
406.24	2483.31
406.43	2518.42
406.62	2502.03
406.81	2616.72
407.00	2572.25
407.20	2532.46
407.39	2576.93
407.58	2691.62
407.77	2593.31
407.96	2738.43
408.15	2864.82
408.34	2803.96
408.54	2768.85
408.73	2789.92
408.92	2846.09
409.11	2876.52
409.30	2883.54
409.49	2967.80
409.68	2836.73
409.87	2937.37
410.07	3030.99
410.26	3000.57
410.45	2991.20
410.64	3056.74
410.83	3077.80
411.02	3019.29
411.21	3234.62
411.40	3119.93
411.59	3178.45
411.78	3169.09
411.98	3171.43
412.17	3253.34
412.36	3262.71
412.55	3260.37
412.74	3400.80
412.93	3384.41
413.12	3302.50
413.31	3679.32
413.50	3368.03
413.69	3428.88
413.88	3609.11
414.07	3403.14
414.26	3585.70
414.45	3686.34
414.64	3693.37
414.83	3791.67
415.02	3712.09
415.22	3684.00
415.41	3857.20
415.60	3901.67
415.79	3784.65
415.98	3950.82
416.17	3969.55
416.36	3899.33
416.55	3892.31
416.74	4105.30
416.93	3988.27
417.12	4175.52
417.31	4079.55
417.50	4222.33
417.69	4217.65
417.88	4278.50
418.07	4224.67
418.26	4255.09
418.45	4243.39
418.64	4376.80
418.83	4498.51
419.02	4456.38
419.21	4491.49
419.39	4510.21
419.58	4454.04
419.77	4346.37
419.96	4559.36
420.15	4643.62
420.34	4521.92
420.53	4671.71
420.72	4550.00
420.91	4671.71
421.10	4571.07
421.29	4671.71
421.48	4704.48
421.67	4713.84
421.86	4894.06
422.05	4770.01
422.24	4856.61
422.43	4835.55
422.61	4767.67
422.80	4938.53
422.99	4767.67
423.18	4917.47
423.37	4868.31
423.56	4844.91
423.75	4887.04
423.94	4645.96
424.13	4596.81
424.32	4758.31
424.50	4926.83
424.69	5097.69
424.88	5013.43
425.07	4802.78
425.26	4943.21
425.45	5055.56
425.64	4856.61
425.83	5015.77
426.01	5050.88
426.20	5158.54
426.39	5088.32
426.58	5095.35
426.77	4975.98
426.96	5020.45
427.15	5029.81
427.33	5179.61
427.52	5102.37
427.71	5109.39
427.90	5013.43
428.09	5315.36
428.28	5298.97
428.46	5371.53
428.65	5350.46
428.84	5563.45
429.03	5509.62
429.22	5413.66
429.40	5359.83
429.59	5502.60
429.78	5291.95
429.97	5247.48
430.16	5500.26
430.34	5474.51
430.53	5621.97
430.72	5547.07
430.91	5596.22
431.10	5579.84
431.28	5741.33
431.47	5788.14
431.66	5823.25
431.85	5973.05
432.03	6031.56
432.22	5921.56
432.41	5785.80
432.60	6078.37
432.79	5966.03
432.97	5891.13
433.16	5926.24
433.35	5898.15
433.54	5968.37
433.72	5982.41
433.91	6019.86
434.10	5991.77
434.28	6045.60
434.47	6092.41
434.66	6312.42
434.85	6216.46
435.03	6289.02
435.22	6352.21
435.41	6356.90
435.59	6429.45
435.78	6394.34
435.97	6413.07
436.16	6392.00
436.34	6338.17
436.53	6548.82
436.72	6567.54
436.90	6417.75
437.09	6525.41
437.28	6471.58
437.46	6509.03
437.65	6595.63
437.84	6820.32
438.02	6703.29
438.21	6764.15
438.40	6637.76
438.58	7028.63
438.77	6974.80
438.96	6846.07
439.14	7066.08
439.33	7267.36
439.52	7035.65
439.70	7218.21
439.89	7222.89
440.08	7136.29
440.26	7265.02
440.45	7000.54
440.63	7412.48
440.82	7494.40
441.01	7478.01
441.19	7393.75
441.38	7606.74
441.57	7620.78
441.75	7847.82
441.94	7875.90
442.12	8011.65
442.31	7901.65
442.50	8133.36
442.68	7995.27
442.87	8009.31
443.05	7922.71
443.24	8292.52
443.43	8189.53
443.61	8131.02
443.80	8266.77
443.98	7920.37
444.17	7864.20
444.35	8271.45
444.54	8294.86
444.73	8306.56
444.91	8280.82
445.10	8264.43
445.28	8325.29
445.47	8142.72
445.65	8262.09
445.84	8395.50
446.02	8454.02
446.21	8322.94
446.39	8411.89
446.58	8557.00
446.77	8374.44
446.95	8243.37
447.14	8318.26
447.32	8400.18
447.51	8346.35
447.69	8519.55
447.88	8355.71
448.06	8386.14
448.25	8407.20
448.43	8510.19
448.62	8538.27
448.80	8659.98
448.99	8676.37
449.17	8681.05
449.36	8594.45
449.54	8741.90
449.73	8816.80
449.91	9022.77
450.10	8994.68
450.28	8982.98
450.46	9015.74
450.65	8905.74
450.83	8957.23
451.02	9156.18
451.20	9114.05
451.39	9020.42
451.57	9252.14
451.76	9055.53
451.94	8980.64
452.13	9322.35
452.31	9172.56
452.49	9111.71
452.68	9439.38
452.86	9064.89
453.05	9310.65
453.23	9467.47
453.42	9217.03
453.60	9219.37
453.78	9437.04
453.97	9383.21
454.15	9502.58
454.34	9486.19
454.52	9675.77
454.70	9729.61
454.89	9816.21
455.07	9743.65
455.26	9905.15
455.44	9895.78
455.62	9813.87
455.81	9914.51
455.99	9881.74
456.17	10022.17
456.36	10064.30
456.54	10200.05
456.73	10083.03
456.91	10452.83
457.09	10307.72
457.28	10548.79
457.46	10300.70
457.64	10691.57
457.83	10483.26
458.01	10188.35
458.19	10675.18
458.38	10277.29
458.56	10698.59
458.74	10511.35
458.93	10527.73
459.11	10743.06
459.29	10672.84
459.48	10483.26
459.66	10736.04
459.84	10899.87
460.03	11005.20
460.21	10984.13
460.39	10960.73
460.57	11040.31
460.76	11150.31
460.94	11112.86
461.12	11239.25
461.31	10934.98
461.49	11105.84
461.67	11162.01
461.85	11323.51
462.04	11257.98
462.22	11721.40
462.40	11506.07
462.59	11412.45
462.77	11314.15
462.95	11428.84
463.13	11410.11
463.32	11545.86
463.50	11742.47
463.68	11644.17
463.86	11742.47
464.05	11786.94
464.23	11454.58
464.41	11779.92
464.59	11695.66
464.78	12187.17
464.96	11960.14
465.14	11857.15
465.32	11922.69
465.50	12131.00
465.69	12077.16
465.87	12142.70
466.05	12154.40
466.23	12243.34
466.41	12362.71
466.60	12367.39
466.78	12187.17
466.96	12107.59
467.14	12105.25
467.32	12325.26
467.51	12526.55
467.69	11850.13
467.87	12292.49
468.05	12531.23
468.23	12367.39
468.41	12556.97
468.60	12676.34
468.78	12456.33
468.96	12699.75
469.14	12676.34
469.32	12947.84
469.50	12772.30
469.69	12727.83
469.87	12905.71
470.05	13092.96
470.23	13027.42
470.41	12926.78
470.59	13394.89
470.77	13245.09
470.95	13074.23
471.14	13429.99
471.32	13240.41
471.50	13284.88
471.68	13483.83
471.86	13650.00
472.04	13638.30
472.22	13785.76
472.40	13919.17
472.58	13741.29
472.77	14003.43
472.95	13774.05
473.13	14445.79
473.31	13877.04
473.49	14188.33
473.67	13958.96
473.85	14141.52
474.03	14342.80
474.21	14410.68
474.39	14635.37
474.57	14541.75
474.75	14738.35
474.93	15012.20
475.12	14899.85
475.30	15073.05
475.48	14930.28
475.66	14960.70
475.84	15021.56
476.02	15435.83
476.20	15513.07
476.38	15676.91
476.56	15819.68
476.74	15754.15
476.92	15660.52
477.10	15742.44
477.28	16119.27
477.46	15999.90
477.64	16121.61
477.82	16402.47
478.00	16847.18
478.18	16725.47
478.36	16587.38
478.54	17013.35
478.72	17008.67
478.90	17069.53
479.08	17153.79
479.26	17380.82
479.44	17694.45
479.62	17624.23
479.80	17638.28
479.98	18188.30
480.16	18326.39
480.34	18244.48
480.52	18576.83
480.70	18511.30
480.88	18249.16
481.06	18593.22
481.24	18778.12
481.41	18845.99
481.59	19328.14
481.77	19461.55
481.95	19396.02
482.13	19407.72
482.31	19946.05
482.49	20215.21
482.67	20320.53
482.85	20411.81
483.03	20407.13
483.21	20608.42
483.39	20849.49
483.57	20587.35
483.74	20973.54
483.92	20830.77
484.10	21195.89
484.28	21717.83
484.46	22092.32
484.64	22480.85
484.82	21661.66
485.00	22199.98
485.18	22682.13
485.35	22721.92
485.53	22525.32
485.71	23143.22
485.89	23470.89
486.07	23002.78
486.25	23103.43
486.43	23475.57
486.61	23690.90
486.78	24142.63
486.96	23922.62
487.14	24325.19
487.32	24336.89
487.50	24730.10
487.68	24641.16
487.85	24968.84
488.03	25532.90
488.21	25837.17
488.39	25542.27
488.57	25776.32
488.75	25907.39
488.92	26003.35
489.10	26649.34
489.28	26181.23
489.46	27009.78
489.64	26705.51
489.81	27080.00
489.99	27358.52
490.17	27468.53
490.35	27747.05
490.53	27885.14
490.70	28416.44
490.88	28084.09
491.06	28393.04
491.24	28624.75
491.41	28748.80
491.59	29123.29
491.77	29013.28
491.95	29256.70
492.13	29184.14
492.30	29701.40
492.48	30155.46
492.66	30012.69
492.84	30251.42
493.01	30452.71
493.19	30171.85
493.37	30953.58
493.54	30742.94
493.72	31264.88
493.90	31253.17
494.08	31379.56
494.25	31494.25
494.43	31716.60
494.61	32147.26
494.79	32629.41
494.96	32304.07
495.14	32538.13
495.32	32945.38
495.49	32662.18
495.67	33219.22
495.85	33036.66
496.02	33378.38
496.20	33481.36
496.38	33586.69
496.55	34155.44
496.73	34543.97
496.91	34298.21
497.09	34710.14
497.26	34656.31
497.44	34799.08
497.62	35101.01
497.79	35260.17
497.97	34913.77
498.14	35835.94
498.32	35744.66
498.50	36081.70
498.67	36531.08
498.85	36556.83
499.03	36486.61
499.20	36774.50
499.38	36552.15
499.56	36748.75
499.73	37233.24
499.91	37088.13
500.08	37361.97
500.26	37429.85
500.44	36849.39
500.61	37687.31
500.79	37420.48
500.97	37663.90
501.14	38197.54
501.32	38256.06
501.49	38213.93
501.67	38536.92
501.84	38761.61
502.02	38962.90
502.20	38920.77
502.37	38930.13
502.55	38869.28
502.72	39299.94
502.90	39246.10
503.07	39372.49
503.25	39248.44
503.43	39470.79
503.60	40114.44
503.78	40177.64
503.95	39922.52
504.13	40355.52
504.30	40444.46
504.48	40069.97
504.65	40376.58
504.83	40746.39
505.01	41069.38
505.18	41081.08
505.36	40945.33
505.53	41022.57
505.71	40921.93
505.88	41453.23
506.06	41537.49
506.23	41886.23
506.41	41586.64
506.58	41703.67
506.76	42188.16
506.93	42143.69
507.11	42265.39
507.28	42387.10
507.46	42241.99
507.63	42579.03
507.81	43241.40
507.98	42513.49
508.16	42639.88
508.33	43157.14
508.50	43082.24
508.68	43819.51
508.85	43480.13
509.03	43594.82
509.20	43529.28
509.38	44184.63
509.55	44189.31
509.73	44074.63
509.90	44421.03
510.08	44079.31
510.25	44240.81
510.42	44399.96
510.60	44491.24
510.77	45198.09
510.95	45329.16
511.12	44594.23
511.30	44900.84
511.47	45277.66
511.64	45350.22
511.82	45769.18
511.99	45303.41
512.17	45729.39
512.34	45305.75
512.51	45729.39
512.69	45628.74
512.86	46260.69
513.04	46394.10
513.21	46518.15
513.38	46209.20
513.56	46408.14
513.73	46522.83
513.90	46845.82
514.08	46749.86
514.25	47063.49
514.43	47182.86
514.60	47159.45
514.77	47232.01
514.95	47594.79
515.12	47215.63
515.29	47327.97
515.47	47555.00
515.64	47653.31
515.81	47466.06
515.99	47697.78
516.16	48252.48
516.33	48266.53
516.51	48575.48
516.68	48264.19
516.85	48123.75
517.03	48360.15
517.20	48495.90
517.37	48755.70
517.54	48458.45
517.72	48814.21
517.89	48687.82
518.06	48872.73
518.24	48736.98
518.41	49036.56
518.58	48961.67
518.75	49184.02
518.93	49415.73
519.10	49251.89
519.27	49357.22
519.45	49371.26
519.62	49551.48
519.79	49612.34
519.96	49813.62
520.14	49764.47
520.31	49755.11
520.48	50124.91
520.65	49830.01
520.83	50431.52
521.00	50305.13
521.17	50305.13
521.34	50277.05
521.52	50415.14
521.69	50724.09
521.86	50721.75
522.03	50834.10
522.20	50838.78
522.38	51058.79
522.55	51215.60
522.72	51456.68
522.89	51152.41
523.07	51037.72
523.24	51082.19
523.41	51625.20
523.58	51241.35
523.75	51075.17
523.92	51702.43
524.10	51636.90
524.27	51859.25
524.44	51868.61
524.61	51962.23
524.78	51496.47
524.96	52105.01
525.13	51997.34
525.30	52093.30
525.47	52002.02
525.64	52273.52
525.81	52594.18
525.98	52322.68
526.16	52313.31
526.33	52390.55
526.50	52498.22
526.67	52610.56
526.84	52722.91
527.01	52617.58
527.18	52528.64
527.36	53045.90
527.53	52856.32
527.70	53118.46
527.87	53200.38
528.04	52961.64
528.21	53020.16
528.38	53109.10
528.55	53422.73
528.72	53113.78
528.89	53076.33
529.07	53261.23
529.24	53329.11
529.41	53361.87
529.58	53532.73
529.75	53411.02
529.92	53595.93
530.09	53780.83
530.26	53659.12
530.43	53930.62
530.60	53600.61
530.77	53741.04
530.94	53848.71
531.11	53834.66
531.28	53930.62
531.46	54129.57
531.63	54047.65
531.80	53804.24
531.97	54045.31
532.14	54482.99
532.31	54188.08
532.48	54284.04
532.65	54468.95
532.82	54358.94
532.99	54625.76
533.16	54160.00
533.33	54391.71
533.50	54843.43
533.67	54660.87
533.84	54454.90
534.01	54808.32
534.18	54740.45
534.35	55056.42
534.52	55016.63
534.69	54983.86
534.86	55194.51
535.03	54784.92
535.20	55049.40
535.37	55128.98
535.54	55185.15
535.71	54939.39
535.88	55117.28
536.05	55327.92
536.22	55561.98
536.38	55344.31
536.55	55271.75
536.72	55311.54
536.89	55381.76
537.06	55370.05
537.23	55559.64
537.40	55238.98
537.57	55489.42
537.74	55496.44
537.91	55826.46
538.08	55817.10
538.25	55620.49
538.42	55739.86
538.59	55962.21
538.75	55735.18
538.92	55852.20
539.09	56032.42
539.26	55686.03
539.43	55814.76
539.60	55877.95
539.77	56149.45
539.94	56669.05
540.11	56210.31
540.28	56182.22
540.44	56257.12
540.61	56133.07
540.78	55969.23
540.95	56334.35
541.12	56243.07
541.29	56179.88
541.46	56498.19
541.62	56266.48
541.79	56460.74
541.96	56151.79
542.13	56442.02
542.30	56573.09
542.47	56612.88
542.63	56495.85
542.80	56800.12
542.97	56985.02
543.14	56961.62
543.31	57090.35
543.48	57120.77
543.64	57322.06
543.81	57492.92
543.98	57176.95
544.15	57169.93
544.32	57394.62
544.48	57261.21
544.65	56949.92
544.82	57506.96
544.99	57277.59
545.16	57315.04
545.32	57078.64
545.49	57336.10
545.66	57495.26
545.83	57523.35
546.00	57731.65
546.16	57633.35
546.33	57303.34
546.50	57347.81
546.67	57621.65
546.83	57261.21
547.00	57609.95
547.17	57621.65
547.34	57708.25
547.50	57687.18
547.67	58005.50
547.84	57911.88
548.00	57808.89
548.17	57939.96
548.34	57954.00
548.51	58375.30
548.67	58040.60
548.84	57977.41
549.01	57684.84
549.18	57937.62
549.34	58232.53
549.51	58162.31
549.68	58305.09
549.84	58286.36
550.01	58248.91
550.18	58176.36
550.34	58209.12
550.51	58183.38
550.68	58143.59
550.84	58188.06
551.01	58387.00
551.18	58485.31
551.34	58454.88
551.51	58567.23
551.68	58389.34
551.84	58379.98
552.01	58391.68
552.18	58471.26
552.34	58377.64
552.51	58497.01
552.68	58520.41
552.84	58543.82
553.01	58768.51
553.18	58789.58
553.34	58775.53
553.51	58539.14
553.67	58454.88
553.84	58894.90
554.01	58794.26
554.17	58803.62
554.34	59002.56
554.51	58770.85
554.67	58883.20
554.84	58869.15
555.00	58859.79
555.17	58944.05
555.33	59030.65
555.50	59047.04
555.67	58688.93
555.83	59180.45
556.00	59100.87
556.16	59253.00
556.33	59114.91
556.50	59047.04
556.66	59309.18
556.83	58920.65
556.99	59194.49
557.16	59309.18
557.32	59351.30
557.49	59529.19
557.65	58993.20
557.82	59302.15
557.98	59192.15
558.15	59217.89
558.32	59498.76
558.48	59255.34
558.65	59316.20
558.81	59391.09
558.98	59423.86
559.14	59760.90
559.31	59632.17
559.47	59377.05
559.64	59587.70
559.80	59484.72
559.97	59702.38
560.13	59559.61
560.30	59416.84
560.46	59686.00
560.63	59531.53
560.79	59576.00
560.96	59952.82
561.12	59695.36
561.29	59601.74
561.45	59643.87
561.61	59641.53
561.78	59650.89
561.94	59611.10
562.11	59442.59
562.27	59732.81
562.44	59700.04
562.60	59924.74
562.77	59856.86
562.93	59786.64
563.10	59828.77
563.26	59646.21
563.42	60027.72
563.59	59798.35
563.75	59908.35
563.92	59955.16
564.08	59803.03
564.24	59913.03
564.41	59959.84
564.57	59880.27
564.74	59788.98
564.90	60177.51
565.07	59994.95
565.23	59927.08
565.39	60083.89
565.56	59987.93
565.72	60093.25
565.88	60088.57
566.05	59922.40
566.21	59826.43
566.38	60072.19
566.54	60018.36
566.70	60226.66
566.87	60154.11
567.03	59833.46
567.19	60296.88
567.36	60317.95
567.52	60198.58
567.68	60423.27
567.85	60261.77
568.01	60044.10
568.17	60165.81
568.34	60254.75
568.50	60271.14
568.66	60130.70
568.83	60296.88
568.99	60172.83
569.15	60231.35
569.32	60193.90
569.48	60100.28
569.64	60441.99
569.81	60416.25
569.97	60343.69
570.13	60137.72
570.30	60093.25
570.46	60385.82
570.62	60294.54
570.78	60317.95
570.95	60491.15
571.11	60353.05
571.27	60346.03
571.43	60383.48
571.60	60275.82
571.76	60341.35
571.92	60484.12
572.09	60432.63
572.25	60353.05
572.41	60303.90
572.57	60491.15
572.74	60636.26
572.90	60486.46
573.06	60530.93
573.22	60390.50
573.38	60544.98
573.55	60535.62
573.71	60502.85
573.87	60500.51
574.03	60388.16
574.20	60540.30
574.36	60633.92
574.52	60502.85
574.68	60542.64
574.84	60631.58
575.01	60390.50
575.17	60523.91
575.33	60488.80
575.49	60463.06
575.65	60479.44
575.82	60566.04
575.98	60701.79
576.14	60804.78
576.30	60774.35
576.46	60509.87
576.62	60605.83
576.79	60521.57
576.95	60434.97
577.11	60610.51
577.27	60608.17
577.43	60772.01
577.59	60608.17
577.75	60444.33
577.92	60481.78
578.08	60743.92
578.24	60720.52
578.40	60704.13
578.56	60767.33
578.72	60783.71
578.88	60816.48
579.04	60985.00
579.21	60797.76
579.37	60842.23
579.53	60898.40
579.69	60439.65
579.85	60720.52
580.01	60603.49
580.17	60701.79
580.33	60683.07
580.49	60830.52
580.65	60898.40
580.82	60732.22
580.98	60687.75
581.14	60671.37
581.30	60938.19
581.46	60835.20
581.62	60685.41
581.78	60762.65
581.94	60753.29
582.10	60734.56
582.26	60591.79
582.42	60764.99
582.58	60734.56
582.74	60830.52
582.90	60809.46
583.06	60940.53
583.22	60622.22
583.38	60889.04
583.54	60935.85
583.70	60982.66
583.86	60886.70
584.02	60779.03
584.18	60931.17
584.34	60526.25
584.50	61029.47
584.66	60662.00
584.82	60582.43
584.98	61092.66
585.14	60814.14
585.30	60750.94
585.46	60837.54
585.62	60994.36
585.78	60893.72
585.94	60786.05
586.10	61006.06
586.26	60835.20
586.42	60987.34
586.58	61006.06
586.74	60853.93
586.90	60762.65
587.06	60877.33
587.22	61090.32
587.38	60874.99
587.54	60945.21
587.70	60994.36
587.86	60900.74
588.02	60872.65
588.18	61169.90
588.34	60966.27
588.49	61031.81
