SpectraSuite Data File
++++++++++++++++++++++++++++++++++++
Date: Fri Oct 25 11:25:01 EDT 2013
User: price-jones
Dark Spectrum Present: No
Reference Spectrum Present: No
Number of Sampled Component Spectra: 1
Spectrometers: USB2+H05261
Integration Time (usec): 100000 (USB2+H05261)
Spectra Averaged: 1 (USB2+H05261)
Boxcar Smoothing: 0 (USB2+H05261)
Correct for Electrical Dark: No (USB2+H05261)
Strobe/Lamp Enabled: No (USB2+H05261)
Correct for Detector Non-linearity: No (USB2+H05261)
Correct for Stray Light: No (USB2+H05261)
Number of Pixels in Processed Spectrum: 2048
>>>>>Begin Processed Spectral Data<<<<<
365.73	212.99
365.92	212.99
366.12	212.99
366.32	107.66
366.52	196.60
366.72	168.52
366.91	124.05
367.11	142.77
367.31	114.69
367.51	112.35
367.70	121.71
367.90	107.66
368.10	53.83
368.30	187.24
368.49	187.24
368.69	163.84
368.89	105.32
369.09	163.84
369.28	119.37
369.48	121.71
369.68	131.07
369.87	196.60
370.07	229.37
370.27	243.42
370.47	313.63
370.66	517.26
370.86	617.90
371.06	671.73
371.25	748.97
371.45	624.92
371.65	648.33
371.84	730.25
372.04	720.88
372.24	723.23
372.44	704.50
372.63	753.65
372.83	823.87
373.03	718.54
373.22	753.65
373.42	847.27
373.62	713.86
373.81	840.25
374.01	873.02
374.21	748.97
374.40	753.65
374.60	828.55
374.79	828.55
374.99	800.46
375.19	828.55
375.38	844.93
375.58	889.40
375.78	870.68
375.97	828.55
376.17	882.38
376.37	917.49
376.56	910.47
376.76	889.40
376.95	896.43
377.15	910.47
377.35	858.98
377.54	968.98
377.74	873.02
377.93	915.15
378.13	894.08
378.33	931.53
378.52	983.02
378.72	987.71
378.91	961.96
379.11	917.49
379.31	912.81
379.50	889.40
379.70	1069.62
379.89	971.32
380.09	983.02
380.28	1076.65
380.48	952.60
380.68	980.68
380.87	964.30
381.07	933.87
381.26	1109.41
381.46	1013.45
381.65	1025.15
381.85	1032.18
382.04	1053.24
382.24	966.64
382.43	1069.62
382.63	1022.81
382.83	1027.50
383.02	1029.84
383.22	1186.65
383.41	1055.58
383.61	1172.61
383.80	1121.12
384.00	1121.12
384.19	1053.24
384.39	1076.65
384.58	1118.78
384.78	1137.50
384.97	1200.69
385.17	1212.40
385.36	1188.99
385.56	1200.69
385.75	1174.95
385.95	1123.46
386.14	1210.06
386.34	1219.42
386.53	1254.53
386.72	1174.95
386.92	1203.04
387.11	1205.38
387.31	1310.70
387.50	1284.95
387.70	1306.02
387.89	1231.12
388.09	1322.40
388.28	1336.45
388.48	1226.44
388.67	1334.11
388.86	1287.29
389.06	1299.00
389.25	1306.02
389.45	1261.55
389.64	1345.81
389.84	1343.47
390.03	1331.76
390.22	1350.49
390.42	1465.18
390.61	1371.55
390.81	1394.96
391.00	1401.98
391.19	1394.96
391.39	1413.68
391.58	1425.39
391.78	1448.79
391.97	1603.27
392.16	1519.01
392.36	1533.05
392.55	1528.37
392.75	1572.84
392.94	1570.50
393.13	1540.07
393.33	1481.56
393.52	1629.01
393.71	1591.56
393.91	1577.52
394.10	1579.86
394.29	1629.01
394.49	1561.14
394.68	1605.61
394.88	1610.29
395.07	1673.48
395.26	1600.93
395.46	1703.91
395.65	1624.33
395.84	1708.59
396.04	1795.19
396.23	1741.36
396.42	1736.68
396.62	1785.83
396.81	1886.47
397.00	1781.15
397.19	1788.17
397.39	1813.92
397.58	1926.26
397.77	1795.19
397.97	1776.47
398.16	1867.75
398.35	1898.17
398.55	1905.20
398.74	1799.87
398.93	1977.75
399.12	1802.21
399.32	1914.56
399.51	2003.50
399.70	2026.90
399.90	1954.35
400.09	2019.88
400.28	2101.80
400.47	1970.73
400.67	2087.76
400.86	2104.14
401.05	2069.03
401.24	2059.67
401.44	2150.95
401.63	2036.27
401.82	2118.18
402.01	2169.68
402.21	2165.00
402.40	2235.21
402.59	2150.95
402.78	2190.74
402.97	2338.20
403.17	2225.85
403.36	2230.53
403.55	2272.66
403.74	2361.60
403.93	2312.45
404.13	2385.01
404.32	2303.09
404.51	2431.82
404.70	2387.35
404.89	2401.39
405.09	2600.34
405.28	2427.14
405.47	2420.11
405.66	2504.37
405.85	2513.74
406.05	2583.95
406.24	2438.84
406.43	2565.23
406.62	2616.72
406.81	2703.32
407.00	2511.39
407.20	2612.04
407.39	2567.57
407.58	2703.32
407.77	2616.72
407.96	2745.45
408.15	2766.51
408.34	2815.66
408.54	2820.35
408.73	2792.26
408.92	2799.28
409.11	2785.24
409.30	2956.10
409.49	3016.95
409.68	2991.20
409.87	2864.82
410.07	2998.23
410.26	2984.18
410.45	3063.76
410.64	2974.82
410.83	3155.04
411.02	3115.25
411.21	3239.30
411.40	3098.87
411.59	3183.13
411.78	3220.58
411.98	3138.66
412.17	3169.09
412.36	3225.26
412.55	3419.52
412.74	3520.17
412.93	3356.33
413.12	3440.59
413.31	3559.95
413.50	3517.83
413.69	3438.25
413.88	3559.95
414.07	3595.06
414.26	3641.87
414.45	3700.39
414.64	3684.00
414.83	3728.47
415.02	3808.05
415.22	3796.35
415.41	3817.41
415.60	3976.57
415.79	3906.35
415.98	3878.27
416.17	4032.74
416.36	3913.38
416.55	3880.61
416.74	4081.89
416.93	4056.15
417.12	4042.11
417.31	4072.53
417.50	4201.26
417.69	4290.20
417.88	4287.86
418.07	4245.73
418.26	4374.46
418.45	4442.34
418.64	4622.56
418.83	4320.63
419.02	4395.53
419.21	4540.64
419.39	4376.80
419.58	4648.30
419.77	4535.96
419.96	4594.47
420.15	4615.54
420.34	4685.75
420.53	4652.98
420.72	4727.88
420.91	4655.33
421.10	4734.90
421.29	4784.06
421.48	4795.76
421.67	4770.01
421.86	4720.86
422.05	4894.06
422.24	4851.93
422.43	4678.73
422.61	4880.02
422.80	4943.21
422.99	4952.57
423.18	4816.82
423.37	4938.53
423.56	4912.78
423.75	4807.46
423.94	4884.70
424.13	4465.74
424.32	4727.88
424.50	4999.38
424.69	5188.97
424.88	5109.39
425.07	4966.62
425.26	4968.96
425.45	4901.08
425.64	4884.70
425.83	4929.17
426.01	5034.49
426.20	5107.05
426.39	5036.83
426.58	5046.20
426.77	4980.66
426.96	5050.88
427.15	5064.92
427.33	5186.63
427.52	5235.78
427.71	5224.08
427.90	5240.46
428.09	5390.25
428.28	5486.22
428.46	5493.24
428.65	5378.55
428.84	5444.09
429.03	5467.49
429.22	5378.55
429.40	5483.88
429.59	5467.49
429.78	5310.68
429.97	5242.80
430.16	5472.17
430.34	5570.48
430.53	5706.23
430.72	5607.92
430.91	5631.33
431.10	5640.69
431.28	5832.62
431.47	5846.66
431.66	5809.21
431.85	5804.53
432.03	5884.11
432.22	5907.51
432.41	6045.60
432.60	5849.00
432.79	5820.91
432.97	6085.39
433.16	5905.17
433.35	5874.74
433.54	6155.61
433.72	6108.80
433.91	6125.18
434.10	6080.71
434.28	6106.46
434.47	6216.46
434.66	6225.82
434.85	6282.00
435.03	6291.36
435.22	6396.68
435.41	6485.62
435.59	6485.62
435.78	6548.82
435.97	6537.12
436.16	6389.66
436.34	6504.35
436.53	6747.76
436.72	6679.89
436.90	6527.75
437.09	6473.92
437.28	6380.30
437.46	6642.44
437.65	6764.15
437.84	6775.85
438.02	6661.16
438.21	6654.14
438.40	6630.74
438.58	6920.96
438.77	6832.02
438.96	6867.13
439.14	7164.38
439.33	7225.23
439.52	7173.74
439.70	7276.73
439.89	7496.74
440.08	7215.87
440.26	7351.62
440.45	7375.03
440.63	7573.97
440.82	7646.53
441.01	7630.15
441.19	7630.15
441.38	7672.28
441.57	7688.66
441.75	7803.35
441.94	7932.08
442.12	7932.08
442.31	7974.21
442.50	7878.24
442.68	7815.05
442.87	7887.61
443.05	8067.83
443.24	8219.96
443.43	8224.64
443.61	8060.80
443.80	8461.04
443.98	8156.77
444.17	7889.95
444.35	8135.70
444.54	8283.16
444.73	8177.83
444.91	8152.09
445.10	8241.03
445.28	8226.98
445.47	8432.95
445.65	8313.58
445.84	8287.84
446.02	8327.63
446.21	8339.33
446.39	8344.01
446.58	8404.86
446.77	8587.43
446.95	8353.37
447.14	8257.41
447.32	8664.66
447.51	8760.63
447.69	8320.60
447.88	8648.28
448.06	8514.87
448.25	8449.33
448.43	8517.21
448.62	8559.34
448.80	8599.13
448.99	8854.25
449.17	8814.46
449.36	8500.83
449.54	8727.86
449.73	8957.23
449.91	9060.21
450.10	8992.34
450.28	9174.90
450.46	8952.55
450.65	8950.21
450.83	9092.98
451.02	9097.66
451.20	9205.33
451.39	9081.28
451.57	9135.11
451.76	8889.35
451.94	9200.65
452.13	9151.49
452.31	9312.99
452.49	9018.08
452.68	9465.13
452.86	9355.12
453.05	9282.56
453.23	9446.40
453.42	9308.31
453.60	9455.76
453.78	9502.58
453.97	9462.79
454.15	9521.30
454.34	9378.53
454.52	9783.44
454.70	9713.22
454.89	9771.74
455.07	9830.25
455.26	9935.57
455.44	9858.34
455.62	9940.26
455.81	9916.85
455.99	10024.51
456.17	10157.92
456.36	9905.15
456.54	10314.74
456.73	10237.50
456.91	10310.06
457.09	10363.89
457.28	10539.43
457.46	10602.63
457.64	10487.94
457.83	10551.14
458.01	10340.49
458.19	10913.92
458.38	10614.33
458.56	10736.04
458.74	10628.37
458.93	10635.39
459.11	10714.97
459.29	10773.49
459.48	10773.49
459.66	10813.28
459.84	11005.20
460.03	11131.59
460.21	10890.51
460.39	10988.82
460.57	10916.26
460.76	10862.43
460.94	11232.23
461.12	11227.55
461.31	11103.50
461.49	11054.35
461.67	11147.97
461.85	11506.07
462.04	11353.94
462.22	11602.04
462.40	11576.29
462.59	11641.82
462.77	11534.16
462.95	11590.33
463.13	11583.31
463.32	11665.23
463.50	11808.00
463.68	11826.73
463.86	11997.59
464.05	11660.55
464.23	11730.76
464.41	11974.18
464.59	11653.53
464.78	12056.10
464.96	11854.81
465.14	11754.17
465.32	12011.63
465.50	12156.74
465.69	12088.87
465.87	12224.62
466.05	12168.45
466.23	12194.19
466.41	12273.77
466.60	12526.55
466.78	12320.58
466.96	11960.14
467.14	12154.40
467.32	12641.23
467.51	12444.63
467.69	12233.98
467.87	12507.82
468.05	12500.80
468.23	12468.03
468.41	12397.82
468.60	12573.36
468.78	12835.50
468.96	12573.36
469.14	12751.24
469.32	12821.45
469.50	12664.64
469.69	12662.30
469.87	13027.42
470.05	13291.90
470.23	13008.70
470.41	13240.41
470.59	13151.47
470.77	13081.25
470.95	13359.78
471.14	13556.38
471.32	13146.79
471.50	13451.06
471.68	13692.13
471.86	13750.65
472.04	13654.69
472.22	14033.85
472.40	13820.86
472.58	13734.26
472.77	13862.99
472.95	14223.44
473.13	14633.03
473.31	14209.39
473.49	14265.57
473.67	14010.45
473.85	14473.87
474.03	14792.19
474.21	14469.19
474.39	14768.78
474.57	14607.28
474.75	15108.16
474.93	15030.92
475.12	14656.43
475.30	15192.42
475.48	14806.23
475.66	15339.87
475.84	15374.98
476.02	15426.47
476.20	15262.63
476.38	15566.90
476.56	15925.00
476.74	15957.77
476.92	15840.75
477.10	15857.13
477.28	16102.89
477.46	16121.61
477.64	16224.59
477.82	16458.65
478.00	17240.39
478.18	16851.86
478.36	16957.18
478.54	17071.87
478.72	17186.55
478.90	17259.11
479.08	17809.14
479.26	17575.08
479.44	17771.69
479.62	17743.60
479.80	18059.57
479.98	18338.10
480.16	18504.28
480.34	18314.69
480.52	18705.56
480.70	18602.58
480.88	18211.71
481.06	18644.71
481.24	18806.20
481.41	18963.02
481.59	19515.39
481.77	19578.58
481.95	19506.02
482.13	19822.00
482.31	19349.21
482.49	20144.99
482.67	20156.69
482.85	20301.81
483.03	21008.65
483.21	20767.57
483.39	20835.45
483.57	20772.25
483.74	20996.95
483.92	21488.46
484.10	21212.28
484.28	21872.31
484.46	21738.90
484.64	22008.06
484.82	22258.49
485.00	22036.14
485.18	22670.43
485.35	22712.56
485.53	23030.87
485.71	22967.68
485.89	23384.29
486.07	23381.95
486.25	23438.12
486.43	23733.03
486.61	23875.80
486.78	24254.97
486.96	24414.13
487.14	24458.60
487.32	24418.81
487.50	25034.37
487.68	25090.54
487.85	25235.66
488.03	25645.25
488.21	25956.54
488.39	25806.75
488.57	26169.53
488.75	26068.89
488.92	26761.69
489.10	26366.13
489.28	26794.45
489.46	26689.13
489.64	27087.02
489.81	27426.40
489.99	27667.47
490.17	27770.46
490.35	28203.46
490.53	28474.96
490.70	28685.61
490.88	28404.74
491.06	28992.22
491.24	28954.77
491.41	29331.59
491.59	29252.02
491.77	29460.32
491.95	29446.28
492.13	30319.30
492.30	29677.99
492.48	30050.14
492.66	30277.17
492.84	30171.85
493.01	30691.44
493.19	30829.54
493.37	31112.74
493.54	31009.76
493.72	31388.92
493.90	31412.33
494.08	32034.91
494.25	31995.12
494.43	31938.95
494.61	32311.10
494.79	32301.73
494.96	32598.98
495.14	32730.05
495.32	33130.28
495.49	33532.86
495.67	33081.13
495.85	33333.91
496.02	33724.78
496.20	34045.43
496.38	34092.24
496.55	34139.05
496.73	34731.21
496.91	34541.63
497.09	34953.56
497.26	34873.98
497.44	34962.92
497.62	35028.46
497.79	35885.09
497.97	35601.89
498.14	36282.98
498.32	36362.56
498.50	36128.51
498.67	36723.01
498.85	36636.41
499.03	36531.08
499.20	36786.20
499.38	36886.84
499.56	37172.39
499.73	37181.75
499.91	37064.72
500.08	37654.54
500.26	37361.97
500.44	37729.44
500.61	37998.60
500.79	37507.08
500.97	38087.54
501.14	38696.08
501.32	38665.65
501.49	38520.54
501.67	38377.76
501.84	38742.89
502.02	38801.40
502.20	38890.34
502.37	38871.62
502.55	39236.74
502.72	39833.58
502.90	39646.33
503.07	39756.34
503.25	40098.06
503.43	39445.05
503.60	39695.49
503.78	40140.19
503.95	40259.55
504.13	40079.33
504.30	40421.05
504.48	40233.81
504.65	40690.21
504.83	41352.58
505.01	41406.42
505.18	41148.96
505.36	41879.21
505.53	41308.11
505.71	41373.65
505.88	41598.34
506.06	41130.23
506.23	42078.15
506.41	41998.57
506.58	42337.95
506.76	42302.84
506.93	42499.45
507.11	42239.65
507.28	42789.67
507.46	42394.12
507.63	42672.65
507.81	43089.26
507.98	42768.61
508.16	43316.29
508.33	43817.17
508.50	43323.32
508.68	43533.96
508.85	43615.88
509.03	43779.72
509.20	44037.18
509.38	44355.49
509.55	44577.84
509.73	44402.30
509.90	44404.64
510.08	44390.60
510.25	44652.74
510.42	44664.44
510.60	45064.67
510.77	45212.13
510.95	45530.44
511.12	45193.40
511.30	45326.81
511.47	45567.89
511.64	45710.66
511.82	45825.35
511.99	45308.09
512.17	46302.82
512.34	45785.56
512.51	46223.24
512.69	46263.03
512.86	46256.01
513.04	46705.39
513.21	46707.73
513.38	46534.53
513.56	47091.58
513.73	46490.06
513.90	47201.58
514.08	47119.66
514.25	47016.68
514.43	47239.03
514.60	47739.91
514.77	47606.50
514.95	47707.14
515.12	47854.59
515.29	47342.02
515.47	48142.48
515.64	48086.31
515.81	47969.28
515.99	48002.05
516.16	48697.19
516.33	48367.17
516.51	48622.29
516.68	48549.73
516.85	48226.74
517.03	48964.01
517.20	49099.76
517.37	49057.63
517.54	48954.64
517.72	48636.33
517.89	49179.34
518.06	49361.90
518.24	49160.61
518.41	49212.10
518.58	49469.56
518.75	49244.87
518.93	49668.51
519.10	49624.04
519.27	49734.04
519.45	49687.23
519.62	49750.43
519.79	49783.19
519.96	49904.90
520.14	50145.98
520.31	50122.57
520.48	50373.01
520.65	50197.47
520.83	50787.28
521.00	50791.97
521.17	50417.48
521.34	50490.04
521.52	50733.45
521.69	50492.38
521.86	51164.11
522.03	51402.85
522.20	51349.01
522.38	51767.97
522.55	51597.11
522.72	51023.68
522.89	51241.35
523.07	51323.27
523.24	51477.74
523.41	51627.54
523.58	51735.20
523.75	52327.36
523.92	51604.13
524.10	51952.87
524.27	52114.37
524.44	52327.36
524.61	52233.74
524.78	52156.50
524.96	52266.50
525.13	52327.36
525.30	52481.83
525.47	52505.24
525.64	52385.87
525.81	52645.67
525.98	52697.16
526.16	52643.33
526.33	52935.90
526.50	52769.72
526.67	52830.57
526.84	52650.35
527.01	52755.68
527.18	53261.23
527.36	53174.63
527.53	53350.17
527.70	53537.41
527.87	53453.15
528.04	53050.58
528.21	53504.65
528.38	53165.27
528.55	53422.73
528.72	53205.06
528.89	53265.91
529.07	53612.31
529.24	53570.18
529.41	53659.12
529.58	53904.88
529.75	53832.32
529.92	53869.77
530.09	53715.29
530.26	54045.31
530.43	53874.45
530.60	53900.20
530.77	53958.71
530.94	54071.06
531.11	54014.88
531.28	54225.53
531.46	54244.26
531.63	54169.36
531.80	54408.09
531.97	54593.00
532.14	54412.77
532.31	54396.39
532.48	54595.34
532.65	54607.04
532.82	54422.14
532.99	54937.05
533.16	54583.63
533.33	54850.45
533.50	54780.24
533.67	54656.19
533.84	54630.44
534.01	54827.05
534.18	55014.29
534.35	55372.39
534.52	54953.44
534.69	55182.81
534.86	55056.42
535.03	54869.18
535.20	55414.52
535.37	55143.02
535.54	55458.99
535.71	55079.83
535.88	55634.53
536.05	55267.07
536.22	55683.69
536.38	55538.57
536.55	55557.30
536.72	55475.38
536.89	55491.76
537.06	55564.32
537.23	55569.00
537.40	55828.80
537.57	55833.48
537.74	55819.44
537.91	56011.36
538.08	55840.50
538.25	55662.62
538.42	55702.41
538.59	56083.92
538.75	55777.31
538.92	55819.44
539.09	56133.07
539.26	56439.68
539.43	56219.67
539.60	56324.99
539.77	56259.46
539.94	56339.04
540.11	56409.25
540.28	56285.20
540.44	56491.17
540.61	56549.68
540.78	56605.86
540.95	56481.81
541.12	56495.85
541.29	56282.86
541.46	56437.34
541.62	56793.10
541.79	56746.29
541.96	56486.49
542.13	56762.67
542.30	56750.97
542.47	56746.29
542.63	57174.61
542.80	56947.57
542.97	57174.61
543.14	57165.24
543.31	57268.23
543.48	57202.69
543.64	57296.31
543.81	57607.61
543.98	57373.55
544.15	57331.42
544.32	57408.66
544.48	57574.84
544.65	57226.10
544.82	57385.25
544.99	57190.99
545.16	57511.64
545.32	57441.43
545.49	57670.80
545.66	57623.99
545.83	57560.79
546.00	57733.99
546.16	57572.50
546.33	57579.52
546.50	57418.02
546.67	57633.35
546.83	57691.86
547.00	57813.57
547.17	57647.39
547.34	57696.55
547.50	57783.15
547.67	58099.12
547.84	58082.73
548.00	58024.22
548.17	58204.44
548.34	58082.73
548.51	58365.94
548.67	58239.55
548.84	58117.84
549.01	58115.50
549.18	58000.82
549.34	58183.38
549.51	58047.63
549.68	58394.03
549.84	58223.17
550.01	58478.28
550.18	58291.04
550.34	58443.18
550.51	58436.16
550.68	58499.35
550.84	58274.66
551.01	58543.82
551.18	58518.07
551.34	58595.31
551.51	58553.18
551.68	58557.86
551.84	58607.01
552.01	58398.71
552.18	58595.31
552.34	58438.50
552.51	58766.17
552.68	58485.31
552.84	58700.64
553.01	59107.89
553.18	58747.45
553.34	58958.09
553.51	58651.48
553.67	58979.16
553.84	58894.90
554.01	58993.20
554.17	59185.13
554.34	58962.78
554.51	59018.95
554.67	59271.73
554.84	59028.31
555.00	59023.63
555.17	59100.87
555.33	59208.53
555.50	58976.82
555.67	58784.90
555.83	59042.35
556.00	59166.40
556.16	59561.95
556.33	59391.09
556.50	59114.91
556.66	59341.94
556.83	59189.81
556.99	59363.01
557.16	59583.02
557.32	59465.99
557.49	59707.07
557.65	59297.47
557.82	59355.99
557.98	59330.24
558.15	59388.75
558.32	59447.27
558.48	59622.81
558.65	59515.14
558.81	59325.56
558.98	59554.93
559.14	59529.19
559.31	59468.33
559.47	59781.96
559.64	59650.89
559.80	59793.67
559.97	59737.49
560.13	59498.76
560.30	59765.58
560.46	59646.21
560.63	59854.52
560.79	59711.75
560.96	59934.10
561.12	59634.51
561.29	59875.58
561.45	59887.29
561.61	59772.60
561.78	59758.56
561.94	59908.35
562.11	60025.38
562.27	59838.14
562.44	59721.11
562.60	60114.32
562.77	60060.49
562.93	59751.54
563.10	60123.68
563.26	59922.40
563.42	60273.48
563.59	59922.40
563.75	59927.08
563.92	59969.21
564.08	60065.17
564.24	60095.60
564.41	60275.82
564.57	60252.41
564.74	60200.92
564.90	60069.85
565.07	60023.04
565.23	60128.36
565.39	60081.55
565.56	59957.50
565.72	60193.90
565.88	60149.43
566.05	60137.72
566.21	60303.90
566.38	60079.21
566.54	60406.89
566.70	60292.20
566.87	60425.61
567.03	60278.16
567.19	60395.18
567.36	60203.26
567.52	60238.37
567.68	60484.12
567.85	60329.65
568.01	60282.84
568.17	60135.38
568.34	60411.57
568.50	60303.90
568.66	60439.65
568.83	60418.59
568.99	60444.33
569.15	60547.32
569.32	60575.40
569.48	60278.16
569.64	60449.02
569.81	60458.38
569.97	60224.32
570.13	60388.16
570.30	60336.67
570.46	60530.93
570.62	60598.81
570.78	60612.85
570.95	60484.12
571.11	60699.45
571.27	60378.80
571.43	60530.93
571.60	60624.56
571.76	60631.58
571.92	60612.85
572.09	60561.36
572.25	60596.47
572.41	60453.70
572.57	60526.25
572.74	60865.63
572.90	60559.02
573.06	60753.29
573.22	60587.11
573.38	60474.76
573.55	60699.45
573.71	61029.47
573.87	60889.04
574.03	60636.26
574.20	60626.90
574.36	60610.51
574.52	60687.75
574.68	60640.94
574.84	60783.71
575.01	60678.39
575.17	60830.52
575.33	60631.58
575.49	60573.06
575.65	60645.62
575.82	60811.80
575.98	60835.20
576.14	60748.60
576.30	60917.12
576.46	60690.09
576.62	60725.20
576.79	60657.32
576.95	60800.10
577.11	60839.89
577.27	60891.38
577.43	60987.34
577.59	60769.67
577.75	60636.26
577.92	60732.22
578.08	60926.49
578.24	61029.47
578.40	60987.34
578.56	60963.93
578.72	60863.29
578.88	61001.38
579.04	61057.56
579.21	60818.82
579.37	61106.71
579.53	61059.90
579.69	60647.96
579.85	60896.06
580.01	60839.89
580.17	60755.63
580.33	60963.93
580.49	61127.77
580.65	60938.19
580.82	61099.68
580.98	60711.16
581.14	60863.29
581.30	61003.72
581.46	60821.16
581.62	60982.66
581.78	60783.71
581.94	61029.47
582.10	60879.67
582.26	60835.20
582.42	60968.61
582.58	60907.76
582.74	60863.29
582.90	60900.74
583.06	60928.83
583.22	60924.14
583.38	60865.63
583.54	61085.64
583.70	61193.31
583.86	60994.36
584.02	60725.20
584.18	61226.07
584.34	61066.92
584.50	60926.49
584.66	60748.60
584.82	60767.33
584.98	61132.45
585.14	61174.58
585.30	60921.80
585.46	61010.74
585.62	61071.60
585.78	61202.67
585.94	60638.60
586.10	60945.21
586.26	61233.10
586.42	60907.76
586.58	61118.41
586.74	61085.64
586.90	60893.72
587.06	61048.19
587.22	61010.74
587.38	60889.04
587.54	61242.46
587.70	61219.05
587.86	61073.94
588.02	60954.57
588.18	61310.33
588.34	60987.34
588.49	61137.13
