SpectraSuite Data File
++++++++++++++++++++++++++++++++++++
Date: Fri Oct 25 11:23:27 EDT 2013
User: price-jones
Dark Spectrum Present: No
Reference Spectrum Present: No
Number of Sampled Component Spectra: 1
Spectrometers: USB2+H05261
Integration Time (usec): 100000 (USB2+H05261)
Spectra Averaged: 1 (USB2+H05261)
Boxcar Smoothing: 0 (USB2+H05261)
Correct for Electrical Dark: No (USB2+H05261)
Strobe/Lamp Enabled: No (USB2+H05261)
Correct for Detector Non-linearity: No (USB2+H05261)
Correct for Stray Light: No (USB2+H05261)
Number of Pixels in Processed Spectrum: 2048
>>>>>Begin Processed Spectral Data<<<<<
365.73	210.65
365.92	210.65
366.12	210.65
366.32	161.50
366.52	140.43
366.72	77.24
366.91	37.45
367.11	126.39
367.31	133.41
367.51	156.82
367.70	53.83
367.90	117.03
368.10	79.58
368.30	117.03
368.49	154.48
368.69	100.64
368.89	175.54
369.09	124.05
369.28	147.45
369.48	156.82
369.68	156.82
369.87	135.75
370.07	220.01
370.27	255.12
370.47	383.85
370.66	571.09
370.86	601.52
371.06	676.41
371.25	613.22
371.45	601.52
371.65	669.39
371.84	650.67
372.04	751.31
372.24	685.78
372.44	608.54
372.63	744.29
372.83	791.10
373.03	755.99
373.22	781.74
373.42	819.19
373.62	805.14
373.81	758.33
374.01	819.19
374.21	833.23
374.40	805.14
374.60	828.55
374.79	786.42
374.99	816.85
375.19	840.25
375.38	807.48
375.58	760.67
375.78	880.04
375.97	873.02
376.17	891.74
376.37	861.32
376.56	891.74
376.76	856.64
376.95	908.13
377.15	873.02
377.35	854.30
377.54	849.61
377.74	837.91
377.93	966.64
378.13	926.85
378.33	945.58
378.52	950.26
378.72	1025.15
378.91	903.45
379.11	793.44
379.31	847.27
379.50	952.60
379.70	1006.43
379.89	926.85
380.09	933.87
380.28	880.04
380.48	973.66
380.68	959.62
380.87	1013.45
381.07	1050.90
381.26	983.02
381.46	961.96
381.65	971.32
381.85	945.58
382.04	1050.90
382.24	1121.12
382.43	1114.10
382.63	1018.13
382.83	1090.69
383.02	1053.24
383.22	1130.48
383.41	1095.37
383.61	1039.20
383.80	1132.82
384.00	1109.41
384.19	1221.76
384.39	1104.73
384.58	1174.95
384.78	1121.12
384.97	1256.87
385.17	1151.54
385.36	1214.74
385.56	1151.54
385.75	1181.97
385.95	1158.57
386.14	1165.59
386.34	1266.23
386.53	1121.12
386.72	1116.44
386.92	1212.40
387.11	1214.74
387.31	1231.12
387.50	1238.14
387.70	1313.04
387.89	1299.00
388.09	1221.76
388.28	1327.08
388.48	1219.42
388.67	1336.45
388.86	1240.48
389.06	1247.51
389.25	1357.51
389.45	1247.51
389.64	1294.32
389.84	1371.55
390.03	1409.00
390.22	1455.81
390.42	1362.19
390.61	1394.96
390.81	1371.55
391.00	1476.88
391.19	1502.62
391.39	1458.15
391.58	1437.09
391.78	1446.45
391.97	1488.58
392.16	1507.30
392.36	1540.07
392.55	1544.75
392.75	1427.73
392.94	1575.18
393.13	1528.37
393.33	1519.01
393.52	1563.48
393.71	1549.43
393.91	1502.62
394.10	1577.52
394.29	1682.85
394.49	1526.03
394.68	1582.20
394.88	1650.08
395.07	1614.97
395.26	1647.74
395.46	1650.08
395.65	1769.44
395.84	1682.85
396.04	1696.89
396.23	1689.87
396.42	1703.91
396.62	1746.04
396.81	1893.49
397.00	1781.15
397.19	1727.32
397.39	1872.43
397.58	1809.23
397.77	1832.64
397.97	1809.23
398.16	1839.66
398.35	1863.07
398.55	1851.36
398.74	1930.94
398.93	1984.77
399.12	1884.13
399.32	2015.20
399.51	1982.43
399.70	2008.18
399.90	1907.54
400.09	2005.84
400.28	2038.61
400.47	2099.46
400.67	2153.29
400.86	2040.95
401.05	2080.74
401.24	2157.97
401.44	2118.18
401.63	2165.00
401.82	2118.18
402.01	2174.36
402.21	2181.38
402.40	2125.21
402.59	2120.53
402.78	2214.15
402.97	2228.19
403.17	2305.43
403.36	2289.04
403.55	2230.53
403.74	2354.58
403.93	2335.85
404.13	2303.09
404.32	2361.60
404.51	2457.56
404.70	2427.14
404.89	2359.26
405.09	2487.99
405.28	2459.90
405.47	2443.52
405.66	2359.26
405.85	2579.27
406.05	2530.12
406.24	2525.44
406.43	2551.18
406.62	2548.84
406.81	2689.28
407.00	2558.21
407.20	2623.74
407.39	2623.74
407.58	2649.49
407.77	2700.98
407.96	2754.81
408.15	2605.02
408.34	2731.41
408.54	2869.50
408.73	2778.22
408.92	2813.32
409.11	2920.99
409.30	2930.35
409.49	2979.50
409.68	2864.82
409.87	2932.69
410.07	2986.52
410.26	2988.86
410.45	2965.46
410.64	3026.31
410.83	3068.44
411.02	3049.72
411.21	3229.94
411.40	3119.93
411.59	3197.17
411.78	3115.25
411.98	3136.32
412.17	3211.22
412.36	3194.83
412.55	3400.80
412.74	3616.13
412.93	3487.40
413.12	3398.46
413.31	3529.53
413.50	3414.84
413.69	3452.29
413.88	3674.64
414.07	3595.06
414.26	3644.21
414.45	3602.08
414.64	3538.89
414.83	3695.71
415.02	3679.32
415.22	3831.46
415.41	3843.16
415.60	3803.37
415.79	3808.05
415.98	3950.82
416.17	3894.65
416.36	3871.25
416.55	3967.21
416.74	4079.55
416.93	3985.93
417.12	4147.43
417.31	4210.62
417.50	4168.49
417.69	4280.84
417.88	4212.96
418.07	4381.48
418.26	4339.35
418.45	4486.81
418.64	4547.66
418.83	4407.23
419.02	4475.10
419.21	4461.06
419.39	4470.42
419.58	4407.23
419.77	4489.15
419.96	4571.07
420.15	4454.04
420.34	4477.44
420.53	4585.11
420.72	4704.48
420.91	4685.75
421.10	4807.46
421.29	4788.74
421.48	4690.43
421.67	4865.97
421.86	4748.95
422.05	4741.93
422.24	4751.29
422.43	4791.08
422.61	4915.12
422.80	4912.78
422.99	4922.15
423.18	5064.92
423.37	5032.15
423.56	5055.56
423.75	4809.80
423.94	4880.02
424.13	4542.98
424.32	4734.90
424.50	5034.49
424.69	5078.96
424.88	5142.16
425.07	4985.34
425.26	4779.37
425.45	4952.57
425.64	4985.34
425.83	4985.34
426.01	5100.03
426.20	5163.22
426.39	4980.66
426.58	4938.53
426.77	5036.83
426.96	5282.59
427.15	4922.15
427.33	5163.22
427.52	5097.69
427.71	5397.28
427.90	5151.52
428.09	5282.59
428.28	5390.25
428.46	5369.19
428.65	5296.63
428.84	5612.60
429.03	5479.19
429.22	5317.70
429.40	5474.51
429.59	5511.96
429.78	5336.42
429.97	5160.88
430.16	5413.66
430.34	5593.88
430.53	5776.44
430.72	5497.92
430.91	5837.30
431.10	5537.71
431.28	5792.83
431.47	5757.72
431.66	5914.53
431.85	5813.89
432.03	5923.90
432.22	5970.71
432.41	5944.96
432.60	5949.64
432.79	5942.62
432.97	5916.87
433.16	5987.09
433.35	6050.28
433.54	6169.65
433.72	6214.12
433.91	6031.56
434.10	6253.91
434.28	6057.31
434.47	6242.21
434.66	6293.70
434.85	6359.24
435.03	6335.83
435.22	6359.24
435.41	6459.88
435.59	6340.51
435.78	6272.64
435.97	6532.44
436.16	6492.65
436.34	6384.98
436.53	6502.01
436.72	6722.02
436.90	6520.73
437.09	6778.19
437.28	6462.22
437.46	6626.06
437.65	6509.03
437.84	6806.28
438.02	6747.76
438.21	6834.36
438.40	6843.73
438.58	7098.84
438.77	7103.53
438.96	6967.77
439.14	7126.93
439.33	7204.17
439.52	7211.19
439.70	7157.36
439.89	7222.89
440.08	7431.20
440.26	7323.54
440.45	7461.63
440.63	7435.88
440.82	7653.55
441.01	7569.29
441.19	7721.43
441.38	7705.04
441.57	7758.88
441.75	7779.94
441.94	7868.88
442.12	7995.27
442.31	7939.10
442.50	8030.38
442.68	7932.08
442.87	8131.02
443.05	8051.44
443.24	8245.71
443.43	8100.59
443.61	8112.30
443.80	8456.36
443.98	8030.38
444.17	7906.33
444.35	8039.74
444.54	8297.20
444.73	8369.76
444.91	8395.50
445.10	8208.26
445.28	8128.68
445.47	8177.83
445.65	8313.58
445.84	8329.97
446.02	8423.59
446.21	8496.14
446.39	8451.67
446.58	8659.98
446.77	8575.72
446.95	8245.71
447.14	8416.57
447.32	8587.43
447.51	8386.14
447.69	8622.53
447.88	8610.83
448.06	8519.55
448.25	8554.66
448.43	8685.73
448.62	8655.30
448.80	8643.60
448.99	8519.55
449.17	8751.26
449.36	8629.56
449.54	8858.93
449.73	9025.11
449.91	9114.05
450.10	8978.30
450.28	8997.02
450.46	9184.26
450.65	8964.25
450.83	9104.68
451.02	9022.77
451.20	9118.73
451.39	9114.05
451.57	9067.24
451.76	8903.40
451.94	9160.86
452.13	9408.95
452.31	9320.01
452.49	9205.33
452.68	9423.00
452.86	9451.08
453.05	9280.22
453.23	9348.10
453.42	9401.93
453.60	9645.35
453.78	9607.90
453.97	9420.66
454.15	9540.02
454.34	9558.75
454.52	9797.48
454.70	9708.54
454.89	9809.19
455.07	9680.46
455.26	9853.66
455.44	10003.45
455.62	9823.23
455.81	9937.91
455.99	10099.41
456.17	10099.41
456.36	10005.79
456.54	10249.21
456.73	10394.32
456.91	10431.77
457.09	10384.96
457.28	10628.37
457.46	10321.76
457.64	10661.14
457.83	10436.45
458.01	10490.28
458.19	10778.17
458.38	10595.61
458.56	10787.53
458.74	10466.88
458.93	10836.68
459.11	10745.40
459.29	10719.65
459.48	10773.49
459.66	10857.75
459.84	10944.34
460.03	11073.07
460.21	11005.20
460.39	11080.10
460.57	11129.25
460.76	11136.27
460.94	10958.39
461.12	11059.03
461.31	11084.78
461.49	11243.93
461.67	11154.99
461.85	11384.37
462.04	11250.96
462.22	11810.34
462.40	11461.60
462.59	11566.93
462.77	11445.22
462.95	11669.91
463.13	11461.60
463.32	11714.38
463.50	11786.94
463.68	11644.17
463.86	11875.88
464.05	11618.42
464.23	11800.98
464.41	11892.26
464.59	11698.00
464.78	12166.10
464.96	12002.27
465.14	11765.87
465.32	12025.67
465.50	11976.52
465.69	12226.96
465.87	12084.19
466.05	11868.86
466.23	12243.34
466.41	12091.21
466.60	12395.48
466.78	12212.92
466.96	12292.49
467.14	12507.82
467.32	12498.46
467.51	12627.19
467.69	12175.47
467.87	12678.68
468.05	12718.47
468.23	12257.39
468.41	12465.69
468.60	12503.14
468.78	12765.28
468.96	12575.70
469.14	12891.67
469.32	12968.91
469.50	12556.97
469.69	12641.23
469.87	13193.60
470.05	13149.13
470.23	13245.09
470.41	13188.92
470.59	13413.61
470.77	13202.96
470.95	13039.12
471.14	13460.42
471.32	13305.95
471.50	13596.17
471.68	13472.12
471.86	13729.58
472.04	13907.46
472.22	13916.83
472.40	13825.54
472.58	13951.93
472.77	14015.13
472.95	14422.38
473.13	14792.19
473.31	14054.92
473.49	14195.35
473.67	14310.04
473.85	14258.54
474.03	14731.33
474.21	14689.20
474.39	14752.40
474.57	14733.67
474.75	14970.07
474.93	15054.33
475.12	15105.82
475.30	15115.18
475.48	15293.06
475.66	15538.82
475.84	15173.69
476.02	15428.81
476.20	15515.41
476.38	15836.06
476.56	16091.18
476.74	16102.89
476.92	15953.09
477.10	15803.30
477.28	16009.26
477.46	16451.63
477.64	16386.09
477.82	16475.03
478.00	16868.24
478.18	16994.63
478.36	16905.69
478.54	17357.41
478.72	17242.73
478.90	17483.80
479.08	17652.32
479.26	17628.92
479.44	17839.56
479.62	17987.02
479.80	17951.91
479.98	18455.12
480.16	18642.37
480.34	18162.56
480.52	18560.45
480.70	18679.82
480.88	18485.55
481.06	18450.44
481.24	18656.41
481.41	19049.62
481.59	19583.26
481.77	19711.99
481.95	19700.29
482.13	19847.74
482.31	19658.16
482.49	20327.55
482.67	20386.07
482.85	20556.93
483.03	20727.78
483.21	20952.48
483.39	21025.03
483.57	20673.95
483.74	21013.33
483.92	21465.05
484.10	21333.98
484.28	21647.61
484.46	21869.97
484.64	22555.74
484.82	22281.90
485.00	22340.41
485.18	23007.47
485.35	23166.62
485.53	22979.38
485.71	23262.58
485.89	23534.09
486.07	23297.69
486.25	23335.14
486.43	23693.24
486.61	24074.75
486.78	24039.64
486.96	24196.46
487.14	24510.09
487.32	24533.50
487.50	25003.94
487.68	25099.90
487.85	25390.13
488.03	25720.15
488.21	25413.54
488.39	25881.64
488.57	26333.37
488.75	26188.25
488.92	26312.30
489.10	26941.91
489.28	26719.56
489.46	27260.22
489.64	27175.96
489.81	27828.97
489.99	27882.80
490.17	27742.37
490.35	28149.62
490.53	28271.33
490.70	28556.88
490.88	28308.78
491.06	28886.89
491.24	28774.55
491.41	29067.11
491.59	29340.96
491.77	29376.06
491.95	29867.58
492.13	29640.54
492.30	30101.63
492.48	30192.91
492.66	30199.93
492.84	30534.63
493.01	30916.14
493.19	30476.12
493.37	31072.95
493.54	30850.60
493.72	31534.04
493.90	31564.46
494.08	32158.96
494.25	32149.60
494.43	31615.96
494.61	32456.21
494.79	32613.02
494.96	32718.35
495.14	32985.17
495.32	33280.08
495.49	32690.26
495.67	33333.91
495.85	33659.24
496.02	33724.78
496.20	34054.79
496.38	34256.08
496.55	34679.72
496.73	34859.94
496.91	34691.42
497.09	34511.20
497.26	35168.89
497.44	34866.96
497.62	35105.70
497.79	35700.19
497.97	35625.29
498.14	36212.77
498.32	36215.11
498.50	36041.91
498.67	36676.19
498.85	36650.45
499.03	37095.15
499.20	36825.99
499.38	37174.73
499.56	36996.85
499.73	36931.31
499.91	37703.69
500.08	37684.97
500.26	37146.64
500.44	37610.07
500.61	38223.29
500.79	37663.90
500.97	38326.27
501.14	38869.28
501.32	38878.64
501.49	38775.66
501.67	38686.71
501.84	38899.70
502.02	38770.97
502.20	39175.89
502.37	39070.56
502.55	39510.58
502.72	39887.41
502.90	39452.07
503.07	39473.13
503.25	40285.30
503.43	39786.77
503.60	40187.00
503.78	40414.03
503.95	40697.24
504.13	40783.83
504.30	40896.18
504.48	40533.40
504.65	41041.29
504.83	40868.09
505.01	41633.45
505.18	41193.43
505.36	41612.38
505.53	41102.15
505.71	41530.47
505.88	42066.45
506.06	41820.69
506.23	41682.60
506.41	41914.31
506.58	42665.63
506.76	42286.46
506.93	42143.69
507.11	42426.89
507.28	42997.98
507.46	42576.69
507.63	42763.93
507.81	43150.12
507.98	42824.78
508.16	43147.78
508.33	43236.72
508.50	43824.19
508.68	44100.37
508.85	44069.95
509.03	44083.99
509.20	44186.97
509.38	44580.18
509.55	44194.00
509.73	44767.43
509.90	44313.36
510.08	44814.24
510.25	44540.39
510.42	44626.99
510.60	44835.30
510.77	45375.97
510.95	45296.39
511.12	45713.00
511.30	45207.45
511.47	45705.98
511.64	45500.01
511.82	46017.27
511.99	45703.64
512.17	45984.51
512.34	45867.48
512.51	46183.45
512.69	46476.02
512.86	46279.41
513.04	47086.90
513.21	46487.72
513.38	46981.57
513.56	47454.36
513.73	47007.32
513.90	46892.63
514.08	46866.89
514.25	47096.26
514.43	47372.44
514.60	47604.16
514.77	47679.05
514.95	47880.34
515.12	47683.73
515.29	47814.80
515.47	48072.26
515.64	48280.57
515.81	48266.53
515.99	48018.43
516.16	48327.38
516.33	48451.43
516.51	48825.92
516.68	48633.99
516.85	48727.61
517.03	48931.24
517.20	49102.10
517.37	49083.37
517.54	49127.84
517.72	49303.38
517.89	49134.87
518.06	49368.92
518.24	49303.38
518.41	49607.65
518.58	49453.18
518.75	49326.79
518.93	49467.22
519.10	49729.36
519.27	49935.33
519.45	49556.16
519.62	49909.58
519.79	50101.51
519.96	50532.17
520.14	49956.39
520.31	50122.57
520.48	50609.40
520.65	50263.00
520.83	50562.59
521.00	50340.24
521.17	50740.47
521.34	50766.22
521.52	51009.64
521.69	50920.70
521.86	51332.63
522.03	51152.41
522.20	51419.23
522.38	51625.20
522.55	51608.81
522.72	51400.50
522.89	51288.16
523.07	51742.22
523.24	51599.45
523.41	51512.85
523.58	51217.94
523.75	51826.48
523.92	51978.62
524.10	52135.43
524.27	52069.90
524.44	52294.59
524.61	51957.55
524.78	52303.95
524.96	52266.50
525.13	52360.12
525.30	52573.11
525.47	52687.80
525.64	52505.24
525.81	52664.39
525.98	52996.75
526.16	52844.62
526.33	52877.38
526.50	53137.18
526.67	53022.50
526.84	53048.24
527.01	52678.44
527.18	52685.46
527.36	52947.60
527.53	53057.60
527.70	53670.82
527.87	53174.63
528.04	53191.01
528.21	53574.86
528.38	53315.06
528.55	53708.27
528.72	53680.19
528.89	53563.16
529.07	53722.32
529.24	53595.93
529.41	53839.34
529.58	53565.50
529.75	53642.74
529.92	53909.56
530.09	53827.64
530.26	53874.45
530.43	54094.46
530.60	53827.64
530.77	54136.59
530.94	54176.38
531.11	54127.23
531.28	54506.40
531.46	54220.85
531.63	54309.79
531.80	54124.89
531.97	54342.56
532.14	54712.36
532.31	54705.34
532.48	54672.57
532.65	54789.60
532.82	54574.27
532.99	54791.94
533.16	55009.61
533.33	54969.82
533.50	55000.25
533.67	54695.98
533.84	55054.08
534.01	55018.97
534.18	55025.99
534.35	55400.48
534.52	55189.83
534.69	55367.71
534.86	55468.36
535.03	55159.41
535.20	55260.05
535.37	55590.06
535.54	55494.10
535.71	55475.38
535.88	55571.34
536.05	55508.14
536.22	55466.02
536.38	55681.34
536.55	55505.80
536.72	55798.37
536.89	55697.73
537.06	55737.52
537.23	55863.91
537.40	55667.30
537.57	55894.33
537.74	55948.17
537.91	55917.74
538.08	55796.03
538.25	55884.97
538.42	55922.42
538.59	56184.56
538.75	55882.63
538.92	56168.18
539.09	56240.73
539.26	56245.41
539.43	56062.85
539.60	56247.75
539.77	56268.82
539.94	56554.36
540.11	56467.76
540.28	56521.60
540.44	56526.28
540.61	56640.96
540.78	56486.49
540.95	56491.17
541.12	56144.77
541.29	56596.49
541.46	56640.96
541.62	56809.48
541.79	56947.57
541.96	56870.34
542.13	56608.20
542.30	56793.10
542.47	56961.62
542.63	56907.79
542.80	57006.09
542.97	57258.87
543.14	57249.50
543.31	57106.73
543.48	57139.50
543.64	57537.39
543.81	57286.95
543.98	57556.11
544.15	57315.04
544.32	57567.82
544.48	57719.95
544.65	57455.47
544.82	57579.52
544.99	57146.52
545.16	57289.29
545.32	57621.65
545.49	57668.46
545.66	57895.49
545.83	57670.80
546.00	57729.31
546.16	57659.10
546.33	57794.85
546.50	57659.10
546.67	58017.20
546.83	57530.37
547.00	57991.45
547.17	57937.62
547.34	57829.96
547.50	58014.86
547.67	58117.84
547.84	57946.98
548.00	58326.15
548.17	58349.56
548.34	58202.10
548.51	58464.24
548.67	58335.51
548.84	58080.39
549.01	58232.53
549.18	58265.30
549.34	58417.43
549.51	58298.06
549.68	58569.57
549.84	58379.98
550.01	58398.71
550.18	58347.21
550.34	58534.46
550.51	58527.44
550.68	58389.34
550.84	58363.60
551.01	58721.70
551.18	58541.48
551.34	58649.14
551.51	58705.32
551.68	58529.78
551.84	58571.91
552.01	58527.44
552.18	58777.87
552.34	58684.25
552.51	58651.48
552.68	58379.98
552.84	58738.08
553.01	58876.18
553.18	58862.13
553.34	58934.69
553.51	58920.65
553.67	58876.18
553.84	59103.21
554.01	59061.08
554.17	59114.91
554.34	59025.97
554.51	59093.85
554.67	59091.51
554.84	59030.65
555.00	59166.40
555.17	59051.72
555.33	59051.72
555.50	59250.66
555.67	59157.04
555.83	58974.48
556.00	59276.41
556.16	59440.24
556.33	59290.45
556.50	59229.60
556.66	59320.88
556.83	59276.41
556.99	59468.33
557.16	59449.61
557.32	59601.74
557.49	59592.38
557.65	59423.86
557.82	59501.10
557.98	59454.29
558.15	59463.65
558.32	59550.25
558.48	59477.69
558.65	59477.69
558.81	59501.10
558.98	59503.44
559.14	59686.00
559.31	59838.14
559.47	59760.90
559.64	59564.29
559.80	59739.83
559.97	59793.67
560.13	59688.34
560.30	59791.33
560.46	59725.79
560.63	59655.57
560.79	59882.61
560.96	59964.52
561.12	59938.78
561.29	59817.07
561.45	59882.61
561.61	59817.07
561.78	59803.03
561.94	59962.18
562.11	59854.52
562.27	59957.50
562.44	59941.12
562.60	60140.07
562.77	60212.62
562.93	59852.18
563.10	60102.62
563.26	59994.95
563.42	60238.37
563.59	60025.38
563.75	60310.92
563.92	60189.22
564.08	60238.37
564.24	60182.19
564.41	60168.15
564.57	60151.77
564.74	60250.07
564.90	60287.52
565.07	60074.53
565.23	60385.82
565.39	60102.62
565.56	60170.49
565.72	60177.51
565.88	60198.58
566.05	60264.11
566.21	60156.45
566.38	60219.64
566.54	60308.58
566.70	60411.57
566.87	60603.49
567.03	60308.58
567.19	60460.72
567.36	60362.42
567.52	60306.24
567.68	60460.72
567.85	60458.38
568.01	60381.14
568.17	60411.57
568.34	60633.92
568.50	60350.71
568.66	60512.21
568.83	60343.69
568.99	60406.89
569.15	60786.05
569.32	60341.35
569.48	60252.41
569.64	60582.43
569.81	60427.95
569.97	60514.55
570.13	60577.75
570.30	60355.39
570.46	60725.20
570.62	60783.71
570.78	60624.56
570.95	60502.85
571.11	60577.75
571.27	60367.10
571.43	60594.13
571.60	60832.86
571.76	60610.51
571.92	60701.79
572.09	60783.71
572.25	60701.79
572.41	60615.19
572.57	60727.54
572.74	60999.04
572.90	60563.70
573.06	60629.24
573.22	60776.69
573.38	60692.43
573.55	60643.28
573.71	60987.34
573.87	60720.52
574.03	60500.51
574.20	60769.67
574.36	60769.67
574.52	60743.92
574.68	60713.50
574.84	60954.57
575.01	60872.65
575.17	60781.37
575.33	60683.07
575.49	60725.20
575.65	60793.07
575.82	60846.91
575.98	60816.48
576.14	60989.68
576.30	60893.72
576.46	60729.88
576.62	60683.07
576.79	60900.74
576.95	60809.46
577.11	60879.67
577.27	61003.72
577.43	61020.11
577.59	60781.37
577.75	60851.59
577.92	60772.01
578.08	60676.05
578.24	60795.42
578.40	61123.09
578.56	61062.24
578.72	61162.88
578.88	61001.38
579.04	61188.63
579.21	61183.94
579.37	61048.19
579.53	61303.31
579.69	60507.53
579.85	61017.77
580.01	60874.99
580.17	60783.71
580.33	61043.51
580.49	61057.56
580.65	61001.38
580.82	60804.78
580.98	60942.87
581.14	60872.65
581.30	60942.87
581.46	61006.06
581.62	61055.21
581.78	60837.54
581.94	61289.27
582.10	61029.47
582.26	61069.26
582.42	60947.55
582.58	61130.11
582.74	60900.74
582.90	60856.27
583.06	60828.18
583.22	60968.61
583.38	60996.70
583.54	61003.72
583.70	61123.09
583.86	60959.25
584.02	60786.05
584.18	61102.03
584.34	61099.68
584.50	61034.15
584.66	61020.11
584.82	60867.97
584.98	61207.35
585.14	61158.20
585.30	60767.33
585.46	61195.65
585.62	61076.28
585.78	61209.69
585.94	60966.27
586.10	61162.88
586.26	61137.13
586.42	61188.63
586.58	61277.57
586.74	61092.66
586.90	61092.66
587.06	61275.22
587.22	61289.27
587.38	61226.07
587.54	61137.13
587.70	61268.20
587.86	60980.32
588.02	60952.23
588.18	61153.52
588.34	61083.30
588.49	61120.75
