SpectraSuite Data File
++++++++++++++++++++++++++++++++++++
Date: Fri Oct 25 11:24:09 EDT 2013
User: price-jones
Dark Spectrum Present: No
Reference Spectrum Present: No
Number of Sampled Component Spectra: 1
Spectrometers: USB2+H05261
Integration Time (usec): 100000 (USB2+H05261)
Spectra Averaged: 1 (USB2+H05261)
Boxcar Smoothing: 0 (USB2+H05261)
Correct for Electrical Dark: No (USB2+H05261)
Strobe/Lamp Enabled: No (USB2+H05261)
Correct for Detector Non-linearity: No (USB2+H05261)
Correct for Stray Light: No (USB2+H05261)
Number of Pixels in Processed Spectrum: 2048
>>>>>Begin Processed Spectral Data<<<<<
365.73	212.99
365.92	212.99
366.12	212.99
366.32	140.43
366.52	98.30
366.72	182.56
366.91	128.73
367.11	149.79
367.31	140.43
367.51	131.07
367.70	156.82
367.90	126.39
368.10	135.75
368.30	135.75
368.49	126.39
368.69	182.56
368.89	142.77
369.09	166.18
369.28	131.07
369.48	170.86
369.68	163.84
369.87	161.50
370.07	215.33
370.27	182.56
370.47	315.97
370.66	566.41
370.86	653.01
371.06	755.99
371.25	674.07
371.45	624.92
371.65	681.10
371.84	720.88
372.04	664.71
372.24	713.86
372.44	713.86
372.63	634.29
372.83	753.65
373.03	734.93
373.22	711.52
373.42	683.44
373.62	739.61
373.81	786.42
374.01	915.15
374.21	802.80
374.40	826.21
374.60	842.59
374.79	786.42
374.99	739.61
375.19	826.21
375.38	830.89
375.58	835.57
375.78	833.23
375.97	779.40
376.17	908.13
376.37	805.14
376.56	880.04
376.76	805.14
376.95	870.68
377.15	868.34
377.35	880.04
377.54	929.19
377.74	908.13
377.93	894.08
378.13	1001.75
378.33	910.47
378.52	854.30
378.72	915.15
378.91	945.58
379.11	903.45
379.31	952.60
379.50	931.53
379.70	987.71
379.89	999.41
380.09	919.83
380.28	968.98
380.48	973.66
380.68	957.28
380.87	947.92
381.07	1015.79
381.26	882.38
381.46	1046.22
381.65	1081.33
381.85	1064.94
382.04	973.66
382.24	1006.43
382.43	1039.20
382.63	1074.31
382.83	1008.77
383.02	1118.78
383.22	1111.75
383.41	1137.50
383.61	1158.57
383.80	1186.65
384.00	1039.20
384.19	1142.18
384.39	1074.31
384.58	1167.93
384.78	1228.78
384.97	1156.22
385.17	1151.54
385.36	1144.52
385.56	1086.01
385.75	1123.46
385.95	1214.74
386.14	1221.76
386.34	1139.84
386.53	1104.73
386.72	1261.55
386.92	1219.42
387.11	1233.46
387.31	1259.21
387.50	1238.14
387.70	1261.55
387.89	1280.27
388.09	1303.68
388.28	1205.38
388.48	1188.99
388.67	1327.08
388.86	1364.53
389.06	1306.02
389.25	1366.87
389.45	1322.40
389.64	1327.08
389.84	1315.38
390.03	1406.66
390.22	1390.28
390.42	1329.42
390.61	1303.68
390.81	1359.85
391.00	1387.94
391.19	1383.26
391.39	1432.41
391.58	1453.47
391.78	1369.21
391.97	1490.92
392.16	1554.12
392.36	1444.11
392.55	1619.65
392.75	1401.98
392.94	1486.24
393.13	1554.12
393.33	1488.58
393.52	1519.01
393.71	1689.87
393.91	1633.69
394.10	1572.84
394.29	1502.62
394.49	1624.33
394.68	1600.93
394.88	1624.33
395.07	1668.80
395.26	1795.19
395.46	1703.91
395.65	1638.38
395.84	1764.76
396.04	1713.27
396.23	1788.17
396.42	1713.27
396.62	1713.27
396.81	1760.08
397.00	1743.70
397.19	1816.26
397.39	1781.15
397.58	1792.85
397.77	1856.04
397.97	1813.92
398.16	1827.96
398.35	1860.73
398.55	1820.94
398.74	1952.01
398.93	1937.96
399.12	1928.60
399.32	1802.21
399.51	1853.70
399.70	2040.95
399.90	2015.20
400.09	1996.48
400.28	2017.54
400.47	2043.29
400.67	1963.71
400.86	2176.70
401.05	2017.54
401.24	2157.97
401.44	2214.15
401.63	2134.57
401.82	2181.38
402.01	2071.37
402.21	2179.04
402.40	2099.46
402.59	2218.83
402.78	2232.87
402.97	2160.31
403.17	2282.02
403.36	2214.15
403.55	2366.28
403.74	2387.35
403.93	2387.35
404.13	2394.37
404.32	2349.90
404.51	2424.80
404.70	2445.86
404.89	2373.30
405.09	2520.76
405.28	2462.24
405.47	2434.16
405.66	2546.50
405.85	2600.34
406.05	2492.67
406.24	2544.16
406.43	2593.31
406.62	2729.06
406.81	2715.02
407.00	2679.91
407.20	2509.05
407.39	2752.47
407.58	2605.02
407.77	2768.85
407.96	2789.92
408.15	2773.53
408.34	2775.88
408.54	2864.82
408.73	2855.45
408.92	2740.77
409.11	2815.66
409.30	2909.29
409.49	2806.30
409.68	3047.38
409.87	2885.88
410.07	3185.47
410.26	3159.72
410.45	3026.31
410.64	3049.72
410.83	3150.36
411.02	3150.36
411.21	3150.36
411.40	3108.23
411.59	3169.09
411.78	3143.34
411.98	3363.35
412.17	3279.09
412.36	3323.56
412.55	3262.71
412.74	3393.78
412.93	3412.50
413.12	3377.39
413.31	3529.53
413.50	3550.59
413.69	3531.87
413.88	3667.62
414.07	3543.57
414.26	3571.66
414.45	3721.45
414.64	3667.62
414.83	3786.99
415.02	3655.92
415.22	3627.83
415.41	3840.82
415.60	3915.72
415.79	3768.26
415.98	3882.95
416.17	3887.63
416.36	4086.58
416.55	3936.78
416.74	4212.96
416.93	4112.32
417.12	4060.83
417.31	4154.45
417.50	4205.94
417.69	4290.20
417.88	4248.07
418.07	4320.63
418.26	4280.84
418.45	4243.39
418.64	4390.84
418.83	4346.37
419.02	4479.79
419.21	4435.32
419.39	4552.34
419.58	4320.63
419.77	4535.96
419.96	4580.43
420.15	4606.17
420.34	4540.64
420.53	4608.51
420.72	4603.83
420.91	4851.93
421.10	4657.67
421.29	4851.93
421.48	4638.94
421.67	4741.93
421.86	4936.19
422.05	4793.42
422.24	4898.74
422.43	4844.91
422.61	5090.67
422.80	4924.49
422.99	4945.55
423.18	4931.51
423.37	5081.30
423.56	4975.98
423.75	4896.40
423.94	4814.48
424.13	4638.94
424.32	4739.58
424.50	4840.23
424.69	5200.67
424.88	5029.81
425.07	4933.85
425.26	4952.57
425.45	4978.32
425.64	5027.47
425.83	4924.49
426.01	5172.58
426.20	4978.32
426.39	5137.48
426.58	5064.92
426.77	5144.50
426.96	5228.76
427.15	5263.86
427.33	5252.16
427.52	5165.56
427.71	5245.14
427.90	5280.25
428.09	5329.40
428.28	5322.38
428.46	5413.66
428.65	5472.17
428.84	5507.28
429.03	5455.79
429.22	5320.04
429.40	5406.64
429.59	5504.94
429.78	5378.55
429.97	5203.01
430.16	5404.30
430.34	5771.76
430.53	5598.56
430.72	5640.69
430.91	5710.91
431.10	5657.07
431.28	5743.67
431.47	5881.77
431.66	5832.62
431.85	5851.34
432.03	5935.60
432.22	5987.09
432.41	5820.91
432.60	5987.09
432.79	5966.03
432.97	6003.47
433.16	6080.71
433.35	6127.52
433.54	6029.22
433.72	6221.14
433.91	6129.86
434.10	6193.06
434.28	6125.18
434.47	6284.34
434.66	6197.74
434.85	6282.00
435.03	6228.17
435.22	6349.87
435.41	6623.72
435.59	6530.09
435.78	6389.66
435.97	6534.78
436.16	6347.53
436.34	6544.14
436.53	6729.04
436.72	6752.45
436.90	6480.94
437.09	6558.18
437.28	6593.29
437.46	6679.89
437.65	6853.09
437.84	6956.07
438.02	6689.25
438.21	6878.83
438.40	6731.38
438.58	6930.33
438.77	7112.89
438.96	6984.16
439.14	6991.18
439.33	7206.51
439.52	7201.83
439.70	7033.31
439.89	7428.86
440.08	7438.22
440.26	7339.92
440.45	7307.15
440.63	7552.91
440.82	7623.12
441.01	7478.01
441.19	7576.31
441.38	7831.43
441.57	7770.58
441.75	7494.40
441.94	8056.12
442.12	8140.38
442.31	8128.68
442.50	7999.95
442.68	8105.28
442.87	8016.33
443.05	8133.36
443.24	8238.69
443.43	8292.52
443.61	8248.05
443.80	8383.80
443.98	8025.70
444.17	8037.40
444.35	8320.60
444.54	8493.80
444.73	8269.11
444.91	8294.86
445.10	8458.70
445.28	8198.90
445.47	8498.49
445.65	8430.61
445.84	8376.78
446.02	8650.62
446.21	8454.02
446.39	8456.36
446.58	8826.16
446.77	8463.38
446.95	8418.91
447.14	8451.67
447.32	8690.41
447.51	8582.74
447.69	8538.27
447.88	8528.91
448.06	8683.39
448.25	8374.44
448.43	8709.13
448.62	8416.57
448.80	8505.51
448.99	8767.65
449.17	8788.71
449.36	8638.92
449.54	8964.25
449.73	9097.66
449.91	8992.34
450.10	8936.17
450.28	9004.04
450.46	9261.50
450.65	8980.64
450.83	9076.60
451.02	9039.15
451.20	9247.46
451.39	9380.87
451.57	8975.95
451.76	9270.86
451.94	9212.35
452.13	9430.02
452.31	9256.82
452.49	9303.63
452.68	9191.28
452.86	9373.85
453.05	9561.09
453.23	9607.90
453.42	9563.43
453.60	9551.73
453.78	9699.18
453.97	9455.76
454.15	9640.67
454.34	9523.64
454.52	9689.82
454.70	9753.01
454.89	9696.84
455.07	9626.62
455.26	9827.91
455.44	10073.67
455.62	9940.26
455.81	10118.14
455.99	10120.48
456.17	10272.61
456.36	9951.96
456.54	10277.29
456.73	10317.08
456.91	10462.19
457.09	10509.01
457.28	10675.18
457.46	10370.91
457.64	10555.82
457.83	10281.97
458.01	10352.19
458.19	10747.74
458.38	10609.65
458.56	10717.31
458.74	10998.18
458.93	10726.68
459.11	10778.17
459.29	10721.99
459.48	10822.64
459.66	10988.82
459.84	11089.46
460.03	11152.65
460.21	11056.69
460.39	10867.11
460.57	10963.07
460.76	11171.38
460.94	11269.68
461.12	11215.85
461.31	11248.61
461.49	11192.44
461.67	11103.50
461.85	11559.91
462.04	11290.74
462.22	12006.95
462.40	11618.42
462.59	11595.01
462.77	11499.05
462.95	11791.62
463.13	11529.48
463.32	11660.55
463.50	11873.54
463.68	11882.90
463.86	12023.33
464.05	11815.02
464.23	11829.07
464.41	11880.56
464.59	11854.81
464.78	12116.95
464.96	12135.68
465.14	12020.99
465.32	12102.91
465.50	12243.34
465.69	12233.98
465.87	12315.90
466.05	12138.02
466.23	12461.01
466.41	12102.91
466.60	12475.06
466.78	12152.06
466.96	12276.11
467.14	12241.00
467.32	12400.16
467.51	12599.10
467.69	12372.07
467.87	12636.55
468.05	12636.55
468.23	12468.03
468.41	12540.59
468.60	12980.61
468.78	12805.07
468.96	12432.93
469.14	12933.80
469.32	12854.22
469.50	12912.74
469.69	13186.58
469.87	13053.17
470.05	13270.84
470.23	13214.66
470.41	13097.64
470.59	13542.34
470.77	13172.54
470.95	13287.22
471.14	13638.30
471.32	13205.30
471.50	13645.32
471.68	13624.26
471.86	13771.71
472.04	13865.33
472.22	13951.93
472.40	13900.44
472.58	13930.87
472.77	14092.37
472.95	14178.97
473.13	14710.27
473.31	14382.59
473.49	14464.51
473.67	14403.66
473.85	14253.86
474.03	14707.93
474.21	14628.35
474.39	14958.36
474.57	14736.01
474.75	14902.19
474.93	15147.95
475.12	14977.09
475.30	15077.73
475.48	15398.38
475.66	15367.96
475.84	15150.29
476.02	15428.81
476.20	15405.41
476.38	15836.06
476.56	16250.34
476.74	16294.81
476.92	15925.00
477.10	15845.43
477.28	16301.83
477.46	16154.38
477.64	16276.09
477.82	16737.17
478.00	17282.52
478.18	16781.64
478.36	16833.13
478.54	17355.07
478.72	17235.70
478.90	17481.46
479.08	17708.49
479.26	17755.30
479.44	17961.27
479.62	18071.28
479.80	18263.20
479.98	18333.42
480.16	18838.97
480.34	18139.15
480.52	18244.48
480.70	18806.20
480.88	18462.15
481.06	18902.17
481.24	18735.99
481.41	19133.88
481.59	19323.46
481.77	19702.63
481.95	19971.79
482.13	19674.54
482.31	20004.56
482.49	20332.23
482.67	19936.68
482.85	20311.17
483.03	20547.56
483.21	20900.98
483.39	21064.82
483.57	20753.53
483.74	21111.63
483.92	21617.19
484.10	21142.06
484.28	21759.96
484.46	21972.95
484.64	22427.01
484.82	22108.70
485.00	22195.30
485.18	23136.20
485.35	23147.90
485.53	22939.59
485.71	23065.98
485.89	23716.65
486.07	23496.64
486.25	23634.73
486.43	23882.83
486.61	23999.85
486.78	24058.37
486.96	24212.84
487.14	24889.26
487.32	24706.70
487.50	24999.26
487.68	25043.73
487.85	25638.23
488.03	26085.27
488.21	25862.92
488.39	25759.94
488.57	26169.53
488.75	26153.15
488.92	26338.05
489.10	27063.61
489.28	27040.21
489.46	27330.44
489.64	27433.42
489.81	27805.56
489.99	27803.22
490.17	28034.94
490.35	28229.20
490.53	28437.51
490.70	28383.68
490.88	28573.26
491.06	29001.58
491.24	28683.27
491.41	29008.60
491.59	29476.71
491.77	29282.44
491.95	29855.87
492.13	29984.60
492.30	30279.51
492.48	29991.62
492.66	30555.69
492.84	30637.61
493.01	30806.13
493.19	30707.83
493.37	31426.37
493.54	31047.21
493.72	31892.14
493.90	31374.88
494.08	31931.93
494.25	32451.53
494.43	32297.05
494.61	32463.23
494.79	32706.65
494.96	32631.75
495.14	32804.95
495.32	33567.96
495.49	33432.21
495.67	33666.27
495.85	33741.16
496.02	34071.18
496.20	34176.50
496.38	34333.32
496.55	34370.77
496.73	34976.97
496.91	34499.50
497.09	35012.07
497.26	35262.51
497.44	35274.21
497.62	35456.78
497.79	35922.54
497.97	35283.58
498.14	36367.24
498.32	36240.86
498.50	36514.70
498.67	36690.24
498.85	36800.24
499.03	36746.41
499.20	37111.53
499.38	36968.76
499.56	37319.84
499.73	37020.25
499.91	37174.73
500.08	37642.84
500.26	37366.65
500.44	37614.75
500.61	38251.38
500.79	38443.30
500.97	38258.40
501.14	39002.69
501.32	38918.43
501.49	38756.93
501.67	38789.70
501.84	39033.11
502.02	38899.70
502.20	39438.03
502.37	39498.88
502.55	39484.84
502.72	39873.37
502.90	39749.32
503.07	40004.44
503.25	40030.18
503.43	39765.70
503.60	40362.54
503.78	40020.82
503.95	40648.08
504.13	40847.03
504.30	40804.90
504.48	40856.39
504.65	41074.06
504.83	41476.63
505.01	41717.71
505.18	41731.75
505.36	42213.90
505.53	41251.94
505.71	41713.03
505.88	41970.49
506.06	42288.80
506.23	42146.03
506.41	41923.68
506.58	42155.39
506.76	42101.56
506.93	42265.39
507.11	42052.41
507.28	42696.05
507.46	43103.31
507.63	43342.04
507.81	43452.05
507.98	43152.46
508.16	43798.44
508.33	43449.70
508.50	43730.57
508.68	43990.37
508.85	44418.69
509.03	44039.52
509.20	44142.50
509.38	44509.97
509.55	44708.91
509.73	44842.32
509.90	45099.78
510.08	45022.54
510.25	44994.46
510.42	45078.72
510.60	45043.61
510.77	45535.12
510.95	45275.32
511.12	45368.94
511.30	45769.18
511.47	45830.03
511.64	45542.14
511.82	46141.32
511.99	45787.90
512.17	46375.37
512.34	46265.37
512.51	46319.20
512.69	46480.70
512.86	46466.66
513.04	47044.77
513.21	47206.26
513.38	46607.09
513.56	47007.32
513.73	46532.19
513.90	46782.63
514.08	46703.05
514.25	47817.14
514.43	47545.64
514.60	47775.02
514.77	47632.24
514.95	47821.83
515.12	47978.64
515.29	47978.64
515.47	48311.00
515.64	48706.55
515.81	48388.24
515.99	48603.56
516.16	48402.28
516.33	48718.25
516.51	48650.38
516.68	48509.94
516.85	48383.55
517.03	49148.91
517.20	49125.50
517.37	49162.95
517.54	48924.22
517.72	49263.60
517.89	49514.03
518.06	49687.23
518.24	49235.51
518.41	49153.59
518.58	49371.26
518.75	49647.44
518.93	49771.49
519.10	49574.89
519.27	50131.93
519.45	49982.14
519.62	50342.58
519.79	50211.51
519.96	50342.58
520.14	50216.19
520.31	50265.34
520.48	50726.43
520.65	50546.21
520.83	50995.59
521.00	51061.13
521.17	50864.52
521.34	50798.99
521.52	50983.89
521.69	50923.04
521.86	51131.34
522.03	51325.61
522.20	51592.43
522.38	51854.57
522.55	51447.32
522.72	51332.63
522.89	51571.36
523.07	52058.20
523.24	51606.47
523.41	52116.71
523.58	51952.87
523.75	52135.43
523.92	52025.43
524.10	52065.22
524.27	51751.59
524.44	52306.29
524.61	52470.13
524.78	52442.04
524.96	52530.98
525.13	52362.46
525.30	52374.17
525.47	52914.83
525.64	52605.88
525.81	52741.63
525.98	52554.39
526.16	52875.04
526.33	52659.71
526.50	53230.80
526.67	52905.47
526.84	52783.76
527.01	53073.99
527.18	53064.63
527.36	53148.88
527.53	53228.46
527.70	53619.33
527.87	53434.43
528.04	53425.07
528.21	53567.84
528.38	53633.38
528.55	53818.28
528.72	53497.62
528.89	53867.43
529.07	53755.08
529.24	53518.69
529.41	53841.68
529.58	53708.27
529.75	53787.85
529.92	54071.06
530.09	53928.28
530.26	54270.00
530.43	54099.14
530.60	54024.25
530.77	54131.91
530.94	54319.15
531.11	53963.39
531.28	54475.97
531.46	54255.96
531.63	54419.80
531.80	54319.15
531.97	54707.68
532.14	54745.13
532.31	54459.58
532.48	54644.49
532.65	55002.59
532.82	54822.37
532.99	54653.85
533.16	54684.28
533.33	55086.85
533.50	55033.02
533.67	54925.35
533.84	54869.18
534.01	54796.62
534.18	54983.86
534.35	55274.09
534.52	55110.25
534.69	55309.20
534.86	55348.99
535.03	55304.52
535.20	55318.56
535.37	55295.16
535.54	55714.11
535.71	55599.43
535.88	55590.06
536.05	55688.37
536.22	55608.79
536.38	55767.94
536.55	55451.97
536.72	55725.81
536.89	55620.49
537.06	55899.01
537.23	55683.69
537.40	55824.12
537.57	55774.97
537.74	55922.42
537.91	56399.89
538.08	55992.64
538.25	56023.06
538.42	56095.62
538.59	56163.50
538.75	55973.91
538.92	56233.71
539.09	56390.53
539.26	56119.02
539.43	56177.54
539.60	56409.25
539.77	56512.23
539.94	56727.56
540.11	56236.05
540.28	56729.90
540.44	56605.86
540.61	56547.34
540.78	56575.43
540.95	56605.86
541.12	56624.58
541.29	56652.67
541.46	56619.90
541.62	56821.19
541.79	56928.85
541.96	56556.70
542.13	56596.49
542.30	56746.29
542.47	57144.18
542.63	57048.22
542.80	56973.32
542.97	57240.14
543.14	57064.60
543.31	57315.04
543.48	57485.90
543.64	57509.30
543.81	57485.90
543.98	57471.85
544.15	57521.01
544.32	57385.25
544.48	57722.29
544.65	57354.83
544.82	57544.41
544.99	57371.21
545.16	57663.78
545.32	57429.72
545.49	57757.40
545.66	57872.09
545.83	57862.72
546.00	57937.62
546.16	57776.12
546.33	57645.05
546.50	57715.27
546.67	57986.77
546.83	57815.91
547.00	58122.52
547.17	58047.63
547.34	57764.42
547.50	58141.25
547.67	58178.70
547.84	58272.32
548.00	58206.78
548.17	58218.49
548.34	58328.49
548.51	58447.86
548.67	58269.98
548.84	58253.59
549.01	58225.51
549.18	58342.53
549.34	58637.44
549.51	58443.18
549.68	58522.76
549.84	58576.59
550.01	58599.99
550.18	58389.34
550.34	58452.54
550.51	58618.72
550.68	58585.95
550.84	58475.94
551.01	58684.25
551.18	58527.44
551.34	58422.11
551.51	58679.57
551.68	58581.27
551.84	58534.46
552.01	58639.78
552.18	58735.74
552.34	58663.19
552.51	58845.75
552.68	58798.94
552.84	58838.73
553.01	58810.64
553.18	58922.99
553.34	58965.12
553.51	58859.79
553.67	58932.35
553.84	59330.24
554.01	59208.53
554.17	59096.19
554.34	59213.21
554.51	59091.51
554.67	59079.80
554.84	59180.45
555.00	59133.63
555.17	58951.07
555.33	59220.23
555.50	59135.98
555.67	59224.92
555.83	59203.85
556.00	59487.06
556.16	59571.32
556.33	59407.48
556.50	59402.80
556.66	59552.59
556.83	59426.20
556.99	59416.84
557.16	59718.77
557.32	59550.25
557.49	59688.34
557.65	59456.63
557.82	59475.35
557.98	59414.50
558.15	59487.06
558.32	59550.25
558.48	59601.74
558.65	59566.63
558.81	59683.66
558.98	59657.91
559.14	59835.80
559.31	59838.14
559.47	59606.42
559.64	59826.43
559.80	59859.20
559.97	60088.57
560.13	59819.41
560.30	59999.63
560.46	59819.41
560.63	60009.00
560.79	59784.30
560.96	60058.15
561.12	60067.51
561.29	60221.98
561.45	59884.95
561.61	59983.25
561.78	59934.10
561.94	59896.65
562.11	59952.82
562.27	60067.51
562.44	60083.89
562.60	60189.22
562.77	60158.79
562.93	59814.73
563.10	60313.26
563.26	59966.87
563.42	60364.76
563.59	60165.81
563.75	60207.94
563.92	60163.47
564.08	60168.15
564.24	60254.75
564.41	60346.03
564.57	60317.95
564.74	60339.01
564.90	60327.31
565.07	60097.94
565.23	60364.76
565.39	60207.94
565.56	60507.53
565.72	60280.50
565.88	60221.98
566.05	60278.16
566.21	60189.22
566.38	60336.67
566.54	60280.50
566.70	60444.33
566.87	60437.31
567.03	60315.61
567.19	60633.92
567.36	60381.14
567.52	60467.74
567.68	60570.72
567.85	60479.44
568.01	60612.85
568.17	60416.25
568.34	60441.99
568.50	60669.03
568.66	60378.80
568.83	60587.11
568.99	60336.67
569.15	60331.99
569.32	60678.39
569.48	60451.36
569.64	60666.69
569.81	60664.35
569.97	60378.80
570.13	60502.85
570.30	60519.23
570.46	60568.38
570.62	60708.82
570.78	60612.85
570.95	60624.56
571.11	60774.35
571.27	60760.31
571.43	60697.11
571.60	60774.35
571.76	60823.50
571.92	60654.98
572.09	60734.56
572.25	60509.87
572.41	60713.50
572.57	60704.13
572.74	60889.04
572.90	60638.60
573.06	60844.57
573.22	60874.99
573.38	60699.45
573.55	60832.86
573.71	61095.00
573.87	60610.51
574.03	60713.50
574.20	60975.64
574.36	60727.54
574.52	60879.67
574.68	60830.52
574.84	60914.78
575.01	60926.49
575.17	60715.84
575.33	60891.38
575.49	60713.50
575.65	60755.63
575.82	60942.87
575.98	61076.28
576.14	60973.30
576.30	60914.78
576.46	61050.53
576.62	60711.16
576.79	60886.70
576.95	60587.11
577.11	60912.44
577.27	60926.49
577.43	61064.58
577.59	60804.78
577.75	60816.48
577.92	60678.39
578.08	60774.35
578.24	60954.57
578.40	61160.54
578.56	61174.58
578.72	60910.10
578.88	61041.17
579.04	61083.30
579.21	60970.96
579.37	61013.08
579.53	61132.45
579.69	60938.19
579.85	60797.76
580.01	61120.75
580.17	60743.92
580.33	60940.53
580.49	61315.01
580.65	61013.08
580.82	60884.36
580.98	60949.89
581.14	60954.57
581.30	61080.96
581.46	60867.97
581.62	61010.74
581.78	60959.25
581.94	61055.21
582.10	61127.77
582.26	60987.34
582.42	60996.70
582.58	61186.28
582.74	60898.40
582.90	60863.29
583.06	60924.14
583.22	60811.80
583.38	61165.22
583.54	61069.26
583.70	61064.58
583.86	61315.01
584.02	61010.74
584.18	61151.18
584.34	60919.46
584.50	61064.58
584.66	60867.97
584.82	60821.16
584.98	61188.63
585.14	61116.07
585.30	61237.78
585.46	61104.37
585.62	61062.24
585.78	61254.16
585.94	60949.89
586.10	61099.68
586.26	61226.07
586.42	61233.10
586.58	61095.00
586.74	61317.35
586.90	61076.28
587.06	60928.83
587.22	61385.23
587.38	61017.77
587.54	61375.87
587.70	61399.27
587.86	61158.20
588.02	61261.18
588.18	61378.21
588.34	61029.47
588.49	61104.37
