SpectraSuite Data File
++++++++++++++++++++++++++++++++++++
Date: Fri Oct 25 11:33:19 EDT 2013
User: price-jones
Dark Spectrum Present: No
Reference Spectrum Present: No
Number of Sampled Component Spectra: 1
Spectrometers: USB2+H05261
Integration Time (usec): 100000 (USB2+H05261)
Spectra Averaged: 1 (USB2+H05261)
Boxcar Smoothing: 0 (USB2+H05261)
Correct for Electrical Dark: No (USB2+H05261)
Strobe/Lamp Enabled: No (USB2+H05261)
Correct for Detector Non-linearity: No (USB2+H05261)
Correct for Stray Light: No (USB2+H05261)
Number of Pixels in Processed Spectrum: 2048
>>>>>Begin Processed Spectral Data<<<<<
365.73	245.76
365.92	245.76
366.12	245.76
366.32	175.54
366.52	191.92
366.72	234.05
366.91	135.75
367.11	156.82
367.31	196.60
367.51	180.22
367.70	133.41
367.90	217.67
368.10	173.20
368.30	280.86
368.49	163.84
368.69	255.12
368.89	217.67
369.09	91.28
369.28	271.50
369.48	259.80
369.68	205.97
369.87	318.31
370.07	217.67
370.27	271.50
370.47	344.06
370.66	404.91
370.86	507.90
371.06	526.62
371.25	538.32
371.45	498.53
371.65	512.58
371.84	613.22
372.04	456.40
372.24	580.45
372.44	526.62
372.63	608.54
372.83	634.29
373.03	660.03
373.22	564.07
373.42	601.52
373.62	568.75
373.81	737.27
374.01	660.03
374.21	681.10
374.40	613.22
374.60	636.63
374.79	608.54
374.99	589.82
375.19	678.76
375.38	683.44
375.58	638.97
375.78	669.39
375.97	725.57
376.17	725.57
376.37	636.63
376.56	781.74
376.76	650.67
376.95	741.95
377.15	751.31
377.35	643.65
377.54	716.20
377.74	692.80
377.93	702.16
378.13	674.07
378.33	671.73
378.52	744.29
378.72	660.03
378.91	678.76
379.11	753.65
379.31	678.76
379.50	683.44
379.70	699.82
379.89	767.70
380.09	727.91
380.28	636.63
380.48	758.33
380.68	800.46
380.87	730.25
381.07	692.80
381.26	847.27
381.46	809.83
381.65	814.51
381.85	781.74
382.04	805.14
382.24	802.80
382.43	760.67
382.63	847.27
382.83	781.74
383.02	760.67
383.22	821.53
383.41	833.23
383.61	770.04
383.80	863.66
384.00	837.91
384.19	791.10
384.39	777.06
384.58	919.83
384.78	910.47
384.97	800.46
385.17	919.83
385.36	812.17
385.56	917.49
385.75	870.68
385.95	875.36
386.14	833.23
386.34	875.36
386.53	889.40
386.72	837.91
386.92	919.83
387.11	849.61
387.31	873.02
387.50	882.38
387.70	903.45
387.89	943.24
388.09	858.98
388.28	847.27
388.48	992.39
388.67	884.72
388.86	919.83
389.06	926.85
389.25	947.92
389.45	987.71
389.64	933.87
389.84	1029.84
390.03	957.28
390.22	889.40
390.42	1008.77
390.61	997.07
390.81	894.08
391.00	994.73
391.19	1011.11
391.39	1018.13
391.58	992.39
391.78	968.98
391.97	1043.88
392.16	999.41
392.36	1083.67
392.55	950.26
392.75	1086.01
392.94	1050.90
393.13	1060.26
393.33	1114.10
393.52	1102.39
393.71	1123.46
393.91	1062.60
394.10	1064.94
394.29	1118.78
394.49	1090.69
394.68	1095.37
394.88	1107.07
395.07	1151.54
395.26	1081.33
395.46	1116.44
395.65	1219.42
395.84	1050.90
396.04	1233.46
396.23	1123.46
396.42	1205.38
396.62	1254.53
396.81	1259.21
397.00	1142.18
397.19	1235.80
397.39	1263.89
397.58	1214.74
397.77	1254.53
397.97	1235.80
398.16	1263.89
398.35	1338.79
398.55	1289.64
398.74	1256.87
398.93	1371.55
399.12	1369.21
399.32	1394.96
399.51	1317.72
399.70	1320.06
399.90	1268.57
400.09	1387.94
400.28	1500.28
400.47	1420.71
400.67	1437.09
400.86	1376.24
401.05	1406.66
401.24	1427.73
401.44	1434.75
401.63	1540.07
401.82	1509.65
402.01	1476.88
402.21	1453.47
402.40	1404.32
402.59	1495.60
402.78	1504.96
402.97	1563.48
403.17	1565.82
403.36	1554.12
403.55	1589.22
403.74	1614.97
403.93	1451.13
404.13	1600.93
404.32	1547.09
404.51	1533.05
404.70	1584.54
404.89	1657.10
405.09	1633.69
405.28	1666.46
405.47	1668.80
405.66	1722.63
405.85	1727.32
406.05	1687.53
406.24	1776.47
406.43	1818.60
406.62	1856.04
406.81	1881.79
407.00	1703.91
407.20	1790.51
407.39	1849.02
407.58	1776.47
407.77	1827.96
407.96	1930.94
408.15	1909.88
408.34	1792.85
408.54	1970.73
408.73	1928.60
408.92	1963.71
409.11	1984.77
409.30	1977.75
409.49	1940.30
409.68	2008.18
409.87	2029.24
410.07	2010.52
410.26	1994.14
410.45	2108.82
410.64	2176.70
410.83	2176.70
411.02	2195.42
411.21	2249.25
411.40	2111.16
411.59	2162.66
411.78	2139.25
411.98	2279.68
412.17	2251.60
412.36	2239.89
412.55	2363.94
412.74	2387.35
412.93	2282.02
413.12	2420.11
413.31	2406.07
413.50	2487.99
413.69	2413.09
413.88	2583.95
414.07	2427.14
414.26	2497.35
414.45	2579.27
414.64	2586.29
414.83	2731.41
415.02	2630.76
415.22	2670.55
415.41	2612.04
415.60	2771.19
415.79	2733.75
415.98	2686.94
416.17	2710.34
416.36	2722.04
416.55	2827.37
416.74	2731.41
416.93	2860.13
417.12	2857.79
417.31	2862.48
417.50	2930.35
417.69	2906.95
417.88	2860.13
418.07	2946.73
418.26	3056.74
418.45	2963.12
418.64	3218.24
418.83	3096.53
419.02	3012.27
419.21	3117.59
419.39	3337.60
419.58	3084.83
419.77	2960.78
419.96	3129.30
420.15	3122.27
420.34	3239.30
420.53	3049.72
420.72	3300.16
420.91	3201.85
421.10	3293.13
421.29	3260.37
421.48	3260.37
421.67	3375.05
421.86	3353.99
422.05	3386.76
422.24	3255.69
422.43	3288.45
422.61	3389.10
422.80	3410.16
422.99	3351.65
423.18	3459.31
423.37	3442.93
423.56	3449.95
423.75	3489.74
423.94	3344.63
424.13	3211.22
424.32	3337.60
424.50	3405.48
424.69	3543.57
424.88	3435.91
425.07	3382.07
425.26	3515.48
425.45	3559.95
425.64	3342.28
425.83	3442.93
426.01	3660.60
426.20	3480.38
426.39	3475.70
426.58	3545.91
426.77	3461.65
426.96	3557.61
427.15	3613.79
427.33	3627.83
427.52	3564.64
427.71	3562.30
427.90	3627.83
428.09	3604.42
428.28	3712.09
428.46	3719.11
428.65	3700.39
428.84	3822.09
429.03	3801.03
429.22	3618.47
429.40	3751.88
429.59	3843.16
429.78	3836.14
429.97	3552.93
430.16	3880.61
430.34	3779.97
430.53	3906.35
430.72	3960.19
430.91	3974.23
431.10	3873.59
431.28	4007.00
431.47	3925.08
431.66	3915.72
431.85	3936.78
432.03	4114.66
432.22	4229.35
432.41	4067.85
432.60	4159.13
432.79	4072.53
432.97	4147.43
433.16	4184.88
433.35	4152.11
433.54	4217.65
433.72	4159.13
433.91	4311.27
434.10	4250.41
434.28	4205.94
434.47	4369.78
434.66	4259.78
434.85	4404.89
435.03	4386.16
435.22	4372.12
435.41	4278.50
435.59	4454.04
435.78	4514.89
435.97	4617.88
436.16	4423.61
436.34	4388.50
436.53	4496.17
436.72	4533.62
436.90	4500.85
437.09	4528.94
437.28	4596.81
437.46	4582.77
437.65	4535.96
437.84	4683.41
438.02	4599.15
438.21	4685.75
438.40	4671.71
438.58	4730.22
438.77	4671.71
438.96	4727.88
439.14	4887.04
439.33	4887.04
439.52	4943.21
439.70	4770.01
439.89	4994.70
440.08	5071.94
440.26	4975.98
440.45	5071.94
440.63	5184.29
440.82	5224.08
441.01	5102.37
441.19	5118.75
441.38	5137.48
441.57	5268.55
441.75	5352.81
441.94	5507.28
442.12	5540.05
442.31	5476.85
442.50	5392.59
442.68	5537.71
442.87	5493.24
443.05	5507.28
443.24	5708.57
443.43	5490.90
443.61	5657.07
443.80	5631.33
443.98	5598.56
444.17	5350.46
444.35	5682.82
444.54	5593.88
444.73	5652.39
444.91	5504.94
445.10	5659.42
445.28	5654.73
445.47	5673.46
445.65	5720.27
445.84	5792.83
446.02	5818.57
446.21	5769.42
446.39	5703.89
446.58	5715.59
446.77	5825.59
446.95	5673.46
447.14	5767.08
447.32	5734.31
447.51	5790.49
447.69	5682.82
447.88	5856.02
448.06	5776.44
448.25	5916.87
448.43	5891.13
448.62	5914.53
448.80	5975.39
448.99	5949.64
449.17	5935.60
449.36	6022.20
449.54	6073.69
449.73	6298.38
449.91	6249.23
450.10	6092.41
450.28	6230.51
450.46	6167.31
450.65	6244.55
450.83	6143.91
451.02	6132.20
451.20	6190.72
451.39	6179.01
451.57	6218.80
451.76	6085.39
451.94	6033.90
452.13	6424.77
452.31	6366.26
452.49	6256.25
452.68	6537.12
452.86	6380.30
453.05	6347.53
453.23	6553.50
453.42	6406.05
453.60	6368.60
453.78	6377.96
453.97	6345.19
454.15	6546.48
454.34	6448.18
454.52	6588.61
454.70	6450.52
454.89	6616.69
455.07	6717.34
455.26	6817.98
455.44	6794.58
455.62	6825.00
455.81	6738.40
455.99	6782.87
456.17	6932.67
456.36	6726.70
456.54	6736.06
456.73	7089.48
456.91	7021.61
457.09	7185.44
457.28	7328.22
457.46	7082.46
457.64	7185.44
457.83	7269.70
458.01	7075.44
458.19	7246.30
458.38	7204.17
458.56	7407.80
458.74	7248.64
458.93	7274.38
459.11	7337.58
459.29	7262.68
459.48	7281.41
459.66	7290.77
459.84	7442.90
460.03	7386.73
460.21	7644.19
460.39	7325.88
460.57	7475.67
460.76	7564.61
460.94	7569.29
461.12	7581.00
461.31	7562.27
461.49	7609.08
461.67	7356.30
461.85	7595.04
462.04	7536.52
462.22	7882.92
462.40	7836.11
462.59	7948.46
462.77	7925.05
462.95	7822.07
463.13	7836.11
463.32	7964.84
463.50	7850.16
463.68	7934.42
463.86	8016.33
464.05	7941.44
464.23	7936.76
464.41	7946.12
464.59	7852.50
464.78	8133.36
464.96	7995.27
465.14	7978.89
465.32	8030.38
465.50	8287.84
465.69	8098.25
465.87	8271.45
466.05	8149.75
466.23	8369.76
466.41	8159.11
466.60	8402.52
466.78	8262.09
466.96	8238.69
467.14	8402.52
467.32	8475.08
467.51	8589.77
467.69	8161.45
467.87	8346.35
468.05	8659.98
468.23	8411.89
468.41	8477.42
468.60	8533.59
468.78	8526.57
468.96	8376.78
469.14	8814.46
469.32	8849.57
469.50	8355.71
469.69	8744.24
469.87	8849.57
470.05	8858.93
470.23	8774.67
470.41	9001.70
470.59	9001.70
470.77	8964.25
470.95	8868.29
471.14	9123.41
471.32	8858.93
471.50	9177.24
471.68	9165.54
471.86	9151.49
472.04	9280.22
472.22	9490.87
472.40	9167.88
472.58	9355.12
472.77	9357.46
472.95	9605.56
473.13	9722.59
473.31	9427.68
473.49	9460.45
473.67	9577.47
473.85	9514.28
474.03	9820.89
474.21	9643.01
474.39	9778.76
474.57	9750.67
474.75	9867.70
474.93	10033.88
475.12	9900.47
475.30	10113.45
475.48	10066.64
475.66	10258.57
475.84	10178.99
476.02	10289.00
476.20	10246.87
476.38	10586.24
476.56	10726.68
476.74	10565.18
476.92	10487.94
477.10	10560.50
477.28	10721.99
477.46	10848.38
477.64	10792.21
477.82	10930.30
478.00	11356.28
478.18	11262.66
478.36	11335.21
478.54	11496.71
478.72	11527.14
478.90	11569.27
479.08	11524.80
479.26	11559.91
479.44	12095.89
479.62	11751.83
479.80	11976.52
479.98	12081.85
480.16	12510.16
480.34	12238.66
480.52	12449.31
480.70	12355.69
480.88	12472.71
481.06	12383.77
481.24	12545.27
481.41	12884.65
481.59	12898.69
481.77	12882.31
481.95	12975.93
482.13	13329.35
482.31	13036.78
482.49	13633.62
482.67	13207.64
482.85	13540.00
483.03	13755.33
483.21	13785.76
483.39	14012.79
483.57	13811.50
483.74	13909.80
483.92	14284.29
484.10	14071.30
484.28	14349.82
484.46	14424.72
484.64	14946.66
484.82	14546.43
485.00	14633.03
485.18	15110.50
485.35	15342.21
485.53	15035.60
485.71	15129.22
485.89	15494.35
486.07	15503.71
486.25	15480.30
486.43	15728.40
486.61	15939.05
486.78	16205.87
486.96	15871.17
487.14	16418.86
487.32	15985.86
487.50	16681.00
487.68	16456.31
487.85	16659.93
488.03	16975.91
488.21	16987.61
488.39	17018.04
488.57	17186.55
488.75	17490.82
488.92	17486.14
489.10	17720.20
489.28	17694.45
489.46	17823.18
489.64	17905.10
489.81	18448.10
489.99	18286.61
490.17	18195.32
490.35	18588.53
490.53	18448.10
490.70	18883.44
490.88	18483.21
491.06	18934.93
491.24	19161.97
491.41	19569.22
491.59	19405.38
491.77	19164.31
491.95	19728.38
492.13	19583.26
492.30	19932.00
492.48	19697.95
492.66	20114.56
492.84	20271.38
493.01	20451.60
493.19	20428.20
493.37	20233.93
493.54	20697.36
493.72	20776.94
493.90	20636.50
494.08	21078.86
494.25	21139.72
494.43	21298.88
494.61	21359.73
494.79	21216.96
494.96	21439.31
495.14	21869.97
495.32	21919.12
495.49	21694.43
495.67	21979.97
495.85	22317.01
496.02	22188.28
496.20	22604.89
496.38	22464.46
496.55	22469.14
496.73	22764.05
496.91	22635.32
497.09	23054.28
497.26	22766.39
497.44	22750.01
497.62	23255.56
497.79	23662.82
497.97	23508.34
498.14	23686.22
498.32	23871.12
498.50	23875.80
498.67	24304.12
498.85	23941.34
499.03	24093.47
499.20	24210.50
499.38	24065.39
499.56	24577.97
499.73	24568.60
499.91	24999.26
500.08	25144.38
500.26	24631.80
500.44	24863.51
500.61	25099.90
500.79	24774.57
500.97	25020.33
501.14	25804.41
501.32	25542.27
501.49	25619.50
501.67	25621.84
501.84	25951.86
502.02	25553.97
502.20	26022.08
502.37	26314.64
502.55	25907.39
502.72	25907.39
502.90	26160.17
503.07	25989.31
503.25	26560.40
503.43	26389.54
503.60	26445.71
503.78	26618.91
503.95	26960.63
504.13	27068.30
504.30	27164.26
504.48	26815.52
504.65	27302.35
504.83	27442.78
505.01	27297.67
505.18	27339.80
505.36	27587.89
505.53	27662.79
505.71	27297.67
505.88	27747.05
506.06	27452.14
506.23	27578.53
506.41	27917.91
506.58	28093.45
506.76	27964.72
506.93	28004.51
507.11	27964.72
507.28	28364.95
507.46	28304.10
507.63	28587.30
507.81	28741.78
507.98	28414.10
508.16	28559.22
508.33	29076.48
508.50	29139.67
508.68	29237.97
508.85	29214.57
509.03	29343.30
509.20	29589.05
509.38	29582.03
509.55	29450.96
509.73	29565.65
509.90	29626.50
510.08	30066.52
510.25	29518.84
510.42	29942.47
510.60	30169.51
510.77	30422.28
510.95	30656.34
511.12	30148.44
511.30	30029.07
511.47	30415.26
511.64	30457.39
511.82	30487.82
511.99	30717.19
512.17	30925.50
512.34	30866.98
512.51	31262.54
512.69	31234.45
512.86	31021.46
513.04	31299.98
513.21	31400.63
513.38	31669.79
513.56	31321.05
513.73	31674.47
513.90	31601.91
514.08	31447.44
514.25	31758.73
514.43	32044.27
514.60	31957.67
514.77	31690.85
514.95	32428.12
515.12	31838.31
515.29	32261.94
515.47	32336.84
515.64	32247.90
515.81	32488.98
515.99	32488.98
516.16	32690.26
516.33	32840.06
516.51	32879.85
516.68	32512.38
516.85	32919.63
517.03	33053.05
517.20	33230.93
517.37	32947.72
517.54	33008.58
517.72	33151.35
517.89	33259.01
518.06	33324.55
518.24	33811.38
518.41	33305.82
518.58	33298.80
518.75	33188.80
518.93	33457.96
519.10	33879.25
519.27	33956.49
519.45	34167.14
519.62	34125.01
519.79	33954.15
519.96	34314.59
520.14	34253.74
520.31	33923.72
520.48	34120.33
520.65	34340.34
520.83	34576.73
521.00	34581.42
521.17	34515.88
521.34	34345.02
521.52	35129.10
521.69	35061.22
521.86	34902.07
522.03	35442.73
522.20	34953.56
522.38	35026.12
522.55	35480.18
522.72	35409.96
522.89	35597.21
523.07	35765.73
523.24	35482.52
523.41	35447.41
523.58	35667.42
523.75	35538.69
523.92	35941.27
524.10	36100.42
524.27	36088.72
524.44	35903.82
524.61	35899.14
524.78	36353.20
524.96	36547.47
525.13	36416.40
525.30	36573.21
525.47	36189.36
525.64	36308.73
525.81	36800.24
525.98	36774.50
526.16	36470.23
526.33	36755.77
526.50	37153.66
526.67	36870.46
526.84	36935.99
527.01	37134.94
527.18	36797.90
527.36	37041.32
527.53	37242.60
527.70	37411.12
527.87	37876.89
528.04	37476.66
528.21	37551.56
528.38	37565.60
528.55	37263.67
528.72	37624.11
528.89	37750.50
529.07	37439.21
529.24	37720.07
529.41	38029.02
529.58	38099.24
529.75	37830.08
529.92	38043.07
530.09	37921.36
530.26	38543.94
530.43	37811.35
530.60	37628.79
530.77	38501.81
530.94	37656.88
531.11	38272.44
531.28	38675.01
531.46	37935.40
531.63	38380.10
531.80	38555.64
531.97	39026.09
532.14	38773.31
532.31	38433.94
532.48	38979.28
532.65	38768.63
532.82	38630.54
532.99	39431.01
533.16	38492.45
533.33	39199.29
533.50	39037.80
533.67	38883.32
533.84	39225.04
534.01	39079.92
534.18	39028.43
534.35	39550.37
534.52	39559.73
534.69	39367.81
534.86	39559.73
535.03	39477.82
535.20	39651.02
535.37	39508.24
535.54	39882.73
535.71	40105.08
535.88	40247.85
536.05	39845.28
536.22	40114.44
536.38	40229.13
536.55	39992.73
536.72	40079.33
536.89	40048.91
537.06	40444.46
537.23	40561.48
537.40	40013.80
537.57	40055.93
537.74	40271.26
537.91	40645.74
538.08	40495.95
538.25	40229.13
538.42	40921.93
538.59	40758.09
538.75	40517.01
538.92	40685.53
539.09	41027.25
539.26	40828.30
539.43	40961.72
539.60	40818.94
539.77	41287.05
539.94	41205.13
540.11	40980.44
540.28	40725.32
540.44	41303.43
540.61	41120.87
540.78	41336.20
540.95	41034.27
541.12	41258.96
541.29	41013.21
541.46	41628.77
541.62	41418.12
541.79	41823.03
541.96	41352.58
542.13	41401.74
542.30	41759.84
542.47	41572.60
542.63	41963.46
542.80	41741.11
542.97	42021.98
543.14	42408.17
543.31	41998.57
543.48	42014.96
543.64	42553.28
543.81	42520.51
543.98	42305.18
544.15	42447.96
544.32	42593.07
544.48	42707.76
544.65	42312.20
544.82	43028.41
544.99	42045.38
545.16	42916.06
545.32	42300.50
545.49	42995.64
545.66	42787.33
545.83	42703.07
546.00	43122.03
546.16	43150.12
546.33	43072.88
546.50	43103.31
546.67	43302.25
546.83	43166.50
547.00	42873.93
547.17	42906.70
547.34	43138.41
547.50	43482.47
547.67	43381.83
547.84	43269.48
548.00	43770.36
548.17	43716.53
548.34	43793.76
548.51	43739.93
548.67	43185.22
548.84	43601.84
549.01	43393.53
549.18	43636.95
549.34	43800.79
549.51	44009.09
549.68	43990.37
549.84	44074.63
550.01	43908.45
550.18	43601.84
550.34	43910.79
550.51	44027.82
550.68	43782.06
550.84	43723.55
551.01	44147.18
551.18	43915.47
551.34	43915.47
551.51	44378.90
551.68	44327.41
551.84	44032.50
552.01	43775.04
552.18	44236.12
552.34	44102.71
552.51	44261.87
552.68	44231.44
552.84	44659.76
553.01	44601.25
553.18	44292.30
553.34	44762.75
553.51	44486.56
553.67	44809.56
553.84	44849.35
554.01	44905.52
554.17	44720.62
554.34	44914.88
554.51	44765.09
554.67	45102.12
554.84	44861.05
555.00	45036.59
555.17	44896.16
555.33	45052.97
555.50	45088.08
555.67	44807.22
555.83	45118.51
556.00	45488.31
556.16	45476.61
556.33	45495.33
556.50	44924.24
556.66	45095.10
556.83	44701.89
556.99	45352.56
557.16	45516.40
557.32	45743.43
557.49	45329.16
557.65	45141.91
557.82	45076.38
557.98	45359.58
558.15	45787.90
558.32	45811.31
558.48	45331.50
558.65	45773.86
558.81	45492.99
558.98	45916.63
559.14	45048.29
559.31	45385.33
559.47	45696.62
559.64	45738.75
559.80	45539.80
559.97	45406.39
560.13	45727.05
560.30	46298.14
560.46	45813.65
560.63	46230.26
560.79	46138.98
560.96	45874.50
561.12	45949.40
561.29	46251.33
561.45	46272.39
561.61	46188.13
561.78	46169.41
561.94	46216.22
562.11	45925.99
562.27	46052.38
562.44	46279.41
562.60	46143.66
562.77	46169.41
562.93	46368.35
563.10	46586.02
563.26	46293.46
563.42	46454.95
563.59	46096.85
563.75	46183.45
563.92	46307.50
564.08	46305.16
564.24	45961.10
564.41	46377.72
564.57	46461.97
564.74	46555.60
564.90	45834.71
565.07	46450.27
565.23	46712.41
565.39	46190.47
565.56	46539.21
565.72	46696.03
565.88	46904.34
566.05	46742.84
566.21	46972.21
566.38	46263.03
566.54	46499.42
566.70	46962.85
566.87	47117.32
567.03	46614.11
567.19	46801.35
567.36	46553.26
567.52	46967.53
567.68	46995.62
567.85	47030.72
568.01	46775.61
568.17	46902.00
568.34	46775.61
568.50	46831.78
568.66	46995.62
568.83	46890.29
568.99	46911.36
569.15	47248.39
569.32	46848.16
569.48	46646.88
569.64	47388.83
569.81	47051.79
569.97	47103.28
570.13	46925.40
570.30	46681.98
570.46	47122.01
570.62	46733.48
570.78	47271.80
570.95	46887.95
571.11	47234.35
571.27	47168.82
571.43	47114.98
571.60	47129.03
571.76	46831.78
571.92	47222.65
572.09	47004.98
572.25	46712.41
572.41	46740.50
572.57	47107.96
572.74	47547.98
572.90	46691.35
573.06	47407.55
573.22	47510.53
573.38	47023.70
573.55	47309.25
573.71	47555.00
573.87	47372.44
574.03	47026.04
574.20	47674.37
574.36	47442.66
574.52	47674.37
574.68	47398.19
574.84	47538.62
575.01	47199.24
575.17	47349.04
575.33	47201.58
575.49	46873.91
575.65	47587.77
575.82	47136.05
575.98	47241.37
576.14	47531.60
576.30	47566.71
576.46	47466.06
576.62	47342.02
576.79	47508.19
576.95	47150.09
577.11	47122.01
577.27	47657.99
577.43	47299.89
577.59	47192.22
577.75	47629.90
577.92	46916.04
578.08	47796.08
578.24	47358.40
578.40	47393.51
578.56	47489.47
578.72	47360.74
578.88	47421.59
579.04	47569.05
579.21	47547.98
579.37	47323.29
579.53	47578.41
579.69	47356.06
579.85	47433.30
580.01	47606.50
580.17	47239.03
580.33	47817.14
580.49	47821.83
580.65	47573.73
580.82	47477.77
580.98	47695.44
581.14	47388.83
581.30	47323.29
581.46	46946.47
581.62	47365.42
581.78	47461.38
581.94	47636.92
582.10	47662.67
582.26	47550.32
582.42	47564.37
582.58	47697.78
582.74	47569.05
582.90	47650.97
583.06	47648.63
583.22	47878.00
583.38	47683.73
583.54	47966.94
583.70	47583.09
583.86	47601.82
584.02	47786.72
584.18	48044.18
584.34	47983.32
584.50	47751.61
584.66	47990.34
584.82	47459.04
584.98	47929.49
585.14	47838.21
585.30	47468.40
585.46	47599.47
585.62	47702.46
585.78	47419.25
585.94	47295.21
586.10	47409.89
586.26	47281.16
586.42	47519.90
586.58	47812.46
586.74	47810.12
586.90	47611.18
587.06	47767.99
587.22	47777.36
587.38	47489.47
587.54	47756.29
587.70	47997.37
587.86	47985.66
588.02	47723.52
588.18	47749.27
588.34	47791.40
588.49	47676.71
588.65	47447.34
588.81	47709.48
588.97	48479.52
589.13	47594.79
589.29	47957.58
589.45	47931.83
589.61	48011.41
589.77	48203.33
589.93	47908.43
590.08	48247.80
