SpectraSuite Data File
++++++++++++++++++++++++++++++++++++
Date: Fri Oct 25 10:44:34 EDT 2013
User: price-jones
Dark Spectrum Present: No
Reference Spectrum Present: No
Number of Sampled Component Spectra: 1
Spectrometers: USB2+H05261
Integration Time (usec): 100000 (USB2+H05261)
Spectra Averaged: 1 (USB2+H05261)
Boxcar Smoothing: 0 (USB2+H05261)
Correct for Electrical Dark: No (USB2+H05261)
Strobe/Lamp Enabled: No (USB2+H05261)
Correct for Detector Non-linearity: No (USB2+H05261)
Correct for Stray Light: No (USB2+H05261)
Number of Pixels in Processed Spectrum: 2048
>>>>>Begin Processed Spectral Data<<<<<
365.73	159.16
365.92	159.16
366.12	159.16
366.32	63.19
366.52	0.00
366.72	67.88
366.91	0.00
367.11	42.13
367.31	0.00
367.51	16.38
367.70	0.00
367.90	142.77
368.10	0.00
368.30	88.94
368.49	49.15
368.69	0.00
368.89	91.28
369.09	16.38
369.28	58.51
369.48	84.26
369.68	112.35
369.87	149.79
370.07	140.43
370.27	166.18
370.47	124.05
370.66	397.89
370.86	449.38
371.06	468.11
371.25	421.30
371.45	505.56
371.65	397.89
371.84	475.13
372.04	397.89
372.24	552.37
372.44	472.79
372.63	470.45
372.83	535.98
373.03	468.11
373.22	491.51
373.42	444.70
373.62	507.90
373.81	489.17
374.01	514.92
374.21	564.07
374.40	545.34
374.60	561.73
374.79	496.19
374.99	564.07
375.19	550.03
375.38	660.03
375.58	554.71
375.78	554.71
375.97	580.45
376.17	561.73
376.37	613.22
376.56	599.18
376.76	596.84
376.95	557.05
377.15	610.88
377.35	601.52
377.54	592.16
377.74	528.96
377.93	596.84
378.13	603.86
378.33	603.86
378.52	561.73
378.72	557.05
378.91	678.76
379.11	660.03
379.31	636.63
379.50	660.03
379.70	704.50
379.89	678.76
380.09	657.69
380.28	713.86
380.48	685.78
380.68	671.73
380.87	690.46
381.07	631.94
381.26	734.93
381.46	779.40
381.65	683.44
381.85	704.50
382.04	702.16
382.24	788.76
382.43	660.03
382.63	706.84
382.83	678.76
383.02	671.73
383.22	786.42
383.41	676.41
383.61	653.01
383.80	667.05
384.00	779.40
384.19	657.69
384.39	739.61
384.58	739.61
384.78	709.18
384.97	709.18
385.17	788.76
385.36	732.59
385.56	741.95
385.75	840.25
385.95	718.54
386.14	788.76
386.34	734.93
386.53	767.70
386.72	809.83
386.92	802.80
387.11	854.30
387.31	709.18
387.50	793.44
387.70	870.68
387.89	760.67
388.09	823.87
388.28	884.72
388.48	802.80
388.67	816.85
388.86	929.19
389.06	880.04
389.25	863.66
389.45	940.90
389.64	880.04
389.84	905.79
390.03	980.68
390.22	971.32
390.42	966.64
390.61	891.74
390.81	954.94
391.00	842.59
391.19	947.92
391.39	905.79
391.58	1001.75
391.78	1022.81
391.97	978.34
392.16	1034.52
392.36	1020.47
392.55	1013.45
392.75	954.94
392.94	819.19
393.13	945.58
393.33	964.30
393.52	915.15
393.71	961.96
393.91	1013.45
394.10	1006.43
394.29	999.41
394.49	1041.54
394.68	1109.41
394.88	1006.43
395.07	1132.82
395.26	1128.14
395.46	1130.48
395.65	1179.63
395.84	1118.78
396.04	1128.14
396.23	1086.01
396.42	1107.07
396.62	1111.75
396.81	1156.22
397.00	1188.99
397.19	1123.46
397.39	1196.01
397.58	1275.59
397.77	1282.61
397.97	1214.74
398.16	1217.08
398.35	1413.68
398.55	1280.27
398.74	1266.23
398.93	1462.83
399.12	1352.83
399.32	1315.38
399.51	1324.74
399.70	1327.08
399.90	1364.53
400.09	1378.58
400.28	1366.87
400.47	1406.66
400.67	1455.81
400.86	1390.28
401.05	1465.18
401.24	1542.41
401.44	1540.07
401.63	1547.09
401.82	1591.56
402.01	1465.18
402.21	1535.39
402.40	1570.50
402.59	1570.50
402.78	1638.38
402.97	1612.63
403.17	1603.27
403.36	1654.76
403.55	1603.27
403.74	1720.29
403.93	1607.95
404.13	1614.97
404.32	1659.44
404.51	1668.80
404.70	1680.50
404.89	1706.25
405.09	1724.97
405.28	1799.87
405.47	1785.83
405.66	1865.41
405.85	1830.30
406.05	1732.00
406.24	1830.30
406.43	1860.73
406.62	1935.62
406.81	1949.67
407.00	1804.55
407.20	1834.98
407.39	1916.90
407.58	1937.96
407.77	1930.94
407.96	2047.97
408.15	2029.24
408.34	1966.05
408.54	2090.10
408.73	1966.05
408.92	1996.48
409.11	1952.01
409.30	2141.59
409.49	2024.56
409.68	1991.80
409.87	2115.84
410.07	2246.91
410.26	2136.91
410.45	2167.34
410.64	2223.51
410.83	2172.02
411.02	2258.62
411.21	2235.21
411.40	2359.26
411.59	2377.98
411.78	2333.51
411.98	2303.09
412.17	2408.41
412.36	2352.24
412.55	2387.35
412.74	2333.51
412.93	2473.95
413.12	2410.75
413.31	2562.89
413.50	2452.88
413.69	2581.61
413.88	2544.16
414.07	2682.25
414.26	2689.28
414.45	2729.06
414.64	2649.49
414.83	2808.64
415.02	2801.62
415.22	2750.13
415.41	2818.00
415.60	2848.43
415.79	2822.69
415.98	3019.29
416.17	2956.10
416.36	2928.01
416.55	2871.84
416.74	3028.65
416.93	3101.21
417.12	3042.70
417.31	3075.46
417.50	2979.50
417.69	3194.83
417.88	3131.64
418.07	3089.51
418.26	3136.32
418.45	3159.72
418.64	3183.13
418.83	3232.28
419.02	3225.26
419.21	3248.66
419.39	3281.43
419.58	3183.13
419.77	3258.03
419.96	3311.86
420.15	3384.41
420.34	3398.46
420.53	3428.88
420.72	3405.48
420.91	3527.19
421.10	3449.95
421.29	3445.27
421.48	3398.46
421.67	3541.23
421.86	3527.19
422.05	3323.56
422.24	3400.80
422.43	3459.31
422.61	3517.83
422.80	3517.83
422.99	3595.06
423.18	3655.92
423.37	3463.99
423.56	3667.62
423.75	3630.17
423.94	3520.17
424.13	3297.81
424.32	3272.07
424.50	3623.15
424.69	3545.91
424.88	3700.39
425.07	3527.19
425.26	3590.38
425.45	3515.48
425.64	3531.87
425.83	3653.58
426.01	3749.54
426.20	3618.47
426.39	3801.03
426.58	3555.27
426.77	3669.96
426.96	3627.83
427.15	3719.11
427.33	3749.54
427.52	3618.47
427.71	3588.04
427.90	3772.94
428.09	3765.92
428.28	3620.81
428.46	3730.81
428.65	3892.31
428.84	3971.89
429.03	4025.72
429.22	3957.85
429.40	3929.76
429.59	3882.95
429.78	3707.41
429.97	3840.82
430.16	3744.86
430.34	3847.84
430.53	4014.02
430.72	3904.01
430.91	3983.59
431.10	3885.29
431.28	4107.64
431.47	4007.00
431.66	4262.12
431.85	4159.13
432.03	4337.01
432.22	4348.72
432.41	4329.99
432.60	4119.34
432.79	4276.16
432.97	4327.65
433.16	4362.76
433.35	4297.22
433.54	4304.25
433.72	4236.37
433.91	4301.90
434.10	4388.50
434.28	4367.44
434.47	4388.50
434.66	4428.29
434.85	4444.68
435.03	4489.15
435.22	4585.11
435.41	4739.58
435.59	4505.53
435.78	4655.33
435.97	4762.99
436.16	4753.63
436.34	4744.27
436.53	4751.29
436.72	4573.41
436.90	4631.92
437.09	4669.37
437.28	4657.67
437.46	4734.90
437.65	4652.98
437.84	4821.50
438.02	4784.06
438.21	4772.35
438.40	4844.91
438.58	4936.19
438.77	4990.02
438.96	4945.55
439.14	5088.32
439.33	5123.43
439.52	5167.90
439.70	5132.79
439.89	5207.69
440.08	5217.05
440.26	5284.93
440.45	5219.39
440.63	5373.87
440.82	5528.35
441.01	5357.49
441.19	5416.00
441.38	5558.77
441.57	5486.22
441.75	5430.04
441.94	5607.92
442.12	5748.36
442.31	5816.23
442.50	5870.06
442.68	5827.93
442.87	5659.42
443.05	5849.00
443.24	5921.56
443.43	5692.18
443.61	5867.72
443.80	6019.86
443.98	5717.93
444.17	5795.17
444.35	5961.34
444.54	5928.58
444.73	6125.18
444.91	5884.11
445.10	5921.56
445.28	5933.26
445.47	5757.72
445.65	5823.25
445.84	6003.47
446.02	5984.75
446.21	5893.47
446.39	6050.28
446.58	6221.14
446.77	6045.60
446.95	6045.60
447.14	6118.16
447.32	6282.00
447.51	6176.67
447.69	6078.37
447.88	5991.77
448.06	6083.05
448.25	6249.23
448.43	6193.06
448.62	6153.27
448.80	6111.14
448.99	6230.51
449.17	6251.57
449.36	6340.51
449.54	6368.60
449.73	6499.67
449.91	6635.42
450.10	6483.28
450.28	6424.77
450.46	6616.69
450.65	6586.27
450.83	6609.67
451.02	6530.09
451.20	6516.05
451.39	6574.56
451.57	6513.71
451.76	6502.01
451.94	6607.33
452.13	6752.45
452.31	6494.99
452.49	6413.07
452.68	6635.42
452.86	6572.22
453.05	6710.32
453.23	6668.19
453.42	6689.25
453.60	6590.95
453.78	6689.25
453.97	6637.76
454.15	6806.28
454.34	6829.68
454.52	6911.60
454.70	6843.73
454.89	6775.85
455.07	7103.53
455.26	7042.67
455.44	6867.13
455.62	7108.21
455.81	7037.99
455.99	7129.27
456.17	7157.36
456.36	7136.29
456.54	7262.68
456.73	7159.70
456.91	7372.69
457.09	7342.26
457.28	7623.12
457.46	7314.17
457.64	7618.44
457.83	7475.67
458.01	7293.11
458.19	7400.77
458.38	7351.62
458.56	7517.80
458.74	7606.74
458.93	7550.57
459.11	7527.16
459.29	7625.47
459.48	7758.88
459.66	7592.70
459.84	7695.68
460.03	7775.26
460.21	7737.81
460.39	7611.42
460.57	7918.03
460.76	7730.79
460.94	7999.95
461.12	7896.97
461.31	7948.46
461.49	7852.50
461.67	8056.12
461.85	8168.47
462.04	7918.03
462.22	8290.18
462.40	8145.06
462.59	8098.25
462.77	8147.40
462.95	8264.43
463.13	8287.84
463.32	8262.09
463.50	8163.79
463.68	8308.90
463.86	8336.99
464.05	8217.62
464.23	8175.49
464.41	8407.20
464.59	8201.24
464.78	8397.84
464.96	8414.23
465.14	8280.82
465.32	8400.18
465.50	8449.33
465.69	8428.27
465.87	8528.91
466.05	8360.39
466.23	8423.59
466.41	8442.31
466.60	8454.02
466.78	8517.21
466.96	8809.78
467.14	8697.43
467.32	8538.27
467.51	8777.01
467.69	8446.99
467.87	8688.07
468.05	8774.67
468.23	8606.15
468.41	8779.35
468.60	8606.15
468.78	8861.27
468.96	8557.00
469.14	8784.03
469.32	8952.55
469.50	8671.68
469.69	9057.87
469.87	9097.66
470.05	8919.78
470.23	9123.41
470.41	8973.61
470.59	9015.74
470.77	9191.28
470.95	9233.41
471.14	9254.48
471.32	9034.47
471.50	9497.89
471.68	9453.42
471.86	9291.93
472.04	9523.64
472.22	9671.09
472.40	9462.79
472.58	9575.13
472.77	9582.15
472.95	9895.78
473.13	10120.48
473.31	9537.68
473.49	9460.45
473.67	9844.29
473.85	9858.34
474.03	10031.54
474.21	10087.71
474.39	10314.74
474.57	10281.97
474.75	10134.52
474.93	10415.38
475.12	10129.84
475.30	10207.08
475.48	10279.63
475.66	10511.35
475.84	10324.10
476.02	10399.00
476.20	10476.24
476.38	10604.97
476.56	10923.28
476.74	11052.01
476.92	10829.66
477.10	10827.32
477.28	11157.33
477.46	11070.73
477.64	11435.86
477.82	11290.74
478.00	11681.61
478.18	11517.78
478.36	11534.16
478.54	11833.75
478.72	11824.39
478.90	11655.87
479.08	11868.86
479.26	12079.50
479.44	11817.36
479.62	12198.87
479.80	12168.45
479.98	12397.82
480.16	12690.38
480.34	12435.27
480.52	12664.64
480.70	12491.44
480.88	12549.95
481.06	12837.84
481.24	12641.23
481.41	13195.94
481.59	13163.17
481.77	13429.99
481.95	13334.03
482.13	13259.13
482.31	13397.23
482.49	13474.46
482.67	13722.56
482.85	13912.14
483.03	13949.59
483.21	14200.03
483.39	14209.39
483.57	14134.50
483.74	14389.61
483.92	14628.35
484.10	14298.33
484.28	14616.65
484.46	14862.40
484.64	15227.53
484.82	14764.10
485.00	15061.35
485.18	15398.38
485.35	15499.03
485.53	15213.48
485.71	15304.76
485.89	15419.45
486.07	15302.42
486.25	15550.52
486.43	15697.97
486.61	15934.37
486.78	16187.14
486.96	16255.02
487.14	16582.70
487.32	16222.25
487.50	16540.57
487.68	16968.88
487.85	16594.40
488.03	16968.88
488.21	17132.72
488.39	17233.36
488.57	17420.61
488.75	17401.88
488.92	17593.81
489.10	17811.48
489.28	17490.82
489.46	18185.96
489.64	18024.47
489.81	18670.45
489.99	18740.67
490.17	18810.89
490.35	19023.87
490.53	18853.02
490.70	19304.74
490.88	18902.17
491.06	19290.70
491.24	19435.81
491.41	19386.66
491.59	19496.66
491.77	19683.91
491.95	19868.81
492.13	20051.37
492.30	20072.43
492.48	19941.36
492.66	20032.65
492.84	20191.80
493.01	20343.94
493.19	20374.36
493.37	20608.42
493.54	20713.74
493.72	21057.80
493.90	20999.29
494.08	21125.68
494.25	21546.97
494.43	21380.79
494.61	21586.76
494.79	21816.13
494.96	21607.83
495.14	21577.40
495.32	22038.48
495.49	21956.57
495.67	22272.54
495.85	22398.93
496.02	22698.52
496.20	22728.94
496.38	22637.66
496.55	22852.99
496.73	23283.65
496.91	23173.64
497.09	23138.54
497.26	23377.27
497.44	23204.07
497.62	23718.99
497.79	23847.72
497.97	23435.78
498.14	24173.05
498.32	23491.96
498.50	24170.71
498.67	24376.68
498.85	23946.02
499.03	24503.07
499.20	24379.02
499.38	24673.93
499.56	24264.33
499.73	24734.78
499.91	24638.82
500.08	24790.95
500.26	24662.22
500.44	24790.95
500.61	24812.02
500.79	25069.48
500.97	24854.15
501.14	25383.11
501.32	25193.53
501.49	25230.98
501.67	25708.44
501.84	25642.91
502.02	25874.62
502.20	25933.14
502.37	25942.50
502.55	25951.86
502.72	25954.20
502.90	26094.63
503.07	26300.60
503.25	26260.81
503.43	26441.03
503.60	26572.10
503.78	26548.70
503.95	26417.63
504.13	26614.23
504.30	26876.37
504.48	26534.65
504.65	27255.54
504.83	27419.38
505.01	27199.37
505.18	27206.39
505.36	27257.88
505.53	27302.35
505.71	27562.15
505.88	27868.76
506.06	27304.69
506.23	28109.83
506.41	27697.90
506.58	27798.54
506.76	28025.57
506.93	28261.97
507.11	28070.04
507.28	28470.28
507.46	28058.34
507.63	28451.55
507.81	28561.56
507.98	27999.83
508.16	28580.28
508.33	28781.57
508.50	28680.92
508.68	28980.51
508.85	28697.31
509.03	28954.77
509.20	29109.24
509.38	29298.83
509.55	29240.31
509.73	29221.59
509.90	29345.64
510.08	29846.51
510.25	29343.30
510.42	29610.12
510.60	29528.20
510.77	29745.87
510.95	29895.66
511.12	29713.10
511.30	30136.74
511.47	30211.64
511.64	30644.63
511.82	30771.02
511.99	30267.81
512.17	30452.71
512.34	29921.41
512.51	30644.63
512.69	30831.88
512.86	30616.55
513.04	30991.03
513.21	30991.03
513.38	30560.37
513.56	31131.47
513.73	30864.64
513.90	31435.74
514.08	31424.03
514.25	31725.96
514.43	31550.42
514.60	31260.20
514.77	31597.23
514.95	31873.42
515.12	31477.86
515.29	31552.76
515.47	32088.74
515.64	31716.60
515.81	31765.75
515.99	31562.12
516.16	32175.34
516.33	32107.47
516.51	32189.39
516.68	31700.22
516.85	31679.15
517.03	32041.93
517.20	31758.73
517.37	32643.45
517.54	32334.50
517.72	32156.62
517.89	32313.44
518.06	32575.58
518.24	32606.00
518.41	32556.85
518.58	32708.99
518.75	32617.71
518.93	32788.56
519.10	32961.76
519.27	32907.93
519.45	33247.31
519.62	33390.08
519.79	33174.75
519.96	33535.20
520.14	33518.81
520.31	33481.36
520.48	33472.00
520.65	33399.44
520.83	34258.42
521.00	33860.53
521.17	33872.23
521.34	34085.22
521.52	34080.54
521.69	34005.64
521.86	34457.37
522.03	34403.53
522.20	34370.77
522.38	34576.73
522.55	34312.25
522.72	34677.38
522.89	34440.98
523.07	34623.54
523.24	34464.39
523.41	34761.64
523.58	34401.19
523.75	35079.95
523.92	34932.50
524.10	35868.71
524.27	35585.50
524.44	35559.76
524.61	35318.68
524.78	35260.17
524.96	35735.30
525.13	36079.36
525.30	35564.44
525.47	36002.12
525.64	35564.44
525.81	35416.99
525.98	35545.72
526.16	35702.53
526.33	35440.39
526.50	35519.97
526.67	35653.38
526.84	35239.11
527.01	35599.55
527.18	35424.01
527.36	36086.38
527.53	35950.63
527.70	36460.87
527.87	36282.98
528.04	36154.26
528.21	36245.54
528.38	36266.60
528.55	36584.91
528.72	36528.74
528.89	37151.32
529.07	36767.48
529.24	36629.38
529.41	36905.57
529.58	37076.43
529.75	36760.45
529.92	37345.59
530.09	36746.41
530.26	37319.84
530.43	37446.23
530.60	37221.54
530.77	37071.75
530.94	37820.72
531.11	37294.10
531.28	37247.29
531.46	37329.20
531.63	37579.64
531.80	37298.78
531.97	37376.01
532.14	37495.38
532.31	37350.27
532.48	37235.58
532.65	37982.21
532.82	37528.15
532.99	37654.54
533.16	37673.26
533.33	38043.07
533.50	37937.74
533.67	37848.80
533.84	37820.72
534.01	38267.76
534.18	38242.01
534.35	38440.96
534.52	38148.39
534.69	38277.12
534.86	38382.45
535.03	37956.47
535.20	38880.98
535.37	38789.70
535.54	39117.37
535.71	38607.14
535.88	38438.62
536.05	38873.96
536.22	38876.30
536.38	38782.68
536.55	38724.16
536.72	38859.91
536.89	38515.86
537.06	38934.81
537.23	38808.42
537.40	38682.03
537.57	38937.15
537.74	39203.97
537.91	39328.02
538.08	39222.70
538.25	38878.64
538.42	39136.10
538.59	39674.42
538.75	39159.50
538.92	39367.81
539.09	39709.53
539.26	39695.49
539.43	39562.08
539.60	39599.52
539.77	39438.03
539.94	39328.02
540.11	39344.41
540.28	39899.11
540.44	39821.87
540.61	39414.62
540.78	39423.98
540.95	39622.93
541.12	39524.63
541.29	39828.90
541.46	39683.78
541.62	39786.77
541.79	40341.47
541.96	39555.05
542.13	40238.49
542.30	40238.49
542.47	40175.30
542.63	40542.76
542.80	40126.14
542.97	40671.49
543.14	40704.26
543.31	40673.83
543.48	40641.06
543.64	40891.50
543.81	40582.55
543.98	40762.77
544.15	40975.76
544.32	41017.89
544.48	41195.77
544.65	41045.97
544.82	40708.94
544.99	40435.10
545.16	40746.39
545.32	40582.55
545.49	41443.87
545.66	41254.28
545.83	41425.14
546.00	41427.48
546.16	41322.16
546.33	41347.90
546.50	41329.18
546.67	41221.52
546.83	41074.06
547.00	41371.31
547.17	41228.54
547.34	41345.56
547.50	41729.41
547.67	41450.89
547.84	41354.93
548.00	41481.31
548.17	42033.68
548.34	41986.87
548.51	42059.43
548.67	41923.68
548.84	41771.54
549.01	41996.23
549.18	41790.27
549.34	41858.14
549.51	41977.51
549.68	42672.65
549.84	42103.90
550.01	42036.02
550.18	42078.15
550.34	42368.38
550.51	42066.45
550.68	42211.56
550.84	41937.72
551.01	42490.09
551.18	42265.39
551.34	42103.90
551.51	42658.60
551.68	42370.72
551.84	42321.57
552.01	42607.11
552.18	42497.11
552.34	41706.01
552.51	42480.72
552.68	42618.81
552.84	42541.58
553.01	42983.94
553.18	42569.66
553.34	42677.33
553.51	42337.95
553.67	42265.39
553.84	42773.29
554.01	42892.66
554.17	43000.32
554.34	43234.38
554.51	42864.57
554.67	43203.95
554.84	43171.18
555.00	42740.52
555.17	42667.97
555.33	42979.26
555.50	42965.21
555.67	42639.88
555.83	43005.00
556.00	43763.34
556.16	43384.17
556.33	43051.81
556.50	42841.17
556.66	43297.57
556.83	42719.46
556.99	43077.56
557.16	43578.43
557.32	43012.02
557.49	43454.39
557.65	42927.77
557.82	43021.39
557.98	43365.45
558.15	43423.96
558.32	43070.54
558.48	43150.12
558.65	42944.15
558.81	43234.38
558.98	43482.47
559.14	43323.32
559.31	43538.65
559.47	43267.14
559.64	43526.94
559.80	44098.03
559.97	43674.40
560.13	43447.36
560.30	43552.69
560.46	43412.26
560.63	43309.27
560.79	43463.75
560.96	43840.57
561.12	43299.91
561.29	43725.89
561.45	43861.64
561.61	43676.74
561.78	43758.66
561.94	43454.39
562.11	44252.51
562.27	44278.25
562.44	43555.03
562.60	43728.23
562.77	43854.62
562.93	43997.39
563.10	44304.00
563.26	43697.80
563.42	44210.38
563.59	43681.42
563.75	44135.48
563.92	43786.74
564.08	43966.96
564.24	44264.21
564.41	44261.87
564.57	43653.33
564.74	44051.22
564.90	43679.08
565.07	44332.09
565.23	44327.41
565.39	44154.21
565.56	44072.29
565.72	43791.42
565.88	44194.00
566.05	43999.73
566.21	44018.46
566.38	43903.77
566.54	44343.79
566.70	44439.75
566.87	44568.48
567.03	43936.54
567.19	44711.25
567.36	43957.60
567.52	44215.06
567.68	44580.18
567.85	43903.77
568.01	44194.00
568.17	44102.71
568.34	44322.72
568.50	44430.39
568.66	44245.49
568.83	44367.20
568.99	43880.36
569.15	44088.67
569.32	43742.27
569.48	44449.11
569.64	44479.54
569.81	44755.72
569.97	44687.85
570.13	44376.56
570.30	44058.24
570.46	44418.69
570.62	44095.69
570.78	43826.53
570.95	44161.23
571.11	44474.86
571.27	44346.13
571.43	44610.61
571.60	44568.48
571.76	44182.29
571.92	44191.65
572.09	44350.81
572.25	44524.01
572.41	44009.09
572.57	44624.65
572.74	44847.00
572.90	44575.50
573.06	44949.99
573.22	44203.36
573.38	44596.57
573.55	43995.05
573.71	44292.30
573.87	44531.03
574.03	44603.59
574.20	44301.66
574.36	44388.26
574.52	44619.97
574.68	44222.08
574.84	44488.90
575.01	44341.45
575.17	44273.57
575.33	44037.18
575.49	44201.02
575.65	44893.82
575.82	44971.05
575.98	44495.92
576.14	44776.79
576.30	44444.43
576.46	44278.25
576.62	44259.53
576.79	44341.45
576.95	43941.22
577.11	44514.65
577.27	44626.99
577.43	44659.76
577.59	44631.68
577.75	44596.57
577.92	44250.17
578.08	44247.83
578.24	44098.03
578.40	44493.58
578.56	44446.77
578.72	44465.50
578.88	44781.47
579.04	45064.67
579.21	44608.27
579.37	44570.82
579.53	44655.08
579.69	44472.52
579.85	44755.72
580.01	44163.57
580.17	44402.30
580.33	44657.42
580.49	44652.74
580.65	44795.51
580.82	44861.05
580.98	44210.38
581.14	44552.10
581.30	44755.72
581.46	44697.21
581.62	44949.99
581.78	44694.87
581.94	45085.74
582.10	44428.05
582.26	44573.16
582.42	44692.53
582.58	45155.96
582.74	45022.54
582.90	44718.28
583.06	44945.31
583.22	45022.54
583.38	45233.19
583.54	45041.27
583.70	44811.90
583.86	44744.02
584.02	44552.10
584.18	44687.85
584.34	45055.31
584.50	44650.40
584.66	44821.26
584.82	44612.95
584.98	45013.18
585.14	44863.39
585.30	44783.81
585.46	45125.53
585.62	44552.10
585.78	44814.24
585.94	44322.72
586.10	44144.84
586.26	44371.88
586.42	45174.68
586.58	44769.77
586.74	45146.59
586.90	44495.92
587.06	44219.74
587.22	44685.51
587.38	44360.17
587.54	45109.14
587.70	44926.58
587.86	44949.99
588.02	44835.30
588.18	45134.89
588.34	44818.92
588.49	44285.28
588.65	44264.21
588.81	44453.79
588.97	44540.39
589.13	44493.58
589.29	44914.88
589.45	44556.78
589.61	44594.23
589.77	45216.81
589.93	44732.32
590.08	44933.60
590.24	44971.05
