SpectraSuite Data File
++++++++++++++++++++++++++++++++++++
Date: Fri Oct 25 11:23:11 EDT 2013
User: price-jones
Dark Spectrum Present: No
Reference Spectrum Present: No
Number of Sampled Component Spectra: 1
Spectrometers: USB2+H05261
Integration Time (usec): 100000 (USB2+H05261)
Spectra Averaged: 1 (USB2+H05261)
Boxcar Smoothing: 0 (USB2+H05261)
Correct for Electrical Dark: No (USB2+H05261)
Strobe/Lamp Enabled: No (USB2+H05261)
Correct for Detector Non-linearity: No (USB2+H05261)
Correct for Stray Light: No (USB2+H05261)
Number of Pixels in Processed Spectrum: 2048
>>>>>Begin Processed Spectral Data<<<<<
365.73	252.78
365.92	252.78
366.12	252.78
366.32	86.60
366.52	140.43
366.72	131.07
366.91	161.50
367.11	173.20
367.31	107.66
367.51	145.11
367.70	168.52
367.90	168.52
368.10	147.45
368.30	142.77
368.49	93.62
368.69	154.48
368.89	159.16
369.09	154.48
369.28	173.20
369.48	138.09
369.68	187.24
369.87	276.18
370.07	156.82
370.27	168.52
370.47	325.33
370.66	557.05
370.86	580.45
371.06	704.50
371.25	669.39
371.45	695.14
371.65	723.23
371.84	685.78
372.04	564.07
372.24	753.65
372.44	718.54
372.63	699.82
372.83	763.01
373.03	746.63
373.22	723.23
373.42	770.04
373.62	798.12
373.81	704.50
374.01	730.25
374.21	816.85
374.40	643.65
374.60	770.04
374.79	755.99
374.99	882.38
375.19	833.23
375.38	837.91
375.58	851.96
375.78	905.79
375.97	858.98
376.17	826.21
376.37	954.94
376.56	968.98
376.76	903.45
376.95	891.74
377.15	929.19
377.35	821.53
377.54	999.41
377.74	905.79
377.93	854.30
378.13	866.00
378.33	964.30
378.52	912.81
378.72	1006.43
378.91	987.71
379.11	894.08
379.31	1006.43
379.50	947.92
379.70	844.93
379.89	1006.43
380.09	1006.43
380.28	905.79
380.48	973.66
380.68	966.64
380.87	987.71
381.07	1013.45
381.26	976.00
381.46	1041.54
381.65	924.51
381.85	1020.47
382.04	1055.58
382.24	1027.50
382.43	1156.22
382.63	1008.77
382.83	1076.65
383.02	1116.44
383.22	1144.52
383.41	1086.01
383.61	1109.41
383.80	1074.31
384.00	1128.14
384.19	1121.12
384.39	1174.95
384.58	1074.31
384.78	1156.22
384.97	1221.76
385.17	1071.97
385.36	1144.52
385.56	1205.38
385.75	1198.35
385.95	1167.93
386.14	1242.82
386.34	1191.33
386.53	1212.40
386.72	1118.78
386.92	1296.66
387.11	1280.27
387.31	1158.57
387.50	1245.16
387.70	1324.74
387.89	1287.29
388.09	1125.80
388.28	1284.95
388.48	1238.14
388.67	1221.76
388.86	1324.74
389.06	1355.17
389.25	1359.85
389.45	1324.74
389.64	1331.76
389.84	1369.21
390.03	1355.17
390.22	1387.94
390.42	1413.68
390.61	1385.60
390.81	1324.74
391.00	1383.26
391.19	1423.05
391.39	1530.71
391.58	1420.71
391.78	1390.28
391.97	1500.28
392.16	1504.96
392.36	1509.65
392.55	1579.86
392.75	1519.01
392.94	1467.52
393.13	1500.28
393.33	1528.37
393.52	1542.41
393.71	1526.03
393.91	1596.25
394.10	1561.14
394.29	1643.06
394.49	1654.76
394.68	1589.22
394.88	1643.06
395.07	1703.91
395.26	1661.78
395.46	1706.25
395.65	1682.85
395.84	1788.17
396.04	1706.25
396.23	1659.44
396.42	1783.49
396.62	1860.73
396.81	1797.53
397.00	1760.08
397.19	1804.55
397.39	1776.47
397.58	1795.19
397.77	1799.87
397.97	1832.64
398.16	1827.96
398.35	1928.60
398.55	1771.79
398.74	1916.90
398.93	2026.90
399.12	2008.18
399.32	1881.79
399.51	1907.54
399.70	2022.22
399.90	1996.48
400.09	1989.46
400.28	2038.61
400.47	2085.42
400.67	2083.08
400.86	2129.89
401.05	2050.31
401.24	2012.86
401.44	2146.27
401.63	2127.55
401.82	2193.08
402.01	2209.47
402.21	2260.96
402.40	2235.21
402.59	2179.04
402.78	2256.28
402.97	2317.13
403.17	2214.15
403.36	2211.81
403.55	2335.85
403.74	2436.50
403.93	2305.43
404.13	2382.67
404.32	2457.56
404.51	2342.88
404.70	2427.14
404.89	2389.69
405.09	2534.80
405.28	2448.20
405.47	2464.58
405.66	2616.72
405.85	2672.89
406.05	2605.02
406.24	2509.05
406.43	2595.65
406.62	2586.29
406.81	2583.95
407.00	2661.19
407.20	2530.12
407.39	2698.64
407.58	2794.60
407.77	2827.37
407.96	2822.69
408.15	2869.50
408.34	2832.05
408.54	2869.50
408.73	2827.37
408.92	2932.69
409.11	2888.22
409.30	3014.61
409.49	2944.39
409.68	2991.20
409.87	3014.61
410.07	3007.59
410.26	3002.91
410.45	2956.10
410.64	3129.30
410.83	3141.00
411.02	3131.64
411.21	3131.64
411.40	3234.62
411.59	3241.64
411.78	3084.83
411.98	3229.94
412.17	3295.47
412.36	3229.94
412.55	3407.82
412.74	3463.99
412.93	3382.07
413.12	3396.12
413.31	3506.12
413.50	3667.62
413.69	3536.55
413.88	3637.19
414.07	3559.95
414.26	3672.30
414.45	3740.18
414.64	3662.94
414.83	3733.15
415.02	3784.65
415.22	3803.37
415.41	3901.67
415.60	3946.14
415.79	3843.16
415.98	3918.06
416.17	3974.23
416.36	3854.86
416.55	3899.33
416.74	4133.39
416.93	4056.15
417.12	4189.56
417.31	4325.31
417.50	4229.35
417.69	4301.90
417.88	4325.31
418.07	4264.46
418.26	4313.61
418.45	4332.33
418.64	4571.07
418.83	4234.03
419.02	4425.95
419.21	4592.13
419.39	4599.15
419.58	4622.56
419.77	4507.87
419.96	4767.67
420.15	4580.43
420.34	4571.07
420.53	4723.20
420.72	4711.50
420.91	4725.54
421.10	4884.70
421.29	4781.71
421.48	4739.58
421.67	4779.37
421.86	4865.97
422.05	4849.59
422.24	4882.36
422.43	4704.48
422.61	5022.79
422.80	5050.88
422.99	5067.26
423.18	5125.77
423.37	4992.36
423.56	4973.64
423.75	5027.47
423.94	5060.24
424.13	4634.26
424.32	4786.40
424.50	5018.11
424.69	5146.84
424.88	5111.73
425.07	5050.88
425.26	4971.30
425.45	5060.24
425.64	5025.13
425.83	5032.15
426.01	4983.00
426.20	5083.64
426.39	5048.54
426.58	5128.11
426.77	5081.30
426.96	5217.05
427.15	5114.07
427.33	5273.23
427.52	5296.63
427.71	5432.38
427.90	5235.78
428.09	5467.49
428.28	5455.79
428.46	5408.98
428.65	5366.85
428.84	5502.60
429.03	5596.22
429.22	5430.04
429.40	5647.71
429.59	5565.79
429.78	5310.68
429.97	5249.82
430.16	5547.07
430.34	5493.24
430.53	5767.08
430.72	5652.39
430.91	5778.78
431.10	5706.23
431.28	5851.34
431.47	5764.74
431.66	5991.77
431.85	5884.11
432.03	5806.87
432.22	6003.47
432.41	5973.05
432.60	5905.17
432.79	5930.92
432.97	6059.65
433.16	5984.75
433.35	6099.44
433.54	6085.39
433.72	6162.63
433.91	6141.57
434.10	6249.23
434.28	6211.78
434.47	6321.79
434.66	6377.96
434.85	6417.75
435.03	6558.18
435.22	6249.23
435.41	6293.70
435.59	6279.66
435.78	6539.46
435.97	6574.56
436.16	6665.85
436.34	6530.09
436.53	6581.59
436.72	6539.46
436.90	6593.29
437.09	6553.50
437.28	6626.06
437.46	6651.80
437.65	6827.34
437.84	6808.62
438.02	6778.19
438.21	7089.48
438.40	6649.46
438.58	6977.14
438.77	7258.00
438.96	7037.99
439.14	7164.38
439.33	7105.87
439.52	7258.00
439.70	7328.22
439.89	7536.52
440.08	7473.33
440.26	7445.24
440.45	7466.31
440.63	7510.78
440.82	7723.77
441.01	7536.52
441.19	7620.78
441.38	7913.35
441.57	7864.20
441.75	7882.92
441.94	8194.22
442.12	8262.09
442.31	8332.31
442.50	7990.59
442.68	7988.25
442.87	8131.02
443.05	8264.43
443.24	8423.59
443.43	8168.47
443.61	8299.54
443.80	8547.64
443.98	8203.58
444.17	7882.92
444.35	8524.23
444.54	8152.09
444.73	8262.09
444.91	8290.18
445.10	8332.31
445.28	8468.06
445.47	8482.10
445.65	8500.83
445.84	8472.74
446.02	8486.78
446.21	8404.86
446.39	8386.14
446.58	8767.65
446.77	8542.96
446.95	8332.31
447.14	8559.34
447.32	8655.30
447.51	8786.37
447.69	8692.75
447.88	8786.37
448.06	8676.37
448.25	8617.85
448.43	8486.78
448.62	8816.80
448.80	8709.13
448.99	8889.35
449.17	8802.75
449.36	8746.58
449.54	9078.94
449.73	9071.92
449.91	9111.71
450.10	8966.59
450.28	9320.01
450.46	9083.62
450.65	9441.72
450.83	9076.60
451.02	9289.59
451.20	9364.48
451.39	9308.31
451.57	9268.52
451.76	9158.52
451.94	9282.56
452.13	9467.47
452.31	9322.35
452.49	9324.69
452.68	9502.58
452.86	9493.21
453.05	9568.11
453.23	9614.92
453.42	9376.19
453.60	9371.50
453.78	9540.02
453.97	9544.70
454.15	9638.33
454.34	9558.75
454.52	9877.06
454.70	9764.72
454.89	9937.91
455.07	9841.95
455.26	9795.14
455.44	9848.97
455.62	10078.35
455.81	10029.20
455.99	10108.77
456.17	10076.01
456.36	10249.21
456.54	10333.47
456.73	10153.24
456.91	10443.47
457.09	10462.19
457.28	10640.08
457.46	10483.26
457.64	10775.83
457.83	10581.56
458.01	10651.78
458.19	10895.19
458.38	10864.77
458.56	11147.97
458.74	10668.16
458.93	10810.93
459.11	10658.80
459.29	10906.90
459.48	11005.20
459.66	11215.85
459.84	10787.53
460.03	11211.17
460.21	11091.80
460.39	11438.20
460.57	10986.47
460.76	11485.01
460.94	11508.41
461.12	11185.42
461.31	11260.32
461.49	11363.30
461.67	11171.38
461.85	11747.15
462.04	11318.83
462.22	11906.31
462.40	11772.89
462.59	11559.91
462.77	11632.46
462.95	11875.88
463.13	11548.20
463.32	11578.63
463.50	11850.13
463.68	11922.69
463.86	11918.01
464.05	11812.68
464.23	11943.75
464.41	12063.12
464.59	11749.49
464.78	12196.53
464.96	12098.23
465.14	11800.98
465.32	12196.53
465.50	12393.14
465.69	12180.15
465.87	12203.55
466.05	12100.57
466.23	12250.36
466.41	12517.18
466.60	12608.47
466.78	12233.98
466.96	12360.37
467.14	12491.44
467.32	12582.72
467.51	12837.84
467.69	12252.70
467.87	12678.68
468.05	12748.90
468.23	12339.30
468.41	12566.34
468.60	12786.35
468.78	12912.74
468.96	12849.54
469.14	13102.32
469.32	13078.91
469.50	12961.89
469.69	13167.85
469.87	13261.48
470.05	13254.45
470.23	13327.01
470.41	13289.56
470.59	13572.77
470.77	13146.79
470.95	13415.95
471.14	13752.99
471.32	13277.86
471.50	13579.79
471.68	13872.36
471.86	13757.67
472.04	14047.90
472.22	14026.83
472.40	13830.23
472.58	14052.58
472.77	14274.93
472.95	14312.38
473.13	14773.46
473.31	14190.67
473.49	14132.15
473.67	14375.57
473.85	14450.47
474.03	14965.39
474.21	14747.72
474.39	14909.21
474.57	14728.99
474.75	14824.95
474.93	15342.21
475.12	15295.40
475.30	15445.20
475.48	15421.79
475.66	15386.68
475.84	15140.93
476.02	15557.54
476.20	15377.32
476.38	16025.65
476.56	16058.42
476.74	16044.37
476.92	15971.82
477.10	16067.78
477.28	16306.51
477.46	16500.78
477.64	16442.26
477.82	16851.86
478.00	17399.54
478.18	17020.38
478.36	17109.32
478.54	17591.47
478.72	17530.61
478.90	17364.43
479.08	17532.95
479.26	17949.57
479.44	17767.01
479.62	17888.71
479.80	18216.39
479.98	18410.65
480.16	18986.43
480.34	18492.57
480.52	18595.56
480.70	18876.42
480.88	18640.03
481.06	19007.49
481.24	18899.83
481.41	19082.39
481.59	19742.42
481.77	20133.29
481.95	19901.58
482.13	20039.67
482.31	19950.73
482.49	20496.07
482.67	20388.41
482.85	20664.59
483.03	20772.25
483.21	21254.40
483.39	21132.70
483.57	21359.73
483.74	21275.47
483.92	21671.02
484.10	21434.63
484.28	21942.52
484.46	22445.74
484.64	22113.38
484.82	22127.42
485.00	22403.61
485.18	23353.87
485.35	23515.36
485.53	23143.22
485.71	23213.43
485.89	23936.66
486.07	23885.17
486.25	23658.14
486.43	24142.63
486.61	24278.38
486.78	24009.22
486.96	24290.08
487.14	24563.92
487.32	24858.83
487.50	25053.09
487.68	25319.92
487.85	25579.71
488.03	25661.63
488.21	26038.46
488.39	26319.32
488.57	26663.38
488.75	26471.46
488.92	26883.39
489.10	27185.32
489.28	27035.53
489.46	27775.14
489.64	27601.94
489.81	27690.88
489.99	28245.58
490.17	28252.61
490.35	28442.19
490.53	28704.33
490.70	29060.09
490.88	28868.17
491.06	29083.50
491.24	29333.93
491.41	29340.96
491.59	29429.90
491.77	29455.64
491.95	29804.38
492.13	29984.60
492.30	30134.40
492.48	30242.06
492.66	30403.56
492.84	30696.13
493.01	31089.34
493.19	30691.44
493.37	31316.37
493.54	31512.97
493.72	31873.42
493.90	31955.33
494.08	32018.53
494.25	32215.13
494.43	32261.94
494.61	32865.80
494.79	32732.39
494.96	32694.94
495.14	33029.64
495.32	33317.53
495.49	33769.25
495.67	33486.04
495.85	33500.09
496.02	34227.99
496.20	34773.34
496.38	34754.61
496.55	34583.76
496.73	35246.13
496.91	34782.70
497.09	35196.98
497.26	35402.94
497.44	35276.55
497.62	35587.85
497.79	36177.66
497.97	36070.00
498.14	36388.31
498.32	36414.05
498.50	36886.84
498.67	37097.49
498.85	36753.43
499.03	37258.99
499.20	37214.52
499.38	37240.26
499.56	37579.64
499.73	38141.37
499.91	37607.73
500.08	37963.49
500.26	37926.04
500.44	38492.45
500.61	38326.27
500.79	38333.29
500.97	38169.46
501.14	39290.57
501.32	39152.48
501.49	39487.18
501.67	39428.66
501.84	39372.49
502.02	39089.29
502.20	39515.26
502.37	39636.97
502.55	39721.23
502.72	40030.18
502.90	40013.80
503.07	39899.11
503.25	40341.47
503.43	40037.20
503.60	40531.06
503.78	40699.58
503.95	40404.67
504.13	41205.13
504.30	40987.46
504.48	40978.10
504.65	41158.32
504.83	41607.70
505.01	41909.63
505.18	41467.27
505.36	42014.96
505.53	41799.63
505.71	42050.06
505.88	42115.60
506.06	41883.89
506.23	42405.83
506.41	42244.33
506.58	42777.97
506.76	42490.09
506.93	42724.14
507.11	42667.97
507.28	42703.07
507.46	42897.34
507.63	43519.92
507.81	43477.79
507.98	43269.48
508.16	43459.07
508.33	44002.07
508.50	43800.79
508.68	44250.17
508.85	44257.19
509.03	44025.48
509.20	44729.98
509.38	44610.61
509.55	44650.40
509.73	45137.23
509.90	45088.08
510.08	45031.91
510.25	45275.32
510.42	45209.79
510.60	45815.99
510.77	45865.14
510.95	46155.36
511.12	45619.38
511.30	45268.30
511.47	46087.49
511.64	45977.48
511.82	46108.55
511.99	45947.06
512.17	46368.35
512.34	46230.26
512.51	46829.44
512.69	47047.11
512.86	46770.93
513.04	47012.00
513.21	47217.97
513.38	47262.44
513.56	48006.73
513.73	46897.31
513.90	47405.21
514.08	47320.95
514.25	47618.20
514.43	47943.53
514.60	48116.73
514.77	47800.76
514.95	48121.41
515.12	47950.56
515.29	47840.55
515.47	48697.19
515.64	48575.48
515.81	48250.14
515.99	48531.01
516.16	48779.10
516.33	49165.29
516.51	49179.34
516.68	48706.55
516.85	49191.04
517.03	49237.85
517.20	49127.84
517.37	49308.07
517.54	49481.27
517.72	49588.93
517.89	49378.28
518.06	49741.06
518.24	49408.71
518.41	49811.28
518.58	49851.07
518.75	49794.90
518.93	50038.31
519.10	50073.42
519.27	50153.00
519.45	50143.64
519.62	50342.58
519.79	50518.12
519.96	50408.12
520.14	50429.18
520.31	50459.61
520.48	50817.71
520.65	50621.11
520.83	51187.52
521.00	51299.86
521.17	51140.71
521.34	51079.85
521.52	50937.08
521.69	51168.79
521.86	51604.13
522.03	51503.49
522.20	51714.14
522.38	51987.98
522.55	51608.81
522.72	51634.56
522.89	51931.81
523.07	52222.03
523.24	52207.99
523.41	52067.56
523.58	51669.67
523.75	52327.36
523.92	52142.45
524.10	52617.58
524.27	52385.87
524.44	52463.11
524.61	52612.90
524.78	52559.07
524.96	52566.09
525.13	52509.92
525.30	52760.36
525.47	52903.13
525.64	52774.40
525.81	53048.24
525.98	52963.98
526.16	52924.19
526.33	52861.00
526.50	53207.40
526.67	53240.17
526.84	53261.23
527.01	53263.57
527.18	53420.39
527.36	53263.57
527.53	53593.59
527.70	53876.79
527.87	53811.26
528.04	53399.32
528.21	53712.95
528.38	53645.08
528.55	53916.58
528.72	53801.89
528.89	54085.10
529.07	53975.09
529.24	53736.36
529.41	54024.25
529.58	54120.21
529.75	54054.67
529.92	54000.84
530.09	54330.86
530.26	54281.70
530.43	54394.05
530.60	54408.09
530.77	54262.98
530.94	54384.69
531.11	54410.43
531.28	54621.08
531.46	54358.94
531.63	54710.02
531.80	54642.15
531.97	54927.69
532.14	54899.61
532.31	55065.78
532.48	54920.67
532.65	55121.96
532.82	54808.32
532.99	54937.05
533.16	54988.55
533.33	55143.02
533.50	55447.29
533.67	55236.64
533.84	54988.55
534.01	55313.88
534.18	55025.99
534.35	55716.45
534.52	55398.14
534.69	55533.89
534.86	55519.85
535.03	55248.35
535.20	55660.28
535.37	55402.82
535.54	55466.02
535.71	55444.95
535.88	55807.73
536.05	55606.45
536.22	55899.01
536.38	55852.20
536.55	56046.47
536.72	55938.80
536.89	55863.91
537.06	55950.51
537.23	55966.89
537.40	55983.27
537.57	56257.12
537.74	56257.12
537.91	56018.38
538.08	56226.69
538.25	55962.21
538.42	56207.97
538.59	56470.11
538.75	56271.16
538.92	56264.14
539.09	56633.94
539.26	56413.93
539.43	56432.66
539.60	56498.19
539.77	56575.43
539.94	56685.43
540.11	56629.26
540.28	56587.13
540.44	56973.32
540.61	56825.87
540.78	56781.40
540.95	56872.68
541.12	56898.42
541.29	56755.65
541.46	56722.88
541.62	56896.08
541.79	57041.20
541.96	56631.60
542.13	56849.27
542.30	57006.09
542.47	56921.83
542.63	57146.52
542.80	57097.37
542.97	57614.63
543.14	57439.09
543.31	57492.92
543.48	57584.20
543.64	57605.26
543.81	57855.70
543.98	57638.03
544.15	57586.54
544.32	57738.68
544.48	57946.98
544.65	57729.31
544.82	57736.34
544.99	57406.32
545.16	57841.66
545.32	57726.97
545.49	57963.37
545.66	58129.54
545.83	57834.64
546.00	57975.07
546.16	57909.53
546.33	57949.32
546.50	57902.51
546.67	58124.86
546.83	57642.71
547.00	58101.46
547.17	58148.27
547.34	58007.84
547.50	58216.14
547.67	58232.53
547.84	58185.72
548.00	58508.71
548.17	58719.36
548.34	58590.63
548.51	58571.91
548.67	58527.44
548.84	58644.46
549.01	58471.26
549.18	58422.11
549.34	58585.95
549.51	58571.91
549.68	58569.57
549.84	58499.35
550.01	58632.76
550.18	58674.89
550.34	58885.54
550.51	58857.45
550.68	58969.80
550.84	58443.18
551.01	58918.31
551.18	58763.83
551.34	58969.80
551.51	59004.91
551.68	58862.13
551.84	59044.69
552.01	58557.86
552.18	59044.69
552.34	58883.20
552.51	59194.49
552.68	58721.70
552.84	58995.54
553.01	59337.26
553.18	59089.16
553.34	59152.36
553.51	58972.14
553.67	59264.70
553.84	59234.28
554.01	59477.69
554.17	59325.56
554.34	59243.64
554.51	59260.02
554.67	59299.81
554.84	59302.15
555.00	59470.67
555.17	59077.46
555.33	59327.90
555.50	59292.79
555.67	59082.14
555.83	59395.77
556.00	59313.86
556.16	59737.49
556.33	59601.74
556.50	59618.13
556.66	59751.54
556.83	59414.50
556.99	59707.07
557.16	59770.26
557.32	59758.56
557.49	60004.31
557.65	59632.17
557.82	59686.00
557.98	59728.13
558.15	59784.30
558.32	59683.66
558.48	59676.64
558.65	59831.11
558.81	59709.41
558.98	59840.48
559.14	60013.68
559.31	60154.11
559.47	59999.63
559.64	60142.41
559.80	60065.17
559.97	60135.38
560.13	59875.58
560.30	59983.25
560.46	59990.27
560.63	60090.91
560.79	60051.12
560.96	60331.99
561.12	60128.36
561.29	60060.49
561.45	60079.21
561.61	60231.35
561.78	60151.77
561.94	60339.01
562.11	60140.07
562.27	60032.40
562.44	60186.88
562.60	60243.05
562.77	60350.71
562.93	60114.32
563.10	60088.57
563.26	60233.69
563.42	60561.36
563.59	60266.45
563.75	60214.96
563.92	60275.82
564.08	60177.51
564.24	60647.96
564.41	60416.25
564.57	60453.70
564.74	60591.79
564.90	60355.39
565.07	60369.44
565.23	60275.82
565.39	60568.38
565.56	60521.57
565.72	60587.11
565.88	60502.85
566.05	60406.89
566.21	60357.74
566.38	60378.80
566.54	60432.63
566.70	60432.63
566.87	60671.37
567.03	60404.55
567.19	60582.43
567.36	60629.24
567.52	60615.19
567.68	60839.89
567.85	60580.09
568.01	60867.97
568.17	60657.32
568.34	60825.84
568.50	60624.56
568.66	60547.32
568.83	60530.93
568.99	60519.23
569.15	60638.60
569.32	60697.11
569.48	60631.58
569.64	60727.54
569.81	60687.75
569.97	60666.69
570.13	60781.37
570.30	60652.64
570.46	60795.42
570.62	60999.04
570.78	60844.57
570.95	60666.69
571.11	60977.98
571.27	60863.29
571.43	60816.48
571.60	60849.25
571.76	60640.94
571.92	60856.27
572.09	60828.18
572.25	60823.50
572.41	60849.25
572.57	60718.18
572.74	61132.45
572.90	60830.52
573.06	61015.43
573.22	60743.92
573.38	60837.54
573.55	60973.30
573.71	61144.16
573.87	61055.21
574.03	60692.43
574.20	60874.99
574.36	60786.05
574.52	60860.95
574.68	61083.30
574.84	61031.81
575.01	61031.81
575.17	60924.14
575.33	60985.00
575.49	60912.44
575.65	61151.18
575.82	61104.37
575.98	61015.43
576.14	61202.67
576.30	61193.31
576.46	60896.06
576.62	60807.12
576.79	60966.27
576.95	60992.02
577.11	60954.57
577.27	61237.78
577.43	61036.49
577.59	60825.84
577.75	61240.12
577.92	60968.61
578.08	61125.43
578.24	61186.28
578.40	61176.92
578.56	61263.52
578.72	61003.72
578.88	61146.50
579.04	61006.06
579.21	61155.86
579.37	61109.05
579.53	61205.01
579.69	60776.69
579.85	61099.68
580.01	61111.39
580.17	61193.31
580.33	61265.86
580.49	61247.14
580.65	61144.16
580.82	61076.28
580.98	61195.65
581.14	61095.00
581.30	61385.23
581.46	61160.54
581.62	61242.46
581.78	61144.16
581.94	61312.67
582.10	61209.69
582.26	61235.44
582.42	61066.92
582.58	61216.71
582.74	61087.98
582.90	61212.03
583.06	61127.77
583.22	60966.27
583.38	61359.48
583.54	61317.35
583.70	61371.19
583.86	61373.53
584.02	61183.94
584.18	61261.18
584.34	61216.71
584.50	61193.31
584.66	61207.35
584.82	61034.15
584.98	61375.87
585.14	61324.38
585.30	61190.97
585.46	61375.87
585.62	61237.78
585.78	61446.08
585.94	61176.92
586.10	61291.61
586.26	61427.36
586.42	61350.12
586.58	61656.73
586.74	61324.38
586.90	61338.42
587.06	61258.84
587.22	61357.14
587.38	61256.50
587.54	61378.21
587.70	61588.86
587.86	61336.08
588.02	61179.26
588.18	61371.19
588.34	61289.27
