SpectraSuite Data File
++++++++++++++++++++++++++++++++++++
Date: Fri Oct 25 10:43:54 EDT 2013
User: price-jones
Dark Spectrum Present: No
Reference Spectrum Present: No
Number of Sampled Component Spectra: 1
Spectrometers: USB2+H05261
Integration Time (usec): 100000 (USB2+H05261)
Spectra Averaged: 1 (USB2+H05261)
Boxcar Smoothing: 0 (USB2+H05261)
Correct for Electrical Dark: No (USB2+H05261)
Strobe/Lamp Enabled: No (USB2+H05261)
Correct for Detector Non-linearity: No (USB2+H05261)
Correct for Stray Light: No (USB2+H05261)
Number of Pixels in Processed Spectrum: 2048
>>>>>Begin Processed Spectral Data<<<<<
365.73	86.60
365.92	86.60
366.12	86.60
366.32	9.36
366.52	7.02
366.72	18.72
366.91	14.04
367.11	23.41
367.31	72.56
367.51	53.83
367.70	28.09
367.90	67.88
368.10	0.00
368.30	4.68
368.49	46.81
368.69	72.56
368.89	23.41
369.09	11.70
369.28	32.77
369.48	63.19
369.68	74.90
369.87	70.22
370.07	91.28
370.27	102.98
370.47	173.20
370.66	379.17
370.86	514.92
371.06	447.04
371.25	545.34
371.45	477.47
371.65	472.79
371.84	514.92
372.04	493.85
372.24	463.43
372.44	498.53
372.63	411.93
372.83	587.47
373.03	491.51
373.22	475.13
373.42	526.62
373.62	578.11
373.81	475.13
374.01	568.75
374.21	500.87
374.40	531.30
374.60	540.66
374.79	503.22
374.99	655.35
375.19	589.82
375.38	638.97
375.58	648.33
375.78	606.20
375.97	660.03
376.17	641.31
376.37	587.47
376.56	645.99
376.76	650.67
376.95	683.44
377.15	641.31
377.35	650.67
377.54	664.71
377.74	688.12
377.93	695.14
378.13	655.35
378.33	624.92
378.52	674.07
378.72	674.07
378.91	753.65
379.11	695.14
379.31	662.37
379.50	655.35
379.70	653.01
379.89	662.37
380.09	631.94
380.28	610.88
380.48	725.57
380.68	699.82
380.87	765.36
381.07	793.44
381.26	741.95
381.46	678.76
381.65	718.54
381.85	744.29
382.04	765.36
382.24	674.07
382.43	706.84
382.63	777.06
382.83	744.29
383.02	784.08
383.22	826.21
383.41	727.91
383.61	755.99
383.80	765.36
384.00	777.06
384.19	798.12
384.39	868.34
384.58	880.04
384.78	758.33
384.97	856.64
385.17	814.51
385.36	861.32
385.56	793.44
385.75	732.59
385.95	760.67
386.14	924.51
386.34	875.36
386.53	896.43
386.72	861.32
386.92	919.83
387.11	924.51
387.31	901.11
387.50	908.13
387.70	926.85
387.89	966.64
388.09	929.19
388.28	950.26
388.48	795.78
388.67	1039.20
388.86	929.19
389.06	1039.20
389.25	1046.22
389.45	1102.39
389.64	987.71
389.84	1062.60
390.03	1039.20
390.22	992.39
390.42	997.07
390.61	1100.05
390.81	1057.92
391.00	1071.97
391.19	1123.46
391.39	1062.60
391.58	1071.97
391.78	1083.67
391.97	1053.24
392.16	1151.54
392.36	1081.33
392.55	1090.69
392.75	976.00
392.94	1034.52
393.13	980.68
393.33	968.98
393.52	1139.84
393.71	1100.05
393.91	1067.28
394.10	1184.31
394.29	1219.42
394.49	1214.74
394.68	1327.08
394.88	1313.04
395.07	1249.85
395.26	1259.21
395.46	1270.91
395.65	1352.83
395.84	1226.44
396.04	1226.44
396.23	1142.18
396.42	1196.01
396.62	1137.50
396.81	1177.29
397.00	1238.14
397.19	1259.21
397.39	1439.43
397.58	1420.71
397.77	1481.56
397.97	1467.52
398.16	1535.39
398.35	1483.90
398.55	1659.44
398.74	1565.82
398.93	1542.41
399.12	1661.78
399.32	1544.75
399.51	1472.20
399.70	1647.74
399.90	1561.14
400.09	1626.67
400.28	1638.38
400.47	1732.00
400.67	1806.89
400.86	1739.02
401.05	1788.17
401.24	1689.87
401.44	1727.32
401.63	1853.70
401.82	1839.66
402.01	1774.13
402.21	1832.64
402.40	1781.15
402.59	1811.57
402.78	1961.37
402.97	1804.55
403.17	1926.26
403.36	1856.04
403.55	1795.19
403.74	1930.94
403.93	2001.16
404.13	2026.90
404.32	1956.69
404.51	2005.84
404.70	2047.97
404.89	1980.09
405.09	1998.82
405.28	1975.41
405.47	2069.03
405.66	2078.40
405.85	2134.57
406.05	2153.29
406.24	2071.37
406.43	2080.74
406.62	2172.02
406.81	2279.68
407.00	2214.15
407.20	2249.25
407.39	2120.53
407.58	2303.09
407.77	2286.70
407.96	2296.07
408.15	2279.68
408.34	2300.75
408.54	2366.28
408.73	2399.05
408.92	2382.67
409.11	2413.09
409.30	2546.50
409.49	2373.30
409.68	2321.81
409.87	2394.37
410.07	2504.37
410.26	2530.12
410.45	2619.06
410.64	2532.46
410.83	2431.82
411.02	2621.40
411.21	2722.04
411.40	2796.94
411.59	2778.22
411.78	2689.28
411.98	2801.62
412.17	2822.69
412.36	2794.60
412.55	2892.90
412.74	2874.18
412.93	2970.14
413.12	2862.48
413.31	2991.20
413.50	2918.65
413.69	3012.27
413.88	3068.44
414.07	3045.04
414.26	3091.85
414.45	3056.74
414.64	3166.74
414.83	3110.57
415.02	3293.13
415.22	3243.98
415.41	3199.51
415.60	3372.71
415.79	3260.37
415.98	3552.93
416.17	3410.16
416.36	3463.99
416.55	3403.14
416.74	3405.48
416.93	3356.33
417.12	3344.63
417.31	3468.67
417.50	3566.98
417.69	3684.00
417.88	3536.55
418.07	3592.72
418.26	3653.58
418.45	3667.62
418.64	3684.00
418.83	3754.22
419.02	3604.42
419.21	3740.18
419.39	3702.73
419.58	3705.07
419.77	3803.37
419.96	3688.68
420.15	3815.07
420.34	3836.14
420.53	3908.69
420.72	4121.68
420.91	3894.65
421.10	3974.23
421.29	4016.36
421.48	3946.14
421.67	4093.60
421.86	3882.95
422.05	3943.80
422.24	3857.20
422.43	3976.57
422.61	3974.23
422.80	4175.52
422.99	3990.61
423.18	4189.56
423.37	4065.51
423.56	4198.92
423.75	4058.49
423.94	4009.34
424.13	3822.09
424.32	3997.64
424.50	4147.43
424.69	4311.27
424.88	4152.11
425.07	3955.51
425.26	4091.26
425.45	4100.62
425.64	4063.17
425.83	4032.74
426.01	4177.86
426.20	4102.96
426.39	4205.94
426.58	4011.68
426.77	4093.60
426.96	4259.78
427.15	4301.90
427.33	4124.02
427.52	4166.15
427.71	4411.91
427.90	4273.82
428.09	4383.82
428.28	4444.68
428.46	4327.65
428.65	4416.59
428.84	4484.47
429.03	4528.94
429.22	4245.73
429.40	4273.82
429.59	4351.06
429.78	4168.49
429.97	4086.58
430.16	4250.41
430.34	4290.20
430.53	4456.38
430.72	4477.44
430.91	4423.61
431.10	4599.15
431.28	4891.72
431.47	4840.23
431.66	4933.85
431.85	4854.27
432.03	4894.06
432.22	4952.57
432.41	4910.44
432.60	5046.20
432.79	4919.81
432.97	4887.04
433.16	4961.94
433.35	4854.27
433.54	4865.97
433.72	4786.40
433.91	4739.58
434.10	4959.60
434.28	4985.34
434.47	5095.35
434.66	5205.35
434.85	5153.86
435.03	5303.65
435.22	5188.97
435.41	5385.57
435.59	5345.78
435.78	5348.12
435.97	5404.30
436.16	5303.65
436.34	5247.48
436.53	5359.83
436.72	5462.81
436.90	5298.97
437.09	5252.16
437.28	5149.18
437.46	5474.51
437.65	5425.36
437.84	5310.68
438.02	5516.64
438.21	5376.21
438.40	5348.12
438.58	5572.82
438.77	5671.12
438.96	5713.25
439.14	5963.68
439.33	5998.79
439.52	5912.19
439.70	5813.89
439.89	5930.92
440.08	5771.76
440.26	5994.11
440.45	5879.43
440.63	5881.77
440.82	6104.12
441.01	6359.24
441.19	6289.02
441.38	6162.63
441.57	6396.68
441.75	6370.94
441.94	6462.22
442.12	6595.63
442.31	6539.46
442.50	6722.02
442.68	6483.28
442.87	6520.73
443.05	6523.07
443.24	6700.95
443.43	6595.63
443.61	6981.82
443.80	6885.86
443.98	6539.46
444.17	6567.54
444.35	6832.02
444.54	6993.52
444.73	6778.19
444.91	6602.65
445.10	6719.68
445.28	6918.62
445.47	6586.27
445.65	6731.38
445.84	6726.70
446.02	6892.88
446.21	6799.26
446.39	6752.45
446.58	7075.44
446.77	6906.92
446.95	6946.71
447.14	6939.69
447.32	7122.25
447.51	6927.99
447.69	6829.68
447.88	6993.52
448.06	7082.46
448.25	6967.77
448.43	7150.34
448.62	7037.99
448.80	7119.91
448.99	7112.89
449.17	7236.94
449.36	7262.68
449.54	7265.02
449.73	7386.73
449.91	7389.07
450.10	7393.75
450.28	7721.43
450.46	7726.11
450.65	7541.21
450.83	7573.97
451.02	7307.15
451.20	7609.08
451.39	7501.42
451.57	7571.63
451.76	7428.86
451.94	7325.88
452.13	7559.93
452.31	7534.18
452.49	7515.46
452.68	7564.61
452.86	7534.18
453.05	7557.59
453.23	7634.83
453.42	7691.00
453.60	7648.87
453.78	7716.75
453.97	7683.98
454.15	7758.88
454.34	7571.63
454.52	7932.08
454.70	7709.72
454.89	7763.56
455.07	7925.05
455.26	8088.89
455.44	8084.21
455.62	8187.19
455.81	8163.79
455.99	8021.02
456.17	8234.00
456.36	8170.81
456.54	8161.45
456.73	8351.03
456.91	8545.30
457.09	8388.48
457.28	8571.04
457.46	8393.16
457.64	8262.09
457.83	8507.85
458.01	8557.00
458.19	8594.45
458.38	8386.14
458.56	8477.42
458.74	8564.02
458.93	8769.99
459.11	8692.75
459.29	8638.92
459.48	8669.34
459.66	8664.66
459.84	8692.75
460.03	8973.61
460.21	8837.86
460.39	8924.46
460.57	8917.44
460.76	8959.57
460.94	9184.26
461.12	9027.45
461.31	9172.56
461.49	8990.00
461.67	9008.72
461.85	9287.25
462.04	9291.93
462.22	9476.83
462.40	9369.16
462.59	9383.21
462.77	9376.19
462.95	9357.46
463.13	9238.09
463.32	9308.31
463.50	9324.69
463.68	9270.86
463.86	9284.91
464.05	9245.12
464.23	9266.18
464.41	9458.10
464.59	9329.38
464.78	9617.26
464.96	9542.36
465.14	9448.74
465.32	9479.17
465.50	9706.20
465.69	9694.50
465.87	9537.68
466.05	9731.95
466.23	9563.43
466.41	9493.21
466.60	9944.94
466.78	9448.74
466.96	9624.28
467.14	9764.72
467.32	9900.47
467.51	9865.36
467.69	9678.12
467.87	9820.89
468.05	9942.60
468.23	9809.19
468.41	9785.78
468.60	9916.85
468.78	9996.43
468.96	9933.23
469.14	10033.88
469.32	10221.12
469.50	9860.68
469.69	10160.27
469.87	10171.97
470.05	10073.67
470.23	10401.34
470.41	10237.50
470.59	10483.26
470.77	10310.06
470.95	10331.12
471.14	10471.56
471.32	10420.06
471.50	11002.86
471.68	10794.55
471.86	10506.66
472.04	10719.65
472.22	11112.86
472.40	10539.43
472.58	10586.24
472.77	10820.30
472.95	11166.70
473.13	11005.20
473.31	10864.77
473.49	11002.86
473.67	11054.35
473.85	11150.31
474.03	11293.08
474.21	11353.94
474.39	11630.12
474.57	11527.14
474.75	11648.85
474.93	11721.40
475.12	11360.96
475.30	11779.92
475.48	11772.89
475.66	11728.42
475.84	11737.79
476.02	12049.08
476.20	11974.18
476.38	12091.21
476.56	12456.33
476.74	12365.05
476.92	12224.62
477.10	12013.97
477.28	12664.64
477.46	12634.21
477.64	12596.76
477.82	12898.69
478.00	13008.70
478.18	13027.42
478.36	13104.66
478.54	13104.66
478.72	13298.92
478.90	13486.17
479.08	13476.80
479.26	13654.69
479.44	13652.34
479.62	13839.59
479.80	13898.10
479.98	13865.33
480.16	14190.67
480.34	13991.72
480.52	14162.58
480.70	14352.16
480.88	14277.27
481.06	14750.06
481.24	14499.62
481.41	14768.78
481.59	14796.87
481.77	14691.54
481.95	15101.14
482.13	15133.90
482.31	15201.78
482.49	15616.05
482.67	15344.55
482.85	15903.94
483.03	15824.36
483.21	15817.34
483.39	15831.38
483.57	16107.57
483.74	16006.92
483.92	16369.71
484.10	16240.98
484.28	16521.84
484.46	16858.88
484.64	16812.07
484.82	16425.88
485.00	16662.27
485.18	16952.50
485.35	16833.13
485.53	16556.95
485.71	16453.97
485.89	16947.82
486.07	16971.22
486.25	17184.21
486.43	17528.27
486.61	17767.01
486.78	17745.94
486.96	17956.59
487.14	18483.21
487.32	18647.05
487.50	18735.99
487.68	19058.98
487.85	18904.51
488.03	19096.43
488.21	19431.13
488.39	19152.60
488.57	19487.30
488.75	19454.53
488.92	19648.80
489.10	20121.59
489.28	20280.74
489.46	20395.43
489.64	20493.73
489.81	21034.39
489.99	21022.69
490.17	20954.82
490.35	21223.98
490.53	20985.24
490.70	20968.86
490.88	21362.07
491.06	21673.36
491.24	21603.14
491.41	21429.94
491.59	21645.27
491.77	21715.49
491.95	21937.84
492.13	21862.94
492.30	22239.77
492.48	22436.38
492.66	22588.51
492.84	22632.98
493.01	22771.07
493.19	22654.05
493.37	22850.65
493.54	23241.52
493.72	23363.23
493.90	23215.77
494.08	23573.88
494.25	23967.09
494.43	24290.08
494.61	24435.19
494.79	24482.00
494.96	24257.31
495.14	24149.65
495.32	24503.07
495.49	24762.87
495.67	24931.39
495.85	25273.10
496.02	25083.52
496.20	25280.13
496.38	25479.07
496.55	25401.83
496.73	26134.42
496.91	25596.10
497.09	25977.61
497.26	25792.70
497.44	25961.22
497.62	26192.94
497.79	26267.83
497.97	26150.81
498.14	26206.98
498.32	26434.01
498.50	26457.42
498.67	26724.24
498.85	26850.63
499.03	27323.41
499.20	27328.10
499.38	27288.31
499.56	27367.88
499.73	27264.90
499.91	27615.98
500.08	27733.01
500.26	26731.26
500.44	27342.14
500.61	27892.16
500.79	27716.62
500.97	27725.99
501.14	27857.06
501.32	28018.55
501.49	28442.19
501.67	28341.55
501.84	28133.24
502.02	27847.69
502.20	28797.95
502.37	28847.10
502.55	28680.92
502.72	28861.15
502.90	29120.95
503.07	28858.81
503.25	29401.81
503.43	28622.41
503.60	29029.66
503.78	28985.19
503.95	28966.47
504.13	29565.65
504.30	29397.13
504.48	29364.36
504.65	30026.73
504.83	30052.48
505.01	30195.25
505.18	30459.73
505.36	30267.81
505.53	30389.52
505.71	30686.76
505.88	30565.06
506.06	30263.13
506.23	31019.12
506.41	30756.98
506.58	30902.09
506.76	30902.09
506.93	31061.25
507.11	30869.33
507.28	30806.13
507.46	30728.89
507.63	31166.57
507.81	31339.77
507.98	30836.56
508.16	31442.76
508.33	31866.39
508.50	31557.44
508.68	31796.18
508.85	32114.49
509.03	32142.58
509.20	32308.76
509.38	32182.37
509.55	32362.59
509.73	32329.82
509.90	31948.31
510.08	32292.37
510.25	32496.00
510.42	32666.86
510.60	32931.34
510.77	32893.89
510.95	32503.02
511.12	33090.49
511.30	33462.64
511.47	33329.23
511.64	33486.04
511.82	33743.50
511.99	33661.58
512.17	33574.98
512.34	33036.66
512.51	33481.36
512.69	33560.94
512.86	33275.40
513.04	33792.65
513.21	33986.92
513.38	33900.32
513.56	34302.89
513.73	33921.38
513.90	34558.01
514.08	34068.84
514.25	34417.58
514.43	34363.75
514.60	34478.43
514.77	34394.17
514.95	35012.07
515.12	34424.60
515.29	34953.56
515.47	34728.87
515.64	35377.20
515.81	35096.33
515.99	35021.44
516.16	34534.60
516.33	34333.32
516.51	34675.04
516.68	33984.58
516.85	34007.98
517.03	34333.32
517.20	34813.13
517.37	35028.46
517.54	35597.21
517.72	35723.60
517.89	35131.44
518.06	35314.00
518.24	35201.66
518.41	35222.72
518.58	35503.59
518.75	35789.13
518.93	35475.50
519.10	36116.81
519.27	36217.45
519.45	36175.32
519.62	36271.28
519.79	36423.42
519.96	36540.44
520.14	36650.45
520.31	36292.35
520.48	36601.30
520.65	36673.85
520.83	36928.97
521.00	37015.57
521.17	37085.79
521.34	37109.19
521.52	36875.14
521.69	37230.90
521.86	37397.08
522.03	37577.30
522.20	37397.08
522.38	37158.34
522.55	37535.17
522.72	37008.55
522.89	37179.41
523.07	37853.48
523.24	37958.81
523.41	37848.80
523.58	38141.37
523.75	38197.54
523.92	38405.85
524.10	38724.16
524.27	38206.90
524.44	38555.64
524.61	38637.56
524.78	38366.06
524.96	38359.04
525.13	38532.24
525.30	39012.05
525.47	39042.48
525.64	38852.89
525.81	38487.77
525.98	38579.05
526.16	38417.55
526.33	37893.27
526.50	38651.61
526.67	38384.79
526.84	38394.15
527.01	38490.11
527.18	38728.84
527.36	39508.24
527.53	39613.57
527.70	39398.24
527.87	39702.51
528.04	39431.01
528.21	39435.69
528.38	39849.96
528.55	39950.60
528.72	39924.86
528.89	40177.64
529.07	40034.86
529.24	39515.26
529.41	40067.63
529.58	39840.60
529.75	39667.40
529.92	40201.04
530.09	40095.72
530.26	40020.82
530.43	40299.34
530.60	40051.25
530.77	40816.60
530.94	40638.72
531.11	40236.15
531.28	40741.71
531.46	40418.71
531.63	40781.49
531.80	40250.19
531.97	40524.04
532.14	40535.74
532.31	40582.55
532.48	40512.33
532.65	40638.72
532.82	40945.33
532.99	40713.62
533.16	40547.44
533.33	41378.33
533.50	41158.32
533.67	41095.13
533.84	41200.45
534.01	41326.84
534.18	41263.64
534.35	41661.54
534.52	41088.10
534.69	41408.76
534.86	41607.70
535.03	41656.85
535.20	42108.58
535.37	42139.00
535.54	42059.43
535.71	42012.62
535.88	41858.14
536.05	41720.05
536.22	41848.78
536.38	41926.02
536.55	42064.11
536.72	41375.99
536.89	41422.80
537.06	41837.08
537.23	42218.58
537.40	42017.30
537.57	42141.35
537.74	42464.34
537.91	42553.28
538.08	42431.57
538.25	42162.41
538.42	42408.17
538.59	42693.71
538.75	42099.22
538.92	42724.14
539.09	42618.81
539.26	42300.50
539.43	42382.42
539.60	42389.44
539.77	42178.79
539.94	42274.76
540.11	42085.17
540.28	42735.84
540.44	42630.52
540.61	42679.67
540.78	42253.69
540.95	42209.22
541.12	43000.32
541.29	42555.62
541.46	42742.86
541.62	42794.36
541.79	43353.74
541.96	42604.77
542.13	42813.08
542.30	42738.18
542.47	43234.38
542.63	43262.46
542.80	43152.46
542.97	43398.21
543.14	43629.93
543.31	43983.35
543.48	43552.69
543.64	44102.71
543.81	43945.90
543.98	43913.13
544.15	43739.93
544.32	43798.44
544.48	44453.79
544.65	44016.11
544.82	43917.81
544.99	43725.89
545.16	43885.04
545.32	43828.87
545.49	44519.33
545.66	44367.20
545.83	44608.27
546.00	44189.31
546.16	44067.61
546.33	44470.18
546.50	44116.76
546.67	44292.30
546.83	44198.68
547.00	44367.20
547.17	44020.80
547.34	43882.70
547.50	44339.11
547.67	44516.99
547.84	44648.06
548.00	45029.57
548.17	44882.11
548.34	44779.13
548.51	45492.99
548.67	44697.21
548.84	44650.40
549.01	44488.90
549.18	44978.07
549.34	44701.89
549.51	45048.29
549.68	45172.34
549.84	44818.92
550.01	45385.33
550.18	44921.90
550.34	45081.06
550.51	45392.35
550.68	45118.51
550.84	44835.30
551.01	45127.87
551.18	44804.88
551.34	45027.23
551.51	45429.80
551.68	45504.70
551.84	45343.20
552.01	45186.38
552.18	45109.14
552.34	44814.24
552.51	45038.93
552.68	45373.63
552.84	45439.16
553.01	45467.25
553.18	45394.69
553.34	45595.98
553.51	45385.33
553.67	45478.95
553.84	45846.41
554.01	45661.51
554.17	45659.17
554.34	46103.87
554.51	45572.57
554.67	45949.40
554.84	45794.92
555.00	45413.41
555.17	45350.22
555.33	45642.79
555.50	46117.92
555.67	45553.85
555.83	45345.54
556.00	45528.10
556.16	46209.20
556.33	45846.41
556.50	45705.98
556.66	45979.82
556.83	45556.19
556.99	46099.19
557.16	46211.54
557.32	46246.65
557.49	46239.62
557.65	45954.08
557.82	45783.22
557.98	45928.33
558.15	46178.77
558.32	46223.24
558.48	45787.90
558.65	46117.92
558.81	45794.92
558.98	46064.08
559.14	45949.40
559.31	45886.20
559.47	45865.14
559.64	45968.12
559.80	46108.55
559.97	46417.50
560.13	46174.09
560.30	46251.33
560.46	46557.94
560.63	46564.96
560.79	46316.86
560.96	46398.78
561.12	46756.88
561.29	46630.49
561.45	46487.72
561.61	46546.23
561.78	46546.23
561.94	46103.87
562.11	46307.50
562.27	46286.43
562.44	46478.36
562.60	46784.97
562.77	46412.82
562.93	46288.77
563.10	46997.96
563.26	46419.84
563.42	46724.11
563.59	46403.46
563.75	46749.86
563.92	46724.11
564.08	46557.94
564.24	46782.63
564.41	46796.67
564.57	46724.11
564.74	46642.20
564.90	46644.54
565.07	46735.82
565.23	46382.40
565.39	46438.57
565.56	46373.03
565.72	46089.83
565.88	46389.42
566.05	46611.77
566.21	46583.68
566.38	46251.33
566.54	46955.83
566.70	46712.41
566.87	46710.07
567.03	46646.88
567.19	47065.83
567.36	47054.13
567.52	46911.36
567.68	46801.35
567.85	46820.08
568.01	47054.13
568.17	46784.97
568.34	46799.01
568.50	46618.79
568.66	46492.40
568.83	46902.00
568.99	46593.04
569.15	46653.90
569.32	46916.04
569.48	46887.95
569.64	47058.81
569.81	46667.94
569.97	46878.59
570.13	46749.86
570.30	46454.95
570.46	46576.66
570.62	46307.50
570.78	46490.06
570.95	46550.91
571.11	46883.27
571.27	46459.63
571.43	46384.74
571.60	46848.16
571.76	47154.77
571.92	46649.22
572.09	46918.38
572.25	46944.12
572.41	47454.36
572.57	47136.05
572.74	47529.26
572.90	46960.51
573.06	46937.10
573.22	46770.93
573.38	46995.62
573.55	46801.35
573.71	46979.23
573.87	47171.16
574.03	47075.19
574.20	46981.57
574.36	46876.25
574.52	46902.00
574.68	46885.61
574.84	46703.05
575.01	46958.17
575.17	46700.71
575.33	46536.87
575.49	46660.92
575.65	46859.87
575.82	46799.01
575.98	46862.21
576.14	47220.31
576.30	47353.72
576.46	47091.58
576.62	46639.86
576.79	46714.75
576.95	46916.04
577.11	47236.69
577.27	47505.85
577.43	46962.85
577.59	46492.40
577.75	46553.26
577.92	46593.04
578.08	46663.26
578.24	46885.61
578.40	46567.30
578.56	46618.79
578.72	47189.88
578.88	47194.56
579.04	47264.78
579.21	46745.18
579.37	46799.01
579.53	46990.94
579.69	46836.46
579.85	46693.69
580.01	47515.22
580.17	47278.82
580.33	47173.50
580.49	47138.39
580.65	47257.76
580.82	46796.67
580.98	47068.17
581.14	46770.93
581.30	47302.23
581.46	46986.25
581.62	46979.23
581.78	47126.69
581.94	47278.82
582.10	46775.61
582.26	47136.05
582.42	46831.78
582.58	46733.48
582.74	47227.33
582.90	47150.09
583.06	47070.51
583.22	47145.41
583.38	47716.50
583.54	47091.58
583.70	47030.72
583.86	47295.21
584.02	46710.07
584.18	47194.56
584.34	46913.70
584.50	46859.87
584.66	47178.18
584.82	46422.19
584.98	47356.06
585.14	47185.20
585.30	46897.31
585.46	46693.69
585.62	46717.09
585.78	47100.94
585.94	46602.41
586.10	47065.83
586.26	46862.21
586.42	47122.01
586.58	47426.28
586.74	47161.79
586.90	46983.91
587.06	47023.70
587.22	46967.53
587.38	46791.99
587.54	46731.14
587.70	47306.91
587.86	47264.78
588.02	46953.49
588.18	47260.10
588.34	46986.25
588.49	46588.36
588.65	46499.42
588.81	46354.31
588.97	46438.57
589.13	46415.16
589.29	46642.20
589.45	46656.24
589.61	46728.80
589.77	47206.26
589.93	47098.60
