SpectraSuite Data File
++++++++++++++++++++++++++++++++++++
Date: Fri Oct 25 11:25:42 EDT 2013
User: price-jones
Dark Spectrum Present: No
Reference Spectrum Present: No
Number of Sampled Component Spectra: 1
Spectrometers: USB2+H05261
Integration Time (usec): 100000 (USB2+H05261)
Spectra Averaged: 1 (USB2+H05261)
Boxcar Smoothing: 0 (USB2+H05261)
Correct for Electrical Dark: No (USB2+H05261)
Strobe/Lamp Enabled: No (USB2+H05261)
Correct for Detector Non-linearity: No (USB2+H05261)
Correct for Stray Light: No (USB2+H05261)
Number of Pixels in Processed Spectrum: 2048
>>>>>Begin Processed Spectral Data<<<<<
365.73	231.71
365.92	231.71
366.12	231.71
366.32	161.50
366.52	112.35
366.72	177.88
366.91	180.22
367.11	138.09
367.31	124.05
367.51	119.37
367.70	149.79
367.90	236.39
368.10	140.43
368.30	154.48
368.49	166.18
368.69	124.05
368.89	229.37
369.09	210.65
369.28	208.31
369.48	177.88
369.68	184.90
369.87	271.50
370.07	147.45
370.27	255.12
370.47	390.87
370.66	568.75
370.86	634.29
371.06	660.03
371.25	716.20
371.45	669.39
371.65	671.73
371.84	723.23
372.04	657.69
372.24	676.41
372.44	751.31
372.63	720.88
372.83	699.82
373.03	716.20
373.22	723.23
373.42	718.54
373.62	765.36
373.81	767.70
374.01	854.30
374.21	821.53
374.40	826.21
374.60	847.27
374.79	748.97
374.99	767.70
375.19	842.59
375.38	830.89
375.58	793.44
375.78	889.40
375.97	816.85
376.17	887.06
376.37	828.55
376.56	861.32
376.76	933.87
376.95	889.40
377.15	980.68
377.35	898.77
377.54	884.72
377.74	896.43
377.93	858.98
378.13	835.57
378.33	940.90
378.52	952.60
378.72	943.24
378.91	971.32
379.11	912.81
379.31	898.77
379.50	947.92
379.70	983.02
379.89	933.87
380.09	1043.88
380.28	971.32
380.48	945.58
380.68	947.92
380.87	1036.86
381.07	959.62
381.26	1104.73
381.46	1029.84
381.65	1015.79
381.85	1029.84
382.04	1043.88
382.24	1032.18
382.43	1100.05
382.63	1020.47
382.83	1139.84
383.02	1151.54
383.22	1107.07
383.41	1055.58
383.61	1217.08
383.80	1137.50
384.00	1100.05
384.19	1167.93
384.39	1186.65
384.58	1128.14
384.78	1015.79
384.97	1181.97
385.17	1146.86
385.36	1186.65
385.56	1156.22
385.75	1156.22
385.95	1083.67
386.14	1121.12
386.34	1231.12
386.53	1205.38
386.72	1179.63
386.92	1224.10
387.11	1196.01
387.31	1240.48
387.50	1233.46
387.70	1284.95
387.89	1345.81
388.09	1203.04
388.28	1191.33
388.48	1383.26
388.67	1184.31
388.86	1317.72
389.06	1275.59
389.25	1364.53
389.45	1320.06
389.64	1371.55
389.84	1345.81
390.03	1465.18
390.22	1376.24
390.42	1376.24
390.61	1350.49
390.81	1371.55
391.00	1458.15
391.19	1495.60
391.39	1434.75
391.58	1439.43
391.78	1343.47
391.97	1483.90
392.16	1490.92
392.36	1537.73
392.55	1607.95
392.75	1586.88
392.94	1479.22
393.13	1519.01
393.33	1418.36
393.52	1579.86
393.71	1715.61
393.91	1521.35
394.10	1394.96
394.29	1678.16
394.49	1675.82
394.68	1619.65
394.88	1624.33
395.07	1701.57
395.26	1664.12
395.46	1633.69
395.65	1706.25
395.84	1778.81
396.04	1870.09
396.23	1720.29
396.42	1771.79
396.62	1776.47
396.81	1846.68
397.00	1858.39
397.19	1820.94
397.39	1888.81
397.58	1874.77
397.77	1818.60
397.97	1755.40
398.16	1820.94
398.35	1842.00
398.55	1893.49
398.74	1809.23
398.93	1998.82
399.12	1893.49
399.32	1755.40
399.51	1982.43
399.70	1970.73
399.90	1926.26
400.09	2047.97
400.28	2052.65
400.47	2073.71
400.67	2062.01
400.86	2106.48
401.05	2165.00
401.24	2076.06
401.44	2120.53
401.63	2125.21
401.82	2230.53
402.01	2132.23
402.21	2251.60
402.40	2242.23
402.59	2172.02
402.78	2239.89
402.97	2242.23
403.17	2239.89
403.36	2211.81
403.55	2258.62
403.74	2246.91
403.93	2401.39
404.13	2445.86
404.32	2483.31
404.51	2349.90
404.70	2363.94
404.89	2436.50
405.09	2558.21
405.28	2452.88
405.47	2385.01
405.66	2635.44
405.85	2567.57
406.05	2539.48
406.24	2581.61
406.43	2499.69
406.62	2616.72
406.81	2640.12
407.00	2539.48
407.20	2574.59
407.39	2616.72
407.58	2668.21
407.77	2738.43
407.96	2675.23
408.15	2712.68
408.34	2651.83
408.54	2897.58
408.73	2881.20
408.92	2768.85
409.11	2810.98
409.30	2806.30
409.49	2928.01
409.68	2897.58
409.87	2942.05
410.07	3016.95
410.26	2998.23
410.45	2967.80
410.64	2958.44
410.83	3094.19
411.02	3105.89
411.21	3056.74
411.40	3148.02
411.59	3178.45
411.78	3225.26
411.98	3213.56
412.17	3215.90
412.36	3152.70
412.55	3316.54
412.74	3398.46
412.93	3377.39
413.12	3417.18
413.31	3536.55
413.50	3550.59
413.69	3606.77
413.88	3637.19
414.07	3468.67
414.26	3583.36
414.45	3623.15
414.64	3606.77
414.83	3709.75
415.02	3847.84
415.22	3761.24
415.41	3712.09
415.60	3819.75
415.79	3840.82
415.98	3946.14
416.17	3880.61
416.36	3955.51
416.55	4095.94
416.74	3962.53
416.93	3904.01
417.12	4035.08
417.31	4252.75
417.50	4170.83
417.69	4161.47
417.88	4124.02
418.07	4241.05
418.26	4360.42
418.45	4205.94
418.64	4475.10
418.83	4292.54
419.02	4423.61
419.21	4552.34
419.39	4674.05
419.58	4500.85
419.77	4496.17
419.96	4617.88
420.15	4571.07
420.34	4559.36
420.53	4545.32
420.72	4739.58
420.91	4575.75
421.10	4662.35
421.29	4713.84
421.48	4622.56
421.67	4704.48
421.86	4657.67
422.05	4798.10
422.24	4744.27
422.43	4936.19
422.61	4821.50
422.80	5025.13
422.99	5004.07
423.18	4933.85
423.37	4908.10
423.56	4905.76
423.75	4875.34
423.94	4891.72
424.13	4540.64
424.32	4676.39
424.50	5050.88
424.69	5149.18
424.88	4985.34
425.07	4933.85
425.26	4943.21
425.45	4931.51
425.64	4814.48
425.83	5069.60
426.01	5027.47
426.20	4990.02
426.39	5011.09
426.58	5048.54
426.77	4912.78
426.96	5163.22
427.15	5303.65
427.33	5235.78
427.52	5195.99
427.71	5146.84
427.90	5303.65
428.09	5317.70
428.28	5582.18
428.46	5348.12
428.65	5427.70
428.84	5589.20
429.03	5481.53
429.22	5275.57
429.40	5458.13
429.59	5448.77
429.78	5387.91
429.97	5320.04
430.16	5533.03
430.34	5558.77
430.53	5621.97
430.72	5713.25
430.91	5647.71
431.10	5682.82
431.28	5781.12
431.47	5621.97
431.66	5980.07
431.85	5668.78
432.03	5937.94
432.22	5921.56
432.41	5762.40
432.60	6029.22
432.79	5902.83
432.97	5865.38
433.16	5881.77
433.35	5984.75
433.54	5928.58
433.72	6113.48
433.91	6256.25
434.10	6097.10
434.28	6012.84
434.47	6181.35
434.66	6289.02
434.85	6296.04
435.03	6319.45
435.22	6197.74
435.41	6312.42
435.59	6366.26
435.78	6424.77
435.97	6438.81
436.16	6494.99
436.34	6256.25
436.53	6406.05
436.72	6663.51
436.90	6558.18
437.09	6740.74
437.28	6497.33
437.46	6534.78
437.65	6724.36
437.84	6593.29
438.02	6703.29
438.21	6803.94
438.40	6876.49
438.58	6869.47
438.77	7089.48
438.96	6836.70
439.14	6890.54
439.33	6963.09
439.52	7077.78
439.70	7314.17
439.89	7452.27
440.08	7356.30
440.26	7258.00
440.45	7288.43
440.63	7531.84
440.82	7552.91
441.01	7564.61
441.19	7613.76
441.38	7676.96
441.57	7667.60
441.75	7880.58
441.94	7882.92
442.12	7845.48
442.31	7981.23
442.50	7988.25
442.68	8098.25
442.87	8189.53
443.05	8140.38
443.24	8131.02
443.43	8107.62
443.61	8182.51
443.80	8336.99
443.98	8215.28
444.17	7854.84
444.35	8102.93
444.54	7997.61
444.73	8383.80
444.91	8470.40
445.10	8271.45
445.28	8304.22
445.47	8280.82
445.65	8243.37
445.84	8449.33
446.02	8444.65
446.21	8414.23
446.39	8329.97
446.58	8772.33
446.77	8648.28
446.95	8304.22
447.14	8278.47
447.32	8519.55
447.51	8568.70
447.69	8491.46
447.88	8430.61
448.06	8538.27
448.25	8631.90
448.43	8549.98
448.62	8652.96
448.80	8449.33
448.99	8524.23
449.17	8524.23
449.36	8360.39
449.54	8741.90
449.73	9029.79
449.91	8798.07
450.10	8889.35
450.28	9062.55
450.46	9116.39
450.65	8856.59
450.83	9191.28
451.02	9179.58
451.20	9174.90
451.39	9284.91
451.57	9158.52
451.76	9013.40
451.94	9184.26
452.13	9329.38
452.31	9327.03
452.49	9109.36
452.68	9408.95
452.86	9458.10
453.05	9355.12
453.23	9282.56
453.42	9291.93
453.60	9338.74
453.78	9397.25
453.97	9530.66
454.15	9305.97
454.34	9371.50
454.52	9614.92
454.70	9631.30
454.89	9689.82
455.07	9767.06
455.26	9792.80
455.44	9930.89
455.62	9898.13
455.81	10001.11
455.99	9858.34
456.17	10008.13
456.36	10249.21
456.54	10190.69
456.73	10186.01
456.91	10413.04
457.09	10436.45
457.28	10438.79
457.46	10289.00
457.64	10352.19
457.83	10494.96
458.01	10321.76
458.19	10647.10
458.38	10462.19
458.56	10721.99
458.74	10562.84
458.93	10558.16
459.11	10663.48
459.29	10707.95
459.48	10752.42
459.66	10724.33
459.84	10881.15
460.03	11145.63
460.21	11014.56
460.39	10808.59
460.57	11047.33
460.76	11016.90
460.94	11035.63
461.12	11115.20
461.31	11056.69
461.49	11129.25
461.67	11073.07
461.85	11400.75
462.04	11236.91
462.22	11871.20
462.40	11651.19
462.59	11379.68
462.77	11494.37
462.95	11524.80
463.13	11585.65
463.32	11557.57
463.50	11595.01
463.68	11583.31
463.86	11613.74
464.05	11623.10
464.23	11690.98
464.41	11791.62
464.59	11463.94
464.78	12065.46
464.96	11824.39
465.14	11838.43
465.32	11974.18
465.50	11976.52
465.69	12121.63
465.87	12037.38
466.05	12013.97
466.23	12142.70
466.41	12334.62
466.60	12444.63
466.78	12098.23
466.96	12264.41
467.14	12301.86
467.32	12255.04
467.51	12519.53
467.69	12123.98
467.87	12283.13
468.05	12615.49
468.23	12678.68
468.41	12432.93
468.60	12669.32
468.78	12861.24
468.96	12468.03
469.14	12674.00
469.32	12711.45
469.50	12402.50
469.69	12798.05
469.87	13153.81
470.05	13067.21
470.23	12966.57
470.41	13004.02
470.59	13319.99
470.77	13294.24
470.95	13233.39
471.14	13303.60
471.32	12964.23
471.50	13308.29
471.68	13469.78
471.86	13488.51
472.04	13614.90
472.22	14153.22
472.40	13650.00
472.58	13535.32
472.77	13912.14
472.95	13965.98
473.13	14569.83
473.31	13844.27
473.49	13970.66
473.67	13989.38
473.85	14476.21
474.03	14457.49
474.21	14525.36
474.39	14775.80
474.57	14663.46
474.75	14902.19
474.93	14834.32
475.12	14829.63
475.30	14892.83
475.48	14684.52
475.66	15150.29
475.84	15197.10
476.02	15239.23
476.20	15421.79
476.38	15791.59
476.56	15866.49
476.74	15967.13
476.92	15845.43
477.10	15527.11
477.28	16203.53
477.46	16133.31
477.64	16374.39
477.82	16402.47
478.00	16872.92
478.18	16631.85
478.36	16739.51
478.54	17064.85
478.72	17128.04
478.90	17376.14
479.08	17387.84
479.26	17783.39
479.44	17759.98
479.62	17811.48
479.80	18090.00
479.98	18171.92
480.16	18478.53
480.34	18183.62
480.52	18637.69
480.70	18583.85
480.88	18420.02
481.06	18633.00
481.24	18740.67
481.41	19094.09
481.59	19089.41
481.77	19585.60
481.95	19234.52
482.13	19702.63
482.31	19665.18
482.49	19971.79
482.67	19995.20
482.85	20482.03
483.03	20521.82
483.21	20589.69
483.39	20877.58
483.57	20924.39
483.74	21074.18
483.92	21319.94
484.10	21399.52
484.28	21586.76
484.46	21942.52
484.64	22314.67
484.82	21874.65
485.00	22319.35
485.18	22841.29
485.35	23229.82
485.53	23054.28
485.71	23105.77
485.89	23508.34
486.07	23388.97
486.25	23466.21
486.43	23360.89
486.61	23747.08
486.78	23976.45
486.96	24072.41
487.14	24393.06
487.32	24552.22
487.50	24786.27
487.68	24755.85
487.85	25008.62
488.03	25418.22
488.21	25678.02
488.39	25509.50
488.57	26136.76
488.75	26064.21
488.92	26331.03
489.10	26803.82
489.28	26675.09
489.46	27016.80
489.64	26962.97
489.81	27761.09
489.99	27751.73
490.17	27688.54
490.35	27873.44
490.53	27695.56
490.70	28011.53
490.88	28144.94
491.06	28737.10
491.24	28797.95
491.41	28804.97
491.59	29130.31
491.77	29525.86
491.95	29544.58
492.13	29685.01
492.30	29820.77
492.48	30024.39
492.66	30719.53
492.84	30349.73
493.01	30576.76
493.19	30485.48
493.37	31047.21
493.54	30773.36
493.72	31309.35
493.90	31370.20
494.08	31545.74
494.25	31805.54
494.43	32046.62
494.61	32201.09
494.79	32414.08
494.96	32086.40
495.14	32704.31
495.32	32849.42
495.49	33532.86
495.67	33118.58
495.85	33507.11
496.02	33940.11
496.20	33764.57
496.38	33596.05
496.55	34017.35
496.73	34497.16
496.91	34455.03
497.09	35124.42
497.26	34668.02
497.44	34527.58
497.62	35072.93
497.79	35709.55
497.97	35311.66
498.14	36240.86
498.32	36058.29
498.50	36051.27
498.67	36510.02
498.85	36257.24
499.03	36968.76
499.20	36510.02
499.38	36549.81
499.56	36655.13
499.73	37085.79
499.91	37242.60
500.08	37247.29
500.26	37181.75
500.44	37177.07
500.61	37839.44
500.79	37853.48
500.97	38099.24
501.14	38230.31
501.32	38188.18
501.49	38139.03
501.67	38410.53
501.84	38588.41
502.02	39105.67
502.20	38749.91
502.37	38855.23
502.55	39281.21
502.72	39622.93
502.90	39651.02
503.07	39541.01
503.25	39562.08
503.43	39438.03
503.60	39957.63
503.78	40018.48
503.95	39915.50
504.13	40411.69
504.30	40704.26
504.48	40292.32
504.65	40570.85
504.83	40718.30
505.01	41155.98
505.18	41055.34
505.36	41443.87
505.53	41144.28
505.71	41359.61
505.88	41191.09
506.06	41443.87
506.23	41670.90
506.41	41303.43
506.58	41897.93
506.76	42054.75
506.93	42230.29
507.11	41949.42
507.28	42232.63
507.46	42267.73
507.63	42579.03
507.81	42801.38
507.98	42735.84
508.16	43194.59
508.33	43239.06
508.50	43697.80
508.68	43187.56
508.85	43721.21
509.03	43466.09
509.20	43882.70
509.38	44357.83
509.55	44224.42
509.73	44259.53
509.90	44638.70
510.08	43917.81
510.25	44055.90
510.42	44596.57
510.60	44884.45
510.77	45254.26
510.95	45434.48
511.12	44811.90
511.30	44912.54
511.47	45460.23
511.64	45624.06
511.82	45876.84
511.99	45502.35
512.17	45614.70
512.34	45909.61
512.51	46384.74
512.69	46024.29
512.86	46274.73
513.04	46677.30
513.21	46188.13
513.38	46995.62
513.56	46885.61
513.73	46621.13
513.90	46948.81
514.08	46681.98
514.25	47313.93
514.43	47660.33
514.60	47330.31
514.77	47103.28
514.95	47501.17
515.12	47391.17
515.29	47440.32
515.47	47760.97
515.64	48121.41
515.81	48025.45
515.99	47990.34
516.16	48226.74
516.33	48025.45
516.51	48533.35
516.68	48254.82
516.85	48727.61
517.03	48449.09
517.20	48837.62
517.37	48718.25
517.54	48748.68
517.72	48669.10
517.89	48949.96
518.06	49237.85
518.24	49228.49
518.41	49352.54
518.58	49024.86
518.75	48954.64
518.93	49392.33
519.10	49244.87
519.27	49446.16
519.45	49574.89
519.62	49804.26
519.79	49837.03
519.96	49546.80
520.14	50232.58
520.31	49921.29
520.48	50246.62
520.65	50298.11
520.83	50782.60
521.00	50621.11
521.17	50239.60
521.34	50487.70
521.52	50733.45
521.69	50506.42
521.86	50705.37
522.03	50855.16
522.20	51051.76
522.38	51124.32
522.55	51278.80
522.72	51096.24
522.89	51119.64
523.07	51543.28
523.24	51295.18
523.41	51648.60
523.58	51187.52
523.75	51468.38
523.92	51667.33
524.10	51894.36
524.27	51950.53
524.44	51901.38
524.61	52097.98
524.78	51992.66
524.96	52165.86
525.13	52086.28
525.30	52425.66
525.47	52409.28
525.64	52327.36
525.81	52521.62
525.98	52755.68
526.16	52488.85
526.33	52727.59
526.50	53125.48
526.67	52657.37
526.84	52795.46
527.01	52781.42
527.18	52802.49
527.36	52905.47
527.53	52732.27
527.70	53244.85
527.87	53205.06
528.04	53181.65
528.21	53401.66
528.38	53223.78
528.55	53523.37
528.72	53375.92
528.89	53310.38
529.07	53392.30
529.24	53336.13
529.41	53708.27
529.58	53680.19
529.75	53670.82
529.92	53490.60
530.09	53509.33
530.26	53642.74
530.43	53991.48
530.60	53670.82
530.77	53780.83
530.94	53890.83
531.11	53869.77
531.28	54047.65
531.46	53949.35
531.63	54113.19
531.80	53820.62
531.97	53867.43
532.14	54265.32
532.31	54218.51
532.48	54382.35
532.65	54581.29
532.82	54394.05
532.99	54660.87
533.16	54527.46
533.33	54927.69
533.50	54829.39
533.67	54691.30
533.84	54742.79
534.01	54583.63
534.18	54705.34
534.35	55014.29
534.52	54967.48
534.69	55030.68
534.86	55178.13
535.03	54761.51
535.20	54997.91
535.37	55313.88
535.54	55222.60
535.71	55119.62
535.88	55173.45
536.05	55168.77
536.22	55325.58
536.38	55732.84
536.55	55428.57
536.72	55320.90
536.89	55267.07
537.06	55363.03
537.23	55793.69
537.40	55590.06
537.57	55753.90
537.74	55906.04
537.91	55929.44
538.08	55671.98
538.25	55454.31
538.42	55718.79
538.59	55952.85
538.75	55838.16
538.92	55955.19
539.09	56154.13
539.26	56004.34
539.43	55894.33
539.60	56200.94
539.77	56032.42
539.94	56362.44
540.11	56212.65
540.28	56596.49
540.44	56310.95
540.61	56137.75
540.78	56479.47
540.95	56193.92
541.12	56268.82
541.29	56493.51
541.46	56676.07
541.62	56409.25
541.79	56437.34
541.96	56339.04
542.13	56411.59
542.30	56587.13
542.47	56970.98
542.63	56975.66
542.80	56865.66
542.97	57013.11
543.14	57151.20
543.31	56978.00
543.48	57127.80
543.64	57148.86
543.81	57333.76
543.98	57403.98
544.15	57247.16
544.32	57322.06
544.48	57584.20
544.65	57418.02
544.82	57088.01
544.99	57258.87
545.16	57411.00
545.32	57265.89
545.49	57607.61
545.66	57553.77
545.83	57464.83
546.00	57499.94
546.16	57462.49
546.33	57497.60
546.50	57506.96
546.67	57762.08
546.83	57492.92
547.00	57485.90
547.17	57628.67
547.34	57762.08
547.50	57701.23
547.67	58127.20
547.84	57801.87
548.00	58080.39
548.17	58094.44
548.34	57949.32
548.51	58028.90
548.67	58028.90
548.84	57841.66
549.01	58019.54
549.18	57954.00
549.34	58078.05
549.51	58375.30
549.68	58307.43
549.84	58199.76
550.01	58508.71
550.18	58007.84
550.34	58457.22
550.51	58391.68
550.68	58368.28
550.84	58239.55
551.01	58602.33
551.18	58326.15
551.34	58291.04
551.51	58206.78
551.68	58698.30
551.84	58405.73
552.01	58445.52
552.18	58518.07
552.34	58637.44
552.51	58497.01
552.68	58351.90
552.84	58681.91
553.01	58796.60
553.18	58728.72
553.34	58918.31
553.51	58742.77
553.67	58859.79
553.84	58724.04
554.01	58925.33
554.17	58752.13
554.34	58899.58
554.51	58951.07
554.67	58777.87
554.84	59011.93
555.00	58901.92
555.17	58864.47
555.33	59056.40
555.50	58876.18
555.67	58738.08
555.83	58932.35
556.00	58955.75
556.16	59292.79
556.33	58922.99
556.50	59143.00
556.66	59262.36
556.83	59061.08
556.99	59370.03
557.16	59465.99
557.32	59269.39
557.49	59650.89
557.65	59409.82
557.82	59334.92
557.98	59220.23
558.15	59281.09
558.32	59484.72
558.48	59227.26
558.65	59363.01
558.81	59419.18
558.98	59384.07
559.14	59402.80
559.31	59608.76
559.47	59627.49
559.64	59636.85
559.80	59608.76
559.97	59674.30
560.13	59821.75
560.30	59531.53
560.46	59622.81
560.63	59716.43
560.79	59636.85
560.96	59803.03
561.12	59700.04
561.29	59688.34
561.45	59882.61
561.61	59728.13
561.78	59725.79
561.94	59625.15
562.11	59711.75
562.27	59896.65
562.44	59863.88
562.60	60060.49
562.77	59861.54
562.93	59735.15
563.10	60018.36
563.26	59877.93
563.42	60236.03
563.59	60051.12
563.75	59866.22
563.92	59952.82
564.08	60037.08
564.24	60158.79
564.41	59952.82
564.57	60044.10
564.74	60151.77
564.90	60135.38
565.07	60034.74
565.23	60051.12
565.39	60034.74
565.56	60095.60
565.72	60081.55
565.88	60062.83
566.05	60203.26
566.21	60083.89
566.38	60203.26
566.54	60126.02
566.70	60128.36
566.87	60441.99
567.03	59880.27
567.19	60533.28
567.36	60221.98
567.52	60095.60
567.68	60346.03
567.85	60350.71
568.01	60554.34
568.17	60004.31
568.34	60245.39
568.50	60177.51
568.66	60353.05
568.83	60460.72
568.99	60243.05
569.15	60416.25
569.32	60416.25
569.48	60207.94
569.64	60563.70
569.81	60418.59
569.97	60463.06
570.13	60406.89
570.30	60243.05
570.46	60313.26
570.62	60360.08
570.78	60456.04
570.95	60392.84
571.11	60622.22
571.27	60247.73
571.43	60423.27
571.60	60568.38
571.76	60540.30
571.92	60507.53
572.09	60409.23
572.25	60385.82
572.41	60465.40
572.57	60516.89
572.74	60856.27
572.90	60324.97
573.06	60533.28
573.22	60699.45
573.38	60559.02
573.55	60463.06
573.71	60633.92
573.87	60622.22
574.03	60430.29
574.20	60542.64
574.36	60432.63
574.52	60779.03
574.68	60743.92
574.84	60842.23
575.01	60582.43
575.17	60666.69
575.33	60512.21
575.49	60552.00
575.65	60690.09
575.82	60610.51
575.98	60722.86
576.14	60629.24
576.30	60633.92
576.46	60617.53
576.62	60664.35
576.79	60680.73
576.95	60500.51
577.11	60624.56
577.27	60863.29
577.43	60725.20
577.59	60629.24
577.75	60575.40
577.92	60465.40
578.08	60832.86
578.24	60704.13
578.40	60907.76
578.56	60856.27
578.72	60626.90
578.88	60907.76
579.04	60727.54
579.21	60889.04
579.37	60816.48
579.53	60753.29
579.69	60516.89
579.85	60900.74
580.01	60654.98
580.17	60853.93
580.33	60711.16
580.49	60912.44
580.65	60823.50
580.82	60743.92
580.98	60889.04
581.14	60690.09
581.30	60961.59
581.46	60608.17
581.62	60924.14
581.78	60715.84
581.94	60914.78
582.10	60793.07
582.26	60926.49
582.42	60753.29
582.58	60938.19
582.74	60814.14
582.90	60830.52
583.06	60795.42
583.22	60631.58
583.38	61008.40
583.54	60750.94
583.70	60968.61
583.86	60973.30
584.02	60919.46
584.18	61052.87
584.34	61027.13
584.50	60860.95
584.66	60727.54
584.82	60992.02
584.98	61036.49
585.14	60966.27
585.30	60889.04
585.46	61008.40
585.62	61052.87
585.78	60985.00
585.94	60654.98
586.10	60839.89
586.26	60921.80
586.42	60989.68
586.58	60966.27
586.74	60966.27
586.90	60935.85
587.06	60849.25
587.22	61038.83
587.38	60739.24
587.54	61029.47
587.70	61169.90
587.86	61001.38
588.02	60669.03
588.18	61022.45
588.34	60975.64
588.49	60935.85
