SpectraSuite Data File
++++++++++++++++++++++++++++++++++++
Date: Fri Oct 25 10:44:00 EDT 2013
User: price-jones
Dark Spectrum Present: No
Reference Spectrum Present: No
Number of Sampled Component Spectra: 1
Spectrometers: USB2+H05261
Integration Time (usec): 100000 (USB2+H05261)
Spectra Averaged: 1 (USB2+H05261)
Boxcar Smoothing: 0 (USB2+H05261)
Correct for Electrical Dark: No (USB2+H05261)
Strobe/Lamp Enabled: No (USB2+H05261)
Correct for Detector Non-linearity: No (USB2+H05261)
Correct for Stray Light: No (USB2+H05261)
Number of Pixels in Processed Spectrum: 2048
>>>>>Begin Processed Spectral Data<<<<<
365.73	131.07
365.92	131.07
366.12	131.07
366.32	0.00
366.52	0.00
366.72	46.81
366.91	42.13
367.11	84.26
367.31	9.36
367.51	32.77
367.70	23.41
367.90	56.17
368.10	0.00
368.30	16.38
368.49	0.00
368.69	0.00
368.89	53.83
369.09	4.68
369.28	46.81
369.48	93.62
369.68	53.83
369.87	46.81
370.07	53.83
370.27	110.01
370.47	201.29
370.66	374.49
370.86	465.77
371.06	503.22
371.25	437.68
371.45	557.05
371.65	543.00
371.84	472.79
372.04	468.11
372.24	496.19
372.44	491.51
372.63	463.43
372.83	566.41
373.03	568.75
373.22	528.96
373.42	507.90
373.62	599.18
373.81	550.03
374.01	552.37
374.21	643.65
374.40	568.75
374.60	568.75
374.79	538.32
374.99	557.05
375.19	594.50
375.38	557.05
375.58	645.99
375.78	657.69
375.97	622.58
376.17	727.91
376.37	601.52
376.56	645.99
376.76	615.56
376.95	613.22
377.15	559.39
377.35	631.94
377.54	725.57
377.74	697.48
377.93	676.41
378.13	643.65
378.33	648.33
378.52	676.41
378.72	662.37
378.91	613.22
379.11	599.18
379.31	655.35
379.50	676.41
379.70	725.57
379.89	753.65
380.09	667.05
380.28	653.01
380.48	737.27
380.68	690.46
380.87	695.14
381.07	692.80
381.26	732.59
381.46	739.61
381.65	676.41
381.85	594.50
382.04	648.33
382.24	727.91
382.43	645.99
382.63	660.03
382.83	681.10
383.02	709.18
383.22	655.35
383.41	669.39
383.61	793.44
383.80	774.72
384.00	800.46
384.19	781.74
384.39	842.59
384.58	823.87
384.78	781.74
384.97	809.83
385.17	854.30
385.36	863.66
385.56	821.53
385.75	774.72
385.95	800.46
386.14	739.61
386.34	823.87
386.53	812.17
386.72	847.27
386.92	898.77
387.11	943.24
387.31	922.17
387.50	835.57
387.70	816.85
387.89	880.04
388.09	908.13
388.28	924.51
388.48	908.13
388.67	868.34
388.86	912.81
389.06	915.15
389.25	1004.09
389.45	896.43
389.64	917.49
389.84	1062.60
390.03	997.07
390.22	1015.79
390.42	973.66
390.61	929.19
390.81	1064.94
391.00	954.94
391.19	1128.14
391.39	1121.12
391.58	1055.58
391.78	1039.20
391.97	1121.12
392.16	1006.43
392.36	1034.52
392.55	1071.97
392.75	1083.67
392.94	1069.62
393.13	1064.94
393.33	1011.11
393.52	915.15
393.71	1123.46
393.91	1057.92
394.10	1142.18
394.29	1128.14
394.49	1233.46
394.68	1256.87
394.88	1240.48
395.07	1282.61
395.26	1277.93
395.46	1310.70
395.65	1282.61
395.84	1111.75
396.04	1294.32
396.23	1137.50
396.42	1179.63
396.62	1233.46
396.81	1158.57
397.00	1259.21
397.19	1277.93
397.39	1345.81
397.58	1376.24
397.77	1320.06
397.97	1401.98
398.16	1378.58
398.35	1502.62
398.55	1448.79
398.74	1561.14
398.93	1537.73
399.12	1561.14
399.32	1598.59
399.51	1519.01
399.70	1554.12
399.90	1544.75
400.09	1617.31
400.28	1673.48
400.47	1619.65
400.67	1734.34
400.86	1598.59
401.05	1753.06
401.24	1710.93
401.44	1734.34
401.63	1767.10
401.82	1706.25
402.01	1624.33
402.21	1760.08
402.40	1743.70
402.59	1746.04
402.78	1708.59
402.97	1783.49
403.17	1734.34
403.36	1783.49
403.55	1884.13
403.74	1893.49
403.93	1870.09
404.13	1886.47
404.32	1867.75
404.51	1909.88
404.70	2106.48
404.89	1956.69
405.09	2143.93
405.28	1886.47
405.47	2026.90
405.66	2162.66
405.85	2132.23
406.05	1980.09
406.24	2010.52
406.43	1998.82
406.62	2031.58
406.81	2092.44
407.00	2064.35
407.20	2153.29
407.39	2085.42
407.58	2076.06
407.77	2260.96
407.96	2207.13
408.15	2296.07
408.34	2286.70
408.54	2375.64
408.73	2312.45
408.92	2228.19
409.11	2471.61
409.30	2424.80
409.49	2260.96
409.68	2338.20
409.87	2326.49
410.07	2335.85
410.26	2558.21
410.45	2410.75
410.64	2548.84
410.83	2635.44
411.02	2579.27
411.21	2605.02
411.40	2614.38
411.59	2649.49
411.78	2637.78
411.98	2595.65
412.17	2656.51
412.36	2715.02
412.55	2684.59
412.74	2766.51
412.93	2747.79
413.12	2717.36
413.31	2960.78
413.50	2834.39
413.69	2829.71
413.88	2899.92
414.07	2970.14
414.26	2970.14
414.45	3066.10
414.64	2991.20
414.83	2995.89
415.02	2993.55
415.22	3035.67
415.41	3236.96
415.60	3225.26
415.79	3199.51
415.98	3302.50
416.17	3330.58
416.36	3288.45
416.55	3353.99
416.74	3321.22
416.93	3272.07
417.12	3330.58
417.31	3410.16
417.50	3246.32
417.69	3496.76
417.88	3625.49
418.07	3398.46
418.26	3503.78
418.45	3662.94
418.64	3637.19
418.83	3545.91
419.02	3674.64
419.21	3595.06
419.39	3618.47
419.58	3478.04
419.77	3646.55
419.96	3672.30
420.15	3705.07
420.34	3726.13
420.53	3754.22
420.72	3887.63
420.91	3779.97
421.10	3943.80
421.29	3796.35
421.48	3925.08
421.67	3948.48
421.86	3904.01
422.05	3812.73
422.24	3815.07
422.43	3730.81
422.61	4004.66
422.80	3810.39
422.99	3904.01
423.18	3936.78
423.37	3981.25
423.56	3922.74
423.75	3894.65
423.94	3896.99
424.13	3712.09
424.32	3859.54
424.50	3997.64
424.69	3974.23
424.88	3985.93
425.07	3960.19
425.26	3875.93
425.45	4119.34
425.64	3943.80
425.83	3999.98
426.01	3964.87
426.20	4018.70
426.39	4126.36
426.58	3943.80
426.77	3943.80
426.96	3971.89
427.15	4081.89
427.33	4128.70
427.52	4063.17
427.71	4210.62
427.90	4184.88
428.09	4170.83
428.28	4264.46
428.46	4243.39
428.65	4159.13
428.84	4224.67
429.03	4479.79
429.22	4044.45
429.40	4058.49
429.59	4168.49
429.78	4100.62
429.97	3911.04
430.16	4070.19
430.34	4135.73
430.53	4234.03
430.72	4315.95
430.91	4311.27
431.10	4407.23
431.28	4732.56
431.47	4692.77
431.66	4748.95
431.85	4655.33
432.03	4573.41
432.22	4596.81
432.41	4737.24
432.60	4655.33
432.79	4774.69
432.97	4814.48
433.16	4713.84
433.35	4606.17
433.54	4739.58
433.72	4505.53
433.91	4784.06
434.10	4849.59
434.28	4826.18
434.47	4889.38
434.66	4889.38
434.85	4943.21
435.03	5022.79
435.22	5013.43
435.41	5057.90
435.59	5177.26
435.78	5132.79
435.97	5245.14
436.16	5121.09
436.34	5104.71
436.53	5256.84
436.72	5280.25
436.90	5303.65
437.09	5275.57
437.28	5181.95
437.46	5315.36
437.65	5238.12
437.84	5287.27
438.02	5125.77
438.21	5139.82
438.40	5118.75
438.58	5350.46
438.77	5582.18
438.96	5401.96
439.14	5547.07
439.33	5521.32
439.52	5692.18
439.70	5710.91
439.89	5643.03
440.08	5741.33
440.26	5736.65
440.45	5757.72
440.63	5874.74
440.82	6146.25
441.01	6008.16
441.19	6045.60
441.38	6235.19
441.57	6338.17
441.75	6399.02
441.94	6370.94
442.12	6382.64
442.31	6363.92
442.50	6347.53
442.68	6328.81
442.87	6434.13
443.05	6649.46
443.24	6654.14
443.43	6424.77
443.61	6572.22
443.80	6558.18
443.98	6494.99
444.17	6429.45
444.35	6448.18
444.54	6586.27
444.73	6647.12
444.91	6586.27
445.10	6590.95
445.28	6560.52
445.47	6502.01
445.65	6366.26
445.84	6736.06
446.02	6630.74
446.21	6590.95
446.39	6513.71
446.58	6677.55
446.77	6719.68
446.95	6623.72
447.14	6848.41
447.32	7070.76
447.51	6850.75
447.69	6595.63
447.88	6956.07
448.06	6965.43
448.25	6855.43
448.43	6878.83
448.62	6899.90
448.80	6761.81
448.99	6846.07
449.17	7059.06
449.36	6906.92
449.54	7098.84
449.73	7117.57
449.91	7258.00
450.10	7176.08
450.28	7463.97
450.46	7302.47
450.65	7337.58
450.83	7400.77
451.02	7068.42
451.20	7211.19
451.39	7302.47
451.57	7260.34
451.76	7386.73
451.94	7365.67
452.13	7389.07
452.31	7489.71
452.49	7171.40
452.68	7337.58
452.86	7328.22
453.05	7281.41
453.23	7489.71
453.42	7414.82
453.60	7414.82
453.78	7543.55
453.97	7470.99
454.15	7461.63
454.34	7494.40
454.52	7452.27
454.70	7555.25
454.89	7758.88
455.07	7562.27
455.26	7618.44
455.44	8025.70
455.62	7812.71
455.81	7683.98
455.99	7983.57
456.17	7824.41
456.36	8030.38
456.54	8098.25
456.73	8079.53
456.91	8292.52
457.09	8259.75
457.28	8290.18
457.46	8044.42
457.64	8313.58
457.83	8191.88
458.01	8112.30
458.19	8252.73
458.38	8444.65
458.56	8262.09
458.74	8226.98
458.93	8489.12
459.11	8388.48
459.29	8351.03
459.48	8409.54
459.66	8622.53
459.84	8395.50
460.03	8631.90
460.21	8557.00
460.39	8620.19
460.57	8514.87
460.76	8833.18
460.94	8676.37
461.12	8774.67
461.31	8678.71
461.49	8751.26
461.67	8898.72
461.85	9029.79
462.04	8924.46
462.22	8887.01
462.40	9121.07
462.59	9104.68
462.77	8980.64
462.95	8971.27
463.13	8959.57
463.32	9006.38
463.50	9298.95
463.68	9249.80
463.86	9167.88
464.05	9181.92
464.23	9013.40
464.41	9102.34
464.59	9004.04
464.78	9320.01
464.96	9338.74
465.14	9188.94
465.32	9256.82
465.50	9385.55
465.69	9486.19
465.87	9448.74
466.05	9247.46
466.23	9275.54
466.41	9284.91
466.60	9488.53
466.78	9284.91
466.96	9523.64
467.14	9446.40
467.32	9542.36
467.51	9788.12
467.69	9380.87
467.87	9462.79
468.05	9640.67
468.23	9628.96
468.41	9654.71
468.60	9647.69
468.78	9619.60
468.96	9528.32
469.14	10012.81
469.32	9839.61
469.50	9958.98
469.69	9919.19
469.87	9853.66
470.05	10019.83
470.23	10026.86
470.41	9996.43
470.59	10115.80
470.77	10204.74
470.95	10012.81
471.14	10431.77
471.32	10146.22
471.50	10504.32
471.68	10551.14
471.86	10555.82
472.04	10370.91
472.22	10712.63
472.40	10391.98
472.58	10616.67
472.77	10579.22
472.95	10588.58
473.13	11023.92
473.31	10759.44
473.49	10785.19
473.67	10626.03
473.85	10717.31
474.03	11007.54
474.21	10951.37
474.39	11061.37
474.57	11367.98
474.75	11358.62
474.93	11267.34
475.12	11372.66
475.30	11557.57
475.48	11255.64
475.66	11321.17
475.84	11295.43
476.02	11405.43
476.20	11751.83
476.38	11744.81
476.56	11871.20
476.74	11875.88
476.92	12037.38
477.10	11885.24
477.28	12170.79
477.46	12154.40
477.64	12519.53
477.82	12573.36
478.00	12971.25
478.18	12802.73
478.36	12779.32
478.54	12987.63
478.72	13001.68
478.90	12989.97
479.08	13270.84
479.26	13331.69
479.44	13355.10
479.62	13394.89
479.80	13467.44
479.98	13577.45
480.16	13865.33
480.34	13816.18
480.52	14113.43
480.70	13895.76
480.88	13884.06
481.06	14106.41
481.24	13984.70
481.41	14478.55
481.59	14661.12
481.77	14431.74
481.95	14494.94
482.13	14654.09
482.31	14759.42
482.49	14927.94
482.67	15290.72
482.85	15520.09
483.03	15255.61
483.21	15587.97
483.39	15360.94
483.57	15463.92
483.74	15445.20
483.92	15934.37
484.10	15655.84
484.28	16035.01
484.46	16301.83
484.64	16393.11
484.82	15988.20
485.00	16339.28
485.18	16662.27
485.35	16521.84
485.53	16163.74
485.71	16276.09
485.89	16519.50
486.07	16648.23
486.25	17029.74
486.43	17064.85
486.61	17516.57
486.78	17352.73
486.96	17390.18
487.14	17975.31
487.32	18200.01
487.50	18579.17
487.68	18253.84
487.85	18682.16
488.03	18466.83
488.21	19035.58
488.39	18874.08
488.57	18717.26
488.75	19190.05
488.92	19407.72
489.10	19410.06
489.28	19569.22
489.46	19775.19
489.64	19950.73
489.81	20613.10
489.99	20496.07
490.17	20292.44
490.35	20816.72
490.53	20503.09
490.70	20819.07
490.88	20793.32
491.06	21018.01
491.24	21036.74
491.41	20833.11
491.59	21081.21
491.77	20931.41
491.95	21202.91
492.13	21607.83
492.30	21788.05
492.48	21944.86
492.66	21898.05
492.84	21977.63
493.01	22466.80
493.19	22089.98
493.37	22721.92
493.54	22583.83
493.72	22677.45
493.90	22820.22
494.08	23150.24
494.25	23473.23
494.43	23506.00
494.61	23669.84
494.79	23686.22
494.96	23564.51
495.14	23756.44
495.32	23896.87
495.49	23821.97
495.67	24484.34
495.85	24203.48
496.02	24556.90
496.20	24367.32
496.38	24589.67
496.55	24802.66
496.73	25287.15
496.91	25078.84
497.09	25120.97
497.26	25427.58
497.44	25591.42
497.62	25666.31
497.79	25837.17
497.97	25621.84
498.14	25518.86
498.32	25944.84
498.50	26061.87
498.67	26295.92
498.85	26272.51
499.03	26532.31
499.20	26492.52
499.38	26651.68
499.56	26841.26
499.73	26813.18
499.91	26850.63
500.08	26953.61
500.26	26871.69
500.44	27035.53
500.61	27140.85
500.79	26895.10
500.97	26864.67
501.14	27508.32
501.32	27583.21
501.49	27201.71
501.67	27325.75
501.84	27826.63
502.02	27751.73
502.20	27943.66
502.37	27749.39
502.55	27700.24
502.72	28386.02
502.90	28774.55
503.07	28404.74
503.25	28643.48
503.43	28301.76
503.60	28697.31
503.78	28514.75
503.95	28402.40
504.13	29071.79
504.30	28950.09
504.48	29191.16
504.65	29235.63
504.83	29127.97
505.01	29745.87
505.18	29336.27
505.36	29788.00
505.53	29919.07
505.71	29773.95
505.88	29832.47
506.06	29659.27
506.23	30010.35
506.41	29984.60
506.58	30387.18
506.76	30436.33
506.93	29923.75
507.11	30490.16
507.28	30581.44
507.46	30206.95
507.63	30436.33
507.81	30759.32
507.98	30146.10
508.16	30923.16
508.33	30923.16
508.50	31110.40
508.68	31522.34
508.85	31477.86
509.03	31445.10
509.20	31234.45
509.38	31381.90
509.55	31852.35
509.73	31639.36
509.90	31470.84
510.08	31318.71
510.25	31690.85
510.42	31470.84
510.60	31995.12
510.77	32030.23
510.95	32566.21
511.12	31948.31
511.30	32378.97
511.47	32947.72
511.64	32673.88
511.82	32748.78
511.99	32683.24
512.17	32821.33
512.34	32622.39
512.51	32872.82
512.69	33057.73
512.86	33233.27
513.04	33116.24
513.21	33244.97
513.38	33270.72
513.56	33322.21
513.73	32861.12
513.90	33280.08
514.08	33074.11
514.25	33556.26
514.43	33600.73
514.60	33392.42
514.77	33497.75
514.95	33951.81
515.12	33963.51
515.29	33839.47
515.47	34211.61
515.64	34581.42
515.81	34188.21
515.99	33865.21
516.16	33930.75
516.33	34120.33
516.51	34022.03
516.68	33668.61
516.85	33773.93
517.03	34047.77
517.20	34225.65
517.37	34389.49
517.54	34677.38
517.72	34824.83
517.89	34445.66
518.06	34689.08
518.24	34478.43
518.41	34660.99
518.58	34731.21
518.75	34904.41
518.93	35505.93
519.10	35105.70
519.27	35124.42
519.45	35342.09
519.62	35880.41
519.79	35693.17
519.96	35976.37
520.14	35934.24
520.31	35597.21
520.48	36149.57
520.65	35407.62
520.83	36481.93
521.00	36538.10
521.17	36381.29
521.34	36376.61
521.52	36079.36
521.69	36641.09
521.86	36781.52
522.03	36655.13
522.20	36893.86
522.38	37118.56
522.55	36928.97
522.72	36613.00
522.89	36790.88
523.07	37064.72
523.24	36872.80
523.41	37273.03
523.58	36900.89
523.75	37888.59
523.92	37867.53
524.10	37912.00
524.27	38124.99
524.44	37200.47
524.61	37996.26
524.78	37495.38
524.96	38113.28
525.13	37900.29
525.30	38520.54
525.47	38337.98
525.64	38249.03
525.81	37963.49
525.98	37869.87
526.16	38014.98
526.33	37514.11
526.50	37909.66
526.67	37448.57
526.84	37886.25
527.01	37874.55
527.18	38143.71
527.36	38546.28
527.53	38253.72
527.70	38789.70
527.87	38452.66
528.04	38635.22
528.21	39002.69
528.38	39154.82
528.55	39178.23
528.72	39180.57
528.89	39728.25
529.07	38930.13
529.24	39105.67
529.41	39435.69
529.58	39138.44
529.75	39330.36
529.92	39597.18
530.09	39409.94
530.26	39728.25
530.43	39746.98
530.60	39852.30
530.77	39431.01
530.94	39852.30
531.11	39716.55
531.28	39826.56
531.46	39868.69
531.63	40191.68
531.80	39651.02
531.97	39749.32
532.14	39955.29
532.31	39290.57
532.48	40053.59
532.65	40053.59
532.82	39559.73
532.99	40566.16
533.16	40170.61
533.33	40531.06
533.50	40456.16
533.67	40704.26
533.84	40030.18
534.01	40435.10
534.18	40561.48
534.35	40573.19
534.52	40439.78
534.69	40800.22
534.86	41015.55
535.03	40877.46
535.20	41380.67
535.37	41640.47
535.54	41242.58
535.71	40804.90
535.88	40879.80
536.05	41118.53
536.22	40942.99
536.38	41036.61
536.55	41221.52
536.72	41123.21
536.89	41251.94
537.06	40959.38
537.23	41125.55
537.40	40964.06
537.57	41478.97
537.74	41869.84
537.91	41881.55
538.08	41495.36
538.25	41375.99
538.42	41811.33
538.59	42017.30
538.75	41336.20
538.92	41869.84
539.09	41722.39
539.26	41787.92
539.43	42050.06
539.60	41605.36
539.77	41717.71
539.94	41961.12
540.11	41806.65
540.28	41708.35
540.44	41909.63
540.61	42412.85
540.78	42029.00
540.95	42047.72
541.12	42017.30
541.29	42333.27
541.46	41942.40
541.62	42213.90
541.79	42632.86
541.96	42256.03
542.13	42660.94
542.30	42225.60
542.47	42560.30
542.63	42223.26
542.80	42548.60
542.97	42934.79
543.14	42906.70
543.31	42691.37
543.48	43047.13
543.64	43517.58
543.81	43260.12
543.98	43192.25
544.15	43194.59
544.32	43269.48
544.48	43716.53
544.65	43681.42
544.82	43152.46
544.99	43079.90
545.16	43388.85
545.32	43084.58
545.49	43363.11
545.66	43695.46
545.83	43856.96
546.00	44051.22
546.16	43526.94
546.33	43412.26
546.50	43599.50
546.67	43906.11
546.83	43421.62
547.00	44168.25
547.17	43927.17
547.34	43199.27
547.50	43821.85
547.67	44184.63
547.84	43981.01
548.00	44062.93
548.17	44210.38
548.34	44282.94
548.51	44432.73
548.67	44212.72
548.84	44397.62
549.01	44212.72
549.18	44196.34
549.34	44399.96
549.51	44289.96
549.68	44519.33
549.84	44374.22
550.01	44645.72
550.18	44411.67
550.34	44287.62
550.51	44421.03
550.68	44149.53
550.84	44191.65
551.01	44346.13
551.18	44669.12
551.34	44418.69
551.51	44538.05
551.68	44683.17
551.84	44814.24
552.01	44603.59
552.18	44425.71
552.34	44629.34
552.51	44811.90
552.68	44907.86
552.84	44851.69
553.01	44828.28
553.18	45008.50
553.34	44882.11
553.51	44556.78
553.67	45090.42
553.84	44744.02
554.01	44982.76
554.17	44959.35
554.34	45151.27
554.51	45291.71
554.67	45696.62
554.84	44968.71
555.00	44706.57
555.17	45453.20
555.33	45104.46
555.50	45567.89
555.67	45425.12
555.83	44751.04
556.00	45485.97
556.16	45476.61
556.33	45340.86
556.50	45237.87
556.66	45235.53
556.83	44971.05
556.99	45277.66
557.16	45371.28
557.32	45350.22
557.49	45844.07
557.65	45469.59
557.82	45673.21
557.98	45546.82
558.15	45738.75
558.32	45556.19
558.48	45202.77
558.65	45340.86
558.81	45411.07
558.98	45132.55
559.14	45815.99
559.31	45619.38
559.47	45916.63
559.64	45780.88
559.80	46127.28
559.97	45640.45
560.13	45633.42
560.30	45598.32
560.46	45436.82
560.63	45338.52
560.79	46038.34
560.96	46092.17
561.12	46103.87
561.29	45434.48
561.45	46028.98
561.61	45673.21
561.78	45532.78
561.94	45680.24
562.11	45797.26
562.27	46103.87
562.44	45996.21
562.60	45986.85
562.77	45916.63
562.93	45595.98
563.10	46110.89
563.26	45698.96
563.42	45745.77
563.59	45743.43
563.75	45911.95
563.92	46424.53
564.08	45970.46
564.24	46384.74
564.41	45755.13
564.57	46005.57
564.74	45930.67
564.90	46323.88
565.07	45956.42
565.23	46164.73
565.39	45818.33
565.56	45797.26
565.72	45680.24
565.88	45841.73
566.05	46153.02
566.21	45975.14
566.38	46167.07
566.54	46010.25
566.70	46312.18
566.87	46167.07
567.03	46267.71
567.19	46597.73
567.36	46864.55
567.52	46129.62
567.68	46602.41
567.85	46080.47
568.01	46302.82
568.17	45949.40
568.34	46543.89
568.50	46506.44
568.66	45998.55
568.83	46057.06
568.99	45925.99
569.15	46192.81
569.32	46417.50
569.48	45808.96
569.64	46490.06
569.81	46281.75
569.97	46274.73
570.13	46237.28
570.30	46038.34
570.46	45703.64
570.62	46368.35
570.78	45839.39
570.95	46190.47
571.11	46415.16
571.27	45993.87
571.43	46307.50
571.60	46443.25
571.76	46302.82
571.92	46450.27
572.09	46375.37
572.25	46028.98
572.41	46670.28
572.57	46813.05
572.74	46876.25
572.90	46595.38
573.06	46625.81
573.22	46204.52
573.38	46384.74
573.55	46358.99
573.71	46476.02
573.87	46714.75
574.03	46548.57
574.20	46653.90
574.36	46543.89
574.52	46459.63
574.68	46469.00
574.84	46642.20
575.01	46333.24
575.17	46302.82
575.33	45968.12
575.49	46483.04
575.65	46618.79
575.82	46815.40
575.98	46204.52
576.14	46857.52
576.30	46248.99
576.46	46213.88
576.62	46167.07
576.79	46328.56
576.95	46319.20
577.11	46284.09
577.27	46293.46
577.43	46412.82
577.59	46288.77
577.75	46330.90
577.92	46162.39
578.08	45968.12
578.24	46469.00
578.40	46248.99
578.56	46410.48
578.72	46522.83
578.88	46717.09
579.04	46298.14
579.21	46344.95
579.37	46546.23
579.53	46761.56
579.69	46211.54
579.85	46555.60
580.01	46550.91
580.17	46354.31
580.33	46277.07
580.49	46450.27
580.65	46670.28
580.82	46864.55
580.98	46773.27
581.14	46550.91
581.30	46799.01
581.46	46534.53
581.62	46412.82
581.78	46349.63
581.94	47157.11
582.10	46614.11
582.26	46508.79
582.42	46761.56
582.58	46450.27
582.74	46705.39
582.90	46932.42
583.06	46660.92
583.22	47002.64
583.38	46763.90
583.54	46894.97
583.70	46972.21
583.86	46927.74
584.02	46447.93
584.18	46562.62
584.34	46522.83
584.50	46707.73
584.66	46651.56
584.82	45921.31
584.98	46354.31
585.14	46855.18
585.30	46611.77
585.46	46410.48
585.62	46319.20
585.78	46506.44
585.94	46298.14
586.10	46284.09
586.26	46532.19
586.42	46698.37
586.58	46342.61
586.74	46597.73
586.90	46513.47
587.06	46658.58
587.22	46700.71
587.38	46248.99
587.54	46532.19
587.70	46284.09
587.86	46665.60
588.02	46557.94
588.18	46649.22
588.34	46248.99
588.49	46071.10
588.65	45755.13
588.81	45958.76
588.97	45970.46
589.13	46150.68
589.29	46319.20
589.45	46206.86
589.61	46230.26
589.77	46752.20
589.93	46579.00
