SpectraSuite Data File
++++++++++++++++++++++++++++++++++++
Date: Fri Oct 25 11:33:37 EDT 2013
User: price-jones
Dark Spectrum Present: No
Reference Spectrum Present: No
Number of Sampled Component Spectra: 1
Spectrometers: USB2+H05261
Integration Time (usec): 100000 (USB2+H05261)
Spectra Averaged: 1 (USB2+H05261)
Boxcar Smoothing: 0 (USB2+H05261)
Correct for Electrical Dark: No (USB2+H05261)
Strobe/Lamp Enabled: No (USB2+H05261)
Correct for Detector Non-linearity: No (USB2+H05261)
Correct for Stray Light: No (USB2+H05261)
Number of Pixels in Processed Spectrum: 2048
>>>>>Begin Processed Spectral Data<<<<<
365.73	285.55
365.92	285.55
366.12	285.55
366.32	140.43
366.52	222.35
366.72	161.50
366.91	201.29
367.11	184.90
367.31	93.62
367.51	180.22
367.70	184.90
367.90	168.52
368.10	159.16
368.30	182.56
368.49	173.20
368.69	175.54
368.89	205.97
369.09	217.67
369.28	203.63
369.48	173.20
369.68	229.37
369.87	201.29
370.07	138.09
370.27	271.50
370.47	327.68
370.66	538.32
370.86	468.11
371.06	566.41
371.25	606.20
371.45	571.09
371.65	465.77
371.84	528.96
372.04	514.92
372.24	585.13
372.44	486.83
372.63	479.81
372.83	645.99
373.03	587.47
373.22	484.49
373.42	622.58
373.62	641.31
373.81	606.20
374.01	725.57
374.21	697.48
374.40	660.03
374.60	671.73
374.79	692.80
374.99	664.71
375.19	638.97
375.38	603.86
375.58	631.94
375.78	697.48
375.97	662.37
376.17	716.20
376.37	737.27
376.56	643.65
376.76	685.78
376.95	613.22
377.15	685.78
377.35	688.12
377.54	634.29
377.74	610.88
377.93	723.23
378.13	699.82
378.33	772.38
378.52	760.67
378.72	765.36
378.91	730.25
379.11	620.24
379.31	737.27
379.50	713.86
379.70	807.48
379.89	753.65
380.09	709.18
380.28	741.95
380.48	732.59
380.68	737.27
380.87	685.78
381.07	837.91
381.26	760.67
381.46	781.74
381.65	751.31
381.85	791.10
382.04	828.55
382.24	720.88
382.43	718.54
382.63	774.72
382.83	765.36
383.02	840.25
383.22	760.67
383.41	800.46
383.61	863.66
383.80	828.55
384.00	781.74
384.19	793.44
384.39	863.66
384.58	746.63
384.78	826.21
384.97	926.85
385.17	821.53
385.36	873.02
385.56	877.70
385.75	805.14
385.95	873.02
386.14	905.79
386.34	833.23
386.53	835.57
386.72	861.32
386.92	837.91
387.11	912.81
387.31	903.45
387.50	915.15
387.70	847.27
387.89	873.02
388.09	980.68
388.28	903.45
388.48	903.45
388.67	905.79
388.86	891.74
389.06	926.85
389.25	990.05
389.45	910.47
389.64	994.73
389.84	1036.86
390.03	1018.13
390.22	1008.77
390.42	966.64
390.61	1013.45
390.81	938.55
391.00	940.90
391.19	1022.81
391.39	961.96
391.58	884.72
391.78	1076.65
391.97	1025.15
392.16	1041.54
392.36	1078.99
392.55	1081.33
392.75	1064.94
392.94	978.34
393.13	1100.05
393.33	1053.24
393.52	1116.44
393.71	1205.38
393.91	1039.20
394.10	966.64
394.29	1081.33
394.49	1125.80
394.68	1149.20
394.88	1090.69
395.07	1163.25
395.26	1090.69
395.46	1107.07
395.65	1121.12
395.84	1231.12
396.04	1214.74
396.23	1149.20
396.42	1188.99
396.62	1263.89
396.81	1275.59
397.00	1214.74
397.19	1224.10
397.39	1186.65
397.58	1252.19
397.77	1142.18
397.97	1196.01
398.16	1331.76
398.35	1287.29
398.55	1273.25
398.74	1226.44
398.93	1329.42
399.12	1252.19
399.32	1310.70
399.51	1313.04
399.70	1383.26
399.90	1299.00
400.09	1348.15
400.28	1357.51
400.47	1345.81
400.67	1490.92
400.86	1497.94
401.05	1366.87
401.24	1401.98
401.44	1423.05
401.63	1425.39
401.82	1502.62
402.01	1465.18
402.21	1509.65
402.40	1568.16
402.59	1423.05
402.78	1437.09
402.97	1598.59
403.17	1572.84
403.36	1519.01
403.55	1614.97
403.74	1490.92
403.93	1502.62
404.13	1668.80
404.32	1556.46
404.51	1626.67
404.70	1668.80
404.89	1633.69
405.09	1732.00
405.28	1732.00
405.47	1760.08
405.66	1624.33
405.85	1785.83
406.05	1762.42
406.24	1820.94
406.43	1633.69
406.62	1736.68
406.81	1785.83
407.00	1682.85
407.20	1849.02
407.39	1760.08
407.58	1846.68
407.77	1921.58
407.96	1849.02
408.15	1942.64
408.34	1935.62
408.54	1977.75
408.73	1944.99
408.92	1905.20
409.11	1870.09
409.30	2015.20
409.49	1980.09
409.68	2045.63
409.87	1982.43
410.07	2136.91
410.26	2080.74
410.45	2012.86
410.64	2050.31
410.83	2106.48
411.02	2282.02
411.21	2172.02
411.40	2190.74
411.59	2225.85
411.78	2108.82
411.98	2157.97
412.17	2275.00
412.36	2235.21
412.55	2193.08
412.74	2375.64
412.93	2410.75
413.12	2321.81
413.31	2443.52
413.50	2253.94
413.69	2438.84
413.88	2366.28
414.07	2443.52
414.26	2534.80
414.45	2548.84
414.64	2534.80
414.83	2530.12
415.02	2619.06
415.22	2693.96
415.41	2719.70
415.60	2677.57
415.79	2654.17
415.98	2661.19
416.17	2651.83
416.36	2602.68
416.55	2836.73
416.74	2834.39
416.93	2785.24
417.12	2862.48
417.31	2818.00
417.50	2876.52
417.69	3000.57
417.88	3030.99
418.07	2920.99
418.26	2892.90
418.45	3002.91
418.64	3155.04
418.83	3187.81
419.02	3056.74
419.21	3094.19
419.39	3000.57
419.58	3033.33
419.77	3166.74
419.96	3110.57
420.15	3131.64
420.34	3101.21
420.53	3262.71
420.72	3159.72
420.91	3236.96
421.10	3283.77
421.29	3262.71
421.48	3157.38
421.67	3220.58
421.86	3206.53
422.05	3288.45
422.24	3295.47
422.43	3318.88
422.61	3314.20
422.80	3419.52
422.99	3365.69
423.18	3581.02
423.37	3384.41
423.56	3363.35
423.75	3323.56
423.94	3321.22
424.13	3255.69
424.32	3365.69
424.50	3410.16
424.69	3564.64
424.88	3475.70
425.07	3417.18
425.26	3454.63
425.45	3407.82
425.64	3496.76
425.83	3361.01
426.01	3574.00
426.20	3461.65
426.39	3475.70
426.58	3492.08
426.77	3438.25
426.96	3538.89
427.15	3609.11
427.33	3651.24
427.52	3576.34
427.71	3566.98
427.90	3576.34
428.09	3543.57
428.28	3676.98
428.46	3578.68
428.65	3517.83
428.84	3892.31
429.03	3815.07
429.22	3740.18
429.40	3660.60
429.59	3707.41
429.78	3648.90
429.97	3588.04
430.16	3702.73
430.34	3908.69
430.53	3765.92
430.72	3964.87
430.91	3852.52
431.10	3833.80
431.28	4004.66
431.47	4098.28
431.66	4037.42
431.85	3964.87
432.03	4056.15
432.22	4042.11
432.41	4133.39
432.60	4161.47
432.79	4065.51
432.97	4175.52
433.16	4079.55
433.35	4077.21
433.54	4074.87
433.72	4133.39
433.91	4152.11
434.10	4180.20
434.28	4203.60
434.47	4173.18
434.66	4259.78
434.85	4435.32
435.03	4334.67
435.22	4311.27
435.41	4451.70
435.59	4369.78
435.78	4341.69
435.97	4315.95
436.16	4311.27
436.34	4545.32
436.53	4367.44
436.72	4634.26
436.90	4376.80
437.09	4535.96
437.28	4458.72
437.46	4610.86
437.65	4538.30
437.84	4690.43
438.02	4629.58
438.21	4542.98
438.40	4486.81
438.58	4706.82
438.77	4683.41
438.96	4795.76
439.14	4980.66
439.33	4788.74
439.52	4999.38
439.70	4922.15
439.89	5018.11
440.08	5060.24
440.26	4959.60
440.45	5144.50
440.63	5114.07
440.82	5205.35
441.01	5132.79
441.19	5181.95
441.38	5343.44
441.57	5184.29
441.75	5357.49
441.94	5479.19
442.12	5369.19
442.31	5451.11
442.50	5385.57
442.68	5453.45
442.87	5371.53
443.05	5572.82
443.24	5523.66
443.43	5537.71
443.61	5565.79
443.80	5540.05
443.98	5500.26
444.17	5345.78
444.35	5621.97
444.54	5682.82
444.73	5528.35
444.91	5703.89
445.10	5533.03
445.28	5556.43
445.47	5572.82
445.65	5729.63
445.84	5650.05
446.02	5575.16
446.21	5664.10
446.39	5589.20
446.58	5757.72
446.77	5682.82
446.95	5561.11
447.14	5764.74
447.32	5858.36
447.51	5839.64
447.69	5729.63
447.88	5813.89
448.06	5914.53
448.25	5895.81
448.43	5748.36
448.62	5701.54
448.80	5795.17
448.99	5982.41
449.17	5937.94
449.36	5680.48
449.54	5968.37
449.73	6080.71
449.91	6127.52
450.10	6054.97
450.28	6127.52
450.46	6085.39
450.65	6171.99
450.83	6239.87
451.02	6174.33
451.20	6101.78
451.39	6157.95
451.57	6286.68
451.76	6092.41
451.94	6186.04
452.13	6260.93
452.31	6195.40
452.49	6164.97
452.68	6347.53
452.86	6265.61
453.05	6317.11
453.23	6359.24
453.42	6342.85
453.60	6286.68
453.78	6565.20
453.97	6326.47
454.15	6483.28
454.34	6296.04
454.52	6654.14
454.70	6607.33
454.89	6675.21
455.07	6595.63
455.26	6698.61
455.44	6654.14
455.62	6555.84
455.81	6731.38
455.99	6810.96
456.17	6670.53
456.36	6902.24
456.54	6850.75
456.73	6759.47
456.91	7063.74
457.09	6951.39
457.28	7098.84
457.46	6935.01
457.64	7049.69
457.83	7014.59
458.01	7089.48
458.19	7243.96
458.38	7007.56
458.56	7215.87
458.74	7211.19
458.93	7293.11
459.11	7234.60
459.29	7267.36
459.48	7274.38
459.66	7318.86
459.84	7356.30
460.03	7602.06
460.21	7506.10
460.39	7192.47
460.57	7403.11
460.76	7449.93
460.94	7529.50
461.12	7466.31
461.31	7449.93
461.49	7489.71
461.67	7599.72
461.85	7653.55
462.04	7573.97
462.22	7896.97
462.40	7648.87
462.59	7889.95
462.77	7894.63
462.95	7681.64
463.13	7803.35
463.32	7929.74
463.50	7889.95
463.68	7920.37
463.86	8025.70
464.05	7712.07
464.23	7831.43
464.41	7801.01
464.59	8004.63
464.78	8318.26
464.96	8067.83
465.14	8109.96
465.32	8147.40
465.50	8170.81
465.69	8301.88
465.87	8088.89
466.05	7981.23
466.23	8138.04
466.41	8102.93
466.60	8315.92
466.78	8032.72
466.96	8215.28
467.14	8280.82
467.32	8514.87
467.51	8430.61
467.69	8135.70
467.87	8409.54
468.05	8372.10
468.23	8521.89
468.41	8379.12
468.60	8418.91
468.78	8674.03
468.96	8507.85
469.14	8713.81
469.32	8601.47
469.50	8496.14
469.69	8730.20
469.87	8786.37
470.05	8793.39
470.23	8798.07
470.41	8667.00
470.59	8734.88
470.77	8659.98
470.95	8870.63
471.14	9027.45
471.32	8982.98
471.50	8748.92
471.68	8990.00
471.86	9020.42
472.04	9221.71
472.22	9411.29
472.40	8861.27
472.58	9193.62
472.77	9420.66
472.95	9359.80
473.13	9776.42
473.31	9263.84
473.49	9502.58
473.67	9448.74
473.85	9617.26
474.03	9708.54
474.21	9912.17
474.39	9944.94
474.57	10005.79
474.75	9839.61
474.93	10015.15
475.12	9834.93
475.30	10052.60
475.48	10118.14
475.66	9973.02
475.84	10157.92
476.02	10298.36
476.20	10415.38
476.38	10417.72
476.56	10494.96
476.74	10277.29
476.92	10609.65
477.10	10396.66
477.28	10590.92
477.46	10712.63
477.64	10960.73
477.82	10991.16
478.00	11150.31
478.18	11040.31
478.36	11286.06
478.54	11164.36
478.72	11286.06
478.90	11623.10
479.08	11496.71
479.26	11522.46
479.44	11695.66
479.62	11817.36
479.80	11868.86
479.98	12030.35
480.16	12264.41
480.34	12161.42
480.52	12308.88
480.70	12498.46
480.88	11983.54
481.06	12325.26
481.24	12498.46
481.41	12751.24
481.59	12709.11
481.77	13013.38
481.95	12833.16
482.13	13158.49
482.31	13158.49
482.49	13308.29
482.67	13193.60
482.85	13598.51
483.03	13570.43
483.21	13631.28
483.39	13844.27
483.57	13872.36
483.74	13729.58
483.92	13984.70
484.10	14090.02
484.28	14420.04
484.46	14745.38
484.64	14897.51
484.82	14586.22
485.00	14604.94
485.18	14843.68
485.35	15103.48
485.53	15054.33
485.71	15152.63
485.89	15412.43
486.07	15592.65
486.25	15431.15
486.43	15719.04
486.61	15929.69
486.78	15686.27
486.96	15908.62
487.14	15829.04
487.32	16112.25
487.50	16299.49
487.68	16407.16
487.85	16573.33
488.03	16903.35
488.21	16954.84
488.39	16781.64
488.57	17256.77
488.75	17298.90
488.92	17820.84
489.10	17406.56
489.28	17776.37
489.46	17661.68
489.64	17621.89
489.81	18237.45
489.99	18312.35
490.17	18302.99
490.35	18331.08
490.53	18422.36
490.70	18658.75
490.88	18625.98
491.06	18827.27
491.24	18878.76
491.41	18960.68
491.59	19264.95
491.77	19328.14
491.95	19496.66
492.13	19314.10
492.30	19747.10
492.48	19751.78
492.66	20159.03
492.84	19955.41
493.01	20390.75
493.19	20299.47
493.37	20311.17
493.54	20313.51
493.72	20709.06
493.90	20673.95
494.08	20783.96
494.25	20893.96
494.43	20992.26
494.61	21158.44
494.79	21043.76
494.96	20903.32
495.14	21280.15
495.32	21919.12
495.49	21905.07
495.67	21642.93
495.85	22118.06
496.02	22405.95
496.20	22370.84
496.38	22642.34
496.55	22562.76
496.73	22628.30
496.91	22712.56
497.09	22960.66
497.26	22939.59
497.44	22721.92
497.62	23257.90
497.79	23573.88
497.97	23232.16
498.14	23592.60
498.32	23828.99
498.50	23812.61
498.67	24116.88
498.85	23784.52
499.03	23995.17
499.20	24240.93
499.38	24236.25
499.56	24325.19
499.73	24603.71
499.91	24915.00
500.08	25022.67
500.26	24685.63
500.44	24692.65
500.61	24627.12
500.79	24905.64
500.97	25516.52
501.14	25273.10
501.32	25546.95
501.49	25343.32
501.67	25781.00
501.84	25837.17
502.02	25476.73
502.20	25757.60
502.37	25923.77
502.55	25682.70
502.72	26164.85
502.90	25869.94
503.07	26064.21
503.25	26031.44
503.43	26099.31
503.60	26127.40
503.78	26195.28
503.95	26244.43
504.13	26597.85
504.30	26607.21
504.48	26792.11
504.65	27147.87
504.83	26902.12
505.01	27405.33
505.18	27197.02
505.36	27314.05
505.53	27569.17
505.71	27480.23
505.88	27571.51
506.06	27541.08
506.23	27688.54
506.41	27562.15
506.58	27999.83
506.76	27861.74
506.93	28594.32
507.11	27742.37
507.28	27843.01
507.46	28306.44
507.63	28060.68
507.81	28409.42
507.98	28587.30
508.16	28830.72
508.33	28638.80
508.50	28994.56
508.68	28477.30
508.85	28903.28
509.03	29001.58
509.20	29142.01
509.38	29355.00
509.55	29420.53
509.73	29315.21
509.90	29319.89
510.08	29806.72
510.25	29223.93
510.42	29481.39
510.60	29799.70
510.77	30019.71
510.95	30328.66
511.12	29626.50
511.30	29867.58
511.47	30199.93
511.64	30015.03
511.82	30370.79
511.99	30445.69
512.17	30691.44
512.34	30085.25
512.51	30738.26
512.69	31166.57
512.86	30719.53
513.04	31002.74
513.21	30672.72
513.38	30848.26
513.56	31630.00
513.73	30852.94
513.90	31447.44
514.08	31084.65
514.25	31943.63
514.43	31613.62
514.60	31679.15
514.77	31873.42
514.95	31840.65
515.12	31864.05
515.29	32308.76
515.47	31786.82
515.64	32041.93
515.81	31784.48
515.99	31777.45
516.16	32594.30
516.33	32556.85
516.51	32596.64
516.68	32261.94
516.85	32182.37
517.03	32704.31
517.20	32830.69
517.37	32903.25
517.54	32793.25
517.72	32725.37
517.89	32701.96
518.06	32840.06
518.24	32926.66
518.41	33132.62
518.58	33120.92
518.75	32863.46
518.93	33188.80
519.10	33048.36
519.27	33212.20
519.45	33832.44
519.62	33748.18
519.79	34010.32
519.96	33661.58
520.14	33539.88
520.31	33771.59
520.48	34019.69
520.65	34160.12
520.83	34499.50
521.00	34583.76
521.17	34085.22
521.34	34513.54
521.52	34897.39
521.69	34558.01
521.86	34576.73
522.03	34920.79
522.20	34976.97
522.38	35206.34
522.55	35143.14
522.72	35084.63
522.89	35051.86
523.07	35669.76
523.24	35370.18
523.41	35306.98
523.58	35089.31
523.75	35716.58
523.92	35498.91
524.10	35742.32
524.27	35931.90
524.44	35641.68
524.61	35526.99
524.78	36062.97
524.96	36126.17
525.13	36011.48
525.30	36128.51
525.47	36437.46
525.64	36105.10
525.81	36114.47
525.98	36547.47
526.16	36517.04
526.33	36622.36
526.50	36978.12
526.67	35938.93
526.84	36259.58
527.01	36463.21
527.18	37090.47
527.36	36999.19
527.53	37148.98
527.70	37273.03
527.87	37610.07
528.04	37280.05
528.21	37181.75
528.38	37076.43
528.55	37446.23
528.72	37324.52
528.89	37624.11
529.07	37200.47
529.24	37340.91
529.41	37851.14
529.58	37766.88
529.75	37743.48
529.92	38108.60
530.09	37839.44
530.26	37448.57
530.43	37921.36
530.60	37715.39
530.77	37649.86
530.94	37661.56
531.11	37954.13
531.28	37890.93
531.46	38553.30
531.63	38216.27
531.80	38466.70
531.97	38286.48
532.14	38195.20
532.31	38157.75
532.48	38841.19
532.65	38298.19
532.82	38986.30
532.99	38773.31
533.16	38646.93
533.33	38792.04
533.50	38906.73
533.67	38740.55
533.84	38651.61
534.01	38934.81
534.18	38906.73
534.35	38962.90
534.52	39070.56
534.69	39515.26
534.86	39704.85
535.03	39384.19
535.20	39468.45
535.37	39477.82
535.54	39763.36
535.71	39618.25
535.88	39550.37
536.05	39651.02
536.22	39976.35
536.38	39866.34
536.55	39784.43
536.72	39845.28
536.89	39494.20
537.06	39950.60
537.23	39845.28
537.40	39653.36
537.57	39988.05
537.74	40135.51
537.91	40399.99
538.08	40187.00
538.25	39969.33
538.42	40414.03
538.59	40708.94
538.75	40144.87
538.92	40680.85
539.09	40851.71
539.26	40552.12
539.43	40470.20
539.60	40715.96
539.77	40790.86
539.94	41053.00
540.11	41001.50
540.28	40781.49
540.44	40711.28
540.61	40673.83
540.78	41071.72
540.95	40823.62
541.12	40875.12
541.29	40765.11
541.46	41378.33
541.62	41202.79
541.79	41146.62
541.96	40975.76
542.13	40893.84
542.30	41116.19
542.47	41399.40
542.63	41448.55
542.80	41642.81
542.97	41930.70
543.14	41904.95
543.31	42029.00
543.48	41963.46
543.64	42148.37
543.81	42054.75
543.98	42202.20
544.15	42040.70
544.32	42225.60
544.48	42462.00
544.65	42143.69
544.82	42553.28
544.99	42351.99
545.16	42529.87
545.32	42579.03
545.49	42712.44
545.66	43091.60
545.83	42511.15
546.00	42677.33
546.16	42466.68
546.33	42024.32
546.50	42476.04
546.67	42822.44
546.83	42298.16
547.00	42717.12
547.17	42185.82
547.34	42866.91
547.50	42880.95
547.67	43363.11
547.84	42827.12
548.00	42932.45
548.17	43370.13
548.34	43054.15
548.51	43412.26
548.67	43196.93
548.84	43636.95
549.01	43655.67
549.18	43129.05
549.34	43428.64
549.51	43665.03
549.68	43714.19
549.84	43140.75
550.01	43639.29
550.18	43423.96
550.34	43578.43
550.51	43629.93
550.68	43700.14
550.84	43304.59
551.01	43786.74
551.18	43690.78
551.34	43569.07
551.51	44055.90
551.68	43882.70
551.84	43613.54
552.01	43695.46
552.18	44306.34
552.34	43924.83
552.51	43906.11
552.68	44053.56
552.84	43908.45
553.01	44004.41
553.18	44458.48
553.34	44332.09
553.51	43964.62
553.67	44240.81
553.84	44793.17
554.01	44697.21
554.17	44165.91
554.34	44865.73
554.51	44615.29
554.67	44800.19
554.84	44744.02
555.00	44713.59
555.17	44451.45
555.33	45041.27
555.50	44987.44
555.67	44781.47
555.83	44861.05
556.00	44732.32
556.16	45411.07
556.33	45371.28
556.50	44645.72
556.66	44645.72
556.83	44978.07
556.99	45174.68
557.16	45457.88
557.32	44933.60
557.49	45476.61
557.65	44994.46
557.82	45106.80
557.98	45305.75
558.15	45134.89
558.32	45155.96
558.48	45298.73
558.65	45336.18
558.81	45244.90
558.98	45261.28
559.14	45294.05
559.31	45708.32
559.47	45186.38
559.64	45338.52
559.80	45322.13
559.97	45925.99
560.13	45392.35
560.30	45586.61
560.46	45380.65
560.63	46305.16
560.79	45415.76
560.96	46241.96
561.12	45605.34
561.29	45841.73
561.45	45872.16
561.61	45607.68
561.78	45359.58
561.94	45797.26
562.11	45911.95
562.27	46192.81
562.44	45621.72
562.60	45986.85
562.77	46052.38
562.93	45748.11
563.10	46131.96
563.26	45689.60
563.42	46068.76
563.59	46113.23
563.75	45640.45
563.92	46082.81
564.08	45600.66
564.24	46019.61
564.41	45872.16
564.57	46143.66
564.74	46052.38
564.90	46003.23
565.07	45661.51
565.23	45972.80
565.39	46059.40
565.56	46447.93
565.72	46300.48
565.88	46307.50
566.05	46024.29
566.21	46429.21
566.38	46288.77
566.54	46286.43
566.70	46258.35
566.87	46251.33
567.03	45914.29
567.19	46387.08
567.36	46735.82
567.52	46520.49
567.68	46445.59
567.85	46639.86
568.01	46745.18
568.17	46574.32
568.34	46897.31
568.50	46911.36
568.66	46754.54
568.83	46913.70
568.99	46457.29
569.15	46157.70
569.32	46541.55
569.48	46405.80
569.64	46899.65
569.81	46581.34
569.97	46667.94
570.13	46976.89
570.30	46101.53
570.46	46593.04
570.62	47037.75
570.78	46630.49
570.95	46997.96
571.11	47072.85
571.27	46539.21
571.43	46784.97
571.60	46902.00
571.76	46487.72
571.92	46810.71
572.09	46894.97
572.25	46490.06
572.41	46691.35
572.57	46721.77
572.74	47220.31
572.90	46859.87
573.06	47126.69
573.22	46951.15
573.38	47035.41
573.55	46979.23
573.71	46803.69
573.87	46693.69
574.03	47253.08
574.20	47150.09
574.36	46813.05
574.52	46850.50
574.68	47313.93
574.84	47239.03
575.01	47388.83
575.17	47007.32
575.33	47182.86
575.49	47150.09
575.65	46904.34
575.82	46714.75
575.98	47194.56
576.14	46990.94
576.30	47552.66
576.46	46667.94
576.62	47047.11
576.79	46948.81
576.95	46955.83
577.11	46883.27
577.27	46607.09
577.43	47143.07
577.59	47173.50
577.75	47012.00
577.92	46885.61
578.08	47360.74
578.24	47496.49
578.40	47243.71
578.56	47487.13
578.72	47435.64
578.88	47285.84
579.04	47023.70
579.21	47363.08
579.37	47316.27
579.53	47332.65
579.69	46923.06
579.85	47037.75
580.01	47243.71
580.17	47583.09
580.33	47028.38
580.49	47496.49
580.65	47133.71
580.82	46969.87
580.98	46965.19
581.14	47337.33
581.30	47313.93
581.46	47503.51
581.62	47384.15
581.78	47302.23
581.94	47079.88
582.10	47285.84
582.26	47515.22
582.42	47065.83
582.58	47285.84
582.74	48217.38
582.90	47327.97
583.06	47569.05
583.22	46822.42
583.38	46958.17
583.54	47395.85
583.70	47419.25
583.86	47388.83
584.02	47157.11
584.18	48147.16
584.34	47665.01
584.50	47540.96
584.66	47702.46
584.82	47496.49
584.98	47555.00
585.14	47437.98
585.30	47152.43
585.46	47395.85
585.62	47533.94
585.78	47674.37
585.94	46946.47
586.10	47288.18
586.26	47222.65
586.42	47262.44
586.58	47206.26
586.74	47407.55
586.90	47353.72
587.06	47552.66
587.22	47580.75
587.38	47599.47
587.54	47646.29
587.70	47763.31
587.86	47880.34
588.02	47463.72
588.18	47381.80
588.34	47496.49
588.49	47419.25
588.65	47152.43
588.81	47604.16
588.97	47665.01
589.13	47578.41
589.29	47978.64
589.45	47810.12
589.61	47739.91
589.77	47545.64
589.93	47491.81
