SpectraSuite Data File
++++++++++++++++++++++++++++++++++++
Date: Fri Oct 25 10:44:23 EDT 2013
User: price-jones
Dark Spectrum Present: No
Reference Spectrum Present: No
Number of Sampled Component Spectra: 1
Spectrometers: USB2+H05261
Integration Time (usec): 100000 (USB2+H05261)
Spectra Averaged: 1 (USB2+H05261)
Boxcar Smoothing: 0 (USB2+H05261)
Correct for Electrical Dark: No (USB2+H05261)
Strobe/Lamp Enabled: No (USB2+H05261)
Correct for Detector Non-linearity: No (USB2+H05261)
Correct for Stray Light: No (USB2+H05261)
Number of Pixels in Processed Spectrum: 2048
>>>>>Begin Processed Spectral Data<<<<<
365.73	128.73
365.92	128.73
366.12	128.73
366.32	65.54
366.52	4.68
366.72	4.68
366.91	51.49
367.11	0.00
367.31	39.79
367.51	25.75
367.70	46.81
367.90	86.60
368.10	65.54
368.30	37.45
368.49	0.00
368.69	14.04
368.89	14.04
369.09	102.98
369.28	30.43
369.48	35.11
369.68	81.92
369.87	86.60
370.07	91.28
370.27	163.84
370.47	154.48
370.66	339.38
370.86	451.72
371.06	489.17
371.25	533.64
371.45	578.11
371.65	468.11
371.84	526.62
372.04	491.51
372.24	491.51
372.44	566.41
372.63	521.94
372.83	514.92
373.03	512.58
373.22	496.19
373.42	575.77
373.62	517.26
373.81	512.58
374.01	571.09
374.21	669.39
374.40	561.73
374.60	622.58
374.79	571.09
374.99	608.54
375.19	575.77
375.38	521.94
375.58	571.09
375.78	641.31
375.97	601.52
376.17	627.26
376.37	599.18
376.56	671.73
376.76	615.56
376.95	599.18
377.15	587.47
377.35	582.79
377.54	681.10
377.74	662.37
377.93	657.69
378.13	636.63
378.33	702.16
378.52	753.65
378.72	667.05
378.91	683.44
379.11	753.65
379.31	629.60
379.50	578.11
379.70	727.91
379.89	748.97
380.09	636.63
380.28	678.76
380.48	748.97
380.68	641.31
380.87	667.05
381.07	711.52
381.26	688.12
381.46	821.53
381.65	730.25
381.85	741.95
382.04	699.82
382.24	688.12
382.43	706.84
382.63	669.39
382.83	809.83
383.02	744.29
383.22	720.88
383.41	744.29
383.61	664.71
383.80	823.87
384.00	702.16
384.19	702.16
384.39	795.78
384.58	903.45
384.78	887.06
384.97	830.89
385.17	919.83
385.36	746.63
385.56	854.30
385.75	774.72
385.95	816.85
386.14	842.59
386.34	936.21
386.53	887.06
386.72	915.15
386.92	854.30
387.11	884.72
387.31	908.13
387.50	840.25
387.70	929.19
387.89	959.62
388.09	887.06
388.28	952.60
388.48	889.40
388.67	945.58
388.86	980.68
389.06	987.71
389.25	1006.43
389.45	1029.84
389.64	1039.20
389.84	1050.90
390.03	1018.13
390.22	938.55
390.42	894.08
390.61	1081.33
390.81	1006.43
391.00	1083.67
391.19	1104.73
391.39	1083.67
391.58	1081.33
391.78	1142.18
391.97	1018.13
392.16	1053.24
392.36	1039.20
392.55	1114.10
392.75	1001.75
392.94	947.92
393.13	1039.20
393.33	1004.09
393.52	1076.65
393.71	1036.86
393.91	1151.54
394.10	1170.27
394.29	1130.48
394.49	1249.85
394.68	1268.57
394.88	1235.80
395.07	1270.91
395.26	1181.97
395.46	1268.57
395.65	1310.70
395.84	1207.72
396.04	1327.08
396.23	1259.21
396.42	1153.88
396.62	1254.53
396.81	1177.29
397.00	1219.42
397.19	1345.81
397.39	1317.72
397.58	1385.60
397.77	1364.53
397.97	1497.94
398.16	1453.47
398.35	1516.67
398.55	1509.65
398.74	1561.14
398.93	1626.67
399.12	1542.41
399.32	1537.73
399.51	1544.75
399.70	1624.33
399.90	1584.54
400.09	1579.86
400.28	1612.63
400.47	1685.19
400.67	1767.10
400.86	1633.69
401.05	1666.46
401.24	1760.08
401.44	1729.66
401.63	1804.55
401.82	1844.34
402.01	1827.96
402.21	1717.95
402.40	1795.19
402.59	1806.89
402.78	1797.53
402.97	1778.81
403.17	1912.22
403.36	1870.09
403.55	1963.71
403.74	2012.86
403.93	1935.62
404.13	1905.20
404.32	1914.56
404.51	1884.13
404.70	1989.46
404.89	2019.88
405.09	2120.53
405.28	1961.37
405.47	2024.56
405.66	2045.63
405.85	2083.08
406.05	1956.69
406.24	2036.27
406.43	2094.78
406.62	2129.89
406.81	2221.17
407.00	2134.57
407.20	2207.13
407.39	2099.46
407.58	2176.70
407.77	2155.63
407.96	2368.62
408.15	2282.02
408.34	2331.17
408.54	2483.31
408.73	2331.17
408.92	2249.25
409.11	2413.09
409.30	2403.73
409.49	2338.20
409.68	2321.81
409.87	2382.67
410.07	2363.94
410.26	2551.18
410.45	2476.29
410.64	2541.82
410.83	2427.14
411.02	2572.25
411.21	2686.94
411.40	2621.40
411.59	2658.85
411.78	2724.38
411.98	2726.72
412.17	2848.43
412.36	2796.94
412.55	2715.02
412.74	2794.60
412.93	2937.37
413.12	2794.60
413.31	2911.63
413.50	3002.91
413.69	3038.02
413.88	3005.25
414.07	2963.12
414.26	2904.60
414.45	3063.76
414.64	3028.65
414.83	3143.34
415.02	3178.45
415.22	3077.80
415.41	3197.17
415.60	3311.86
415.79	3377.39
415.98	3316.54
416.17	3386.76
416.36	3386.76
416.55	3400.80
416.74	3339.94
416.93	3400.80
417.12	3358.67
417.31	3361.01
417.50	3501.44
417.69	3555.27
417.88	3332.92
418.07	3501.44
418.26	3550.59
418.45	3609.11
418.64	3777.62
418.83	3674.64
419.02	3559.95
419.21	3599.74
419.39	3618.47
419.58	3772.94
419.77	3639.53
419.96	3641.87
420.15	3777.62
420.34	3955.51
420.53	3864.22
420.72	3955.51
420.91	3985.93
421.10	4079.55
421.29	4121.68
421.48	3854.86
421.67	3847.84
421.86	4037.42
422.05	4102.96
422.24	3892.31
422.43	4025.72
422.61	3861.88
422.80	3997.64
422.99	4121.68
423.18	4025.72
423.37	4077.21
423.56	4030.40
423.75	4037.42
423.94	3974.23
424.13	3824.44
424.32	3927.42
424.50	4156.79
424.69	4067.85
424.88	4114.66
425.07	4035.08
425.26	4100.62
425.45	3920.40
425.64	3922.74
425.83	4042.11
426.01	4278.50
426.20	4215.30
426.39	4212.96
426.58	4053.81
426.77	4198.92
426.96	4112.32
427.15	4053.81
427.33	4107.64
427.52	4049.13
427.71	4252.75
427.90	4290.20
428.09	4283.18
428.28	4409.57
428.46	4243.39
428.65	4285.52
428.84	4468.08
429.03	4306.59
429.22	4393.19
429.40	4292.54
429.59	4243.39
429.78	4035.08
429.97	3962.53
430.16	4117.00
430.34	4184.88
430.53	4304.25
430.72	4379.14
430.91	4198.92
431.10	4400.21
431.28	4631.92
431.47	4697.46
431.66	4762.99
431.85	4594.47
432.03	4620.22
432.22	4880.02
432.41	4947.89
432.60	4713.84
432.79	4861.29
432.97	4947.89
433.16	4753.63
433.35	4777.03
433.54	4840.23
433.72	4924.49
433.91	4774.69
434.10	4816.82
434.28	4922.15
434.47	5022.79
434.66	5074.28
434.85	5167.90
435.03	5184.29
435.22	5085.98
435.41	5191.31
435.59	5210.03
435.78	5235.78
435.97	5256.84
436.16	5366.85
436.34	5135.14
436.53	5289.61
436.72	5500.26
436.90	5277.91
437.09	5165.56
437.28	5163.22
437.46	5296.63
437.65	5247.48
437.84	5270.89
438.02	5301.31
438.21	5245.14
438.40	5179.61
438.58	5523.66
438.77	5666.44
438.96	5757.72
439.14	5734.31
439.33	5778.78
439.52	5713.25
439.70	5696.86
439.89	5877.09
440.08	5996.45
440.26	5809.21
440.45	5898.15
440.63	5860.70
440.82	6104.12
441.01	6202.42
441.19	6150.93
441.38	6317.11
441.57	6333.49
441.75	6256.25
441.94	6466.90
442.12	6370.94
442.31	6452.86
442.50	6506.69
442.68	6581.59
442.87	6637.76
443.05	6640.10
443.24	6745.42
443.43	6712.66
443.61	6532.44
443.80	6911.60
443.98	6665.85
444.17	6476.26
444.35	6700.95
444.54	6995.86
444.73	6829.68
444.91	6574.56
445.10	6799.26
445.28	6771.17
445.47	6483.28
445.65	6710.32
445.84	6551.16
446.02	7030.97
446.21	6623.72
446.39	6757.13
446.58	6876.49
446.77	6862.45
446.95	6700.95
447.14	6848.41
447.32	6923.30
447.51	6808.62
447.69	6846.07
447.88	6906.92
448.06	6946.71
448.25	6984.16
448.43	7007.56
448.62	6986.50
448.80	7002.88
448.99	7232.26
449.17	7028.63
449.36	7126.93
449.54	7178.42
449.73	7262.68
449.91	7375.03
450.10	7316.51
450.28	7435.88
450.46	7456.95
450.65	7307.15
450.83	7368.01
451.02	7674.62
451.20	7489.71
451.39	7529.50
451.57	7424.18
451.76	7389.07
451.94	7419.50
452.13	7606.74
452.31	7368.01
452.49	7293.11
452.68	7325.88
452.86	7384.39
453.05	7445.24
453.23	7674.62
453.42	7503.76
453.60	7611.42
453.78	7744.83
453.97	7590.36
454.15	7702.70
454.34	7482.69
454.52	7817.39
454.70	7805.69
454.89	7889.95
455.07	7789.30
455.26	7801.01
455.44	7920.37
455.62	8060.80
455.81	8133.36
455.99	8067.83
456.17	7995.27
456.36	8006.97
456.54	8156.77
456.73	8212.94
456.91	8444.65
457.09	8255.07
457.28	8381.46
457.46	8271.45
457.64	8376.78
457.83	8376.78
458.01	8215.28
458.19	8730.20
458.38	8442.31
458.56	8435.29
458.74	8475.08
458.93	8512.53
459.11	8449.33
459.29	8753.60
459.48	8423.59
459.66	8734.88
459.84	8542.96
460.03	8624.87
460.21	8727.86
460.39	8807.44
460.57	8784.03
460.76	8812.12
460.94	8828.50
461.12	8910.42
461.31	8800.41
461.49	8966.59
461.67	8997.02
461.85	9273.20
462.04	8980.64
462.22	9132.77
462.40	9078.94
462.59	9165.54
462.77	9373.85
462.95	9151.49
463.13	9167.88
463.32	9266.18
463.50	9142.13
463.68	9341.08
463.86	9259.16
464.05	9048.51
464.23	9202.99
464.41	9376.19
464.59	9207.67
464.78	9301.29
464.96	9432.36
465.14	9329.38
465.32	9430.02
465.50	9411.29
465.69	9664.07
465.87	9310.65
466.05	9275.54
466.23	9572.79
466.41	9518.96
466.60	9565.77
466.78	9385.55
466.96	9628.96
467.14	9458.10
467.32	9675.77
467.51	9572.79
467.69	9394.91
467.87	9561.09
468.05	9713.22
468.23	9600.88
468.41	9769.40
468.60	9584.49
468.78	9956.64
468.96	9879.40
469.14	9963.66
469.32	9895.78
469.50	9755.35
469.69	10104.09
469.87	10022.17
470.05	10017.49
470.23	10141.54
470.41	10113.45
470.59	10169.63
470.77	10195.37
470.95	10291.34
471.14	10548.79
471.32	10296.02
471.50	10518.37
471.68	10630.71
471.86	10675.18
472.04	10602.63
472.22	10733.70
472.40	10813.28
472.58	10649.44
472.77	10757.10
472.95	10712.63
473.13	11283.72
473.31	10761.78
473.49	10923.28
473.67	10731.36
473.85	11026.26
474.03	11194.78
474.21	11190.10
474.39	11377.34
474.57	11524.80
474.75	11580.97
474.93	11379.68
475.12	11847.79
475.30	11695.66
475.48	11604.38
475.66	11782.26
475.84	11637.14
476.02	11716.72
476.20	11620.76
476.38	11948.43
476.56	12292.49
476.74	12131.00
476.92	12070.14
477.10	12238.66
477.28	12402.50
477.46	12432.93
477.64	12842.52
477.82	12645.91
478.00	12624.85
478.18	12917.42
478.36	12905.71
478.54	12943.16
478.72	12994.65
478.90	13181.90
479.08	13502.55
479.26	13610.22
479.44	13380.84
479.62	13603.19
479.80	13530.64
479.98	13914.48
480.16	14185.99
480.34	13902.78
480.52	14338.12
480.70	14155.56
480.88	13947.25
481.06	14303.01
481.24	14225.78
481.41	14469.19
481.59	14930.28
481.77	14998.15
481.95	14780.48
482.13	15075.39
482.31	15047.30
482.49	15513.07
482.67	15356.25
482.85	15529.45
483.03	15634.78
483.21	15777.55
483.39	15845.43
483.57	16023.31
483.74	16060.76
483.92	15953.09
484.10	16095.86
484.28	16255.02
484.46	16325.24
484.64	16851.86
484.82	16720.79
485.00	16889.31
485.18	16985.27
485.35	16919.73
485.53	16664.61
485.71	16358.00
485.89	17174.85
486.07	16786.32
486.25	17137.40
486.43	17516.57
486.61	17481.46
486.78	17619.55
486.96	17738.92
487.14	18136.81
487.32	18333.42
487.50	18195.32
487.68	18380.23
487.85	18773.44
488.03	18803.86
488.21	18944.30
488.39	18799.18
488.57	19185.37
488.75	19307.08
488.92	19784.55
489.10	19967.11
489.28	19861.79
489.46	20404.79
489.64	20231.59
489.81	20805.02
489.99	20893.96
490.17	20870.56
490.35	20980.56
490.53	20989.92
490.70	21205.25
490.88	20915.03
491.06	21429.94
491.24	21242.70
491.41	21331.64
491.59	21659.32
491.77	21198.23
491.95	21352.71
492.13	21818.47
492.30	21872.31
492.48	22235.09
492.66	22609.58
492.84	22347.44
493.01	22986.40
493.19	22609.58
493.37	22740.64
493.54	22742.99
493.72	23201.73
493.90	23274.29
494.08	23754.10
494.25	23634.73
494.43	24109.86
494.61	24016.24
494.79	24006.87
494.96	24350.93
495.14	23927.30
495.32	24290.08
495.49	24257.31
495.67	24348.59
495.85	24659.88
496.02	25060.12
496.20	24746.48
496.38	25106.93
496.55	25017.99
496.73	25626.53
496.91	25418.22
497.09	25970.58
497.26	26272.51
497.44	25778.66
497.62	25675.68
497.79	26143.78
497.97	26036.12
498.14	26237.41
498.32	26223.36
498.50	26188.25
498.67	26984.04
498.85	26506.57
499.03	27211.07
499.20	27084.68
499.38	27119.79
499.56	26881.05
499.73	26967.65
499.91	27019.14
500.08	27388.95
500.26	27239.15
500.44	27182.98
500.61	27419.38
500.79	27290.65
500.97	27302.35
501.14	27840.67
501.32	27744.71
501.49	27676.83
501.67	27473.21
501.84	27880.46
502.02	28079.41
502.20	28449.21
502.37	28826.04
502.55	28411.76
502.72	28753.48
502.90	28692.63
503.07	28727.74
503.25	28755.82
503.43	29153.71
503.60	28933.70
503.78	29336.27
503.95	28947.75
504.13	29254.36
504.30	29567.99
504.48	29104.56
504.65	29729.48
504.83	29839.49
505.01	29879.28
505.18	29610.12
505.36	30284.19
505.53	30394.20
505.71	30529.95
505.88	30490.16
506.06	30246.74
506.23	30665.70
506.41	30363.77
506.58	30782.73
506.76	31014.44
506.93	31049.55
507.11	30782.73
507.28	30731.23
507.46	30735.92
507.63	30639.95
507.81	31019.12
507.98	31042.53
508.16	31323.39
508.33	31398.29
508.50	31665.11
508.68	31665.11
508.85	31740.00
509.03	32271.31
509.20	31632.34
509.38	31997.46
509.55	31791.50
509.73	32423.44
509.90	32378.97
510.08	32180.03
510.25	32030.23
510.42	32184.71
510.60	32292.37
510.77	32898.57
510.95	32793.25
511.12	32718.35
511.30	33118.58
511.47	33268.37
511.64	33294.12
511.82	32968.79
511.99	33205.18
512.17	33497.75
512.34	32971.13
512.51	33450.94
512.69	33443.91
512.86	33511.79
513.04	34122.67
513.21	33490.73
513.38	33710.74
513.56	33724.78
513.73	33755.21
513.90	34157.78
514.08	33715.42
514.25	33511.79
514.43	33818.40
514.60	33792.65
514.77	34188.21
514.95	34476.09
515.12	34429.28
515.29	34174.16
515.47	34904.41
515.64	34976.97
515.81	34335.66
515.99	34775.68
516.16	34611.84
516.33	34092.24
516.51	34660.99
516.68	33961.17
516.85	33879.25
517.03	34429.28
517.20	34511.20
517.37	35323.36
517.54	34906.75
517.72	35515.29
517.89	35211.02
518.06	34698.44
518.24	34572.05
518.41	35246.13
518.58	35426.35
518.75	35292.94
518.93	35744.66
519.10	35646.36
519.27	35807.86
519.45	35782.11
519.62	36018.50
519.79	36039.57
519.96	36105.10
520.14	36137.87
520.31	35871.05
520.48	36243.20
520.65	36229.15
520.83	36730.03
521.00	37200.47
521.17	36486.61
521.34	37067.06
521.52	37408.78
521.69	36943.02
521.86	37188.77
522.03	37539.85
522.20	37090.47
522.38	37111.53
522.55	37291.76
522.72	37017.91
522.89	36999.19
523.07	37986.89
523.24	37165.37
523.41	37968.17
523.58	37897.95
523.75	38000.94
523.92	38153.07
524.10	37869.87
524.27	38167.12
524.44	38321.59
524.61	38174.14
524.78	38586.07
524.96	38389.47
525.13	38473.73
525.30	38663.31
525.47	38841.19
525.64	38438.62
525.81	38333.29
525.98	38176.48
526.16	37947.11
526.33	38026.68
526.50	38169.46
526.67	38043.07
526.84	38141.37
527.01	38169.46
527.18	38611.82
527.36	39189.93
527.53	39035.45
527.70	39313.98
527.87	39175.89
528.04	39049.50
528.21	38934.81
528.38	39805.49
528.55	39929.54
528.72	40369.56
528.89	39651.02
529.07	39552.71
529.24	39337.38
529.41	39545.69
529.58	39700.17
529.75	39529.31
529.92	39817.19
530.09	40091.04
530.26	40147.21
530.43	40500.63
530.60	40259.55
530.77	39721.23
530.94	40311.05
531.11	40346.15
531.28	40898.52
531.46	40231.47
531.63	40662.13
531.80	40547.44
531.97	40507.65
532.14	40025.50
532.31	39969.33
532.48	40748.73
532.65	40498.29
532.82	40699.58
532.99	40622.34
533.16	40306.37
533.33	40942.99
533.50	40744.05
533.67	40531.06
533.84	40989.80
534.01	40676.17
534.18	40474.88
534.35	41453.23
534.52	41092.79
534.69	41228.54
534.86	41247.26
535.03	41521.10
535.20	41570.25
535.37	41558.55
535.54	42043.04
535.71	41794.95
535.88	41813.67
536.05	42014.96
536.22	41717.71
536.38	41539.83
536.55	41345.56
536.72	41422.80
536.89	41411.10
537.06	41759.84
537.23	41867.50
537.40	41942.40
537.57	41933.04
537.74	41652.17
537.91	42356.67
538.08	42382.42
538.25	41675.58
538.42	41816.01
538.59	42249.01
538.75	42021.98
538.92	42167.09
539.09	42246.67
539.26	42256.03
539.43	42309.86
539.60	42195.18
539.77	41954.10
539.94	41830.05
540.11	42302.84
540.28	42616.47
540.44	42513.49
540.61	42059.43
540.78	42199.86
540.95	42370.72
541.12	42246.67
541.29	42548.60
541.46	42857.55
541.62	43068.20
541.79	42990.96
541.96	42436.25
542.13	42974.58
542.30	42721.80
542.47	42848.19
542.63	42986.28
542.80	43037.77
542.97	43187.56
543.14	43906.11
543.31	43388.85
543.48	43580.78
543.64	43807.81
543.81	43941.22
543.98	43917.81
544.15	43927.17
544.32	43735.25
544.48	43976.33
544.65	44128.46
544.82	44189.31
544.99	43599.50
545.16	43730.57
545.32	44058.24
545.49	44334.43
545.66	44156.55
545.83	44556.78
546.00	44390.60
546.16	43913.13
546.33	44102.71
546.50	43601.84
546.67	44425.71
546.83	44212.72
547.00	44135.48
547.17	44615.29
547.34	43992.71
547.50	44252.51
547.67	44657.42
547.84	44229.10
548.00	44418.69
548.17	44954.67
548.34	44694.87
548.51	44783.81
548.67	44659.76
548.84	44891.48
549.01	44561.46
549.18	44641.04
549.34	44856.37
549.51	44879.77
549.68	44999.14
549.84	45010.84
550.01	44992.12
550.18	44886.79
550.34	44893.82
550.51	44847.00
550.68	44957.01
550.84	44732.32
551.01	44671.46
551.18	44671.46
551.34	44828.28
551.51	45270.64
551.68	44999.14
551.84	45436.82
552.01	44999.14
552.18	44861.05
552.34	44694.87
552.51	45338.52
552.68	44964.03
552.84	45759.81
553.01	45638.11
553.18	45516.40
553.34	45085.74
553.51	44732.32
553.67	45345.54
553.84	45713.00
554.01	45654.49
554.17	45565.55
554.34	45792.58
554.51	45659.17
554.67	46031.32
554.84	45872.16
555.00	45478.95
555.17	45226.17
555.33	45940.04
555.50	45521.08
555.67	45001.48
555.83	45558.53
556.00	45904.93
556.16	45750.45
556.33	45780.88
556.50	45530.44
556.66	45535.12
556.83	45230.85
556.99	45940.04
557.16	46178.77
557.32	46253.67
557.49	45902.59
557.65	46026.63
557.82	45411.07
557.98	46052.38
558.15	46052.38
558.32	45935.35
558.48	45668.53
558.65	45659.17
558.81	46068.76
558.98	45628.74
559.14	45462.57
559.31	46068.76
559.47	45951.74
559.64	46520.49
559.80	46148.34
559.97	46710.07
560.13	45916.63
560.30	46220.90
560.46	46078.13
560.63	46122.60
560.79	45904.93
560.96	46656.24
561.12	46316.86
561.29	46248.99
561.45	46370.69
561.61	46120.26
561.78	46026.63
561.94	46394.10
562.11	46110.89
562.27	46291.12
562.44	46471.34
562.60	46686.67
562.77	46672.62
562.93	46527.51
563.10	46436.23
563.26	46089.83
563.42	46630.49
563.59	45989.19
563.75	46192.81
563.92	46356.65
564.08	46700.71
564.24	46681.98
564.41	46689.01
564.57	46724.11
564.74	46464.32
564.90	46583.68
565.07	46756.88
565.23	46660.92
565.39	46113.23
565.56	46204.52
565.72	46609.43
565.88	46611.77
566.05	46260.69
566.21	46539.21
566.38	46293.46
566.54	46684.33
566.70	46686.67
566.87	46990.94
567.03	46635.17
567.19	47318.61
567.36	46469.00
567.52	46698.37
567.68	46504.10
567.85	46267.71
568.01	46618.79
568.17	46398.78
568.34	47002.64
568.50	46672.62
568.66	46380.06
568.83	46625.81
568.99	46183.45
569.15	46618.79
569.32	46735.82
569.48	46326.22
569.64	46719.43
569.81	46288.77
569.97	46590.70
570.13	46429.21
570.30	46204.52
570.46	46504.10
570.62	46485.38
570.78	46766.24
570.95	46363.67
571.11	46543.89
571.27	46698.37
571.43	46595.38
571.60	46829.44
571.76	46522.83
571.92	46958.17
572.09	46380.06
572.25	46464.32
572.41	46752.20
572.57	46993.28
572.74	47260.10
572.90	46890.29
573.06	47096.26
573.22	47164.14
573.38	46806.03
573.55	46562.62
573.71	47215.63
573.87	46738.16
574.03	46653.90
574.20	46738.16
574.36	46625.81
574.52	46529.85
574.68	46852.84
574.84	46564.96
575.01	46855.18
575.17	46965.19
575.33	46546.23
575.49	46754.54
575.65	46590.70
575.82	46834.12
575.98	46497.08
576.14	47030.72
576.30	46689.01
576.46	46972.21
576.62	46504.10
576.79	46745.18
576.95	46618.79
577.11	47103.28
577.27	46836.46
577.43	46920.72
577.59	46497.08
577.75	46340.27
577.92	46787.31
578.08	46298.14
578.24	46829.44
578.40	46396.44
578.56	46382.40
578.72	46527.51
578.88	46909.02
579.04	46976.89
579.21	47098.60
579.37	46983.91
579.53	46815.40
579.69	46674.96
579.85	46990.94
580.01	47054.13
580.17	46789.65
580.33	47264.78
580.49	46782.63
580.65	47217.97
580.82	47203.92
580.98	46878.59
581.14	46904.34
581.30	47129.03
581.46	46913.70
581.62	47152.43
581.78	47063.49
581.94	46937.10
582.10	46625.81
582.26	47433.30
582.42	47122.01
582.58	46855.18
582.74	46948.81
582.90	47063.49
583.06	47196.90
583.22	47189.88
583.38	47379.46
583.54	46986.25
583.70	47194.56
583.86	47388.83
584.02	46679.64
584.18	46770.93
584.34	46969.87
584.50	47182.86
584.66	46766.24
584.82	46848.16
584.98	47012.00
585.14	47023.70
585.30	46885.61
585.46	46789.65
585.62	46974.55
585.78	47012.00
585.94	46667.94
586.10	47002.64
586.26	46564.96
586.42	47229.67
586.58	47096.26
586.74	47430.96
586.90	46705.39
587.06	46293.46
587.22	46452.61
587.38	46691.35
587.54	46969.87
587.70	47012.00
587.86	47253.08
588.02	47084.56
588.18	47096.26
588.34	47014.34
588.49	46129.62
588.65	46300.48
588.81	46216.22
588.97	46623.47
589.13	46485.38
589.29	46335.59
589.45	46653.90
589.61	46646.88
589.77	46969.87
589.93	46871.57
