SpectraSuite Data File
++++++++++++++++++++++++++++++++++++
Date: Fri Oct 25 10:47:41 EDT 2013
User: price-jones
Dark Spectrum Present: No
Reference Spectrum Present: No
Number of Sampled Component Spectra: 1
Spectrometers: USB2+H05261
Integration Time (usec): 100000 (USB2+H05261)
Spectra Averaged: 1 (USB2+H05261)
Boxcar Smoothing: 0 (USB2+H05261)
Correct for Electrical Dark: No (USB2+H05261)
Strobe/Lamp Enabled: No (USB2+H05261)
Correct for Detector Non-linearity: No (USB2+H05261)
Correct for Stray Light: No (USB2+H05261)
Number of Pixels in Processed Spectrum: 2048
>>>>>Begin Processed Spectral Data<<<<<
365.73	98.30
365.92	98.30
366.12	98.30
366.32	0.00
366.52	72.56
366.72	0.00
366.91	46.81
367.11	63.19
367.31	23.41
367.51	42.13
367.70	39.79
367.90	44.47
368.10	56.17
368.30	63.19
368.49	86.60
368.69	110.01
368.89	91.28
369.09	51.49
369.28	86.60
369.48	72.56
369.68	72.56
369.87	128.73
370.07	117.03
370.27	135.75
370.47	196.60
370.66	381.51
370.86	409.59
371.06	451.72
371.25	479.81
371.45	472.79
371.65	440.02
371.84	493.85
372.04	435.34
372.24	348.74
372.44	442.36
372.63	540.66
372.83	601.52
373.03	493.85
373.22	486.83
373.42	554.71
373.62	510.24
373.81	526.62
374.01	585.13
374.21	507.90
374.40	571.09
374.60	617.90
374.79	528.96
374.99	566.41
375.19	559.39
375.38	545.34
375.58	514.92
375.78	573.43
375.97	559.39
376.17	744.29
376.37	552.37
376.56	730.25
376.76	592.16
376.95	662.37
377.15	627.26
377.35	554.71
377.54	704.50
377.74	671.73
377.93	685.78
378.13	601.52
378.33	575.77
378.52	683.44
378.72	519.60
378.91	636.63
379.11	585.13
379.31	587.47
379.50	624.92
379.70	681.10
379.89	674.07
380.09	655.35
380.28	699.82
380.48	720.88
380.68	699.82
380.87	613.22
381.07	678.76
381.26	627.26
381.46	648.33
381.65	592.16
381.85	784.08
382.04	692.80
382.24	697.48
382.43	671.73
382.63	760.67
382.83	702.16
383.02	741.95
383.22	760.67
383.41	772.38
383.61	678.76
383.80	697.48
384.00	695.14
384.19	772.38
384.39	695.14
384.58	683.44
384.78	791.10
384.97	753.65
385.17	751.31
385.36	774.72
385.56	772.38
385.75	746.63
385.95	819.19
386.14	805.14
386.34	772.38
386.53	814.51
386.72	781.74
386.92	875.36
387.11	826.21
387.31	730.25
387.50	933.87
387.70	844.93
387.89	779.40
388.09	774.72
388.28	819.19
388.48	821.53
388.67	877.70
388.86	947.92
389.06	945.58
389.25	894.08
389.45	931.53
389.64	919.83
389.84	861.32
390.03	954.94
390.22	933.87
390.42	830.89
390.61	894.08
390.81	973.66
391.00	950.26
391.19	1001.75
391.39	1034.52
391.58	964.30
391.78	994.73
391.97	1060.26
392.16	887.06
392.36	1039.20
392.55	1022.81
392.75	1022.81
392.94	929.19
393.13	940.90
393.33	926.85
393.52	1046.22
393.71	1090.69
393.91	1034.52
394.10	1022.81
394.29	1050.90
394.49	1144.52
394.68	1111.75
394.88	1027.50
395.07	1142.18
395.26	1165.59
395.46	1109.41
395.65	1177.29
395.84	1090.69
396.04	1114.10
396.23	1074.31
396.42	1107.07
396.62	1132.82
396.81	1139.84
397.00	1135.16
397.19	1132.82
397.39	1118.78
397.58	1233.46
397.77	1221.76
397.97	1273.25
398.16	1324.74
398.35	1294.32
398.55	1280.27
398.74	1357.51
398.93	1409.00
399.12	1235.80
399.32	1238.14
399.51	1315.38
399.70	1406.66
399.90	1352.83
400.09	1413.68
400.28	1373.89
400.47	1387.94
400.67	1472.20
400.86	1544.75
401.05	1437.09
401.24	1441.77
401.44	1495.60
401.63	1530.71
401.82	1453.47
402.01	1338.79
402.21	1542.41
402.40	1544.75
402.59	1493.26
402.78	1521.35
402.97	1582.20
403.17	1556.46
403.36	1575.18
403.55	1612.63
403.74	1586.88
403.93	1724.97
404.13	1685.19
404.32	1636.03
404.51	1619.65
404.70	1629.01
404.89	1701.57
405.09	1776.47
405.28	1802.21
405.47	1701.57
405.66	1778.81
405.85	1767.10
406.05	1809.23
406.24	1849.02
406.43	1774.13
406.62	1760.08
406.81	1961.37
407.00	1914.56
407.20	1771.79
407.39	1783.49
407.58	1902.86
407.77	1963.71
407.96	1914.56
408.15	1961.37
408.34	1949.67
408.54	1970.73
408.73	2038.61
408.92	2113.50
409.11	2026.90
409.30	2083.08
409.49	2111.16
409.68	2097.12
409.87	2064.35
410.07	2033.93
410.26	2122.87
410.45	2118.18
410.64	2190.74
410.83	2143.93
411.02	2195.42
411.21	2270.32
411.40	2354.58
411.59	2286.70
411.78	2239.89
411.98	2258.62
412.17	2483.31
412.36	2394.37
412.55	2314.79
412.74	2370.96
412.93	2443.52
413.12	2422.45
413.31	2614.38
413.50	2450.54
413.69	2593.31
413.88	2612.04
414.07	2689.28
414.26	2595.65
414.45	2635.44
414.64	2708.00
414.83	2700.98
415.02	2675.23
415.22	2686.94
415.41	2829.71
415.60	2806.30
415.79	2796.94
415.98	2911.63
416.17	2986.52
416.36	2850.77
416.55	2754.81
416.74	2930.35
416.93	2810.98
417.12	2913.97
417.31	3047.38
417.50	2942.05
417.69	2979.50
417.88	3150.36
418.07	3061.42
418.26	3122.27
418.45	3208.87
418.64	3265.05
418.83	3206.53
419.02	3145.68
419.21	3204.19
419.39	3316.54
419.58	3150.36
419.77	3206.53
419.96	3260.37
420.15	3119.93
420.34	3251.00
420.53	3293.13
420.72	3356.33
420.91	3288.45
421.10	3361.01
421.29	3447.61
421.48	3508.46
421.67	3442.93
421.86	3358.67
422.05	3339.94
422.24	3316.54
422.43	3431.23
422.61	3506.12
422.80	3585.70
422.99	3485.06
423.18	3487.40
423.37	3520.17
423.56	3609.11
423.75	3375.05
423.94	3417.18
424.13	3307.18
424.32	3396.12
424.50	3707.41
424.69	3588.04
424.88	3407.82
425.07	3396.12
425.26	3454.63
425.45	3569.32
425.64	3566.98
425.83	3604.42
426.01	3592.72
426.20	3527.19
426.39	3691.02
426.58	3578.68
426.77	3674.64
426.96	3611.45
427.15	3599.74
427.33	3595.06
427.52	3693.37
427.71	3665.28
427.90	3737.84
428.09	3702.73
428.28	3723.79
428.46	3840.82
428.65	3721.45
428.84	3990.61
429.03	3904.01
429.22	3721.45
429.40	3866.56
429.59	3859.54
429.78	3641.87
429.97	3599.74
430.16	3754.22
430.34	3801.03
430.53	3901.67
430.72	3918.06
430.91	3953.16
431.10	3941.46
431.28	4046.79
431.47	4084.23
431.66	4231.69
431.85	4016.36
432.03	4135.73
432.22	4147.43
432.41	4308.93
432.60	4131.05
432.79	4196.58
432.97	4308.93
433.16	4243.39
433.35	4149.77
433.54	4283.18
433.72	4236.37
433.91	4278.50
434.10	4229.35
434.28	4348.72
434.47	4301.90
434.66	4657.67
434.85	4428.29
435.03	4554.68
435.22	4416.59
435.41	4681.07
435.59	4407.23
435.78	4617.88
435.97	4582.77
436.16	4851.93
436.34	4449.36
436.53	4676.39
436.72	4746.61
436.90	4608.51
437.09	4781.71
437.28	4594.47
437.46	4634.26
437.65	4627.24
437.84	4755.97
438.02	4650.64
438.21	4739.58
438.40	4746.61
438.58	4947.89
438.77	4999.38
438.96	4926.83
439.14	5022.79
439.33	5057.90
439.52	5011.09
439.70	4997.04
439.89	5109.39
440.08	5193.65
440.26	5226.42
440.45	5181.95
440.63	5184.29
440.82	5357.49
441.01	5240.46
441.19	5444.09
441.38	5432.38
441.57	5455.79
441.75	5474.51
441.94	5636.01
442.12	5671.12
442.31	5551.75
442.50	5610.26
442.68	5430.04
442.87	5706.23
443.05	5849.00
443.24	5905.17
443.43	5825.59
443.61	5664.10
443.80	5963.68
443.98	5694.52
444.17	5664.10
444.35	5898.15
444.54	6059.65
444.73	6022.20
444.91	5685.16
445.10	5717.93
445.28	5942.62
445.47	5769.42
445.65	5790.49
445.84	5797.51
446.02	6066.67
446.21	5982.41
446.39	5895.81
446.58	5966.03
446.77	5991.77
446.95	5991.77
447.14	6043.26
447.32	6200.08
447.51	6005.81
447.69	5874.74
447.88	5982.41
448.06	6167.31
448.25	6031.56
448.43	5909.85
448.62	5907.51
448.80	6024.54
448.99	6047.94
449.17	6146.25
449.36	6092.41
449.54	6331.15
449.73	6328.81
449.91	6396.68
450.10	6319.45
450.28	6532.44
450.46	6258.59
450.65	6389.66
450.83	6415.41
451.02	6417.75
451.20	6459.88
451.39	6593.29
451.57	6473.92
451.76	6445.84
451.94	6221.14
452.13	6509.03
452.31	6520.73
452.49	6345.19
452.68	6534.78
452.86	6466.90
453.05	6518.39
453.23	6518.39
453.42	6593.29
453.60	6509.03
453.78	6703.29
453.97	6569.88
454.15	6722.02
454.34	6682.23
454.52	6892.88
454.70	6658.82
454.89	6843.73
455.07	6766.49
455.26	6942.03
455.44	7002.88
455.62	7012.24
455.81	7112.89
455.99	7026.29
456.17	7133.95
456.36	7119.91
456.54	7110.55
456.73	7117.57
456.91	7393.75
457.09	7384.39
457.28	7555.25
457.46	7176.08
457.64	7379.71
457.83	7157.36
458.01	7023.95
458.19	7274.38
458.38	7309.49
458.56	7592.70
458.74	7461.63
458.93	7344.60
459.11	7606.74
459.29	7405.46
459.48	7585.68
459.66	7552.91
459.84	7447.58
460.03	7698.02
460.21	7564.61
460.39	7524.82
460.57	7611.42
460.76	7613.76
460.94	7719.09
461.12	7911.01
461.31	7878.24
461.49	7815.05
461.67	7810.37
461.85	7847.82
462.04	7981.23
462.22	8355.71
462.40	7969.52
462.59	8039.74
462.77	7920.37
462.95	8009.31
463.13	7953.14
463.32	7974.21
463.50	7981.23
463.68	8105.28
463.86	8322.94
464.05	8002.29
464.23	7925.05
464.41	8278.47
464.59	8070.17
464.78	8177.83
464.96	8194.22
465.14	8140.38
465.32	8290.18
465.50	8402.52
465.69	8430.61
465.87	8351.03
466.05	8304.22
466.23	8266.77
466.41	8285.50
466.60	8374.44
466.78	8322.94
466.96	8271.45
467.14	8465.72
467.32	8659.98
467.51	8601.47
467.69	8409.54
467.87	8435.29
468.05	8678.71
468.23	8786.37
468.41	8690.41
468.60	8402.52
468.78	8608.49
468.96	8641.26
469.14	8833.18
469.32	8992.34
469.50	8681.05
469.69	8889.35
469.87	8887.01
470.05	8849.57
470.23	8959.57
470.41	8992.34
470.59	9078.94
470.77	8980.64
470.95	8926.80
471.14	9144.47
471.32	9018.08
471.50	9462.79
471.68	9364.48
471.86	9193.62
472.04	9446.40
472.22	9626.62
472.40	9387.89
472.58	9469.81
472.77	9661.73
472.95	9605.56
473.13	9818.55
473.31	9678.12
473.49	9434.70
473.67	9706.20
473.85	9788.12
474.03	9923.87
474.21	9930.89
474.39	10097.07
474.57	10003.45
474.75	9944.94
474.93	10101.75
475.12	10132.18
475.30	10455.17
475.48	10218.78
475.66	10169.63
475.84	10324.10
476.02	10188.35
476.20	10211.76
476.38	10499.64
476.56	10949.03
476.74	10719.65
476.92	10604.97
477.10	10700.93
477.28	10897.53
477.46	11026.26
477.64	10944.34
477.82	11260.32
478.00	11466.28
478.18	11510.75
478.36	11449.90
478.54	11660.55
478.72	11688.64
478.90	11768.21
479.08	11772.89
479.26	11843.11
479.44	12028.01
479.62	12180.15
479.80	12011.63
479.98	11985.88
480.16	12657.62
480.34	12170.79
480.52	12596.76
480.70	12414.20
480.88	12423.56
481.06	12671.66
481.24	12779.32
481.41	12933.80
481.59	12957.21
481.77	13275.52
481.95	13247.43
482.13	13439.36
482.31	13240.41
482.49	13458.08
482.67	13525.96
482.85	13731.92
483.03	13708.52
483.21	13940.23
483.39	13998.74
483.57	14209.39
483.74	13916.83
483.92	14647.07
484.10	14188.33
484.28	14368.55
484.46	14792.19
484.64	14967.73
484.82	14665.80
485.00	14815.59
485.18	15199.44
485.35	15150.29
485.53	15068.37
485.71	15192.42
485.89	15283.70
486.07	15365.62
486.25	15679.25
486.43	15639.46
486.61	15833.72
486.78	16067.78
486.96	15920.32
487.14	16297.15
487.32	16486.73
487.50	16526.52
487.68	16453.97
487.85	16791.00
488.03	16673.98
488.21	16774.62
488.39	17060.16
488.57	16982.93
488.75	17291.88
488.92	17638.28
489.10	17799.77
489.28	17645.30
489.46	17830.20
489.64	17877.01
489.81	18408.31
489.99	18253.84
490.17	18473.85
490.35	18607.26
490.53	18726.63
490.70	18864.72
490.88	18649.39
491.06	19185.37
491.24	19325.80
491.41	19152.60
491.59	19358.57
491.77	19129.20
491.95	19407.72
492.13	19417.08
492.30	19939.02
492.48	19896.89
492.66	19878.17
492.84	19901.58
493.01	20271.38
493.19	20219.89
493.37	20353.30
493.54	20643.52
493.72	20868.22
493.90	20926.73
494.08	21156.10
494.25	20889.28
494.43	21523.57
494.61	21610.17
494.79	21734.21
494.96	21266.11
495.14	21799.75
495.32	21699.11
495.49	21986.99
495.67	21977.63
495.85	22171.89
496.02	22242.11
496.20	22405.95
496.38	22075.93
496.55	22677.45
496.73	22941.93
496.91	22677.45
497.09	22939.59
497.26	22834.27
497.44	23065.98
497.62	23271.95
497.79	23531.75
497.97	23503.66
498.14	23527.06
498.32	23665.16
498.50	23520.04
498.67	24025.60
498.85	23754.10
499.03	24379.02
499.20	24287.74
499.38	24182.42
499.56	24383.70
499.73	24643.50
499.91	24552.22
500.08	24592.01
500.26	24561.58
500.44	25022.67
500.61	24725.42
500.79	24512.43
500.97	25216.93
501.14	24952.45
501.32	25078.84
501.49	25261.40
501.67	25099.90
501.84	25757.60
502.02	25649.93
502.20	25811.43
502.37	25832.49
502.55	25944.84
502.72	25888.67
502.90	25663.97
503.07	26075.91
503.25	26071.23
503.43	26068.89
503.60	26232.72
503.78	26314.64
503.95	26279.54
504.13	26600.19
504.30	26658.70
504.48	26478.48
504.65	26958.29
504.83	26850.63
505.01	27096.38
505.18	27054.25
505.36	26927.86
505.53	27091.70
505.71	27342.14
505.88	27470.87
506.06	27204.05
506.23	27669.81
506.41	27211.07
506.58	27744.71
506.76	27763.43
506.93	27999.83
507.11	27817.27
507.28	27929.61
507.46	27868.76
507.63	28098.13
507.81	28266.65
507.98	28231.54
508.16	28051.32
508.33	28437.51
508.50	28421.13
508.68	28634.11
508.85	28910.30
509.03	28872.85
509.20	28889.23
509.38	28800.29
509.55	29003.92
509.73	29411.17
509.90	29514.16
510.08	29104.56
510.25	29481.39
510.42	29099.88
510.60	29862.90
510.77	29586.71
510.95	29902.68
511.12	29680.33
511.30	29556.28
511.47	30089.93
511.64	30029.07
511.82	29919.07
511.99	30050.14
512.17	30197.59
512.34	30162.48
512.51	30733.57
512.69	30431.65
512.86	30621.23
513.04	30892.73
513.21	30508.88
513.38	30785.07
513.56	30483.14
513.73	30525.27
513.90	31302.32
514.08	31016.78
514.25	31278.92
514.43	31351.48
514.60	30958.27
514.77	31075.29
514.95	31548.08
515.12	31459.14
515.29	31501.27
515.47	31501.27
515.64	31402.97
515.81	31363.18
515.99	31384.24
516.16	31697.88
516.33	31431.05
516.51	31637.02
516.68	31889.80
516.85	31850.01
517.03	31580.85
517.20	32119.17
517.37	31885.12
517.54	32203.43
517.72	32395.35
517.89	32453.87
518.06	32067.68
518.24	32119.17
518.41	32631.75
518.58	32524.08
518.75	32329.82
518.93	32914.95
519.10	32648.13
519.27	32573.24
519.45	32662.18
519.62	33479.02
519.79	32971.13
519.96	33111.56
520.14	33411.15
520.31	33425.19
520.48	32996.87
520.65	33207.52
520.83	33713.08
521.00	33944.79
521.17	33441.57
521.34	33699.03
521.52	33890.96
521.69	33813.72
521.86	33940.11
522.03	34117.99
522.20	34029.05
522.38	34394.17
522.55	34075.86
522.72	34249.06
522.89	34455.03
523.07	34550.99
523.24	34298.21
523.41	34473.75
523.58	34433.96
523.75	35194.64
523.92	34775.68
524.10	34927.81
524.27	34766.32
524.44	35260.17
524.61	35201.66
524.78	34859.94
524.96	35199.32
525.13	35180.59
525.30	35931.90
525.47	35819.56
525.64	35882.75
525.81	35475.50
525.98	35538.69
526.16	35618.27
526.33	35515.29
526.50	35571.46
526.67	35779.77
526.84	35115.06
527.01	35534.01
527.18	35470.82
527.36	35674.45
527.53	35782.11
527.70	36119.15
527.87	36245.54
528.04	35976.37
528.21	36336.82
528.38	36062.97
528.55	36751.09
528.72	36641.09
528.89	36549.81
529.07	36802.58
529.24	36875.14
529.41	36830.67
529.58	36451.50
529.75	36725.35
529.92	37125.58
530.09	36755.77
530.26	36954.72
530.43	36718.32
530.60	36657.47
530.77	36769.82
530.94	37357.29
531.11	36816.63
531.28	37158.34
531.46	37563.26
531.63	37350.27
531.80	37420.48
531.97	37479.00
532.14	37280.05
532.31	36912.59
532.48	37263.67
532.65	37909.66
532.82	37436.87
532.99	37701.35
533.16	37455.59
533.33	37537.51
533.50	37706.03
533.67	37436.87
533.84	37734.12
534.01	38181.16
534.18	37916.68
534.35	38085.20
534.52	37701.35
534.69	37984.55
534.86	38220.95
535.03	37902.64
535.20	38195.20
535.37	38525.22
535.54	38581.39
535.71	38557.99
535.88	38684.37
536.05	38440.96
536.22	38773.31
536.38	38607.14
536.55	38396.49
536.72	38731.18
536.89	38478.41
537.06	38756.93
537.23	38768.63
537.40	38522.88
537.57	38653.95
537.74	38937.15
537.91	39587.82
538.08	39028.43
538.25	39044.82
538.42	38967.58
538.59	39367.81
538.75	39077.58
538.92	39393.56
539.09	39562.08
539.26	39339.72
539.43	39398.24
539.60	39655.70
539.77	39335.04
539.94	39536.33
540.11	39281.21
540.28	39349.09
540.44	39309.30
540.61	39533.99
540.78	39452.07
540.95	39604.20
541.12	39545.69
541.29	39505.90
541.46	39639.31
541.62	39477.82
541.79	40261.90
541.96	39751.66
542.13	40126.14
542.30	39999.76
542.47	39852.30
542.63	40243.17
542.80	39732.93
542.97	40521.69
543.14	40573.19
543.31	41057.68
543.48	40804.90
543.64	41612.38
543.81	40636.38
543.98	40924.27
544.15	40172.96
544.32	40671.49
544.48	40776.81
544.65	40795.54
544.82	40907.88
544.99	40107.42
545.16	40919.59
545.32	40577.87
545.49	41422.80
545.66	40783.83
545.83	40914.90
546.00	41333.86
546.16	40856.39
546.33	41003.85
546.50	41048.32
546.67	40933.63
546.83	40919.59
547.00	41291.73
547.17	41071.72
547.34	40734.68
547.50	41193.43
547.67	41830.05
547.84	41572.60
548.00	41425.14
548.17	41797.29
548.34	41528.13
548.51	41790.27
548.67	41874.52
548.84	42085.17
549.01	41710.69
549.18	41448.55
549.34	41701.32
549.51	41633.45
549.68	41972.83
549.84	41993.89
550.01	42326.25
550.18	41675.58
550.34	41951.76
550.51	41841.76
550.68	41591.32
550.84	41598.34
551.01	42183.48
551.18	42394.12
551.34	42167.09
551.51	41544.51
551.68	42045.38
551.84	42454.98
552.01	42452.64
552.18	42232.63
552.34	41883.89
552.51	42307.52
552.68	42415.19
552.84	42705.41
553.01	42742.86
553.18	42323.91
553.34	42508.81
553.51	42356.67
553.67	42714.78
553.84	42911.38
554.01	42284.12
554.17	42663.28
554.34	43068.20
554.51	42719.46
554.67	42817.76
554.84	43119.69
555.00	43232.04
555.17	42415.19
555.33	42902.02
555.50	42775.63
555.67	43276.51
555.83	42429.23
556.00	43117.35
556.16	43316.29
556.33	43447.36
556.50	42972.24
556.66	42899.68
556.83	42773.29
556.99	42892.66
557.16	43335.02
557.32	43100.97
557.49	43117.35
557.65	43250.76
557.82	42859.89
557.98	43260.12
558.15	43126.71
558.32	43037.77
558.48	43756.32
558.65	43019.05
558.81	43012.02
558.98	43688.44
559.14	43412.26
559.31	43119.69
559.47	43290.55
559.64	43658.01
559.80	43648.65
559.97	43922.49
560.13	43344.38
560.30	43342.04
560.46	43695.46
560.63	43585.46
560.79	43742.27
560.96	43840.57
561.12	43599.50
561.29	43704.82
561.45	43470.77
561.61	43662.69
561.78	43459.07
561.94	43997.39
562.11	43665.03
562.27	44147.18
562.44	43466.09
562.60	44025.48
562.77	43782.06
562.93	43962.28
563.10	44044.20
563.26	43548.01
563.42	44062.93
563.59	43800.79
563.75	43997.39
563.92	43847.60
564.08	43761.00
564.24	43945.90
564.41	44208.04
564.57	44247.83
564.74	44100.37
564.90	43936.54
565.07	44208.04
565.23	43868.66
565.39	43906.11
565.56	44259.53
565.72	43854.62
565.88	44121.44
566.05	43746.95
566.21	44076.97
566.38	43690.78
566.54	44175.27
566.70	44128.46
566.87	44280.60
567.03	44301.66
567.19	44554.44
567.36	44140.16
567.52	44210.38
567.68	44605.93
567.85	44275.91
568.01	44584.86
568.17	44186.97
568.34	44491.24
568.50	44587.21
568.66	44100.37
568.83	44423.37
568.99	44142.50
569.15	44509.97
569.32	44025.48
569.48	43950.58
569.64	44797.85
569.81	44264.21
569.97	43976.33
570.13	44559.12
570.30	44201.02
570.46	44208.04
570.62	44128.46
570.78	44240.81
570.95	43973.98
571.11	44573.16
571.27	43964.62
571.43	44430.39
571.60	45088.08
571.76	44009.09
571.92	44449.11
572.09	44086.33
572.25	44051.22
572.41	44226.76
572.57	44353.15
572.74	44975.73
572.90	44484.22
573.06	44680.83
573.22	44500.61
573.38	44439.75
573.55	44556.78
573.71	44626.99
573.87	44327.41
574.03	44135.48
574.20	44418.69
574.36	43849.94
574.52	44802.53
574.68	44512.31
574.84	44879.77
575.01	44381.24
575.17	44432.73
575.33	44046.54
575.49	44271.23
575.65	44650.40
575.82	44657.42
575.98	44711.25
576.14	45088.08
576.30	44566.14
576.46	44493.58
576.62	44259.53
576.79	44315.70
576.95	44608.27
577.11	44591.89
577.27	44219.74
577.43	44746.36
577.59	44823.60
577.75	44636.36
577.92	44278.25
578.08	44299.32
578.24	44657.42
578.40	44128.46
578.56	44664.44
578.72	44421.03
578.88	44458.48
579.04	45064.67
579.21	44671.46
579.37	44336.77
579.53	44701.89
579.69	44081.65
579.85	44264.21
580.01	44570.82
580.17	44722.96
580.33	44903.18
580.49	44753.38
580.65	44783.81
580.82	44622.31
580.98	44680.83
581.14	44245.49
581.30	44851.69
581.46	44598.91
581.62	44631.68
581.78	44858.71
581.94	44608.27
582.10	44779.13
582.26	44605.93
582.42	44861.05
582.58	44664.44
582.74	44418.69
582.90	44421.03
583.06	45006.16
583.22	44767.43
583.38	44449.11
583.54	44781.47
583.70	44648.06
583.86	44886.79
584.02	44708.91
584.18	44570.82
584.34	44940.63
584.50	44835.30
584.66	44788.49
584.82	44814.24
584.98	45097.44
585.14	44643.38
585.30	44729.98
585.46	44493.58
585.62	44470.18
585.78	44875.09
585.94	44467.84
586.10	44718.28
586.26	44428.05
586.42	44751.04
586.58	45235.53
586.74	44706.57
586.90	44488.90
587.06	44275.91
587.22	45052.97
587.38	44233.78
587.54	45069.36
587.70	45003.82
587.86	44945.31
588.02	44744.02
588.18	44854.03
588.34	44371.88
588.49	44397.62
588.65	44652.74
588.81	44423.37
588.97	44690.19
589.13	44664.44
589.29	44231.44
589.45	44753.38
589.61	45167.66
589.77	45476.61
589.93	44924.24
590.08	45371.28
590.24	45193.40
