SpectraSuite Data File
++++++++++++++++++++++++++++++++++++
Date: Fri Oct 25 10:44:20 EDT 2013
User: price-jones
Dark Spectrum Present: No
Reference Spectrum Present: No
Number of Sampled Component Spectra: 1
Spectrometers: USB2+H05261
Integration Time (usec): 100000 (USB2+H05261)
Spectra Averaged: 1 (USB2+H05261)
Boxcar Smoothing: 0 (USB2+H05261)
Correct for Electrical Dark: No (USB2+H05261)
Strobe/Lamp Enabled: No (USB2+H05261)
Correct for Detector Non-linearity: No (USB2+H05261)
Correct for Stray Light: No (USB2+H05261)
Number of Pixels in Processed Spectrum: 2048
>>>>>Begin Processed Spectral Data<<<<<
365.73	191.92
365.92	191.92
366.12	191.92
366.32	30.43
366.52	53.83
366.72	53.83
366.91	0.00
367.11	9.36
367.31	11.70
367.51	0.00
367.70	11.70
367.90	46.81
368.10	60.85
368.30	16.38
368.49	30.43
368.69	88.94
368.89	0.00
369.09	16.38
369.28	11.70
369.48	0.00
369.68	60.85
369.87	114.69
370.07	98.30
370.27	140.43
370.47	133.41
370.66	308.95
370.86	383.85
371.06	505.56
371.25	470.45
371.45	440.02
371.65	498.53
371.84	470.45
372.04	486.83
372.24	498.53
372.44	521.94
372.63	510.24
372.83	533.64
373.03	381.51
373.22	454.06
373.42	472.79
373.62	547.69
373.81	561.73
374.01	500.87
374.21	550.03
374.40	468.11
374.60	552.37
374.79	547.69
374.99	589.82
375.19	519.60
375.38	608.54
375.58	601.52
375.78	662.37
375.97	554.71
376.17	641.31
376.37	603.86
376.56	648.33
376.76	601.52
376.95	669.39
377.15	641.31
377.35	678.76
377.54	751.31
377.74	629.60
377.93	664.71
378.13	627.26
378.33	711.52
378.52	627.26
378.72	709.18
378.91	678.76
379.11	681.10
379.31	699.82
379.50	674.07
379.70	699.82
379.89	748.97
380.09	702.16
380.28	690.46
380.48	681.10
380.68	671.73
380.87	730.25
381.07	770.04
381.26	798.12
381.46	772.38
381.65	723.23
381.85	779.40
382.04	678.76
382.24	699.82
382.43	685.78
382.63	695.14
382.83	676.41
383.02	681.10
383.22	903.45
383.41	727.91
383.61	842.59
383.80	744.29
384.00	772.38
384.19	784.08
384.39	791.10
384.58	816.85
384.78	870.68
384.97	819.19
385.17	795.78
385.36	826.21
385.56	887.06
385.75	770.04
385.95	805.14
386.14	819.19
386.34	905.79
386.53	842.59
386.72	854.30
386.92	856.64
387.11	952.60
387.31	884.72
387.50	917.49
387.70	840.25
387.89	943.24
388.09	896.43
388.28	922.17
388.48	837.91
388.67	1004.09
388.86	1008.77
389.06	1036.86
389.25	1032.18
389.45	1004.09
389.64	1011.11
389.84	997.07
390.03	1132.82
390.22	1078.99
390.42	940.90
390.61	1083.67
390.81	1069.62
391.00	1086.01
391.19	1104.73
391.39	1146.86
391.58	1139.84
391.78	1025.15
391.97	1036.86
392.16	1050.90
392.36	1111.75
392.55	1069.62
392.75	966.64
392.94	980.68
393.13	1015.79
393.33	978.34
393.52	1090.69
393.71	1196.01
393.91	1114.10
394.10	1086.01
394.29	1217.08
394.49	1193.67
394.68	1203.04
394.88	1268.57
395.07	1291.98
395.26	1254.53
395.46	1303.68
395.65	1301.34
395.84	1373.89
396.04	1306.02
396.23	1177.29
396.42	1226.44
396.62	1228.78
396.81	1242.82
397.00	1366.87
397.19	1385.60
397.39	1366.87
397.58	1493.26
397.77	1409.00
397.97	1418.36
398.16	1481.56
398.35	1521.35
398.55	1547.09
398.74	1614.97
398.93	1675.82
399.12	1640.72
399.32	1659.44
399.51	1549.43
399.70	1633.69
399.90	1694.55
400.09	1619.65
400.28	1591.56
400.47	1652.42
400.67	1853.70
400.86	1795.19
401.05	1760.08
401.24	1837.32
401.44	1743.70
401.63	1713.27
401.82	1844.34
402.01	1865.41
402.21	1736.68
402.40	1898.17
402.59	1813.92
402.78	1856.04
402.97	1771.79
403.17	1842.00
403.36	1788.17
403.55	1877.11
403.74	1935.62
403.93	1966.05
404.13	1975.41
404.32	1980.09
404.51	1982.43
404.70	2026.90
404.89	2019.88
405.09	2136.91
405.28	2090.10
405.47	2090.10
405.66	2059.67
405.85	2087.76
406.05	2010.52
406.24	2033.93
406.43	2026.90
406.62	2195.42
406.81	2200.10
407.00	2078.40
407.20	2083.08
407.39	2188.40
407.58	2228.19
407.77	2354.58
407.96	2251.60
408.15	2387.35
408.34	2223.51
408.54	2429.48
408.73	2413.09
408.92	2356.92
409.11	2464.58
409.30	2415.43
409.49	2361.60
409.68	2296.07
409.87	2305.43
410.07	2490.33
410.26	2385.01
410.45	2359.26
410.64	2551.18
410.83	2541.82
411.02	2661.19
411.21	2682.25
411.40	2661.19
411.59	2724.38
411.78	2693.96
411.98	2729.06
412.17	2768.85
412.36	2719.70
412.55	2743.11
412.74	2862.48
412.93	2913.97
413.12	3005.25
413.31	2913.97
413.50	3000.57
413.69	2930.35
413.88	3030.99
414.07	2984.18
414.26	3117.59
414.45	3115.25
414.64	2920.99
414.83	3115.25
415.02	3150.36
415.22	3227.60
415.41	3344.63
415.60	3194.83
415.79	3269.73
415.98	3328.24
416.17	3363.35
416.36	3265.05
416.55	3361.01
416.74	3396.12
416.93	3330.58
417.12	3487.40
417.31	3543.57
417.50	3545.91
417.69	3599.74
417.88	3494.42
418.07	3581.02
418.26	3639.53
418.45	3625.49
418.64	3866.56
418.83	3709.75
419.02	3655.92
419.21	3679.32
419.39	3700.39
419.58	3611.45
419.77	3623.15
419.96	3700.39
420.15	3885.29
420.34	3782.31
420.53	3829.12
420.72	3857.20
420.91	3887.63
421.10	3817.41
421.29	3918.06
421.48	3850.18
421.67	3967.21
421.86	3995.29
422.05	3932.10
422.24	3955.51
422.43	3981.25
422.61	3932.10
422.80	4028.06
422.99	4102.96
423.18	3985.93
423.37	4067.85
423.56	4063.17
423.75	3913.38
423.94	4009.34
424.13	3918.06
424.32	3911.04
424.50	4166.15
424.69	4063.17
424.88	4163.81
425.07	3981.25
425.26	3995.29
425.45	3964.87
425.64	4021.04
425.83	3969.55
426.01	4079.55
426.20	4166.15
426.39	4297.22
426.58	4208.28
426.77	4091.26
426.96	4044.45
427.15	4126.36
427.33	4180.20
427.52	4210.62
427.71	4124.02
427.90	4341.69
428.09	4318.29
428.28	4173.18
428.46	4358.08
428.65	4395.53
428.84	4418.93
429.03	4479.79
429.22	4191.90
429.40	4257.43
429.59	4208.28
429.78	3978.91
429.97	4072.53
430.16	4170.83
430.34	4224.67
430.53	4311.27
430.72	4215.30
430.91	4266.80
431.10	4379.14
431.28	4774.69
431.47	4805.12
431.66	4812.14
431.85	4702.14
432.03	4657.67
432.22	4931.51
432.41	4819.16
432.60	4919.81
432.79	4922.15
432.97	5090.67
433.16	5015.77
433.35	4807.46
433.54	4880.02
433.72	4802.78
433.91	4765.33
434.10	4971.30
434.28	5018.11
434.47	5252.16
434.66	5104.71
434.85	5055.56
435.03	5139.82
435.22	5116.41
435.41	5383.23
435.59	5280.25
435.78	5277.91
435.97	5289.61
436.16	5352.81
436.34	5345.78
436.53	5301.31
436.72	5509.62
436.90	5289.61
437.09	5287.27
437.28	5350.46
437.46	5495.58
437.65	5224.08
437.84	5303.65
438.02	5376.21
438.21	5320.04
438.40	5535.37
438.58	5493.24
438.77	5518.98
438.96	5638.35
439.14	5746.02
439.33	5799.85
439.52	5961.34
439.70	5778.78
439.89	5809.21
440.08	5856.02
440.26	5973.05
440.45	5809.21
440.63	6050.28
440.82	6352.21
441.01	6125.18
441.19	6279.66
441.38	6258.59
441.57	6356.90
441.75	6422.43
441.94	6619.04
442.12	6612.01
442.31	6551.16
442.50	6565.20
442.68	6436.47
442.87	6520.73
443.05	6633.08
443.24	6761.81
443.43	6647.12
443.61	6572.22
443.80	6960.75
443.98	6427.11
444.17	6478.60
444.35	6822.66
444.54	6810.96
444.73	6633.08
444.91	6846.07
445.10	6691.59
445.28	6754.79
445.47	6661.16
445.65	6750.10
445.84	6492.65
446.02	6775.85
446.21	6759.47
446.39	6876.49
446.58	6909.26
446.77	6832.02
446.95	6829.68
447.14	7009.90
447.32	7021.61
447.51	6979.48
447.69	6839.05
447.88	6923.30
448.06	7021.61
448.25	6855.43
448.43	6963.09
448.62	6871.81
448.80	6974.80
448.99	6998.20
449.17	7009.90
449.36	6939.69
449.54	7344.60
449.73	7335.24
449.91	7541.21
450.10	7328.22
450.28	7442.90
450.46	7412.48
450.65	7524.82
450.83	7463.97
451.02	7527.16
451.20	7672.28
451.39	7534.18
451.57	7541.21
451.76	7583.34
451.94	7489.71
452.13	7592.70
452.31	7393.75
452.49	7330.56
452.68	7405.46
452.86	7452.27
453.05	7503.76
453.23	7653.55
453.42	7466.31
453.60	7508.44
453.78	7927.39
453.97	7644.19
454.15	7679.30
454.34	7772.92
454.52	7765.90
454.70	7742.49
454.89	7679.30
455.07	7735.47
455.26	7742.49
455.44	8028.04
455.62	7953.14
455.81	8002.29
455.99	8131.02
456.17	8112.30
456.36	8217.62
456.54	8116.98
456.73	8173.15
456.91	8531.25
457.09	8505.51
457.28	8549.98
457.46	8294.86
457.64	8603.81
457.83	8416.57
458.01	8166.13
458.19	8557.00
458.38	8519.55
458.56	8564.02
458.74	8617.85
458.93	8535.93
459.11	8568.70
459.29	8613.17
459.48	8631.90
459.66	8636.58
459.84	8706.79
460.03	8697.43
460.21	8828.50
460.39	8985.32
460.57	8767.65
460.76	8688.07
460.94	9029.79
461.12	8842.54
461.31	8896.38
461.49	9020.42
461.67	8809.78
461.85	8894.04
462.04	9078.94
462.22	9310.65
462.40	9240.44
462.59	9350.44
462.77	9057.87
462.95	9385.55
463.13	9383.21
463.32	9256.82
463.50	9357.46
463.68	9584.49
463.86	9312.99
464.05	9289.59
464.23	9114.05
464.41	9338.74
464.59	9242.78
464.78	9486.19
464.96	9460.45
465.14	9528.32
465.32	9682.80
465.50	9434.70
465.69	9652.37
465.87	9493.21
466.05	9472.15
466.23	9500.23
466.41	9490.87
466.60	9870.04
466.78	9607.90
466.96	9640.67
467.14	9610.24
467.32	9664.07
467.51	9958.98
467.69	9628.96
467.87	9755.35
468.05	9778.76
468.23	9802.16
468.41	9703.86
468.60	9968.34
468.78	9916.85
468.96	9731.95
469.14	9921.53
469.32	9947.28
469.50	9659.39
469.69	10026.86
469.87	10139.20
470.05	10363.89
470.23	10057.28
470.41	10164.95
470.59	10335.81
470.77	10214.10
470.95	10574.54
471.14	10558.16
471.32	10375.59
471.50	10717.31
471.68	10497.30
471.86	10799.23
472.04	10733.70
472.22	10759.44
472.40	10558.16
472.58	10956.05
472.77	11005.20
472.95	10906.90
473.13	11370.32
473.31	10878.81
473.49	10846.04
473.67	10832.00
473.85	11105.84
474.03	11330.53
474.21	11440.54
474.39	11548.20
474.57	11393.73
474.75	11513.10
474.93	11665.23
475.12	11424.15
475.30	11590.33
475.48	11503.73
475.66	11583.31
475.84	11468.62
476.02	11822.05
476.20	11777.58
476.38	11920.35
476.56	12180.15
476.74	12233.98
476.92	12049.08
477.10	12229.30
477.28	12500.80
477.46	12549.95
477.64	12697.41
477.82	12798.05
478.00	12819.11
478.18	12788.69
478.36	12989.97
478.54	13146.79
478.72	13160.83
478.90	13207.64
479.08	13465.10
479.26	13640.64
479.44	13750.65
479.62	13706.18
479.80	13685.11
479.98	14101.73
480.16	14239.82
480.34	14136.84
480.52	14281.95
480.70	14288.97
480.88	14193.01
481.06	14417.70
481.24	14300.67
481.41	14628.35
481.59	14925.60
481.77	14991.13
481.95	14937.30
482.13	15283.70
482.31	15154.97
482.49	15356.25
482.67	15328.17
482.85	15487.32
483.03	15690.95
483.21	15700.31
483.39	16046.71
483.57	15899.26
483.74	16004.58
483.92	16133.31
484.10	16013.95
484.28	16231.62
484.46	16489.07
484.64	16996.97
484.82	16416.52
485.00	16697.38
485.18	17081.23
485.35	17022.72
485.53	16573.33
485.71	16563.97
485.89	16924.41
486.07	16978.25
486.25	17102.29
486.43	17263.79
486.61	17563.38
486.78	17736.58
486.96	17727.22
487.14	18354.48
487.32	18443.42
487.50	18600.24
487.68	18703.22
487.85	18991.11
488.03	19225.16
488.21	18988.77
488.39	18906.85
488.57	19129.20
488.75	19236.86
488.92	19768.16
489.10	20065.41
489.28	20039.67
489.46	20051.37
489.64	20280.74
489.81	20524.16
489.99	20542.88
490.17	20758.21
490.35	21156.10
490.53	20821.41
490.70	21343.35
490.88	21029.71
491.06	21483.78
491.24	21415.90
491.41	21135.04
491.59	21399.52
491.77	21582.08
491.95	21706.13
492.13	21788.05
492.30	22104.02
492.48	22401.27
492.66	22574.47
492.84	22457.44
493.01	22750.01
493.19	22345.09
493.37	22977.04
493.54	23325.78
493.72	23236.84
493.90	23491.96
494.08	23566.85
494.25	24041.98
494.43	23936.66
494.61	24107.52
494.79	24133.26
494.96	24170.71
495.14	24381.36
495.32	24783.93
495.49	24210.50
495.67	24397.74
495.85	24776.91
496.02	24929.05
496.20	25476.73
496.38	25015.65
496.55	25273.10
496.73	26103.99
496.91	25876.96
497.09	25876.96
497.26	25844.20
497.44	26019.74
497.62	25928.45
497.79	26305.28
497.97	25823.13
498.14	26031.44
498.32	26396.56
498.50	26302.94
498.67	26747.64
498.85	26969.99
499.03	26944.25
499.20	26787.43
499.38	26965.31
499.56	27063.61
499.73	27082.34
499.91	27489.59
500.08	27250.86
500.26	26852.97
500.44	27248.52
500.61	27531.72
500.79	27440.44
500.97	27693.22
501.14	27740.03
501.32	28016.21
501.49	28018.55
501.67	27859.40
501.84	27915.57
502.02	28198.77
502.20	27929.61
502.37	28631.77
502.55	28683.27
502.72	28978.17
502.90	28840.08
503.07	28498.36
503.25	28744.12
503.43	29184.14
503.60	28954.77
503.78	29273.08
503.95	29111.58
504.13	29699.06
504.30	29759.91
504.48	29359.68
504.65	29652.25
504.83	30157.80
505.01	29944.81
505.18	30026.73
505.36	30501.86
505.53	30239.72
505.71	30593.14
505.88	30761.66
506.06	30321.64
506.23	30658.68
506.41	30356.75
506.58	30785.07
506.76	30855.28
506.93	30595.48
507.11	30799.11
507.28	31140.83
507.46	30930.18
507.63	30862.30
507.81	31147.85
507.98	30738.26
508.16	31075.29
508.33	30885.71
508.50	31653.40
508.68	32065.34
508.85	31971.72
509.03	31892.14
509.20	32339.18
509.38	32128.53
509.55	32102.79
509.73	32086.40
509.90	32336.84
510.08	32512.38
510.25	31978.74
510.42	32411.74
510.60	32886.87
510.77	32886.87
510.95	33001.55
511.12	33275.40
511.30	33165.39
511.47	33172.41
511.64	33436.89
511.82	33141.99
511.99	32898.57
512.17	33081.13
512.34	33153.69
512.51	33591.37
512.69	33542.22
512.86	33605.41
513.04	33757.55
513.21	33493.07
513.38	34054.79
513.56	33682.65
513.73	33324.55
513.90	33914.36
514.08	33811.38
514.25	34024.37
514.43	34209.27
514.60	34176.50
514.77	34279.49
514.95	34675.04
515.12	34443.32
515.29	34689.08
515.47	35159.53
515.64	34960.58
515.81	34665.67
515.99	34831.85
516.16	34621.20
516.33	34132.03
516.51	34773.34
516.68	34127.35
516.85	34527.58
517.03	34473.75
517.20	34309.91
517.37	35416.99
517.54	35360.81
517.72	35278.89
517.89	34902.07
518.06	34646.95
518.24	34693.76
518.41	34749.93
518.58	35108.04
518.75	35622.95
518.93	35842.96
519.10	35672.10
519.27	35908.50
519.45	35763.39
519.62	36547.47
519.79	36229.15
519.96	36336.82
520.14	36662.15
520.31	36503.00
520.48	36425.76
520.65	36730.03
520.83	36891.52
521.00	37258.99
521.17	36671.51
521.34	37144.30
521.52	36971.10
521.69	37036.64
521.86	37504.74
522.03	37460.27
522.20	37055.36
522.38	37315.16
522.55	37074.09
522.72	37148.98
522.89	37256.65
523.07	37340.91
523.24	37275.37
523.41	38052.43
523.58	37696.67
523.75	38628.20
523.92	37818.38
524.10	38433.94
524.27	38609.48
524.44	38045.41
524.61	38579.05
524.78	38698.42
524.96	38387.13
525.13	38625.86
525.30	38623.52
525.47	38897.36
525.64	38646.93
525.81	38703.10
525.98	38251.38
526.16	38665.65
526.33	38302.87
526.50	38660.97
526.67	38466.70
526.84	38096.90
527.01	38082.86
527.18	38785.02
527.36	39538.67
527.53	39227.38
527.70	39328.02
527.87	39105.67
528.04	39379.51
528.21	39274.19
528.38	39367.81
528.55	39597.18
528.72	39735.27
528.89	39901.45
529.07	39629.95
529.24	39959.97
529.41	40095.72
529.58	39889.75
529.75	39777.40
529.92	39688.46
530.09	40074.65
530.26	39812.51
530.43	40308.71
530.60	40210.40
530.77	40191.68
530.94	40409.35
531.11	40442.12
531.28	40299.34
531.46	40189.34
531.63	40542.76
531.80	40636.38
531.97	40608.29
532.14	40390.62
532.31	40198.70
532.48	40418.71
532.65	40645.74
532.82	40718.30
532.99	40964.06
533.16	40652.76
533.33	41221.52
533.50	40964.06
533.67	41123.21
533.84	40678.51
534.01	40975.76
534.18	40596.59
534.35	41233.22
534.52	41427.48
534.69	41333.86
534.86	41329.18
535.03	41605.36
535.20	41926.02
535.37	41773.88
535.54	42230.29
535.71	41876.86
535.88	41713.03
536.05	41642.81
536.22	41703.67
536.38	42085.17
536.55	41390.03
536.72	41340.88
536.89	41752.82
537.06	41556.21
537.23	41958.78
537.40	41982.19
537.57	41429.82
537.74	41579.62
537.91	42363.70
538.08	42183.48
538.25	41539.83
538.42	42131.98
538.59	42178.79
538.75	41876.86
538.92	42286.46
539.09	42431.57
539.26	42403.49
539.43	42223.26
539.60	42335.61
539.77	42174.11
539.94	42632.86
540.11	42038.36
540.28	42483.06
540.44	42066.45
540.61	42349.65
540.78	42424.55
540.95	42787.33
541.12	42639.88
541.29	42717.12
541.46	42969.90
541.62	42560.30
541.79	43264.80
541.96	42546.26
542.13	42763.93
542.30	42803.72
542.47	42780.31
542.63	42719.46
542.80	42525.19
542.97	43311.61
543.14	43732.91
543.31	43805.47
543.48	43599.50
543.64	44161.23
543.81	44147.18
543.98	43583.12
544.15	43452.05
544.32	43704.82
544.48	43983.35
544.65	44091.01
544.82	43924.83
544.99	43550.35
545.16	43945.90
545.32	43739.93
545.49	43931.86
545.66	44598.91
545.83	44793.17
546.00	44746.36
546.16	43866.32
546.33	43988.03
546.50	43536.30
546.67	44409.32
546.83	43913.13
547.00	44093.35
547.17	44296.98
547.34	44140.16
547.50	44243.15
547.67	44355.49
547.84	44339.11
548.00	44507.63
548.17	44811.90
548.34	44418.69
548.51	44584.86
548.67	44875.09
548.84	44725.30
549.01	44839.98
549.18	44865.73
549.34	44687.85
549.51	45043.61
549.68	44685.51
549.84	44755.72
550.01	44949.99
550.18	44589.55
550.34	44821.26
550.51	44919.56
550.68	45024.89
550.84	44926.58
551.01	45167.66
551.18	45198.09
551.34	44921.90
551.51	45167.66
551.68	45294.05
551.84	45446.18
552.01	45272.98
552.18	45153.62
552.34	45015.52
552.51	44779.13
552.68	45247.24
552.84	45556.19
553.01	45317.45
553.18	45413.41
553.34	45249.58
553.51	45188.72
553.67	45483.63
553.84	45350.22
554.01	45820.67
554.17	45490.65
554.34	45869.82
554.51	45553.85
554.67	45895.56
554.84	45640.45
555.00	45507.04
555.17	45764.49
555.33	45366.60
555.50	45762.15
555.67	45635.77
555.83	45460.23
556.00	45502.35
556.16	46218.56
556.33	45687.26
556.50	45497.67
556.66	46466.66
556.83	45645.13
556.99	46115.58
557.16	46103.87
557.32	45900.25
557.49	45785.56
557.65	45979.82
557.82	46078.13
557.98	46017.27
558.15	46017.27
558.32	46082.81
558.48	45544.48
558.65	45848.75
558.81	45553.85
558.98	45986.85
559.14	46103.87
559.31	45942.38
559.47	45811.31
559.64	45928.33
559.80	46342.61
559.97	46410.48
560.13	46138.98
560.30	46021.95
560.46	46557.94
560.63	46483.04
560.79	46719.43
560.96	46293.46
561.12	46389.42
561.29	46232.60
561.45	46012.59
561.61	45626.40
561.78	46494.74
561.94	46225.58
562.11	46499.42
562.27	46124.94
562.44	45989.19
562.60	46363.67
562.77	46667.94
562.93	46192.81
563.10	46171.75
563.26	46094.51
563.42	46677.30
563.59	46787.31
563.75	46389.42
563.92	46789.65
564.08	46433.89
564.24	46609.43
564.41	46515.81
564.57	46571.98
564.74	46103.87
564.90	46452.61
565.07	46607.09
565.23	46536.87
565.39	46796.67
565.56	46777.95
565.72	46176.43
565.88	46693.69
566.05	46300.48
566.21	46188.13
566.38	46291.12
566.54	46897.31
566.70	46822.42
566.87	47243.71
567.03	46707.73
567.19	46848.16
567.36	46932.42
567.52	46801.35
567.68	46487.72
567.85	46813.05
568.01	46508.79
568.17	46426.87
568.34	46700.71
568.50	46848.16
568.66	46773.27
568.83	46473.68
568.99	46513.47
569.15	46763.90
569.32	46054.72
569.48	46611.77
569.64	46754.54
569.81	46738.16
569.97	46906.68
570.13	46906.68
570.30	46190.47
570.46	46461.97
570.62	46012.59
570.78	46398.78
570.95	46497.08
571.11	46660.92
571.27	46990.94
571.43	46417.50
571.60	46499.42
571.76	46330.90
571.92	46873.91
572.09	46677.30
572.25	46974.55
572.41	47019.02
572.57	46799.01
572.74	47042.43
572.90	46555.60
573.06	47014.34
573.22	46600.07
573.38	46960.51
573.55	46958.17
573.71	46691.35
573.87	46742.84
574.03	46623.47
574.20	47096.26
574.36	46569.64
574.52	46909.02
574.68	47056.47
574.84	47105.62
575.01	46930.08
575.17	46628.15
575.33	46391.76
575.49	46639.86
575.65	47075.19
575.82	47002.64
575.98	46745.18
576.14	46923.06
576.30	46813.05
576.46	46696.03
576.62	46649.22
576.79	47114.98
576.95	46595.38
577.11	47264.78
577.27	46684.33
577.43	46754.54
577.59	46791.99
577.75	46642.20
577.92	46499.42
578.08	46368.35
578.24	46660.92
578.40	46316.86
578.56	46883.27
578.72	46670.28
578.88	47131.37
579.04	47271.80
579.21	46862.21
579.37	46939.44
579.53	46932.42
579.69	46852.84
579.85	46717.09
580.01	47267.12
580.17	46763.90
580.33	47192.22
580.49	46983.91
580.65	47154.77
580.82	47049.45
580.98	46681.98
581.14	46951.15
581.30	47573.73
581.46	46976.89
581.62	47248.39
581.78	46953.49
581.94	47061.15
582.10	46866.89
582.26	46960.51
582.42	47126.69
582.58	46644.54
582.74	46948.81
582.90	47037.75
583.06	46686.67
583.22	47147.75
583.38	46689.01
583.54	47129.03
583.70	47173.50
583.86	47063.49
584.02	46555.60
584.18	47068.17
584.34	47117.32
584.50	46988.60
584.66	46883.27
584.82	46387.08
584.98	47133.71
585.14	47313.93
585.30	46993.28
585.46	47044.77
585.62	46714.75
585.78	47213.29
585.94	46621.13
586.10	46710.07
586.26	46766.24
586.42	47267.12
586.58	47012.00
586.74	46925.40
586.90	46857.52
587.06	46904.34
587.22	46780.29
587.38	46824.76
587.54	47009.66
587.70	47082.22
587.86	47215.63
588.02	46644.54
588.18	46899.65
588.34	46902.00
588.49	46302.82
588.65	46529.85
588.81	46504.10
588.97	46429.21
589.13	46775.61
589.29	46527.51
589.45	46579.00
589.61	46717.09
589.77	46639.86
589.93	47016.68
