SpectraSuite Data File
++++++++++++++++++++++++++++++++++++
Date: Fri Oct 25 11:25:54 EDT 2013
User: price-jones
Dark Spectrum Present: No
Reference Spectrum Present: No
Number of Sampled Component Spectra: 1
Spectrometers: USB2+H05261
Integration Time (usec): 100000 (USB2+H05261)
Spectra Averaged: 1 (USB2+H05261)
Boxcar Smoothing: 0 (USB2+H05261)
Correct for Electrical Dark: No (USB2+H05261)
Strobe/Lamp Enabled: No (USB2+H05261)
Correct for Detector Non-linearity: No (USB2+H05261)
Correct for Stray Light: No (USB2+H05261)
Number of Pixels in Processed Spectrum: 2048
>>>>>Begin Processed Spectral Data<<<<<
365.73	231.71
365.92	231.71
366.12	231.71
366.32	168.52
366.52	156.82
366.72	168.52
366.91	112.35
367.11	149.79
367.31	67.88
367.51	128.73
367.70	95.96
367.90	140.43
368.10	145.11
368.30	140.43
368.49	121.71
368.69	135.75
368.89	114.69
369.09	79.58
369.28	224.69
369.48	149.79
369.68	175.54
369.87	154.48
370.07	187.24
370.27	243.42
370.47	369.80
370.66	657.69
370.86	613.22
371.06	676.41
371.25	725.57
371.45	657.69
371.65	774.72
371.84	716.20
372.04	704.50
372.24	723.23
372.44	650.67
372.63	739.61
372.83	669.39
373.03	779.40
373.22	765.36
373.42	826.21
373.62	786.42
373.81	760.67
374.01	800.46
374.21	767.70
374.40	763.01
374.60	833.23
374.79	697.48
374.99	816.85
375.19	880.04
375.38	854.30
375.58	856.64
375.78	837.91
375.97	770.04
376.17	954.94
376.37	898.77
376.56	856.64
376.76	866.00
376.95	884.72
377.15	922.17
377.35	903.45
377.54	959.62
377.74	929.19
377.93	905.79
378.13	929.19
378.33	875.36
378.52	929.19
378.72	889.40
378.91	912.81
379.11	973.66
379.31	994.73
379.50	1086.01
379.70	1032.18
379.89	1004.09
380.09	992.39
380.28	1008.77
380.48	1025.15
380.68	968.98
380.87	924.51
381.07	1050.90
381.26	978.34
381.46	961.96
381.65	950.26
381.85	987.71
382.04	1001.75
382.24	1100.05
382.43	1156.22
382.63	978.34
382.83	1071.97
383.02	1095.37
383.22	1158.57
383.41	1130.48
383.61	1158.57
383.80	1132.82
384.00	1146.86
384.19	1144.52
384.39	1167.93
384.58	1137.50
384.78	1081.33
384.97	1163.25
385.17	1282.61
385.36	1121.12
385.56	1104.73
385.75	1228.78
385.95	1217.08
386.14	1160.91
386.34	1158.57
386.53	1207.72
386.72	1165.59
386.92	1310.70
387.11	1238.14
387.31	1240.48
387.50	1217.08
387.70	1249.85
387.89	1275.59
388.09	1315.38
388.28	1350.49
388.48	1310.70
388.67	1371.55
388.86	1338.79
389.06	1313.04
389.25	1430.07
389.45	1336.45
389.64	1301.34
389.84	1437.09
390.03	1336.45
390.22	1343.47
390.42	1324.74
390.61	1338.79
390.81	1364.53
391.00	1401.98
391.19	1434.75
391.39	1394.96
391.58	1511.99
391.78	1451.13
391.97	1467.52
392.16	1401.98
392.36	1519.01
392.55	1533.05
392.75	1598.59
392.94	1526.03
393.13	1448.79
393.33	1568.16
393.52	1577.52
393.71	1600.93
393.91	1556.46
394.10	1617.31
394.29	1666.46
394.49	1734.34
394.68	1743.70
394.88	1617.31
395.07	1636.03
395.26	1811.57
395.46	1678.16
395.65	1671.14
395.84	1732.00
396.04	1762.42
396.23	1811.57
396.42	1811.57
396.62	1753.06
396.81	1734.34
397.00	1727.32
397.19	1830.30
397.39	1689.87
397.58	1907.54
397.77	1806.89
397.97	1905.20
398.16	1732.00
398.35	1865.41
398.55	1858.39
398.74	2001.16
398.93	1947.33
399.12	1977.75
399.32	1893.49
399.51	1944.99
399.70	2069.03
399.90	2024.56
400.09	2015.20
400.28	2062.01
400.47	2118.18
400.67	2045.63
400.86	2031.58
401.05	2024.56
401.24	2209.47
401.44	2165.00
401.63	2193.08
401.82	2148.61
402.01	2087.76
402.21	2141.59
402.40	2143.93
402.59	2207.13
402.78	2260.96
402.97	2190.74
403.17	2296.07
403.36	2347.56
403.55	2267.98
403.74	2317.13
403.93	2291.38
404.13	2415.43
404.32	2427.14
404.51	2349.90
404.70	2385.01
404.89	2338.20
405.09	2518.42
405.28	2382.67
405.47	2567.57
405.66	2492.67
405.85	2499.69
406.05	2506.71
406.24	2647.15
406.43	2586.29
406.62	2644.81
406.81	2595.65
407.00	2574.59
407.20	2635.44
407.39	2593.31
407.58	2562.89
407.77	2651.83
407.96	2715.02
408.15	2799.28
408.34	2745.45
408.54	2848.43
408.73	2881.20
408.92	2874.18
409.11	2883.54
409.30	2958.44
409.49	2895.24
409.68	2953.76
409.87	3063.76
410.07	2991.20
410.26	3007.59
410.45	3075.46
410.64	3002.91
410.83	3075.46
411.02	3215.90
411.21	3138.66
411.40	3243.98
411.59	3164.40
411.78	3253.34
411.98	3110.57
412.17	3304.84
412.36	3232.28
412.55	3365.69
412.74	3269.73
412.93	3274.41
413.12	3375.05
413.31	3665.28
413.50	3372.71
413.69	3492.08
413.88	3506.12
414.07	3562.30
414.26	3510.80
414.45	3569.32
414.64	3618.47
414.83	3763.58
415.02	3765.92
415.22	3789.33
415.41	3908.69
415.60	3904.01
415.79	3882.95
415.98	3969.55
416.17	3983.59
416.36	3992.95
416.55	4028.06
416.74	4004.66
416.93	4124.02
417.12	4114.66
417.31	4168.49
417.50	4051.47
417.69	4271.48
417.88	4236.37
418.07	4205.94
418.26	4355.74
418.45	4362.76
418.64	4395.53
418.83	4461.06
419.02	4285.52
419.21	4585.11
419.39	4510.21
419.58	4505.53
419.77	4381.48
419.96	4510.21
420.15	4676.39
420.34	4681.07
420.53	4739.58
420.72	4645.96
420.91	4542.98
421.10	4713.84
421.29	4802.78
421.48	4587.45
421.67	4847.25
421.86	4793.42
422.05	4854.27
422.24	4774.69
422.43	4868.31
422.61	4905.76
422.80	4980.66
422.99	4910.44
423.18	5050.88
423.37	5018.11
423.56	4950.23
423.75	5032.15
423.94	4851.93
424.13	4692.77
424.32	4889.38
424.50	4975.98
424.69	5083.64
424.88	5165.56
425.07	5036.83
425.26	4842.57
425.45	4910.44
425.64	4957.25
425.83	4882.36
426.01	5062.58
426.20	5111.73
426.39	4933.85
426.58	4968.96
426.77	5116.41
426.96	4940.87
427.15	5085.98
427.33	5151.52
427.52	5247.48
427.71	5369.19
427.90	5109.39
428.09	5210.03
428.28	5277.91
428.46	5364.51
428.65	5287.27
428.84	5598.56
429.03	5554.09
429.22	5338.76
429.40	5455.79
429.59	5455.79
429.78	5247.48
429.97	5266.21
430.16	5294.29
430.34	5636.01
430.53	5659.42
430.72	5556.43
430.91	5631.33
431.10	5605.58
431.28	5741.33
431.47	5832.62
431.66	5858.36
431.85	5785.80
432.03	5753.04
432.22	6019.86
432.41	5813.89
432.60	5980.07
432.79	6078.37
432.97	5769.42
433.16	5933.26
433.35	6092.41
433.54	6139.23
433.72	6146.25
433.91	6223.48
434.10	6061.99
434.28	6036.24
434.47	6125.18
434.66	6181.35
434.85	6239.87
435.03	6340.51
435.22	6455.20
435.41	6520.73
435.59	6370.94
435.78	6471.58
435.97	6303.06
436.16	6506.69
436.34	6349.87
436.53	6602.65
436.72	6539.46
436.90	6597.97
437.09	6644.78
437.28	6541.80
437.46	6555.84
437.65	6696.27
437.84	6799.26
438.02	6722.02
438.21	6834.36
438.40	6768.83
438.58	6848.41
438.77	6904.58
438.96	6972.46
439.14	7103.53
439.33	7185.44
439.52	7091.82
439.70	7115.23
439.89	7370.35
440.08	7433.54
440.26	7353.96
440.45	7393.75
440.63	7470.99
440.82	7623.12
441.01	7524.82
441.19	7653.55
441.38	7695.68
441.57	7805.69
441.75	7854.84
441.94	7988.25
442.12	7962.50
442.31	8032.72
442.50	7927.39
442.68	8102.93
442.87	8159.11
443.05	8039.74
443.24	8238.69
443.43	8236.35
443.61	8297.20
443.80	8465.72
443.98	7976.55
444.17	7857.18
444.35	8278.47
444.54	8411.89
444.73	8327.63
444.91	8266.77
445.10	8290.18
445.28	8418.91
445.47	8241.03
445.65	8346.35
445.84	8325.29
446.02	8507.85
446.21	8599.13
446.39	8383.80
446.58	8542.96
446.77	8348.69
446.95	8482.10
447.14	8423.59
447.32	8514.87
447.51	8535.93
447.69	8416.57
447.88	8545.30
448.06	8725.52
448.25	8594.45
448.43	8573.38
448.62	8519.55
448.80	8519.55
448.99	8634.24
449.17	8678.71
449.36	8659.98
449.54	8798.07
449.73	9050.85
449.91	8887.01
450.10	9186.60
450.28	9104.68
450.46	9156.18
450.65	9156.18
450.83	9006.38
451.02	9078.94
451.20	9238.09
451.39	9128.09
451.57	9076.60
451.76	8952.55
451.94	9039.15
452.13	9394.91
452.31	9263.84
452.49	9184.26
452.68	9451.08
452.86	9228.73
453.05	9399.59
453.23	9577.47
453.42	9488.53
453.60	9280.22
453.78	9378.53
453.97	9392.57
454.15	9439.38
454.34	9453.42
454.52	9685.14
454.70	9558.75
454.89	9565.77
455.07	9631.30
455.26	9884.08
455.44	9912.17
455.62	9731.95
455.81	9867.70
455.99	9893.44
456.17	10043.24
456.36	9949.62
456.54	10396.66
456.73	10190.69
456.91	10541.77
457.09	10401.34
457.28	10513.69
457.46	10214.10
457.64	10452.83
457.83	10420.06
458.01	10490.28
458.19	10532.41
458.38	10586.24
458.56	10485.60
458.74	10450.49
458.93	10565.18
459.11	10619.01
459.29	10949.03
459.48	10764.12
459.66	10609.65
459.84	10974.77
460.03	11166.70
460.21	10939.66
460.39	11077.76
460.57	10991.16
460.76	11023.92
460.94	11447.56
461.12	11307.13
461.31	11293.08
461.49	11108.18
461.67	11009.88
461.85	11751.83
462.04	11323.51
462.22	11817.36
462.40	11597.35
462.59	11428.84
462.77	11358.62
462.95	11793.96
463.13	11676.93
463.32	11592.67
463.50	11847.79
463.68	11960.14
463.86	11747.15
464.05	11840.77
464.23	12011.63
464.41	12250.36
464.59	11445.22
464.78	12100.57
464.96	12149.72
465.14	11885.24
465.32	11894.60
465.50	12098.23
465.69	12320.58
465.87	12210.57
466.05	12226.96
466.23	12133.34
466.41	12112.27
466.60	12404.84
466.78	12226.96
466.96	12070.14
467.14	12168.45
467.32	12432.93
467.51	12610.81
467.69	12107.59
467.87	12620.17
468.05	12699.75
468.23	12266.75
468.41	12475.06
468.60	12620.17
468.78	12966.57
468.96	12746.56
469.14	12568.68
469.32	13266.16
469.50	12840.18
469.69	12905.71
469.87	13048.49
470.05	13254.45
470.23	13315.31
470.41	13114.02
470.59	13116.36
470.77	13221.69
470.95	13128.06
471.14	13577.45
471.32	12996.99
471.50	13572.77
471.68	13439.36
471.86	13638.30
472.04	13891.08
472.22	13963.64
472.40	13425.31
472.58	13530.64
472.77	13919.17
472.95	14141.52
473.13	14649.41
473.31	14157.90
473.49	14476.21
473.67	13921.51
473.85	14443.45
474.03	14668.14
474.21	14434.08
474.39	14733.67
474.57	14827.29
474.75	14963.04
474.93	15154.97
475.12	14986.45
475.30	15190.08
475.48	15241.57
475.66	15042.62
475.84	15143.27
476.02	15379.66
476.20	15164.33
476.38	15630.10
476.56	15995.22
476.74	16004.58
476.92	15779.89
477.10	16063.10
477.28	16306.51
477.46	16091.18
477.64	16208.21
477.82	16636.53
478.00	16828.45
478.18	16451.63
478.36	16788.66
478.54	17144.42
478.72	17102.29
478.90	17460.40
479.08	17502.53
479.26	17888.71
479.44	17811.48
479.62	17844.24
479.80	17832.54
479.98	18412.99
480.16	18501.93
480.34	18153.20
480.52	18881.10
480.70	18743.01
480.88	18691.52
481.06	18871.74
481.24	18719.60
481.41	19185.37
481.59	19321.12
481.77	19372.61
481.95	19566.88
482.13	19946.05
482.31	19466.24
482.49	20077.12
482.67	20037.33
482.85	20074.77
483.03	20622.46
483.21	20713.74
483.39	20996.95
483.57	20886.94
483.74	21055.46
483.92	21099.93
484.10	21120.99
484.28	21701.45
484.46	21979.97
484.64	22394.25
484.82	21958.91
485.00	22291.26
485.18	22567.45
485.35	23262.58
485.53	22834.27
485.71	22916.19
485.89	23616.01
486.07	23412.38
486.25	23608.98
486.43	23501.32
486.61	23931.98
486.78	23969.43
486.96	24098.16
487.14	24854.15
487.32	24842.45
487.50	24662.22
487.68	24596.69
487.85	25436.94
488.03	25528.22
488.21	25708.44
488.39	25577.37
488.57	26120.38
488.75	26249.11
488.92	26597.85
489.10	26555.72
489.28	26682.11
489.46	27421.72
489.64	26759.34
489.81	27740.03
489.99	28065.36
490.17	27981.10
490.35	28245.58
490.53	28154.30
490.70	28388.36
490.88	27924.93
491.06	29333.93
491.24	28982.85
491.41	28837.74
491.59	29113.92
491.77	29614.80
491.95	29940.13
492.13	29872.26
492.30	29979.92
492.48	29993.97
492.66	29975.24
492.84	30265.47
493.01	30342.70
493.19	30717.19
493.37	31173.60
493.54	31543.40
493.72	31332.75
493.90	31349.14
494.08	31653.40
494.25	31913.20
494.43	32151.94
494.61	32325.14
494.79	32517.06
494.96	32847.08
495.14	32657.49
495.32	33228.59
495.49	32954.74
495.67	33394.76
495.85	33673.29
496.02	33656.90
496.20	34148.42
496.38	33832.44
496.55	33886.28
496.73	35005.05
496.91	34600.14
497.09	34480.77
497.26	35105.70
497.44	35101.01
497.62	35351.45
497.79	35615.93
497.97	35306.98
498.14	35754.02
498.32	35962.33
498.50	36184.68
498.67	36383.63
498.85	36538.10
499.03	36648.11
499.20	36521.72
499.38	36772.16
499.56	37146.64
499.73	37029.62
499.91	37109.19
500.08	37212.18
500.26	37305.80
500.44	37521.13
500.61	38022.00
500.79	37881.57
500.97	38040.73
501.14	38492.45
501.32	38539.26
501.49	38717.14
501.67	38253.72
501.84	39063.54
502.02	38817.78
502.20	38899.70
502.37	39215.68
502.55	39159.50
502.72	39622.93
502.90	39632.29
503.07	39742.30
503.25	39550.37
503.43	39379.51
503.60	40524.04
503.78	40423.39
503.95	40594.25
504.13	40383.60
504.30	40643.40
504.48	40158.91
504.65	40369.56
504.83	41284.71
505.01	41322.16
505.18	40849.37
505.36	41167.68
505.53	41359.61
505.71	41710.69
505.88	41921.34
506.06	41469.61
506.23	41675.58
506.41	41645.15
506.58	42167.09
506.76	42459.66
506.93	42302.84
507.11	42525.19
507.28	42939.47
507.46	42747.54
507.63	43040.11
507.81	43239.06
507.98	43016.71
508.16	43203.95
508.33	43267.14
508.50	43201.61
508.68	43627.59
508.85	44215.06
509.03	43852.28
509.20	43924.83
509.38	44797.85
509.55	44121.44
509.73	44350.81
509.90	44357.83
510.08	44545.08
510.25	44542.74
510.42	44919.56
510.60	45078.72
510.77	45148.93
510.95	45408.73
511.12	45097.44
511.30	45177.02
511.47	45471.93
511.64	45755.13
511.82	45872.16
511.99	45516.40
512.17	45710.66
512.34	45593.64
512.51	46335.59
512.69	46302.82
512.86	46447.93
513.04	47157.11
513.21	46401.12
513.38	46820.08
513.56	46679.64
513.73	46604.75
513.90	47196.90
514.08	47044.77
514.25	47283.50
514.43	47484.79
514.60	47601.82
514.77	47407.55
514.95	47522.24
515.12	47372.44
515.29	47681.39
515.47	47931.83
515.64	47716.50
515.81	47704.80
515.99	47847.57
516.16	48432.71
516.33	48327.38
516.51	48837.62
516.68	48435.05
516.85	48669.10
517.03	48809.53
517.20	49120.82
517.37	48982.73
517.54	49214.44
517.72	48952.30
517.89	49209.76
518.06	49308.07
518.24	49205.08
518.41	49167.63
518.58	49317.43
518.75	49221.47
518.93	49361.90
519.10	49574.89
519.27	49682.55
519.45	49750.43
519.62	49975.12
519.79	49745.75
519.96	49827.66
520.14	50038.31
520.31	50255.98
520.48	50347.26
520.65	50024.27
520.83	50635.15
521.00	50646.85
521.17	50241.94
521.34	50733.45
521.52	50913.67
521.69	50754.52
521.86	51103.26
522.03	51007.29
522.20	51360.72
522.38	51349.01
522.55	51360.72
522.72	51386.46
522.89	51599.45
523.07	51660.30
523.24	51503.49
523.41	51562.00
523.58	51302.20
523.75	51737.54
523.92	51763.29
524.10	51985.64
524.27	52156.50
524.44	51885.00
524.61	51978.62
524.78	52090.96
524.96	52481.83
525.13	52207.99
525.30	52430.34
525.47	52367.15
525.64	52430.34
525.81	52498.22
525.98	52657.37
526.16	52615.24
526.33	52664.39
526.50	52846.96
526.67	52615.24
526.84	53029.52
527.01	52713.55
527.18	52743.97
527.36	53071.65
527.53	52846.96
527.70	53380.60
527.87	53268.25
528.04	53183.99
528.21	53474.22
528.38	53378.26
528.55	53411.02
528.72	53436.77
528.89	53481.24
529.07	53371.24
529.24	53298.68
529.41	53485.92
529.58	53624.01
529.75	53745.72
529.92	53949.35
530.09	53645.08
530.26	53705.93
530.43	53825.30
530.60	53829.98
530.77	53656.78
530.94	53900.20
531.11	53954.03
531.28	54167.02
531.46	53972.75
531.63	54438.52
531.80	54225.53
531.97	54167.02
532.14	54553.21
532.31	54667.89
532.48	54307.45
532.65	54644.49
532.82	54361.28
532.99	54433.84
533.16	54607.04
533.33	54930.03
533.50	54934.71
533.67	54946.42
533.84	54684.28
534.01	55070.46
534.18	54951.10
534.35	55288.13
534.52	55025.99
534.69	54897.27
534.86	55215.58
535.03	54997.91
535.20	55117.28
535.37	55475.38
535.54	55339.63
535.71	55444.95
535.88	55566.66
536.05	55536.23
536.22	55508.14
536.38	55686.03
536.55	55522.19
536.72	55861.57
536.89	55716.45
537.06	55828.80
537.23	55737.52
537.40	55639.22
537.57	55833.48
537.74	55674.32
537.91	55714.11
538.08	56130.73
538.25	55901.36
538.42	55999.66
538.59	56112.00
538.75	55840.50
538.92	56191.58
539.09	56313.29
539.26	56011.36
539.43	56154.13
539.60	56238.39
539.77	56222.01
539.94	56467.76
540.11	56259.46
540.28	56381.16
540.44	56467.76
540.61	56130.73
540.78	56268.82
540.95	56413.93
541.12	56425.64
541.29	56479.47
541.46	56727.56
541.62	56456.06
541.79	56914.81
541.96	56371.80
542.13	56699.48
542.30	56678.41
542.47	57006.09
542.63	56772.03
542.80	57020.13
542.97	57134.82
543.14	57368.87
543.31	57125.46
543.48	57305.68
543.64	57450.79
543.81	57387.60
543.98	57359.51
544.15	57371.21
544.32	57352.49
544.48	57516.32
544.65	57361.85
544.82	57371.21
544.99	57401.64
545.16	57467.17
545.32	57668.46
545.49	57712.93
545.66	57588.88
545.83	57635.69
546.00	57677.82
546.16	57396.96
546.33	57773.78
546.50	57469.51
546.67	57748.04
546.83	57432.07
547.00	57528.03
547.17	57846.34
547.34	57600.58
547.50	57890.81
547.67	58066.35
547.84	58033.58
548.00	57991.45
548.17	58309.77
548.34	58244.23
548.51	58136.57
548.67	58239.55
548.84	58003.16
549.01	58038.26
549.18	57932.94
549.34	58171.67
549.51	58314.45
549.68	58260.62
549.84	58351.90
550.01	58375.30
550.18	58056.99
550.34	58349.56
550.51	58639.78
550.68	58459.56
550.84	58323.81
551.01	58471.26
551.18	58560.20
551.34	58361.26
551.51	58396.37
551.68	58616.38
551.84	58492.33
552.01	58501.69
552.18	58749.79
552.34	58497.01
552.51	58541.48
552.68	58344.87
552.84	58599.99
553.01	59065.76
553.18	58691.27
553.34	59093.85
553.51	58674.89
553.67	58862.13
553.84	58967.46
554.01	58838.73
554.17	58859.79
554.34	58972.14
554.51	58791.92
554.67	59000.22
554.84	58836.39
555.00	58798.94
555.17	59009.59
555.33	59166.40
555.50	58997.88
555.67	58934.69
555.83	58962.78
556.00	59262.36
556.16	59358.33
556.33	59243.64
556.50	59096.19
556.66	59409.82
556.83	59056.40
556.99	59503.44
557.16	59522.16
557.32	59566.63
557.49	59568.97
557.65	59245.98
557.82	59498.76
557.98	59353.65
558.15	59489.40
558.32	59484.72
558.48	59400.46
558.65	59487.06
558.81	59407.48
558.98	59437.90
559.14	59590.04
559.31	59678.98
559.47	59655.57
559.64	59615.79
559.80	59611.10
559.97	59664.94
560.13	59620.47
560.30	59573.66
560.46	59852.18
560.63	59826.43
560.79	59746.86
560.96	59737.49
561.12	59681.32
561.29	59774.94
561.45	59770.26
561.61	59744.51
561.78	59999.63
561.94	59611.10
562.11	59840.48
562.27	59856.86
562.44	60039.42
562.60	60137.72
562.77	60135.38
562.93	59746.86
563.10	60039.42
563.26	60013.68
563.42	60374.12
563.59	60004.31
563.75	60161.13
563.92	59891.97
564.08	59854.52
564.24	60240.71
564.41	60107.30
564.57	60236.03
564.74	60123.68
564.90	59994.95
565.07	60179.85
565.23	60037.08
565.39	60011.34
565.56	60266.45
565.72	59821.75
565.88	60196.24
566.05	60151.77
566.21	59924.74
566.38	60243.05
566.54	60114.32
566.70	60374.12
566.87	60278.16
567.03	60315.61
567.19	60343.69
567.36	60207.94
567.52	60184.54
567.68	60577.75
567.85	60350.71
568.01	60367.10
568.17	60313.26
568.34	60530.93
568.50	60559.02
568.66	60514.55
568.83	60498.17
568.99	60097.94
569.15	60355.39
569.32	60456.04
569.48	60451.36
569.64	60371.78
569.81	60296.88
569.97	60245.39
570.13	60434.97
570.30	60493.49
570.46	60577.75
570.62	60324.97
570.78	60432.63
570.95	60395.18
571.11	60514.55
571.27	60353.05
571.43	60509.87
571.60	60530.93
571.76	60552.00
571.92	60566.04
572.09	60767.33
572.25	60650.30
572.41	60556.68
572.57	60420.93
572.74	60697.11
572.90	60460.72
573.06	60687.75
573.22	60669.03
573.38	60739.24
573.55	60753.29
573.71	60926.49
573.87	60811.80
574.03	60638.60
574.20	60734.56
574.36	60402.21
574.52	60692.43
574.68	60856.27
574.84	60657.32
575.01	60781.37
575.17	60491.15
575.33	60584.77
575.49	60762.65
575.65	60612.85
575.82	60673.71
575.98	60739.24
576.14	60912.44
576.30	60828.18
576.46	60530.93
576.62	60725.20
576.79	60842.23
576.95	60528.59
577.11	60882.02
577.27	61015.43
577.43	60772.01
577.59	60797.76
577.75	60640.94
577.92	60804.78
578.08	60781.37
578.24	60769.67
578.40	60891.38
578.56	61029.47
578.72	60839.89
578.88	60963.93
579.04	61118.41
579.21	60851.59
579.37	60938.19
579.53	61183.94
579.69	60718.18
579.85	60849.25
580.01	60772.01
580.17	60804.78
580.33	60781.37
580.49	61022.45
580.65	60882.02
580.82	60596.47
580.98	60891.38
581.14	60816.48
581.30	60907.76
581.46	60788.39
581.62	61045.85
581.78	60835.20
581.94	60851.59
582.10	60870.31
582.26	60790.73
582.42	60928.83
582.58	60952.23
582.74	60823.50
582.90	60818.82
583.06	60949.89
583.22	60804.78
583.38	60931.17
583.54	61020.11
583.70	60903.08
583.86	61034.15
584.02	60844.57
584.18	61118.41
584.34	60980.32
584.50	60970.96
584.66	60870.31
584.82	60633.92
584.98	61165.22
585.14	61029.47
585.30	60949.89
585.46	60896.06
585.62	60921.80
585.78	61050.53
585.94	60905.42
586.10	60853.93
586.26	60879.67
586.42	61080.96
586.58	61336.08
586.74	61017.77
586.90	60879.67
587.06	60809.46
587.22	61219.05
587.38	60963.93
587.54	61097.34
587.70	61249.48
587.86	61059.90
588.02	61193.31
588.18	61087.98
588.34	61017.77
588.49	61041.17
