SpectraSuite Data File
++++++++++++++++++++++++++++++++++++
Date: Fri Oct 25 11:26:30 EDT 2013
User: price-jones
Dark Spectrum Present: No
Reference Spectrum Present: No
Number of Sampled Component Spectra: 1
Spectrometers: USB2+H05261
Integration Time (usec): 100000 (USB2+H05261)
Spectra Averaged: 1 (USB2+H05261)
Boxcar Smoothing: 0 (USB2+H05261)
Correct for Electrical Dark: No (USB2+H05261)
Strobe/Lamp Enabled: No (USB2+H05261)
Correct for Detector Non-linearity: No (USB2+H05261)
Correct for Stray Light: No (USB2+H05261)
Number of Pixels in Processed Spectrum: 2048
>>>>>Begin Processed Spectral Data<<<<<
365.73	201.29
365.92	201.29
366.12	201.29
366.32	154.48
366.52	86.60
366.72	126.39
366.91	98.30
367.11	175.54
367.31	110.01
367.51	119.37
367.70	135.75
367.90	142.77
368.10	168.52
368.30	126.39
368.49	126.39
368.69	93.62
368.89	145.11
369.09	208.31
369.28	173.20
369.48	182.56
369.68	311.29
369.87	194.26
370.07	259.80
370.27	208.31
370.47	379.17
370.66	526.62
370.86	615.56
371.06	653.01
371.25	688.12
371.45	669.39
371.65	653.01
371.84	709.18
372.04	674.07
372.24	746.63
372.44	720.88
372.63	674.07
372.83	798.12
373.03	690.46
373.22	802.80
373.42	793.44
373.62	709.18
373.81	800.46
374.01	748.97
374.21	891.74
374.40	833.23
374.60	861.32
374.79	877.70
374.99	854.30
375.19	847.27
375.38	847.27
375.58	861.32
375.78	912.81
375.97	880.04
376.17	929.19
376.37	887.06
376.56	919.83
376.76	936.21
376.95	833.23
377.15	919.83
377.35	940.90
377.54	873.02
377.74	898.77
377.93	912.81
378.13	901.11
378.33	997.07
378.52	887.06
378.72	894.08
378.91	891.74
379.11	945.58
379.31	1046.22
379.50	947.92
379.70	987.71
379.89	1027.50
380.09	1006.43
380.28	933.87
380.48	1029.84
380.68	1034.52
380.87	887.06
381.07	1036.86
381.26	992.39
381.46	1015.79
381.65	997.07
381.85	1006.43
382.04	1004.09
382.24	992.39
382.43	1020.47
382.63	1057.92
382.83	1102.39
383.02	1093.03
383.22	1128.14
383.41	1062.60
383.61	1116.44
383.80	1114.10
384.00	1081.33
384.19	1088.35
384.39	1064.94
384.58	1081.33
384.78	1172.61
384.97	1142.18
385.17	1135.16
385.36	1097.71
385.56	1064.94
385.75	1214.74
385.95	1151.54
386.14	1139.84
386.34	1158.57
386.53	1249.85
386.72	1231.12
386.92	1221.76
387.11	1313.04
387.31	1266.23
387.50	1327.08
387.70	1252.19
387.89	1207.72
388.09	1242.82
388.28	1259.21
388.48	1291.98
388.67	1289.64
388.86	1355.17
389.06	1263.89
389.25	1376.24
389.45	1350.49
389.64	1306.02
389.84	1378.58
390.03	1401.98
390.22	1301.34
390.42	1350.49
390.61	1338.79
390.81	1425.39
391.00	1369.21
391.19	1502.62
391.39	1476.88
391.58	1420.71
391.78	1474.54
391.97	1483.90
392.16	1420.71
392.36	1547.09
392.55	1511.99
392.75	1535.39
392.94	1500.28
393.13	1537.73
393.33	1507.30
393.52	1582.20
393.71	1694.55
393.91	1682.85
394.10	1537.73
394.29	1521.35
394.49	1605.61
394.68	1685.19
394.88	1727.32
395.07	1715.61
395.26	1668.80
395.46	1617.31
395.65	1727.32
395.84	1732.00
396.04	1839.66
396.23	1715.61
396.42	1678.16
396.62	1724.97
396.81	1776.47
397.00	1739.02
397.19	1802.21
397.39	1809.23
397.58	1802.21
397.77	1755.40
397.97	1795.19
398.16	1834.98
398.35	1764.76
398.55	1863.07
398.74	1944.99
398.93	1914.56
399.12	1977.75
399.32	1973.07
399.51	1858.39
399.70	1891.15
399.90	1963.71
400.09	1989.46
400.28	2050.31
400.47	2038.61
400.67	2043.29
400.86	2120.53
401.05	2120.53
401.24	2059.67
401.44	2062.01
401.63	2169.68
401.82	2122.87
402.01	2087.76
402.21	2157.97
402.40	2200.10
402.59	2176.70
402.78	2108.82
402.97	2305.43
403.17	2289.04
403.36	2216.49
403.55	2347.56
403.74	2300.75
403.93	2284.36
404.13	2317.13
404.32	2289.04
404.51	2319.47
404.70	2406.07
404.89	2438.84
405.09	2335.85
405.28	2478.63
405.47	2457.56
405.66	2464.58
405.85	2492.67
406.05	2499.69
406.24	2462.24
406.43	2499.69
406.62	2719.70
406.81	2532.46
407.00	2560.55
407.20	2544.16
407.39	2548.84
407.58	2663.53
407.77	2621.40
407.96	2724.38
408.15	2796.94
408.34	2705.66
408.54	2822.69
408.73	2822.69
408.92	2752.47
409.11	2970.14
409.30	2904.60
409.49	2885.88
409.68	2862.48
409.87	2918.65
410.07	3035.67
410.26	2993.55
410.45	2981.84
410.64	3054.40
410.83	3091.85
411.02	2979.50
411.21	3115.25
411.40	3047.38
411.59	3187.81
411.78	3197.17
411.98	3056.74
412.17	3145.68
412.36	3445.27
412.55	3431.23
412.74	3251.00
412.93	3346.97
413.12	3255.69
413.31	3576.34
413.50	3412.50
413.69	3426.54
413.88	3482.72
414.07	3492.08
414.26	3531.87
414.45	3597.40
414.64	3653.58
414.83	3674.64
415.02	3770.60
415.22	3784.65
415.41	3817.41
415.60	3772.94
415.79	3826.78
415.98	3943.80
416.17	3990.61
416.36	3932.10
416.55	4046.79
416.74	4088.92
416.93	4025.72
417.12	4063.17
417.31	4081.89
417.50	4175.52
417.69	4208.28
417.88	4241.05
418.07	4243.39
418.26	4273.82
418.45	4341.69
418.64	4418.93
418.83	4449.36
419.02	4430.63
419.21	4552.34
419.39	4496.17
419.58	4482.13
419.77	4463.40
419.96	4524.26
420.15	4531.28
420.34	4547.66
420.53	4652.98
420.72	4674.05
420.91	4571.07
421.10	4671.71
421.29	4730.22
421.48	4622.56
421.67	4720.86
421.86	4760.65
422.05	4945.55
422.24	4805.12
422.43	4861.29
422.61	4940.87
422.80	4990.02
422.99	4992.36
423.18	4997.04
423.37	4975.98
423.56	4851.93
423.75	4800.44
423.94	4755.97
424.13	4606.17
424.32	4755.97
424.50	5064.92
424.69	5085.98
424.88	5025.13
425.07	4987.68
425.26	4840.23
425.45	5006.41
425.64	5006.41
425.83	4805.12
426.01	5041.51
426.20	5095.35
426.39	4929.17
426.58	5008.75
426.77	5008.75
426.96	5088.32
427.15	5050.88
427.33	5247.48
427.52	5160.88
427.71	5210.03
427.90	5249.82
428.09	5231.10
428.28	5416.00
428.46	5317.70
428.65	5345.78
428.84	5636.01
429.03	5488.56
429.22	5238.12
429.40	5298.97
429.59	5425.36
429.78	5315.36
429.97	5114.07
430.16	5434.72
430.34	5528.35
430.53	5633.67
430.72	5668.78
430.91	5692.18
431.10	5425.36
431.28	5689.84
431.47	5654.73
431.66	5900.49
431.85	5734.31
432.03	5893.47
432.22	6010.50
432.41	5898.15
432.60	5930.92
432.79	6230.51
432.97	5827.93
433.16	5928.58
433.35	5877.09
433.54	5966.03
433.72	6279.66
433.91	5935.60
434.10	6097.10
434.28	6087.73
434.47	6099.44
434.66	6204.76
434.85	6150.93
435.03	6270.30
435.22	6258.59
435.41	6534.78
435.59	6291.36
435.78	6408.39
435.97	6462.22
436.16	6359.24
436.34	6459.88
436.53	6658.82
436.72	6612.01
436.90	6551.16
437.09	6513.71
437.28	6394.34
437.46	6459.88
437.65	6654.14
437.84	6665.85
438.02	6705.63
438.21	6799.26
438.40	6794.58
438.58	6771.17
438.77	7101.19
438.96	6904.58
439.14	7037.99
439.33	7267.36
439.52	7206.51
439.70	7227.57
439.89	7353.96
440.08	7468.65
440.26	7290.77
440.45	7485.03
440.63	7377.37
440.82	7403.11
441.01	7386.73
441.19	7555.25
441.38	7515.46
441.57	7688.66
441.75	7538.87
441.94	7999.95
442.12	7705.04
442.31	7957.82
442.50	7903.99
442.68	7906.33
442.87	8077.19
443.05	7995.27
443.24	8116.98
443.43	8142.72
443.61	8077.19
443.80	8236.35
443.98	8074.85
444.17	7817.39
444.35	8091.23
444.54	8430.61
444.73	8182.51
444.91	8390.82
445.10	8208.26
445.28	8191.88
445.47	8236.35
445.65	8224.64
445.84	8409.54
446.02	8446.99
446.21	8582.74
446.39	8428.27
446.58	8346.35
446.77	8549.98
446.95	8306.56
447.14	8390.82
447.32	8425.93
447.51	8393.16
447.69	8318.26
447.88	8395.50
448.06	8538.27
448.25	8493.80
448.43	8421.25
448.62	8589.77
448.80	8416.57
448.99	8596.79
449.17	8695.09
449.36	8554.66
449.54	8875.31
449.73	8896.38
449.91	9071.92
450.10	8929.14
450.28	9027.45
450.46	8992.34
450.65	8926.80
450.83	9006.38
451.02	9006.38
451.20	9413.63
451.39	9062.55
451.57	9102.34
451.76	9118.73
451.94	9006.38
452.13	9387.89
452.31	9116.39
452.49	9085.96
452.68	9308.31
452.86	9249.80
453.05	9474.49
453.23	9547.05
453.42	9406.61
453.60	9462.79
453.78	9404.27
453.97	9280.22
454.15	9554.07
454.34	9446.40
454.52	9462.79
454.70	9809.19
454.89	9596.20
455.07	9741.31
455.26	9708.54
455.44	9900.47
455.62	9916.85
455.81	9757.69
455.99	10061.96
456.17	9659.39
456.36	9753.01
456.54	9944.94
456.73	10068.98
456.91	10370.91
457.09	10289.00
457.28	10263.25
457.46	10178.99
457.64	10537.09
457.83	10422.41
458.01	10408.36
458.19	10604.97
458.38	10438.79
458.56	10726.68
458.74	10506.66
458.93	10539.43
459.11	10696.25
459.29	10766.46
459.48	10686.89
459.66	10597.95
459.84	10792.21
460.03	11019.24
460.21	10860.09
460.39	10949.03
460.57	10799.23
460.76	11117.54
460.94	11171.38
461.12	10991.16
461.31	11028.60
461.49	11042.65
461.67	11070.73
461.85	11403.09
462.04	11164.36
462.22	11548.20
462.40	11463.94
462.59	11335.21
462.77	11569.27
462.95	11452.24
463.13	11482.67
463.32	11417.13
463.50	11466.28
463.68	11580.97
463.86	11543.52
464.05	11625.44
464.23	11651.19
464.41	11873.54
464.59	11482.67
464.78	12039.72
464.96	11983.54
465.14	11763.53
465.32	11967.16
465.50	12131.00
465.69	11955.46
465.87	12100.57
466.05	12140.36
466.23	12182.49
466.41	11999.93
466.60	12311.22
466.78	11969.50
466.96	12086.53
467.14	12266.75
467.32	12152.06
467.51	12463.35
467.69	12308.88
467.87	12290.15
468.05	12685.70
468.23	12514.84
468.41	12379.09
468.60	12285.47
468.78	12737.20
468.96	12463.35
469.14	12573.36
469.32	12868.27
469.50	12613.15
469.69	12924.44
469.87	13041.46
470.05	12837.84
470.23	13139.77
470.41	12959.55
470.59	13186.58
470.77	13083.59
470.95	13200.62
471.14	13371.48
471.32	13217.01
471.50	13500.21
471.68	13673.41
471.86	13523.62
472.04	13738.94
472.22	13928.53
472.40	13486.17
472.58	13785.76
472.77	13975.34
472.95	14029.17
473.13	14586.22
473.31	14143.86
473.49	14015.13
473.67	14225.78
473.85	14340.46
474.03	14466.85
474.21	14279.61
474.39	14583.88
474.57	14555.79
474.75	14927.94
474.93	14630.69
475.12	14637.71
475.30	15112.84
475.48	14806.23
475.66	15250.93
475.84	15026.24
476.02	15185.40
476.20	15169.01
476.38	15721.38
476.56	15953.09
476.74	15845.43
476.92	15548.18
477.10	15520.09
477.28	15901.60
477.46	16067.78
477.64	16130.97
477.82	16395.45
478.00	16954.84
478.18	16744.19
478.36	16538.23
478.54	17074.21
478.72	17069.53
478.90	17135.06
479.08	17441.67
479.26	17497.84
479.44	17357.41
479.62	17642.96
479.80	18092.34
479.98	17895.74
480.16	18380.23
480.34	18207.03
480.52	18656.41
480.70	18633.00
480.88	18363.84
481.06	18602.58
481.24	18602.58
481.41	19190.05
481.59	19389.00
481.77	19438.15
481.95	19314.10
482.13	19552.84
482.31	19585.60
482.49	19800.93
482.67	20009.24
482.85	20336.91
483.03	20421.17
483.21	20599.05
483.39	20779.28
483.57	20542.88
483.74	21043.76
483.92	21338.66
484.10	21020.35
484.28	21694.43
484.46	21692.08
484.64	22036.14
484.82	21905.07
485.00	22209.34
485.18	22494.89
485.35	22761.71
485.53	22497.23
485.71	23009.81
485.89	23295.35
486.07	23403.02
486.25	23370.25
486.43	23274.29
486.61	23550.47
486.78	23859.42
486.96	24053.69
487.14	24369.66
487.32	24418.81
487.50	24636.48
487.68	24606.05
487.85	24945.43
488.03	25427.58
488.21	25781.00
488.39	25326.94
488.57	25769.30
488.75	26031.44
488.92	26178.89
489.10	26649.34
489.28	26368.48
489.46	26670.40
489.64	26682.11
489.81	27393.63
489.99	27133.83
490.17	27623.00
490.35	27718.96
490.53	27892.16
490.70	28266.65
490.88	28166.01
491.06	28276.01
491.24	28552.20
491.41	28517.09
491.59	28973.49
491.77	29123.29
491.95	29256.70
492.13	29230.95
492.30	29593.73
492.48	29780.98
492.66	30183.55
492.84	30326.32
493.01	30733.57
493.19	30265.47
493.37	30841.24
493.54	30813.15
493.72	31028.48
493.90	31075.29
494.08	31821.92
494.25	31868.73
494.43	32161.30
494.61	31999.80
494.79	32348.54
494.96	31960.02
495.14	32779.20
495.32	32718.35
495.49	32818.99
495.67	33106.88
495.85	33200.50
496.02	33703.71
496.20	33668.61
496.38	33670.95
496.55	33806.70
496.73	34817.81
496.91	34316.93
497.09	34794.40
497.26	34754.61
497.44	34635.25
497.62	34876.32
497.79	35693.17
497.97	35580.82
498.14	35644.02
498.32	35927.22
498.50	36374.27
498.67	36360.22
498.85	36109.78
499.03	36261.92
499.20	36280.64
499.38	36563.85
499.56	37031.96
499.73	37064.72
499.91	37050.68
500.08	37144.30
500.26	37132.60
500.44	37069.40
500.61	37806.67
500.79	37909.66
500.97	37853.48
501.14	38195.20
501.32	37783.27
501.49	38267.76
501.67	38375.42
501.84	38415.21
502.02	38770.97
502.20	38824.81
502.37	38983.96
502.55	38822.47
502.72	39405.26
502.90	39129.08
503.07	39342.06
503.25	39140.78
503.43	39641.65
503.60	39856.98
503.78	39477.82
503.95	39913.16
504.13	40385.94
504.30	40184.66
504.48	40009.12
504.65	40233.81
504.83	41265.99
505.01	41008.53
505.18	40414.03
505.36	41532.81
505.53	41055.34
505.71	41249.60
505.88	41998.57
506.06	40975.76
506.23	41439.18
506.41	41343.22
506.58	41813.67
506.76	41780.90
506.93	42176.45
507.11	42267.73
507.28	42401.14
507.46	42190.50
507.63	42263.05
507.81	42878.61
507.98	43016.71
508.16	42583.71
508.33	43250.76
508.50	42733.50
508.68	43274.16
508.85	43728.23
509.03	43051.81
509.20	43517.58
509.38	44076.97
509.55	43878.02
509.73	44266.55
509.90	44215.06
510.08	44175.27
510.25	44421.03
510.42	44538.05
510.60	44734.66
510.77	44917.22
510.95	45088.08
511.12	44952.33
511.30	45162.98
511.47	44444.43
511.64	44947.65
511.82	45783.22
511.99	45331.50
512.17	45610.02
512.34	45284.68
512.51	46197.49
512.69	46094.51
512.86	46211.54
513.04	46312.18
513.21	46237.28
513.38	46457.29
513.56	46536.87
513.73	46944.12
513.90	46656.24
514.08	46593.04
514.25	46642.20
514.43	47388.83
514.60	46906.68
514.77	46913.70
514.95	47580.75
515.12	47133.71
515.29	47178.18
515.47	47824.17
515.64	47405.21
515.81	47152.43
515.99	47657.99
516.16	47847.57
516.33	48200.99
516.51	48683.14
516.68	48318.02
516.85	48378.87
517.03	48846.98
517.20	48402.28
517.37	48428.02
517.54	48875.07
517.72	48676.12
517.89	48994.43
518.06	49268.28
518.24	48762.72
518.41	48898.47
518.58	49193.38
518.75	48964.01
518.93	49336.15
519.10	49001.46
519.27	49752.77
519.45	49361.90
519.62	49703.62
519.79	49766.81
519.96	49764.47
520.14	50035.97
520.31	50075.76
520.48	49851.07
520.65	50003.20
520.83	50440.89
521.00	50721.75
521.17	50101.51
521.34	50284.07
521.52	50717.07
521.69	50712.39
521.86	50763.88
522.03	50581.32
522.20	51103.26
522.38	51133.68
522.55	51026.02
522.72	51168.79
522.89	51129.00
523.07	51356.03
523.24	51339.65
523.41	51639.24
523.58	51185.18
523.75	51604.13
523.92	51487.10
524.10	51702.43
524.27	51784.35
524.44	51976.28
524.61	51730.52
524.78	51824.14
524.96	51817.12
525.13	51980.96
525.30	51995.00
525.47	52254.80
525.64	52231.40
525.81	52374.17
525.98	52303.95
526.16	52322.68
526.33	52554.39
526.50	52629.29
526.67	52514.60
526.84	52502.90
527.01	52755.68
527.18	52896.11
527.36	52624.60
527.53	52729.93
527.70	53244.85
527.87	53228.46
528.04	52891.43
528.21	53083.35
528.38	53137.18
528.55	53286.98
528.72	53254.21
528.89	53567.84
529.07	53092.71
529.24	53017.82
529.41	53605.29
529.58	53673.16
529.75	53464.86
529.92	53516.35
530.09	53329.11
530.26	53647.42
530.43	53684.87
530.60	53502.31
530.77	53645.08
530.94	53928.28
531.11	53815.94
531.28	53773.81
531.46	54101.48
531.63	53848.71
531.80	54094.46
531.97	54106.16
532.14	54085.10
532.31	54220.85
532.48	54117.87
532.65	54291.07
532.82	54405.75
532.99	54452.56
533.16	54384.69
533.33	54443.20
533.50	54595.34
533.67	54384.69
533.84	54822.37
534.01	54665.55
534.18	54700.66
534.35	55044.72
534.52	54962.80
534.69	55164.09
534.86	55143.02
535.03	54691.30
535.20	55189.83
535.37	55133.66
535.54	55398.14
535.71	55023.65
535.88	55033.02
536.05	55246.00
536.22	55398.14
536.38	55384.10
536.55	55231.96
536.72	55480.06
536.89	55337.29
537.06	55231.96
537.23	55487.08
537.40	55714.11
537.57	55442.61
537.74	55674.32
537.91	55835.82
538.08	55714.11
538.25	55540.91
538.42	55664.96
538.59	56023.06
538.75	55763.26
538.92	55739.86
539.09	56217.33
539.26	55877.95
539.43	55718.79
539.60	56156.47
539.77	56198.60
539.94	56322.65
540.11	56163.50
540.28	56301.59
540.44	56154.13
540.61	56296.91
540.78	56137.75
540.95	56378.82
541.12	55948.17
541.29	56427.98
541.46	56205.62
541.62	56348.40
541.79	56594.15
541.96	56104.98
542.13	56591.81
542.30	56507.55
542.47	56715.86
542.63	56835.23
542.80	56804.80
542.97	56830.55
543.14	57029.49
543.31	56750.97
543.48	56935.87
543.64	57301.00
543.81	57085.67
543.98	57240.14
544.15	57146.52
544.32	57301.00
544.48	57345.47
544.65	57251.84
544.82	57179.29
544.99	56992.04
545.16	57403.98
545.32	57181.63
545.49	57396.96
545.66	57478.88
545.83	57509.30
546.00	57588.88
546.16	57605.26
546.33	57352.49
546.50	57289.29
546.67	57623.99
546.83	57134.82
547.00	57504.62
547.17	57488.24
547.34	57528.03
547.50	57801.87
547.67	58073.37
547.84	57858.04
548.00	58010.18
548.17	57989.11
548.34	57687.18
548.51	57937.62
548.67	58159.97
548.84	57785.49
549.01	57858.04
549.18	57911.88
549.34	57827.62
549.51	58026.56
549.68	58134.23
549.84	58188.06
550.01	58284.02
550.18	58272.32
550.34	58398.71
550.51	58258.27
550.68	58272.32
550.84	57916.56
551.01	58527.44
551.18	58408.07
551.34	58492.33
551.51	58607.01
551.68	58506.37
551.84	58286.36
552.01	58113.16
552.18	58562.54
552.34	58471.26
552.51	58328.49
552.68	58410.41
552.84	58419.77
553.01	58869.15
553.18	58705.32
553.34	58674.89
553.51	58623.40
553.67	58555.52
553.84	58805.96
554.01	58695.95
554.17	58777.87
554.34	58656.17
554.51	58836.39
554.67	58848.09
554.84	58679.57
555.00	58478.28
555.17	58789.58
555.33	58836.39
555.50	58773.19
555.67	58775.53
555.83	58852.77
556.00	58988.52
556.16	59264.70
556.33	58965.12
556.50	59096.19
556.66	59344.28
556.83	58904.26
556.99	59388.75
557.16	59341.94
557.32	59400.46
557.49	59414.50
557.65	59194.49
557.82	59182.79
557.98	59194.49
558.15	59276.41
558.32	59215.55
558.48	59419.18
558.65	59402.80
558.81	59276.41
558.98	59388.75
559.14	59367.69
559.31	59295.13
559.47	59643.87
559.64	59648.55
559.80	59737.49
559.97	59444.93
560.13	59519.82
560.30	59395.77
560.46	59332.58
560.63	59580.68
560.79	59730.47
560.96	59583.02
561.12	59714.09
561.29	59728.13
561.45	59819.41
561.61	59817.07
561.78	59517.48
561.94	59568.97
562.11	59475.35
562.27	59716.43
562.44	59723.45
562.60	59824.09
562.77	60030.06
562.93	59728.13
563.10	59973.89
563.26	59861.54
563.42	59854.52
563.59	59943.46
563.75	59683.66
563.92	60006.65
564.08	59978.57
564.24	59884.95
564.41	59936.44
564.57	59894.31
564.74	60107.30
564.90	59971.55
565.07	60030.06
565.23	59730.47
565.39	60079.21
565.56	60116.66
565.72	60013.68
565.88	60177.51
566.05	59915.37
566.21	60037.08
566.38	59966.87
566.54	60240.71
566.70	60170.49
566.87	60161.13
567.03	60107.30
567.19	60226.66
567.36	60001.97
567.52	60224.32
567.68	60231.35
567.85	59938.78
568.01	60299.22
568.17	60200.92
568.34	60331.99
568.50	59964.52
568.66	60210.28
568.83	60214.96
568.99	60193.90
569.15	60100.28
569.32	60177.51
569.48	60257.09
569.64	60523.91
569.81	60282.84
569.97	60226.66
570.13	60282.84
570.30	60060.49
570.46	60336.67
570.62	60252.41
570.78	60507.53
570.95	60331.99
571.11	60491.15
571.27	60133.04
571.43	60163.47
571.60	60570.72
571.76	60369.44
571.92	60460.72
572.09	60315.61
572.25	60617.53
572.41	60346.03
572.57	60392.84
572.74	60472.42
572.90	60331.99
573.06	60514.55
573.22	60467.74
573.38	60500.51
573.55	60420.93
573.71	60811.80
573.87	60598.81
574.03	60390.50
574.20	60573.06
574.36	60540.30
574.52	60556.68
574.68	60580.09
574.84	60671.37
575.01	60671.37
575.17	60493.49
575.33	60472.42
575.49	60465.40
575.65	60495.83
575.82	60673.71
575.98	60657.32
576.14	60790.73
576.30	60629.24
576.46	60451.36
576.62	60774.35
576.79	60465.40
576.95	60425.61
577.11	60573.06
577.27	60790.73
577.43	60729.88
577.59	60552.00
577.75	60601.15
577.92	60514.55
578.08	60589.45
578.24	60619.88
578.40	60732.22
578.56	60764.99
578.72	60650.30
578.88	60884.36
579.04	60748.60
579.21	60673.71
579.37	60825.84
579.53	60975.64
579.69	60540.30
579.85	60542.64
580.01	60474.76
580.17	60493.49
580.33	60837.54
580.49	60746.26
580.65	60596.47
580.82	60729.88
580.98	60781.37
581.14	60727.54
581.30	60832.86
581.46	60713.50
581.62	60856.27
581.78	60793.07
581.94	60825.84
582.10	60547.32
582.26	60809.46
582.42	60584.77
582.58	60764.99
582.74	60870.31
582.90	60741.58
583.06	60832.86
583.22	60617.53
583.38	60837.54
583.54	60727.54
583.70	60804.78
583.86	60769.67
584.02	61043.51
584.18	60807.12
584.34	60762.65
584.50	60802.44
584.66	60739.24
584.82	60617.53
584.98	61017.77
585.14	60879.67
585.30	60884.36
585.46	60931.17
585.62	60839.89
585.78	60814.14
585.94	60863.29
586.10	60809.46
586.26	60903.08
586.42	60992.02
586.58	61158.20
586.74	60711.16
586.90	61029.47
587.06	60889.04
587.22	60980.32
587.38	60903.08
587.54	60949.89
587.70	61097.34
587.86	60802.44
588.02	60877.33
588.18	61052.87
588.34	60903.08
588.49	61113.73
