SpectraSuite Data File
++++++++++++++++++++++++++++++++++++
Date: Fri Oct 25 11:34:40 EDT 2013
User: price-jones
Dark Spectrum Present: No
Reference Spectrum Present: No
Number of Sampled Component Spectra: 1
Spectrometers: USB2+H05261
Integration Time (usec): 100000 (USB2+H05261)
Spectra Averaged: 1 (USB2+H05261)
Boxcar Smoothing: 0 (USB2+H05261)
Correct for Electrical Dark: No (USB2+H05261)
Strobe/Lamp Enabled: No (USB2+H05261)
Correct for Detector Non-linearity: No (USB2+H05261)
Correct for Stray Light: No (USB2+H05261)
Number of Pixels in Processed Spectrum: 2048
>>>>>Begin Processed Spectral Data<<<<<
365.73	285.55
365.92	285.55
366.12	285.55
366.32	255.12
366.52	180.22
366.72	217.67
366.91	163.84
367.11	161.50
367.31	159.16
367.51	203.63
367.70	140.43
367.90	156.82
368.10	217.67
368.30	154.48
368.49	231.71
368.69	161.50
368.89	182.56
369.09	222.35
369.28	217.67
369.48	173.20
369.68	243.42
369.87	163.84
370.07	215.33
370.27	276.18
370.47	348.74
370.66	428.32
370.86	566.41
371.06	507.90
371.25	547.69
371.45	533.64
371.65	524.28
371.84	528.96
372.04	533.64
372.24	505.56
372.44	510.24
372.63	592.16
372.83	535.98
373.03	585.13
373.22	617.90
373.42	554.71
373.62	592.16
373.81	557.05
374.01	650.67
374.21	601.52
374.40	669.39
374.60	662.37
374.79	683.44
374.99	603.86
375.19	662.37
375.38	629.60
375.58	662.37
375.78	706.84
375.97	702.16
376.17	709.18
376.37	685.78
376.56	629.60
376.76	643.65
376.95	681.10
377.15	645.99
377.35	676.41
377.54	564.07
377.74	638.97
377.93	573.43
378.13	723.23
378.33	727.91
378.52	711.52
378.72	770.04
378.91	617.90
379.11	617.90
379.31	732.59
379.50	653.01
379.70	741.95
379.89	720.88
380.09	751.31
380.28	744.29
380.48	751.31
380.68	697.48
380.87	755.99
381.07	720.88
381.26	760.67
381.46	755.99
381.65	800.46
381.85	746.63
382.04	753.65
382.24	746.63
382.43	774.72
382.63	723.23
382.83	791.10
383.02	725.57
383.22	755.99
383.41	791.10
383.61	805.14
383.80	863.66
384.00	786.42
384.19	805.14
384.39	760.67
384.58	812.17
384.78	748.97
384.97	842.59
385.17	758.33
385.36	821.53
385.56	823.87
385.75	814.51
385.95	746.63
386.14	821.53
386.34	873.02
386.53	821.53
386.72	873.02
386.92	910.47
387.11	835.57
387.31	870.68
387.50	854.30
387.70	840.25
387.89	933.87
388.09	933.87
388.28	798.12
388.48	826.21
388.67	894.08
388.86	929.19
389.06	880.04
389.25	800.46
389.45	908.13
389.64	940.90
389.84	961.96
390.03	880.04
390.22	915.15
390.42	901.11
390.61	887.06
390.81	999.41
391.00	978.34
391.19	842.59
391.39	936.21
391.58	910.47
391.78	983.02
391.97	912.81
392.16	933.87
392.36	1027.50
392.55	1048.56
392.75	1071.97
392.94	983.02
393.13	978.34
393.33	1008.77
393.52	999.41
393.71	1046.22
393.91	1057.92
394.10	990.05
394.29	1013.45
394.49	1006.43
394.68	1097.71
394.88	1086.01
395.07	1144.52
395.26	1006.43
395.46	1132.82
395.65	1036.86
395.84	1111.75
396.04	1137.50
396.23	1022.81
396.42	1125.80
396.62	1224.10
396.81	1144.52
397.00	1167.93
397.19	1261.55
397.39	1217.08
397.58	1153.88
397.77	1205.38
397.97	1235.80
398.16	1200.69
398.35	1137.50
398.55	1254.53
398.74	1217.08
398.93	1259.21
399.12	1296.66
399.32	1261.55
399.51	1247.51
399.70	1294.32
399.90	1280.27
400.09	1371.55
400.28	1266.23
400.47	1291.98
400.67	1324.74
400.86	1404.32
401.05	1301.34
401.24	1371.55
401.44	1352.83
401.63	1462.83
401.82	1437.09
402.01	1362.19
402.21	1373.89
402.40	1418.36
402.59	1444.11
402.78	1390.28
402.97	1425.39
403.17	1519.01
403.36	1474.54
403.55	1481.56
403.74	1584.54
403.93	1430.07
404.13	1451.13
404.32	1544.75
404.51	1544.75
404.70	1603.27
404.89	1607.95
405.09	1558.80
405.28	1516.67
405.47	1563.48
405.66	1624.33
405.85	1596.25
406.05	1647.74
406.24	1685.19
406.43	1638.38
406.62	1692.21
406.81	1654.76
407.00	1671.14
407.20	1713.27
407.39	1668.80
407.58	1657.10
407.77	1767.10
407.96	1687.53
408.15	1748.38
408.34	1788.17
408.54	1909.88
408.73	1870.09
408.92	1760.08
409.11	1902.86
409.30	1952.01
409.49	1984.77
409.68	1909.88
409.87	1959.03
410.07	1856.04
410.26	1970.73
410.45	1989.46
410.64	2008.18
410.83	2031.58
411.02	2015.20
411.21	2090.10
411.40	1991.80
411.59	2097.12
411.78	2092.44
411.98	2094.78
412.17	2188.40
412.36	2157.97
412.55	2258.62
412.74	2239.89
412.93	2148.61
413.12	2186.06
413.31	2385.01
413.50	2279.68
413.69	2286.70
413.88	2331.17
414.07	2319.47
414.26	2347.56
414.45	2394.37
414.64	2420.11
414.83	2434.16
415.02	2485.65
415.22	2438.84
415.41	2544.16
415.60	2499.69
415.79	2441.18
415.98	2616.72
416.17	2691.62
416.36	2614.38
416.55	2532.46
416.74	2698.64
416.93	2651.83
417.12	2677.57
417.31	2640.12
417.50	2649.49
417.69	2836.73
417.88	2752.47
418.07	2810.98
418.26	2888.22
418.45	2745.45
418.64	3000.57
418.83	2906.95
419.02	2928.01
419.21	2949.08
419.39	2923.33
419.58	2939.71
419.77	3019.29
419.96	3117.59
420.15	3040.36
420.34	2958.44
420.53	3023.97
420.72	2981.84
420.91	3000.57
421.10	3192.49
421.29	3162.06
421.48	3068.44
421.67	3206.53
421.86	3253.34
422.05	3033.33
422.24	3155.04
422.43	3117.59
422.61	3131.64
422.80	3204.19
422.99	3169.09
423.18	3274.41
423.37	3258.03
423.56	3255.69
423.75	3215.90
423.94	3246.32
424.13	3152.70
424.32	3061.42
424.50	3251.00
424.69	3361.01
424.88	3260.37
425.07	3171.43
425.26	3126.96
425.45	3208.87
425.64	3323.56
425.83	3213.56
426.01	3290.79
426.20	3328.24
426.39	3353.99
426.58	3314.20
426.77	3276.75
426.96	3311.86
427.15	3276.75
427.33	3386.76
427.52	3384.41
427.71	3330.58
427.90	3349.31
428.09	3414.84
428.28	3538.89
428.46	3499.10
428.65	3623.15
428.84	3604.42
429.03	3562.30
429.22	3492.08
429.40	3506.12
429.59	3639.53
429.78	3590.38
429.97	3524.85
430.16	3599.74
430.34	3665.28
430.53	3716.77
430.72	3616.13
430.91	3686.34
431.10	3754.22
431.28	3866.56
431.47	3751.88
431.66	3866.56
431.85	3691.02
432.03	3957.85
432.22	3964.87
432.41	3859.54
432.60	3700.39
432.79	3892.31
432.97	3925.08
433.16	4044.45
433.35	3887.63
433.54	4009.34
433.72	3892.31
433.91	3878.27
434.10	4088.92
434.28	3885.29
434.47	4039.76
434.66	4128.70
434.85	4037.42
435.03	4049.13
435.22	4140.41
435.41	4222.33
435.59	4248.07
435.78	4266.80
435.97	4119.34
436.16	4095.94
436.34	4079.55
436.53	4100.62
436.72	4168.49
436.90	4177.86
437.09	4334.67
437.28	4196.58
437.46	4245.73
437.65	4313.61
437.84	4458.72
438.02	4287.86
438.21	4430.63
438.40	4287.86
438.58	4533.62
438.77	4592.13
438.96	4538.30
439.14	4652.98
439.33	4610.86
439.52	4737.24
439.70	4638.94
439.89	4828.53
440.08	4840.23
440.26	4786.40
440.45	4739.58
440.63	4985.34
440.82	4978.32
441.01	4777.03
441.19	4849.59
441.38	4844.91
441.57	5118.75
441.75	5107.05
441.94	5338.76
442.12	4952.57
442.31	5078.96
442.50	5067.26
442.68	5125.77
442.87	5177.26
443.05	5198.33
443.24	5245.14
443.43	5200.67
443.61	5270.89
443.80	5479.19
443.98	5343.44
444.17	5088.32
444.35	5334.08
444.54	5462.81
444.73	5416.00
444.91	5352.81
445.10	5069.60
445.28	5387.91
445.47	5427.70
445.65	5394.93
445.84	5472.17
446.02	5413.66
446.21	5460.47
446.39	5397.28
446.58	5364.51
446.77	5425.36
446.95	5394.93
447.14	5406.64
447.32	5275.57
447.51	5420.68
447.69	5526.00
447.88	5483.88
448.06	5437.06
448.25	5617.29
448.43	5537.71
448.62	5523.66
448.80	5432.38
448.99	5507.28
449.17	5572.82
449.36	5563.45
449.54	5708.57
449.73	5743.67
449.91	5729.63
450.10	5680.48
450.28	5771.76
450.46	5865.38
450.65	5746.02
450.83	5647.71
451.02	5790.49
451.20	5928.58
451.39	5783.46
451.57	5919.21
451.76	5685.16
451.94	5708.57
452.13	5949.64
452.31	6003.47
452.49	5795.17
452.68	5996.45
452.86	5977.73
453.05	6073.69
453.23	6150.93
453.42	6036.24
453.60	6036.24
453.78	6204.76
453.97	6050.28
454.15	6054.97
454.34	6106.46
454.52	6328.81
454.70	6171.99
454.89	6403.71
455.07	6328.81
455.26	6431.79
455.44	6321.79
455.62	6333.49
455.81	6267.95
455.99	6375.62
456.17	6483.28
456.36	6246.89
456.54	6415.41
456.73	6487.96
456.91	6736.06
457.09	6516.05
457.28	6710.32
457.46	6658.82
457.64	6590.95
457.83	6787.55
458.01	6658.82
458.19	6553.50
458.38	6670.53
458.56	6878.83
458.74	6719.68
458.93	6792.23
459.11	6796.92
459.29	6801.60
459.48	6832.02
459.66	6913.94
459.84	7054.37
460.03	7045.01
460.21	7119.91
460.39	6862.45
460.57	7054.37
460.76	6977.14
460.94	7206.51
461.12	7059.06
461.31	7124.59
461.49	6972.46
461.67	7126.93
461.85	7403.11
462.04	7208.85
462.22	7648.87
462.40	7382.05
462.59	7241.62
462.77	7293.11
462.95	7433.54
463.13	7300.13
463.32	7344.60
463.50	7517.80
463.68	7581.00
463.86	7541.21
464.05	7318.86
464.23	7545.89
464.41	7651.21
464.59	7239.28
464.78	7740.15
464.96	7583.34
465.14	7335.24
465.32	7730.79
465.50	7735.47
465.69	7562.27
465.87	7595.04
466.05	7723.77
466.23	7836.11
466.41	7833.77
466.60	7892.29
466.78	7747.17
466.96	7620.78
467.14	7751.85
467.32	7878.24
467.51	7812.71
467.69	7770.58
467.87	7873.56
468.05	7922.71
468.23	7857.18
468.41	7709.72
468.60	7903.99
468.78	7967.18
468.96	7908.67
469.14	8210.60
469.32	8191.88
469.50	7866.54
469.69	8163.79
469.87	8196.56
470.05	8198.90
470.23	8372.10
470.41	8262.09
470.59	8456.36
470.77	8203.58
470.95	8346.35
471.14	8617.85
471.32	8166.13
471.50	8425.93
471.68	8533.59
471.86	8465.72
472.04	8617.85
472.22	8879.99
472.40	8685.73
472.58	8760.63
472.77	8727.86
472.95	8753.60
473.13	9165.54
473.31	8795.73
473.49	9034.47
473.67	8884.67
473.85	8788.71
474.03	9380.87
474.21	9139.79
474.39	9296.61
474.57	9167.88
474.75	9123.41
474.93	9397.25
475.12	9240.44
475.30	9465.13
475.48	9387.89
475.66	9650.03
475.84	9390.23
476.02	9549.39
476.20	9694.50
476.38	9769.40
476.56	10160.27
476.74	10139.20
476.92	10047.92
477.10	9933.23
477.28	10160.27
477.46	10003.45
477.64	10211.76
477.82	10286.65
478.00	10649.44
478.18	10480.92
478.36	10576.88
478.54	10696.25
478.72	10642.42
478.90	10736.04
479.08	10750.08
479.26	11342.24
479.44	11157.33
479.62	11194.78
479.80	11194.78
479.98	11131.59
480.16	11723.74
480.34	11293.08
480.52	11580.97
480.70	11688.64
480.88	11417.13
481.06	11714.38
481.24	11616.08
481.41	12156.74
481.59	12201.21
481.77	12180.15
481.95	12123.98
482.13	12404.84
482.31	12224.62
482.49	12571.02
482.67	12636.55
482.85	12706.77
483.03	12568.68
483.21	12821.45
483.39	13085.94
483.57	13097.64
483.74	13057.85
483.92	13334.03
484.10	13041.46
484.28	13558.72
484.46	13710.86
484.64	13855.97
484.82	13708.52
485.00	13825.54
485.18	13940.23
485.35	14384.93
485.53	14167.26
485.71	14279.61
485.89	14469.19
486.07	14459.83
486.25	14499.62
486.43	14717.29
486.61	14567.49
486.78	15138.58
486.96	14918.57
487.14	15253.27
487.32	15250.93
487.50	15192.42
487.68	15461.58
487.85	15566.90
488.03	15798.62
488.21	16100.55
488.39	15901.60
488.57	16095.86
488.75	16358.00
488.92	16280.77
489.10	16489.07
489.28	16421.20
489.46	16889.31
489.64	16816.75
489.81	16973.56
489.99	16989.95
490.17	17043.78
490.35	17465.08
490.53	17460.40
490.70	17565.72
490.88	17727.22
491.06	17647.64
491.24	17860.63
491.41	17987.02
491.59	17921.48
491.77	18064.25
491.95	18160.22
492.13	18354.48
492.30	18354.48
492.48	18672.79
492.66	18485.55
492.84	18600.24
493.01	19255.59
493.19	18902.17
493.37	19297.72
493.54	19417.08
493.72	19248.57
493.90	19393.68
494.08	19473.26
494.25	19597.31
494.43	19777.53
494.61	19976.47
494.79	20245.63
494.96	19836.04
495.14	20240.95
495.32	20152.01
495.49	20343.94
495.67	20645.87
495.85	20634.16
496.02	21092.91
496.20	20996.95
496.38	20936.09
496.55	21195.89
496.73	21294.19
496.91	21380.79
497.09	21652.30
497.26	21539.95
497.44	21806.77
497.62	21584.42
497.79	21921.46
497.97	21916.78
498.14	22228.07
498.32	22272.54
498.50	22295.94
498.67	22567.45
498.85	22333.39
499.03	22600.21
499.20	22871.72
499.38	22850.65
499.56	22904.48
499.73	22836.61
499.91	22789.80
500.08	23199.39
500.26	23248.54
500.44	23161.94
500.61	23496.64
500.79	23414.72
500.97	23697.92
501.14	23777.50
501.32	24034.96
501.49	23550.47
501.67	23662.82
501.84	23995.17
502.02	23730.69
502.20	24191.78
502.37	24151.99
502.55	24411.79
502.72	24514.77
502.90	24278.38
503.07	24252.63
503.25	24463.28
503.43	24678.61
503.60	24641.16
503.78	24858.83
503.95	24868.19
504.13	25104.59
504.30	24966.49
504.48	25032.03
504.65	25130.33
504.83	25556.31
505.01	25582.06
505.18	25420.56
505.36	25577.37
505.53	25516.52
505.71	25659.29
505.88	25921.43
506.06	25743.55
506.23	25750.57
506.41	25816.11
506.58	26249.11
506.76	26242.09
506.93	26272.51
507.11	26455.08
507.28	26501.89
507.46	26607.21
507.63	26611.89
507.81	27075.32
507.98	26899.78
508.16	26955.95
508.33	26682.11
508.50	27068.30
508.68	27115.11
508.85	27402.99
509.03	27070.64
509.20	27424.06
509.38	27358.52
509.55	27393.63
509.73	27505.98
509.90	27564.49
510.08	27861.74
510.25	27594.92
510.42	27424.06
510.60	27861.74
510.77	28058.34
510.95	28261.97
511.12	28208.14
511.30	28318.14
511.47	28257.29
511.64	28357.93
511.82	28266.65
511.99	28573.26
512.17	29118.60
512.34	28460.91
512.51	28833.06
512.69	29015.62
512.86	28917.32
513.04	29511.81
513.21	28879.87
513.38	29153.71
513.56	29436.92
513.73	29350.32
513.90	29450.96
514.08	29422.87
514.25	29383.09
514.43	29944.81
514.60	29902.68
514.77	29731.83
514.95	30082.91
515.12	29619.48
515.29	29909.71
515.47	30199.93
515.64	30419.94
515.81	30270.15
515.99	30494.84
516.16	30433.99
516.33	30522.93
516.51	30637.61
516.68	30389.52
516.85	30422.28
517.03	30803.79
517.20	30902.09
517.37	30878.69
517.54	30773.36
517.72	30984.01
517.89	30892.73
518.06	31271.90
518.24	30869.33
518.41	31185.30
518.58	31023.80
518.75	31325.73
518.93	31630.00
519.10	31159.55
519.27	31440.42
519.45	31384.24
519.62	31299.98
519.79	31805.54
519.96	31510.63
520.14	31721.28
520.31	31749.37
520.48	31889.80
520.65	32070.02
520.83	32254.92
521.00	32142.58
521.17	32154.28
521.34	32299.39
521.52	32657.49
521.69	32608.34
521.86	32407.06
522.03	32697.28
522.20	32779.20
522.38	32975.81
522.55	32613.02
522.72	32704.31
522.89	33039.00
523.07	33422.85
523.24	33240.29
523.41	33172.41
523.58	33067.09
523.75	33404.13
523.92	33469.66
524.10	33380.72
524.27	33574.98
524.44	33359.66
524.61	33593.71
524.78	34061.82
524.96	33834.78
525.13	33731.80
525.30	34141.39
525.47	34333.32
525.64	34106.29
525.81	34185.86
525.98	34394.17
526.16	33886.28
526.33	33968.19
526.50	34635.25
526.67	33996.28
526.84	34394.17
527.01	34396.51
527.18	34099.26
527.36	34848.24
527.53	34759.30
527.70	35110.38
527.87	35395.92
528.04	34686.74
528.21	35110.38
528.38	35042.50
528.55	34754.61
528.72	35246.13
528.89	35077.61
529.07	35625.29
529.24	35033.14
529.41	35255.49
529.58	35175.91
529.75	35241.45
529.92	35578.48
530.09	35938.93
530.26	35295.28
530.43	35449.75
530.60	35342.09
530.77	35559.76
530.94	35826.58
531.11	35772.75
531.28	35686.15
531.46	36442.14
531.63	36191.70
531.80	35887.43
531.97	35936.59
532.14	36051.27
532.31	36030.21
532.48	36353.20
532.65	36718.32
532.82	36278.30
532.99	36470.23
533.16	36299.37
533.33	36503.00
533.50	36266.60
533.67	36229.15
533.84	36414.05
534.01	36694.92
534.18	36545.12
534.35	36804.92
534.52	36980.46
534.69	37132.60
534.86	37181.75
535.03	37172.39
535.20	37069.40
535.37	37193.45
535.54	37310.48
535.71	36924.29
535.88	37354.95
536.05	37046.00
536.22	37951.79
536.38	37361.97
536.55	37614.75
536.72	37537.51
536.89	37156.00
537.06	37476.66
537.23	37867.53
537.40	37345.59
537.57	37556.24
537.74	37380.70
537.91	37757.52
538.08	37900.29
538.25	37661.56
538.42	37940.08
538.59	38293.50
538.75	37916.68
538.92	37940.08
539.09	38160.09
539.26	37818.38
539.43	38335.63
539.60	38302.87
539.77	37961.15
539.94	38536.92
540.11	38799.06
540.28	38602.46
540.44	38202.22
540.61	38380.10
540.78	38525.22
540.95	38534.58
541.12	38012.64
541.29	38359.04
541.46	38635.22
541.62	38852.89
541.79	38813.10
541.96	38529.90
542.13	38464.36
542.30	39150.14
542.47	38740.55
542.63	39065.88
542.80	39119.71
542.97	39058.86
543.14	39395.90
543.31	39365.47
543.48	39201.63
543.64	40072.31
543.81	39749.32
543.98	39400.58
544.15	39723.57
544.32	39686.12
544.48	39941.24
544.65	39477.82
544.82	39908.47
544.99	39519.95
545.16	39690.80
545.32	39629.95
545.49	39952.94
545.66	40217.43
545.83	40318.07
546.00	40364.88
546.16	40306.37
546.33	39693.15
546.50	39889.75
546.67	40346.15
546.83	39360.79
547.00	40334.45
547.17	40201.04
547.34	40177.64
547.50	40816.60
547.67	40751.07
547.84	40425.73
548.00	40673.83
548.17	40439.78
548.34	40952.35
548.51	41069.38
548.67	40928.95
548.84	41088.10
549.01	40638.72
549.18	40823.62
549.34	40739.36
549.51	41212.15
549.68	41015.55
549.84	41017.89
550.01	41317.48
550.18	41022.57
550.34	41104.49
550.51	41233.22
550.68	41383.01
550.84	40875.12
551.01	41560.89
551.18	41120.87
551.34	41193.43
551.51	41682.60
551.68	41439.18
551.84	41137.26
552.01	40992.14
552.18	41904.95
552.34	41282.37
552.51	41205.13
552.68	41280.03
552.84	41710.69
553.01	41656.85
553.18	41331.52
553.34	42108.58
553.51	41401.74
553.67	41764.52
553.84	41649.83
554.01	41972.83
554.17	41588.98
554.34	41921.34
554.51	42122.62
554.67	42129.64
554.84	42333.27
555.00	41968.15
555.17	42288.80
555.33	42349.65
555.50	42225.60
555.67	42462.00
555.83	42377.74
556.00	42394.12
556.16	42862.23
556.33	42279.44
556.50	42485.40
556.66	42122.62
556.83	42300.50
556.99	42660.94
557.16	42731.16
557.32	42796.70
557.49	42836.48
557.65	42295.82
557.82	42492.43
557.98	42249.01
558.15	42389.44
558.32	42766.27
558.48	42639.88
558.65	42490.09
558.81	43000.32
558.98	42536.90
559.14	42398.80
559.31	42679.67
559.47	42579.03
559.64	43140.75
559.80	43182.88
559.97	43281.19
560.13	43016.71
560.30	43089.26
560.46	43342.04
560.63	43168.84
560.79	43552.69
560.96	43129.05
561.12	43203.95
561.29	43196.93
561.45	43262.46
561.61	43037.77
561.78	43175.86
561.94	43129.05
562.11	42880.95
562.27	43428.64
562.44	43253.10
562.60	43660.35
562.77	43608.86
562.93	43283.53
563.10	43648.65
563.26	43302.25
563.42	43398.21
563.59	43297.57
563.75	43365.45
563.92	43749.29
564.08	43526.94
564.24	43421.62
564.41	43805.47
564.57	43679.08
564.74	43835.89
564.90	43049.47
565.07	43531.62
565.23	43658.01
565.39	43707.16
565.56	43384.17
565.72	43597.16
565.88	43349.06
566.05	43438.00
566.21	43402.89
566.38	43852.28
566.54	43807.81
566.70	44268.89
566.87	43910.79
567.03	43653.33
567.19	43643.97
567.36	43562.05
567.52	43592.48
567.68	44432.73
567.85	43784.40
568.01	44243.15
568.17	43800.79
568.34	43459.07
568.50	44069.95
568.66	44037.18
568.83	43957.60
568.99	44252.51
569.15	44116.76
569.32	43768.02
569.48	43866.32
569.64	44334.43
569.81	43952.92
569.97	44268.89
570.13	44065.27
570.30	43952.92
570.46	44308.68
570.62	43587.80
570.78	44339.11
570.95	44236.12
571.11	44182.29
571.27	44369.54
571.43	44076.97
571.60	44306.34
571.76	44137.82
571.92	43658.01
572.09	43880.36
572.25	44149.53
572.41	44442.09
572.57	44210.38
572.74	44659.76
572.90	44081.65
573.06	44027.82
573.22	44313.36
573.38	44364.85
573.55	44444.43
573.71	44701.89
573.87	44112.08
574.03	44535.71
574.20	44615.29
574.36	44521.67
574.52	44327.41
574.68	44252.51
574.84	44472.52
575.01	44685.51
575.17	44516.99
575.33	44818.92
575.49	44329.75
575.65	44491.24
575.82	44811.90
575.98	44577.84
576.14	44893.82
576.30	44591.89
576.46	44570.82
576.62	44711.25
576.79	44493.58
576.95	44072.29
577.11	44662.10
577.27	44336.77
577.43	44767.43
577.59	44215.06
577.75	44233.78
577.92	44098.03
578.08	44985.10
578.24	44493.58
578.40	45139.57
578.56	44622.31
578.72	44460.82
578.88	44718.28
579.04	44844.66
579.21	44355.49
579.37	44786.15
579.53	44346.13
579.69	44086.33
579.85	44083.99
580.01	44725.30
580.17	44294.64
580.33	44694.87
580.49	44619.97
580.65	44832.96
580.82	44957.01
580.98	44430.39
581.14	44566.14
581.30	44891.48
581.46	44240.81
581.62	44502.95
581.78	44294.64
581.94	44753.38
582.10	44638.70
582.26	44758.06
582.42	44418.69
582.58	45067.02
582.74	44580.18
582.90	44704.23
583.06	44425.71
583.22	44765.09
583.38	44877.43
583.54	44900.84
583.70	45153.62
583.86	44992.12
584.02	44652.74
584.18	45095.10
584.34	44964.03
584.50	45160.64
584.66	44980.42
584.82	44896.16
584.98	45092.76
585.14	45282.34
585.30	45015.52
585.46	44926.58
585.62	44573.16
585.78	44727.64
585.94	44500.61
586.10	44854.03
586.26	44856.37
586.42	44865.73
586.58	44446.77
586.74	44748.70
586.90	45062.33
587.06	44795.51
587.22	44872.75
587.38	44477.20
587.54	45251.92
587.70	45291.71
587.86	44676.15
588.02	45296.39
588.18	44980.42
588.34	44748.70
588.49	44933.60
588.65	44631.68
588.81	44975.73
588.97	44861.05
589.13	44729.98
589.29	44392.94
589.45	45247.24
589.61	45095.10
589.77	45450.86
589.93	44957.01
590.08	44711.25
590.24	45186.38
