SpectraSuite Data File
++++++++++++++++++++++++++++++++++++
Date: Fri Oct 25 11:22:51 EDT 2013
User: price-jones
Dark Spectrum Present: No
Reference Spectrum Present: No
Number of Sampled Component Spectra: 1
Spectrometers: USB2+H05261
Integration Time (usec): 100000 (USB2+H05261)
Spectra Averaged: 1 (USB2+H05261)
Boxcar Smoothing: 0 (USB2+H05261)
Correct for Electrical Dark: No (USB2+H05261)
Strobe/Lamp Enabled: No (USB2+H05261)
Correct for Detector Non-linearity: No (USB2+H05261)
Correct for Stray Light: No (USB2+H05261)
Number of Pixels in Processed Spectrum: 2048
>>>>>Begin Processed Spectral Data<<<<<
365.73	273.84
365.92	273.84
366.12	273.84
366.32	173.20
366.52	154.48
366.72	131.07
366.91	81.92
367.11	126.39
367.31	170.86
367.51	187.24
367.70	140.43
367.90	168.52
368.10	131.07
368.30	49.15
368.49	135.75
368.69	135.75
368.89	126.39
369.09	110.01
369.28	152.13
369.48	117.03
369.68	117.03
369.87	224.69
370.07	201.29
370.27	311.29
370.47	341.72
370.66	601.52
370.86	578.11
371.06	610.88
371.25	627.26
371.45	662.37
371.65	737.27
371.84	730.25
372.04	704.50
372.24	643.65
372.44	706.84
372.63	725.57
372.83	702.16
373.03	802.80
373.22	809.83
373.42	713.86
373.62	748.97
373.81	802.80
374.01	706.84
374.21	826.21
374.40	798.12
374.60	784.08
374.79	856.64
374.99	844.93
375.19	828.55
375.38	908.13
375.58	858.98
375.78	884.72
375.97	851.96
376.17	952.60
376.37	854.30
376.56	821.53
376.76	805.14
376.95	858.98
377.15	868.34
377.35	821.53
377.54	896.43
377.74	896.43
377.93	936.21
378.13	994.73
378.33	994.73
378.52	947.92
378.72	849.61
378.91	851.96
379.11	905.79
379.31	924.51
379.50	875.36
379.70	1022.81
379.89	1004.09
380.09	997.07
380.28	964.30
380.48	985.37
380.68	1022.81
380.87	961.96
381.07	961.96
381.26	1027.50
381.46	999.41
381.65	1086.01
381.85	1006.43
382.04	1043.88
382.24	1018.13
382.43	1128.14
382.63	1078.99
382.83	1132.82
383.02	1121.12
383.22	1081.33
383.41	1076.65
383.61	1076.65
383.80	1163.25
384.00	1132.82
384.19	1104.73
384.39	1170.27
384.58	1078.99
384.78	1188.99
384.97	1214.74
385.17	1193.67
385.36	1205.38
385.56	1095.37
385.75	1217.08
385.95	1226.44
386.14	1167.93
386.34	1151.54
386.53	1184.31
386.72	1184.31
386.92	1177.29
387.11	1259.21
387.31	1256.87
387.50	1263.89
387.70	1153.88
387.89	1191.33
388.09	1378.58
388.28	1228.78
388.48	1303.68
388.67	1270.91
388.86	1336.45
389.06	1385.60
389.25	1341.13
389.45	1406.66
389.64	1364.53
389.84	1327.08
390.03	1413.68
390.22	1345.81
390.42	1448.79
390.61	1303.68
390.81	1329.42
391.00	1467.52
391.19	1406.66
391.39	1397.30
391.58	1549.43
391.78	1467.52
391.97	1362.19
392.16	1453.47
392.36	1455.81
392.55	1479.22
392.75	1575.18
392.94	1572.84
393.13	1558.80
393.33	1437.09
393.52	1549.43
393.71	1633.69
393.91	1668.80
394.10	1633.69
394.29	1617.31
394.49	1647.74
394.68	1687.53
394.88	1657.10
395.07	1638.38
395.26	1741.36
395.46	1647.74
395.65	1739.02
395.84	1647.74
396.04	1696.89
396.23	1750.72
396.42	1692.21
396.62	1860.73
396.81	1856.04
397.00	1748.38
397.19	1816.26
397.39	1781.15
397.58	1860.73
397.77	1783.49
397.97	1844.34
398.16	1863.07
398.35	1952.01
398.55	1834.98
398.74	1874.77
398.93	2099.46
399.12	1825.62
399.32	1963.71
399.51	1998.82
399.70	1982.43
399.90	2057.33
400.09	1991.80
400.28	2148.61
400.47	2010.52
400.67	2047.97
400.86	1980.09
401.05	2029.24
401.24	2148.61
401.44	2134.57
401.63	2129.89
401.82	2218.83
402.01	2106.48
402.21	2167.34
402.40	2190.74
402.59	2111.16
402.78	2242.23
402.97	2195.42
403.17	2284.36
403.36	2239.89
403.55	2396.71
403.74	2417.77
403.93	2356.92
404.13	2356.92
404.32	2410.75
404.51	2483.31
404.70	2420.11
404.89	2424.80
405.09	2429.48
405.28	2527.78
405.47	2506.71
405.66	2473.95
405.85	2490.33
406.05	2560.55
406.24	2462.24
406.43	2640.12
406.62	2757.15
406.81	2644.81
407.00	2523.10
407.20	2495.01
407.39	2607.36
407.58	2705.66
407.77	2759.49
407.96	2740.77
408.15	2822.69
408.34	2743.11
408.54	2832.05
408.73	2778.22
408.92	2789.92
409.11	2897.58
409.30	2878.86
409.49	2897.58
409.68	2892.90
409.87	2862.48
410.07	2916.31
410.26	2874.18
410.45	3073.12
410.64	3159.72
410.83	3169.09
411.02	3035.67
411.21	3269.73
411.40	3220.58
411.59	3239.30
411.78	3234.62
411.98	3253.34
412.17	3229.94
412.36	3145.68
412.55	3302.50
412.74	3492.08
412.93	3426.54
413.12	3447.61
413.31	3503.78
413.50	3431.23
413.69	3466.33
413.88	3709.75
414.07	3618.47
414.26	3756.56
414.45	3634.85
414.64	3672.30
414.83	3695.71
415.02	3775.28
415.22	3868.91
415.41	3957.85
415.60	3815.07
415.79	3822.09
415.98	4060.83
416.17	4060.83
416.36	4095.94
416.55	4056.15
416.74	4156.79
416.93	4117.00
417.12	4145.09
417.31	4224.67
417.50	4114.66
417.69	4159.13
417.88	4327.65
418.07	4248.07
418.26	4264.46
418.45	4367.44
418.64	4571.07
418.83	4538.30
419.02	4498.51
419.21	4585.11
419.39	4432.97
419.58	4521.92
419.77	4540.64
419.96	4535.96
420.15	4662.35
420.34	4779.37
420.53	4772.35
420.72	4664.69
420.91	4615.54
421.10	4762.99
421.29	4840.23
421.48	4671.71
421.67	4739.58
421.86	4748.95
422.05	4793.42
422.24	4723.20
422.43	4870.65
422.61	4915.12
422.80	5069.60
422.99	5046.20
423.18	5015.77
423.37	5071.94
423.56	5004.07
423.75	4945.55
423.94	4978.32
424.13	4711.50
424.32	4720.86
424.50	4990.02
424.69	5231.10
424.88	5102.37
425.07	5032.15
425.26	4940.87
425.45	4966.62
425.64	5163.22
425.83	4891.72
426.01	4973.64
426.20	4959.60
426.39	5022.79
426.58	5055.56
426.77	5153.86
426.96	5301.31
427.15	5240.46
427.33	5142.16
427.52	5153.86
427.71	5277.91
427.90	5238.12
428.09	5348.12
428.28	5352.81
428.46	5411.32
428.65	5390.25
428.84	5636.01
429.03	5582.18
429.22	5341.10
429.40	5645.37
429.59	5558.77
429.78	5226.42
429.97	5359.83
430.16	5689.84
430.34	5650.05
430.53	5708.57
430.72	5614.95
430.91	5647.71
431.10	5591.54
431.28	5809.21
431.47	5818.57
431.66	5970.71
431.85	5788.14
432.03	5874.74
432.22	6099.44
432.41	6038.58
432.60	5806.87
432.79	5966.03
432.97	6003.47
433.16	6085.39
433.35	6010.50
433.54	6059.65
433.72	6204.76
433.91	6094.76
434.10	6209.44
434.28	6235.19
434.47	6118.16
434.66	6300.72
434.85	6434.13
435.03	6492.65
435.22	6380.30
435.41	6438.81
435.59	6401.37
435.78	6326.47
435.97	6604.99
436.16	6588.61
436.34	6502.01
436.53	6654.14
436.72	6633.08
436.90	6392.00
437.09	6614.35
437.28	6623.72
437.46	6715.00
437.65	6707.98
437.84	6707.98
438.02	6857.77
438.21	6904.58
438.40	6773.51
438.58	7087.14
438.77	7094.16
438.96	7007.56
439.14	7119.91
439.33	7218.21
439.52	7368.01
439.70	7386.73
439.89	7377.37
440.08	7529.50
440.26	7318.86
440.45	7330.56
440.63	7543.55
440.82	7585.68
441.01	7548.23
441.19	7698.02
441.38	7861.86
441.57	7801.01
441.75	8006.97
441.94	7960.16
442.12	7990.59
442.31	8278.47
442.50	8074.85
442.68	8016.33
442.87	8252.73
443.05	8163.79
443.24	8322.94
443.43	8166.13
443.61	8194.22
443.80	8545.30
443.98	8215.28
444.17	7873.56
444.35	8367.42
444.54	8416.57
444.73	8418.91
444.91	8397.84
445.10	8402.52
445.28	8458.70
445.47	8407.20
445.65	8451.67
445.84	8667.00
446.02	8620.19
446.21	8636.58
446.39	8512.53
446.58	8589.77
446.77	8451.67
446.95	8276.13
447.14	8524.23
447.32	8657.64
447.51	8559.34
447.69	8435.29
447.88	8505.51
448.06	8575.72
448.25	8631.90
448.43	8847.22
448.62	8662.32
448.80	8746.58
448.99	8727.86
449.17	8737.22
449.36	8758.28
449.54	8826.16
449.73	8915.10
449.91	9200.65
450.10	9053.19
450.28	9156.18
450.46	9090.64
450.65	9137.45
450.83	9111.71
451.02	8966.59
451.20	9210.01
451.39	9320.01
451.57	9273.20
451.76	9032.13
451.94	9315.33
452.13	9385.55
452.31	9221.71
452.49	9320.01
452.68	9413.63
452.86	9252.14
453.05	9624.28
453.23	9612.58
453.42	9502.58
453.60	9411.29
453.78	9465.13
453.97	9708.54
454.15	9509.60
454.34	9500.23
454.52	10045.58
454.70	9895.78
454.89	9926.21
455.07	9844.29
455.26	9914.51
455.44	9774.08
455.62	10040.90
455.81	10073.67
455.99	10125.16
456.17	10204.74
456.36	10270.27
456.54	10143.88
456.73	10253.89
456.91	10480.92
457.09	10546.45
457.28	10714.97
457.46	10445.81
457.64	10544.11
457.83	10539.43
458.01	10623.69
458.19	10663.48
458.38	10637.73
458.56	10874.13
458.74	10698.59
458.93	10792.21
459.11	10675.18
459.29	10810.93
459.48	10958.39
459.66	11033.29
459.84	11173.72
460.03	11318.83
460.21	10822.64
460.39	10881.15
460.57	11218.19
460.76	11274.36
460.94	11084.78
461.12	11145.63
461.31	11044.99
461.49	11274.36
461.67	11115.20
461.85	11580.97
462.04	11489.69
462.22	11908.65
462.40	11288.40
462.59	11665.23
462.77	11517.78
462.95	11742.47
463.13	11662.89
463.32	11953.12
463.50	11915.67
463.68	11777.58
463.86	11948.43
464.05	11613.74
464.23	11829.07
464.41	11910.99
464.59	11875.88
464.78	12175.47
464.96	12149.72
465.14	11981.20
465.32	12116.95
465.50	12152.06
465.69	12142.70
465.87	12154.40
466.05	12285.47
466.23	12365.05
466.41	12086.53
466.60	12776.98
466.78	12428.24
466.96	12226.96
467.14	12332.28
467.32	12545.27
467.51	12723.15
467.69	12187.17
467.87	12627.19
468.05	12917.42
468.23	12456.33
468.41	12723.15
468.60	12465.69
468.78	12975.93
468.96	12564.00
469.14	12957.21
469.32	12919.76
469.50	12791.03
469.69	12908.05
469.87	13247.43
470.05	13181.90
470.23	13308.29
470.41	13074.23
470.59	13486.17
470.77	13282.54
470.95	13376.16
471.14	13745.97
471.32	13275.52
471.50	13453.40
471.68	13748.31
471.86	13769.37
472.04	14026.83
472.22	13991.72
472.40	13736.60
472.58	13710.86
472.77	14230.46
472.95	14260.88
473.13	14780.48
473.31	14104.07
473.49	14387.27
473.67	14066.62
473.85	14235.14
474.03	14731.33
474.21	14700.90
474.39	14754.74
474.57	14780.48
474.75	15147.95
474.93	15297.74
475.12	14981.77
475.30	15410.09
475.48	15112.84
475.66	15459.24
475.84	15374.98
476.02	15360.94
476.20	15477.96
476.38	15791.59
476.56	16320.56
476.74	16187.14
476.92	16248.00
477.10	16044.37
477.28	16081.82
477.46	16257.36
477.64	16383.75
477.82	16636.53
478.00	17123.36
478.18	16772.28
478.36	16992.29
478.54	17291.88
478.72	17247.41
478.90	17486.14
479.08	17750.62
479.26	17759.98
479.44	17661.68
479.62	18019.78
479.80	18251.50
479.98	18061.91
480.16	18906.85
480.34	18565.13
480.52	18787.48
480.70	18937.27
480.88	18581.51
481.06	18909.19
481.24	19185.37
481.41	19164.31
481.59	19639.44
481.77	19346.87
481.95	19709.65
482.13	20226.91
482.31	19765.82
482.49	20460.96
482.67	20074.77
482.85	20648.21
483.03	20559.27
483.21	20973.54
483.39	20903.32
483.57	21092.91
483.74	21287.17
483.92	21432.29
484.10	21266.11
484.28	21876.99
484.46	22146.15
484.64	22518.29
484.82	22251.47
485.00	22544.04
485.18	22984.06
485.35	22813.20
485.53	23077.68
485.71	22925.55
485.89	23480.25
486.07	23496.64
486.25	23583.24
486.43	24109.86
486.61	24245.61
486.78	24236.25
486.96	24367.32
487.14	24662.22
487.32	24727.76
487.50	25118.63
487.68	25095.22
487.85	25310.55
488.03	25717.81
488.21	25951.86
488.39	25731.85
488.57	25993.99
488.75	26466.78
488.92	26869.35
489.10	27040.21
489.28	26822.54
489.46	27108.08
489.64	27353.84
489.81	27789.18
489.99	27831.31
490.17	27936.63
490.35	28400.06
490.53	28465.60
490.70	28926.68
490.88	28563.90
491.06	29109.24
491.24	28987.53
491.41	29544.58
491.59	29280.10
491.77	29418.19
491.95	29673.31
492.13	30078.22
492.30	29582.03
492.48	30415.26
492.66	30522.93
492.84	30333.34
493.01	30965.29
493.19	30813.15
493.37	31241.47
493.54	31608.93
493.72	31840.65
493.90	31566.81
494.08	31931.93
494.25	32376.63
494.43	31962.36
494.61	32713.67
494.79	32519.40
494.96	32685.58
495.14	33261.35
495.32	33523.49
495.49	33401.79
495.67	33598.39
495.85	33621.80
496.02	33776.27
496.20	34366.09
496.38	34429.28
496.55	34185.86
496.73	35012.07
496.91	35175.91
497.09	35330.39
497.26	34642.27
497.44	35112.72
497.62	35683.81
497.79	36163.62
497.97	35637.00
498.14	36643.43
498.32	36528.74
498.50	36783.86
498.67	36713.64
498.85	36961.74
499.03	36692.58
499.20	36924.29
499.38	37280.05
499.56	37275.37
499.73	37752.84
499.91	37322.18
500.08	38005.62
500.26	37818.38
500.44	38305.21
500.61	38328.61
500.79	37993.92
500.97	38349.68
501.14	38850.55
501.32	38754.59
501.49	38873.96
501.67	39370.15
501.84	39309.30
502.02	39503.56
502.20	39585.48
502.37	39636.97
502.55	39218.02
502.72	39812.51
502.90	39643.99
503.07	39948.26
503.25	40259.55
503.43	40203.38
503.60	39861.66
503.78	40346.15
503.95	40603.61
504.13	41036.61
504.30	41146.62
504.48	40816.60
504.65	40964.06
504.83	41734.09
505.01	41235.56
505.18	41350.24
505.36	41790.27
505.53	41680.26
505.71	41918.99
505.88	41872.18
506.06	41340.88
506.23	42452.64
506.41	42113.26
506.58	42265.39
506.76	42782.65
506.93	42927.77
507.11	43019.05
507.28	42923.08
507.46	43115.01
507.63	43311.61
507.81	43407.58
507.98	42983.94
508.16	43454.39
508.33	43840.57
508.50	43543.33
508.68	44320.38
508.85	44306.34
509.03	43957.60
509.20	44030.16
509.38	44793.17
509.55	44659.76
509.73	44884.45
509.90	44971.05
510.08	44591.89
510.25	44807.22
510.42	44786.15
510.60	45514.06
510.77	45872.16
510.95	45820.67
511.12	45034.25
511.30	45399.37
511.47	45886.20
511.64	45872.16
511.82	46476.02
511.99	46183.45
512.17	46513.47
512.34	46066.42
512.51	46508.79
512.69	46630.49
512.86	46426.87
513.04	47103.28
513.21	47093.92
513.38	47318.61
513.56	47105.62
513.73	46813.05
513.90	47491.81
514.08	47402.87
514.25	47868.64
514.43	47519.90
514.60	47639.26
514.77	47566.71
514.95	48076.94
515.12	47835.87
515.29	48037.16
515.47	47978.64
515.64	48472.49
515.81	48149.50
515.99	48610.59
516.16	48538.03
516.33	48882.09
516.51	49233.17
516.68	48889.11
516.85	48449.09
517.03	49415.73
517.20	49148.91
517.37	49265.94
517.54	49198.06
517.72	48942.94
517.89	49357.22
518.06	49619.36
518.24	49530.42
518.41	49663.83
518.58	49961.08
518.75	49083.37
518.93	49593.61
519.10	49808.94
519.27	49776.17
519.45	50291.09
519.62	50623.45
519.79	49961.08
519.96	50230.24
520.14	50131.93
520.31	50412.80
520.48	50693.66
520.65	50726.43
520.83	50913.67
521.00	51091.55
521.17	50866.86
521.34	50646.85
521.52	51360.72
521.69	51007.29
521.86	51430.93
522.03	51625.20
522.20	51473.06
522.38	51552.64
522.55	51566.68
522.72	51672.01
522.89	51831.16
523.07	52116.71
523.24	51784.35
523.41	52002.02
523.58	51569.02
523.75	52317.99
523.92	52161.18
524.10	52016.07
524.27	52383.53
524.44	52266.50
524.61	52128.41
524.78	52458.43
524.96	52479.49
525.13	52692.48
525.30	52453.75
525.47	52938.24
525.64	52783.76
525.81	52584.82
525.98	52601.20
526.16	52940.58
526.33	52956.96
526.50	53289.32
526.67	52882.06
526.84	53099.73
527.01	52858.66
527.18	53106.76
527.36	53530.39
527.53	53516.35
527.70	53338.47
527.87	53869.77
528.04	53294.00
528.21	53834.66
528.38	53694.23
528.55	53858.07
528.72	53738.70
528.89	53631.04
529.07	53654.44
529.24	53916.58
529.41	53900.20
529.58	53965.73
529.75	53752.74
529.92	54204.47
530.09	54099.14
530.26	54171.70
530.43	54204.47
530.60	53778.49
530.77	54099.14
530.94	54422.14
531.11	54253.62
531.28	54344.90
531.46	54466.61
531.63	54710.02
531.80	54700.66
531.97	54710.02
532.14	54728.75
532.31	54728.75
532.48	54803.64
532.65	54731.09
532.82	54581.29
532.99	54805.98
533.16	54773.22
533.33	55164.09
533.50	55093.87
533.67	54775.56
533.84	54841.09
534.01	54735.77
534.18	54944.08
534.35	55473.04
534.52	55550.27
534.69	55480.06
534.86	55639.22
535.03	55100.89
535.20	55325.58
535.37	55526.87
535.54	55447.29
535.71	55461.33
535.88	55894.33
536.05	55676.66
536.22	55880.29
536.38	55749.22
536.55	55929.44
536.72	55676.66
536.89	55789.01
537.06	55866.25
537.23	56151.79
537.40	55800.71
537.57	55831.14
537.74	56048.81
537.91	56226.69
538.08	55983.27
538.25	56116.68
538.42	55920.08
538.59	56456.06
538.75	56163.50
538.92	56163.50
539.09	56460.74
539.26	56500.53
539.43	56261.80
539.60	56617.56
539.77	56271.16
539.94	56612.88
540.11	56502.87
540.28	56629.26
540.44	56460.74
540.61	56690.12
540.78	56678.41
540.95	56638.62
541.12	56463.08
541.29	56580.11
541.46	56526.28
541.62	56980.34
541.79	56980.34
541.96	56495.85
542.13	56863.32
542.30	57181.63
542.47	57212.06
542.63	56849.27
542.80	57083.33
542.97	57359.51
543.14	57516.32
543.31	57200.35
543.48	57516.32
543.64	57343.12
543.81	57729.31
543.98	57621.65
544.15	57762.08
544.32	57588.88
544.48	57797.19
544.65	57659.10
544.82	57614.63
544.99	57586.54
545.16	57705.91
545.32	57645.05
545.49	57860.38
545.66	58033.58
545.83	57748.04
546.00	57677.82
546.16	58066.35
546.33	57567.82
546.50	57645.05
546.67	58019.54
546.83	57916.56
547.00	57820.59
547.17	58019.54
547.34	58099.12
547.50	58127.20
547.67	58216.14
547.84	58286.36
548.00	58209.12
548.17	58417.43
548.34	58422.11
548.51	58506.37
548.67	58361.26
548.84	58384.66
549.01	58394.03
549.18	58284.02
549.34	58506.37
549.51	58468.92
549.68	58424.45
549.84	58574.25
550.01	58642.12
550.18	58436.16
550.34	58841.07
550.51	58805.96
550.68	58756.81
550.84	58705.32
551.01	58775.53
551.18	58749.79
551.34	58763.83
551.51	58981.50
551.68	58829.37
551.84	58834.05
552.01	58656.17
552.18	58862.13
552.34	58567.23
552.51	59042.35
552.68	58805.96
552.84	59058.74
553.01	59185.13
553.18	59021.29
553.34	59072.78
553.51	59035.33
553.67	58939.37
553.84	59121.93
554.01	59409.82
554.17	59002.56
554.34	59107.89
554.51	59250.66
554.67	59128.95
554.84	59159.38
555.00	59358.33
555.17	59203.85
555.33	59302.15
555.50	59374.71
555.67	59311.52
555.83	59395.77
556.00	59234.28
556.16	59473.01
556.33	59515.14
556.50	59428.54
556.66	59545.57
556.83	59470.67
556.99	59660.26
557.16	59875.58
557.32	59704.73
557.49	59721.11
557.65	59597.06
557.82	59636.85
557.98	59629.83
558.15	59599.40
558.32	59643.87
558.48	59636.85
558.65	59571.32
558.81	59545.57
558.98	59824.09
559.14	59742.17
559.31	59934.10
559.47	59894.31
559.64	59861.54
559.80	59934.10
559.97	60058.15
560.13	59807.71
560.30	60102.62
560.46	59941.12
560.63	59903.67
560.79	59796.01
560.96	60067.51
561.12	59891.97
561.29	60079.21
561.45	60090.91
561.61	60072.19
561.78	59994.95
561.94	60032.40
562.11	60149.43
562.27	60009.00
562.44	60271.14
562.60	60261.77
562.77	60154.11
562.93	59959.84
563.10	60388.16
563.26	60147.09
563.42	60416.25
563.59	60266.45
563.75	60217.30
563.92	60432.63
564.08	60163.47
564.24	60360.08
564.41	60411.57
564.57	60111.98
564.74	60257.09
564.90	60240.71
565.07	60205.60
565.23	60399.86
565.39	60224.32
565.56	60484.12
565.72	60402.21
565.88	60296.88
566.05	60357.74
566.21	60231.35
566.38	60392.84
566.54	60486.46
566.70	60486.46
566.87	60603.49
567.03	60369.44
567.19	60465.40
567.36	60603.49
567.52	60402.21
567.68	60692.43
567.85	60720.52
568.01	60652.64
568.17	60509.87
568.34	60465.40
568.50	60540.30
568.66	60315.61
568.83	60509.87
568.99	60458.38
569.15	60451.36
569.32	60484.12
569.48	60825.84
569.64	60638.60
569.81	60629.24
569.97	60594.13
570.13	60786.05
570.30	60540.30
570.46	60643.28
570.62	60718.18
570.78	60561.36
570.95	60664.35
571.11	60748.60
571.27	60678.39
571.43	60680.73
571.60	61097.34
571.76	60811.80
571.92	60739.24
572.09	60811.80
572.25	60615.19
572.41	60650.30
572.57	60769.67
572.74	60928.83
572.90	60973.30
573.06	60912.44
573.22	60802.44
573.38	60776.69
573.55	60900.74
573.71	60839.89
573.87	60884.36
574.03	60917.12
574.20	60846.91
574.36	60809.46
574.52	60931.17
574.68	60891.38
574.84	61172.24
575.01	61020.11
575.17	60739.24
575.33	61013.08
575.49	60977.98
575.65	60907.76
575.82	60926.49
575.98	61041.17
576.14	61123.09
576.30	60935.85
576.46	61006.06
576.62	60795.42
576.79	60987.34
576.95	60804.78
577.11	61144.16
577.27	60891.38
577.43	60973.30
577.59	60935.85
577.75	60963.93
577.92	60987.34
578.08	61027.13
578.24	60977.98
578.40	61125.43
578.56	61261.18
578.72	61020.11
578.88	61408.64
579.04	61307.99
579.21	61031.81
579.37	61038.83
579.53	61165.22
579.69	60804.78
579.85	61141.81
580.01	60954.57
580.17	60956.91
580.33	61160.54
580.49	61120.75
580.65	60973.30
580.82	61141.81
580.98	61015.43
581.14	60762.65
581.30	61186.28
581.46	61090.32
581.62	61120.75
581.78	61045.85
581.94	61186.28
582.10	61034.15
582.26	60973.30
582.42	61169.90
582.58	61127.77
582.74	60928.83
582.90	61148.84
583.06	61055.21
583.22	61071.60
583.38	61230.75
583.54	61057.56
583.70	61066.92
583.86	61066.92
584.02	61265.86
584.18	61279.91
584.34	61261.18
584.50	61099.68
584.66	61197.99
584.82	60816.48
584.98	61216.71
585.14	61307.99
585.30	61069.26
585.46	61425.02
585.62	61326.72
585.78	61176.92
585.94	61151.18
586.10	61169.90
586.26	61258.84
586.42	61202.67
586.58	61200.33
586.74	61123.09
586.90	61221.39
587.06	61148.84
587.22	61380.55
587.38	61352.46
587.54	61315.01
587.70	61291.61
587.86	61202.67
588.02	61282.25
588.18	61315.01
588.34	61233.10
