SpectraSuite Data File
++++++++++++++++++++++++++++++++++++
Date: Fri Oct 25 11:25:36 EDT 2013
User: price-jones
Dark Spectrum Present: No
Reference Spectrum Present: No
Number of Sampled Component Spectra: 1
Spectrometers: USB2+H05261
Integration Time (usec): 100000 (USB2+H05261)
Spectra Averaged: 1 (USB2+H05261)
Boxcar Smoothing: 0 (USB2+H05261)
Correct for Electrical Dark: No (USB2+H05261)
Strobe/Lamp Enabled: No (USB2+H05261)
Correct for Detector Non-linearity: No (USB2+H05261)
Correct for Stray Light: No (USB2+H05261)
Number of Pixels in Processed Spectrum: 2048
>>>>>Begin Processed Spectral Data<<<<<
365.73	212.99
365.92	212.99
366.12	212.99
366.32	161.50
366.52	79.58
366.72	184.90
366.91	152.13
367.11	168.52
367.31	88.94
367.51	154.48
367.70	126.39
367.90	131.07
368.10	177.88
368.30	154.48
368.49	173.20
368.69	128.73
368.89	145.11
369.09	145.11
369.28	119.37
369.48	138.09
369.68	173.20
369.87	257.46
370.07	287.89
370.27	234.05
370.47	353.42
370.66	594.50
370.86	641.31
371.06	720.88
371.25	765.36
371.45	662.37
371.65	669.39
371.84	660.03
372.04	631.94
372.24	631.94
372.44	648.33
372.63	734.93
372.83	706.84
373.03	690.46
373.22	770.04
373.42	833.23
373.62	748.97
373.81	814.51
374.01	823.87
374.21	854.30
374.40	784.08
374.60	812.17
374.79	812.17
374.99	833.23
375.19	800.46
375.38	856.64
375.58	807.48
375.78	858.98
375.97	887.06
376.17	880.04
376.37	870.68
376.56	875.36
376.76	819.19
376.95	947.92
377.15	901.11
377.35	931.53
377.54	866.00
377.74	905.79
377.93	910.47
378.13	964.30
378.33	933.87
378.52	880.04
378.72	954.94
378.91	954.94
379.11	936.21
379.31	896.43
379.50	884.72
379.70	1027.50
379.89	1011.11
380.09	992.39
380.28	924.51
380.48	1025.15
380.68	1039.20
380.87	983.02
381.07	1064.94
381.26	1032.18
381.46	952.60
381.65	1018.13
381.85	1043.88
382.04	1020.47
382.24	1015.79
382.43	954.94
382.63	983.02
382.83	1048.56
383.02	1090.69
383.22	1146.86
383.41	1036.86
383.61	1032.18
383.80	1179.63
384.00	1151.54
384.19	1067.28
384.39	1198.35
384.58	1109.41
384.78	1116.44
384.97	1196.01
385.17	1139.84
385.36	1217.08
385.56	1181.97
385.75	1123.46
385.95	1186.65
386.14	1196.01
386.34	1181.97
386.53	1177.29
386.72	1198.35
386.92	1226.44
387.11	1233.46
387.31	1256.87
387.50	1151.54
387.70	1203.04
387.89	1331.76
388.09	1254.53
388.28	1266.23
388.48	1282.61
388.67	1308.36
388.86	1270.91
389.06	1455.81
389.25	1334.11
389.45	1287.29
389.64	1345.81
389.84	1320.06
390.03	1369.21
390.22	1399.64
390.42	1411.34
390.61	1357.51
390.81	1352.83
391.00	1364.53
391.19	1418.36
391.39	1409.00
391.58	1472.20
391.78	1448.79
391.97	1364.53
392.16	1502.62
392.36	1556.46
392.55	1469.86
392.75	1570.50
392.94	1495.60
393.13	1465.18
393.33	1458.15
393.52	1605.61
393.71	1504.96
393.91	1650.08
394.10	1575.18
394.29	1540.07
394.49	1493.26
394.68	1657.10
394.88	1603.27
395.07	1633.69
395.26	1647.74
395.46	1739.02
395.65	1781.15
395.84	1746.04
396.04	1797.53
396.23	1671.14
396.42	1788.17
396.62	1788.17
396.81	1741.36
397.00	1710.93
397.19	1832.64
397.39	1877.11
397.58	1760.08
397.77	1813.92
397.97	1820.94
398.16	1764.76
398.35	1912.22
398.55	1858.39
398.74	1832.64
398.93	1858.39
399.12	1921.58
399.32	1881.79
399.51	1909.88
399.70	2031.58
399.90	1930.94
400.09	1940.30
400.28	2047.97
400.47	1886.47
400.67	2176.70
400.86	2101.80
401.05	2132.23
401.24	2122.87
401.44	2085.42
401.63	2141.59
401.82	2129.89
402.01	2167.34
402.21	2106.48
402.40	2172.02
402.59	2209.47
402.78	2244.57
402.97	2296.07
403.17	2249.25
403.36	2300.75
403.55	2289.04
403.74	2377.98
403.93	2406.07
404.13	2293.72
404.32	2258.62
404.51	2377.98
404.70	2340.54
404.89	2403.73
405.09	2438.84
405.28	2399.05
405.47	2427.14
405.66	2340.54
405.85	2499.69
406.05	2417.77
406.24	2541.82
406.43	2544.16
406.62	2509.05
406.81	2684.59
407.00	2572.25
407.20	2605.02
407.39	2565.23
407.58	2619.06
407.77	2703.32
407.96	2834.39
408.15	2808.64
408.34	2766.51
408.54	2782.90
408.73	2860.13
408.92	2780.56
409.11	2864.82
409.30	2911.63
409.49	2818.00
409.68	2876.52
409.87	2874.18
410.07	2944.39
410.26	2932.69
410.45	2953.76
410.64	3103.55
410.83	3108.23
411.02	3157.38
411.21	3087.17
411.40	3129.30
411.59	3178.45
411.78	3110.57
411.98	3150.36
412.17	3286.11
412.36	3307.18
412.55	3286.11
412.74	3466.33
412.93	3398.46
413.12	3239.30
413.31	3510.80
413.50	3426.54
413.69	3499.10
413.88	3574.00
414.07	3421.86
414.26	3646.55
414.45	3581.02
414.64	3655.92
414.83	3695.71
415.02	3712.09
415.22	3794.01
415.41	3906.35
415.60	3915.72
415.79	3880.61
415.98	3992.95
416.17	3845.50
416.36	4002.32
416.55	4014.02
416.74	4093.60
416.93	4065.51
417.12	4053.81
417.31	4074.87
417.50	4271.48
417.69	4194.24
417.88	4264.46
418.07	4337.01
418.26	4369.78
418.45	4388.50
418.64	4531.28
418.83	4514.89
419.02	4278.50
419.21	4505.53
419.39	4337.01
419.58	4573.41
419.77	4477.44
419.96	4430.63
420.15	4458.72
420.34	4510.21
420.53	4727.88
420.72	4702.14
420.91	4716.18
421.10	4531.28
421.29	4798.10
421.48	4615.54
421.67	4767.67
421.86	4798.10
422.05	4865.97
422.24	4875.34
422.43	4793.42
422.61	4891.72
422.80	4954.91
422.99	4746.61
423.18	4856.61
423.37	5032.15
423.56	4880.02
423.75	4877.68
423.94	4788.74
424.13	4589.79
424.32	4793.42
424.50	4952.57
424.69	4926.83
424.88	5100.03
425.07	5029.81
425.26	4912.78
425.45	5071.94
425.64	4940.87
425.83	5011.09
426.01	5020.45
426.20	4980.66
426.39	5074.28
426.58	5001.72
426.77	4983.00
426.96	5135.14
427.15	5188.97
427.33	5088.32
427.52	4999.38
427.71	5240.46
427.90	5369.19
428.09	5261.52
428.28	5170.24
428.46	5266.21
428.65	5308.34
428.84	5511.96
429.03	5591.54
429.22	5263.86
429.40	5291.95
429.59	5406.64
429.78	5439.40
429.97	5256.84
430.16	5547.07
430.34	5579.84
430.53	5748.36
430.72	5638.35
430.91	5610.26
431.10	5493.24
431.28	5736.65
431.47	5832.62
431.66	5891.13
431.85	5790.49
432.03	5954.32
432.22	5933.26
432.41	5771.76
432.60	5820.91
432.79	6024.54
432.97	6090.07
433.16	5919.21
433.35	5886.45
433.54	6099.44
433.72	5926.24
433.91	6076.03
434.10	6160.29
434.28	6090.07
434.47	6169.65
434.66	6092.41
434.85	6193.06
435.03	6282.00
435.22	6143.91
435.41	6384.98
435.59	6338.17
435.78	6375.62
435.97	6649.46
436.16	6483.28
436.34	6604.99
436.53	6548.82
436.72	6497.33
436.90	6487.96
437.09	6511.37
437.28	6572.22
437.46	6567.54
437.65	6544.14
437.84	6761.81
438.02	6874.15
438.21	6684.57
438.40	6640.10
438.58	6925.65
438.77	6874.15
438.96	6902.24
439.14	6953.73
439.33	7250.98
439.52	7288.43
439.70	7248.64
439.89	7215.87
440.08	7304.81
440.26	7379.71
440.45	7468.65
440.63	7559.93
440.82	7496.74
441.01	7400.77
441.19	7604.40
441.38	7630.15
441.57	7637.17
441.75	7880.58
441.94	7889.95
442.12	7918.03
442.31	7775.26
442.50	7992.93
442.68	7943.78
442.87	8074.85
443.05	8011.65
443.24	8102.93
443.43	8028.04
443.61	8109.96
443.80	8454.02
443.98	7978.89
444.17	8063.15
444.35	8262.09
444.54	8198.90
444.73	8241.03
444.91	8458.70
445.10	8182.51
445.28	8367.42
445.47	8149.75
445.65	8283.16
445.84	8631.90
446.02	8531.25
446.21	8439.97
446.39	8177.83
446.58	8430.61
446.77	8444.65
446.95	8264.43
447.14	8404.86
447.32	8596.79
447.51	8470.40
447.69	8482.10
447.88	8446.99
448.06	8601.47
448.25	8547.64
448.43	8720.84
448.62	8638.92
448.80	8568.70
448.99	8430.61
449.17	8732.54
449.36	8758.28
449.54	8959.57
449.73	8870.63
449.91	9205.33
450.10	8901.06
450.28	9046.17
450.46	9085.96
450.65	8908.08
450.83	9102.34
451.02	8994.68
451.20	9247.46
451.39	9177.24
451.57	9046.17
451.76	9057.87
451.94	9191.28
452.13	9345.76
452.31	9294.27
452.49	9188.94
452.68	9357.46
452.86	9167.88
453.05	9411.29
453.23	9500.23
453.42	9472.15
453.60	9544.70
453.78	9593.86
453.97	9432.36
454.15	9544.70
454.34	9322.35
454.52	9804.50
454.70	9748.33
454.89	9788.12
455.07	9973.02
455.26	9750.67
455.44	10092.39
455.62	9949.62
455.81	9886.42
455.99	10125.16
456.17	10029.20
456.36	10064.30
456.54	10146.22
456.73	10157.92
456.91	10649.44
457.09	10443.47
457.28	10523.05
457.46	10277.29
457.64	10555.82
457.83	10581.56
458.01	10560.50
458.19	10438.79
458.38	10450.49
458.56	10682.20
458.74	10509.01
458.93	10654.12
459.11	10738.38
459.29	10693.91
459.48	10565.18
459.66	10764.12
459.84	10892.85
460.03	10909.24
460.21	10963.07
460.39	10965.41
460.57	10946.69
460.76	11063.71
460.94	11052.01
461.12	11211.17
461.31	11269.68
461.49	11133.93
461.67	11321.17
461.85	11449.90
462.04	11424.15
462.22	11672.25
462.40	11543.52
462.59	11726.08
462.77	11548.20
462.95	11611.40
463.13	11426.50
463.32	11784.60
463.50	11648.85
463.68	11845.45
463.86	12004.61
464.05	11698.00
464.23	11721.40
464.41	11714.38
464.59	11653.53
464.78	12102.91
464.96	11878.22
465.14	11730.76
465.32	12009.29
465.50	11901.62
465.69	12184.83
465.87	12173.13
466.05	12203.55
466.23	12187.17
466.41	12182.49
466.60	12341.64
466.78	12196.53
466.96	12177.81
467.14	12273.77
467.32	12290.15
467.51	12585.06
467.69	12229.30
467.87	12308.88
468.05	12678.68
468.23	12339.30
468.41	12526.55
468.60	12458.67
468.78	12814.43
468.96	12306.54
469.14	12666.98
469.32	12819.11
469.50	12559.31
469.69	13055.51
469.87	12840.18
470.05	12760.60
470.23	13186.58
470.41	13102.32
470.59	13336.37
470.77	12933.80
470.95	13125.72
471.14	13720.22
471.32	13156.15
471.50	13614.90
471.68	13479.15
471.86	13462.76
472.04	13692.13
472.22	14150.88
472.40	13762.35
472.58	13610.22
472.77	13961.30
472.95	13973.00
473.13	14398.98
473.31	13839.59
473.49	14080.66
473.67	14249.18
473.85	14366.21
474.03	14843.68
474.21	14691.54
474.39	14686.86
474.57	14869.42
474.75	14785.16
474.93	14820.27
475.12	15173.69
475.30	14867.08
475.48	14766.44
475.66	15143.27
475.84	15157.31
476.02	15255.61
476.20	15344.55
476.38	15681.59
476.56	15847.77
476.74	15985.86
476.92	15508.39
477.10	15452.22
477.28	16189.49
477.46	16093.52
477.64	16121.61
477.82	16636.53
478.00	16851.86
478.18	16748.87
478.36	16996.97
478.54	17242.73
478.72	17291.88
478.90	17209.96
479.08	17345.71
479.26	17554.02
479.44	17544.66
479.62	17806.80
479.80	17954.25
479.98	18270.22
480.16	18441.08
480.34	18295.97
480.52	18553.43
480.70	18387.25
480.88	18445.76
481.06	18602.58
481.24	18740.67
481.41	19056.64
481.59	19297.72
481.77	19381.98
481.95	19697.95
482.13	19494.32
482.31	19351.55
482.49	20482.03
482.67	19908.60
482.85	20379.04
483.03	20463.30
483.21	20631.82
483.39	20952.48
483.57	20781.62
483.74	20863.54
483.92	21261.43
484.10	21216.96
484.28	21308.24
484.46	21979.97
484.64	22340.41
484.82	21827.84
485.00	22408.29
485.18	22614.26
485.35	22621.28
485.53	22632.98
485.71	23037.89
485.89	23517.70
486.07	23407.70
486.25	23386.63
486.43	23171.30
486.61	23688.56
486.78	24294.76
486.96	24264.33
487.14	24205.82
487.32	24570.94
487.50	24861.17
487.68	25109.27
487.85	25001.60
488.03	25621.84
488.21	25596.10
488.39	25671.00
488.57	25841.85
488.75	26146.12
488.92	26565.08
489.10	26394.22
489.28	26740.62
489.46	27040.21
489.64	26794.45
489.81	27370.22
489.99	27456.82
490.17	27793.86
490.35	27761.09
490.53	27819.61
490.70	28264.31
490.88	28180.05
491.06	28575.60
491.24	28828.38
491.41	28982.85
491.59	29172.44
491.77	29048.39
491.95	29284.78
492.13	29685.01
492.30	30225.68
492.48	29888.64
492.66	29830.13
492.84	30319.30
493.01	30635.27
493.19	30646.97
493.37	30792.09
493.54	31136.15
493.72	31124.44
493.90	31311.69
494.08	31754.05
494.25	32130.87
494.43	31908.52
494.61	31915.54
494.79	32294.71
494.96	32168.32
495.14	32500.68
495.32	33254.33
495.49	33275.40
495.67	33308.16
495.85	33476.68
496.02	33502.43
496.20	34071.18
496.38	33734.14
496.55	33881.60
496.73	34981.65
496.91	34279.49
497.09	34939.52
497.26	34803.77
497.44	34972.28
497.62	35117.40
497.79	35412.31
497.97	34983.99
498.14	35688.49
498.32	35690.83
498.50	35915.52
498.67	36383.63
498.85	35978.72
499.03	36673.85
499.20	36680.88
499.38	36786.20
499.56	37202.82
499.73	36978.12
499.91	37111.53
500.08	37436.87
500.26	37083.45
500.44	37205.16
500.61	38007.96
500.79	37584.32
500.97	37703.69
501.14	38499.47
501.32	38595.43
501.49	38277.12
501.67	38614.16
501.84	38934.81
502.02	38548.62
502.20	38866.94
502.37	38972.26
502.55	38944.17
502.72	39566.76
502.90	39342.06
503.07	39494.20
503.25	39856.98
503.43	39751.66
503.60	39894.43
503.78	40201.04
503.95	40128.48
504.13	40472.54
504.30	40823.62
504.48	40034.86
504.65	40905.54
504.83	40863.41
505.01	40935.97
505.18	41172.36
505.36	41221.52
505.53	41172.36
505.71	41549.19
505.88	41572.60
506.06	41581.96
506.23	42429.23
506.41	41287.05
506.58	42036.02
506.76	42026.66
506.93	42459.66
507.11	42171.77
507.28	42703.07
507.46	42784.99
507.63	42698.39
507.81	43372.47
507.98	42965.21
508.16	42672.65
508.33	43278.85
508.50	43344.38
508.68	43454.39
508.85	43524.60
509.03	43648.65
509.20	43662.69
509.38	44109.74
509.55	44346.13
509.73	44128.46
509.90	44395.28
510.08	44458.48
510.25	44961.69
510.42	44479.54
510.60	44514.65
510.77	45521.08
510.95	45315.11
511.12	44818.92
511.30	45181.70
511.47	45059.99
511.64	45649.81
511.82	45514.06
511.99	45642.79
512.17	45593.64
512.34	46094.51
512.51	46094.51
512.69	46225.58
512.86	46087.49
513.04	46480.70
513.21	46616.45
513.38	46801.35
513.56	46801.35
513.73	46759.22
513.90	46553.26
514.08	46686.67
514.25	47112.64
514.43	47660.33
514.60	47545.64
514.77	47215.63
514.95	47728.20
515.12	47498.83
515.29	47381.80
515.47	47875.66
515.64	47966.94
515.81	47885.02
515.99	47999.71
516.16	48105.03
516.33	48119.07
516.51	48734.63
516.68	48545.05
516.85	48341.42
517.03	48762.72
517.20	48811.87
517.37	48849.32
517.54	48505.26
517.72	48919.54
517.89	48720.59
518.06	49202.74
518.24	49132.53
518.41	49111.46
518.58	49539.78
518.75	49083.37
518.93	49532.76
519.10	49282.32
519.27	49425.09
519.45	49654.47
519.62	49542.12
519.79	50059.38
519.96	49584.25
520.14	50178.75
520.31	49900.22
520.48	50188.11
520.65	50153.00
520.83	50429.18
521.00	50693.66
521.17	50511.10
521.34	50693.66
521.52	50630.47
521.69	50787.28
521.86	50616.43
522.03	50754.52
522.20	51133.68
522.38	51400.50
522.55	51236.67
522.72	51449.66
522.89	51283.48
523.07	51538.60
523.24	51622.86
523.41	51515.19
523.58	51290.50
523.75	51732.86
523.92	51487.10
524.10	51683.71
524.27	52013.73
524.44	51859.25
524.61	52058.20
524.78	52086.28
524.96	52055.85
525.13	52254.80
525.30	52413.96
525.47	52432.68
525.64	52231.40
525.81	52573.11
525.98	52413.96
526.16	52205.65
526.33	52444.38
526.50	52905.47
526.67	52886.74
526.84	52875.04
527.01	52561.41
527.18	52743.97
527.36	52556.73
527.53	53279.96
527.70	53329.11
527.87	53406.34
528.04	53298.68
528.21	53310.38
528.38	53020.16
528.55	53357.19
528.72	53392.30
528.89	53371.24
529.07	53329.11
529.24	53378.26
529.41	53450.81
529.58	53736.36
529.75	53642.74
529.92	53656.78
530.09	53694.23
530.26	53755.08
530.43	53710.61
530.60	53879.13
530.77	53818.28
530.94	53972.75
531.11	53872.11
531.28	54049.99
531.46	54003.18
531.63	54028.93
531.80	54054.67
531.97	54227.87
532.14	54241.92
532.31	54127.23
532.48	54387.03
532.65	54452.56
532.82	54452.56
532.99	54614.06
533.16	54539.16
533.33	54820.03
533.50	54925.35
533.67	54754.49
533.84	54480.65
534.01	54899.61
534.18	54810.67
534.35	55185.15
534.52	54824.71
534.69	55189.83
534.86	55243.66
535.03	54752.15
535.20	55182.81
535.37	55077.49
535.54	55330.26
535.71	55138.34
535.88	55395.80
536.05	55196.85
536.22	55496.44
536.38	55592.40
536.55	55320.90
536.72	55536.23
536.89	55348.99
537.06	55444.95
537.23	55800.71
537.40	55423.89
537.57	55824.12
537.74	55721.13
537.91	55941.14
538.08	55922.42
538.25	55641.56
538.42	55920.08
538.59	56147.11
538.75	55906.04
538.92	56069.87
539.09	56189.24
539.26	56018.38
539.43	55973.91
539.60	56002.00
539.77	56193.92
539.94	56411.59
540.11	56214.99
540.28	56425.64
540.44	56371.80
540.61	56353.08
540.78	56285.20
540.95	56367.12
541.12	56121.37
541.29	56439.68
541.46	56608.20
541.62	56474.79
541.79	56629.26
541.96	56301.59
542.13	56540.32
542.30	56495.85
542.47	56610.54
542.63	56865.66
542.80	57130.14
542.97	57116.09
543.14	57343.12
543.31	57043.54
543.48	57036.51
543.64	57270.57
543.81	57448.45
543.98	57240.14
544.15	57176.95
544.32	57249.50
544.48	57551.43
544.65	57263.55
544.82	57694.21
544.99	57296.31
545.16	57502.28
545.32	57448.45
545.49	57638.03
545.66	57368.87
545.83	57495.26
546.00	57649.74
546.16	57544.41
546.33	57455.47
546.50	57329.08
546.67	57771.44
546.83	57364.19
547.00	57829.96
547.17	57694.21
547.34	57712.93
547.50	57965.71
547.67	57841.66
547.84	57628.67
548.00	57979.75
548.17	58272.32
548.34	58220.83
548.51	58134.23
548.67	58141.25
548.84	58155.29
549.01	57996.13
549.18	58124.86
549.34	58099.12
549.51	58302.74
549.68	58323.81
549.84	58365.94
550.01	58445.52
550.18	58047.63
550.34	58618.72
550.51	58494.67
550.68	58141.25
550.84	58101.46
551.01	58387.00
551.18	58508.71
551.34	58497.01
551.51	58424.45
551.68	58440.84
551.84	58644.46
552.01	58365.94
552.18	58646.80
552.34	58515.73
552.51	58518.07
552.68	58389.34
552.84	58674.89
553.01	58836.39
553.18	58646.80
553.34	58876.18
553.51	58445.52
553.67	58747.45
553.84	58908.94
554.01	58897.24
554.17	59040.01
554.34	58815.32
554.51	58885.54
554.67	58995.54
554.84	58836.39
555.00	58794.26
555.17	58930.01
555.33	59077.46
555.50	58824.68
555.67	58834.05
555.83	59007.25
556.00	58866.81
556.16	59348.96
556.33	59288.11
556.50	59035.33
556.66	59278.75
556.83	59056.40
556.99	59236.62
557.16	59568.97
557.32	59339.60
557.49	59554.93
557.65	59423.86
557.82	59325.56
557.98	59318.54
558.15	59133.63
558.32	59412.16
558.48	59377.05
558.65	59407.48
558.81	59426.20
558.98	59400.46
559.14	59608.76
559.31	59592.38
559.47	59576.00
559.64	59629.83
559.80	59613.44
559.97	59774.94
560.13	59641.53
560.30	59730.47
560.46	59683.66
560.63	59594.72
560.79	59531.53
560.96	59725.79
561.12	59854.52
561.29	59803.03
561.45	59889.63
561.61	59650.89
561.78	59744.51
561.94	59723.45
562.11	59842.82
562.27	59934.10
562.44	60111.98
562.60	59882.61
562.77	59938.78
562.93	59784.30
563.10	60060.49
563.26	59737.49
563.42	60009.00
563.59	59819.41
563.75	60039.42
563.92	59906.01
564.08	59849.84
564.24	60065.17
564.41	59777.28
564.57	59973.89
564.74	60030.06
564.90	60011.34
565.07	60198.58
565.23	59957.50
565.39	60130.70
565.56	60200.92
565.72	59927.08
565.88	60226.66
566.05	59943.46
566.21	60114.32
566.38	59887.29
566.54	60149.43
566.70	60182.19
566.87	60210.28
567.03	60280.50
567.19	60369.44
567.36	60306.24
567.52	59943.46
567.68	60395.18
567.85	60247.73
568.01	60313.26
568.17	60200.92
568.34	60364.76
568.50	60163.47
568.66	60280.50
568.83	60409.23
568.99	60090.91
569.15	60266.45
569.32	60163.47
569.48	60348.37
569.64	60486.46
569.81	60367.10
569.97	60170.49
570.13	60458.38
570.30	60275.82
570.46	60172.83
570.62	60282.84
570.78	60566.04
570.95	60434.97
571.11	60481.78
571.27	60292.20
571.43	60327.31
571.60	60591.79
571.76	60397.52
571.92	60795.42
572.09	60449.02
572.25	60608.17
572.41	60601.15
572.57	60479.44
572.74	60781.37
572.90	60575.40
573.06	60397.52
573.22	60575.40
573.38	60331.99
573.55	60701.79
573.71	60729.88
573.87	60645.62
574.03	60470.08
574.20	60781.37
574.36	60530.93
574.52	60809.46
574.68	60549.66
574.84	60441.99
575.01	60652.64
575.17	60821.16
575.33	60631.58
575.49	60713.50
575.65	60697.11
575.82	60680.73
575.98	60657.32
576.14	60825.84
576.30	60797.76
576.46	60685.41
576.62	60662.00
576.79	60823.50
576.95	60685.41
577.11	60814.14
577.27	60530.93
577.43	60786.05
577.59	60893.72
577.75	60612.85
577.92	60500.51
578.08	60772.01
578.24	60802.44
578.40	61055.21
578.56	60828.18
578.72	60797.76
578.88	60949.89
579.04	60837.54
579.21	60757.97
579.37	61001.38
579.53	60800.10
579.69	60739.24
579.85	60645.62
580.01	60617.53
580.17	60530.93
580.33	60753.29
580.49	60863.29
580.65	60863.29
580.82	60867.97
580.98	60779.03
581.14	60748.60
581.30	60970.96
581.46	60767.33
581.62	60804.78
581.78	60734.56
581.94	60893.72
582.10	61022.45
582.26	60839.89
582.42	60669.03
582.58	60837.54
582.74	60877.33
582.90	60919.46
583.06	60987.34
583.22	60858.61
583.38	60727.54
583.54	60910.10
583.70	60818.82
583.86	60963.93
584.02	60725.20
584.18	61146.50
584.34	60926.49
584.50	61024.79
584.66	60807.12
584.82	60903.08
584.98	61132.45
585.14	61001.38
585.30	60963.93
585.46	61078.62
585.62	60970.96
585.78	61116.07
585.94	60793.07
586.10	61050.53
586.26	61013.08
586.42	61020.11
586.58	61102.03
586.74	60949.89
586.90	60926.49
587.06	60825.84
587.22	60996.70
587.38	60987.34
587.54	61254.16
587.70	61080.96
587.86	61134.79
588.02	61059.90
588.18	61174.58
588.34	61064.58
588.49	60949.89
