SpectraSuite Data File
++++++++++++++++++++++++++++++++++++
Date: Fri Oct 25 11:22:43 EDT 2013
User: price-jones
Dark Spectrum Present: No
Reference Spectrum Present: No
Number of Sampled Component Spectra: 1
Spectrometers: USB2+H05261
Integration Time (usec): 100000 (USB2+H05261)
Spectra Averaged: 1 (USB2+H05261)
Boxcar Smoothing: 0 (USB2+H05261)
Correct for Electrical Dark: No (USB2+H05261)
Strobe/Lamp Enabled: No (USB2+H05261)
Correct for Detector Non-linearity: No (USB2+H05261)
Correct for Stray Light: No (USB2+H05261)
Number of Pixels in Processed Spectrum: 2048
>>>>>Begin Processed Spectral Data<<<<<
365.73	210.65
365.92	210.65
366.12	210.65
366.32	126.39
366.52	194.26
366.72	133.41
366.91	110.01
367.11	133.41
367.31	88.94
367.51	72.56
367.70	44.47
367.90	128.73
368.10	154.48
368.30	102.98
368.49	184.90
368.69	133.41
368.89	159.16
369.09	175.54
369.28	105.32
369.48	105.32
369.68	142.77
369.87	220.01
370.07	210.65
370.27	198.95
370.47	287.89
370.66	603.86
370.86	685.78
371.06	664.71
371.25	692.80
371.45	734.93
371.65	706.84
371.84	730.25
372.04	699.82
372.24	653.01
372.44	671.73
372.63	727.91
372.83	720.88
373.03	739.61
373.22	788.76
373.42	709.18
373.62	809.83
373.81	807.48
374.01	786.42
374.21	873.02
374.40	809.83
374.60	863.66
374.79	837.91
374.99	823.87
375.19	835.57
375.38	805.14
375.58	828.55
375.78	849.61
375.97	910.47
376.17	826.21
376.37	877.70
376.56	887.06
376.76	877.70
376.95	947.92
377.15	863.66
377.35	847.27
377.54	957.28
377.74	873.02
377.93	894.08
378.13	908.13
378.33	929.19
378.52	917.49
378.72	936.21
378.91	922.17
379.11	887.06
379.31	884.72
379.50	976.00
379.70	1011.11
379.89	945.58
380.09	961.96
380.28	980.68
380.48	940.90
380.68	950.26
380.87	1004.09
381.07	1043.88
381.26	992.39
381.46	980.68
381.65	992.39
381.85	1011.11
382.04	999.41
382.24	1032.18
382.43	1118.78
382.63	997.07
382.83	1172.61
383.02	1088.35
383.22	994.73
383.41	1041.54
383.61	1039.20
383.80	1116.44
384.00	1001.75
384.19	1174.95
384.39	1121.12
384.58	1181.97
384.78	1125.80
384.97	1149.20
385.17	1104.73
385.36	1135.16
385.56	1090.69
385.75	1181.97
385.95	1188.99
386.14	1135.16
386.34	1137.50
386.53	1315.38
386.72	1238.14
386.92	1245.16
387.11	1172.61
387.31	1210.06
387.50	1146.86
387.70	1266.23
387.89	1273.25
388.09	1327.08
388.28	1287.29
388.48	1355.17
388.67	1343.47
388.86	1308.36
389.06	1275.59
389.25	1336.45
389.45	1291.98
389.64	1289.64
389.84	1387.94
390.03	1301.34
390.22	1514.33
390.42	1313.04
390.61	1364.53
390.81	1366.87
391.00	1427.73
391.19	1493.26
391.39	1441.77
391.58	1458.15
391.78	1486.24
391.97	1373.89
392.16	1380.92
392.36	1500.28
392.55	1453.47
392.75	1572.84
392.94	1448.79
393.13	1507.30
393.33	1504.96
393.52	1427.73
393.71	1603.27
393.91	1596.25
394.10	1521.35
394.29	1664.12
394.49	1540.07
394.68	1715.61
394.88	1607.95
395.07	1638.38
395.26	1633.69
395.46	1626.67
395.65	1666.46
395.84	1776.47
396.04	1715.61
396.23	1729.66
396.42	1757.74
396.62	1834.98
396.81	1706.25
397.00	1708.59
397.19	1799.87
397.39	1757.74
397.58	1867.75
397.77	1891.15
397.97	1802.21
398.16	1811.57
398.35	1926.26
398.55	1795.19
398.74	1900.52
398.93	1954.35
399.12	1933.28
399.32	1926.26
399.51	1844.34
399.70	1977.75
399.90	1987.11
400.09	2010.52
400.28	2008.18
400.47	2092.44
400.67	2003.50
400.86	2036.27
401.05	2033.93
401.24	2003.50
401.44	2129.89
401.63	2181.38
401.82	2214.15
402.01	2146.27
402.21	2026.90
402.40	2050.31
402.59	2179.04
402.78	2172.02
402.97	2277.34
403.17	2249.25
403.36	2279.68
403.55	2424.80
403.74	2415.43
403.93	2305.43
404.13	2401.39
404.32	2394.37
404.51	2352.24
404.70	2392.03
404.89	2417.77
405.09	2487.99
405.28	2459.90
405.47	2462.24
405.66	2434.16
405.85	2516.08
406.05	2574.59
406.24	2644.81
406.43	2590.97
406.62	2567.57
406.81	2700.98
407.00	2621.40
407.20	2626.08
407.39	2647.15
407.58	2745.45
407.77	2724.38
407.96	2801.62
408.15	2871.84
408.34	2656.51
408.54	2801.62
408.73	2708.00
408.92	2848.43
409.11	2951.42
409.30	2815.66
409.49	2946.73
409.68	3014.61
409.87	2913.97
410.07	3045.04
410.26	2906.95
410.45	3169.09
410.64	3045.04
410.83	3007.59
411.02	3110.57
411.21	3173.77
411.40	3054.40
411.59	3269.73
411.78	3152.70
411.98	3276.75
412.17	3241.64
412.36	3241.64
412.55	3438.25
412.74	3375.05
412.93	3468.67
413.12	3485.06
413.31	3655.92
413.50	3527.19
413.69	3616.13
413.88	3555.27
414.07	3592.72
414.26	3581.02
414.45	3716.77
414.64	3634.85
414.83	3768.26
415.02	3705.07
415.22	3756.56
415.41	3918.06
415.60	3885.29
415.79	3826.78
415.98	4007.00
416.17	4030.40
416.36	3950.82
416.55	3899.33
416.74	4072.53
416.93	4121.68
417.12	4234.03
417.31	4173.18
417.50	4187.22
417.69	4264.46
417.88	4393.19
418.07	4229.35
418.26	4273.82
418.45	4315.95
418.64	4374.46
418.83	4461.06
419.02	4435.32
419.21	4493.83
419.39	4479.79
419.58	4423.61
419.77	4524.26
419.96	4512.55
420.15	4596.81
420.34	4540.64
420.53	4559.36
420.72	4589.79
420.91	4685.75
421.10	4753.63
421.29	4779.37
421.48	4702.14
421.67	4819.16
421.86	4718.52
422.05	4802.78
422.24	4723.20
422.43	4877.68
422.61	4889.38
422.80	4863.63
422.99	4961.94
423.18	4933.85
423.37	4908.10
423.56	4854.27
423.75	4809.80
423.94	4854.27
424.13	4650.64
424.32	4748.95
424.50	4950.23
424.69	5139.82
424.88	5200.67
425.07	4990.02
425.26	4954.91
425.45	4959.60
425.64	4849.59
425.83	5078.96
426.01	5114.07
426.20	4929.17
426.39	5104.71
426.58	4980.66
426.77	5055.56
426.96	5123.43
427.15	5158.54
427.33	5298.97
427.52	5034.49
427.71	5348.12
427.90	5331.74
428.09	5392.59
428.28	5462.81
428.46	5416.00
428.65	5144.50
428.84	5509.62
429.03	5511.96
429.22	5376.21
429.40	5462.81
429.59	5486.22
429.78	5390.25
429.97	5444.09
430.16	5373.87
430.34	5542.39
430.53	5577.50
430.72	5806.87
430.91	5556.43
431.10	5678.14
431.28	5846.66
431.47	5923.90
431.66	5849.00
431.85	5799.85
432.03	6008.16
432.22	6078.37
432.41	5949.64
432.60	5951.98
432.79	5912.19
432.97	6031.56
433.16	6001.13
433.35	6036.24
433.54	6076.03
433.72	6071.35
433.91	6054.97
434.10	6036.24
434.28	6052.63
434.47	6167.31
434.66	6193.06
434.85	6333.49
435.03	6204.76
435.22	6347.53
435.41	6408.39
435.59	6338.17
435.78	6476.26
435.97	6497.33
436.16	6464.56
436.34	6314.77
436.53	6530.09
436.72	6595.63
436.90	6480.94
437.09	6707.98
437.28	6408.39
437.46	6497.33
437.65	6530.09
437.84	6949.05
438.02	6647.12
438.21	6693.93
438.40	6553.50
438.58	7040.33
438.77	7138.63
438.96	6876.49
439.14	7176.08
439.33	7201.83
439.52	7206.51
439.70	7269.70
439.89	7452.27
440.08	7461.63
440.26	7232.26
440.45	7232.26
440.63	7454.61
440.82	7393.75
441.01	7475.67
441.19	7595.04
441.38	7761.22
441.57	7669.94
441.75	7859.52
441.94	7997.61
442.12	7978.89
442.31	7936.76
442.50	8049.10
442.68	8154.43
442.87	8114.64
443.05	8138.04
443.24	8355.71
443.43	8079.53
443.61	8112.30
443.80	8250.39
443.98	8072.51
444.17	7981.23
444.35	8201.24
444.54	8432.95
444.73	8526.57
444.91	8271.45
445.10	8313.58
445.28	8273.79
445.47	8271.45
445.65	8372.10
445.84	8458.70
446.02	8561.68
446.21	8528.91
446.39	8493.80
446.58	8449.33
446.77	8526.57
446.95	8365.07
447.14	8566.36
447.32	8458.70
447.51	8493.80
447.69	8437.63
447.88	8655.30
448.06	8582.74
448.25	8603.81
448.43	8477.42
448.62	8709.13
448.80	8472.74
448.99	8608.49
449.17	8720.84
449.36	8636.58
449.54	8669.34
449.73	8723.18
449.91	9114.05
450.10	9078.94
450.28	9263.84
450.46	9083.62
450.65	9132.77
450.83	9081.28
451.02	9329.38
451.20	9092.98
451.39	9366.82
451.57	9156.18
451.76	9097.66
451.94	9107.02
452.13	9301.29
452.31	9174.90
452.49	9137.45
452.68	9465.13
452.86	9263.84
453.05	9565.77
453.23	9427.68
453.42	9308.31
453.60	9586.83
453.78	9537.68
453.97	9675.77
454.15	9399.59
454.34	9500.23
454.52	9877.06
454.70	9640.67
454.89	9834.93
455.07	9722.59
455.26	9942.60
455.44	9776.42
455.62	9942.60
455.81	9891.10
455.99	10076.01
456.17	10225.80
456.36	10122.82
456.54	10178.99
456.73	10223.46
456.91	10558.16
457.09	10576.88
457.28	10499.64
457.46	10363.89
457.64	10394.32
457.83	10359.21
458.01	10424.75
458.19	10616.67
458.38	10373.25
458.56	10897.53
458.74	10604.97
458.93	10490.28
459.11	10665.82
459.29	10796.89
459.48	10668.16
459.66	10829.66
459.84	10911.58
460.03	11007.54
460.21	11002.86
460.39	11042.65
460.57	11185.42
460.76	10965.41
460.94	11154.99
461.12	11232.23
461.31	11147.97
461.49	11030.94
461.67	11412.45
461.85	11421.81
462.04	11407.77
462.22	11999.93
462.40	11779.92
462.59	11372.66
462.77	11454.58
462.95	11616.08
463.13	11543.52
463.32	11508.41
463.50	11676.93
463.68	11906.31
463.86	11784.60
464.05	11648.85
464.23	11630.12
464.41	11808.00
464.59	11751.83
464.78	12210.57
464.96	11889.92
465.14	11992.90
465.32	11854.81
465.50	12119.29
465.69	12358.03
465.87	12203.55
466.05	12248.02
466.23	12161.42
466.41	12074.82
466.60	12458.67
466.78	12182.49
466.96	12175.47
467.14	12308.88
467.32	12421.22
467.51	12678.68
467.69	12142.70
467.87	12353.35
468.05	12556.97
468.23	12624.85
468.41	12346.33
468.60	12648.26
468.78	12662.30
468.96	12760.60
469.14	12643.57
469.32	12996.99
469.50	12769.96
469.69	12765.28
469.87	13144.45
470.05	13177.22
470.23	13160.83
470.41	13074.23
470.59	13069.55
470.77	13284.88
470.95	13224.03
471.14	13315.31
471.32	13238.07
471.50	13493.19
471.68	13551.70
471.86	13771.71
472.04	13699.16
472.22	14122.79
472.40	13659.37
472.58	13935.55
472.77	14031.51
472.95	14099.39
473.13	14459.83
473.31	14190.67
473.49	14038.53
473.67	14438.76
473.85	14249.18
474.03	14539.41
474.21	14593.24
474.39	14745.38
474.57	14855.38
474.75	14693.88
474.93	15187.74
475.12	14927.94
475.30	14960.70
475.48	15272.00
475.66	15253.27
475.84	15243.91
476.02	15445.20
476.20	15304.76
476.38	15894.58
476.56	15747.12
476.74	15922.66
476.92	15751.81
477.10	15726.06
477.28	16240.98
477.46	16425.88
477.64	16243.32
477.82	16627.17
478.00	16924.41
478.18	16978.25
478.36	16783.98
478.54	17095.27
478.72	16992.29
478.90	17263.79
479.08	17647.64
479.26	17610.19
479.44	17539.97
479.62	17788.07
479.80	18279.58
479.98	18136.81
480.16	18752.37
480.34	18349.80
480.52	18616.62
480.70	18607.26
480.88	18340.44
481.06	18677.48
481.24	19061.32
481.41	19040.26
481.59	19220.48
481.77	19648.80
481.95	19506.02
482.13	19829.02
482.31	19875.83
482.49	20329.89
482.67	20374.36
482.85	20589.69
483.03	20610.76
483.21	20723.10
483.39	20809.70
483.57	20938.43
483.74	21163.12
483.92	21455.69
484.10	21532.93
484.28	21549.31
484.46	21982.31
484.64	22225.73
484.82	22010.40
485.00	22361.48
485.18	22707.88
485.35	23227.48
485.53	23157.26
485.71	23087.04
485.89	23412.38
486.07	23726.01
486.25	23599.62
486.43	23585.58
486.61	23681.54
486.78	24149.65
486.96	23889.85
487.14	24854.15
487.32	24835.42
487.50	24720.74
487.68	25135.01
487.85	25177.14
488.03	25544.61
488.21	25549.29
488.39	25474.39
488.57	26106.34
488.75	26052.50
488.92	26916.16
489.10	26841.26
489.28	26808.50
489.46	27463.85
489.64	27337.46
489.81	27360.86
489.99	27639.39
490.17	28126.22
490.35	28053.66
490.53	28301.76
490.70	29041.37
490.88	28460.91
491.06	28725.39
491.24	28936.04
491.41	28758.16
491.59	29336.27
491.77	29736.51
491.95	29612.46
492.13	29933.11
492.30	29626.50
492.48	30085.25
492.66	30443.35
492.84	30366.11
493.01	30651.66
493.19	30810.81
493.37	31087.00
493.54	31082.31
493.72	31754.05
493.90	31309.35
494.08	31952.99
494.25	32219.81
494.43	32278.33
494.61	32067.68
494.79	32563.87
494.96	32446.85
495.14	32776.86
495.32	33041.34
495.49	33366.68
495.67	33373.70
495.85	33762.23
496.02	33926.07
496.20	34291.19
496.38	34246.72
496.55	34139.05
496.73	35166.55
496.91	34330.98
497.09	34864.62
497.26	35138.46
497.44	35063.57
497.62	35515.29
497.79	35625.29
497.97	35920.20
498.14	36114.47
498.32	36217.45
498.50	36084.04
498.67	36723.01
498.85	36477.25
499.03	36893.86
499.20	36765.14
499.38	37141.96
499.56	37212.18
499.73	37560.92
499.91	37364.31
500.08	37584.32
500.26	37160.69
500.44	37937.74
500.61	38066.47
500.79	37392.40
500.97	38211.59
501.14	38740.55
501.32	38785.02
501.49	38621.18
501.67	38852.89
501.84	38883.32
502.02	39262.49
502.20	39253.12
502.37	39395.90
502.55	39196.95
502.72	39672.08
502.90	39676.76
503.07	39728.25
503.25	40187.00
503.43	39920.18
503.60	40439.78
503.78	40535.74
503.95	40013.80
504.13	40556.80
504.30	40713.62
504.48	40486.59
504.65	40924.27
504.83	41354.93
505.01	41294.07
505.18	41235.56
505.36	41488.34
505.53	41289.39
505.71	41642.81
505.88	42115.60
506.06	41823.03
506.23	42307.52
506.41	41717.71
506.58	41713.03
506.76	42223.26
506.93	42555.62
507.11	42298.16
507.28	42543.92
507.46	43016.71
507.63	43367.79
507.81	43147.78
507.98	42883.30
508.16	43650.99
508.33	43299.91
508.50	43725.89
508.68	43550.35
508.85	43751.63
509.03	44002.07
509.20	44219.74
509.38	44498.26
509.55	44596.57
509.73	44556.78
509.90	44907.86
510.08	44830.62
510.25	44715.93
510.42	45041.27
510.60	44921.90
510.77	45305.75
510.95	45207.45
511.12	45167.66
511.30	45649.81
511.47	45675.55
511.64	45975.14
511.82	45954.08
511.99	45713.00
512.17	46127.28
512.34	45492.99
512.51	46398.78
512.69	46621.13
512.86	46684.33
513.04	47007.32
513.21	46721.77
513.38	46920.72
513.56	47264.78
513.73	46677.30
513.90	47201.58
514.08	46976.89
514.25	47210.95
514.43	47583.09
514.60	47716.50
514.77	47555.00
514.95	47662.67
515.12	47842.89
515.29	47852.25
515.47	48273.55
515.64	48376.53
515.81	48203.33
515.99	48303.98
516.16	48306.32
516.33	48760.38
516.51	48795.49
516.68	48744.00
516.85	48797.83
517.03	48818.89
517.20	48985.07
517.37	48830.60
517.54	48989.75
517.72	49347.86
517.89	49069.33
518.06	49420.41
518.24	49106.78
518.41	48989.75
518.58	49647.44
518.75	49251.89
518.93	49588.93
519.10	49425.09
519.27	49610.00
519.45	49972.78
519.62	50113.21
519.79	50342.58
519.96	50394.07
520.14	50089.80
520.31	50213.85
520.48	50583.66
520.65	50490.04
520.83	50986.23
521.00	50965.17
521.17	50546.21
521.34	50775.58
521.52	50721.75
521.69	50745.15
521.86	50859.84
522.03	51229.65
522.20	51341.99
522.38	51763.29
522.55	51391.14
522.72	51395.82
522.89	51707.12
523.07	51559.66
523.24	51606.47
523.41	51672.01
523.58	51739.88
523.75	52292.25
523.92	52072.24
524.10	52177.56
524.27	52016.07
524.44	52294.59
524.61	52041.81
524.78	52334.38
524.96	52161.18
525.13	52341.40
525.30	52626.95
525.47	52762.70
525.64	52409.28
525.81	52758.02
525.98	52783.76
526.16	52891.43
526.33	52662.05
526.50	53125.48
526.67	52879.72
526.84	52837.59
527.01	52779.08
527.18	53092.71
527.36	53301.02
527.53	53202.72
527.70	53193.36
527.87	53413.37
528.04	53254.21
528.21	53469.54
528.38	53448.47
528.55	53441.45
528.72	53420.39
528.89	53392.30
529.07	53235.48
529.24	53649.76
529.41	53862.75
529.58	53762.11
529.75	53661.46
529.92	53804.24
530.09	53752.74
530.26	53841.68
530.43	54101.48
530.60	54007.86
530.77	53923.60
530.94	54239.57
531.11	54080.42
531.28	54365.96
531.46	54344.90
531.63	54380.01
531.80	54529.80
531.97	54426.82
532.14	54466.61
532.31	54691.30
532.48	54712.36
532.65	54574.27
532.82	54333.20
532.99	54939.39
533.16	54808.32
533.33	54555.55
533.50	54873.86
533.67	55058.76
533.84	54843.43
534.01	54911.31
534.18	55227.28
534.35	55040.04
534.52	55220.26
534.69	55049.40
534.86	55468.36
535.03	54995.57
535.20	55285.79
535.37	55377.08
535.54	55412.18
535.71	55547.93
535.88	55337.29
536.05	55583.04
536.22	55569.00
536.38	55814.76
536.55	55639.22
536.72	55690.71
536.89	55707.09
537.06	55662.62
537.23	55824.12
537.40	55566.66
537.57	55711.77
537.74	55922.42
537.91	55920.08
538.08	55931.78
538.25	55877.95
538.42	55978.59
538.59	56292.22
538.75	55959.87
538.92	56275.84
539.09	56247.75
539.26	56346.06
539.43	56280.52
539.60	56341.38
539.77	56004.34
539.94	56537.98
540.11	56320.31
540.28	56395.21
540.44	56231.37
540.61	56566.07
540.78	56676.07
540.95	56537.98
541.12	56533.30
541.29	56727.56
541.46	56350.74
541.62	56561.39
541.79	56821.19
541.96	56636.28
542.13	56673.73
542.30	56849.27
542.47	56741.61
542.63	56907.79
542.80	56947.57
542.97	57160.56
543.14	57305.68
543.31	57244.82
543.48	57478.88
543.64	57497.60
543.81	57441.43
543.98	57490.58
544.15	57586.54
544.32	57556.11
544.48	57790.17
544.65	57467.17
544.82	57190.99
544.99	57272.91
545.16	57460.15
545.32	57605.26
545.49	57902.51
545.66	57616.97
545.83	57638.03
546.00	57570.16
546.16	57677.82
546.33	57579.52
546.50	57741.02
546.67	57652.08
546.83	57675.48
547.00	58026.56
547.17	57853.36
547.34	57982.09
547.50	57741.02
547.67	58080.39
547.84	58042.95
548.00	58272.32
548.17	58230.19
548.34	57998.48
548.51	58281.68
548.67	58494.67
548.84	58281.68
549.01	58127.20
549.18	58159.97
549.34	58239.55
549.51	58408.07
549.68	58361.26
549.84	58546.16
550.01	58527.44
550.18	58457.22
550.34	58492.33
550.51	58487.65
550.68	58454.88
550.84	58358.92
551.01	58571.91
551.18	58686.59
551.34	58688.93
551.51	58562.54
551.68	58543.82
551.84	58688.93
552.01	58302.74
552.18	58892.56
552.34	58653.82
552.51	58990.86
552.68	58607.01
552.84	58717.02
553.01	58972.14
553.18	58782.55
553.34	58838.73
553.51	58775.53
553.67	58953.41
553.84	59007.25
554.01	59143.00
554.17	59124.27
554.34	59054.06
554.51	59145.34
554.67	59131.29
554.84	59110.23
555.00	58990.86
555.17	59093.85
555.33	59028.31
555.50	59014.27
555.67	59131.29
555.83	59047.04
556.00	59182.79
556.16	59568.97
556.33	59245.98
556.50	59295.13
556.66	59377.05
556.83	59234.28
556.99	59613.44
557.16	59494.08
557.32	59503.44
557.49	59632.17
557.65	59381.73
557.82	59330.24
557.98	59473.01
558.15	59339.60
558.32	59606.42
558.48	59330.24
558.65	59487.06
558.81	59554.93
558.98	59702.38
559.14	59632.17
559.31	59683.66
559.47	59725.79
559.64	59814.73
559.80	59777.28
559.97	59739.83
560.13	59739.83
560.30	59828.77
560.46	59749.20
560.63	59859.20
560.79	59807.71
560.96	60009.00
561.12	59906.01
561.29	60214.96
561.45	60013.68
561.61	59807.71
561.78	59952.82
561.94	59777.28
562.11	59877.93
562.27	59999.63
562.44	59924.74
562.60	60236.03
562.77	60245.39
562.93	59936.44
563.10	60044.10
563.26	59760.90
563.42	60238.37
563.59	60013.68
563.75	60095.60
563.92	60001.97
564.08	59990.27
564.24	60315.61
564.41	60271.14
564.57	60196.24
564.74	60273.48
564.90	60243.05
565.07	60025.38
565.23	60179.85
565.39	60383.48
565.56	60329.65
565.72	60357.74
565.88	60322.63
566.05	60126.02
566.21	60093.25
566.38	60175.17
566.54	60299.22
566.70	60360.08
566.87	60458.38
567.03	60107.30
567.19	60615.19
567.36	60243.05
567.52	60301.56
567.68	60540.30
567.85	60376.46
568.01	60561.36
568.17	60374.12
568.34	60666.69
568.50	60331.99
568.66	60271.14
568.83	60413.91
568.99	60498.17
569.15	60406.89
569.32	60666.69
569.48	60306.24
569.64	60516.89
569.81	60439.65
569.97	60367.10
570.13	60650.30
570.30	60336.67
570.46	60629.24
570.62	60636.26
570.78	60467.74
570.95	60530.93
571.11	60610.51
571.27	60549.66
571.43	60701.79
571.60	60706.47
571.76	60629.24
571.92	60619.88
572.09	60734.56
572.25	60706.47
572.41	60530.93
572.57	60683.07
572.74	60823.50
572.90	60727.54
573.06	60896.06
573.22	60694.77
573.38	60734.56
573.55	60711.16
573.71	61006.06
573.87	60769.67
574.03	60580.09
574.20	60573.06
574.36	60816.48
574.52	60743.92
574.68	60837.54
574.84	60905.42
575.01	60659.66
575.17	60879.67
575.33	60727.54
575.49	60697.11
575.65	60954.57
575.82	60800.10
575.98	60865.63
576.14	60973.30
576.30	61006.06
576.46	60837.54
576.62	60842.23
576.79	60889.04
576.95	60795.42
577.11	61001.38
577.27	61066.92
577.43	60748.60
577.59	60956.91
577.75	60715.84
577.92	60846.91
578.08	60851.59
578.24	60985.00
578.40	60884.36
578.56	60987.34
578.72	61006.06
578.88	61036.49
579.04	61174.58
579.21	60882.02
579.37	60966.27
579.53	61162.88
579.69	60750.94
579.85	60891.38
580.01	60898.40
580.17	60945.21
580.33	61073.94
580.49	61104.37
580.65	61029.47
580.82	60879.67
580.98	60811.80
581.14	60804.78
581.30	60842.23
581.46	60891.38
581.62	60945.21
581.78	60851.59
581.94	60961.59
582.10	60903.08
582.26	60977.98
582.42	61008.40
582.58	61055.21
582.74	61027.13
582.90	61139.47
583.06	60933.51
583.22	60952.23
583.38	61034.15
583.54	61095.00
583.70	61038.83
583.86	61090.32
584.02	60821.16
584.18	61193.31
584.34	60982.66
584.50	61048.19
584.66	60912.44
584.82	60924.14
584.98	61228.41
585.14	60973.30
585.30	60963.93
585.46	61186.28
585.62	61116.07
585.78	61408.64
585.94	60966.27
586.10	60924.14
586.26	61034.15
586.42	61134.79
586.58	61031.81
586.74	61017.77
586.90	60968.61
587.06	60921.80
587.22	61102.03
587.38	60938.19
587.54	61263.52
587.70	61296.29
587.86	61116.07
588.02	61132.45
588.18	61256.50
588.34	61247.14
588.49	61172.24
