SpectraSuite Data File
++++++++++++++++++++++++++++++++++++
Date: Fri Oct 25 10:44:33 EDT 2013
User: price-jones
Dark Spectrum Present: No
Reference Spectrum Present: No
Number of Sampled Component Spectra: 1
Spectrometers: USB2+H05261
Integration Time (usec): 100000 (USB2+H05261)
Spectra Averaged: 1 (USB2+H05261)
Boxcar Smoothing: 0 (USB2+H05261)
Correct for Electrical Dark: No (USB2+H05261)
Strobe/Lamp Enabled: No (USB2+H05261)
Correct for Detector Non-linearity: No (USB2+H05261)
Correct for Stray Light: No (USB2+H05261)
Number of Pixels in Processed Spectrum: 2048
>>>>>Begin Processed Spectral Data<<<<<
365.73	107.66
365.92	107.66
366.12	107.66
366.32	49.15
366.52	98.30
366.72	28.09
366.91	0.00
367.11	39.79
367.31	35.11
367.51	14.04
367.70	39.79
367.90	0.00
368.10	28.09
368.30	49.15
368.49	35.11
368.69	77.24
368.89	102.98
369.09	0.00
369.28	58.51
369.48	39.79
369.68	56.17
369.87	102.98
370.07	67.88
370.27	149.79
370.47	189.58
370.66	318.31
370.86	402.57
371.06	437.68
371.25	367.46
371.45	475.13
371.65	444.70
371.84	388.53
372.04	402.57
372.24	421.30
372.44	456.40
372.63	545.34
372.83	531.30
373.03	507.90
373.22	416.62
373.42	482.15
373.62	557.05
373.81	465.77
374.01	524.28
374.21	468.11
374.40	507.90
374.60	505.56
374.79	496.19
374.99	575.77
375.19	573.43
375.38	547.69
375.58	519.60
375.78	528.96
375.97	587.47
376.17	610.88
376.37	540.66
376.56	566.41
376.76	587.47
376.95	620.24
377.15	683.44
377.35	641.31
377.54	690.46
377.74	587.47
377.93	564.07
378.13	610.88
378.33	599.18
378.52	641.31
378.72	571.09
378.91	641.31
379.11	594.50
379.31	662.37
379.50	594.50
379.70	655.35
379.89	615.56
380.09	561.73
380.28	678.76
380.48	617.90
380.68	667.05
380.87	573.43
381.07	746.63
381.26	681.10
381.46	596.84
381.65	674.07
381.85	653.01
382.04	629.60
382.24	641.31
382.43	741.95
382.63	669.39
382.83	748.97
383.02	709.18
383.22	706.84
383.41	685.78
383.61	681.10
383.80	753.65
384.00	711.52
384.19	732.59
384.39	699.82
384.58	779.40
384.78	763.01
384.97	816.85
385.17	737.27
385.36	704.50
385.56	718.54
385.75	765.36
385.95	781.74
386.14	856.64
386.34	802.80
386.53	823.87
386.72	734.93
386.92	833.23
387.11	814.51
387.31	830.89
387.50	767.70
387.70	894.08
387.89	791.10
388.09	795.78
388.28	837.91
388.48	758.33
388.67	903.45
388.86	851.96
389.06	903.45
389.25	868.34
389.45	856.64
389.64	924.51
389.84	1013.45
390.03	971.32
390.22	898.77
390.42	891.74
390.61	915.15
390.81	966.64
391.00	1034.52
391.19	983.02
391.39	992.39
391.58	940.90
391.78	1041.54
391.97	1039.20
392.16	912.81
392.36	1034.52
392.55	919.83
392.75	912.81
392.94	961.96
393.13	929.19
393.33	1102.39
393.52	1039.20
393.71	950.26
393.91	1029.84
394.10	1069.62
394.29	968.98
394.49	1097.71
394.68	1055.58
394.88	1179.63
395.07	1095.37
395.26	1102.39
395.46	1083.67
395.65	1165.59
395.84	1172.61
396.04	1100.05
396.23	1125.80
396.42	1226.44
396.62	1086.01
396.81	1142.18
397.00	1165.59
397.19	1210.06
397.39	1259.21
397.58	1252.19
397.77	1273.25
397.97	1287.29
398.16	1362.19
398.35	1273.25
398.55	1289.64
398.74	1317.72
398.93	1383.26
399.12	1378.58
399.32	1371.55
399.51	1425.39
399.70	1423.05
399.90	1472.20
400.09	1369.21
400.28	1446.45
400.47	1481.56
400.67	1425.39
400.86	1495.60
401.05	1551.78
401.24	1469.86
401.44	1533.05
401.63	1561.14
401.82	1661.78
402.01	1607.95
402.21	1621.99
402.40	1455.81
402.59	1547.09
402.78	1584.54
402.97	1563.48
403.17	1544.75
403.36	1631.35
403.55	1621.99
403.74	1661.78
403.93	1678.16
404.13	1741.36
404.32	1668.80
404.51	1720.29
404.70	1748.38
404.89	1678.16
405.09	1771.79
405.28	1746.04
405.47	1797.53
405.66	1762.42
405.85	1949.67
406.05	1830.30
406.24	1895.83
406.43	1790.51
406.62	1886.47
406.81	1809.23
407.00	1741.36
407.20	1858.39
407.39	1788.17
407.58	1956.69
407.77	2026.90
407.96	1959.03
408.15	1994.14
408.34	2008.18
408.54	1961.37
408.73	1973.07
408.92	2036.27
409.11	2012.86
409.30	2066.69
409.49	2064.35
409.68	2080.74
409.87	2092.44
410.07	2146.27
410.26	2160.31
410.45	2167.34
410.64	2282.02
410.83	2300.75
411.02	2310.11
411.21	2377.98
411.40	2328.83
411.59	2408.41
411.78	2335.85
411.98	2335.85
412.17	2483.31
412.36	2317.13
412.55	2394.37
412.74	2473.95
412.93	2516.08
413.12	2471.61
413.31	2544.16
413.50	2621.40
413.69	2590.97
413.88	2682.25
414.07	2647.15
414.26	2616.72
414.45	2595.65
414.64	2722.04
414.83	2743.11
415.02	2745.45
415.22	2862.48
415.41	2808.64
415.60	2754.81
415.79	2897.58
415.98	2909.29
416.17	2846.09
416.36	2902.26
416.55	2979.50
416.74	3012.27
416.93	2906.95
417.12	3042.70
417.31	2988.86
417.50	3108.23
417.69	3283.77
417.88	3075.46
418.07	3059.08
418.26	3232.28
418.45	3178.45
418.64	3286.11
418.83	3265.05
419.02	3152.70
419.21	3290.79
419.39	3414.84
419.58	3295.47
419.77	3236.96
419.96	3330.58
420.15	3316.54
420.34	3325.90
420.53	3363.35
420.72	3372.71
420.91	3435.91
421.10	3435.91
421.29	3529.53
421.48	3447.61
421.67	3501.44
421.86	3361.01
422.05	3487.40
422.24	3426.54
422.43	3562.30
422.61	3463.99
422.80	3616.13
422.99	3499.10
423.18	3672.30
423.37	3644.21
423.56	3529.53
423.75	3471.01
423.94	3503.78
424.13	3438.25
424.32	3375.05
424.50	3597.40
424.69	3693.37
424.88	3698.05
425.07	3396.12
425.26	3463.99
425.45	3435.91
425.64	3545.91
425.83	3684.00
426.01	3627.83
426.20	3754.22
426.39	3740.18
426.58	3604.42
426.77	3487.40
426.96	3712.09
427.15	3658.26
427.33	3805.71
427.52	3669.96
427.71	3772.94
427.90	3758.90
428.09	3840.82
428.28	3817.41
428.46	3815.07
428.65	3688.68
428.84	3957.85
429.03	3915.72
429.22	3634.85
429.40	3747.20
429.59	3763.58
429.78	3702.73
429.97	3784.65
430.16	3845.50
430.34	3730.81
430.53	3983.59
430.72	3904.01
430.91	3985.93
431.10	4030.40
431.28	4058.49
431.47	4149.77
431.66	4187.22
431.85	4053.81
432.03	4198.92
432.22	4341.69
432.41	4074.87
432.60	4269.14
432.79	4205.94
432.97	4294.88
433.16	4374.46
433.35	4219.99
433.54	4241.05
433.72	4472.76
433.91	4332.33
434.10	4440.00
434.28	4383.82
434.47	4351.06
434.66	4566.39
434.85	4622.56
435.03	4704.48
435.22	4582.77
435.41	4713.84
435.59	4451.70
435.78	4538.30
435.97	4606.17
436.16	4809.80
436.34	4463.40
436.53	4667.03
436.72	4847.25
436.90	4751.29
437.09	4702.14
437.28	4554.68
437.46	4713.84
437.65	4940.87
437.84	4732.56
438.02	4985.34
438.21	4793.42
438.40	4826.18
438.58	4954.91
438.77	5144.50
438.96	5062.58
439.14	5284.93
439.33	5298.97
439.52	5107.05
439.70	5078.96
439.89	5198.33
440.08	5280.25
440.26	5313.02
440.45	5057.90
440.63	5399.62
440.82	5533.03
441.01	5308.34
441.19	5483.88
441.38	5392.59
441.57	5621.97
441.75	5661.76
441.94	5746.02
442.12	5760.06
442.31	5799.85
442.50	5685.16
442.68	5872.40
442.87	5771.76
443.05	5811.55
443.24	5818.57
443.43	5907.51
443.61	5930.92
443.80	5973.05
443.98	5858.36
444.17	5617.29
444.35	5757.72
444.54	6043.26
444.73	5935.60
444.91	5895.81
445.10	5930.92
445.28	6115.82
445.47	5769.42
445.65	5984.75
445.84	5935.60
446.02	6125.18
446.21	6012.84
446.39	5982.41
446.58	6157.95
446.77	6171.99
446.95	5944.96
447.14	6097.10
447.32	6396.68
447.51	6146.25
447.69	6076.03
447.88	6230.51
448.06	6183.70
448.25	6293.70
448.43	6157.95
448.62	6111.14
448.80	6066.67
448.99	6094.76
449.17	6408.39
449.36	6090.07
449.54	6441.15
449.73	6272.64
449.91	6518.39
450.10	6562.86
450.28	6537.12
450.46	6473.92
450.65	6516.05
450.83	6630.74
451.02	6616.69
451.20	6595.63
451.39	6677.55
451.57	6661.16
451.76	6574.56
451.94	6466.90
452.13	6555.84
452.31	6693.93
452.49	6551.16
452.68	6612.01
452.86	6565.20
453.05	6682.23
453.23	6754.79
453.42	6532.44
453.60	6827.34
453.78	6918.62
453.97	6759.47
454.15	6576.91
454.34	6839.05
454.52	6967.77
454.70	6834.36
454.89	6956.07
455.07	6881.18
455.26	6998.20
455.44	7253.32
455.62	7080.12
455.81	7103.53
455.99	7183.10
456.17	7283.75
456.36	7199.49
456.54	7307.15
456.73	7173.74
456.91	7400.77
457.09	7213.53
457.28	7552.91
457.46	7384.39
457.64	7550.57
457.83	7398.43
458.01	7349.28
458.19	7431.20
458.38	7468.65
458.56	7651.21
458.74	7611.42
458.93	7597.38
459.11	7775.26
459.29	7597.38
459.48	7751.85
459.66	7669.94
459.84	7777.60
460.03	7882.92
460.21	7988.25
460.39	7854.84
460.57	7576.31
460.76	7723.77
460.94	7946.12
461.12	8013.99
461.31	7896.97
461.49	7913.35
461.67	7698.02
461.85	8189.53
462.04	8063.15
462.22	8133.36
462.40	8009.31
462.59	8259.75
462.77	8049.10
462.95	8107.62
463.13	8065.49
463.32	8086.55
463.50	8224.64
463.68	8269.11
463.86	8255.07
464.05	8140.38
464.23	8187.19
464.41	8259.75
464.59	7957.82
464.78	8468.06
464.96	8416.57
465.14	8210.60
465.32	8411.89
465.50	8571.04
465.69	8648.28
465.87	8561.68
466.05	8393.16
466.23	8327.63
466.41	8671.68
466.60	8578.06
466.78	8592.11
466.96	8507.85
467.14	8528.91
467.32	8669.34
467.51	8521.89
467.69	8479.76
467.87	8879.99
468.05	8802.75
468.23	8603.81
468.41	8915.10
468.60	8657.64
468.78	8760.63
468.96	8833.18
469.14	8917.44
469.32	8938.51
469.50	8910.42
469.69	9107.02
469.87	9057.87
470.05	9064.89
470.23	9064.89
470.41	8990.00
470.59	9116.39
470.77	9184.26
470.95	9397.25
471.14	9383.21
471.32	9181.92
471.50	9397.25
471.68	9596.20
471.86	9483.85
472.04	9469.81
472.22	9710.88
472.40	9327.03
472.58	9418.32
472.77	9540.02
472.95	9870.04
473.13	10099.41
473.31	9554.07
473.49	9907.49
473.67	9767.06
473.85	9905.15
474.03	10298.36
474.21	10068.98
474.39	10181.33
474.57	10518.37
474.75	10366.23
474.93	10511.35
475.12	10401.34
475.30	10555.82
475.48	10438.79
475.66	10581.56
475.84	10443.47
476.02	10565.18
476.20	10380.28
476.38	10925.62
476.56	11026.26
476.74	10771.15
476.92	10717.31
477.10	11014.56
477.28	11201.80
477.46	11073.07
477.64	11335.21
477.82	11290.74
478.00	11604.38
478.18	11487.35
478.36	11789.28
478.54	11777.58
478.72	11772.89
478.90	11854.81
479.08	11946.09
479.26	11969.50
479.44	12058.44
479.62	12386.12
479.80	12135.68
479.98	12449.31
480.16	12404.84
480.34	12596.76
480.52	12886.99
480.70	12788.69
480.88	12622.51
481.06	12807.41
481.24	12788.69
481.41	12950.18
481.59	13392.55
481.77	13301.26
481.95	13460.42
482.13	13277.86
482.31	13390.20
482.49	13834.91
482.67	13851.29
482.85	14101.73
483.03	13914.48
483.21	13886.40
483.39	14272.59
483.57	14019.81
483.74	14387.27
483.92	14611.96
484.10	14277.27
484.28	14740.69
484.46	14895.17
484.64	14911.55
484.82	14813.25
485.00	14965.39
485.18	15470.94
485.35	15445.20
485.53	15145.61
485.71	15028.58
485.89	15480.30
486.07	15744.78
486.25	15492.01
486.43	16002.24
486.61	16032.67
486.78	16341.62
486.96	16430.56
487.14	16514.82
487.32	16442.26
487.50	16690.36
487.68	16807.39
487.85	16940.80
488.03	17378.48
488.21	17247.41
488.39	17451.03
488.57	17233.36
488.75	17579.76
488.92	17614.87
489.10	18272.56
489.28	18015.10
489.46	18057.23
489.64	18200.01
489.81	18698.54
489.99	18815.57
490.17	18902.17
490.35	19138.56
490.53	19082.39
490.70	18899.83
490.88	18930.25
491.06	19328.14
491.24	19122.18
491.41	19484.96
491.59	19412.40
491.77	19627.73
491.95	19669.86
492.13	19679.22
492.30	20095.84
492.48	20018.60
492.66	20360.32
492.84	20238.61
493.01	20404.79
493.19	20840.13
493.37	21008.65
493.54	20898.64
493.72	21231.00
493.90	21109.29
494.08	21385.47
494.25	21467.39
494.43	21474.42
494.61	21823.16
494.79	21834.86
494.96	21701.45
495.14	22012.74
495.32	22026.78
495.49	22113.38
495.67	22031.46
495.85	22300.62
496.02	22450.42
496.20	23023.85
496.38	22801.50
496.55	22874.06
496.73	23021.51
496.91	22883.42
497.09	23070.66
497.26	22794.48
497.44	23484.94
497.62	23571.54
497.79	23721.33
497.97	23812.61
498.14	23744.73
498.32	23908.57
498.50	23882.83
498.67	24383.70
498.85	24163.69
499.03	24067.73
499.20	24222.20
499.38	24821.38
499.56	24599.03
499.73	24982.88
499.91	25067.14
500.08	25163.10
500.26	24755.85
500.44	24814.36
500.61	25099.90
500.79	25373.75
500.97	25333.96
501.14	25537.59
501.32	25666.31
501.49	25212.25
501.67	25600.78
501.84	25860.58
502.02	25642.91
502.20	26001.01
502.37	26075.91
502.55	26164.85
502.72	26483.16
502.90	26431.67
503.07	26361.45
503.25	26565.08
503.43	26611.89
503.60	26508.91
503.78	26314.64
503.95	26490.18
504.13	26930.20
504.30	26869.35
504.48	27119.79
504.65	27157.24
504.83	27606.62
505.01	27566.83
505.18	27351.50
505.36	27278.94
505.53	27611.30
505.71	27716.62
505.88	27749.39
506.06	27400.65
506.23	27613.64
506.41	27634.71
506.58	27723.65
506.76	27946.00
506.93	28376.66
507.11	28002.17
507.28	28112.17
507.46	28734.76
507.63	28114.52
507.81	28484.32
507.98	28175.37
508.16	28355.59
508.33	28657.52
508.50	29144.35
508.68	29036.69
508.85	29413.51
509.03	29422.87
509.20	28893.91
509.38	29099.88
509.55	29521.18
509.73	29479.05
509.90	29750.55
510.08	29553.94
510.25	29488.41
510.42	29195.84
510.60	29895.66
510.77	29575.01
510.95	30132.06
511.12	30256.11
511.30	30106.31
511.47	30485.48
511.64	30611.87
511.82	30508.88
511.99	30050.14
512.17	30579.10
512.34	30707.83
512.51	30724.21
512.69	30651.66
512.86	30890.39
513.04	30920.82
513.21	31164.23
513.38	30955.93
513.56	31255.51
513.73	30843.58
513.90	31197.00
514.08	31016.78
514.25	31398.29
514.43	31101.04
514.60	31208.70
514.77	31342.11
514.95	32004.49
515.12	32215.13
515.29	31988.10
515.47	31730.64
515.64	32093.43
515.81	32046.62
515.99	32156.62
516.16	32423.44
516.33	32067.68
516.51	32177.68
516.68	31850.01
516.85	31786.82
517.03	31693.19
517.20	32437.48
517.37	32350.88
517.54	32741.75
517.72	32863.46
517.89	32528.77
518.06	32034.91
518.24	32264.28
518.41	32547.49
518.58	32650.47
518.75	32584.94
518.93	33294.12
519.10	32577.92
519.27	33317.53
519.45	32891.55
519.62	33266.03
519.79	33399.44
519.96	33827.76
520.14	33366.68
520.31	33500.09
520.48	33736.48
520.65	33359.66
520.83	33862.87
521.00	34164.80
521.17	34115.65
521.34	34174.16
521.52	34155.44
521.69	34103.95
521.86	34614.18
522.03	34338.00
522.20	34471.41
522.38	34096.92
522.55	34749.93
522.72	34637.59
522.89	34792.06
523.07	34827.17
523.24	34682.06
523.41	34806.11
523.58	34810.79
523.75	35194.64
523.92	35138.46
524.10	35091.65
524.27	35445.07
524.44	35346.77
524.61	35456.78
524.78	35409.96
524.96	35742.32
525.13	35896.80
525.30	35772.75
525.47	35959.99
525.64	36016.16
525.81	35852.33
525.98	35725.94
526.16	35491.88
526.33	35646.36
526.50	35681.47
526.67	35489.54
526.84	35690.83
527.01	35601.89
527.18	35814.88
527.36	36165.96
527.53	35952.97
527.70	36273.62
527.87	36334.48
528.04	36332.14
528.21	36395.33
528.38	36610.66
528.55	37109.19
528.72	36533.42
528.89	36957.06
529.07	36636.41
529.24	36519.38
529.41	37036.64
529.58	36928.97
529.75	36708.96
529.92	37013.23
530.09	37010.89
530.26	37195.79
530.43	37062.38
530.60	37184.09
530.77	36961.74
530.94	37383.04
531.11	37507.08
531.28	37647.52
531.46	37366.65
531.63	37488.36
531.80	37202.82
531.97	37476.66
532.14	37708.37
532.31	37427.51
532.48	37689.65
532.65	37549.21
532.82	38071.15
532.99	37633.47
533.16	37303.46
533.33	37865.19
533.50	38284.14
533.67	38164.78
533.84	38124.99
534.01	37809.01
534.18	38368.40
534.35	38307.55
534.52	38651.61
534.69	38525.22
534.86	38770.97
535.03	38417.55
535.20	38843.53
535.37	39065.88
535.54	38946.51
535.71	38747.57
535.88	38703.10
536.05	38733.53
536.22	38993.32
536.38	39225.04
536.55	38656.29
536.72	39002.69
536.89	38206.90
537.06	38574.37
537.23	38880.98
537.40	38810.76
537.57	39089.29
537.74	39084.61
537.91	39386.54
538.08	38885.66
538.25	39126.74
538.42	39236.74
538.59	39571.44
538.75	39035.45
538.92	39351.43
539.09	39739.96
539.26	39110.35
539.43	39562.08
539.60	39566.76
539.77	39391.22
539.94	40158.91
540.11	39693.15
540.28	39580.80
540.44	39636.97
540.61	39510.58
540.78	39489.52
540.95	39693.15
541.12	39452.07
541.29	39934.22
541.46	39810.17
541.62	39728.25
541.79	40252.53
541.96	39828.90
542.13	39761.02
542.30	39950.60
542.47	40521.69
542.63	40163.59
542.80	40205.72
542.97	40357.86
543.14	40999.16
543.31	40772.13
543.48	40357.86
543.64	40917.25
543.81	41137.26
543.98	40989.80
544.15	40879.80
544.32	41118.53
544.48	41202.79
544.65	40950.01
544.82	41102.15
544.99	40935.97
545.16	41193.43
545.32	41450.89
545.49	41315.14
545.66	41897.93
545.83	41457.91
546.00	41310.46
546.16	41502.38
546.33	41249.60
546.50	41092.79
546.67	41518.76
546.83	41265.99
547.00	41507.06
547.17	41177.04
547.34	41378.33
547.50	41591.32
547.67	41553.87
547.84	41247.26
548.00	41916.65
548.17	42110.92
548.34	41757.50
548.51	42351.99
548.67	42050.06
548.84	41958.78
549.01	41734.09
549.18	41577.28
549.34	42066.45
549.51	42330.93
549.68	42129.64
549.84	41961.12
550.01	42249.01
550.18	42061.77
550.34	42080.49
550.51	42101.56
550.68	42316.89
550.84	41792.61
551.01	42473.70
551.18	42141.35
551.34	42347.31
551.51	42096.88
551.68	42817.76
551.84	42869.25
552.01	41897.93
552.18	42522.85
552.34	41944.74
552.51	42272.42
552.68	42389.44
552.84	42841.17
553.01	42614.13
553.18	42925.42
553.34	42944.15
553.51	42370.72
553.67	42770.95
553.84	43222.67
554.01	42965.21
554.17	43253.10
554.34	42527.53
554.51	42843.51
554.67	42817.76
554.84	42639.88
555.00	43152.46
555.17	43096.28
555.33	43236.72
555.50	43115.01
555.67	42815.42
555.83	42682.01
556.00	43459.07
556.16	43606.52
556.33	43342.04
556.50	42726.48
556.66	43182.88
556.83	43093.94
556.99	43084.58
557.16	43615.88
557.32	43107.99
557.49	43796.10
557.65	43084.58
557.82	43030.75
557.98	43625.25
558.15	43107.99
558.32	43672.06
558.48	43697.80
558.65	43641.63
558.81	43278.85
558.98	43407.58
559.14	43409.92
559.31	43358.42
559.47	43702.48
559.64	44027.82
559.80	43824.19
559.97	43880.36
560.13	43714.19
560.30	43695.46
560.46	43033.09
560.63	43697.80
560.79	43615.88
560.96	43571.41
561.12	43704.82
561.29	44137.82
561.45	43611.20
561.61	43718.87
561.78	43531.62
561.94	43730.57
562.11	43775.04
562.27	44098.03
562.44	43580.78
562.60	44177.61
562.77	44002.07
562.93	43910.79
563.10	43941.22
563.26	44236.12
563.42	43913.13
563.59	43423.96
563.75	44006.75
563.92	43861.64
564.08	44505.29
564.24	44217.40
564.41	43941.22
564.57	44142.50
564.74	44236.12
564.90	44261.87
565.07	44074.63
565.23	44130.80
565.39	43700.14
565.56	44320.38
565.72	43938.88
565.88	43723.55
566.05	44292.30
566.21	43842.92
566.38	44020.80
566.54	43985.69
566.70	44308.68
566.87	44999.14
567.03	44053.56
567.19	44779.13
567.36	44423.37
567.52	44289.96
567.68	44465.50
567.85	43599.50
568.01	44603.59
568.17	44055.90
568.34	44371.88
568.50	44196.34
568.66	44058.24
568.83	44032.50
568.99	44325.07
569.15	43873.34
569.32	44201.02
569.48	43810.15
569.64	44542.74
569.81	44619.97
569.97	44619.97
570.13	44605.93
570.30	44357.83
570.46	43782.06
570.62	44254.85
570.78	43969.30
570.95	44430.39
571.11	44041.86
571.27	44397.62
571.43	44353.15
571.60	44243.15
571.76	44842.32
571.92	44112.08
572.09	44566.14
572.25	44301.66
572.41	44547.42
572.57	44655.08
572.74	44992.12
572.90	44357.83
573.06	44414.01
573.22	44938.29
573.38	44208.04
573.55	44697.21
573.71	45425.12
573.87	44486.56
574.03	44406.98
574.20	44643.38
574.36	44435.07
574.52	44563.80
574.68	44509.97
574.84	44603.59
575.01	44470.18
575.17	44397.62
575.33	44271.23
575.49	44336.77
575.65	45118.51
575.82	44706.57
575.98	44678.49
576.14	44804.88
576.30	44741.68
576.46	44367.20
576.62	44818.92
576.79	44580.18
576.95	44781.47
577.11	44886.79
577.27	44432.73
577.43	44502.95
577.59	44655.08
577.75	44889.13
577.92	44177.61
578.08	44463.16
578.24	44392.94
578.40	44285.28
578.56	44444.43
578.72	44603.59
578.88	44872.75
579.04	44758.06
579.21	44720.62
579.37	44587.21
579.53	44664.44
579.69	44397.62
579.85	44395.28
580.01	45137.23
580.17	44718.28
580.33	45071.70
580.49	44577.84
580.65	44580.18
580.82	44662.10
580.98	44807.22
581.14	44652.74
581.30	44933.60
581.46	45193.40
581.62	44868.07
581.78	45116.17
581.94	45050.63
582.10	44732.32
582.26	44570.82
582.42	44877.43
582.58	44844.66
582.74	44713.59
582.90	44655.08
583.06	44612.95
583.22	44982.76
583.38	44582.52
583.54	44706.57
583.70	44481.88
583.86	44428.05
584.02	44383.58
584.18	44966.37
584.34	44858.71
584.50	44842.32
584.66	44589.55
584.82	44416.35
584.98	44767.43
585.14	44713.59
585.30	45062.33
585.46	44636.36
585.62	45237.87
585.78	44296.98
585.94	44706.57
586.10	44954.67
586.26	45057.65
586.42	44804.88
586.58	44877.43
586.74	44704.23
586.90	44463.16
587.06	44659.76
587.22	45062.33
587.38	44809.56
587.54	44683.17
587.70	45638.11
587.86	44664.44
588.02	44966.37
588.18	45092.76
588.34	45153.62
588.49	44170.59
588.65	44353.15
588.81	44456.14
588.97	44378.90
589.13	44605.93
589.29	44685.51
589.45	45198.09
589.61	44610.61
589.77	44992.12
589.93	44603.59
590.08	44945.31
590.24	45153.62
