SpectraSuite Data File
++++++++++++++++++++++++++++++++++++
Date: Fri Oct 25 11:25:28 EDT 2013
User: price-jones
Dark Spectrum Present: No
Reference Spectrum Present: No
Number of Sampled Component Spectra: 1
Spectrometers: USB2+H05261
Integration Time (usec): 100000 (USB2+H05261)
Spectra Averaged: 1 (USB2+H05261)
Boxcar Smoothing: 0 (USB2+H05261)
Correct for Electrical Dark: No (USB2+H05261)
Strobe/Lamp Enabled: No (USB2+H05261)
Correct for Detector Non-linearity: No (USB2+H05261)
Correct for Stray Light: No (USB2+H05261)
Number of Pixels in Processed Spectrum: 2048
>>>>>Begin Processed Spectral Data<<<<<
365.73	180.22
365.92	180.22
366.12	180.22
366.32	142.77
366.52	168.52
366.72	126.39
366.91	182.56
367.11	163.84
367.31	156.82
367.51	58.51
367.70	168.52
367.90	208.31
368.10	191.92
368.30	220.01
368.49	93.62
368.69	187.24
368.89	140.43
369.09	128.73
369.28	271.50
369.48	210.65
369.68	154.48
369.87	259.80
370.07	250.44
370.27	187.24
370.47	304.27
370.66	676.41
370.86	648.33
371.06	709.18
371.25	711.52
371.45	653.01
371.65	601.52
371.84	730.25
372.04	716.20
372.24	711.52
372.44	725.57
372.63	758.33
372.83	690.46
373.03	758.33
373.22	751.31
373.42	798.12
373.62	734.93
373.81	763.01
374.01	737.27
374.21	770.04
374.40	882.38
374.60	823.87
374.79	814.51
374.99	875.36
375.19	851.96
375.38	924.51
375.58	880.04
375.78	863.66
375.97	870.68
376.17	894.08
376.37	830.89
376.56	854.30
376.76	891.74
376.95	966.64
377.15	926.85
377.35	889.40
377.54	875.36
377.74	968.98
377.93	854.30
378.13	875.36
378.33	880.04
378.52	840.25
378.72	978.34
378.91	959.62
379.11	985.37
379.31	931.53
379.50	936.21
379.70	863.66
379.89	961.96
380.09	922.17
380.28	994.73
380.48	1018.13
380.68	926.85
380.87	978.34
381.07	1004.09
381.26	1015.79
381.46	985.37
381.65	1046.22
381.85	919.83
382.04	978.34
382.24	1139.84
382.43	997.07
382.63	1022.81
382.83	1069.62
383.02	1018.13
383.22	1074.31
383.41	1067.28
383.61	1111.75
383.80	1224.10
384.00	1163.25
384.19	1146.86
384.39	1214.74
384.58	1116.44
384.78	1088.35
384.97	1219.42
385.17	1135.16
385.36	1153.88
385.56	1095.37
385.75	1184.31
385.95	1188.99
386.14	1245.16
386.34	1153.88
386.53	1217.08
386.72	1217.08
386.92	1261.55
387.11	1184.31
387.31	1224.10
387.50	1238.14
387.70	1217.08
387.89	1277.93
388.09	1268.57
388.28	1282.61
388.48	1181.97
388.67	1345.81
388.86	1390.28
389.06	1299.00
389.25	1275.59
389.45	1355.17
389.64	1289.64
389.84	1444.11
390.03	1420.71
390.22	1472.20
390.42	1406.66
390.61	1359.85
390.81	1338.79
391.00	1385.60
391.19	1474.54
391.39	1387.94
391.58	1404.32
391.78	1446.45
391.97	1352.83
392.16	1493.26
392.36	1547.09
392.55	1439.43
392.75	1554.12
392.94	1453.47
393.13	1547.09
393.33	1519.01
393.52	1549.43
393.71	1614.97
393.91	1598.59
394.10	1577.52
394.29	1633.69
394.49	1584.54
394.68	1715.61
394.88	1689.87
395.07	1629.01
395.26	1689.87
395.46	1624.33
395.65	1753.06
395.84	1696.89
396.04	1771.79
396.23	1778.81
396.42	1734.34
396.62	1722.63
396.81	1753.06
397.00	1830.30
397.19	1750.72
397.39	1778.81
397.58	1750.72
397.77	1785.83
397.97	1928.60
398.16	1783.49
398.35	1884.13
398.55	1804.55
398.74	1860.73
398.93	1851.36
399.12	1942.64
399.32	1874.77
399.51	1858.39
399.70	1994.14
399.90	2003.50
400.09	1989.46
400.28	1980.09
400.47	2059.67
400.67	2005.84
400.86	2127.55
401.05	2113.50
401.24	1935.62
401.44	2127.55
401.63	2237.55
401.82	2174.36
402.01	2054.99
402.21	2033.93
402.40	2160.31
402.59	2167.34
402.78	2244.57
402.97	2153.29
403.17	2225.85
403.36	2277.34
403.55	2270.32
403.74	2291.38
403.93	2363.94
404.13	2286.70
404.32	2347.56
404.51	2354.58
404.70	2270.32
404.89	2368.62
405.09	2431.82
405.28	2422.45
405.47	2576.93
405.66	2448.20
405.85	2502.03
406.05	2478.63
406.24	2609.70
406.43	2569.91
406.62	2600.34
406.81	2712.68
407.00	2733.75
407.20	2558.21
407.39	2576.93
407.58	2736.09
407.77	2745.45
407.96	2726.72
408.15	2670.55
408.34	2679.91
408.54	2745.45
408.73	2825.03
408.92	2930.35
409.11	2782.90
409.30	2883.54
409.49	2857.79
409.68	2923.33
409.87	2928.01
410.07	3019.29
410.26	3052.06
410.45	2984.18
410.64	3131.64
410.83	3066.10
411.02	3075.46
411.21	3096.53
411.40	3045.04
411.59	3138.66
411.78	3253.34
411.98	3218.24
412.17	3218.24
412.36	3201.85
412.55	3283.77
412.74	3318.88
412.93	3389.10
413.12	3293.13
413.31	3557.61
413.50	3555.27
413.69	3452.29
413.88	3536.55
414.07	3520.17
414.26	3569.32
414.45	3599.74
414.64	3749.54
414.83	3712.09
415.02	3691.02
415.22	3786.99
415.41	3978.91
415.60	3786.99
415.79	3894.65
415.98	4037.42
416.17	3889.97
416.36	3861.88
416.55	3932.10
416.74	4105.30
416.93	3927.42
417.12	4063.17
417.31	4039.76
417.50	4182.54
417.69	4337.01
417.88	4182.54
418.07	4329.99
418.26	4344.03
418.45	4351.06
418.64	4390.84
418.83	4451.70
419.02	4339.35
419.21	4468.08
419.39	4500.85
419.58	4519.57
419.77	4425.95
419.96	4580.43
420.15	4678.73
420.34	4437.66
420.53	4545.32
420.72	4655.33
420.91	4664.69
421.10	4910.44
421.29	4727.88
421.48	4613.20
421.67	4767.67
421.86	4723.20
422.05	4662.35
422.24	4791.08
422.43	4816.82
422.61	4760.65
422.80	4901.08
422.99	4840.23
423.18	4889.38
423.37	4875.34
423.56	4980.66
423.75	4863.63
423.94	4774.69
424.13	4568.73
424.32	4758.31
424.50	5004.07
424.69	4910.44
424.88	5163.22
425.07	4959.60
425.26	4968.96
425.45	4844.91
425.64	5006.41
425.83	5142.16
426.01	5135.14
426.20	5067.26
426.39	5167.90
426.58	5050.88
426.77	4940.87
426.96	5210.03
427.15	5029.81
427.33	5376.21
427.52	5212.37
427.71	5214.71
427.90	5137.48
428.09	5235.78
428.28	5254.50
428.46	5408.98
428.65	5270.89
428.84	5453.45
429.03	5366.85
429.22	5200.67
429.40	5376.21
429.59	5350.46
429.78	5252.16
429.97	5252.16
430.16	5439.40
430.34	5614.95
430.53	5701.54
430.72	5628.99
430.91	5518.98
431.10	5526.00
431.28	5767.08
431.47	5785.80
431.66	5912.19
431.85	5722.61
432.03	5963.68
432.22	5923.90
432.41	5839.64
432.60	5846.66
432.79	5928.58
432.97	6024.54
433.16	5914.53
433.35	5959.00
433.54	6015.18
433.72	6101.78
433.91	6078.37
434.10	6190.72
434.28	6073.69
434.47	6054.97
434.66	6183.70
434.85	6146.25
435.03	6211.78
435.22	6232.85
435.41	6384.98
435.59	6218.80
435.78	6478.60
435.97	6429.45
436.16	6321.79
436.34	6602.65
436.53	6579.25
436.72	6569.88
436.90	6359.24
437.09	6621.38
437.28	6548.82
437.46	6569.88
437.65	6670.53
437.84	6733.72
438.02	6771.17
438.21	6738.40
438.40	6736.06
438.58	6925.65
438.77	7173.74
438.96	6848.41
439.14	7014.59
439.33	7089.48
439.52	7070.76
439.70	7140.97
439.89	7211.19
440.08	7246.30
440.26	7213.53
440.45	7201.83
440.63	7503.76
440.82	7365.67
441.01	7351.62
441.19	7588.02
441.38	7583.34
441.57	7536.52
441.75	7679.30
441.94	7873.56
442.12	7850.16
442.31	8159.11
442.50	8105.28
442.68	7943.78
442.87	7962.50
443.05	8074.85
443.24	8138.04
443.43	8102.93
443.61	8250.39
443.80	8395.50
443.98	8065.49
444.17	7829.09
444.35	8152.09
444.54	8287.84
444.73	8093.57
444.91	8191.88
445.10	8290.18
445.28	8180.17
445.47	8187.19
445.65	8210.60
445.84	8322.94
446.02	8362.73
446.21	8435.29
446.39	8159.11
446.58	8468.06
446.77	8603.81
446.95	8180.17
447.14	8402.52
447.32	8418.91
447.51	8353.37
447.69	8325.29
447.88	8311.24
448.06	8566.36
448.25	8320.60
448.43	8514.87
448.62	8486.78
448.80	8449.33
448.99	8627.21
449.17	8734.88
449.36	8524.23
449.54	8870.63
449.73	8912.76
449.91	8917.44
450.10	8849.57
450.28	8856.59
450.46	9029.79
450.65	8990.00
450.83	8992.34
451.02	9083.62
451.20	9074.26
451.39	9102.34
451.57	8968.93
451.76	8936.17
451.94	9364.48
452.13	9390.23
452.31	8968.93
452.49	9078.94
452.68	9280.22
452.86	9214.69
453.05	9521.30
453.23	9399.59
453.42	9392.57
453.60	9305.97
453.78	9493.21
453.97	9408.95
454.15	9533.00
454.34	9378.53
454.52	9753.01
454.70	9703.86
454.89	9682.80
455.07	9671.09
455.26	9788.12
455.44	10026.86
455.62	9874.72
455.81	9888.76
455.99	9905.15
456.17	9809.19
456.36	10092.39
456.54	9961.32
456.73	10181.33
456.91	10415.38
457.09	10270.27
457.28	10506.66
457.46	10230.48
457.64	10541.77
457.83	10530.07
458.01	10478.58
458.19	10927.96
458.38	10516.03
458.56	10595.61
458.74	10506.66
458.93	10548.79
459.11	10633.05
459.29	10537.09
459.48	10817.96
459.66	10619.01
459.84	11192.44
460.03	10977.11
460.21	10773.49
460.39	10780.51
460.57	11059.03
460.76	11115.20
460.94	11302.45
461.12	10972.43
461.31	11140.95
461.49	11229.89
461.67	11342.24
461.85	11365.64
462.04	11204.14
462.22	11632.46
462.40	11613.74
462.59	11396.07
462.77	11679.27
462.95	11602.04
463.13	11384.37
463.32	11391.39
463.50	11700.34
463.68	11604.38
463.86	11810.34
464.05	11342.24
464.23	11686.29
464.41	11775.24
464.59	11627.78
464.78	12079.50
464.96	11957.80
465.14	11955.46
465.32	11941.41
465.50	11901.62
465.69	12091.21
465.87	11885.24
466.05	11999.93
466.23	12203.55
466.41	12119.29
466.60	12425.90
466.78	11882.90
466.96	12327.60
467.14	12325.26
467.32	12222.28
467.51	12472.71
467.69	12131.00
467.87	12402.50
468.05	12461.01
468.23	12346.33
468.41	12262.07
468.60	12512.50
468.78	12568.68
468.96	12662.30
469.14	12641.23
469.32	12891.67
469.50	12589.74
469.69	12835.50
469.87	12833.16
470.05	13261.48
470.23	13060.19
470.41	13104.66
470.59	13298.92
470.77	13287.22
470.95	12999.34
471.14	13514.25
471.32	13076.57
471.50	13458.08
471.68	13364.46
471.86	13376.16
472.04	13528.30
472.22	13659.37
472.40	13664.05
472.58	13542.34
472.77	13923.85
472.95	13956.61
473.13	14307.69
473.31	13781.07
473.49	14164.92
473.67	14033.85
473.85	14312.38
474.03	14736.01
474.21	14757.08
474.39	14752.40
474.57	14679.84
474.75	14967.73
474.93	14993.47
475.12	15091.77
475.30	14885.81
475.48	14738.35
475.66	14993.47
475.84	14984.11
476.02	15084.75
476.20	15398.38
476.38	15805.64
476.56	15829.04
476.74	15730.74
476.92	16013.95
477.10	15721.38
477.28	16147.36
477.46	16140.33
477.64	16350.98
477.82	16383.75
478.00	16814.41
478.18	16819.09
478.36	16856.54
478.54	16910.37
478.72	16851.86
478.90	17331.67
479.08	17376.14
479.26	17324.65
479.44	17479.12
479.62	17909.78
479.80	17858.29
479.98	18195.32
480.16	18331.08
480.34	18146.17
480.52	18614.28
480.70	18368.52
480.88	18370.86
481.06	18534.70
481.24	18590.88
481.41	18995.79
481.59	18963.02
481.77	19379.64
481.95	19220.48
482.13	19616.03
482.31	19578.58
482.49	19929.66
482.67	19927.32
482.85	20432.88
483.03	20842.47
483.21	20697.36
483.39	20821.41
483.57	20547.56
483.74	21099.93
483.92	21064.82
484.10	21312.92
484.28	21589.10
484.46	21654.64
484.64	22061.89
484.82	21647.61
485.00	22356.80
485.18	22464.46
485.35	22934.91
485.53	22616.60
485.71	22754.69
485.89	23426.42
486.07	23232.16
486.25	23110.45
486.43	23634.73
486.61	23716.65
486.78	23674.52
486.96	24273.70
487.14	24442.21
487.32	24430.51
487.50	24620.10
487.68	25102.25
487.85	24999.26
488.03	25289.49
488.21	25778.66
488.39	25289.49
488.57	25689.72
488.75	25881.64
488.92	26628.27
489.10	26668.06
489.28	26654.02
489.46	26738.28
489.64	26911.48
489.81	27285.97
489.99	27180.64
490.17	27590.24
490.35	28041.96
490.53	28322.82
490.70	28229.20
490.88	28046.64
491.06	28776.89
491.24	28751.14
491.41	29097.54
491.59	28973.49
491.77	29179.46
491.95	29446.28
492.13	29507.13
492.30	29553.94
492.48	29762.25
492.66	29949.50
492.84	30199.93
493.01	30728.89
493.19	30515.90
493.37	30609.53
493.54	30984.01
493.72	31098.70
493.90	30864.64
494.08	31515.31
494.25	31894.48
494.43	31578.51
494.61	32231.52
494.79	32285.35
494.96	32222.16
495.14	32446.85
495.32	32980.49
495.49	32980.49
495.67	32629.41
495.85	33362.00
496.02	33406.47
496.20	33905.00
496.38	33720.10
496.55	33797.34
496.73	34476.09
496.91	34504.18
497.09	34305.23
497.26	34705.46
497.44	34712.49
497.62	34955.90
497.79	35517.63
497.97	35440.39
498.14	35552.74
498.32	36044.25
498.50	35892.12
498.67	36442.14
498.85	36388.31
499.03	36746.41
499.20	36425.76
499.38	36348.52
499.56	36833.01
499.73	36985.15
499.91	37083.45
500.08	37298.78
500.26	37518.79
500.44	37275.37
500.61	37490.70
500.79	37415.80
500.97	38000.94
501.14	37986.89
501.32	38019.66
501.49	38256.06
501.67	38443.30
501.84	38728.84
502.02	39023.75
502.20	38974.60
502.37	38969.92
502.55	39243.76
502.72	39398.24
502.90	38995.67
503.07	39449.73
503.25	39636.97
503.43	39323.34
503.60	40133.17
503.78	40098.06
503.95	40201.04
504.13	40549.78
504.30	40294.66
504.48	40088.70
504.65	40722.98
504.83	40652.76
505.01	41242.58
505.18	41247.26
505.36	41427.48
505.53	41106.83
505.71	41687.28
505.88	41106.83
506.06	41258.96
506.23	41806.65
506.41	41556.21
506.58	41996.23
506.76	42103.90
506.93	42705.41
507.11	42249.01
507.28	42120.28
507.46	42363.70
507.63	42904.36
507.81	42986.28
507.98	42298.16
508.16	42862.23
508.33	43344.38
508.50	43152.46
508.68	43658.01
508.85	43973.98
509.03	43725.89
509.20	43749.29
509.38	44030.16
509.55	44095.69
509.73	44336.77
509.90	44488.90
510.08	44528.69
510.25	44392.94
510.42	44292.30
510.60	44886.79
510.77	44725.30
510.95	45195.74
511.12	44854.03
511.30	45059.99
511.47	45427.46
511.64	45181.70
511.82	45553.85
511.99	45214.47
512.17	45628.74
512.34	45853.44
512.51	45989.19
512.69	46394.10
512.86	46195.15
513.04	46696.03
513.21	45815.99
513.38	46855.18
513.56	46607.09
513.73	46763.90
513.90	47051.79
514.08	46511.13
514.25	46733.48
514.43	47100.94
514.60	46791.99
514.77	46873.91
514.95	47243.71
515.12	47143.07
515.29	47515.22
515.47	47842.89
515.64	47952.90
515.81	47728.20
515.99	47866.30
516.16	47997.37
516.33	47880.34
516.51	48779.10
516.68	48175.25
516.85	48196.31
517.03	48505.26
517.20	48767.40
517.37	48463.13
517.54	48676.12
517.72	48584.84
517.89	48893.79
518.06	48919.54
518.24	48835.28
518.41	49024.86
518.58	49418.07
518.75	49200.40
518.93	49432.11
519.10	48917.20
519.27	49633.40
519.45	49600.63
519.62	49813.62
519.79	49497.65
519.96	49551.48
520.14	49846.39
520.31	49825.32
520.48	50059.38
520.65	49937.67
520.83	50225.56
521.00	50574.30
521.17	50124.91
521.34	50368.33
521.52	50768.56
521.69	50916.01
521.86	50944.10
522.03	50901.97
522.20	51061.13
522.38	51295.18
522.55	51117.30
522.72	51049.42
522.89	50864.52
523.07	51344.33
523.24	51026.02
523.41	51587.75
523.58	51175.81
523.75	51966.91
523.92	51571.36
524.10	51782.01
524.27	51870.95
524.44	51632.22
524.61	51789.03
524.78	51709.46
524.96	51901.38
525.13	51702.43
525.30	52186.92
525.47	52275.87
525.64	52053.51
525.81	52430.34
525.98	52533.32
526.16	52116.71
526.33	52233.74
526.50	52790.78
526.67	52608.22
526.84	52542.69
527.01	52315.65
527.18	52603.54
527.36	52748.65
527.53	52694.82
527.70	53059.94
527.87	53158.25
528.04	52924.19
528.21	53202.72
528.38	52933.56
528.55	53048.24
528.72	53336.13
528.89	53221.44
529.07	53275.27
529.24	53415.71
529.41	53404.00
529.58	53488.26
529.75	53408.68
529.92	53666.14
530.09	53619.33
530.26	53715.29
530.43	53841.68
530.60	53373.58
530.77	53708.27
530.94	53888.49
531.11	53837.00
531.28	53958.71
531.46	54106.16
531.63	53757.42
531.80	53900.20
531.97	54042.97
532.14	54309.79
532.31	54234.89
532.48	54312.13
532.65	54293.41
532.82	54300.43
532.99	54550.87
533.16	54445.54
533.33	54508.74
533.50	54574.27
533.67	54555.55
533.84	54344.90
534.01	54754.49
534.18	54911.31
534.35	55084.51
534.52	54906.63
534.69	55164.09
534.86	55154.72
535.03	54820.03
535.20	55412.18
535.37	55077.49
535.54	55112.59
535.71	55007.27
535.88	55194.51
536.05	55299.84
536.22	55416.86
536.38	55585.38
536.55	55147.70
536.72	55320.90
536.89	55201.53
537.06	55433.25
537.23	55592.40
537.40	55426.23
537.57	55667.30
537.74	55482.40
537.91	56048.81
538.08	55660.28
538.25	55449.63
538.42	55576.02
538.59	55948.17
538.75	55798.37
538.92	55966.89
539.09	56233.71
539.26	55819.44
539.43	56191.58
539.60	55964.55
539.77	56158.81
539.94	56165.84
540.11	56179.88
540.28	56322.65
540.44	56168.18
540.61	56313.29
540.78	56226.69
540.95	56175.20
541.12	56236.05
541.29	56540.32
541.46	56329.67
541.62	56444.36
541.79	56411.59
541.96	56376.48
542.13	56800.12
542.30	56603.52
542.47	56757.99
542.63	56413.93
542.80	56704.16
542.97	57034.17
543.14	57279.93
543.31	57006.09
543.48	57153.54
543.64	57394.62
543.81	57265.89
543.98	57317.38
544.15	56893.74
544.32	57368.87
544.48	57666.12
544.65	57219.08
544.82	57099.71
544.99	57095.03
545.16	57429.72
545.32	57195.67
545.49	57588.88
545.66	57549.09
545.83	57485.90
546.00	57485.90
546.16	57509.30
546.33	57441.43
546.50	57340.78
546.67	57642.71
546.83	57401.64
547.00	57649.74
547.17	57371.21
547.34	57872.09
547.50	57729.31
547.67	57874.43
547.84	57911.88
548.00	57825.28
548.17	57937.62
548.34	57989.11
548.51	58005.50
548.67	58092.10
548.84	58092.10
549.01	58064.01
549.18	57965.71
549.34	57881.45
549.51	58064.01
549.68	58035.92
549.84	58164.65
550.01	58314.45
550.18	58115.50
550.34	58288.70
550.51	58581.27
550.68	58506.37
550.84	58096.78
551.01	58248.91
551.18	58379.98
551.34	58410.41
551.51	58473.60
551.68	58539.14
551.84	58555.52
552.01	58363.60
552.18	58447.86
552.34	58550.84
552.51	58525.10
552.68	58408.07
552.84	58515.73
553.01	58712.34
553.18	58504.03
553.34	58822.34
553.51	58534.46
553.67	58670.21
553.84	59011.93
554.01	58866.81
554.17	58892.56
554.34	59044.69
554.51	58852.77
554.67	58681.91
554.84	58904.26
555.00	58988.52
555.17	58700.64
555.33	58798.94
555.50	58712.34
555.67	58922.99
555.83	58815.32
556.00	58927.67
556.16	59442.59
556.33	59173.42
556.50	59337.26
556.66	59077.46
556.83	59063.42
556.99	59290.45
557.16	59187.47
557.32	59456.63
557.49	59339.60
557.65	59255.34
557.82	59089.16
557.98	59215.55
558.15	59238.96
558.32	59407.48
558.48	59442.59
558.65	59327.90
558.81	59355.99
558.98	59419.18
559.14	59400.46
559.31	59540.89
559.47	59379.39
559.64	59536.21
559.80	59723.45
559.97	59550.25
560.13	59414.50
560.30	59550.25
560.46	59676.64
560.63	59686.00
560.79	59686.00
560.96	59683.66
561.12	59868.56
561.29	59604.08
561.45	59906.01
561.61	59793.67
561.78	59791.33
561.94	59688.34
562.11	59629.83
562.27	59777.28
562.44	59683.66
562.60	60140.07
562.77	59952.82
562.93	59721.11
563.10	59985.59
563.26	59632.17
563.42	60186.88
563.59	59894.31
563.75	59784.30
563.92	59913.03
564.08	59910.69
564.24	59987.93
564.41	59999.63
564.57	60219.64
564.74	60037.08
564.90	59695.36
565.07	59849.84
565.23	60210.28
565.39	59849.84
565.56	60023.04
565.72	59952.82
565.88	59920.05
566.05	60116.66
566.21	60032.40
566.38	59927.08
566.54	60224.32
566.70	60147.09
566.87	60069.85
567.03	60030.06
567.19	60261.77
567.36	60083.89
567.52	60203.26
567.68	60413.91
567.85	60156.45
568.01	60336.67
568.17	60009.00
568.34	60135.38
568.50	60100.28
568.66	60416.25
568.83	60322.63
568.99	60186.88
569.15	60369.44
569.32	60261.77
569.48	60306.24
569.64	60514.55
569.81	60175.17
569.97	60369.44
570.13	60423.27
570.30	60186.88
570.46	60193.90
570.62	60406.89
570.78	60266.45
570.95	60205.60
571.11	60362.42
571.27	60170.49
571.43	60498.17
571.60	60346.03
571.76	60570.72
571.92	60404.55
572.09	60378.80
572.25	60343.69
572.41	60399.86
572.57	60427.95
572.74	60633.92
572.90	60467.74
573.06	60479.44
573.22	60491.15
573.38	60647.96
573.55	60294.54
573.71	60563.70
573.87	60488.80
574.03	60416.25
574.20	60493.49
574.36	60521.57
574.52	60406.89
574.68	60411.57
574.84	60790.73
575.01	60537.96
575.17	60582.43
575.33	60528.59
575.49	60608.17
575.65	60542.64
575.82	60563.70
575.98	60725.20
576.14	60568.38
576.30	60739.24
576.46	60411.57
576.62	60718.18
576.79	60481.78
576.95	60523.91
577.11	60715.84
577.27	60516.89
577.43	60907.76
577.59	60537.96
577.75	60636.26
577.92	60488.80
578.08	60573.06
578.24	60814.14
578.40	60842.23
578.56	61036.49
578.72	60582.43
578.88	60795.42
579.04	60905.42
579.21	60800.10
579.37	60877.33
579.53	60725.20
579.69	60507.53
579.85	60526.25
580.01	60537.96
580.17	60598.81
580.33	60767.33
580.49	60823.50
580.65	60755.63
580.82	60657.32
580.98	60659.66
581.14	60694.77
581.30	60697.11
581.46	60842.23
581.62	60746.26
581.78	60687.75
581.94	60849.25
582.10	60846.91
582.26	60715.84
582.42	60734.56
582.58	60814.14
582.74	60488.80
582.90	60846.91
583.06	60814.14
583.22	60570.72
583.38	60828.18
583.54	60816.48
583.70	60966.27
583.86	60910.10
584.02	60762.65
584.18	60961.59
584.34	61015.43
584.50	60905.42
584.66	60804.78
584.82	60725.20
584.98	60851.59
585.14	61139.47
585.30	60830.52
585.46	61050.53
585.62	60849.25
585.78	61050.53
585.94	60750.94
586.10	60910.10
586.26	60947.55
586.42	60954.57
586.58	60975.64
586.74	60802.44
586.90	60924.14
587.06	60697.11
587.22	61006.06
587.38	60821.16
587.54	61111.39
587.70	61141.81
587.86	61162.88
588.02	60739.24
588.18	61027.13
588.34	60996.70
588.49	60781.37
