SpectraSuite Data File
++++++++++++++++++++++++++++++++++++
Date: Fri Oct 25 11:26:25 EDT 2013
User: price-jones
Dark Spectrum Present: No
Reference Spectrum Present: No
Number of Sampled Component Spectra: 1
Spectrometers: USB2+H05261
Integration Time (usec): 100000 (USB2+H05261)
Spectra Averaged: 1 (USB2+H05261)
Boxcar Smoothing: 0 (USB2+H05261)
Correct for Electrical Dark: No (USB2+H05261)
Strobe/Lamp Enabled: No (USB2+H05261)
Correct for Detector Non-linearity: No (USB2+H05261)
Correct for Stray Light: No (USB2+H05261)
Number of Pixels in Processed Spectrum: 2048
>>>>>Begin Processed Spectral Data<<<<<
365.73	234.05
365.92	234.05
366.12	234.05
366.32	168.52
366.52	145.11
366.72	112.35
366.91	98.30
367.11	102.98
367.31	63.19
367.51	131.07
367.70	166.18
367.90	138.09
368.10	53.83
368.30	201.29
368.49	128.73
368.69	149.79
368.89	163.84
369.09	191.92
369.28	121.71
369.48	154.48
369.68	159.16
369.87	245.76
370.07	269.16
370.27	203.63
370.47	315.97
370.66	571.09
370.86	617.90
371.06	664.71
371.25	702.16
371.45	636.63
371.65	638.97
371.84	613.22
372.04	709.18
372.24	781.74
372.44	760.67
372.63	821.53
372.83	758.33
373.03	737.27
373.22	704.50
373.42	802.80
373.62	791.10
373.81	760.67
374.01	802.80
374.21	875.36
374.40	748.97
374.60	802.80
374.79	819.19
374.99	788.76
375.19	809.83
375.38	830.89
375.58	800.46
375.78	833.23
375.97	870.68
376.17	915.15
376.37	877.70
376.56	929.19
376.76	868.34
376.95	842.59
377.15	875.36
377.35	842.59
377.54	894.08
377.74	924.51
377.93	866.00
378.13	940.90
378.33	947.92
378.52	847.27
378.72	917.49
378.91	917.49
379.11	903.45
379.31	1011.11
379.50	849.61
379.70	1015.79
379.89	985.37
380.09	940.90
380.28	999.41
380.48	1004.09
380.68	924.51
380.87	978.34
381.07	1078.99
381.26	1025.15
381.46	990.05
381.65	1027.50
381.85	1025.15
382.04	1135.16
382.24	1011.11
382.43	1177.29
382.63	1090.69
382.83	1078.99
383.02	1050.90
383.22	1121.12
383.41	1048.56
383.61	1118.78
383.80	1086.01
384.00	1107.07
384.19	1156.22
384.39	1041.54
384.58	1121.12
384.78	1151.54
384.97	1125.80
385.17	1125.80
385.36	1170.27
385.56	1135.16
385.75	1153.88
385.95	1217.08
386.14	1212.40
386.34	1139.84
386.53	1203.04
386.72	1163.25
386.92	1188.99
387.11	1191.33
387.31	1188.99
387.50	1184.31
387.70	1219.42
387.89	1282.61
388.09	1252.19
388.28	1401.98
388.48	1308.36
388.67	1277.93
388.86	1327.08
389.06	1327.08
389.25	1385.60
389.45	1371.55
389.64	1296.66
389.84	1334.11
390.03	1277.93
390.22	1411.34
390.42	1350.49
390.61	1291.98
390.81	1430.07
391.00	1409.00
391.19	1474.54
391.39	1451.13
391.58	1561.14
391.78	1425.39
391.97	1507.30
392.16	1469.86
392.36	1521.35
392.55	1584.54
392.75	1643.06
392.94	1479.22
393.13	1521.35
393.33	1551.78
393.52	1533.05
393.71	1643.06
393.91	1540.07
394.10	1425.39
394.29	1509.65
394.49	1610.29
394.68	1671.14
394.88	1621.99
395.07	1699.23
395.26	1708.59
395.46	1790.51
395.65	1746.04
395.84	1640.72
396.04	1781.15
396.23	1774.13
396.42	1724.97
396.62	1703.91
396.81	1722.63
397.00	1713.27
397.19	1790.51
397.39	1872.43
397.58	1877.11
397.77	1863.07
397.97	1827.96
398.16	1905.20
398.35	1952.01
398.55	1741.36
398.74	1778.81
398.93	1881.79
399.12	1790.51
399.32	1940.30
399.51	1952.01
399.70	1928.60
399.90	2012.86
400.09	1935.62
400.28	2059.67
400.47	2031.58
400.67	2008.18
400.86	2050.31
401.05	2127.55
401.24	2045.63
401.44	2125.21
401.63	2150.95
401.82	2139.25
402.01	2211.81
402.21	2118.18
402.40	2195.42
402.59	2176.70
402.78	2246.91
402.97	2223.51
403.17	2319.47
403.36	2246.91
403.55	2317.13
403.74	2452.88
403.93	2401.39
404.13	2267.98
404.32	2352.24
404.51	2354.58
404.70	2523.10
404.89	2314.79
405.09	2408.41
405.28	2478.63
405.47	2495.01
405.66	2441.18
405.85	2569.91
406.05	2483.31
406.24	2497.35
406.43	2471.61
406.62	2516.08
406.81	2602.68
407.00	2537.14
407.20	2485.65
407.39	2684.59
407.58	2614.38
407.77	2773.53
407.96	2829.71
408.15	2810.98
408.34	2691.62
408.54	2871.84
408.73	2773.53
408.92	2789.92
409.11	2876.52
409.30	2904.60
409.49	2916.31
409.68	2883.54
409.87	2874.18
410.07	3042.70
410.26	2995.89
410.45	2963.12
410.64	2958.44
410.83	3112.91
411.02	2986.52
411.21	3094.19
411.40	3206.53
411.59	3239.30
411.78	3173.77
411.98	3187.81
412.17	3288.45
412.36	3222.92
412.55	3269.73
412.74	3246.32
412.93	3449.95
413.12	3290.79
413.31	3644.21
413.50	3424.20
413.69	3438.25
413.88	3461.65
414.07	3524.85
414.26	3662.94
414.45	3503.78
414.64	3735.50
414.83	3698.05
415.02	3686.34
415.22	3777.62
415.41	3812.73
415.60	3824.44
415.79	3889.97
415.98	4014.02
416.17	3925.08
416.36	3866.56
416.55	4004.66
416.74	4063.17
416.93	4112.32
417.12	4156.79
417.31	4156.79
417.50	4117.00
417.69	4290.20
417.88	4299.56
418.07	4315.95
418.26	4269.14
418.45	4358.08
418.64	4456.38
418.83	4376.80
419.02	4329.99
419.21	4404.89
419.39	4447.02
419.58	4489.15
419.77	4463.40
419.96	4379.14
420.15	4407.23
420.34	4507.87
420.53	4514.89
420.72	4580.43
420.91	4660.01
421.10	4606.17
421.29	4746.61
421.48	4664.69
421.67	4725.54
421.86	4770.01
422.05	4826.18
422.24	4858.95
422.43	4856.61
422.61	4823.84
422.80	4807.46
422.99	4908.10
423.18	4826.18
423.37	4968.96
423.56	4973.64
423.75	5006.41
423.94	4800.44
424.13	4524.26
424.32	4791.08
424.50	4910.44
424.69	5071.94
424.88	5057.90
425.07	5041.51
425.26	4931.51
425.45	4936.19
425.64	5004.07
425.83	4947.89
426.01	4961.94
426.20	4917.47
426.39	4971.30
426.58	5116.41
426.77	4959.60
426.96	5181.95
427.15	5121.09
427.33	5018.11
427.52	5039.17
427.71	5188.97
427.90	5275.57
428.09	5231.10
428.28	5327.06
428.46	5277.91
428.65	5357.49
428.84	5479.19
429.03	5439.40
429.22	5376.21
429.40	5350.46
429.59	5514.30
429.78	5193.65
429.97	5165.56
430.16	5320.04
430.34	5631.33
430.53	5568.13
430.72	5591.54
430.91	5710.91
431.10	5575.16
431.28	5746.02
431.47	5727.29
431.66	5750.70
431.85	5802.19
432.03	5841.98
432.22	5813.89
432.41	5898.15
432.60	5797.51
432.79	5839.64
432.97	5987.09
433.16	5996.45
433.35	6017.52
433.54	5905.17
433.72	6171.99
433.91	5989.43
434.10	6083.05
434.28	6031.56
434.47	6099.44
434.66	6111.14
434.85	6242.21
435.03	6284.34
435.22	6078.37
435.41	6399.02
435.59	6558.18
435.78	6520.73
435.97	6331.15
436.16	6279.66
436.34	6429.45
436.53	6583.93
436.72	6546.48
436.90	6429.45
437.09	6502.01
437.28	6518.39
437.46	6534.78
437.65	6843.73
437.84	6937.35
438.02	6609.67
438.21	6843.73
438.40	6586.27
438.58	7012.24
438.77	6949.05
438.96	7007.56
439.14	7087.14
439.33	7082.46
439.52	7068.42
439.70	7309.49
439.89	7201.83
440.08	7478.01
440.26	7328.22
440.45	7351.62
440.63	7468.65
440.82	7712.07
441.01	7382.05
441.19	7438.22
441.38	7641.85
441.57	7667.60
441.75	7700.36
441.94	7990.59
442.12	7793.98
442.31	7660.57
442.50	7962.50
442.68	8046.76
442.87	7854.84
443.05	7925.05
443.24	8049.10
443.43	8152.09
443.61	8226.98
443.80	8423.59
443.98	8039.74
444.17	7882.92
444.35	8114.64
444.54	8149.75
444.73	8201.24
444.91	8234.00
445.10	8374.44
445.28	8198.90
445.47	8285.50
445.65	8241.03
445.84	8140.38
446.02	8369.76
446.21	8500.83
446.39	8318.26
446.58	8432.95
446.77	8428.27
446.95	8241.03
447.14	8482.10
447.32	8671.68
447.51	8589.77
447.69	8421.25
447.88	8402.52
448.06	8505.51
448.25	8592.11
448.43	8627.21
448.62	8552.32
448.80	8573.38
448.99	8889.35
449.17	8685.73
449.36	8566.36
449.54	8898.72
449.73	8844.88
449.91	8940.85
450.10	8814.46
450.28	8975.95
450.46	9214.69
450.65	8887.01
450.83	9205.33
451.02	9001.70
451.20	9109.36
451.39	9078.94
451.57	9006.38
451.76	9029.79
451.94	9076.60
452.13	9359.80
452.31	9308.31
452.49	9083.62
452.68	9369.16
452.86	9226.39
453.05	9547.05
453.23	9399.59
453.42	9350.44
453.60	9355.12
453.78	9317.67
453.97	9247.46
454.15	9348.10
454.34	9394.91
454.52	9322.35
454.70	9427.68
454.89	9699.18
455.07	9839.61
455.26	9753.01
455.44	9858.34
455.62	10052.60
455.81	9900.47
455.99	9930.89
456.17	10087.71
456.36	9935.57
456.54	10272.61
456.73	10307.72
456.91	10218.78
457.09	10338.15
457.28	10340.49
457.46	10193.03
457.64	10352.19
457.83	10375.59
458.01	10319.42
458.19	10490.28
458.38	10354.53
458.56	10499.64
458.74	10546.45
458.93	10581.56
459.11	10445.81
459.29	10539.43
459.48	10689.23
459.66	10527.73
459.84	10822.64
460.03	10970.09
460.21	11061.37
460.39	11103.50
460.57	10764.12
460.76	11206.48
460.94	10895.19
461.12	11159.67
461.31	11068.39
461.49	11159.67
461.67	11108.18
461.85	11358.62
462.04	11227.55
462.22	11662.89
462.40	11726.08
462.59	11644.17
462.77	11318.83
462.95	11501.39
463.13	11503.73
463.32	11414.79
463.50	11529.48
463.68	11763.53
463.86	11749.49
464.05	11800.98
464.23	11566.93
464.41	11852.47
464.59	11613.74
464.78	12121.63
464.96	11990.56
465.14	11894.60
465.32	11770.55
465.50	12032.69
465.69	12287.81
465.87	12138.02
466.05	12325.26
466.23	12002.27
466.41	11880.56
466.60	12201.21
466.78	12081.85
466.96	12002.27
467.14	12212.92
467.32	12294.83
467.51	12414.20
467.69	12201.21
467.87	12421.22
468.05	12727.83
468.23	12320.58
468.41	12285.47
468.60	12568.68
468.78	12573.36
468.96	12306.54
469.14	12865.92
469.32	12835.50
469.50	12393.14
469.69	12571.02
469.87	13245.09
470.05	12994.65
470.23	12826.14
470.41	12870.61
470.59	13200.62
470.77	13097.64
470.95	12971.25
471.14	13277.86
471.32	12994.65
471.50	13259.13
471.68	13488.51
471.86	13373.82
472.04	13617.24
472.22	13834.91
472.40	13593.83
472.58	13647.66
472.77	13888.74
472.95	14057.26
473.13	14504.30
473.31	13991.72
473.49	14277.27
473.67	13940.23
473.85	14335.78
474.03	14441.11
474.21	14251.52
474.39	14455.15
474.57	14609.62
474.75	14883.47
474.93	14710.27
475.12	14869.42
475.30	15007.52
475.48	14848.36
475.66	15122.20
475.84	14986.45
476.02	15234.55
476.20	15372.64
476.38	15421.79
476.56	15871.17
476.74	15845.43
476.92	15843.09
477.10	15627.76
477.28	15815.00
477.46	15997.56
477.64	16079.48
477.82	16444.60
478.00	16791.00
478.18	16692.70
478.36	16566.31
478.54	16987.61
478.72	17067.19
478.90	17205.28
479.08	17422.95
479.26	17778.71
479.44	17350.39
479.62	17579.76
479.80	17776.37
479.98	18197.67
480.16	18401.29
480.34	18029.15
480.52	18448.10
480.70	18532.36
480.88	18345.12
481.06	18771.10
481.24	18640.03
481.41	19098.77
481.59	19302.40
481.77	19660.50
481.95	19323.46
482.13	19857.10
482.31	19513.05
482.49	20166.06
482.67	19948.39
482.85	20077.12
483.03	20617.78
483.21	20648.21
483.39	21060.14
483.57	20592.03
483.74	21209.93
483.92	21259.09
484.10	21041.42
484.28	21766.98
484.46	21823.16
484.64	22267.86
484.82	21954.22
485.00	22359.14
485.18	22349.78
485.35	22984.06
485.53	22611.92
485.71	23192.37
485.89	23236.84
486.07	22883.42
486.25	23293.01
486.43	23288.33
486.61	23534.09
486.78	23814.95
486.96	23934.32
487.14	24229.23
487.32	24374.34
487.50	24657.54
487.68	24552.22
487.85	25008.62
488.03	25238.00
488.21	25759.94
488.39	25364.39
488.57	25811.43
488.75	25886.32
488.92	26068.89
489.10	26452.73
489.28	26616.57
489.46	26827.22
489.64	27049.57
489.81	27356.18
489.99	27456.82
490.17	27775.14
490.35	27934.29
490.53	27810.25
490.70	28133.24
490.88	28114.52
491.06	28786.25
491.24	28362.61
491.41	28802.63
491.59	29481.39
491.77	29315.21
491.95	29249.67
492.13	29827.79
492.30	29502.45
492.48	29825.45
492.66	29869.92
492.84	30305.26
493.01	30419.94
493.19	30345.05
493.37	30534.63
493.54	30754.64
493.72	31440.42
493.90	31365.52
494.08	31662.77
494.25	31864.05
494.43	31641.70
494.61	32217.47
494.79	32334.50
494.96	31903.84
495.14	32477.27
495.32	32877.51
495.49	32851.76
495.67	33237.95
495.85	33010.92
496.02	33202.84
496.20	34000.96
496.38	33816.06
496.55	34057.14
496.73	35012.07
496.91	34457.37
497.09	34597.80
497.26	34321.62
497.44	34850.58
497.62	34965.26
497.79	35597.21
497.97	35098.67
498.14	35409.96
498.32	35725.94
498.50	35922.54
498.67	36252.56
498.85	36219.79
499.03	35917.86
499.20	36217.45
499.38	36598.96
499.56	36762.79
499.73	36872.80
499.91	36947.70
500.08	37305.80
500.26	37214.52
500.44	37249.63
500.61	37315.16
500.79	37902.64
500.97	37783.27
501.14	38380.10
501.32	38483.09
501.49	37958.81
501.67	38548.62
501.84	38703.10
502.02	38911.41
502.20	38658.63
502.37	38761.61
502.55	38988.64
502.72	39442.71
502.90	39182.91
503.07	39117.37
503.25	39620.59
503.43	39431.01
503.60	39922.52
503.78	39552.71
503.95	39990.39
504.13	40191.68
504.30	40491.27
504.48	40191.68
504.65	40343.81
504.83	40912.56
505.01	40945.33
505.18	40966.40
505.36	40629.36
505.53	40690.21
505.71	41308.11
505.88	41631.11
506.06	41270.67
506.23	41743.45
506.41	41460.25
506.58	41633.45
506.76	42087.51
506.93	42291.14
507.11	41476.63
507.28	42375.40
507.46	42110.92
507.63	42691.37
507.81	42684.35
507.98	42506.47
508.16	42890.32
508.33	42604.77
508.50	42920.74
508.68	43498.86
508.85	43700.14
509.03	43342.04
509.20	43519.92
509.38	44086.33
509.55	43962.28
509.73	44025.48
509.90	44079.31
510.08	43948.24
510.25	44502.95
510.42	44573.16
510.60	44634.02
510.77	44914.88
510.95	44903.18
511.12	44690.19
511.30	44814.24
511.47	44992.12
511.64	45464.91
511.82	45869.82
511.99	45249.58
512.17	45469.59
512.34	45872.16
512.51	46356.65
512.69	45827.69
512.86	46089.83
513.04	46300.48
513.21	46260.69
513.38	46225.58
513.56	46632.83
513.73	46127.28
513.90	46815.40
514.08	46639.86
514.25	47000.30
514.43	47278.82
514.60	47250.74
514.77	46876.25
514.95	47271.80
515.12	47185.20
515.29	47466.06
515.47	47538.62
515.64	47812.46
515.81	47725.86
515.99	47515.22
516.16	48313.34
516.33	48545.05
516.51	48182.27
516.68	48112.05
516.85	47962.26
517.03	48659.74
517.20	48069.92
517.37	48676.12
517.54	48509.94
517.72	48912.52
517.89	49209.76
518.06	49336.15
518.24	48823.58
518.41	49181.68
518.58	49174.66
518.75	49064.65
518.93	49172.31
519.10	48708.89
519.27	49656.81
519.45	49427.43
519.62	49485.95
519.79	49317.43
519.96	49663.83
520.14	50028.95
520.31	49715.32
520.48	50183.43
520.65	50237.26
520.83	50155.34
521.00	50527.48
521.17	50309.82
521.34	50145.98
521.52	50344.92
521.69	50937.08
521.86	50773.24
522.03	50869.20
522.20	50777.92
522.38	51318.59
522.55	51239.01
522.72	50796.65
522.89	51072.83
523.07	51550.30
523.24	51386.46
523.41	51569.02
523.58	51344.33
523.75	51475.40
523.92	51552.64
524.10	51739.88
524.27	51838.18
524.44	51856.91
524.61	51648.60
524.78	52060.54
524.96	52039.47
525.13	51870.95
525.30	52411.62
525.47	52636.31
525.64	52051.17
525.81	52425.66
525.98	52245.44
526.16	52200.97
526.33	52268.84
526.50	52767.38
526.67	52540.35
526.84	52608.22
527.01	52711.20
527.18	52573.11
527.36	52678.44
527.53	52999.09
527.70	53125.48
527.87	53013.13
528.04	53076.33
528.21	53090.37
528.38	53034.20
528.55	53530.39
528.72	53017.82
528.89	53256.55
529.07	53254.21
529.24	52875.04
529.41	53544.44
529.58	53420.39
529.75	53492.94
529.92	53399.32
530.09	53600.61
530.26	53780.83
530.43	53815.94
530.60	53602.95
530.77	53457.84
530.94	53815.94
531.11	54038.29
531.28	53909.56
531.46	53820.62
531.63	53925.94
531.80	53858.07
531.97	54248.94
532.14	54515.76
532.31	54251.28
532.48	54405.75
532.65	54555.55
532.82	54157.66
532.99	54534.48
533.16	54024.25
533.33	54459.58
533.50	54681.94
533.67	54740.45
533.84	54485.33
534.01	54611.72
534.18	54628.10
534.35	54953.44
534.52	54695.98
534.69	55206.22
534.86	55056.42
535.03	54869.18
535.20	54972.16
535.37	55033.02
535.54	55154.72
535.71	55126.64
535.88	54981.52
536.05	55098.55
536.22	55449.63
536.38	55236.64
536.55	55447.29
536.72	55356.01
536.89	55423.89
537.06	55458.99
537.23	55641.56
537.40	55316.22
537.57	55477.72
537.74	55482.40
537.91	55636.87
538.08	55709.43
538.25	55662.62
538.42	55669.64
538.59	55817.10
538.75	55646.24
538.92	55973.91
539.09	55884.97
539.26	55948.17
539.43	55791.35
539.60	56214.99
539.77	55931.78
539.94	56472.45
540.11	56196.26
540.28	56411.59
540.44	56193.92
540.61	56371.80
540.78	56109.66
540.95	56233.71
541.12	56310.95
541.29	56088.60
541.46	56257.12
541.62	56336.69
541.79	56369.46
541.96	56168.18
542.13	56364.78
542.30	56435.00
542.47	56568.41
542.63	56767.35
542.80	56746.29
542.97	56963.96
543.14	56949.92
543.31	56889.06
543.48	57258.87
543.64	57188.65
543.81	57146.52
543.98	57134.82
544.15	57205.03
544.32	57317.38
544.48	57504.62
544.65	57010.77
544.82	57315.04
544.99	57090.35
545.16	57490.58
545.32	57169.93
545.49	57549.09
545.66	57546.75
545.83	57289.29
546.00	57476.54
546.16	57329.08
546.33	57399.30
546.50	57319.72
546.67	57509.30
546.83	57275.25
547.00	57591.22
547.17	57614.63
547.34	57560.79
547.50	57626.33
547.67	57972.73
547.84	57815.91
548.00	58000.82
548.17	57797.19
548.34	57741.02
548.51	58099.12
548.67	58000.82
548.84	58075.71
549.01	57832.30
549.18	57963.37
549.34	58054.65
549.51	57993.79
549.68	58220.83
549.84	58166.99
550.01	58078.05
550.18	58129.54
550.34	58351.90
550.51	58363.60
550.68	58248.91
550.84	58225.51
551.01	58295.72
551.18	58272.32
551.34	58309.77
551.51	58333.17
551.68	57977.41
551.84	58337.85
552.01	58174.02
552.18	58429.13
552.34	58347.21
552.51	58475.94
552.68	58438.50
552.84	58492.33
553.01	58717.02
553.18	58660.85
553.34	58672.55
553.51	58574.25
553.67	58623.40
553.84	58684.25
554.01	58766.17
554.17	58770.85
554.34	58805.96
554.51	58782.55
554.67	58749.79
554.84	58698.30
555.00	58885.54
555.17	58848.09
555.33	58733.40
555.50	58908.94
555.67	58897.24
555.83	58864.47
556.00	59072.78
556.16	59250.66
556.33	59217.89
556.50	59049.38
556.66	59224.92
556.83	58944.05
556.99	59222.58
557.16	59255.34
557.32	59330.24
557.49	59405.14
557.65	58862.13
557.82	59201.51
557.98	59173.42
558.15	59348.96
558.32	59147.68
558.48	59395.77
558.65	59269.39
558.81	59428.54
558.98	59360.67
559.14	59288.11
559.31	59250.66
559.47	59458.97
559.64	59477.69
559.80	59587.70
559.97	59576.00
560.13	59372.37
560.30	59423.86
560.46	59402.80
560.63	59491.74
560.79	59700.04
560.96	59615.79
561.12	59536.21
561.29	59770.26
561.45	59749.20
561.61	59442.59
561.78	59753.88
561.94	59351.30
562.11	59625.15
562.27	59700.04
562.44	59849.84
562.60	59915.37
562.77	59920.05
562.93	59742.17
563.10	60034.74
563.26	60030.06
563.42	60107.30
563.59	59791.33
563.75	59807.71
563.92	59845.16
564.08	59788.98
564.24	59786.64
564.41	59852.18
564.57	59938.78
564.74	60058.15
564.90	59943.46
565.07	60048.78
565.23	59810.05
565.39	59847.50
565.56	60034.74
565.72	59983.25
565.88	60004.31
566.05	59880.27
566.21	59868.56
566.38	60046.44
566.54	60083.89
566.70	60196.24
566.87	60121.34
567.03	59704.73
567.19	60346.03
567.36	60060.49
567.52	60046.44
567.68	60308.58
567.85	60189.22
568.01	60364.76
568.17	60111.98
568.34	60140.07
568.50	59976.23
568.66	60151.77
568.83	60147.09
568.99	60198.58
569.15	60236.03
569.32	60474.76
569.48	60226.66
569.64	60505.19
569.81	60273.48
569.97	60067.51
570.13	60168.15
570.30	60093.25
570.46	60240.71
570.62	60182.19
570.78	60303.90
570.95	60149.43
571.11	60399.86
571.27	60339.01
571.43	60339.01
571.60	60257.09
571.76	60451.36
571.92	60418.59
572.09	60306.24
572.25	60519.23
572.41	60477.10
572.57	60257.09
572.74	60563.70
572.90	60252.41
573.06	60458.38
573.22	60357.74
573.38	60488.80
573.55	60692.43
573.71	60669.03
573.87	60605.83
574.03	60364.76
574.20	60711.16
574.36	60346.03
574.52	60554.34
574.68	60587.11
574.84	60603.49
575.01	60633.92
575.17	60582.43
575.33	60502.85
575.49	60418.59
575.65	60505.19
575.82	60631.58
575.98	60369.44
576.14	60919.46
576.30	60734.56
576.46	60556.68
576.62	60633.92
576.79	60652.64
576.95	60107.30
577.11	60493.49
577.27	60617.53
577.43	60692.43
577.59	60544.98
577.75	60470.08
577.92	60582.43
578.08	60626.90
578.24	60683.07
578.40	60823.50
578.56	60699.45
578.72	60516.89
578.88	60772.01
579.04	60879.67
579.21	60580.09
579.37	60786.05
579.53	60767.33
579.69	60596.47
579.85	60537.96
580.01	60589.45
580.17	60598.81
580.33	60757.97
580.49	60647.96
580.65	60757.97
580.82	60748.60
580.98	60680.73
581.14	60860.95
581.30	61006.06
581.46	60500.51
581.62	60802.44
581.78	60512.21
581.94	60676.05
582.10	60652.64
582.26	60640.94
582.42	60664.35
582.58	60907.76
582.74	60725.20
582.90	60713.50
583.06	60669.03
583.22	60678.39
583.38	60678.39
583.54	60701.79
583.70	60772.01
583.86	60935.85
584.02	60800.10
584.18	60877.33
584.34	60961.59
584.50	61029.47
584.66	60694.77
584.82	60519.23
584.98	60863.29
585.14	60963.93
585.30	60692.43
585.46	60917.12
585.62	60713.50
585.78	61031.81
585.94	60594.13
586.10	60816.48
586.26	60874.99
586.42	60821.16
586.58	61160.54
586.74	60790.73
586.90	60898.40
587.06	60706.47
587.22	61130.11
587.38	61027.13
587.54	60830.52
587.70	60907.76
587.86	61111.39
588.02	60891.38
588.18	61109.05
588.34	60767.33
588.49	60882.02
