SpectraSuite Data File
++++++++++++++++++++++++++++++++++++
Date: Fri Oct 25 10:44:47 EDT 2013
User: price-jones
Dark Spectrum Present: No
Reference Spectrum Present: No
Number of Sampled Component Spectra: 1
Spectrometers: USB2+H05261
Integration Time (usec): 100000 (USB2+H05261)
Spectra Averaged: 1 (USB2+H05261)
Boxcar Smoothing: 0 (USB2+H05261)
Correct for Electrical Dark: No (USB2+H05261)
Strobe/Lamp Enabled: No (USB2+H05261)
Correct for Detector Non-linearity: No (USB2+H05261)
Correct for Stray Light: No (USB2+H05261)
Number of Pixels in Processed Spectrum: 2048
>>>>>Begin Processed Spectral Data<<<<<
365.73	126.39
365.92	126.39
366.12	126.39
366.32	53.83
366.52	25.75
366.72	0.00
366.91	0.00
367.11	28.09
367.31	0.00
367.51	46.81
367.70	0.00
367.90	42.13
368.10	4.68
368.30	28.09
368.49	95.96
368.69	18.72
368.89	11.70
369.09	30.43
369.28	95.96
369.48	91.28
369.68	35.11
369.87	95.96
370.07	98.30
370.27	170.86
370.47	243.42
370.66	348.74
370.86	430.66
371.06	433.00
371.25	472.79
371.45	353.42
371.65	489.17
371.84	376.83
372.04	418.96
372.24	545.34
372.44	414.27
372.63	451.72
372.83	486.83
373.03	442.36
373.22	458.74
373.42	514.92
373.62	540.66
373.81	524.28
374.01	538.32
374.21	550.03
374.40	575.77
374.60	496.19
374.79	533.64
374.99	500.87
375.19	568.75
375.38	601.52
375.58	510.24
375.78	547.69
375.97	547.69
376.17	500.87
376.37	552.37
376.56	667.05
376.76	547.69
376.95	613.22
377.15	592.16
377.35	655.35
377.54	669.39
377.74	540.66
377.93	587.47
378.13	550.03
378.33	606.20
378.52	608.54
378.72	699.82
378.91	704.50
379.11	631.94
379.31	655.35
379.50	592.16
379.70	669.39
379.89	653.01
380.09	620.24
380.28	578.11
380.48	594.50
380.68	657.69
380.87	540.66
381.07	674.07
381.26	690.46
381.46	692.80
381.65	624.92
381.85	629.60
382.04	692.80
382.24	571.09
382.43	671.73
382.63	699.82
382.83	753.65
383.02	718.54
383.22	674.07
383.41	613.22
383.61	711.52
383.80	791.10
384.00	734.93
384.19	744.29
384.39	697.48
384.58	730.25
384.78	737.27
384.97	664.71
385.17	709.18
385.36	767.70
385.56	711.52
385.75	690.46
385.95	746.63
386.14	821.53
386.34	800.46
386.53	809.83
386.72	730.25
386.92	781.74
387.11	809.83
387.31	844.93
387.50	791.10
387.70	816.85
387.89	812.17
388.09	952.60
388.28	748.97
388.48	847.27
388.67	842.59
388.86	922.17
389.06	807.48
389.25	919.83
389.45	915.15
389.64	870.68
389.84	971.32
390.03	966.64
390.22	802.80
390.42	919.83
390.61	903.45
390.81	880.04
391.00	938.55
391.19	1022.81
391.39	961.96
391.58	994.73
391.78	985.37
391.97	997.07
392.16	999.41
392.36	950.26
392.55	973.66
392.75	992.39
392.94	976.00
393.13	952.60
393.33	994.73
393.52	1020.47
393.71	968.98
393.91	983.02
394.10	1039.20
394.29	992.39
394.49	1088.35
394.68	1104.73
394.88	1097.71
395.07	1142.18
395.26	1109.41
395.46	1167.93
395.65	1149.20
395.84	1153.88
396.04	1273.25
396.23	1151.54
396.42	1149.20
396.62	1139.84
396.81	1132.82
397.00	1249.85
397.19	1177.29
397.39	1179.63
397.58	1310.70
397.77	1291.98
397.97	1184.31
398.16	1242.82
398.35	1282.61
398.55	1355.17
398.74	1308.36
398.93	1261.55
399.12	1338.79
399.32	1320.06
399.51	1336.45
399.70	1413.68
399.90	1338.79
400.09	1458.15
400.28	1387.94
400.47	1411.34
400.67	1392.62
400.86	1563.48
401.05	1385.60
401.24	1528.37
401.44	1458.15
401.63	1542.41
401.82	1521.35
402.01	1387.94
402.21	1497.94
402.40	1556.46
402.59	1591.56
402.78	1511.99
402.97	1481.56
403.17	1645.40
403.36	1453.47
403.55	1605.61
403.74	1717.95
403.93	1621.99
404.13	1633.69
404.32	1680.50
404.51	1736.68
404.70	1687.53
404.89	1650.08
405.09	1783.49
405.28	1743.70
405.47	1792.85
405.66	1874.77
405.85	1776.47
406.05	1710.93
406.24	1799.87
406.43	1856.04
406.62	1867.75
406.81	1872.43
407.00	1771.79
407.20	1877.11
407.39	1891.15
407.58	1858.39
407.77	1973.07
407.96	1954.35
408.15	2045.63
408.34	2017.54
408.54	2033.93
408.73	2026.90
408.92	2083.08
409.11	2143.93
409.30	2153.29
409.49	2033.93
409.68	2118.18
409.87	2012.86
410.07	2108.82
410.26	1975.41
410.45	2080.74
410.64	2118.18
410.83	2188.40
411.02	2136.91
411.21	2122.87
411.40	2195.42
411.59	2275.00
411.78	2300.75
411.98	2331.17
412.17	2399.05
412.36	2403.73
412.55	2286.70
412.74	2429.48
412.93	2448.20
413.12	2392.03
413.31	2487.99
413.50	2509.05
413.69	2492.67
413.88	2581.61
414.07	2560.55
414.26	2637.78
414.45	2635.44
414.64	2654.17
414.83	2668.21
415.02	2708.00
415.22	2820.35
415.41	2740.77
415.60	2750.13
415.79	2733.75
415.98	2928.01
416.17	2818.00
416.36	2939.71
416.55	2862.48
416.74	2963.12
416.93	2850.77
417.12	2904.60
417.31	2942.05
417.50	3026.31
417.69	3002.91
417.88	3038.02
418.07	3101.21
418.26	3040.36
418.45	3155.04
418.64	3279.09
418.83	3365.69
419.02	3103.55
419.21	3136.32
419.39	3236.96
419.58	3117.59
419.77	3171.43
419.96	3258.03
420.15	3318.88
420.34	3199.51
420.53	3349.31
420.72	3435.91
420.91	3471.01
421.10	3478.04
421.29	3384.41
421.48	3332.92
421.67	3440.59
421.86	3346.97
422.05	3456.97
422.24	3524.85
422.43	3393.78
422.61	3368.03
422.80	3499.10
422.99	3527.19
423.18	3557.61
423.37	3761.24
423.56	3473.36
423.75	3475.70
423.94	3468.67
424.13	3353.99
424.32	3538.89
424.50	3588.04
424.69	3604.42
424.88	3492.08
425.07	3466.33
425.26	3562.30
425.45	3398.46
425.64	3541.23
425.83	3672.30
426.01	3646.55
426.20	3735.50
426.39	3644.21
426.58	3644.21
426.77	3609.11
426.96	3684.00
427.15	3599.74
427.33	3693.37
427.52	3658.26
427.71	3749.54
427.90	3850.18
428.09	3709.75
428.28	3796.35
428.46	3782.31
428.65	3836.14
428.84	3861.88
429.03	4046.79
429.22	3705.07
429.40	3672.30
429.59	3875.93
429.78	3559.95
429.97	3510.80
430.16	3632.51
430.34	3695.71
430.53	3927.42
430.72	3857.20
430.91	3925.08
431.10	3948.48
431.28	4238.71
431.47	4184.88
431.66	4238.71
431.85	4063.17
432.03	4280.84
432.22	4271.48
432.41	4203.60
432.60	4051.47
432.79	4166.15
432.97	4287.86
433.16	4376.80
433.35	4271.48
433.54	4264.46
433.72	4365.10
433.91	4140.41
434.10	4173.18
434.28	4329.99
434.47	4425.95
434.66	4491.49
434.85	4461.06
435.03	4437.66
435.22	4477.44
435.41	4542.98
435.59	4521.92
435.78	4421.27
435.97	4704.48
436.16	4652.98
436.34	4699.80
436.53	4709.16
436.72	4779.37
436.90	4627.24
437.09	4765.33
437.28	4697.46
437.46	4582.77
437.65	4706.82
437.84	4732.56
438.02	4601.49
438.21	4739.58
438.40	4638.94
438.58	4798.10
438.77	4978.32
438.96	4961.94
439.14	4863.63
439.33	4983.00
439.52	4992.36
439.70	5055.56
439.89	5097.69
440.08	5172.58
440.26	5184.29
440.45	5114.07
440.63	5338.76
440.82	5383.23
441.01	5350.46
441.19	5270.89
441.38	5523.66
441.57	5575.16
441.75	5540.05
441.94	5764.74
442.12	5600.90
442.31	5652.39
442.50	5748.36
442.68	5628.99
442.87	5659.42
443.05	5638.35
443.24	5865.38
443.43	5858.36
443.61	5872.40
443.80	6057.31
443.98	5781.12
444.17	5434.72
444.35	5949.64
444.54	6073.69
444.73	5884.11
444.91	5895.81
445.10	5856.02
445.28	5839.64
445.47	5668.78
445.65	5701.54
445.84	5933.26
446.02	6043.26
446.21	5844.32
446.39	6012.84
446.58	6061.99
446.77	5823.25
446.95	5844.32
447.14	5954.32
447.32	6047.94
447.51	6010.50
447.69	6012.84
447.88	6069.01
448.06	6195.40
448.25	5956.66
448.43	6050.28
448.62	6015.18
448.80	6195.40
448.99	6242.21
449.17	6218.80
449.36	6019.86
449.54	6239.87
449.73	6230.51
449.91	6420.09
450.10	6513.71
450.28	6282.00
450.46	6244.55
450.65	6331.15
450.83	6483.28
451.02	6392.00
451.20	6392.00
451.39	6377.96
451.57	6511.37
451.76	6457.54
451.94	6546.48
452.13	6586.27
452.31	6509.03
452.49	6267.95
452.68	6427.11
452.86	6487.96
453.05	6581.59
453.23	6640.10
453.42	6534.78
453.60	6722.02
453.78	6733.72
453.97	6567.54
454.15	6607.33
454.34	6541.80
454.52	6794.58
454.70	6876.49
454.89	6923.30
455.07	6794.58
455.26	6813.30
455.44	6906.92
455.62	6937.35
455.81	6909.26
455.99	7152.68
456.17	7012.24
456.36	7204.17
456.54	7133.95
456.73	7166.72
456.91	7262.68
457.09	7110.55
457.28	7335.24
457.46	7379.71
457.64	7410.14
457.83	7309.49
458.01	7159.70
458.19	7445.24
458.38	7220.55
458.56	7543.55
458.74	7368.01
458.93	7634.83
459.11	7667.60
459.29	7503.76
459.48	7686.32
459.66	7548.23
459.84	7524.82
460.03	7789.30
460.21	7637.17
460.39	7850.16
460.57	7836.11
460.76	7749.51
460.94	7861.86
461.12	7812.71
461.31	7878.24
461.49	7815.05
461.67	7829.09
461.85	7894.63
462.04	7908.67
462.22	8028.04
462.40	8044.42
462.59	8093.57
462.77	8037.40
462.95	8138.04
463.13	8133.36
463.32	8091.23
463.50	8402.52
463.68	8163.79
463.86	8023.36
464.05	8053.78
464.23	8257.41
464.41	8175.49
464.59	8100.59
464.78	8224.64
464.96	8336.99
465.14	8367.42
465.32	8346.35
465.50	8482.10
465.69	8545.30
465.87	8276.13
466.05	8561.68
466.23	8236.35
466.41	8435.29
466.60	8446.99
466.78	8205.92
466.96	8273.79
467.14	8545.30
467.32	8519.55
467.51	8634.24
467.69	8353.37
467.87	8505.51
468.05	8678.71
468.23	8549.98
468.41	8762.97
468.60	8842.54
468.78	8690.41
468.96	8711.47
469.14	8791.05
469.32	8781.69
469.50	8697.43
469.69	8800.41
469.87	8830.84
470.05	8917.44
470.23	8877.65
470.41	8947.87
470.59	9057.87
470.77	9050.85
470.95	8947.87
471.14	9116.39
471.32	9156.18
471.50	9305.97
471.68	9322.35
471.86	9219.37
472.04	9352.78
472.22	9577.47
472.40	9455.76
472.58	9509.60
472.77	9521.30
472.95	9540.02
473.13	9984.73
473.31	9507.26
473.49	9753.01
473.67	9537.68
473.85	9764.72
474.03	10066.64
474.21	10150.90
474.39	10043.24
474.57	9982.38
474.75	9963.66
474.93	10277.29
475.12	10352.19
475.30	10401.34
475.48	10169.63
475.66	10289.00
475.84	10186.01
476.02	10286.65
476.20	10520.71
476.38	10647.10
476.56	10822.64
476.74	10782.85
476.92	10670.50
477.10	10918.60
477.28	10911.58
477.46	10867.11
477.64	11052.01
477.82	11248.61
478.00	11421.81
478.18	11487.35
478.36	11433.52
478.54	11538.84
478.72	11672.25
478.90	11674.59
479.08	11754.17
479.26	12013.97
479.44	12121.63
479.62	11882.90
479.80	12163.76
479.98	12060.78
480.16	12365.05
480.34	12566.34
480.52	12844.86
480.70	12606.13
480.88	12453.99
481.06	12802.73
481.24	12638.89
481.41	12917.42
481.59	12945.50
481.77	13263.82
481.95	13296.58
482.13	13130.41
482.31	13458.08
482.49	13837.25
482.67	13724.90
482.85	13729.58
483.03	13729.58
483.21	13928.53
483.39	13984.70
483.57	13991.72
483.74	14188.33
483.92	14441.11
484.10	13848.95
484.28	14406.00
484.46	14771.12
484.64	14876.44
484.82	14490.26
485.00	14869.42
485.18	15166.67
485.35	15323.49
485.53	14888.15
485.71	15272.00
485.89	15414.77
486.07	15164.33
486.25	15597.33
486.43	15494.35
486.61	15676.91
486.78	16065.44
486.96	15812.66
487.14	16152.04
487.32	16339.28
487.50	16458.65
487.68	16477.37
487.85	16767.60
488.03	16936.12
488.21	17085.91
488.39	17013.35
488.57	17179.53
488.75	17282.52
488.92	17413.59
489.10	17745.94
489.28	17926.16
489.46	17965.95
489.64	17961.27
489.81	18438.74
489.99	18312.35
490.17	18480.87
490.35	18918.55
490.53	18565.13
490.70	18934.93
490.88	18679.82
491.06	19105.79
491.24	19173.67
491.41	19129.20
491.59	19316.44
491.77	19545.81
491.95	19534.11
492.13	19461.55
492.30	19871.15
492.48	19655.82
492.66	20100.52
492.84	19917.96
493.01	20381.38
493.19	20262.02
493.37	20734.81
493.54	20526.50
493.72	20996.95
493.90	20734.81
494.08	21071.84
494.25	21214.62
494.43	21226.32
494.61	21261.43
494.79	21231.00
494.96	21460.37
495.14	21682.72
495.32	22031.46
495.49	21628.89
495.67	21731.87
495.85	22207.00
496.02	22017.42
496.20	22553.40
496.38	22312.33
496.55	22665.75
496.73	23082.36
496.91	22824.90
497.09	23145.56
497.26	23353.87
497.44	22991.08
497.62	23166.62
497.79	23491.96
497.97	23222.80
498.14	23590.26
498.32	23503.66
498.50	23611.32
498.67	24030.28
498.85	23964.75
499.03	24266.67
499.20	24271.36
499.38	24086.45
499.56	24400.08
499.73	24786.27
499.91	24329.87
500.08	24446.90
500.26	24482.00
500.44	24662.22
500.61	24559.24
500.79	24830.74
500.97	24978.20
501.14	25223.95
501.32	25542.27
501.49	25333.96
501.67	25163.10
501.84	25425.24
502.02	25289.49
502.20	25493.12
502.37	25865.26
502.55	26125.06
502.72	25769.30
502.90	26005.69
503.07	25930.80
503.25	26015.05
503.43	25989.31
503.60	26127.40
503.78	26281.88
503.95	26375.50
504.13	27082.34
504.30	26192.94
504.48	26536.99
504.65	26675.09
504.83	26941.91
505.01	27199.37
505.18	26766.37
505.36	27274.26
505.53	27255.54
505.71	27711.94
505.88	27154.90
506.06	26775.73
506.23	27454.48
506.41	27433.42
506.58	27552.79
506.76	27997.49
506.93	28121.54
507.11	27835.99
507.28	27985.79
507.46	27723.65
507.63	27828.97
507.81	28170.69
507.98	28416.44
508.16	28472.62
508.33	28627.09
508.50	29006.26
508.68	28741.78
508.85	28425.81
509.03	28746.46
509.20	29125.63
509.38	29132.65
509.55	29331.59
509.73	29289.46
509.90	29308.19
510.08	29137.33
510.25	29317.55
510.42	29621.82
510.60	29572.67
510.77	29521.18
510.95	29521.18
511.12	29872.26
511.30	30181.21
511.47	30253.76
511.64	30419.94
511.82	29935.45
511.99	30211.64
512.17	30319.30
512.34	30377.81
512.51	30136.74
512.69	30558.03
512.86	30501.86
513.04	30707.83
513.21	30792.09
513.38	30866.98
513.56	31005.08
513.73	30340.36
513.90	30934.86
514.08	30740.60
514.25	30920.82
514.43	31197.00
514.60	31012.10
514.77	31578.51
514.95	31262.54
515.12	31463.82
515.29	31529.36
515.47	31807.88
515.64	31889.80
515.81	31597.23
515.99	31793.84
516.16	31831.29
516.33	31620.64
516.51	31632.34
516.68	31508.29
516.85	31299.98
517.03	31992.78
517.20	31976.40
517.37	32130.87
517.54	32467.91
517.72	32215.13
517.89	32194.07
518.06	31770.43
518.24	32039.59
518.41	32591.96
518.58	32627.07
518.75	32357.91
518.93	33212.20
519.10	32793.25
519.27	32404.72
519.45	33116.24
519.62	32921.98
519.79	32961.76
519.96	33479.02
520.14	33214.54
520.31	33006.23
520.48	33453.28
520.65	33198.16
520.83	33553.92
521.00	33888.62
521.17	33823.08
521.34	33998.62
521.52	33654.56
521.69	34078.20
521.86	33853.51
522.03	34328.64
522.20	34216.29
522.38	33923.72
522.55	34108.63
522.72	34031.39
522.89	34363.75
523.07	34284.17
523.24	34459.71
523.41	34920.79
523.58	34087.56
523.75	35075.27
523.92	34754.61
524.10	34817.81
524.27	35321.02
524.44	35232.08
524.61	35070.59
524.78	35218.04
524.96	34995.69
525.13	34918.45
525.30	35646.36
525.47	35744.66
525.64	35508.27
525.81	35379.54
525.98	35559.76
526.16	35498.91
526.33	35487.20
526.50	35641.68
526.67	35346.77
526.84	35384.22
527.01	35204.00
527.18	35934.24
527.36	35749.34
527.53	35910.84
527.70	36247.88
527.87	36388.31
528.04	36027.87
528.21	36268.94
528.38	35772.75
528.55	36671.51
528.72	36610.66
528.89	36421.08
529.07	36652.79
529.24	36659.81
529.41	36535.76
529.58	35882.75
529.75	36432.78
529.92	36704.28
530.09	36900.89
530.26	36664.49
530.43	37106.85
530.60	36753.43
530.77	37233.24
530.94	37273.03
531.11	36957.06
531.28	37076.43
531.46	37099.83
531.63	36935.99
531.80	37088.13
531.97	37172.39
532.14	36992.17
532.31	37198.13
532.48	37380.70
532.65	37794.97
532.82	37502.40
532.99	37797.31
533.16	37516.45
533.33	37930.72
533.50	38143.71
533.67	37914.34
533.84	37324.52
534.01	38232.65
534.18	37853.48
534.35	37984.55
534.52	38124.99
534.69	38242.01
534.86	38223.29
535.03	38227.97
535.20	38031.36
535.37	38703.10
535.54	38614.16
535.71	38078.18
535.88	38382.45
536.05	38366.06
536.22	38553.30
536.38	38543.94
536.55	38651.61
536.72	38824.81
536.89	38632.88
537.06	38567.35
537.23	38834.17
537.40	38284.14
537.57	38796.72
537.74	38518.20
537.91	39222.70
538.08	39302.28
538.25	38698.42
538.42	39126.74
538.59	39168.87
538.75	38518.20
538.92	39412.28
539.09	39515.26
539.26	38941.83
539.43	39435.69
539.60	39234.40
539.77	39423.98
539.94	39012.05
540.11	39192.27
540.28	39299.94
540.44	39512.92
540.61	39124.40
540.78	39402.92
540.95	39381.85
541.12	39026.09
541.29	39569.10
541.46	39428.66
541.62	40114.44
541.79	39971.67
541.96	39784.43
542.13	39583.14
542.30	39856.98
542.47	39838.26
542.63	40069.97
542.80	40081.67
542.97	40282.96
543.14	40439.78
543.31	40259.55
543.48	40224.45
543.64	41106.83
543.81	40802.56
543.98	40634.04
544.15	40165.93
544.32	40615.32
544.48	40893.84
544.65	40662.13
544.82	40414.03
544.99	40753.41
545.16	40542.76
545.32	40926.61
545.49	41310.46
545.66	41338.54
545.83	41116.19
546.00	41509.40
546.16	40758.09
546.33	40807.24
546.50	40577.87
546.67	40746.39
546.83	40776.81
547.00	41612.38
547.17	41088.10
547.34	41294.07
547.50	41291.73
547.67	41811.33
547.84	41507.06
548.00	41874.52
548.17	41605.36
548.34	41493.02
548.51	41652.17
548.67	41518.76
548.84	41820.69
549.01	41670.90
549.18	41563.23
549.34	42045.38
549.51	41860.48
549.68	41663.88
549.84	42082.83
550.01	42178.79
550.18	41694.30
550.34	41682.60
550.51	41577.28
550.68	42033.68
550.84	41691.96
551.01	42351.99
551.18	42344.97
551.34	42113.26
551.51	42134.32
551.68	42295.82
551.84	42506.47
552.01	42335.61
552.18	42129.64
552.34	42124.96
552.51	42450.30
552.68	42092.19
552.84	42766.27
553.01	42632.86
553.18	42693.71
553.34	42529.87
553.51	42293.48
553.67	42426.89
553.84	42817.76
554.01	42756.91
554.17	43131.39
554.34	42724.14
554.51	42583.71
554.67	43264.80
554.84	42522.85
555.00	42337.95
555.17	42745.20
555.33	42431.57
555.50	42789.67
555.67	42497.11
555.83	42820.10
556.00	43168.84
556.16	43208.63
556.33	43079.90
556.50	43264.80
556.66	43019.05
556.83	42574.34
556.99	42955.85
557.16	43416.94
557.32	43068.20
557.49	43262.46
557.65	42897.34
557.82	43033.09
557.98	43449.70
558.15	43122.03
558.32	43356.08
558.48	43306.93
558.65	43100.97
558.81	43203.95
558.98	43140.75
559.14	43236.72
559.31	43384.17
559.47	43459.07
559.64	43632.27
559.80	43531.62
559.97	43475.45
560.13	43288.21
560.30	43019.05
560.46	43587.80
560.63	43800.79
560.79	43798.44
560.96	43959.94
561.12	43761.00
561.29	43475.45
561.45	43690.78
561.61	43618.22
561.78	43545.67
561.94	42983.94
562.11	43232.04
562.27	43540.99
562.44	43533.96
562.60	43330.34
562.77	43966.96
562.93	43433.32
563.10	43875.68
563.26	43608.86
563.42	43718.87
563.59	43374.81
563.75	43665.03
563.92	43791.42
564.08	43594.82
564.24	43934.20
564.41	43501.20
564.57	43863.98
564.74	44203.36
564.90	43548.01
565.07	44076.97
565.23	44137.82
565.39	43665.03
565.56	43873.34
565.72	43920.15
565.88	43679.08
566.05	43866.32
566.21	44217.40
566.38	43718.87
566.54	44086.33
566.70	44116.76
566.87	44493.58
567.03	44165.91
567.19	44603.59
567.36	44212.72
567.52	43786.74
567.68	44041.86
567.85	43751.63
568.01	44067.61
568.17	43814.83
568.34	43924.83
568.50	44282.94
568.66	43615.88
568.83	44088.67
568.99	43910.79
569.15	43861.64
569.32	43978.67
569.48	43955.26
569.64	44346.13
569.81	44266.55
569.97	44137.82
570.13	44395.28
570.30	44030.16
570.46	43957.60
570.62	44140.16
570.78	43531.62
570.95	44348.47
571.11	44617.63
571.27	44509.97
571.43	43824.19
571.60	44025.48
571.76	44306.34
571.92	44357.83
572.09	43770.36
572.25	44212.72
572.41	44076.97
572.57	44479.54
572.74	44652.74
572.90	44264.21
573.06	44383.58
573.22	43976.33
573.38	44465.50
573.55	44168.25
573.71	44252.51
573.87	44201.02
574.03	44425.71
574.20	44266.55
574.36	44271.23
574.52	44643.38
574.68	44648.06
574.84	44105.06
575.01	44409.32
575.17	44189.31
575.33	44240.81
575.49	43901.43
575.65	44360.17
575.82	44582.52
575.98	44584.86
576.14	44786.15
576.30	44575.50
576.46	44311.02
576.62	44334.43
576.79	44367.20
576.95	44367.20
577.11	44421.03
577.27	44449.11
577.43	44491.24
577.59	44189.31
577.75	44659.76
577.92	44105.06
578.08	44343.79
578.24	44404.64
578.40	44409.32
578.56	44238.47
578.72	44224.42
578.88	44430.39
579.04	44797.85
579.21	44374.22
579.37	44458.48
579.53	44472.52
579.69	44086.33
579.85	44547.42
580.01	44996.80
580.17	44119.10
580.33	44877.43
580.49	44552.10
580.65	44856.37
580.82	44432.73
580.98	44315.70
581.14	44428.05
581.30	45045.95
581.46	44566.14
581.62	44641.04
581.78	44626.99
581.94	44854.03
582.10	44765.09
582.26	44664.44
582.42	44432.73
582.58	44278.25
582.74	44332.09
582.90	44933.60
583.06	44851.69
583.22	45059.99
583.38	44914.88
583.54	44444.43
583.70	44397.62
583.86	44404.64
584.02	44619.97
584.18	44907.86
584.34	44669.12
584.50	44687.85
584.66	44531.03
584.82	44088.67
584.98	44643.38
585.14	44999.14
585.30	44734.66
585.46	44931.26
585.62	44704.23
585.78	44713.59
585.94	44472.52
586.10	44250.17
586.26	44519.33
586.42	44706.57
586.58	44641.04
586.74	45045.95
586.90	44432.73
587.06	44437.41
587.22	44797.85
587.38	44418.69
587.54	44626.99
587.70	44409.32
587.86	45006.16
588.02	44708.91
588.18	44409.32
588.34	44584.86
588.49	44304.00
588.65	44273.57
588.81	44210.38
588.97	44329.75
589.13	44545.08
589.29	43976.33
589.45	44704.23
589.61	44648.06
589.77	45027.23
589.93	44884.45
590.08	44528.69
590.24	45017.86
590.40	45205.11
