SpectraSuite Data File
++++++++++++++++++++++++++++++++++++
Date: Fri Oct 25 11:33:58 EDT 2013
User: price-jones
Dark Spectrum Present: No
Reference Spectrum Present: No
Number of Sampled Component Spectra: 1
Spectrometers: USB2+H05261
Integration Time (usec): 100000 (USB2+H05261)
Spectra Averaged: 1 (USB2+H05261)
Boxcar Smoothing: 0 (USB2+H05261)
Correct for Electrical Dark: No (USB2+H05261)
Strobe/Lamp Enabled: No (USB2+H05261)
Correct for Detector Non-linearity: No (USB2+H05261)
Correct for Stray Light: No (USB2+H05261)
Number of Pixels in Processed Spectrum: 2048
>>>>>Begin Processed Spectral Data<<<<<
365.73	220.01
365.92	220.01
366.12	220.01
366.32	194.26
366.52	224.69
366.72	238.73
366.91	205.97
367.11	173.20
367.31	142.77
367.51	194.26
367.70	166.18
367.90	142.77
368.10	184.90
368.30	187.24
368.49	191.92
368.69	194.26
368.89	159.16
369.09	201.29
369.28	236.39
369.48	208.31
369.68	142.77
369.87	243.42
370.07	285.55
370.27	241.08
370.47	386.19
370.66	528.96
370.86	561.73
371.06	528.96
371.25	606.20
371.45	528.96
371.65	500.87
371.84	606.20
372.04	554.71
372.24	587.47
372.44	627.26
372.63	540.66
372.83	578.11
373.03	610.88
373.22	606.20
373.42	575.77
373.62	566.41
373.81	674.07
374.01	660.03
374.21	709.18
374.40	683.44
374.60	627.26
374.79	692.80
374.99	711.52
375.19	690.46
375.38	671.73
375.58	629.60
375.78	617.90
375.97	758.33
376.17	645.99
376.37	669.39
376.56	662.37
376.76	641.31
376.95	620.24
377.15	688.12
377.35	688.12
377.54	695.14
377.74	629.60
377.93	627.26
378.13	713.86
378.33	713.86
378.52	716.20
378.72	695.14
378.91	713.86
379.11	681.10
379.31	718.54
379.50	706.84
379.70	779.40
379.89	758.33
380.09	688.12
380.28	739.61
380.48	812.17
380.68	725.57
380.87	746.63
381.07	784.08
381.26	758.33
381.46	748.97
381.65	781.74
381.85	732.59
382.04	755.99
382.24	781.74
382.43	851.96
382.63	802.80
382.83	767.70
383.02	807.48
383.22	772.38
383.41	725.57
383.61	786.42
383.80	882.38
384.00	823.87
384.19	847.27
384.39	858.98
384.58	884.72
384.78	842.59
384.97	826.21
385.17	784.08
385.36	791.10
385.56	880.04
385.75	823.87
385.95	856.64
386.14	875.36
386.34	795.78
386.53	910.47
386.72	903.45
386.92	854.30
387.11	856.64
387.31	901.11
387.50	894.08
387.70	903.45
387.89	847.27
388.09	842.59
388.28	959.62
388.48	959.62
388.67	983.02
388.86	987.71
389.06	908.13
389.25	959.62
389.45	901.11
389.64	880.04
389.84	1029.84
390.03	968.98
390.22	992.39
390.42	952.60
390.61	926.85
390.81	933.87
391.00	954.94
391.19	1029.84
391.39	978.34
391.58	999.41
391.78	1053.24
391.97	1062.60
392.16	1001.75
392.36	1032.18
392.55	1055.58
392.75	1032.18
392.94	1025.15
393.13	968.98
393.33	1048.56
393.52	1100.05
393.71	1048.56
393.91	1076.65
394.10	1048.56
394.29	1053.24
394.49	1114.10
394.68	1067.28
394.88	1160.91
395.07	1144.52
395.26	1053.24
395.46	1163.25
395.65	1165.59
395.84	1240.48
396.04	1266.23
396.23	1135.16
396.42	1097.71
396.62	1259.21
396.81	1315.38
397.00	1123.46
397.19	1270.91
397.39	1181.97
397.58	1270.91
397.77	1317.72
397.97	1299.00
398.16	1343.47
398.35	1301.34
398.55	1210.06
398.74	1345.81
398.93	1301.34
399.12	1303.68
399.32	1373.89
399.51	1266.23
399.70	1394.96
399.90	1343.47
400.09	1320.06
400.28	1383.26
400.47	1383.26
400.67	1387.94
400.86	1430.07
401.05	1430.07
401.24	1444.11
401.44	1472.20
401.63	1448.79
401.82	1434.75
402.01	1423.05
402.21	1446.45
402.40	1523.69
402.59	1472.20
402.78	1519.01
402.97	1488.58
403.17	1509.65
403.36	1582.20
403.55	1488.58
403.74	1528.37
403.93	1558.80
404.13	1596.25
404.32	1575.18
404.51	1593.90
404.70	1542.41
404.89	1521.35
405.09	1661.78
405.28	1577.52
405.47	1680.50
405.66	1734.34
405.85	1743.70
406.05	1671.14
406.24	1785.83
406.43	1682.85
406.62	1792.85
406.81	1755.40
407.00	1760.08
407.20	1746.04
407.39	1802.21
407.58	1778.81
407.77	1820.94
407.96	1797.53
408.15	1935.62
408.34	1888.81
408.54	1919.24
408.73	1975.41
408.92	1804.55
409.11	2022.22
409.30	1987.11
409.49	1973.07
409.68	1935.62
409.87	1968.39
410.07	2106.48
410.26	2146.27
410.45	1998.82
410.64	2076.06
410.83	2118.18
411.02	2033.93
411.21	2172.02
411.40	2057.33
411.59	2153.29
411.78	2186.06
411.98	2232.87
412.17	2174.36
412.36	2223.51
412.55	2211.81
412.74	2244.57
412.93	2394.37
413.12	2216.49
413.31	2445.86
413.50	2478.63
413.69	2342.88
413.88	2429.48
414.07	2459.90
414.26	2478.63
414.45	2572.25
414.64	2504.37
414.83	2490.33
415.02	2558.21
415.22	2771.19
415.41	2626.08
415.60	2590.97
415.79	2640.12
415.98	2546.50
416.17	2757.15
416.36	2654.17
416.55	2754.81
416.74	2794.60
416.93	2637.78
417.12	2768.85
417.31	2780.56
417.50	2867.16
417.69	2937.37
417.88	2988.86
418.07	2918.65
418.26	3047.38
418.45	2970.14
418.64	3180.79
418.83	2979.50
419.02	3091.85
419.21	3164.40
419.39	3038.02
419.58	2998.23
419.77	3040.36
419.96	3087.17
420.15	3089.51
420.34	3056.74
420.53	3101.21
420.72	3180.79
420.91	3115.25
421.10	3187.81
421.29	3274.41
421.48	3213.56
421.67	3389.10
421.86	3234.62
422.05	3253.34
422.24	3164.40
422.43	3255.69
422.61	3330.58
422.80	3454.63
422.99	3456.97
423.18	3243.98
423.37	3552.93
423.56	3337.60
423.75	3363.35
423.94	3176.11
424.13	3103.55
424.32	3150.36
424.50	3246.32
424.69	3499.10
424.88	3581.02
425.07	3372.71
425.26	3295.47
425.45	3452.29
425.64	3400.80
425.83	3393.78
426.01	3496.76
426.20	3473.36
426.39	3478.04
426.58	3297.81
426.77	3545.91
426.96	3487.40
427.15	3581.02
427.33	3559.95
427.52	3574.00
427.71	3562.30
427.90	3641.87
428.09	3660.60
428.28	3672.30
428.46	3604.42
428.65	3590.38
428.84	3705.07
429.03	3758.90
429.22	3604.42
429.40	3665.28
429.59	3705.07
429.78	3641.87
429.97	3644.21
430.16	3744.86
430.34	3918.06
430.53	3770.60
430.72	3819.75
430.91	3779.97
431.10	3758.90
431.28	3878.27
431.47	3918.06
431.66	3875.93
431.85	3918.06
432.03	3936.78
432.22	4091.26
432.41	3997.64
432.60	4177.86
432.79	3894.65
432.97	4121.68
433.16	4180.20
433.35	4067.85
433.54	4102.96
433.72	4117.00
433.91	4248.07
434.10	4205.94
434.28	4121.68
434.47	4159.13
434.66	4201.26
434.85	4327.65
435.03	4161.47
435.22	4301.90
435.41	4456.38
435.59	4346.37
435.78	4454.04
435.97	4416.59
436.16	4468.08
436.34	4629.58
436.53	4540.64
436.72	4409.57
436.90	4456.38
437.09	4414.25
437.28	4468.08
437.46	4322.97
437.65	4645.96
437.84	4479.79
438.02	4517.23
438.21	4629.58
438.40	4454.04
438.58	4779.37
438.77	4746.61
438.96	4650.64
439.14	4638.94
439.33	4968.96
439.52	4931.51
439.70	4896.40
439.89	4947.89
440.08	5064.92
440.26	4940.87
440.45	5071.94
440.63	5060.24
440.82	5172.58
441.01	5076.62
441.19	5226.42
441.38	5238.12
441.57	5081.30
441.75	5287.27
441.94	5357.49
442.12	5263.86
442.31	5280.25
442.50	5338.76
442.68	5371.53
442.87	5242.80
443.05	5507.28
443.24	5404.30
443.43	5338.76
443.61	5533.03
443.80	5575.16
443.98	5411.32
444.17	5355.15
444.35	5586.86
444.54	5509.62
444.73	5472.17
444.91	5507.28
445.10	5687.50
445.28	5666.44
445.47	5603.24
445.65	5664.10
445.84	5582.18
446.02	5743.67
446.21	5743.67
446.39	5696.86
446.58	5743.67
446.77	5607.92
446.95	5556.43
447.14	5741.33
447.32	5680.48
447.51	5736.65
447.69	5675.80
447.88	5802.19
448.06	5865.38
448.25	5764.74
448.43	5799.85
448.62	5736.65
448.80	5715.59
448.99	5781.12
449.17	5886.45
449.36	5736.65
449.54	6066.67
449.73	6026.88
449.91	6017.52
450.10	6087.73
450.28	6129.86
450.46	6050.28
450.65	6106.46
450.83	5982.41
451.02	5916.87
451.20	6122.84
451.39	6059.65
451.57	6022.20
451.76	6043.26
451.94	6085.39
452.13	6153.27
452.31	6118.16
452.49	6239.87
452.68	6317.11
452.86	6324.13
453.05	6239.87
453.23	6251.57
453.42	6237.53
453.60	6516.05
453.78	6546.48
453.97	6289.02
454.15	6384.98
454.34	6513.71
454.52	6583.93
454.70	6609.67
454.89	6707.98
455.07	6466.90
455.26	6509.03
455.44	6628.40
455.62	6530.09
455.81	6733.72
455.99	6656.48
456.17	6612.01
456.36	6684.57
456.54	6846.07
456.73	6885.86
456.91	6979.48
457.09	7042.67
457.28	7005.22
457.46	6853.09
457.64	6998.20
457.83	6930.33
458.01	6810.96
458.19	7321.20
458.38	6888.20
458.56	7192.47
458.74	7119.91
458.93	7276.73
459.11	7241.62
459.29	7194.81
459.48	7321.20
459.66	7162.04
459.84	7272.04
460.03	7365.67
460.21	7318.86
460.39	7311.83
460.57	7328.22
460.76	7466.31
460.94	7501.42
461.12	7583.34
461.31	7356.30
461.49	7620.78
461.67	7506.10
461.85	7513.12
462.04	7648.87
462.22	8116.98
462.40	7646.53
462.59	7676.96
462.77	7681.64
462.95	7548.23
463.13	7791.64
463.32	7761.22
463.50	7744.83
463.68	7920.37
463.86	7770.58
464.05	7840.79
464.23	7719.09
464.41	7922.71
464.59	7824.41
464.78	8009.31
464.96	7995.27
465.14	7740.15
465.32	8091.23
465.50	8049.10
465.69	8105.28
465.87	7927.39
466.05	7925.05
466.23	8011.65
466.41	8084.21
466.60	8379.12
466.78	8180.17
466.96	8210.60
467.14	8187.19
467.32	8329.97
467.51	8290.18
467.69	8025.70
467.87	8229.32
468.05	8437.63
468.23	8266.77
468.41	8189.53
468.60	8353.37
468.78	8428.27
468.96	8308.90
469.14	8521.89
469.32	8615.51
469.50	8393.16
469.69	8662.32
469.87	8547.64
470.05	8393.16
470.23	8819.14
470.41	8709.13
470.59	8606.15
470.77	8610.83
470.95	8947.87
471.14	8821.48
471.32	8847.22
471.50	8870.63
471.68	8943.19
471.86	8929.14
472.04	9132.77
472.22	9366.82
472.40	8971.27
472.58	9146.81
472.77	9233.41
472.95	9399.59
473.13	9554.07
473.31	9121.07
473.49	9118.73
473.67	9261.50
473.85	9420.66
474.03	9624.28
474.21	9638.33
474.39	9874.72
474.57	9820.89
474.75	9769.40
474.93	9902.81
475.12	9785.78
475.30	10155.58
475.48	9792.80
475.66	10057.28
475.84	10054.94
476.02	10200.05
476.20	10211.76
476.38	10401.34
476.56	10382.62
476.74	10490.28
476.92	10626.03
477.10	10445.81
477.28	10600.29
477.46	10509.01
477.64	10789.87
477.82	10988.82
478.00	11044.99
478.18	11023.92
478.36	11009.88
478.54	11211.17
478.72	11431.18
478.90	11456.92
479.08	11384.37
479.26	11740.13
479.44	11494.37
479.62	11756.51
479.80	11702.68
479.98	11887.58
480.16	12273.77
480.34	11854.81
480.52	12341.64
480.70	12175.47
480.88	12063.12
481.06	12521.87
481.24	12519.53
481.41	12482.08
481.59	12854.22
481.77	12697.41
481.95	12858.90
482.13	12982.95
482.31	12809.75
482.49	13191.26
482.67	13156.15
482.85	13284.88
483.03	13315.31
483.21	13373.82
483.39	13757.67
483.57	13659.37
483.74	13767.03
483.92	13692.13
484.10	13706.18
484.28	14043.21
484.46	14445.79
484.64	14569.83
484.82	14202.37
485.00	14576.86
485.18	14761.76
485.35	14998.15
485.53	14831.97
485.71	14724.31
485.89	15150.29
486.07	15353.91
486.25	15377.32
486.43	15583.29
486.61	15494.35
486.78	15646.48
486.96	15840.75
487.14	16030.33
487.32	15894.58
487.50	16126.29
487.68	16350.98
487.85	16517.16
488.03	16538.23
488.21	16933.78
488.39	17027.40
488.57	16994.63
488.75	16978.25
488.92	17359.75
489.10	17404.22
489.28	17352.73
489.46	17542.32
489.64	17493.16
489.81	18225.75
489.99	17767.01
490.17	17958.93
490.35	18099.36
490.53	18052.55
490.70	18628.32
490.88	18448.10
491.06	18637.69
491.24	18625.98
491.41	18937.27
491.59	18988.77
491.77	18806.20
491.95	19164.31
492.13	19105.79
492.30	19866.47
492.48	19599.65
492.66	19674.54
492.84	19847.74
493.01	20161.37
493.19	20027.96
493.37	20592.03
493.54	20184.78
493.72	20458.62
493.90	20367.34
494.08	20798.00
494.25	20908.01
494.43	20917.37
494.61	20933.75
494.79	20940.77
494.96	21048.44
495.14	21102.27
495.32	21551.65
495.49	21401.86
495.67	21696.77
495.85	21830.18
496.02	21865.28
496.20	22089.98
496.38	21837.20
496.55	22288.92
496.73	22698.52
496.91	22705.54
497.09	22909.16
497.26	22672.77
497.44	22632.98
497.62	22581.49
497.79	23154.92
497.97	23108.11
498.14	23433.44
498.32	23506.00
498.50	23473.23
498.67	23779.84
498.85	23482.59
499.03	23931.98
499.20	23763.46
499.38	24037.30
499.56	24006.87
499.73	24341.57
499.91	24575.62
500.08	24512.43
500.26	24369.66
500.44	24694.99
500.61	24451.58
500.79	24669.25
500.97	24627.12
501.14	25230.98
501.32	25387.79
501.49	25067.14
501.67	24833.08
501.84	25235.66
502.02	25104.59
502.20	25172.46
502.37	25553.97
502.55	25511.84
502.72	25446.30
502.90	25673.34
503.07	25678.02
503.25	25846.54
503.43	25713.13
503.60	26202.30
503.78	25886.32
503.95	26195.28
504.13	26167.19
504.30	26452.73
504.48	26029.10
504.65	26934.88
504.83	26780.41
505.01	27182.98
505.18	26988.72
505.36	26761.69
505.53	26969.99
505.71	26969.99
505.88	27262.56
506.06	27131.49
506.23	27716.62
506.41	27211.07
506.58	27580.87
506.76	27522.36
506.93	27828.97
507.11	27908.55
507.28	28432.83
507.46	27927.27
507.63	28236.22
507.81	28355.59
507.98	28023.23
508.16	28121.54
508.33	27988.13
508.50	28711.35
508.68	28599.01
508.85	28886.89
509.03	28481.98
509.20	28533.47
509.38	29191.16
509.55	29067.11
509.73	29181.80
509.90	29301.17
510.08	29223.93
510.25	29123.29
510.42	29570.33
510.60	29708.42
510.77	29481.39
510.95	29640.54
511.12	29490.75
511.30	29553.94
511.47	29823.11
511.64	29757.57
511.82	30094.61
511.99	29790.34
512.17	30155.46
512.34	30305.26
512.51	30693.79
512.69	30424.62
512.86	30473.78
513.04	30799.11
513.21	30775.70
513.38	30607.19
513.56	30646.97
513.73	31068.27
513.90	31131.47
514.08	30904.43
514.25	31058.91
514.43	31227.43
514.60	31398.29
514.77	31817.24
514.95	31608.93
515.12	31225.09
515.29	31452.12
515.47	31379.56
515.64	31440.42
515.81	31915.54
515.99	31857.03
516.16	32196.41
516.33	32194.07
516.51	32039.59
516.68	32072.36
516.85	32362.59
517.03	32268.97
517.20	32299.39
517.37	32294.71
517.54	32542.81
517.72	32884.53
517.89	32727.71
518.06	32514.72
518.24	32964.10
518.41	32933.68
518.58	32830.69
518.75	33062.41
518.93	33319.87
519.10	32893.89
519.27	33354.97
519.45	33481.36
519.62	33158.37
519.79	33401.79
519.96	33273.06
520.14	33474.34
520.31	33696.69
520.48	33418.17
520.65	33778.61
520.83	33787.97
521.00	34099.26
521.17	33668.61
521.34	34033.73
521.52	34054.79
521.69	34281.83
521.86	34576.73
522.03	34478.43
522.20	34873.98
522.38	34752.27
522.55	34670.36
522.72	34794.40
522.89	35129.10
523.07	34834.19
523.24	34487.79
523.41	35325.71
523.58	34981.65
523.75	35204.00
523.92	35028.46
524.10	35086.97
524.27	35440.39
524.44	35466.14
524.61	35875.73
524.78	35662.74
524.96	35433.37
525.13	35941.27
525.30	35967.01
525.47	35859.35
525.64	36023.19
525.81	36282.98
525.98	36084.04
526.16	35693.17
526.33	35943.61
526.50	36268.94
526.67	36140.21
526.84	36114.47
527.01	36095.74
527.18	36542.78
527.36	36055.95
527.53	36884.50
527.70	37109.19
527.87	36692.58
528.04	36531.08
528.21	36851.73
528.38	36634.06
528.55	37184.09
528.72	36734.71
528.89	36793.22
529.07	36945.36
529.24	36797.90
529.41	37303.46
529.58	36999.19
529.75	37266.01
529.92	37296.44
530.09	37148.98
530.26	37439.21
530.43	37619.43
530.60	37130.26
530.77	37565.60
530.94	37710.71
531.11	37432.19
531.28	37921.36
531.46	37539.85
531.63	37694.33
531.80	38057.11
531.97	38319.25
532.14	38337.98
532.31	37872.21
532.48	38239.67
532.65	38778.00
532.82	38192.86
532.99	38190.52
533.16	38014.98
533.33	38504.15
533.50	38366.06
533.67	38391.81
533.84	38096.90
534.01	38590.75
534.18	38382.45
534.35	38766.29
534.52	38684.37
534.69	38885.66
534.86	38803.74
535.03	39093.97
535.20	38988.64
535.37	38843.53
535.54	39246.10
535.71	39531.65
535.88	39077.58
536.05	39180.57
536.22	39412.28
536.38	38880.98
536.55	39136.10
536.72	39428.66
536.89	39276.53
537.06	39620.59
537.23	39461.43
537.40	39480.16
537.57	39480.16
537.74	39765.70
537.91	39917.84
538.08	39742.30
538.25	39494.20
538.42	40189.34
538.59	39999.76
538.75	39686.12
538.92	40198.70
539.09	40252.53
539.26	40142.53
539.43	39995.07
539.60	40514.67
539.77	40067.63
539.94	40500.63
540.11	40369.56
540.28	40456.16
540.44	40161.25
540.61	40470.20
540.78	40556.80
540.95	40348.50
541.12	40287.64
541.29	40591.91
541.46	40659.79
541.62	40781.49
541.79	41219.17
541.96	40987.46
542.13	40708.94
542.30	41170.02
542.47	40985.12
542.63	40465.52
542.80	41291.73
542.97	41429.82
543.14	41418.12
543.31	41614.72
543.48	41617.07
543.64	41710.69
543.81	41357.27
543.98	41776.22
544.15	41895.59
544.32	41848.78
544.48	42099.22
544.65	41942.40
544.82	42005.59
544.99	41778.56
545.16	41624.09
545.32	42113.26
545.49	42639.88
545.66	42284.12
545.83	42150.71
546.00	42286.46
546.16	42188.16
546.33	41975.17
546.50	42036.02
546.67	42326.25
546.83	42202.20
547.00	42321.57
547.17	42139.00
547.34	42052.41
547.50	42700.73
547.67	42539.24
547.84	42600.09
548.00	42923.08
548.17	42691.37
548.34	42705.41
548.51	43295.23
548.67	42593.07
548.84	43040.11
549.01	43030.75
549.18	42880.95
549.34	43171.18
549.51	42958.19
549.68	43349.06
549.84	43222.67
550.01	43105.65
550.18	43044.79
550.34	43377.15
550.51	43360.76
550.68	43288.21
550.84	43035.43
551.01	43402.89
551.18	43105.65
551.34	43239.06
551.51	43690.78
551.68	43405.23
551.84	43583.12
552.01	43079.90
552.18	43683.76
552.34	43632.27
552.51	43693.12
552.68	43597.16
552.84	43814.83
553.01	43880.36
553.18	43330.34
553.34	43964.62
553.51	43758.66
553.67	43660.35
553.84	44273.57
554.01	43842.92
554.17	44027.82
554.34	44191.65
554.51	44250.17
554.67	44158.89
554.84	43910.79
555.00	43854.62
555.17	44083.99
555.33	44275.91
555.50	44093.35
555.67	44538.05
555.83	44591.89
556.00	44570.82
556.16	45064.67
556.33	44573.16
556.50	44388.26
556.66	44650.40
556.83	44144.84
556.99	44896.16
557.16	44821.26
557.32	44856.37
557.49	44793.17
557.65	44357.83
557.82	44428.05
557.98	44406.98
558.15	44823.60
558.32	44802.53
558.48	45006.16
558.65	44793.17
558.81	44854.03
558.98	44568.48
559.14	44428.05
559.31	45067.02
559.47	44949.99
559.64	45109.14
559.80	44849.35
559.97	45460.23
560.13	44697.21
560.30	45008.50
560.46	45050.63
560.63	45247.24
560.79	45432.14
560.96	45818.33
561.12	45123.19
561.29	45144.25
561.45	45591.30
561.61	45322.13
561.78	45137.23
561.94	45577.25
562.11	44914.88
562.27	45507.04
562.44	45361.92
562.60	45748.11
562.77	45165.32
562.93	45085.74
563.10	45682.58
563.26	45670.87
563.42	45675.55
563.59	45654.49
563.75	44917.22
563.92	45155.96
564.08	45265.96
564.24	45914.29
564.41	45511.72
564.57	45617.04
564.74	45743.43
564.90	45408.73
565.07	46082.81
565.23	45984.51
565.39	45858.12
565.56	45797.26
565.72	45581.93
565.88	45977.48
566.05	45855.78
566.21	45703.64
566.38	45663.85
566.54	45544.48
566.70	46202.18
566.87	46162.39
567.03	45846.41
567.19	45979.82
567.36	46096.85
567.52	45710.66
567.68	46021.95
567.85	46443.25
568.01	45837.05
568.17	46005.57
568.34	46342.61
568.50	46209.20
568.66	45895.56
568.83	45949.40
568.99	46272.39
569.15	46036.00
569.32	46094.51
569.48	45956.42
569.64	46335.59
569.81	46550.91
569.97	46007.91
570.13	46150.68
570.30	45902.59
570.46	46265.37
570.62	46281.75
570.78	46298.14
570.95	46333.24
571.11	46258.35
571.27	46274.73
571.43	46087.49
571.60	46471.34
571.76	46260.69
571.92	46347.29
572.09	46497.08
572.25	45996.21
572.41	46061.74
572.57	46623.47
572.74	46803.69
572.90	46321.54
573.06	46375.37
573.22	46878.59
573.38	46373.03
573.55	46351.97
573.71	46813.05
573.87	46536.87
574.03	46501.76
574.20	46822.42
574.36	46920.72
574.52	46593.04
574.68	46677.30
574.84	46852.84
575.01	46742.84
575.17	46859.87
575.33	46550.91
575.49	46181.11
575.65	46461.97
575.82	46684.33
575.98	46560.28
576.14	46944.12
576.30	47037.75
576.46	46534.53
576.62	46691.35
576.79	46700.71
576.95	46326.22
577.11	45883.86
577.27	46522.83
577.43	46635.17
577.59	46625.81
577.75	46546.23
577.92	46822.42
578.08	46681.98
578.24	46791.99
578.40	46946.47
578.56	46796.67
578.72	46890.29
578.88	46579.00
579.04	46513.47
579.21	46700.71
579.37	46525.17
579.53	47026.04
579.69	46894.97
579.85	46232.60
580.01	46930.08
580.17	46663.26
580.33	47215.63
580.49	46529.85
580.65	47136.05
580.82	46770.93
580.98	46574.32
581.14	46492.40
581.30	46534.53
581.46	46845.82
581.62	46646.88
581.78	46574.32
581.94	47098.60
582.10	46773.27
582.26	46768.58
582.42	46670.28
582.58	46946.47
582.74	46775.61
582.90	47213.29
583.06	46852.84
583.22	47054.13
583.38	46813.05
583.54	46487.72
583.70	46791.99
583.86	46815.40
584.02	47159.45
584.18	47042.43
584.34	47033.07
584.50	47131.37
584.66	47260.10
584.82	47093.92
584.98	47203.92
585.14	46962.85
585.30	47040.09
585.46	46979.23
585.62	47208.61
585.78	47454.36
585.94	46759.22
586.10	46728.80
586.26	46944.12
586.42	46962.85
586.58	46873.91
586.74	46756.88
586.90	47049.45
587.06	46806.03
587.22	47208.61
587.38	46735.82
587.54	46920.72
587.70	47096.26
587.86	46986.25
588.02	47110.30
588.18	47107.96
588.34	47398.19
588.49	47012.00
588.65	47285.84
588.81	47096.26
588.97	47215.63
589.13	47122.01
589.29	47070.51
589.45	47311.59
589.61	47540.96
589.77	47573.73
589.93	47185.20
590.08	47257.76
