SpectraSuite Data File
++++++++++++++++++++++++++++++++++++
Date: Fri Oct 25 11:25:12 EDT 2013
User: price-jones
Dark Spectrum Present: No
Reference Spectrum Present: No
Number of Sampled Component Spectra: 1
Spectrometers: USB2+H05261
Integration Time (usec): 100000 (USB2+H05261)
Spectra Averaged: 1 (USB2+H05261)
Boxcar Smoothing: 0 (USB2+H05261)
Correct for Electrical Dark: No (USB2+H05261)
Strobe/Lamp Enabled: No (USB2+H05261)
Correct for Detector Non-linearity: No (USB2+H05261)
Correct for Stray Light: No (USB2+H05261)
Number of Pixels in Processed Spectrum: 2048
>>>>>Begin Processed Spectral Data<<<<<
365.73	308.95
365.92	308.95
366.12	308.95
366.32	149.79
366.52	154.48
366.72	168.52
366.91	119.37
367.11	191.92
367.31	173.20
367.51	30.43
367.70	142.77
367.90	133.41
368.10	121.71
368.30	154.48
368.49	112.35
368.69	161.50
368.89	88.94
369.09	180.22
369.28	173.20
369.48	166.18
369.68	142.77
369.87	184.90
370.07	182.56
370.27	250.44
370.47	334.70
370.66	589.82
370.86	683.44
371.06	664.71
371.25	664.71
371.45	627.26
371.65	603.86
371.84	660.03
372.04	751.31
372.24	674.07
372.44	657.69
372.63	723.23
372.83	713.86
373.03	767.70
373.22	774.72
373.42	695.14
373.62	779.40
373.81	730.25
374.01	784.08
374.21	798.12
374.40	725.57
374.60	823.87
374.79	819.19
374.99	889.40
375.19	866.00
375.38	788.76
375.58	889.40
375.78	842.59
375.97	835.57
376.17	968.98
376.37	833.23
376.56	840.25
376.76	835.57
376.95	861.32
377.15	901.11
377.35	903.45
377.54	912.81
377.74	814.51
377.93	854.30
378.13	908.13
378.33	894.08
378.52	931.53
378.72	936.21
378.91	947.92
379.11	880.04
379.31	931.53
379.50	882.38
379.70	1006.43
379.89	957.28
380.09	938.55
380.28	1006.43
380.48	915.15
380.68	961.96
380.87	952.60
381.07	1029.84
381.26	980.68
381.46	1050.90
381.65	1022.81
381.85	1064.94
382.04	1011.11
382.24	1036.86
382.43	1006.43
382.63	1048.56
382.83	1048.56
383.02	1153.88
383.22	1100.05
383.41	1107.07
383.61	1142.18
383.80	1132.82
384.00	1095.37
384.19	1196.01
384.39	1146.86
384.58	1153.88
384.78	1156.22
384.97	1198.35
385.17	1203.04
385.36	1109.41
385.56	1219.42
385.75	1196.01
385.95	1151.54
386.14	1179.63
386.34	1233.46
386.53	1191.33
386.72	1228.78
386.92	1231.12
387.11	1188.99
387.31	1273.25
387.50	1336.45
387.70	1238.14
387.89	1228.78
388.09	1313.04
388.28	1287.29
388.48	1273.25
388.67	1259.21
388.86	1345.81
389.06	1378.58
389.25	1275.59
389.45	1364.53
389.64	1362.19
389.84	1378.58
390.03	1306.02
390.22	1331.76
390.42	1418.36
390.61	1348.15
390.81	1327.08
391.00	1378.58
391.19	1366.87
391.39	1425.39
391.58	1385.60
391.78	1348.15
391.97	1533.05
392.16	1469.86
392.36	1570.50
392.55	1542.41
392.75	1535.39
392.94	1563.48
393.13	1593.90
393.33	1563.48
393.52	1636.03
393.71	1544.75
393.91	1533.05
394.10	1537.73
394.29	1614.97
394.49	1577.52
394.68	1549.43
394.88	1605.61
395.07	1703.91
395.26	1703.91
395.46	1678.16
395.65	1680.50
395.84	1722.63
396.04	1748.38
396.23	1746.04
396.42	1701.57
396.62	1734.34
396.81	1785.83
397.00	1706.25
397.19	1795.19
397.39	1741.36
397.58	1729.66
397.77	1813.92
397.97	1832.64
398.16	1928.60
398.35	1849.02
398.55	1834.98
398.74	1877.11
398.93	1926.26
399.12	1982.43
399.32	1874.77
399.51	1888.81
399.70	1944.99
399.90	2026.90
400.09	1930.94
400.28	1963.71
400.47	1984.77
400.67	2111.16
400.86	2118.18
401.05	2099.46
401.24	2078.40
401.44	2062.01
401.63	2132.23
401.82	2157.97
402.01	2045.63
402.21	2207.13
402.40	2242.23
402.59	2202.44
402.78	2022.22
402.97	2183.72
403.17	2298.41
403.36	2235.21
403.55	2200.10
403.74	2321.81
403.93	2394.37
404.13	2321.81
404.32	2165.00
404.51	2399.05
404.70	2363.94
404.89	2471.61
405.09	2413.09
405.28	2345.22
405.47	2476.29
405.66	2406.07
405.85	2523.10
406.05	2485.65
406.24	2523.10
406.43	2466.92
406.62	2586.29
406.81	2609.70
407.00	2590.97
407.20	2616.72
407.39	2654.17
407.58	2619.06
407.77	2789.92
407.96	2796.94
408.15	2836.73
408.34	2794.60
408.54	2768.85
408.73	2722.04
408.92	2700.98
409.11	2813.32
409.30	2909.29
409.49	2890.56
409.68	2953.76
409.87	2913.97
410.07	3087.17
410.26	2946.73
410.45	3023.97
410.64	2979.50
410.83	3070.78
411.02	3030.99
411.21	3138.66
411.40	2949.08
411.59	3208.87
411.78	3133.98
411.98	3199.51
412.17	3382.07
412.36	3258.03
412.55	3389.10
412.74	3431.23
412.93	3325.90
413.12	3330.58
413.31	3435.91
413.50	3534.21
413.69	3428.88
413.88	3585.70
414.07	3574.00
414.26	3536.55
414.45	3630.17
414.64	3611.45
414.83	3714.43
415.02	3693.37
415.22	3768.26
415.41	3798.69
415.60	3901.67
415.79	3981.25
415.98	3927.42
416.17	3904.01
416.36	3962.53
416.55	4025.72
416.74	4095.94
416.93	4084.23
417.12	4051.47
417.31	4124.02
417.50	4058.49
417.69	4229.35
417.88	4212.96
418.07	4236.37
418.26	4437.66
418.45	4325.31
418.64	4425.95
418.83	4409.57
419.02	4430.63
419.21	4362.76
419.39	4308.93
419.58	4524.26
419.77	4580.43
419.96	4627.24
420.15	4512.55
420.34	4603.83
420.53	4557.02
420.72	4685.75
420.91	4608.51
421.10	4631.92
421.29	4648.30
421.48	4690.43
421.67	4648.30
421.86	4723.20
422.05	4821.50
422.24	4781.71
422.43	4823.84
422.61	4858.95
422.80	5018.11
422.99	4936.19
423.18	4805.12
423.37	5008.75
423.56	4905.76
423.75	4795.76
423.94	4823.84
424.13	4514.89
424.32	4844.91
424.50	4983.00
424.69	4975.98
424.88	5020.45
425.07	4861.29
425.26	4929.17
425.45	5018.11
425.64	4816.82
425.83	4875.34
426.01	5109.39
426.20	4945.55
426.39	5032.15
426.58	4975.98
426.77	4933.85
426.96	5128.11
427.15	5060.24
427.33	5214.71
427.52	5116.41
427.71	5291.95
427.90	5268.55
428.09	5327.06
428.28	5203.01
428.46	5203.01
428.65	5296.63
428.84	5334.08
429.03	5542.39
429.22	5291.95
429.40	5408.98
429.59	5453.45
429.78	5474.51
429.97	5280.25
430.16	5376.21
430.34	5523.66
430.53	5441.75
430.72	5568.13
430.91	5509.62
431.10	5610.26
431.28	5706.23
431.47	5722.61
431.66	5802.19
431.85	5668.78
432.03	6008.16
432.22	5872.40
432.41	5820.91
432.60	6094.76
432.79	6050.28
432.97	5867.72
433.16	5961.34
433.35	5813.89
433.54	5975.39
433.72	6097.10
433.91	5982.41
434.10	6001.13
434.28	6045.60
434.47	6223.48
434.66	6331.15
434.85	6277.32
435.03	6134.54
435.22	6122.84
435.41	6483.28
435.59	6305.40
435.78	6445.84
435.97	6312.42
436.16	6352.21
436.34	6476.26
436.53	6464.56
436.72	6656.48
436.90	6509.03
437.09	6768.83
437.28	6417.75
437.46	6420.09
437.65	6558.18
437.84	6689.25
438.02	6644.78
438.21	6670.53
438.40	6761.81
438.58	6949.05
438.77	6995.86
438.96	6951.39
439.14	7016.93
439.33	7049.69
439.52	7190.13
439.70	7227.57
439.89	7225.23
440.08	7309.49
440.26	7363.33
440.45	7232.26
440.63	7304.81
440.82	7758.88
441.01	7431.20
441.19	7470.99
441.38	7707.38
441.57	7702.70
441.75	7793.98
441.94	7798.66
442.12	7833.77
442.31	7908.67
442.50	7995.27
442.68	7911.01
442.87	8006.97
443.05	7955.48
443.24	8074.85
443.43	7950.80
443.61	8009.31
443.80	8456.36
443.98	7997.61
444.17	7793.98
444.35	8280.82
444.54	8236.35
444.73	8140.38
444.91	8287.84
445.10	8257.41
445.28	8081.87
445.47	8210.60
445.65	8299.54
445.84	8344.01
446.02	8535.93
446.21	8322.94
446.39	8159.11
446.58	8573.38
446.77	8430.61
446.95	8201.24
447.14	8327.63
447.32	8528.91
447.51	8517.21
447.69	8425.93
447.88	8435.29
448.06	8407.20
448.25	8351.03
448.43	8435.29
448.62	8559.34
448.80	8468.06
448.99	8669.34
449.17	8683.39
449.36	8723.18
449.54	8718.50
449.73	8779.35
449.91	8760.63
450.10	8667.00
450.28	8997.02
450.46	8973.61
450.65	8922.12
450.83	9004.04
451.02	8786.37
451.20	9128.09
451.39	9121.07
451.57	9221.71
451.76	8877.65
451.94	9156.18
452.13	9387.89
452.31	9343.42
452.49	9149.15
452.68	9317.67
452.86	9116.39
453.05	9305.97
453.23	9472.15
453.42	9359.80
453.60	9350.44
453.78	9460.45
453.97	9427.68
454.15	9413.63
454.34	9334.06
454.52	9460.45
454.70	9509.60
454.89	9490.87
455.07	9596.20
455.26	9729.61
455.44	9661.73
455.62	9951.96
455.81	9701.52
455.99	10157.92
456.17	10094.73
456.36	9963.66
456.54	10120.48
456.73	10258.57
456.91	10520.71
457.09	10317.08
457.28	10560.50
457.46	10225.80
457.64	10200.05
457.83	10289.00
458.01	10406.02
458.19	10691.57
458.38	10420.06
458.56	10721.99
458.74	10654.12
458.93	10431.77
459.11	10494.96
459.29	10590.92
459.48	10684.55
459.66	10609.65
459.84	10871.79
460.03	10944.34
460.21	10867.11
460.39	10867.11
460.57	10827.32
460.76	11077.76
460.94	10958.39
461.12	11185.42
461.31	11087.12
461.49	11143.29
461.67	11105.84
461.85	11433.52
462.04	11234.57
462.22	11585.65
462.40	11541.18
462.59	11489.69
462.77	11468.62
462.95	11466.28
463.13	11353.94
463.32	11365.64
463.50	11562.25
463.68	11527.14
463.86	11845.45
464.05	11447.56
464.23	11529.48
464.41	11894.60
464.59	11424.15
464.78	12182.49
464.96	11927.37
465.14	11903.96
465.32	12091.21
465.50	12028.01
465.69	12121.63
465.87	11974.18
466.05	11992.90
466.23	11992.90
466.41	11995.25
466.60	12468.03
466.78	11784.60
466.96	12133.34
467.14	12353.35
467.32	12423.56
467.51	12636.55
467.69	12308.88
467.87	12250.36
468.05	12404.84
468.23	12301.86
468.41	12336.96
468.60	12657.62
468.78	12615.49
468.96	12636.55
469.14	12439.95
469.32	12896.35
469.50	12531.23
469.69	13055.51
469.87	12828.48
470.05	13144.45
470.23	13348.08
470.41	13092.96
470.59	13217.01
470.77	13004.02
470.95	13334.03
471.14	13334.03
471.32	13179.56
471.50	13399.57
471.68	13565.74
471.86	13729.58
472.04	13689.79
472.22	14094.71
472.40	13722.56
472.58	13760.01
472.77	13891.08
472.95	14134.50
473.13	14635.37
473.31	14033.85
473.49	14270.25
473.67	14143.86
473.85	14221.10
474.03	14310.04
474.21	14347.48
474.39	14665.80
474.57	14799.21
474.75	14801.55
474.93	14984.11
475.12	14995.81
475.30	15059.01
475.48	15066.03
475.66	15253.27
475.84	15047.30
476.02	15250.93
476.20	15180.71
476.38	15854.79
476.56	15990.54
476.74	15946.07
476.92	15810.32
477.10	15480.30
477.28	15882.88
477.46	16063.10
477.64	16233.96
477.82	16318.22
478.00	16835.47
478.18	16634.19
478.36	16669.30
478.54	16966.54
478.72	16835.47
478.90	17256.77
479.08	17446.35
479.26	17439.33
479.44	17266.13
479.62	17600.83
479.80	17942.55
479.98	17937.87
480.16	18450.44
480.34	17965.95
480.52	18665.77
480.70	18607.26
480.88	18663.43
481.06	18586.19
481.24	18401.29
481.41	18930.25
481.59	19040.26
481.77	19033.24
481.95	19550.49
482.13	19339.85
482.31	19386.66
482.49	20039.67
482.67	20107.54
482.85	20142.65
483.03	20463.30
483.21	20788.64
483.39	20798.00
483.57	20821.41
483.74	20830.77
483.92	21132.70
484.10	21085.89
484.28	21720.17
484.46	21942.52
484.64	22143.81
484.82	21872.31
485.00	22214.02
485.18	22670.43
485.35	22581.49
485.53	22850.65
485.71	22806.18
485.89	23281.31
486.07	23150.24
486.25	23325.78
486.43	23484.94
486.61	23477.91
486.78	24044.32
486.96	24056.03
487.14	24147.31
487.32	24519.45
487.50	24615.41
487.68	24807.34
487.85	24814.36
488.03	25553.97
488.21	25434.60
488.39	25523.54
488.57	25795.04
488.75	25935.48
488.92	26326.35
489.10	26742.96
489.28	26616.57
489.46	26705.51
489.64	26630.62
489.81	27417.04
489.99	27658.11
490.17	27508.32
490.35	27962.38
490.53	28271.33
490.70	28271.33
490.88	28514.75
491.06	28683.27
491.24	28760.50
491.41	28945.41
491.59	29408.83
491.77	28975.83
491.95	29010.94
492.13	29633.52
492.30	29523.52
492.48	29853.53
492.66	29507.13
492.84	30167.16
493.01	30546.33
493.19	30450.37
493.37	30497.18
493.54	30988.69
493.72	31789.16
493.90	31150.19
494.08	31026.14
494.25	31690.85
494.43	31693.19
494.61	31969.38
494.79	32271.31
494.96	31906.18
495.14	32404.72
495.32	33294.12
495.49	32779.20
495.67	33130.28
495.85	33369.02
496.02	33694.35
496.20	33628.82
496.38	33942.45
496.55	34061.82
496.73	34452.69
496.91	33795.00
497.09	34309.91
497.26	34600.14
497.44	35131.44
497.62	34738.23
497.79	35571.46
497.97	35323.36
498.14	35718.92
498.32	35992.76
498.50	35812.54
498.67	36568.53
498.85	36250.22
499.03	36577.89
499.20	36259.58
499.38	36842.37
499.56	36973.44
499.73	36912.59
499.91	36744.07
500.08	37446.23
500.26	36884.50
500.44	37565.60
500.61	37460.27
500.79	37535.17
500.97	37596.03
501.14	38567.35
501.32	38499.47
501.49	37989.24
501.67	38410.53
501.84	38609.48
502.02	38211.59
502.20	39009.71
502.37	38497.13
502.55	38829.49
502.72	39171.21
502.90	39028.43
503.07	39129.08
503.25	39501.22
503.43	39564.42
503.60	39955.29
503.78	39966.99
503.95	39903.79
504.13	40339.13
504.30	40292.32
504.48	40215.08
504.65	40409.35
504.83	40952.35
505.01	40849.37
505.18	41045.97
505.36	41097.47
505.53	41069.38
505.71	41254.28
505.88	41378.33
506.06	41294.07
506.23	41509.40
506.41	41378.33
506.58	41324.50
506.76	41773.88
506.93	41890.91
507.11	41710.69
507.28	42478.38
507.46	42576.69
507.63	42513.49
507.81	42810.74
507.98	42492.43
508.16	42850.53
508.33	42445.62
508.50	43159.48
508.68	43367.79
508.85	43463.75
509.03	43203.95
509.20	43377.15
509.38	43831.21
509.55	44250.17
509.73	44170.59
509.90	44404.64
510.08	44348.47
510.25	44465.50
510.42	44507.63
510.60	44828.28
510.77	44959.35
510.95	45322.13
511.12	44673.81
511.30	44701.89
511.47	45397.03
511.64	45378.31
511.82	45729.39
511.99	45427.46
512.17	45727.05
512.34	45720.02
512.51	46295.80
512.69	45900.25
512.86	45841.73
513.04	46312.18
513.21	46478.36
513.38	46153.02
513.56	46714.75
513.73	46623.47
513.90	46979.23
514.08	46518.15
514.25	47044.77
514.43	46976.89
514.60	47196.90
514.77	47117.32
514.95	47414.57
515.12	47288.18
515.29	47213.29
515.47	47571.39
515.64	47978.64
515.81	47639.26
515.99	48020.77
516.16	47913.11
516.33	48236.10
516.51	48624.63
516.68	48257.17
516.85	48186.95
517.03	48102.69
517.20	48650.38
517.37	48669.10
517.54	48610.59
517.72	48802.51
517.89	48638.67
518.06	48893.79
518.24	48933.58
518.41	48879.75
518.58	48996.77
518.75	48945.28
518.93	49111.46
519.10	49291.68
519.27	49155.93
519.45	49371.26
519.62	49762.13
519.79	49703.62
519.96	49785.54
520.14	49853.41
520.31	49642.76
520.48	49911.92
520.65	50363.65
520.83	50085.12
521.00	50328.54
521.17	50263.00
521.34	50770.90
521.52	50295.77
521.69	50862.18
521.86	50721.75
522.03	50761.54
522.20	51040.06
522.38	51419.23
522.55	51255.39
522.72	51002.61
522.89	50974.53
523.07	51054.11
523.24	51189.86
523.41	51452.00
523.58	51082.19
523.75	52002.02
523.92	51423.91
524.10	51753.93
524.27	51838.18
524.44	51749.24
524.61	52002.02
524.78	51889.68
524.96	51461.36
525.13	51842.87
525.30	52182.24
525.47	52245.44
525.64	52458.43
525.81	52376.51
525.98	52533.32
526.16	52184.58
526.33	52348.42
526.50	52488.85
526.67	52282.89
526.84	52776.74
527.01	52750.99
527.18	52470.13
527.36	52804.83
527.53	52631.63
527.70	53118.46
527.87	52797.80
528.04	52947.60
528.21	53357.19
528.38	52926.53
528.55	53359.53
528.72	52844.62
528.89	53406.34
529.07	53221.44
529.24	53324.43
529.41	53523.37
529.58	53413.37
529.75	53485.92
529.92	53638.06
530.09	53769.13
530.26	53450.81
530.43	53787.85
530.60	53392.30
530.77	53881.47
530.94	53881.47
531.11	53624.01
531.28	54080.42
531.46	53839.34
531.63	53925.94
531.80	54042.97
531.97	54342.56
532.14	54274.68
532.31	54087.44
532.48	54150.63
532.65	54398.73
532.82	54068.72
532.99	54644.49
533.16	54152.97
533.33	54408.09
533.50	54777.90
533.67	54581.29
533.84	54494.69
534.01	54663.21
534.18	54677.25
534.35	55035.36
534.52	54934.71
534.69	54918.33
534.86	55257.71
535.03	54972.16
535.20	55072.81
535.37	55121.96
535.54	55114.94
535.71	54848.11
535.88	55178.13
536.05	55374.73
536.22	55536.23
536.38	55182.81
536.55	55234.30
536.72	55594.74
536.89	55379.42
537.06	55671.98
537.23	55540.91
537.40	55341.97
537.57	55437.93
537.74	55512.83
537.91	55805.39
538.08	55711.77
538.25	55742.20
538.42	55587.72
538.59	55915.40
538.75	55772.63
538.92	55927.10
539.09	56121.37
539.26	55803.05
539.43	56072.21
539.60	55875.61
539.77	55941.14
539.94	55948.17
540.11	56018.38
540.28	56245.41
540.44	56327.33
540.61	56053.49
540.78	56051.15
540.95	56257.12
541.12	56278.18
541.29	56214.99
541.46	56442.02
541.62	56502.87
541.79	56554.36
541.96	56191.58
542.13	56460.74
542.30	56622.24
542.47	56676.07
542.63	56636.28
542.80	56746.29
542.97	56952.26
543.14	56956.94
543.31	56877.36
543.48	57237.80
543.64	57207.37
543.81	57038.86
543.98	57064.60
544.15	57183.97
544.32	57190.99
544.48	57219.08
544.65	57286.95
544.82	57228.44
544.99	56980.34
545.16	57312.70
545.32	57186.31
545.49	57251.84
545.66	57455.47
545.83	57654.42
546.00	57483.56
546.16	57436.75
546.33	57429.72
546.50	57102.05
546.67	57394.62
546.83	57326.74
547.00	57467.17
547.17	57455.47
547.34	57626.33
547.50	57797.19
547.67	57811.23
547.84	57841.66
548.00	57965.71
548.17	58068.69
548.34	57930.60
548.51	58052.31
548.67	58061.67
548.84	57811.23
549.01	57970.39
549.18	57893.15
549.34	57799.53
549.51	58169.33
549.68	58305.09
549.84	58110.82
550.01	58134.23
550.18	58000.82
550.34	58253.59
550.51	58330.83
550.68	58164.65
550.84	57745.70
551.01	58358.92
551.18	58272.32
551.34	58258.27
551.51	58440.84
551.68	58269.98
551.84	58237.21
552.01	58267.64
552.18	58307.43
552.34	58279.34
552.51	58562.54
552.68	58487.65
552.84	58489.99
553.01	58646.80
553.18	58702.98
553.34	58890.22
553.51	58656.17
553.67	58745.11
553.84	58663.19
554.01	58901.92
554.17	58726.38
554.34	58745.11
554.51	58993.20
554.67	58754.47
554.84	58752.13
555.00	58707.66
555.17	58866.81
555.33	58782.55
555.50	58735.74
555.67	58899.58
555.83	58670.21
556.00	59119.59
556.16	59271.73
556.33	59079.80
556.50	59126.61
556.66	59147.68
556.83	58876.18
556.99	59166.40
557.16	59166.40
557.32	59316.20
557.49	59484.72
557.65	59274.07
557.82	59107.89
557.98	59330.24
558.15	59402.80
558.32	59171.08
558.48	59082.14
558.65	59304.49
558.81	59264.70
558.98	59325.56
559.14	59414.50
559.31	59627.49
559.47	59407.48
559.64	59337.26
559.80	59561.95
559.97	59564.29
560.13	59360.67
560.30	59613.44
560.46	59463.65
560.63	59547.91
560.79	59746.86
560.96	59779.62
561.12	59561.95
561.29	59847.50
561.45	59587.70
561.61	59531.53
561.78	59519.82
561.94	59557.27
562.11	59618.13
562.27	59323.22
562.44	59655.57
562.60	59739.83
562.77	59657.91
562.93	59557.27
563.10	59767.92
563.26	59611.10
563.42	60048.78
563.59	59831.11
563.75	59676.64
563.92	59983.25
564.08	59959.84
564.24	60030.06
564.41	59817.07
564.57	59978.57
564.74	60203.26
564.90	59765.58
565.07	60058.15
565.23	59927.08
565.39	60123.68
565.56	60121.34
565.72	59901.33
565.88	60009.00
566.05	59973.89
566.21	59814.73
566.38	60107.30
566.54	60079.21
566.70	60198.58
566.87	60287.52
567.03	59997.29
567.19	60381.14
567.36	60287.52
567.52	60121.34
567.68	60149.43
567.85	59990.27
568.01	60324.97
568.17	60001.97
568.34	60378.80
568.50	60165.81
568.66	60254.75
568.83	60381.14
568.99	60147.09
569.15	60107.30
569.32	60233.69
569.48	60121.34
569.64	60346.03
569.81	60238.37
569.97	60039.42
570.13	60259.43
570.30	60020.70
570.46	60158.79
570.62	60306.24
570.78	60355.39
570.95	60275.82
571.11	60367.10
571.27	60479.44
571.43	60324.97
571.60	60303.90
571.76	60355.39
571.92	60542.64
572.09	60399.86
572.25	60418.59
572.41	60416.25
572.57	60554.34
572.74	60612.85
572.90	60416.25
573.06	60463.06
573.22	60355.39
573.38	60629.24
573.55	60554.34
573.71	60608.17
573.87	60397.52
574.03	60310.92
574.20	60509.87
574.36	60402.21
574.52	60528.59
574.68	60753.29
574.84	60549.66
575.01	60676.05
575.17	60514.55
575.33	60350.71
575.49	60493.49
575.65	60610.51
575.82	60748.60
575.98	60708.82
576.14	60704.13
576.30	60755.63
576.46	60512.21
576.62	60378.80
576.79	60706.47
576.95	60364.76
577.11	60556.68
577.27	60645.62
577.43	60573.06
577.59	60477.10
577.75	60463.06
577.92	60488.80
578.08	60573.06
578.24	60720.52
578.40	60488.80
578.56	60900.74
578.72	60568.38
578.88	60830.52
579.04	60846.91
579.21	60903.08
579.37	60781.37
579.53	60954.57
579.69	60519.23
579.85	60678.39
580.01	60406.89
580.17	60423.27
580.33	60647.96
580.49	60783.71
580.65	60530.93
580.82	60537.96
580.98	60706.47
581.14	60544.98
581.30	60818.82
581.46	60603.49
581.62	60746.26
581.78	60626.90
581.94	60734.56
582.10	60753.29
582.26	60580.09
582.42	60776.69
582.58	60615.19
582.74	60762.65
582.90	60736.90
583.06	60676.05
583.22	60575.40
583.38	60858.61
583.54	60863.29
583.70	60743.92
583.86	60729.88
584.02	60718.18
584.18	60781.37
584.34	60713.50
584.50	60912.44
584.66	60729.88
584.82	60654.98
584.98	60917.12
585.14	60889.04
585.30	60708.82
585.46	60956.91
585.62	60828.18
585.78	61024.79
585.94	60729.88
586.10	60764.99
586.26	60896.06
586.42	60793.07
586.58	60938.19
586.74	60940.53
586.90	60837.54
587.06	60910.10
587.22	61048.19
587.38	60762.65
587.54	61062.24
587.70	60917.12
587.86	60809.46
588.02	60804.78
588.18	60992.02
588.34	60823.50
588.49	60811.80
