SpectraSuite Data File
++++++++++++++++++++++++++++++++++++
Date: Fri Oct 25 11:23:24 EDT 2013
User: price-jones
Dark Spectrum Present: No
Reference Spectrum Present: No
Number of Sampled Component Spectra: 1
Spectrometers: USB2+H05261
Integration Time (usec): 100000 (USB2+H05261)
Spectra Averaged: 1 (USB2+H05261)
Boxcar Smoothing: 0 (USB2+H05261)
Correct for Electrical Dark: No (USB2+H05261)
Strobe/Lamp Enabled: No (USB2+H05261)
Correct for Detector Non-linearity: No (USB2+H05261)
Correct for Stray Light: No (USB2+H05261)
Number of Pixels in Processed Spectrum: 2048
>>>>>Begin Processed Spectral Data<<<<<
365.73	227.03
365.92	227.03
366.12	227.03
366.32	147.45
366.52	166.18
366.72	142.77
366.91	126.39
367.11	173.20
367.31	152.13
367.51	124.05
367.70	102.98
367.90	117.03
368.10	145.11
368.30	117.03
368.49	105.32
368.69	212.99
368.89	201.29
369.09	140.43
369.28	173.20
369.48	88.94
369.68	110.01
369.87	149.79
370.07	154.48
370.27	229.37
370.47	304.27
370.66	608.54
370.86	631.94
371.06	674.07
371.25	711.52
371.45	723.23
371.65	760.67
371.84	669.39
372.04	667.05
372.24	594.50
372.44	741.95
372.63	741.95
372.83	727.91
373.03	788.76
373.22	753.65
373.42	807.48
373.62	795.78
373.81	791.10
374.01	851.96
374.21	835.57
374.40	784.08
374.60	837.91
374.79	847.27
374.99	816.85
375.19	830.89
375.38	901.11
375.58	896.43
375.78	856.64
375.97	730.25
376.17	858.98
376.37	856.64
376.56	821.53
376.76	856.64
376.95	802.80
377.15	828.55
377.35	866.00
377.54	863.66
377.74	901.11
377.93	877.70
378.13	954.94
378.33	863.66
378.52	868.34
378.72	966.64
378.91	966.64
379.11	894.08
379.31	992.39
379.50	954.94
379.70	1078.99
379.89	1032.18
380.09	910.47
380.28	983.02
380.48	968.98
380.68	1020.47
380.87	994.73
381.07	1039.20
381.26	985.37
381.46	936.21
381.65	1050.90
381.85	1032.18
382.04	1034.52
382.24	1130.48
382.43	1041.54
382.63	1111.75
382.83	1046.22
383.02	1118.78
383.22	1156.22
383.41	1076.65
383.61	1069.62
383.80	1142.18
384.00	1064.94
384.19	1093.03
384.39	1177.29
384.58	1139.84
384.78	1252.19
384.97	1207.72
385.17	1233.46
385.36	1200.69
385.56	1163.25
385.75	1102.39
385.95	1130.48
386.14	1130.48
386.34	1186.65
386.53	1231.12
386.72	1172.61
386.92	1158.57
387.11	1294.32
387.31	1254.53
387.50	1240.48
387.70	1205.38
387.89	1331.76
388.09	1352.83
388.28	1270.91
388.48	1315.38
388.67	1231.12
388.86	1320.06
389.06	1315.38
389.25	1334.11
389.45	1399.64
389.64	1320.06
389.84	1310.70
390.03	1376.24
390.22	1376.24
390.42	1301.34
390.61	1383.26
390.81	1383.26
391.00	1390.28
391.19	1441.77
391.39	1348.15
391.58	1462.83
391.78	1577.52
391.97	1469.86
392.16	1427.73
392.36	1514.33
392.55	1579.86
392.75	1636.03
392.94	1563.48
393.13	1535.39
393.33	1453.47
393.52	1579.86
393.71	1713.27
393.91	1614.97
394.10	1561.14
394.29	1542.41
394.49	1668.80
394.68	1687.53
394.88	1619.65
395.07	1717.95
395.26	1703.91
395.46	1671.14
395.65	1685.19
395.84	1706.25
396.04	1736.68
396.23	1802.21
396.42	1668.80
396.62	1703.91
396.81	1799.87
397.00	1720.29
397.19	1762.42
397.39	1774.13
397.58	1785.83
397.77	1825.62
397.97	1795.19
398.16	1820.94
398.35	1863.07
398.55	1851.36
398.74	1898.17
398.93	1937.96
399.12	1926.26
399.32	1905.20
399.51	1928.60
399.70	1961.37
399.90	1935.62
400.09	2043.29
400.28	2071.37
400.47	2062.01
400.67	2066.69
400.86	2057.33
401.05	2092.44
401.24	2136.91
401.44	2050.31
401.63	2118.18
401.82	2052.65
402.01	1987.11
402.21	2094.78
402.40	2223.51
402.59	2202.44
402.78	2242.23
402.97	2270.32
403.17	2251.60
403.36	2244.57
403.55	2305.43
403.74	2382.67
403.93	2377.98
404.13	2354.58
404.32	2445.86
404.51	2328.83
404.70	2403.73
404.89	2370.96
405.09	2523.10
405.28	2534.80
405.47	2452.88
405.66	2478.63
405.85	2513.74
406.05	2509.05
406.24	2511.39
406.43	2614.38
406.62	2551.18
406.81	2700.98
407.00	2665.87
407.20	2651.83
407.39	2527.78
407.58	2693.96
407.77	2712.68
407.96	2829.71
408.15	2818.00
408.34	2766.51
408.54	2792.26
408.73	2874.18
408.92	2782.90
409.11	2981.84
409.30	2958.44
409.49	2892.90
409.68	3016.95
409.87	2949.08
410.07	3091.85
410.26	3040.36
410.45	2876.52
410.64	3087.17
410.83	3091.85
411.02	2953.76
411.21	3098.87
411.40	3049.72
411.59	3232.28
411.78	3180.79
411.98	3229.94
412.17	3157.38
412.36	3351.65
412.55	3424.20
412.74	3389.10
412.93	3363.35
413.12	3426.54
413.31	3623.15
413.50	3449.95
413.69	3541.23
413.88	3599.74
414.07	3609.11
414.26	3637.19
414.45	3669.96
414.64	3669.96
414.83	3754.22
415.02	3726.13
415.22	3712.09
415.41	3850.18
415.60	3831.46
415.79	3892.31
415.98	3929.76
416.17	3978.91
416.36	3936.78
416.55	3946.14
416.74	4044.45
416.93	4114.66
417.12	4119.34
417.31	4212.96
417.50	4154.45
417.69	4322.97
417.88	4313.61
418.07	4346.37
418.26	4301.90
418.45	4397.87
418.64	4557.02
418.83	4414.25
419.02	4512.55
419.21	4437.66
419.39	4493.83
419.58	4531.28
419.77	4386.16
419.96	4608.51
420.15	4622.56
420.34	4601.49
420.53	4594.47
420.72	4748.95
420.91	4774.69
421.10	4702.14
421.29	4802.78
421.48	4802.78
421.67	4779.37
421.86	4720.86
422.05	4936.19
422.24	4861.29
422.43	4875.34
422.61	5088.32
422.80	5013.43
422.99	4966.62
423.18	4903.42
423.37	4990.02
423.56	4903.42
423.75	4957.25
423.94	4891.72
424.13	4667.03
424.32	4753.63
424.50	4983.00
424.69	5228.76
424.88	4947.89
425.07	5001.72
425.26	4933.85
425.45	5008.75
425.64	4950.23
425.83	5132.79
426.01	5013.43
426.20	5093.01
426.39	5060.24
426.58	5013.43
426.77	5069.60
426.96	5116.41
427.15	5137.48
427.33	5184.29
427.52	5146.84
427.71	5268.55
427.90	5135.14
428.09	5432.38
428.28	5404.30
428.46	5331.74
428.65	5355.15
428.84	5528.35
429.03	5343.44
429.22	5427.70
429.40	5570.48
429.59	5558.77
429.78	5268.55
429.97	5287.27
430.16	5619.63
430.34	5500.26
430.53	5575.16
430.72	5650.05
430.91	5715.59
431.10	5640.69
431.28	5813.89
431.47	5825.59
431.66	5975.39
431.85	5804.53
432.03	5921.56
432.22	6146.25
432.41	5912.19
432.60	5987.09
432.79	5959.00
432.97	6024.54
433.16	5961.34
433.35	5996.45
433.54	6108.80
433.72	6195.40
433.91	5989.43
434.10	6239.87
434.28	6211.78
434.47	6050.28
434.66	6230.51
434.85	6129.86
435.03	6324.13
435.22	6352.21
435.41	6548.82
435.59	6331.15
435.78	6612.01
435.97	6665.85
436.16	6450.52
436.34	6438.81
436.53	6707.98
436.72	6628.40
436.90	6583.93
437.09	6672.87
437.28	6612.01
437.46	6623.72
437.65	6696.27
437.84	6843.73
438.02	6649.46
438.21	6925.65
438.40	6773.51
438.58	7019.27
438.77	7056.72
438.96	6888.20
439.14	7258.00
439.33	7077.78
439.52	7145.66
439.70	7258.00
439.89	7342.26
440.08	7466.31
440.26	7510.78
440.45	7377.37
440.63	7660.57
440.82	7557.59
441.01	7421.84
441.19	7630.15
441.38	7688.66
441.57	7784.62
441.75	7695.68
441.94	7815.05
442.12	7850.16
442.31	8100.59
442.50	8271.45
442.68	8058.46
442.87	8124.00
443.05	8116.98
443.24	8322.94
443.43	7992.93
443.61	8226.98
443.80	8482.10
443.98	7967.18
444.17	7967.18
444.35	8327.63
444.54	8409.54
444.73	8217.62
444.91	8180.17
445.10	8454.02
445.28	8322.94
445.47	8177.83
445.65	8332.31
445.84	8461.04
446.02	8599.13
446.21	8388.48
446.39	8369.76
446.58	8758.28
446.77	8545.30
446.95	8264.43
447.14	8341.67
447.32	8517.21
447.51	8465.72
447.69	8489.12
447.88	8559.34
448.06	8477.42
448.25	8524.23
448.43	8439.97
448.62	8559.34
448.80	8528.91
448.99	8809.78
449.17	8936.17
449.36	8676.37
449.54	8814.46
449.73	8950.21
449.91	8882.33
450.10	9088.30
450.28	9109.36
450.46	9151.49
450.65	8999.36
450.83	9025.11
451.02	9111.71
451.20	9268.52
451.39	9430.02
451.57	8877.65
451.76	9085.96
451.94	9202.99
452.13	9322.35
452.31	9284.91
452.49	9226.39
452.68	9411.29
452.86	9277.88
453.05	9551.73
453.23	9493.21
453.42	9511.94
453.60	9245.12
453.78	9675.77
453.97	9430.02
454.15	9685.14
454.34	9572.79
454.52	9715.56
454.70	9790.46
454.89	9921.53
455.07	10057.28
455.26	9830.25
455.44	10024.51
455.62	10106.43
455.81	10176.65
455.99	10122.82
456.17	10073.67
456.36	10134.52
456.54	10169.63
456.73	10359.21
456.91	10445.81
457.09	10501.98
457.28	10347.51
457.46	10204.74
457.64	10637.73
457.83	10473.90
458.01	10239.84
458.19	10682.20
458.38	10520.71
458.56	10841.36
458.74	10813.28
458.93	10686.89
459.11	10675.18
459.29	10841.36
459.48	10937.32
459.66	10743.06
459.84	10855.40
460.03	11129.25
460.21	11096.48
460.39	11262.66
460.57	11080.10
460.76	11274.36
460.94	11323.51
461.12	11199.46
461.31	10988.82
461.49	11176.06
461.67	11084.78
461.85	11541.18
462.04	11281.38
462.22	11597.35
462.40	11592.67
462.59	11461.60
462.77	11477.99
462.95	11747.15
463.13	11506.07
463.32	11742.47
463.50	11868.86
463.68	11901.62
463.86	11925.03
464.05	11800.98
464.23	11800.98
464.41	12058.44
464.59	11681.61
464.78	11983.54
464.96	12107.59
465.14	11913.33
465.32	12058.44
465.50	12159.08
465.69	12318.24
465.87	12372.07
466.05	12416.54
466.23	12035.03
466.41	12152.06
466.60	12622.51
466.78	12180.15
466.96	12381.43
467.14	12196.53
467.32	12393.14
467.51	12713.79
467.69	12329.94
467.87	12482.08
468.05	12531.23
468.23	12475.06
468.41	12524.21
468.60	12760.60
468.78	12884.65
468.96	12894.01
469.14	13022.74
469.32	12954.87
469.50	12809.75
469.69	13291.90
469.87	13116.36
470.05	12924.44
470.23	13195.94
470.41	13252.11
470.59	13635.96
470.77	13256.79
470.95	13378.50
471.14	13432.33
471.32	13479.15
471.50	13462.76
471.68	13586.81
471.86	13851.29
472.04	13947.25
472.22	13954.27
472.40	13855.97
472.58	13907.46
472.77	13888.74
472.95	14059.60
473.13	14576.86
473.31	14064.28
473.49	14101.73
473.67	14305.35
473.85	14513.66
474.03	14726.65
474.21	14604.94
474.39	14878.79
474.57	14796.87
474.75	15122.20
474.93	15143.27
475.12	14974.75
475.30	14977.09
475.48	15208.80
475.66	15494.35
475.84	14998.15
476.02	15414.77
476.20	15632.44
476.38	15805.64
476.56	16098.20
476.74	15990.54
476.92	15995.22
477.10	15845.43
477.28	16376.73
477.46	16152.04
477.64	16858.88
477.82	16519.50
478.00	17074.21
478.18	16924.41
478.36	16959.52
478.54	17238.05
478.72	17312.94
478.90	17451.03
479.08	17493.16
479.26	17809.14
479.44	17668.70
479.62	17846.58
479.80	17900.42
479.98	18317.03
480.16	18609.60
480.34	18714.92
480.52	18733.65
480.70	18665.77
480.88	18677.48
481.06	18960.68
481.24	18757.05
481.41	19190.05
481.59	19330.48
481.77	19791.57
481.95	19711.99
482.13	19831.36
482.31	19576.24
482.49	20465.64
482.67	20339.26
482.85	20592.03
483.03	20545.22
483.21	20996.95
483.39	20987.58
483.57	20638.84
483.74	21338.66
483.92	21802.09
484.10	21289.51
484.28	21645.27
484.46	22047.85
484.64	22326.37
484.82	22218.71
485.00	22338.07
485.18	22836.61
485.35	23126.83
485.53	22775.75
485.71	23136.20
485.89	23222.80
486.07	22946.61
486.25	23208.75
486.43	23812.61
486.61	23878.15
486.78	24151.99
486.96	24208.16
487.14	25172.46
487.32	24374.34
487.50	25212.25
487.68	25275.45
487.85	25509.50
488.03	25687.38
488.21	26115.70
488.39	26099.31
488.57	26043.14
488.75	26539.33
488.92	26810.84
489.10	26944.25
489.28	26700.83
489.46	27262.56
489.64	27381.93
489.81	27667.47
489.99	27702.58
490.17	28107.49
490.35	28563.90
490.53	28240.90
490.70	28510.07
490.88	28496.02
491.06	29113.92
491.24	29191.16
491.41	29137.33
491.59	29406.49
491.77	29350.32
491.95	30054.82
492.13	29989.28
492.30	29979.92
492.48	30394.20
492.66	30508.88
492.84	30050.14
493.01	30424.62
493.19	31023.80
493.37	31065.93
493.54	30850.60
493.72	31702.56
493.90	31655.75
494.08	32023.21
494.25	31873.42
494.43	32201.09
494.61	32559.19
494.79	32818.99
494.96	32500.68
495.14	32954.74
495.32	33202.84
495.49	33326.89
495.67	33635.84
495.85	34129.69
496.02	33790.31
496.20	34150.76
496.38	34092.24
496.55	34202.25
496.73	34646.95
496.91	34565.03
497.09	35365.49
497.26	34845.90
497.44	34995.69
497.62	35325.71
497.79	36023.19
497.97	36100.42
498.14	35995.10
498.32	36531.08
498.50	36198.73
498.67	36842.37
498.85	36636.41
499.03	37219.20
499.20	36622.36
499.38	37064.72
499.56	37214.52
499.73	37434.53
499.91	37696.67
500.08	37649.86
500.26	37832.42
500.44	37883.91
500.61	37979.87
500.79	37804.33
500.97	38600.12
501.14	38651.61
501.32	38941.83
501.49	38808.42
501.67	38820.13
501.84	39428.66
502.02	39058.86
502.20	39089.29
502.37	39847.62
502.55	39625.27
502.72	39852.30
502.90	39693.15
503.07	39974.01
503.25	39995.07
503.43	39976.35
503.60	40240.83
503.78	40299.34
503.95	40479.57
504.13	40849.37
504.30	40800.22
504.48	40758.09
504.65	40832.99
504.83	41067.04
505.01	41305.77
505.18	41780.90
505.36	41778.56
505.53	41666.22
505.71	41844.10
505.88	42080.49
506.06	41783.24
506.23	42291.14
506.41	42029.00
506.58	42361.36
506.76	42485.40
506.93	42607.11
507.11	42602.43
507.28	42721.80
507.46	43145.44
507.63	43585.46
507.81	43524.60
507.98	42780.31
508.16	43363.11
508.33	43578.43
508.50	43519.92
508.68	43662.69
508.85	44149.53
509.03	43826.53
509.20	44079.31
509.38	44533.37
509.55	44561.46
509.73	45125.53
509.90	44971.05
510.08	44509.97
510.25	45221.49
510.42	44758.06
510.60	45165.32
510.77	45394.69
510.95	45474.27
511.12	45399.37
511.30	45703.64
511.47	45783.22
511.64	45663.85
511.82	45436.82
511.99	46211.54
512.17	46174.09
512.34	45830.03
512.51	46326.22
512.69	46447.93
512.86	46539.21
513.04	46939.44
513.21	46986.25
513.38	46986.25
513.56	46813.05
513.73	46955.83
513.90	47227.33
514.08	47590.11
514.25	47597.13
514.43	47655.65
514.60	47409.89
514.77	47625.22
514.95	47817.14
515.12	47842.89
515.29	47601.82
515.47	48023.11
515.64	48470.15
515.81	48224.40
515.99	48191.63
516.16	48746.34
516.33	48919.54
516.51	48839.96
516.68	48687.82
516.85	48783.79
517.03	48919.54
517.20	49258.91
517.37	48935.92
517.54	49319.77
517.72	48905.49
517.89	49205.08
518.06	49078.69
518.24	49483.61
518.41	49553.82
518.58	49305.73
518.75	49570.21
518.93	49668.51
519.10	49612.34
519.27	49900.22
519.45	49879.16
519.62	50270.03
519.79	49949.37
519.96	49855.75
520.14	50550.89
520.31	50557.91
520.48	50527.48
520.65	50848.14
520.83	50578.98
521.00	50813.03
521.17	50717.07
521.34	50967.51
521.52	50838.78
521.69	51129.00
521.86	51222.62
522.03	51496.47
522.20	51524.55
522.38	51917.76
522.55	51693.07
522.72	51669.67
522.89	51578.39
523.07	51739.88
523.24	51826.48
523.41	51992.66
523.58	51470.72
523.75	52074.58
523.92	52055.85
524.10	52215.01
524.27	51892.02
524.44	52182.24
524.61	52016.07
524.78	52350.76
524.96	52390.55
525.13	52500.56
525.30	52622.26
525.47	52743.97
525.64	52652.69
525.81	52671.42
525.98	52933.56
526.16	52949.94
526.33	52772.06
526.50	53127.82
526.67	52987.39
526.84	52816.53
527.01	53125.48
527.18	52711.20
527.36	53158.25
527.53	53137.18
527.70	53584.22
527.87	53757.42
528.04	53289.32
528.21	53701.25
528.38	53757.42
528.55	53504.65
528.72	53347.83
528.89	53647.42
529.07	53481.24
529.24	53780.83
529.41	53872.11
529.58	54108.50
529.75	53881.47
529.92	54197.44
530.09	54035.95
530.26	53900.20
530.43	54066.38
530.60	53607.63
530.77	53710.61
530.94	54447.88
531.11	54244.26
531.28	54368.30
531.46	54567.25
531.63	54293.41
531.80	54630.44
531.97	54700.66
532.14	54614.06
532.31	54710.02
532.48	54761.51
532.65	55009.61
532.82	54588.31
532.99	55157.06
533.16	54775.56
533.33	54962.80
533.50	54939.39
533.67	54993.23
533.84	55234.30
534.01	55119.62
534.18	54864.50
534.35	55454.31
534.52	55290.48
534.69	55260.05
534.86	55538.57
535.03	55126.64
535.20	55238.98
535.37	55711.77
535.54	55274.09
535.71	55168.77
535.88	55697.73
536.05	55540.91
536.22	55585.38
536.38	55789.01
536.55	55875.61
536.72	55690.71
536.89	55711.77
537.06	55894.33
537.23	55936.46
537.40	55674.32
537.57	55845.18
537.74	56011.36
537.91	56189.24
538.08	55852.20
538.25	55959.87
538.42	56114.34
538.59	56261.80
538.75	56039.45
538.92	56219.67
539.09	56322.65
539.26	56203.28
539.43	56165.84
539.60	56315.63
539.77	56411.59
539.94	56722.88
540.11	56521.60
540.28	56559.05
540.44	56636.28
540.61	56577.77
540.78	56339.04
540.95	56537.98
541.12	56647.99
541.29	56772.03
541.46	56788.42
541.62	56617.56
541.79	56924.17
541.96	56680.75
542.13	56678.41
542.30	56811.82
542.47	56935.87
542.63	56816.50
542.80	57102.05
542.97	57209.71
543.14	57382.91
543.31	57162.90
543.48	57251.84
543.64	57509.30
543.81	57532.71
543.98	57663.78
544.15	57605.26
544.32	57841.66
544.48	57574.84
544.65	57570.16
544.82	57680.16
544.99	57382.91
545.16	57872.09
545.32	57544.41
545.49	57705.91
545.66	57883.79
545.83	57726.97
546.00	57827.62
546.16	57818.25
546.33	57729.31
546.50	57584.20
546.67	58049.97
546.83	57701.23
547.00	57914.22
547.17	58003.16
547.34	57883.79
547.50	58012.52
547.67	58277.00
547.84	57944.64
548.00	58253.59
548.17	58475.94
548.34	58316.79
548.51	58415.09
548.67	58391.68
548.84	58127.20
549.01	58197.42
549.18	58326.15
549.34	58328.49
549.51	58438.50
549.68	58457.22
549.84	58408.07
550.01	58506.37
550.18	58349.56
550.34	58548.50
550.51	58782.55
550.68	58501.69
550.84	58375.30
551.01	58883.20
551.18	58604.67
551.34	58663.19
551.51	58700.64
551.68	58911.28
551.84	58745.11
552.01	58770.85
552.18	58782.55
552.34	58700.64
552.51	59011.93
552.68	58695.95
552.84	58782.55
553.01	59025.97
553.18	58965.12
553.34	59227.26
553.51	58777.87
553.67	58967.46
553.84	59339.60
554.01	59054.06
554.17	58948.73
554.34	59253.00
554.51	59140.66
554.67	59323.22
554.84	59054.06
555.00	59208.53
555.17	59096.19
555.33	59264.70
555.50	59145.34
555.67	59255.34
555.83	59075.12
556.00	59260.02
556.16	59690.68
556.33	59405.14
556.50	59536.21
556.66	59573.66
556.83	59243.64
556.99	59498.76
557.16	59547.91
557.32	59625.15
557.49	59578.34
557.65	59374.71
557.82	59377.05
557.98	59632.17
558.15	59536.21
558.32	59725.79
558.48	59573.66
558.65	59489.40
558.81	59608.76
558.98	59760.90
559.14	59721.11
559.31	59861.54
559.47	59943.46
559.64	59882.61
559.80	59700.04
559.97	60032.40
560.13	59515.14
560.30	59770.26
560.46	59877.93
560.63	59971.55
560.79	59943.46
560.96	60025.38
561.12	59948.14
561.29	60018.36
561.45	60037.08
561.61	59983.25
561.78	59917.71
561.94	59945.80
562.11	59915.37
562.27	60034.74
562.44	60109.64
562.60	60086.23
562.77	60149.43
562.93	60161.13
563.10	60252.41
563.26	59976.23
563.42	60257.09
563.59	60041.76
563.75	60065.17
563.92	60294.54
564.08	59962.18
564.24	60151.77
564.41	60341.35
564.57	60229.01
564.74	60200.92
564.90	60207.94
565.07	60254.75
565.23	60250.07
565.39	60107.30
565.56	60278.16
565.72	60350.71
565.88	60346.03
566.05	60357.74
566.21	60392.84
566.38	60458.38
566.54	60229.01
566.70	60327.31
566.87	60678.39
567.03	60217.30
567.19	60467.74
567.36	60425.61
567.52	60226.66
567.68	60650.30
567.85	60495.83
568.01	60537.96
568.17	60479.44
568.34	60556.68
568.50	60416.25
568.66	60493.49
568.83	60526.25
568.99	60376.46
569.15	60666.69
569.32	60528.59
569.48	60580.09
569.64	60807.12
569.81	60678.39
569.97	60596.47
570.13	60807.12
570.30	60502.85
570.46	60704.13
570.62	60767.33
570.78	60650.30
570.95	60638.60
571.11	60905.42
571.27	60762.65
571.43	60591.79
571.60	60729.88
571.76	60631.58
571.92	60764.99
572.09	60849.25
572.25	60772.01
572.41	60594.13
572.57	60893.72
572.74	61027.13
572.90	60753.29
573.06	60874.99
573.22	60669.03
573.38	60853.93
573.55	60779.03
573.71	60884.36
573.87	60851.59
574.03	60786.05
574.20	60870.31
574.36	60736.90
574.52	60762.65
574.68	60715.84
574.84	61073.94
575.01	60900.74
575.17	60622.22
575.33	60790.73
575.49	60879.67
575.65	60860.95
575.82	61043.51
575.98	60938.19
576.14	60830.52
576.30	61059.90
576.46	60896.06
576.62	60793.07
576.79	61031.81
576.95	60776.69
577.11	61099.68
577.27	61057.56
577.43	60924.14
577.59	60914.78
577.75	60809.46
577.92	60821.16
578.08	60982.66
578.24	60905.42
578.40	61123.09
578.56	60968.61
578.72	61057.56
578.88	61169.90
579.04	61165.22
579.21	61116.07
579.37	60982.66
579.53	61066.92
579.69	61010.74
579.85	60867.97
580.01	61097.34
580.17	60968.61
580.33	61090.32
580.49	61242.46
580.65	61024.79
580.82	60935.85
580.98	60832.86
581.14	60954.57
581.30	60823.50
581.46	60891.38
581.62	60842.23
581.78	60935.85
581.94	61029.47
582.10	61104.37
582.26	61099.68
582.42	61176.92
582.58	60830.52
582.74	61024.79
582.90	60914.78
583.06	61151.18
583.22	60788.39
583.38	61113.73
583.54	61113.73
583.70	61141.81
583.86	61141.81
584.02	60846.91
584.18	61202.67
584.34	61186.28
584.50	61151.18
584.66	60846.91
584.82	60823.50
584.98	61130.11
585.14	60973.30
585.30	60933.51
585.46	61127.77
585.62	61221.39
585.78	61197.99
585.94	61055.21
586.10	61312.67
586.26	61118.41
586.42	61085.64
586.58	61296.29
586.74	61017.77
586.90	61029.47
587.06	61104.37
587.22	61027.13
587.38	61155.86
587.54	61403.95
587.70	61272.88
587.86	61132.45
588.02	61197.99
588.18	61307.99
588.34	61001.38
