SpectraSuite Data File
++++++++++++++++++++++++++++++++++++
Date: Fri Oct 25 10:43:29 EDT 2013
User: price-jones
Dark Spectrum Present: No
Reference Spectrum Present: No
Number of Sampled Component Spectra: 1
Spectrometers: USB2+H05261
Integration Time (usec): 100000 (USB2+H05261)
Spectra Averaged: 1 (USB2+H05261)
Boxcar Smoothing: 0 (USB2+H05261)
Correct for Electrical Dark: No (USB2+H05261)
Strobe/Lamp Enabled: No (USB2+H05261)
Correct for Detector Non-linearity: No (USB2+H05261)
Correct for Stray Light: No (USB2+H05261)
Number of Pixels in Processed Spectrum: 2048
>>>>>Begin Processed Spectral Data<<<<<
365.73	128.73
365.92	128.73
366.12	128.73
366.32	46.81
366.52	63.19
366.72	39.79
366.91	0.00
367.11	60.85
367.31	39.79
367.51	0.00
367.70	0.00
367.90	42.13
368.10	9.36
368.30	37.45
368.49	63.19
368.69	9.36
368.89	28.09
369.09	25.75
369.28	0.00
369.48	84.26
369.68	121.71
369.87	98.30
370.07	110.01
370.27	46.81
370.47	121.71
370.66	351.08
370.86	407.25
371.06	461.09
371.25	482.15
371.45	435.34
371.65	421.30
371.84	510.24
372.04	421.30
372.24	521.94
372.44	493.85
372.63	482.15
372.83	526.62
373.03	491.51
373.22	533.64
373.42	512.58
373.62	507.90
373.81	561.73
374.01	533.64
374.21	624.92
374.40	543.00
374.60	475.13
374.79	526.62
374.99	585.13
375.19	557.05
375.38	564.07
375.58	573.43
375.78	573.43
375.97	648.33
376.17	631.94
376.37	631.94
376.56	641.31
376.76	641.31
376.95	627.26
377.15	667.05
377.35	636.63
377.54	603.86
377.74	655.35
377.93	641.31
378.13	645.99
378.33	711.52
378.52	653.01
378.72	690.46
378.91	622.58
379.11	669.39
379.31	620.24
379.50	655.35
379.70	638.97
379.89	664.71
380.09	674.07
380.28	791.10
380.48	585.13
380.68	634.29
380.87	697.48
381.07	718.54
381.26	716.20
381.46	669.39
381.65	692.80
381.85	697.48
382.04	681.10
382.24	683.44
382.43	669.39
382.63	627.26
382.83	716.20
383.02	758.33
383.22	727.91
383.41	690.46
383.61	718.54
383.80	732.59
384.00	772.38
384.19	741.95
384.39	823.87
384.58	786.42
384.78	868.34
384.97	807.48
385.17	788.76
385.36	791.10
385.56	851.96
385.75	809.83
385.95	875.36
386.14	866.00
386.34	781.74
386.53	873.02
386.72	868.34
386.92	809.83
387.11	903.45
387.31	873.02
387.50	814.51
387.70	873.02
387.89	837.91
388.09	805.14
388.28	894.08
388.48	826.21
388.67	973.66
388.86	966.64
389.06	915.15
389.25	968.98
389.45	950.26
389.64	938.55
389.84	952.60
390.03	926.85
390.22	1050.90
390.42	983.02
390.61	983.02
390.81	994.73
391.00	1111.75
391.19	1083.67
391.39	1046.22
391.58	1015.79
391.78	1011.11
391.97	1006.43
392.16	1060.26
392.36	1137.50
392.55	1081.33
392.75	983.02
392.94	964.30
393.13	1008.77
393.33	973.66
393.52	1102.39
393.71	1074.31
393.91	1048.56
394.10	1114.10
394.29	1146.86
394.49	1137.50
394.68	1174.95
394.88	1121.12
395.07	1224.10
395.26	1287.29
395.46	1275.59
395.65	1268.57
395.84	1238.14
396.04	1355.17
396.23	1200.69
396.42	1217.08
396.62	1107.07
396.81	1200.69
397.00	1188.99
397.19	1242.82
397.39	1210.06
397.58	1411.34
397.77	1394.96
397.97	1345.81
398.16	1390.28
398.35	1521.35
398.55	1507.30
398.74	1469.86
398.93	1540.07
399.12	1584.54
399.32	1514.33
399.51	1469.86
399.70	1514.33
399.90	1519.01
400.09	1551.78
400.28	1699.23
400.47	1584.54
400.67	1570.50
400.86	1612.63
401.05	1675.82
401.24	1678.16
401.44	1596.25
401.63	1771.79
401.82	1720.29
402.01	1668.80
402.21	1788.17
402.40	1746.04
402.59	1776.47
402.78	1853.70
402.97	1703.91
403.17	1643.06
403.36	1818.60
403.55	1853.70
403.74	1856.04
403.93	1839.66
404.13	1872.43
404.32	1769.44
404.51	1888.81
404.70	1914.56
404.89	1886.47
405.09	2099.46
405.28	1977.75
405.47	1870.09
405.66	2012.86
405.85	2008.18
406.05	1898.17
406.24	1977.75
406.43	2012.86
406.62	1980.09
406.81	2073.71
407.00	2113.50
407.20	2092.44
407.39	1912.22
407.58	2153.29
407.77	2218.83
407.96	2132.23
408.15	2258.62
408.34	2225.85
408.54	2286.70
408.73	2270.32
408.92	2235.21
409.11	2331.17
409.30	2333.51
409.49	2244.57
409.68	2300.75
409.87	2204.78
410.07	2347.56
410.26	2303.09
410.45	2310.11
410.64	2408.41
410.83	2469.27
411.02	2490.33
411.21	2633.10
411.40	2534.80
411.59	2586.29
411.78	2565.23
411.98	2602.68
412.17	2633.10
412.36	2576.93
412.55	2785.24
412.74	2752.47
412.93	2661.19
413.12	2705.66
413.31	2834.39
413.50	2832.05
413.69	2738.43
413.88	2892.90
414.07	2977.16
414.26	2963.12
414.45	2928.01
414.64	2923.33
414.83	3038.02
415.02	3002.91
415.22	3178.45
415.41	3094.19
415.60	3117.59
415.79	3248.66
415.98	3290.79
416.17	3286.11
416.36	3265.05
416.55	3234.62
416.74	3260.37
416.93	3222.92
417.12	3246.32
417.31	3361.01
417.50	3424.20
417.69	3543.57
417.88	3442.93
418.07	3403.14
418.26	3492.08
418.45	3447.61
418.64	3405.48
418.83	3674.64
419.02	3620.81
419.21	3520.17
419.39	3613.79
419.58	3543.57
419.77	3487.40
419.96	3737.84
420.15	3768.26
420.34	3737.84
420.53	3758.90
420.72	3674.64
420.91	3681.66
421.10	3648.90
421.29	3920.40
421.48	3765.92
421.67	3733.15
421.86	3845.50
422.05	3815.07
422.24	3735.50
422.43	3829.12
422.61	3721.45
422.80	3887.63
422.99	3904.01
423.18	3836.14
423.37	3946.14
423.56	3894.65
423.75	3936.78
423.94	3770.60
424.13	3726.13
424.32	3768.26
424.50	3978.91
424.69	3918.06
424.88	4098.28
425.07	3934.44
425.26	3833.80
425.45	3885.29
425.64	3911.04
425.83	3852.52
426.01	3904.01
426.20	3920.40
426.39	4023.38
426.58	3974.23
426.77	3866.56
426.96	3953.16
427.15	3988.27
427.33	4009.34
427.52	4077.21
427.71	4032.74
427.90	4191.90
428.09	4084.23
428.28	4161.47
428.46	3992.95
428.65	4081.89
428.84	4126.36
429.03	4217.65
429.22	4095.94
429.40	4210.62
429.59	4149.77
429.78	3948.48
429.97	3913.38
430.16	4025.72
430.34	4117.00
430.53	4283.18
430.72	4159.13
430.91	4109.98
431.10	4337.01
431.28	4437.66
431.47	4568.73
431.66	4727.88
431.85	4458.72
432.03	4610.86
432.22	4685.75
432.41	4634.26
432.60	4622.56
432.79	4617.88
432.97	4868.31
433.16	4762.99
433.35	4652.98
433.54	4580.43
433.72	4533.62
433.91	4641.28
434.10	4753.63
434.28	4788.74
434.47	4828.53
434.66	4861.29
434.85	5036.83
435.03	4987.68
435.22	4929.17
435.41	5008.75
435.59	5048.54
435.78	5083.64
435.97	5212.37
436.16	5067.26
436.34	5221.74
436.53	5076.62
436.72	5139.82
436.90	4973.64
437.09	5184.29
437.28	5048.54
437.46	5287.27
437.65	5130.45
437.84	5163.22
438.02	5275.57
438.21	5114.07
438.40	5104.71
438.58	5254.50
438.77	5383.23
438.96	5376.21
439.14	5547.07
439.33	5570.48
439.52	5425.36
439.70	5706.23
439.89	5652.39
440.08	5783.46
440.26	5640.69
440.45	5692.18
440.63	5926.24
440.82	5989.43
441.01	5884.11
441.19	6017.52
441.38	6019.86
441.57	5968.37
441.75	6171.99
441.94	6127.52
442.12	6139.23
442.31	6202.42
442.50	6310.08
442.68	6228.17
442.87	6389.66
443.05	6256.25
443.24	6319.45
443.43	6195.40
443.61	6171.99
443.80	6558.18
443.98	6389.66
444.17	6272.64
444.35	6375.62
444.54	6689.25
444.73	6546.48
444.91	6562.86
445.10	6476.26
445.28	6417.75
445.47	6431.79
445.65	6408.39
445.84	6588.61
446.02	6619.04
446.21	6452.86
446.39	6590.95
446.58	6661.16
446.77	6560.52
446.95	6408.39
447.14	6450.52
447.32	6609.67
447.51	6593.29
447.69	6520.73
447.88	6600.31
448.06	6712.66
448.25	6586.27
448.43	6715.00
448.62	6787.55
448.80	6668.19
448.99	6806.28
449.17	6703.29
449.36	6747.76
449.54	7035.65
449.73	7019.27
449.91	7105.87
450.10	7089.48
450.28	7166.72
450.46	7286.09
450.65	7143.32
450.83	7159.70
451.02	7028.63
451.20	7255.66
451.39	7183.10
451.57	7066.08
451.76	7080.12
451.94	7304.81
452.13	7087.14
452.31	7297.79
452.49	7007.56
452.68	7138.63
452.86	6984.16
453.05	7220.55
453.23	7440.56
453.42	7391.41
453.60	7236.94
453.78	7379.71
453.97	7391.41
454.15	7311.83
454.34	7332.90
454.52	7522.48
454.70	7377.37
454.89	7438.22
455.07	7618.44
455.26	7637.17
455.44	7648.87
455.62	7831.43
455.81	7733.13
455.99	7754.19
456.17	7831.43
456.36	7768.24
456.54	7775.26
456.73	8035.06
456.91	8114.64
457.09	8018.68
457.28	8458.70
457.46	8257.41
457.64	8257.41
457.83	8081.87
458.01	8035.06
458.19	8248.05
458.38	8294.86
458.56	8294.86
458.74	8250.39
458.93	8081.87
459.11	8269.11
459.29	8278.47
459.48	8414.23
459.66	8358.05
459.84	8336.99
460.03	8306.56
460.21	8538.27
460.39	8458.70
460.57	8250.39
460.76	8650.62
460.94	8706.79
461.12	8610.83
461.31	8629.56
461.49	8620.19
461.67	8613.17
461.85	8716.16
462.04	8777.01
462.22	9387.89
462.40	8636.58
462.59	8788.71
462.77	8793.39
462.95	8915.10
463.13	9022.77
463.32	8828.50
463.50	8947.87
463.68	9111.71
463.86	9055.53
464.05	9102.34
464.23	8931.48
464.41	8931.48
464.59	8769.99
464.78	9097.66
464.96	9018.08
465.14	8875.31
465.32	9226.39
465.50	9156.18
465.69	9266.18
465.87	9359.80
466.05	9240.44
466.23	9139.79
466.41	9137.45
466.60	9329.38
466.78	9060.21
466.96	9069.58
467.14	9291.93
467.32	9252.14
467.51	9458.10
467.69	9198.31
467.87	9273.20
468.05	9563.43
468.23	9341.08
468.41	9359.80
468.60	9481.51
468.78	9647.69
468.96	9425.34
469.14	9750.67
469.32	9837.27
469.50	9488.53
469.69	9628.96
469.87	9657.05
470.05	9879.40
470.23	9743.65
470.41	9774.08
470.59	9865.36
470.77	9877.06
470.95	9666.41
471.14	10085.37
471.32	10078.35
471.50	10064.30
471.68	10132.18
471.86	10286.65
472.04	10347.51
472.22	10560.50
472.40	10258.57
472.58	10263.25
472.77	10361.55
472.95	10518.37
473.13	10846.04
473.31	10373.25
473.49	10406.02
473.67	10448.15
473.85	10516.03
474.03	10822.64
474.21	10855.40
474.39	10864.77
474.57	10979.45
474.75	11012.22
474.93	11169.04
475.12	11033.29
475.30	11396.07
475.48	11213.51
475.66	11517.78
475.84	11211.17
476.02	11344.58
476.20	11379.68
476.38	11700.34
476.56	11857.15
476.74	11723.74
476.92	11709.70
477.10	11805.66
477.28	12175.47
477.46	11953.12
477.64	12140.36
477.82	12182.49
478.00	12524.21
478.18	12458.67
478.36	12545.27
478.54	12556.97
478.72	12926.78
478.90	12882.31
479.08	13259.13
479.26	13107.00
479.44	12861.24
479.62	13254.45
479.80	13263.82
479.98	13334.03
480.16	13626.60
480.34	13401.91
480.52	13799.80
480.70	13752.99
480.88	13900.44
481.06	13855.97
481.24	13867.67
481.41	14307.69
481.59	14279.61
481.77	14204.71
481.95	14331.10
482.13	14576.86
482.31	14424.72
482.49	15040.28
482.67	14925.60
482.85	14834.32
483.03	14888.15
483.21	15260.29
483.39	15541.16
483.57	15403.07
483.74	15321.15
483.92	15386.68
484.10	15384.34
484.28	15690.95
484.46	15995.22
484.64	16042.03
484.82	15976.50
485.00	16058.42
485.18	16463.33
485.35	16519.50
485.53	15936.71
485.71	16187.14
485.89	15969.48
486.07	16362.69
486.25	16620.14
486.43	16819.09
486.61	16938.46
486.78	17165.49
486.96	17467.42
487.14	17528.27
487.32	17675.73
487.50	17862.97
487.68	18256.18
487.85	18155.54
488.03	18340.44
488.21	18097.02
488.39	18668.11
488.57	18644.71
488.75	18611.94
488.92	19002.81
489.10	19260.27
489.28	19529.43
489.46	19798.59
489.64	19695.61
489.81	19983.49
489.99	20121.59
490.17	20032.65
490.35	20255.00
490.53	20128.61
490.70	20496.07
490.88	20229.25
491.06	20570.97
491.24	20556.93
491.41	20477.35
491.59	20240.95
491.77	20659.91
491.95	20978.22
492.13	21181.85
492.30	21116.31
492.48	21486.12
492.66	21891.03
492.84	21563.36
493.01	21795.07
493.19	21963.59
493.37	21937.84
493.54	22108.70
493.72	22396.59
493.90	22581.49
494.08	22534.68
494.25	22902.14
494.43	23168.96
494.61	23304.71
494.79	23119.81
494.96	23293.01
495.14	23543.45
495.32	23400.68
495.49	23328.12
495.67	23697.92
495.85	24149.65
496.02	23903.89
496.20	24512.43
496.38	24489.03
496.55	24423.49
496.73	24755.85
496.91	24540.52
497.09	24826.06
497.26	24879.89
497.44	24676.27
497.62	25123.31
497.79	25252.04
497.97	25184.16
498.14	24912.66
498.32	25242.68
498.50	25369.07
498.67	25972.92
498.85	26061.87
499.03	26293.58
499.20	26015.05
499.38	26335.71
499.56	26338.05
499.73	26363.79
499.91	26684.45
500.08	26246.77
500.26	26471.46
500.44	26443.37
500.61	26558.06
500.79	26478.48
500.97	26707.85
501.14	27150.21
501.32	26925.52
501.49	26888.07
501.67	27129.15
501.84	27255.54
502.02	27491.93
502.20	27487.25
502.37	27578.53
502.55	27686.20
502.72	27632.36
502.90	28128.56
503.07	28222.18
503.25	27976.42
503.43	28009.19
503.60	28383.68
503.78	28276.01
503.95	28116.86
504.13	28175.37
504.30	28608.37
504.48	28348.57
504.65	28474.96
504.83	28833.06
505.01	28765.18
505.18	29076.48
505.36	29427.56
505.53	29254.36
505.71	29596.07
505.88	29326.91
506.06	29343.30
506.23	29252.02
506.41	29385.43
506.58	29469.69
506.76	29640.54
506.93	29331.59
507.11	29736.51
507.28	29865.24
507.46	29916.73
507.63	30127.38
507.81	30270.15
507.98	30176.53
508.16	30462.07
508.33	30274.83
508.50	30370.79
508.68	30426.96
508.85	30855.28
509.03	30803.79
509.20	30941.88
509.38	30925.50
509.55	31079.97
509.73	31150.19
509.90	31234.45
510.08	31182.96
510.25	30859.96
510.42	31653.40
510.60	31519.99
510.77	31929.59
510.95	31798.52
511.12	31845.33
511.30	31910.86
511.47	32156.62
511.64	31498.93
511.82	32587.28
511.99	31934.27
512.17	32217.47
512.34	31924.91
512.51	32477.27
512.69	32720.69
512.86	32531.11
513.04	32336.84
513.21	32479.61
513.38	32821.33
513.56	32701.96
513.73	32641.11
513.90	33109.22
514.08	32840.06
514.25	33132.62
514.43	33064.75
514.60	32987.51
514.77	33163.05
514.95	33755.21
515.12	33022.62
515.29	33324.55
515.47	33755.21
515.64	33970.54
515.81	33406.47
515.99	33923.72
516.16	33670.95
516.33	33420.51
516.51	33759.89
516.68	32971.13
516.85	33146.67
517.03	33699.03
517.20	33645.20
517.37	34171.82
517.54	34424.60
517.72	34284.17
517.89	33624.14
518.06	33900.32
518.24	34150.76
518.41	34286.51
518.58	34155.44
518.75	34195.23
518.93	34710.14
519.10	34649.29
519.27	34955.90
519.45	34918.45
519.62	35173.57
519.79	35150.17
519.96	35154.85
520.14	35136.12
520.31	35103.35
520.48	35662.74
520.65	35318.68
520.83	35775.09
521.00	35772.75
521.17	35573.80
521.34	35899.14
521.52	35878.07
521.69	35735.30
521.86	35739.98
522.03	35992.76
522.20	36126.17
522.38	35952.97
522.55	36212.77
522.72	36418.74
522.89	36442.14
523.07	36194.04
523.24	36205.75
523.41	36477.25
523.58	36306.39
523.75	37055.36
523.92	37607.73
524.10	36886.84
524.27	36844.71
524.44	36924.29
524.61	36898.55
524.78	37364.31
524.96	37209.84
525.13	37036.64
525.30	37628.79
525.47	37734.12
525.64	37504.74
525.81	37036.64
525.98	37483.68
526.16	37020.25
526.33	37165.37
526.50	36959.40
526.67	37266.01
526.84	37371.33
527.01	37123.24
527.18	37507.08
527.36	37312.82
527.53	38199.88
527.70	38340.32
527.87	38073.49
528.04	38160.09
528.21	38291.16
528.38	38597.77
528.55	38637.56
528.72	38532.24
528.89	38508.83
529.07	38696.08
529.24	38387.13
529.41	38466.70
529.58	38422.23
529.75	38333.29
529.92	38548.62
530.09	38642.24
530.26	39161.84
530.43	39108.01
530.60	38733.53
530.77	39199.29
530.94	39234.40
531.11	39232.06
531.28	39438.03
531.46	39225.04
531.63	39580.80
531.80	39012.05
531.97	39253.12
532.14	39253.12
532.31	38965.24
532.48	39323.34
532.65	39653.36
532.82	39157.16
532.99	39325.68
533.16	39779.74
533.33	39754.00
533.50	39798.47
533.67	39805.49
533.84	39856.98
534.01	39583.14
534.18	39751.66
534.35	39805.49
534.52	40091.04
534.69	40697.24
534.86	39936.56
535.03	40477.22
535.20	40456.16
535.37	40744.05
535.54	40912.56
535.71	40638.72
535.88	40479.57
536.05	40259.55
536.22	40727.66
536.38	40636.38
536.55	40268.92
536.72	40453.82
536.89	39966.99
537.06	40215.08
537.23	40381.26
537.40	40697.24
537.57	40844.69
537.74	41141.94
537.91	41249.60
538.08	41387.69
538.25	40959.38
538.42	40882.14
538.59	41212.15
538.75	40561.48
538.92	40935.97
539.09	41305.77
539.26	40786.18
539.43	41350.24
539.60	41280.03
539.77	41095.13
539.94	41296.41
540.11	41144.28
540.28	41045.97
540.44	40935.97
540.61	41193.43
540.78	41532.81
540.95	41120.87
541.12	41476.63
541.29	41319.82
541.46	41493.02
541.62	41415.78
541.79	41689.62
541.96	41228.54
542.13	41844.10
542.30	41666.22
542.47	42171.77
542.63	41820.69
542.80	41717.71
542.97	42522.85
543.14	42272.42
543.31	42564.98
543.48	42604.77
543.64	42759.25
543.81	42595.41
543.98	42651.58
544.15	42220.92
544.32	42501.79
544.48	43220.33
544.65	42665.63
544.82	42529.87
544.99	42440.93
545.16	42536.90
545.32	42609.45
545.49	43278.85
545.66	42962.87
545.83	42941.81
546.00	43037.77
546.16	42536.90
546.33	42904.36
546.50	42930.11
546.67	43012.02
546.83	42506.47
547.00	43117.35
547.17	42703.07
547.34	42792.01
547.50	42993.30
547.67	43014.37
547.84	43409.92
548.00	43765.68
548.17	43522.26
548.34	43065.86
548.51	43672.06
548.67	43639.29
548.84	43892.07
549.01	43349.06
549.18	43115.01
549.34	43517.58
549.51	43629.93
549.68	43997.39
549.84	43402.89
550.01	43650.99
550.18	43367.79
550.34	43491.83
550.51	44196.34
550.68	43491.83
550.84	43440.34
551.01	43969.30
551.18	43674.40
551.34	43768.02
551.51	43732.91
551.68	44147.18
551.84	43882.70
552.01	43990.37
552.18	43517.58
552.34	43658.01
552.51	44046.54
552.68	44121.44
552.84	44126.12
553.01	44442.09
553.18	43995.05
553.34	44105.06
553.51	43892.07
553.67	44299.32
553.84	44500.61
554.01	44673.81
554.17	44919.56
554.34	44493.58
554.51	44498.26
554.67	44837.64
554.84	44350.81
555.00	44172.93
555.17	44154.21
555.33	44402.30
555.50	44584.86
555.67	44577.84
555.83	44690.19
556.00	44114.42
556.16	45020.20
556.33	44477.20
556.50	44311.02
556.66	44577.84
556.83	44594.23
556.99	44746.36
557.16	44725.30
557.32	44596.57
557.49	45085.74
557.65	44533.37
557.82	44638.70
557.98	45123.19
558.15	45158.30
558.32	44804.88
558.48	44741.68
558.65	44870.41
558.81	44488.90
558.98	44652.74
559.14	44957.01
559.31	44793.17
559.47	44807.22
559.64	44863.39
559.80	44575.50
559.97	45034.25
560.13	44708.91
560.30	45134.89
560.46	45188.72
560.63	45226.17
560.79	45427.46
560.96	45375.97
561.12	45092.76
561.29	45160.64
561.45	44947.65
561.61	45322.13
561.78	44868.07
561.94	44994.46
562.11	45312.77
562.27	44842.32
562.44	45401.71
562.60	45111.49
562.77	45296.39
562.93	45055.31
563.10	45460.23
563.26	45045.95
563.42	45104.46
563.59	45434.48
563.75	45507.04
563.92	45647.47
564.08	45577.25
564.24	45502.35
564.41	45113.83
564.57	45378.31
564.74	45401.71
564.90	45256.60
565.07	45333.84
565.23	45088.08
565.39	45057.65
565.56	45958.76
565.72	45289.37
565.88	45354.90
566.05	45041.27
566.21	45406.39
566.38	45434.48
566.54	45703.64
566.70	46087.49
566.87	45165.32
567.03	45982.16
567.19	45663.85
567.36	45837.05
567.52	45984.51
567.68	45415.76
567.85	45495.33
568.01	45713.00
568.17	45277.66
568.34	45820.67
568.50	45521.08
568.66	45471.93
568.83	45989.19
568.99	45450.86
569.15	45698.96
569.32	45830.03
569.48	44973.39
569.64	46267.71
569.81	45680.24
569.97	45359.58
570.13	45106.80
570.30	45160.64
570.46	45483.63
570.62	45319.79
570.78	45287.03
570.95	45027.23
571.11	45462.57
571.27	45631.08
571.43	45584.27
571.60	45434.48
571.76	45462.57
571.92	46017.27
572.09	45722.37
572.25	45776.20
572.41	45673.21
572.57	45766.84
572.74	46108.55
572.90	45909.61
573.06	45790.24
573.22	46019.61
573.38	45551.51
573.55	45645.13
573.71	45944.72
573.87	45715.34
574.03	45455.54
574.20	45579.59
574.36	45904.93
574.52	45521.08
574.68	45698.96
574.84	45626.40
575.01	45680.24
575.17	45462.57
575.33	45600.66
575.49	45801.94
575.65	45787.90
575.82	45769.18
575.98	45488.31
576.14	45886.20
576.30	45886.20
576.46	45572.57
576.62	45855.78
576.79	46220.90
576.95	45673.21
577.11	45858.12
577.27	45888.54
577.43	46136.64
577.59	45656.83
577.75	45710.66
577.92	45270.64
578.08	45558.53
578.24	45518.74
578.40	46003.23
578.56	45769.18
578.72	45586.61
578.88	46134.30
579.04	45984.51
579.21	45469.59
579.37	45879.18
579.53	45382.99
579.69	45237.87
579.85	45815.99
580.01	46246.65
580.17	45329.16
580.33	46230.26
580.49	45979.82
580.65	45907.27
580.82	46211.54
580.98	45453.20
581.14	45331.50
581.30	45642.79
581.46	45961.10
581.62	46162.39
581.78	45467.25
581.94	46131.96
582.10	46089.83
582.26	46021.95
582.42	45722.37
582.58	45610.02
582.74	45804.28
582.90	46141.32
583.06	45883.86
583.22	46043.02
583.38	46366.01
583.54	46253.67
583.70	46160.05
583.86	45804.28
584.02	45549.17
584.18	45916.63
584.34	46248.99
584.50	45593.64
584.66	45633.42
584.82	45923.65
584.98	46171.75
585.14	45823.01
585.30	45708.32
585.46	46127.28
585.62	45184.04
585.78	45698.96
585.94	45394.69
586.10	45778.54
586.26	45734.07
586.42	45989.19
586.58	46005.57
586.74	45759.81
586.90	45883.86
587.06	45717.68
587.22	45947.06
587.38	45942.38
587.54	45879.18
587.70	46148.34
587.86	45787.90
588.02	45954.08
588.18	46113.23
588.34	45815.99
588.49	44839.98
588.65	45502.35
588.81	45336.18
588.97	45815.99
589.13	45254.26
589.29	45509.38
589.45	45989.19
589.61	45331.50
589.77	46192.81
589.93	45680.24
590.08	46057.06
