SpectraSuite Data File
++++++++++++++++++++++++++++++++++++
Date: Fri Oct 25 11:23:53 EDT 2013
User: price-jones
Dark Spectrum Present: No
Reference Spectrum Present: No
Number of Sampled Component Spectra: 1
Spectrometers: USB2+H05261
Integration Time (usec): 100000 (USB2+H05261)
Spectra Averaged: 1 (USB2+H05261)
Boxcar Smoothing: 0 (USB2+H05261)
Correct for Electrical Dark: No (USB2+H05261)
Strobe/Lamp Enabled: No (USB2+H05261)
Correct for Detector Non-linearity: No (USB2+H05261)
Correct for Stray Light: No (USB2+H05261)
Number of Pixels in Processed Spectrum: 2048
>>>>>Begin Processed Spectral Data<<<<<
365.73	163.84
365.92	163.84
366.12	163.84
366.32	166.18
366.52	149.79
366.72	107.66
366.91	117.03
367.11	126.39
367.31	126.39
367.51	95.96
367.70	159.16
367.90	168.52
368.10	133.41
368.30	154.48
368.49	163.84
368.69	166.18
368.89	166.18
369.09	152.13
369.28	210.65
369.48	147.45
369.68	187.24
369.87	208.31
370.07	210.65
370.27	255.12
370.47	344.06
370.66	557.05
370.86	571.09
371.06	671.73
371.25	664.71
371.45	676.41
371.65	627.26
371.84	617.90
372.04	610.88
372.24	695.14
372.44	704.50
372.63	720.88
372.83	704.50
373.03	746.63
373.22	842.59
373.42	716.20
373.62	833.23
373.81	868.34
374.01	847.27
374.21	765.36
374.40	737.27
374.60	896.43
374.79	777.06
374.99	840.25
375.19	807.48
375.38	746.63
375.58	856.64
375.78	830.89
375.97	908.13
376.17	884.72
376.37	924.51
376.56	915.15
376.76	880.04
376.95	842.59
377.15	903.45
377.35	849.61
377.54	898.77
377.74	840.25
377.93	926.85
378.13	842.59
378.33	884.72
378.52	976.00
378.72	847.27
378.91	912.81
379.11	957.28
379.31	971.32
379.50	877.70
379.70	926.85
379.89	1041.54
380.09	961.96
380.28	990.05
380.48	1064.94
380.68	940.90
380.87	992.39
381.07	1057.92
381.26	1025.15
381.46	1086.01
381.65	1071.97
381.85	1036.86
382.04	1121.12
382.24	1067.28
382.43	1165.59
382.63	1041.54
382.83	1102.39
383.02	1163.25
383.22	1123.46
383.41	1174.95
383.61	1139.84
383.80	1116.44
384.00	1050.90
384.19	1078.99
384.39	1149.20
384.58	1177.29
384.78	1095.37
384.97	1160.91
385.17	1109.41
385.36	1100.05
385.56	1121.12
385.75	1132.82
385.95	1177.29
386.14	1193.67
386.34	1287.29
386.53	1198.35
386.72	1214.74
386.92	1287.29
387.11	1273.25
387.31	1235.80
387.50	1198.35
387.70	1196.01
387.89	1357.51
388.09	1317.72
388.28	1221.76
388.48	1306.02
388.67	1334.11
388.86	1263.89
389.06	1329.42
389.25	1322.40
389.45	1366.87
389.64	1282.61
389.84	1364.53
390.03	1383.26
390.22	1474.54
390.42	1409.00
390.61	1284.95
390.81	1406.66
391.00	1437.09
391.19	1451.13
391.39	1364.53
391.58	1380.92
391.78	1399.64
391.97	1446.45
392.16	1490.92
392.36	1535.39
392.55	1486.24
392.75	1533.05
392.94	1626.67
393.13	1416.02
393.33	1533.05
393.52	1540.07
393.71	1563.48
393.91	1638.38
394.10	1659.44
394.29	1582.20
394.49	1607.95
394.68	1673.48
394.88	1643.06
395.07	1610.29
395.26	1647.74
395.46	1720.29
395.65	1816.26
395.84	1589.22
396.04	1844.34
396.23	1757.74
396.42	1720.29
396.62	1825.62
396.81	1839.66
397.00	1650.08
397.19	1778.81
397.39	1781.15
397.58	1767.10
397.77	1757.74
397.97	1846.68
398.16	1870.09
398.35	1919.24
398.55	1764.76
398.74	1923.92
398.93	1984.77
399.12	1877.11
399.32	1928.60
399.51	1991.80
399.70	2026.90
399.90	2012.86
400.09	1940.30
400.28	2059.67
400.47	2057.33
400.67	1961.37
400.86	2069.03
401.05	2083.08
401.24	2066.69
401.44	2097.12
401.63	2073.71
401.82	2106.48
402.01	2101.80
402.21	2122.87
402.40	2249.25
402.59	2153.29
402.78	2218.83
402.97	2263.30
403.17	2310.11
403.36	2216.49
403.55	2375.64
403.74	2338.20
403.93	2366.28
404.13	2396.71
404.32	2431.82
404.51	2115.84
404.70	2431.82
404.89	2352.24
405.09	2497.35
405.28	2487.99
405.47	2452.88
405.66	2478.63
405.85	2534.80
406.05	2499.69
406.24	2574.59
406.43	2637.78
406.62	2677.57
406.81	2654.17
407.00	2661.19
407.20	2628.42
407.39	2651.83
407.58	2785.24
407.77	2644.81
407.96	2740.77
408.15	2785.24
408.34	2750.13
408.54	2745.45
408.73	2731.41
408.92	2806.30
409.11	2855.45
409.30	2883.54
409.49	2878.86
409.68	2883.54
409.87	2995.89
410.07	3033.33
410.26	3026.31
410.45	2932.69
410.64	3019.29
410.83	3066.10
411.02	3070.78
411.21	3204.19
411.40	3155.04
411.59	3122.27
411.78	3187.81
411.98	3194.83
412.17	3325.90
412.36	3461.65
412.55	3323.56
412.74	3372.71
412.93	3396.12
413.12	3330.58
413.31	3522.51
413.50	3435.91
413.69	3410.16
413.88	3747.20
414.07	3548.25
414.26	3674.64
414.45	3789.33
414.64	3758.90
414.83	3957.85
415.02	3854.86
415.22	3824.44
415.41	3817.41
415.60	3941.46
415.79	3953.16
415.98	3920.40
416.17	4030.40
416.36	3871.25
416.55	4007.00
416.74	4035.08
416.93	3899.33
417.12	4102.96
417.31	4238.71
417.50	4189.56
417.69	4245.73
417.88	4290.20
418.07	4360.42
418.26	4346.37
418.45	4442.34
418.64	4369.78
418.83	4353.40
419.02	4477.44
419.21	4472.76
419.39	4507.87
419.58	4458.72
419.77	4550.00
419.96	4542.98
420.15	4589.79
420.34	4716.18
420.53	4496.17
420.72	4622.56
420.91	4798.10
421.10	4727.88
421.29	4777.03
421.48	4657.67
421.67	4772.35
421.86	4704.48
422.05	4781.71
422.24	4887.04
422.43	4882.36
422.61	4943.21
422.80	5018.11
422.99	4865.97
423.18	4807.46
423.37	4978.32
423.56	4880.02
423.75	4856.61
423.94	4936.19
424.13	4631.92
424.32	4629.58
424.50	4964.28
424.69	5125.77
424.88	5249.82
425.07	5102.37
425.26	4891.72
425.45	4975.98
425.64	4905.76
425.83	4985.34
426.01	5011.09
426.20	5160.88
426.39	5060.24
426.58	4980.66
426.77	5160.88
426.96	5074.28
427.15	5107.05
427.33	5210.03
427.52	5137.48
427.71	5212.37
427.90	5177.26
428.09	5273.23
428.28	5324.72
428.46	5472.17
428.65	5434.72
428.84	5486.22
429.03	5636.01
429.22	5385.57
429.40	5577.50
429.59	5493.24
429.78	5228.76
429.97	5275.57
430.16	5406.64
430.34	5738.99
430.53	5596.22
430.72	5708.57
430.91	5547.07
431.10	5619.63
431.28	5628.99
431.47	5841.98
431.66	5799.85
431.85	5816.23
432.03	5923.90
432.22	6099.44
432.41	5916.87
432.60	6003.47
432.79	6125.18
432.97	5959.00
433.16	6078.37
433.35	5902.83
433.54	6104.12
433.72	6171.99
433.91	6017.52
434.10	6246.89
434.28	6024.54
434.47	6356.90
434.66	6293.70
434.85	6186.04
435.03	6445.84
435.22	6174.33
435.41	6438.81
435.59	6427.11
435.78	6516.05
435.97	6736.06
436.16	6441.15
436.34	6485.62
436.53	6511.37
436.72	6593.29
436.90	6478.60
437.09	6595.63
437.28	6417.75
437.46	6738.40
437.65	6670.53
437.84	6864.79
438.02	6825.00
438.21	6747.76
438.40	6759.47
438.58	7066.08
438.77	7105.87
438.96	7115.23
439.14	7243.96
439.33	7169.06
439.52	7332.90
439.70	7281.41
439.89	7382.05
440.08	7461.63
440.26	7297.79
440.45	7426.52
440.63	7576.31
440.82	7691.00
441.01	7623.12
441.19	7665.25
441.38	7726.11
441.57	7653.55
441.75	7733.13
441.94	7864.20
442.12	8042.08
442.31	7953.14
442.50	8093.57
442.68	7999.95
442.87	8079.53
443.05	8252.73
443.24	8414.23
443.43	8255.07
443.61	8119.32
443.80	8503.17
443.98	7967.18
444.17	7796.32
444.35	8285.50
444.54	8372.10
444.73	8292.52
444.91	8470.40
445.10	8360.39
445.28	8212.94
445.47	8327.63
445.65	8472.74
445.84	8372.10
446.02	8283.16
446.21	8498.49
446.39	8535.93
446.58	8526.57
446.77	8571.04
446.95	8336.99
447.14	8489.12
447.32	8608.49
447.51	8514.87
447.69	8596.79
447.88	8688.07
448.06	8674.03
448.25	8470.40
448.43	8713.81
448.62	8507.85
448.80	8669.34
448.99	8856.59
449.17	8683.39
449.36	8713.81
449.54	8730.20
449.73	8957.23
449.91	9004.04
450.10	9015.74
450.28	9135.11
450.46	9123.41
450.65	9132.77
450.83	9050.85
451.02	9289.59
451.20	9242.78
451.39	9102.34
451.57	9343.42
451.76	9139.79
451.94	9114.05
452.13	9469.81
452.31	9387.89
452.49	9221.71
452.68	9270.86
452.86	9373.85
453.05	9397.25
453.23	9626.62
453.42	9261.50
453.60	9502.58
453.78	9804.50
453.97	9612.58
454.15	9619.60
454.34	9469.81
454.52	9783.44
454.70	9762.37
454.89	9694.50
455.07	9877.06
455.26	9909.83
455.44	10148.56
455.62	9848.97
455.81	9841.95
455.99	10139.20
456.17	10223.46
456.36	10223.46
456.54	10246.87
456.73	10464.54
456.91	10569.86
457.09	10494.96
457.28	10450.49
457.46	10090.05
457.64	10633.05
457.83	10597.95
458.01	10537.09
458.19	10752.42
458.38	10658.80
458.56	10824.98
458.74	10860.09
458.93	10782.85
459.11	10904.56
459.29	10824.98
459.48	10909.24
459.66	10927.96
459.84	11044.99
460.03	11061.37
460.21	10913.92
460.39	11101.16
460.57	11241.59
460.76	11257.98
460.94	11314.15
461.12	11274.36
461.31	11204.14
461.49	11227.55
461.67	11372.66
461.85	11506.07
462.04	11211.17
462.22	11637.14
462.40	11695.66
462.59	11571.61
462.77	11583.31
462.95	11784.60
463.13	11667.57
463.32	11690.98
463.50	11808.00
463.68	12107.59
463.86	11784.60
464.05	11700.34
464.23	11740.13
464.41	12105.25
464.59	11756.51
464.78	12343.99
464.96	11955.46
465.14	11929.71
465.32	12325.26
465.50	12184.83
465.69	12432.93
465.87	12194.19
466.05	12147.38
466.23	12241.00
466.41	12212.92
466.60	12634.21
466.78	12397.82
466.96	12449.31
467.14	12226.96
467.32	12610.81
467.51	12746.56
467.69	12236.32
467.87	12491.44
468.05	12468.03
468.23	12453.99
468.41	12587.40
468.60	12451.65
468.78	13207.64
468.96	12861.24
469.14	12784.01
469.32	13317.65
469.50	12980.61
469.69	13107.00
469.87	13029.76
470.05	13144.45
470.23	13284.88
470.41	13317.65
470.59	13298.92
470.77	13209.98
470.95	13280.20
471.14	13563.40
471.32	13343.39
471.50	13542.34
471.68	13572.77
471.86	13785.76
472.04	13748.31
472.22	14033.85
472.40	13802.14
472.58	14162.58
472.77	13965.98
472.95	14305.35
473.13	14567.49
473.31	14284.29
473.49	14391.95
473.67	14317.06
473.85	14317.06
474.03	14822.61
474.21	14796.87
474.39	14562.81
474.57	14981.77
474.75	14714.95
474.93	15033.26
475.12	15040.28
475.30	15358.60
475.48	15028.58
475.66	15000.49
475.84	15377.32
476.02	15492.01
476.20	15470.94
476.38	15688.61
476.56	16051.39
476.74	15999.90
476.92	15915.64
477.10	16027.99
477.28	16432.90
477.46	16283.11
477.64	16313.53
477.82	16629.51
478.00	17184.21
478.18	16702.06
478.36	16926.75
478.54	17238.05
478.72	17355.07
478.90	17397.20
479.08	17568.06
479.26	17809.14
479.44	17877.01
479.62	17902.76
479.80	18225.75
479.98	18176.60
480.16	18668.11
480.34	18633.00
480.52	18700.88
480.70	18607.26
480.88	18445.76
481.06	18850.67
481.24	19021.53
481.41	19356.23
481.59	19555.18
481.77	19777.53
481.95	19431.13
482.13	20046.69
482.31	19524.75
482.49	20315.85
482.67	20589.69
482.85	20493.73
483.03	20617.78
483.21	20924.39
483.39	21074.18
483.57	21165.46
483.74	21109.29
483.92	21446.33
484.10	21462.71
484.28	22001.04
484.46	21661.66
484.64	22403.61
484.82	22169.55
485.00	22207.00
485.18	22782.77
485.35	23037.89
485.53	23002.78
485.71	23033.21
485.89	23566.85
486.07	23503.66
486.25	23463.87
486.43	23892.19
486.61	23899.21
486.78	24046.66
486.96	24528.81
487.14	24554.56
487.32	24900.96
487.50	24861.17
487.68	24978.20
487.85	25371.41
488.03	25397.15
488.21	26155.49
488.39	26078.25
488.57	26108.68
488.75	26302.94
488.92	26757.00
489.10	26796.79
489.28	26827.22
489.46	27147.87
489.64	27168.94
489.81	27728.33
489.99	27910.89
490.17	28053.66
490.35	28166.01
490.53	28753.48
490.70	28594.32
490.88	28407.08
491.06	28776.89
491.24	28889.23
491.41	29027.32
491.59	29610.12
491.77	29390.11
491.95	30068.86
492.13	30176.53
492.30	30120.35
492.48	30110.99
492.66	30555.69
492.84	30808.47
493.01	31005.08
493.19	30625.91
493.37	31175.94
493.54	31318.71
493.72	31978.74
493.90	32013.85
494.08	31936.61
494.25	32037.25
494.43	32215.13
494.61	32723.03
494.79	32739.41
494.96	32783.88
495.14	32463.23
495.32	33092.83
495.49	33343.27
495.67	33607.75
495.85	33436.89
496.02	34075.86
496.20	34340.34
496.38	34136.71
496.55	34408.22
496.73	34792.06
496.91	34745.25
497.09	35023.78
497.26	34916.11
497.44	35314.00
497.62	35866.37
497.79	35941.27
497.97	35800.83
498.14	36055.95
498.32	36535.76
498.50	36306.39
498.67	36779.18
498.85	36973.44
499.03	37095.15
499.20	36959.40
499.38	36914.93
499.56	37104.51
499.73	37308.14
499.91	37305.80
500.08	37853.48
500.26	37088.13
500.44	37797.31
500.61	38237.33
500.79	37867.53
500.97	38520.54
501.14	38899.70
501.32	38806.08
501.49	38398.83
501.67	39077.58
501.84	39316.32
502.02	39269.51
502.20	39414.62
502.37	39302.28
502.55	39349.09
502.72	39618.25
502.90	39697.83
503.07	39786.77
503.25	40102.74
503.43	39976.35
503.60	40479.57
503.78	40554.46
503.95	40446.80
504.13	40964.06
504.30	40491.27
504.48	40474.88
504.65	41287.05
504.83	40917.25
505.01	41752.82
505.18	41635.79
505.36	41951.76
505.53	41521.10
505.71	41446.21
505.88	42550.94
506.06	41525.78
506.23	41975.17
506.41	41876.86
506.58	42574.34
506.76	42609.45
506.93	42520.51
507.11	42548.60
507.28	42799.04
507.46	43089.26
507.63	43126.71
507.81	43613.54
507.98	43168.84
508.16	43599.50
508.33	43861.64
508.50	43943.56
508.68	44177.61
508.85	44016.11
509.03	44168.25
509.20	44437.41
509.38	44252.51
509.55	44727.64
509.73	44729.98
509.90	45106.80
510.08	44432.73
510.25	44954.67
510.42	44844.66
510.60	45375.97
510.77	45488.31
510.95	45553.85
511.12	45661.51
511.30	45148.93
511.47	45762.15
511.64	45603.00
511.82	45982.16
511.99	45876.84
512.17	46057.06
512.34	46122.60
512.51	46433.89
512.69	46649.22
512.86	46595.38
513.04	47004.98
513.21	47019.02
513.38	46986.25
513.56	47309.25
513.73	46827.10
513.90	47129.03
514.08	47271.80
514.25	47421.59
514.43	47353.72
514.60	47590.11
514.77	47519.90
514.95	47742.25
515.12	48027.79
515.29	47618.20
515.47	48137.80
515.64	48444.41
515.81	47922.47
515.99	48666.76
516.16	48994.43
516.33	48828.26
516.51	49083.37
516.68	48673.78
516.85	48711.23
517.03	49305.73
517.20	49221.47
517.37	49017.84
517.54	49162.95
517.72	49343.17
517.89	49483.61
518.06	49448.50
518.24	49514.03
518.41	49453.18
518.58	49525.74
518.75	49401.69
518.93	50106.19
519.10	49930.65
519.27	50265.34
519.45	50122.57
519.62	50108.53
519.79	50108.53
519.96	49783.19
520.14	50518.12
520.31	50590.68
520.48	50515.78
520.65	50506.42
520.83	50955.80
521.00	51203.90
521.17	50693.66
521.34	51000.27
521.52	50806.01
521.69	50670.26
521.86	51213.26
522.03	51639.24
522.20	51739.88
522.38	51545.62
522.55	51409.87
522.72	51442.63
522.89	51444.98
523.07	52062.88
523.24	51358.38
523.41	52072.24
523.58	52048.83
523.75	51777.33
523.92	52107.35
524.10	52240.76
524.27	52240.76
524.44	52182.24
524.61	52097.98
524.78	52353.10
524.96	52713.55
525.13	52308.63
525.30	52697.16
525.47	52561.41
525.64	52507.58
525.81	52907.81
525.98	53010.79
526.16	52746.31
526.33	52905.47
526.50	53031.86
526.67	52912.49
526.84	53120.80
527.01	52985.05
527.18	53368.90
527.36	53310.38
527.53	53052.92
527.70	53584.22
527.87	53532.73
528.04	53315.06
528.21	53588.91
528.38	53429.75
528.55	53310.38
528.72	53532.73
528.89	53455.50
529.07	53682.53
529.24	53532.73
529.41	53780.83
529.58	53858.07
529.75	53822.96
529.92	54000.84
530.09	54248.94
530.26	54000.84
530.43	54232.55
530.60	53715.29
530.77	54028.93
530.94	54515.76
531.11	54071.06
531.28	54309.79
531.46	54197.44
531.63	54520.44
531.80	54396.39
531.97	54836.41
532.14	54663.21
532.31	54632.78
532.48	54775.56
532.65	54878.54
532.82	54892.58
532.99	55009.61
533.16	54707.68
533.33	54775.56
533.50	55004.93
533.67	54798.96
533.84	54852.80
534.01	54827.05
534.18	55257.71
534.35	55201.53
534.52	55274.09
534.69	55487.08
534.86	55578.36
535.03	55171.11
535.20	55608.79
535.37	55433.25
535.54	55540.91
535.71	55288.13
535.88	55632.19
536.05	55655.60
536.22	55716.45
536.38	55845.18
536.55	55669.64
536.72	55817.10
536.89	55629.85
537.06	55828.80
537.23	55835.82
537.40	55852.20
537.57	56041.79
537.74	55826.46
537.91	56104.98
538.08	56065.19
538.25	55866.25
538.42	56133.07
538.59	56332.01
538.75	56161.15
538.92	56037.11
539.09	56390.53
539.26	56076.90
539.43	56320.31
539.60	56334.35
539.77	56135.41
539.94	56769.69
540.11	56273.50
540.28	56420.95
540.44	56467.76
540.61	56601.18
540.78	56355.42
540.95	56603.52
541.12	56484.15
541.29	56666.71
541.46	56650.33
541.62	56615.22
541.79	56980.34
541.96	56814.16
542.13	56753.31
542.30	57071.62
542.47	56942.89
542.63	57050.56
542.80	57141.84
542.97	57216.74
543.14	57249.50
543.31	57474.20
543.48	57198.01
543.64	57717.61
543.81	57443.77
543.98	57537.39
544.15	57542.07
544.32	57715.27
544.48	57443.77
544.65	57497.60
544.82	57593.56
544.99	57401.64
545.16	57607.61
545.32	57425.04
545.49	57745.70
545.66	57776.12
545.83	57659.10
546.00	57792.51
546.16	58059.33
546.33	57851.02
546.50	57858.04
546.67	58031.24
546.83	57567.82
547.00	57998.48
547.17	57916.56
547.34	58127.20
547.50	58319.13
547.67	58277.00
547.84	58181.04
548.00	58209.12
548.17	58534.46
548.34	58068.69
548.51	58302.74
548.67	58171.67
548.84	58248.91
549.01	58298.06
549.18	58459.56
549.34	58440.84
549.51	58253.59
549.68	58368.28
549.84	58602.33
550.01	58452.54
550.18	58454.88
550.34	58511.05
550.51	58719.36
550.68	58611.70
550.84	58351.90
551.01	58710.00
551.18	58597.65
551.34	58721.70
551.51	58738.08
551.68	58504.03
551.84	58616.38
552.01	58684.25
552.18	58911.28
552.34	58670.21
552.51	58967.46
552.68	58782.55
552.84	58876.18
553.01	59112.57
553.18	58897.24
553.34	59194.49
553.51	59140.66
553.67	58965.12
553.84	59077.46
554.01	59182.79
554.17	59000.22
554.34	59267.05
554.51	59178.10
554.67	59063.42
554.84	59147.68
555.00	59065.76
555.17	59208.53
555.33	59222.58
555.50	59157.04
555.67	59386.41
555.83	59416.84
556.00	59395.77
556.16	59533.87
556.33	59515.14
556.50	59374.71
556.66	59341.94
556.83	59152.36
556.99	59559.61
557.16	59629.83
557.32	59655.57
557.49	59688.34
557.65	59517.48
557.82	59524.50
557.98	59491.74
558.15	59526.84
558.32	59753.88
558.48	59568.97
558.65	59678.98
558.81	59578.34
558.98	59746.86
559.14	59615.79
559.31	59828.77
559.47	59751.54
559.64	59772.60
559.80	59922.40
559.97	59735.15
560.13	59683.66
560.30	59875.58
560.46	59964.52
560.63	59863.88
560.79	59774.94
560.96	60097.94
561.12	59920.05
561.29	59875.58
561.45	60172.83
561.61	60048.78
561.78	59971.55
561.94	59877.93
562.11	59966.87
562.27	60053.47
562.44	60032.40
562.60	59976.23
562.77	59889.63
562.93	59934.10
563.10	59994.95
563.26	59985.59
563.42	60392.84
563.59	60137.72
563.75	60116.66
563.92	60350.71
564.08	60219.64
564.24	60343.69
564.41	60273.48
564.57	60411.57
564.74	60392.84
564.90	60317.95
565.07	60245.39
565.23	60137.72
565.39	60331.99
565.56	60334.33
565.72	60392.84
565.88	60385.82
566.05	60320.29
566.21	60177.51
566.38	60434.97
566.54	60458.38
566.70	60587.11
566.87	60505.19
567.03	60329.65
567.19	60456.04
567.36	60336.67
567.52	60271.14
567.68	60617.53
567.85	60552.00
568.01	60631.58
568.17	60409.23
568.34	60423.27
568.50	60364.76
568.66	60364.76
568.83	60554.34
568.99	60308.58
569.15	60669.03
569.32	60498.17
569.48	60413.91
569.64	60746.26
569.81	60549.66
569.97	60633.92
570.13	60706.47
570.30	60559.02
570.46	60626.90
570.62	60713.50
570.78	60701.79
570.95	60666.69
571.11	60746.26
571.27	60685.41
571.43	60711.16
571.60	61036.49
571.76	60704.13
571.92	60816.48
572.09	60671.37
572.25	60729.88
572.41	60626.90
572.57	60790.73
572.74	60903.08
572.90	60584.77
573.06	60907.76
573.22	60746.26
573.38	60877.33
573.55	60697.11
573.71	61043.51
573.87	60825.84
574.03	60779.03
574.20	60858.61
574.36	60664.35
574.52	60952.23
574.68	60795.42
574.84	61052.87
575.01	60856.27
575.17	60865.63
575.33	60907.76
575.49	60926.49
575.65	60858.61
575.82	61099.68
575.98	60973.30
576.14	61141.81
576.30	61045.85
576.46	60783.71
576.62	60872.65
576.79	60870.31
576.95	60680.73
577.11	61062.24
577.27	60914.78
577.43	61034.15
577.59	60949.89
577.75	60992.02
577.92	60999.04
578.08	60900.74
578.24	60921.80
578.40	61036.49
578.56	60884.36
578.72	60975.64
578.88	60966.27
579.04	61165.22
579.21	61076.28
579.37	61169.90
579.53	61181.60
579.69	60898.40
579.85	60746.26
580.01	60994.36
580.17	61116.07
580.33	61336.08
580.49	61057.56
580.65	61230.75
580.82	61120.75
580.98	60874.99
581.14	60905.42
581.30	61106.71
581.46	61001.38
581.62	61179.26
581.78	61031.81
581.94	61078.62
582.10	61069.26
582.26	61083.30
582.42	61099.68
582.58	61148.84
582.74	60893.72
582.90	60903.08
583.06	60963.93
583.22	61003.72
583.38	61015.43
583.54	61071.60
583.70	61085.64
583.86	61197.99
584.02	61153.52
584.18	61151.18
584.34	61031.81
584.50	61057.56
584.66	61003.72
584.82	60769.67
584.98	61123.09
585.14	61013.08
585.30	61059.90
585.46	61254.16
585.62	61188.63
585.78	61368.85
585.94	60921.80
586.10	61118.41
586.26	61256.50
586.42	61221.39
586.58	61291.61
586.74	61226.07
586.90	61155.86
587.06	61188.63
587.22	61219.05
587.38	61359.48
587.54	61343.10
587.70	61490.55
587.86	61132.45
588.02	61158.20
588.18	61251.82
588.34	60961.59
