SpectraSuite Data File
++++++++++++++++++++++++++++++++++++
Date: Fri Oct 25 11:26:36 EDT 2013
User: price-jones
Dark Spectrum Present: No
Reference Spectrum Present: No
Number of Sampled Component Spectra: 1
Spectrometers: USB2+H05261
Integration Time (usec): 100000 (USB2+H05261)
Spectra Averaged: 1 (USB2+H05261)
Boxcar Smoothing: 0 (USB2+H05261)
Correct for Electrical Dark: No (USB2+H05261)
Strobe/Lamp Enabled: No (USB2+H05261)
Correct for Detector Non-linearity: No (USB2+H05261)
Correct for Stray Light: No (USB2+H05261)
Number of Pixels in Processed Spectrum: 2048
>>>>>Begin Processed Spectral Data<<<<<
365.73	222.35
365.92	222.35
366.12	222.35
366.32	215.33
366.52	138.09
366.72	191.92
366.91	175.54
367.11	231.71
367.31	154.48
367.51	138.09
367.70	35.11
367.90	168.52
368.10	128.73
368.30	175.54
368.49	168.52
368.69	152.13
368.89	201.29
369.09	117.03
369.28	194.26
369.48	180.22
369.68	187.24
369.87	266.82
370.07	259.80
370.27	231.71
370.47	346.40
370.66	528.96
370.86	678.76
371.06	671.73
371.25	741.95
371.45	653.01
371.65	723.23
371.84	709.18
372.04	690.46
372.24	685.78
372.44	688.12
372.63	734.93
372.83	755.99
373.03	809.83
373.22	774.72
373.42	779.40
373.62	788.76
373.81	807.48
374.01	849.61
374.21	880.04
374.40	770.04
374.60	938.55
374.79	809.83
374.99	807.48
375.19	917.49
375.38	919.83
375.58	837.91
375.78	887.06
375.97	854.30
376.17	950.26
376.37	877.70
376.56	891.74
376.76	929.19
376.95	933.87
377.15	987.71
377.35	880.04
377.54	959.62
377.74	898.77
377.93	877.70
378.13	959.62
378.33	912.81
378.52	954.94
378.72	910.47
378.91	978.34
379.11	889.40
379.31	887.06
379.50	966.64
379.70	1048.56
379.89	992.39
380.09	950.26
380.28	971.32
380.48	1060.26
380.68	936.21
380.87	957.28
381.07	1067.28
381.26	1032.18
381.46	1018.13
381.65	1048.56
381.85	994.73
382.04	1081.33
382.24	1048.56
382.43	1015.79
382.63	1053.24
382.83	1121.12
383.02	1186.65
383.22	1172.61
383.41	1109.41
383.61	1203.04
383.80	1100.05
384.00	1116.44
384.19	1088.35
384.39	1158.57
384.58	1128.14
384.78	1174.95
384.97	1181.97
385.17	1151.54
385.36	1165.59
385.56	1137.50
385.75	1224.10
385.95	1188.99
386.14	1233.46
386.34	1198.35
386.53	1233.46
386.72	1306.02
386.92	1240.48
387.11	1299.00
387.31	1299.00
387.50	1245.16
387.70	1263.89
387.89	1242.82
388.09	1261.55
388.28	1289.64
388.48	1366.87
388.67	1299.00
388.86	1306.02
389.06	1322.40
389.25	1378.58
389.45	1327.08
389.64	1334.11
389.84	1378.58
390.03	1273.25
390.22	1472.20
390.42	1432.41
390.61	1280.27
390.81	1413.68
391.00	1479.22
391.19	1390.28
391.39	1441.77
391.58	1462.83
391.78	1472.20
391.97	1472.20
392.16	1556.46
392.36	1549.43
392.55	1502.62
392.75	1542.41
392.94	1514.33
393.13	1568.16
393.33	1598.59
393.52	1537.73
393.71	1675.82
393.91	1495.60
394.10	1579.86
394.29	1678.16
394.49	1614.97
394.68	1643.06
394.88	1675.82
395.07	1757.74
395.26	1671.14
395.46	1638.38
395.65	1708.59
395.84	1689.87
396.04	1816.26
396.23	1666.46
396.42	1834.98
396.62	1827.96
396.81	1750.72
397.00	1849.02
397.19	1776.47
397.39	1781.15
397.58	1792.85
397.77	1799.87
397.97	1834.98
398.16	1811.57
398.35	1837.32
398.55	1844.34
398.74	1853.70
398.93	1982.43
399.12	1952.01
399.32	1830.30
399.51	2024.56
399.70	1961.37
399.90	1898.17
400.09	2015.20
400.28	2076.06
400.47	1942.64
400.67	2101.80
400.86	2122.87
401.05	2101.80
401.24	2008.18
401.44	2129.89
401.63	2193.08
401.82	2211.81
402.01	2230.53
402.21	2181.38
402.40	2218.83
402.59	2324.15
402.78	2214.15
402.97	2202.44
403.17	2242.23
403.36	2186.06
403.55	2326.49
403.74	2382.67
403.93	2312.45
404.13	2300.75
404.32	2289.04
404.51	2431.82
404.70	2368.62
404.89	2408.41
405.09	2546.50
405.28	2583.95
405.47	2581.61
405.66	2546.50
405.85	2546.50
406.05	2473.95
406.24	2537.14
406.43	2616.72
406.62	2682.25
406.81	2581.61
407.00	2597.99
407.20	2586.29
407.39	2626.08
407.58	2686.94
407.77	2658.85
407.96	2766.51
408.15	2766.51
408.34	2754.81
408.54	2869.50
408.73	2836.73
408.92	2888.22
409.11	2935.03
409.30	2916.31
409.49	2881.20
409.68	2895.24
409.87	2958.44
410.07	2928.01
410.26	3091.85
410.45	2918.65
410.64	2974.82
410.83	3117.59
411.02	3080.14
411.21	3159.72
411.40	3094.19
411.59	3204.19
411.78	3239.30
411.98	3218.24
412.17	3159.72
412.36	3353.99
412.55	3391.44
412.74	3349.31
412.93	3459.31
413.12	3435.91
413.31	3510.80
413.50	3543.57
413.69	3611.45
413.88	3681.66
414.07	3627.83
414.26	3583.36
414.45	3665.28
414.64	3599.74
414.83	3667.62
415.02	3728.47
415.22	3786.99
415.41	3850.18
415.60	3815.07
415.79	3819.75
415.98	3983.59
416.17	4086.58
416.36	3913.38
416.55	3934.44
416.74	4023.38
416.93	4180.20
417.12	4102.96
417.31	4147.43
417.50	4138.07
417.69	4238.71
417.88	4346.37
418.07	4367.44
418.26	4393.19
418.45	4322.97
418.64	4601.49
418.83	4465.74
419.02	4362.76
419.21	4510.21
419.39	4554.68
419.58	4559.36
419.77	4461.06
419.96	4578.09
420.15	4685.75
420.34	4636.60
420.53	4596.81
420.72	4861.29
420.91	4758.31
421.10	4718.52
421.29	4753.63
421.48	4732.56
421.67	4896.40
421.86	4861.29
422.05	4863.63
422.24	4945.55
422.43	4844.91
422.61	5004.07
422.80	5022.79
422.99	4983.00
423.18	5069.60
423.37	4919.81
423.56	4861.29
423.75	4915.12
423.94	4889.38
424.13	4601.49
424.32	4779.37
424.50	5032.15
424.69	5210.03
424.88	5149.18
425.07	4966.62
425.26	4950.23
425.45	5074.28
425.64	4903.42
425.83	5004.07
426.01	5116.41
426.20	4966.62
426.39	5158.54
426.58	5043.85
426.77	5102.37
426.96	5191.31
427.15	5163.22
427.33	5256.84
427.52	5254.50
427.71	5172.58
427.90	5233.44
428.09	5432.38
428.28	5336.42
428.46	5334.08
428.65	5357.49
428.84	5526.00
429.03	5474.51
429.22	5338.76
429.40	5589.20
429.59	5572.82
429.78	5217.05
429.97	5228.76
430.16	5479.19
430.34	5713.25
430.53	5636.01
430.72	5603.24
430.91	5621.97
431.10	5631.33
431.28	5678.14
431.47	5872.40
431.66	5863.04
431.85	5834.96
432.03	5921.56
432.22	5968.37
432.41	5956.66
432.60	5891.13
432.79	6090.07
432.97	5893.47
433.16	5968.37
433.35	5872.40
433.54	6066.67
433.72	6148.59
433.91	6216.46
434.10	6008.16
434.28	6059.65
434.47	6171.99
434.66	6188.38
434.85	6176.67
435.03	6370.94
435.22	6443.49
435.41	6609.67
435.59	6384.98
435.78	6408.39
435.97	6413.07
436.16	6387.32
436.34	6635.42
436.53	6382.64
436.72	6834.36
436.90	6403.71
437.09	6703.29
437.28	6525.41
437.46	6581.59
437.65	6502.01
437.84	6848.41
438.02	6754.79
438.21	6761.81
438.40	6806.28
438.58	7061.40
438.77	7016.93
438.96	6843.73
439.14	7133.95
439.33	7192.47
439.52	7321.20
439.70	7274.38
439.89	7281.41
440.08	7576.31
440.26	7442.90
440.45	7475.67
440.63	7468.65
440.82	7609.08
441.01	7548.23
441.19	7665.25
441.38	7857.18
441.57	7786.96
441.75	7840.79
441.94	8023.36
442.12	7754.19
442.31	7992.93
442.50	7955.48
442.68	8138.04
442.87	8067.83
443.05	8205.92
443.24	8229.32
443.43	8079.53
443.61	8140.38
443.80	8475.08
443.98	7960.16
444.17	7768.24
444.35	8374.44
444.54	8409.54
444.73	8243.37
444.91	8250.39
445.10	8454.02
445.28	8486.78
445.47	8170.81
445.65	8472.74
445.84	8484.44
446.02	8540.61
446.21	8437.63
446.39	8489.12
446.58	8613.17
446.77	8421.25
446.95	8276.13
447.14	8425.93
447.32	8587.43
447.51	8542.96
447.69	8313.58
447.88	8372.10
448.06	8484.44
448.25	8526.57
448.43	8573.38
448.62	8753.60
448.80	8472.74
448.99	8585.08
449.17	8884.67
449.36	8697.43
449.54	8725.52
449.73	8877.65
449.91	8865.95
450.10	8854.25
450.28	8961.91
450.46	8997.02
450.65	9207.67
450.83	9153.84
451.02	9034.47
451.20	9430.02
451.39	9006.38
451.57	9149.15
451.76	9195.96
451.94	9224.05
452.13	9263.84
452.31	9256.82
452.49	9301.29
452.68	9261.50
452.86	9408.95
453.05	9350.44
453.23	9399.59
453.42	9439.38
453.60	9598.54
453.78	9589.17
453.97	9284.91
454.15	9603.22
454.34	9383.21
454.52	9696.84
454.70	9816.21
454.89	9668.75
455.07	9790.46
455.26	9778.76
455.44	10001.11
455.62	9886.42
455.81	9954.30
455.99	9933.23
456.17	10094.73
456.36	10115.80
456.54	9951.96
456.73	10127.50
456.91	10396.66
457.09	10281.97
457.28	10864.77
457.46	10326.44
457.64	10501.98
457.83	10455.17
458.01	10406.02
458.19	11014.56
458.38	10572.20
458.56	10686.89
458.74	10733.70
458.93	10705.61
459.11	10754.76
459.29	10754.76
459.48	10902.22
459.66	10843.70
459.84	10848.38
460.03	11000.52
460.21	10895.19
460.39	11063.71
460.57	11119.89
460.76	11075.42
460.94	11398.41
461.12	11119.89
461.31	11241.59
461.49	11059.03
461.67	11314.15
461.85	11461.60
462.04	11295.43
462.22	11637.14
462.40	11613.74
462.59	11566.93
462.77	11641.82
462.95	11749.49
463.13	11611.40
463.32	11653.53
463.50	11541.18
463.68	11906.31
463.86	11995.25
464.05	11573.95
464.23	11702.68
464.41	11997.59
464.59	11606.72
464.78	11990.56
464.96	12116.95
465.14	12039.72
465.32	12142.70
465.50	12217.60
465.69	12264.41
465.87	12166.10
466.05	12091.21
466.23	12257.39
466.41	12376.75
466.60	12414.20
466.78	12552.29
466.96	12205.89
467.14	12229.30
467.32	12585.06
467.51	12655.28
467.69	12191.85
467.87	12751.24
468.05	12798.05
468.23	12758.26
468.41	12748.90
468.60	12549.95
468.78	12648.26
468.96	12556.97
469.14	12964.23
469.32	13022.74
469.50	12795.71
469.69	13144.45
469.87	12898.69
470.05	13233.39
470.23	13151.47
470.41	13128.06
470.59	13336.37
470.77	13224.03
470.95	13406.59
471.14	13708.52
471.32	13294.24
471.50	13579.79
471.68	13781.07
471.86	13701.50
472.04	13614.90
472.22	13884.06
472.40	13680.43
472.58	13682.77
472.77	14270.25
472.95	14052.58
473.13	14497.28
473.31	13935.55
473.49	14064.28
473.67	14153.22
473.85	14122.79
474.03	14551.11
474.21	14611.96
474.39	14839.00
474.57	14796.87
474.75	14991.13
474.93	14923.26
475.12	15014.54
475.30	15267.31
475.48	15019.22
475.66	15225.18
475.84	15033.26
476.02	15482.64
476.20	15576.27
476.38	15669.89
476.56	16180.12
476.74	15852.45
476.92	16149.70
477.10	15943.73
477.28	16262.04
477.46	16123.95
477.64	16435.24
477.82	16400.13
478.00	16849.52
478.18	16762.92
478.36	17088.25
478.54	16987.61
478.72	17273.15
478.90	17350.39
479.08	17654.66
479.26	17806.80
479.44	17795.09
479.62	18127.45
479.80	18017.44
479.98	17909.78
480.16	18579.17
480.34	18642.37
480.52	18810.89
480.70	18647.05
480.88	18305.33
481.06	18731.31
481.24	18621.30
481.41	19208.78
481.59	19428.79
481.77	19679.22
481.95	19489.64
482.13	19789.23
482.31	19744.76
482.49	20329.89
482.67	20505.43
482.85	20416.49
483.03	20938.43
483.21	20753.53
483.39	20844.81
483.57	21118.65
483.74	21343.35
483.92	21355.05
484.10	21556.33
484.28	21809.11
484.46	21900.39
484.64	22244.45
484.82	22209.34
485.00	22281.90
485.18	22754.69
485.35	23257.90
485.53	22768.73
485.71	22995.76
485.89	23639.41
486.07	23307.05
486.25	23498.98
486.43	23623.03
486.61	23810.27
486.78	24039.64
486.96	24212.84
487.14	24765.21
487.32	24706.70
487.50	24868.19
487.68	25174.80
487.85	25406.52
488.03	25783.34
488.21	25909.73
488.39	25799.73
488.57	26230.38
488.75	26331.03
488.92	26630.62
489.10	26881.05
489.28	26904.46
489.46	27250.86
489.64	27110.43
489.81	27587.89
489.99	27529.38
490.17	27686.20
490.35	28390.70
490.53	28290.06
490.70	28638.80
490.88	28180.05
491.06	28992.22
491.24	28657.52
491.41	29298.83
491.59	29046.05
491.77	29085.84
491.95	30054.82
492.13	29525.86
492.30	30005.67
492.48	30298.23
492.66	30206.95
492.84	30174.19
493.01	30455.05
493.19	31143.17
493.37	31131.47
493.54	31138.49
493.72	31810.22
493.90	31463.82
494.08	32189.39
494.25	32168.32
494.43	31952.99
494.61	32308.76
494.79	32622.39
494.96	32479.61
495.14	32842.40
495.32	33319.87
495.49	33111.56
495.67	33352.63
495.85	33668.61
496.02	33865.21
496.20	34059.48
496.38	34281.83
496.55	34045.43
496.73	34979.31
496.91	34658.65
497.09	34911.43
497.26	34986.33
497.44	34789.72
497.62	35337.41
497.79	36086.38
497.97	35433.37
498.14	36088.72
498.32	35955.31
498.50	35943.61
498.67	36507.68
498.85	36671.51
499.03	36854.08
499.20	36278.30
499.38	37233.24
499.56	37146.64
499.73	37577.30
499.91	37336.23
500.08	37680.28
500.26	37921.36
500.44	37904.98
500.61	38157.75
500.79	37741.14
500.97	38253.72
501.14	38440.96
501.32	38604.80
501.49	38354.36
501.67	38595.43
501.84	38983.96
502.02	39122.05
502.20	39098.65
502.37	39285.89
502.55	39234.40
502.72	39356.11
502.90	39849.96
503.07	39423.98
503.25	40119.12
503.43	39786.77
503.60	40507.65
503.78	40650.42
503.95	40252.53
504.13	40332.11
504.30	40477.22
504.48	40720.64
504.65	41312.80
504.83	41027.25
505.01	41476.63
505.18	41607.70
505.36	41883.89
505.53	41668.56
505.71	41668.56
505.88	41944.74
506.06	41729.41
506.23	41968.15
506.41	41804.31
506.58	42223.26
506.76	42447.96
506.93	42663.28
507.11	42609.45
507.28	42787.33
507.46	42988.62
507.63	43063.52
507.81	43051.81
507.98	43107.99
508.16	43068.20
508.33	43695.46
508.50	43494.18
508.68	43260.12
508.85	43976.33
509.03	43793.76
509.20	43948.24
509.38	44580.18
509.55	44165.91
509.73	44699.55
509.90	44722.96
510.08	44851.69
510.25	44961.69
510.42	44753.38
510.60	45179.36
510.77	45324.47
510.95	45715.34
511.12	44942.97
511.30	45603.00
511.47	45614.70
511.64	45834.71
511.82	45977.48
511.99	45776.20
512.17	46241.96
512.34	45553.85
512.51	46480.70
512.69	46763.90
512.86	46323.88
513.04	46569.64
513.21	46787.31
513.38	46794.33
513.56	47489.47
513.73	47058.81
513.90	47196.90
514.08	47105.62
514.25	47510.53
514.43	47573.73
514.60	47346.70
514.77	47501.17
514.95	47775.02
515.12	47782.04
515.29	47569.05
515.47	47772.67
515.64	47955.24
515.81	48025.45
515.99	48189.29
516.16	48594.20
516.33	48271.21
516.51	48849.32
516.68	48629.31
516.85	48767.40
517.03	48875.07
517.20	48739.32
517.37	48877.41
517.54	48884.43
517.72	48928.90
517.89	49111.46
518.06	49350.20
518.24	49202.74
518.41	49237.85
518.58	49359.56
518.75	49261.26
518.93	49724.68
519.10	49584.25
519.27	49741.06
519.45	50038.31
519.62	49776.17
519.79	49776.17
519.96	50148.32
520.14	50429.18
520.31	50213.85
520.48	50616.43
520.65	50375.35
520.83	50864.52
521.00	50843.46
521.17	50848.14
521.34	50740.47
521.52	50899.63
521.69	50798.99
521.86	51014.32
522.03	51246.03
522.20	51309.22
522.38	51463.70
522.55	51124.32
522.72	51257.73
522.89	51444.98
523.07	51669.67
523.24	51290.50
523.41	51774.99
523.58	51480.08
523.75	52081.60
523.92	51835.84
524.10	51835.84
524.27	52161.18
524.44	51950.53
524.61	52168.20
524.78	52310.97
524.96	52109.69
525.13	52203.31
525.30	52315.65
525.47	52573.11
525.64	52479.49
525.81	52432.68
525.98	52795.46
526.16	52830.57
526.33	52442.04
526.50	52949.94
526.67	52828.23
526.84	52830.57
527.01	52949.94
527.18	52786.10
527.36	52846.96
527.53	53176.97
527.70	53373.58
527.87	53364.21
528.04	53169.95
528.21	53312.72
528.38	53595.93
528.55	53455.50
528.72	53705.93
528.89	53815.94
529.07	53436.77
529.24	53504.65
529.41	53633.38
529.58	53701.25
529.75	53682.53
529.92	53958.71
530.09	53909.56
530.26	53963.39
530.43	54045.31
530.60	53963.39
530.77	53860.41
530.94	54237.23
531.11	54115.53
531.28	54241.92
531.46	54342.56
531.63	54075.74
531.80	54358.94
531.97	54457.24
532.14	54307.45
532.31	54370.64
532.48	54735.77
532.65	54625.76
532.82	54590.66
532.99	54738.11
533.16	54763.85
533.33	54820.03
533.50	55068.12
533.67	54836.41
533.84	55042.38
534.01	55154.72
534.18	54969.82
534.35	55161.75
534.52	55248.35
534.69	55084.51
534.86	55370.05
535.03	55164.09
535.20	55332.60
535.37	55264.73
535.54	55634.53
535.71	55320.90
535.88	55482.40
536.05	55543.25
536.22	55566.66
536.38	55632.19
536.55	55674.32
536.72	55784.33
536.89	55498.78
537.06	55573.68
537.23	55910.72
537.40	55538.57
537.57	56030.08
537.74	55861.57
537.91	55861.57
538.08	55934.12
538.25	55767.94
538.42	55999.66
538.59	55922.42
538.75	55744.54
538.92	56102.64
539.09	56147.11
539.26	56207.97
539.43	56114.34
539.60	56144.77
539.77	56306.27
539.94	56580.11
540.11	56397.55
540.28	56336.69
540.44	56287.54
540.61	56545.00
540.78	56512.23
540.95	56563.73
541.12	56704.16
541.29	56605.86
541.46	56526.28
541.62	56795.44
541.79	56762.67
541.96	56484.15
542.13	56781.40
542.30	56729.90
542.47	56708.84
542.63	56921.83
542.80	57043.54
542.97	56757.99
543.14	57179.29
543.31	57289.29
543.48	57343.12
543.64	57532.71
543.81	57577.18
543.98	57326.74
544.15	57364.19
544.32	57380.57
544.48	57403.98
544.65	57614.63
544.82	57443.77
544.99	57399.30
545.16	57506.96
545.32	57544.41
545.49	57956.35
545.66	57804.21
545.83	57602.92
546.00	57675.48
546.16	57602.92
546.33	57301.00
546.50	57411.00
546.67	57736.34
546.83	57628.67
547.00	57530.37
547.17	57722.29
547.34	57684.84
547.50	58174.02
547.67	57986.77
547.84	57968.05
548.00	58166.99
548.17	58333.17
548.34	58237.21
548.51	58426.79
548.67	58419.77
548.84	57921.24
549.01	58225.51
549.18	58127.20
549.34	58445.52
549.51	58272.32
549.68	58365.94
549.84	58408.07
550.01	58492.33
550.18	58181.04
550.34	58679.57
550.51	58431.47
550.68	58592.97
550.84	58391.68
551.01	58522.76
551.18	58492.33
551.34	58529.78
551.51	58464.24
551.68	58700.64
551.84	58658.51
552.01	58497.01
552.18	58763.83
552.34	58702.98
552.51	58578.93
552.68	58679.57
552.84	58532.12
553.01	58941.71
553.18	58901.92
553.34	58967.46
553.51	58948.73
553.67	58871.49
553.84	58941.71
554.01	58920.65
554.17	59056.40
554.34	59079.80
554.51	58899.58
554.67	59070.44
554.84	59208.53
555.00	59124.27
555.17	59077.46
555.33	59192.15
555.50	59023.63
555.67	59135.98
555.83	59042.35
556.00	59313.86
556.16	59430.88
556.33	59522.16
556.50	59412.16
556.66	59346.62
556.83	59084.48
556.99	59278.75
557.16	59618.13
557.32	59416.84
557.49	59721.11
557.65	59363.01
557.82	59395.77
557.98	59487.06
558.15	59536.21
558.32	59292.79
558.48	59449.61
558.65	59597.06
558.81	59538.55
558.98	59594.72
559.14	59641.53
559.31	59594.72
559.47	59744.51
559.64	59686.00
559.80	59786.64
559.97	59777.28
560.13	59840.48
560.30	59648.55
560.46	59742.17
560.63	59756.22
560.79	59664.94
560.96	59793.67
561.12	59763.24
561.29	59992.61
561.45	59620.47
561.61	59695.36
561.78	59693.02
561.94	59725.79
562.11	59805.37
562.27	59831.11
562.44	60072.19
562.60	60100.28
562.77	60184.54
562.93	59737.49
563.10	60191.56
563.26	59920.05
563.42	60388.16
563.59	59915.37
563.75	60095.60
563.92	59980.91
564.08	60217.30
564.24	60048.78
564.41	60250.07
564.57	60086.23
564.74	60126.02
564.90	60186.88
565.07	60100.28
565.23	60186.88
565.39	60119.00
565.56	60254.75
565.72	60339.01
565.88	60128.36
566.05	60247.73
566.21	60090.91
566.38	60179.85
566.54	60193.90
566.70	60509.87
566.87	60425.61
567.03	60392.84
567.19	60299.22
567.36	60444.33
567.52	60453.70
567.68	60722.86
567.85	60252.41
568.01	60523.91
568.17	60336.67
568.34	60310.92
568.50	60418.59
568.66	60395.18
568.83	60537.96
568.99	60526.25
569.15	60563.70
569.32	60289.86
569.48	60364.76
569.64	60748.60
569.81	60552.00
569.97	60205.60
570.13	60432.63
570.30	60441.99
570.46	60346.03
570.62	60472.42
570.78	60591.79
570.95	60376.46
571.11	60608.17
571.27	60488.80
571.43	60526.25
571.60	60767.33
571.76	60650.30
571.92	60650.30
572.09	60725.20
572.25	60697.11
572.41	60650.30
572.57	60629.24
572.74	60842.23
572.90	60624.56
573.06	60509.87
573.22	60552.00
573.38	60699.45
573.55	60736.90
573.71	60816.48
573.87	60849.25
574.03	60575.40
574.20	60788.39
574.36	60774.35
574.52	60814.14
574.68	60802.44
574.84	60975.64
575.01	60891.38
575.17	60786.05
575.33	60500.51
575.49	60706.47
575.65	60741.58
575.82	60839.89
575.98	60804.78
576.14	61176.92
576.30	60807.12
576.46	60736.90
576.62	60589.45
576.79	60657.32
576.95	60643.28
577.11	60851.59
577.27	60849.25
577.43	60853.93
577.59	60713.50
577.75	60865.63
577.92	60692.43
578.08	60931.17
578.24	60891.38
578.40	60903.08
578.56	61258.84
578.72	60837.54
578.88	61080.96
579.04	60996.70
579.21	60933.51
579.37	60907.76
579.53	60762.65
579.69	60657.32
579.85	60509.87
580.01	60846.91
580.17	60732.22
580.33	61048.19
580.49	61022.45
580.65	60793.07
580.82	60832.86
580.98	60729.88
581.14	60907.76
581.30	61041.17
581.46	60900.74
581.62	60755.63
581.78	60706.47
581.94	60919.46
582.10	60938.19
582.26	60968.61
582.42	60985.00
582.58	60973.30
582.74	60919.46
582.90	61008.40
583.06	61230.75
583.22	61017.77
583.38	60963.93
583.54	60877.33
583.70	61015.43
583.86	61062.24
584.02	60896.06
584.18	60977.98
584.34	61066.92
584.50	60963.93
584.66	60907.76
584.82	60919.46
584.98	61193.31
585.14	61162.88
585.30	61118.41
585.46	61190.97
585.62	60952.23
585.78	61137.13
585.94	60879.67
586.10	60982.66
586.26	60835.20
586.42	61130.11
586.58	61071.60
586.74	61123.09
586.90	61102.03
587.06	60889.04
587.22	61097.34
587.38	60816.48
587.54	61085.64
587.70	61361.82
587.86	61055.21
588.02	61162.88
588.18	61076.28
588.34	61003.72
588.49	61062.24
