SpectraSuite Data File
++++++++++++++++++++++++++++++++++++
Date: Fri Oct 25 10:44:28 EDT 2013
User: price-jones
Dark Spectrum Present: No
Reference Spectrum Present: No
Number of Sampled Component Spectra: 1
Spectrometers: USB2+H05261
Integration Time (usec): 100000 (USB2+H05261)
Spectra Averaged: 1 (USB2+H05261)
Boxcar Smoothing: 0 (USB2+H05261)
Correct for Electrical Dark: No (USB2+H05261)
Strobe/Lamp Enabled: No (USB2+H05261)
Correct for Detector Non-linearity: No (USB2+H05261)
Correct for Stray Light: No (USB2+H05261)
Number of Pixels in Processed Spectrum: 2048
>>>>>Begin Processed Spectral Data<<<<<
365.73	187.24
365.92	187.24
366.12	187.24
366.32	121.71
366.52	51.49
366.72	0.00
366.91	0.00
367.11	42.13
367.31	37.45
367.51	37.45
367.70	4.68
367.90	39.79
368.10	0.00
368.30	81.92
368.49	49.15
368.69	21.06
368.89	91.28
369.09	0.00
369.28	91.28
369.48	86.60
369.68	65.54
369.87	135.75
370.07	28.09
370.27	163.84
370.47	215.33
370.66	442.36
370.86	322.99
371.06	425.98
371.25	353.42
371.45	393.21
371.65	418.96
371.84	465.77
372.04	425.98
372.24	489.17
372.44	507.90
372.63	496.19
372.83	500.87
373.03	514.92
373.22	552.37
373.42	505.56
373.62	561.73
373.81	550.03
374.01	468.11
374.21	547.69
374.40	631.94
374.60	662.37
374.79	559.39
374.99	606.20
375.19	564.07
375.38	561.73
375.58	571.09
375.78	592.16
375.97	636.63
376.17	709.18
376.37	599.18
376.56	638.97
376.76	671.73
376.95	613.22
377.15	739.61
377.35	688.12
377.54	638.97
377.74	744.29
377.93	596.84
378.13	624.92
378.33	692.80
378.52	620.24
378.72	634.29
378.91	692.80
379.11	617.90
379.31	629.60
379.50	622.58
379.70	709.18
379.89	699.82
380.09	748.97
380.28	643.65
380.48	688.12
380.68	641.31
380.87	657.69
381.07	758.33
381.26	699.82
381.46	758.33
381.65	709.18
381.85	706.84
382.04	716.20
382.24	753.65
382.43	629.60
382.63	638.97
382.83	699.82
383.02	727.91
383.22	788.76
383.41	744.29
383.61	784.08
383.80	718.54
384.00	711.52
384.19	793.44
384.39	819.19
384.58	788.76
384.78	849.61
384.97	734.93
385.17	912.81
385.36	800.46
385.56	741.95
385.75	826.21
385.95	812.17
386.14	863.66
386.34	767.70
386.53	823.87
386.72	812.17
386.92	903.45
387.11	823.87
387.31	823.87
387.50	896.43
387.70	894.08
387.89	964.30
388.09	1015.79
388.28	814.51
388.48	858.98
388.67	901.11
388.86	957.28
389.06	945.58
389.25	1062.60
389.45	959.62
389.64	959.62
389.84	1036.86
390.03	1018.13
390.22	957.28
390.42	1032.18
390.61	1013.45
390.81	1064.94
391.00	983.02
391.19	1043.88
391.39	1090.69
391.58	1053.24
391.78	1102.39
391.97	1118.78
392.16	1048.56
392.36	1013.45
392.55	1064.94
392.75	1022.81
392.94	1034.52
393.13	1041.54
393.33	959.62
393.52	994.73
393.71	1217.08
393.91	1235.80
394.10	1132.82
394.29	1210.06
394.49	1235.80
394.68	1282.61
394.88	1275.59
395.07	1308.36
395.26	1310.70
395.46	1322.40
395.65	1224.10
395.84	1252.19
396.04	1242.82
396.23	1238.14
396.42	1151.54
396.62	1179.63
396.81	1203.04
397.00	1210.06
397.19	1334.11
397.39	1341.13
397.58	1373.89
397.77	1439.43
397.97	1371.55
398.16	1476.88
398.35	1479.22
398.55	1462.83
398.74	1526.03
398.93	1458.15
399.12	1540.07
399.32	1593.90
399.51	1542.41
399.70	1612.63
399.90	1572.84
400.09	1577.52
400.28	1617.31
400.47	1554.12
400.67	1739.02
400.86	1701.57
401.05	1666.46
401.24	1638.38
401.44	1734.34
401.63	1790.51
401.82	1720.29
402.01	1722.63
402.21	1724.97
402.40	1785.83
402.59	1783.49
402.78	1816.26
402.97	1708.59
403.17	1832.64
403.36	1886.47
403.55	1886.47
403.74	1886.47
403.93	1863.07
404.13	1968.39
404.32	1902.86
404.51	1919.24
404.70	1975.41
404.89	1912.22
405.09	1994.14
405.28	2001.16
405.47	2099.46
405.66	1984.77
405.85	2076.06
406.05	2057.33
406.24	2001.16
406.43	1996.48
406.62	2113.50
406.81	2050.31
407.00	2031.58
407.20	2054.99
407.39	2139.25
407.58	2193.08
407.77	2211.81
407.96	2132.23
408.15	2305.43
408.34	2120.53
408.54	2186.06
408.73	2305.43
408.92	2239.89
409.11	2242.23
409.30	2282.02
409.49	2303.09
409.68	2406.07
409.87	2345.22
410.07	2417.77
410.26	2420.11
410.45	2539.48
410.64	2427.14
410.83	2506.71
411.02	2459.90
411.21	2583.95
411.40	2548.84
411.59	2530.12
411.78	2754.81
411.98	2626.08
412.17	2642.46
412.36	2665.87
412.55	2745.45
412.74	2839.07
412.93	2913.97
413.12	2745.45
413.31	2860.13
413.50	2841.41
413.69	2855.45
413.88	2963.12
414.07	2862.48
414.26	2988.86
414.45	2974.82
414.64	3148.02
414.83	3056.74
415.02	3047.38
415.22	3082.49
415.41	3187.81
415.60	3220.58
415.79	3232.28
415.98	3211.22
416.17	3248.66
416.36	3417.18
416.55	3311.86
416.74	3309.52
416.93	3243.98
417.12	3485.06
417.31	3384.41
417.50	3452.29
417.69	3590.38
417.88	3506.12
418.07	3391.44
418.26	3440.59
418.45	3471.01
418.64	3705.07
418.83	3611.45
419.02	3625.49
419.21	3651.24
419.39	3632.51
419.58	3543.57
419.77	3492.08
419.96	3702.73
420.15	3740.18
420.34	3763.58
420.53	3810.39
420.72	3716.77
420.91	3976.57
421.10	3854.86
421.29	4091.26
421.48	3943.80
421.67	4077.21
421.86	3887.63
422.05	3735.50
422.24	3815.07
422.43	3847.84
422.61	3920.40
422.80	3974.23
422.99	3985.93
423.18	3950.82
423.37	4161.47
423.56	3985.93
423.75	4032.74
423.94	4009.34
424.13	3758.90
424.32	3913.38
424.50	3978.91
424.69	4234.03
424.88	4009.34
425.07	3868.91
425.26	3927.42
425.45	3943.80
425.64	3882.95
425.83	3904.01
426.01	4177.86
426.20	4145.09
426.39	4067.85
426.58	3974.23
426.77	4065.51
426.96	4042.11
427.15	4018.70
427.33	4156.79
427.52	4198.92
427.71	4271.48
427.90	4231.69
428.09	4205.94
428.28	4269.14
428.46	4173.18
428.65	4212.96
428.84	4425.95
429.03	4351.06
429.22	4135.73
429.40	4154.45
429.59	4222.33
429.78	4086.58
429.97	4025.72
430.16	3955.51
430.34	4018.70
430.53	4126.36
430.72	4191.90
430.91	4222.33
431.10	4229.35
431.28	4652.98
431.47	4702.14
431.66	4704.48
431.85	4575.75
432.03	4669.37
432.22	4746.61
432.41	4662.35
432.60	4762.99
432.79	4774.69
432.97	4856.61
433.16	4884.70
433.35	4713.84
433.54	4706.82
433.72	4699.80
433.91	4650.64
434.10	4931.51
434.28	4952.57
434.47	4889.38
434.66	4823.84
434.85	5027.47
435.03	4978.32
435.22	5135.14
435.41	5177.26
435.59	5064.92
435.78	5093.01
435.97	5191.31
436.16	5158.54
436.34	5378.55
436.53	5200.67
436.72	5277.91
436.90	5144.50
437.09	5249.82
437.28	5242.80
437.46	5224.08
437.65	5184.29
437.84	5324.72
438.02	5334.08
438.21	5245.14
438.40	5327.06
438.58	5352.81
438.77	5460.47
438.96	5465.15
439.14	5790.49
439.33	5738.99
439.52	5664.10
439.70	5685.16
439.89	5827.93
440.08	5774.10
440.26	5769.42
440.45	5907.51
440.63	6003.47
440.82	6052.63
441.01	6005.81
441.19	6017.52
441.38	6022.20
441.57	6164.97
441.75	6242.21
441.94	6305.40
442.12	6389.66
442.31	6520.73
442.50	6457.54
442.68	6274.98
442.87	6361.58
443.05	6497.33
443.24	6567.54
443.43	6471.58
443.61	6597.97
443.80	6675.21
443.98	6359.24
444.17	6272.64
444.35	6693.93
444.54	6757.13
444.73	6576.91
444.91	6464.56
445.10	6745.42
445.28	6399.02
445.47	6546.48
445.65	6415.41
445.84	6462.22
446.02	6560.52
446.21	6534.78
446.39	6637.76
446.58	6630.74
446.77	6677.55
446.95	6736.06
447.14	6759.47
447.32	6754.79
447.51	6885.86
447.69	6754.79
447.88	6745.42
448.06	6724.36
448.25	6768.83
448.43	6888.20
448.62	6820.32
448.80	6766.49
448.99	6920.96
449.17	6958.41
449.36	6825.00
449.54	7173.74
449.73	7075.44
449.91	7243.96
450.10	7290.77
450.28	7494.40
450.46	7262.68
450.65	7145.66
450.83	7368.01
451.02	7368.01
451.20	7407.80
451.39	7304.81
451.57	7377.37
451.76	7323.54
451.94	7241.62
452.13	7337.58
452.31	7211.19
452.49	7178.42
452.68	7272.04
452.86	7286.09
453.05	7169.06
453.23	7262.68
453.42	7424.18
453.60	7452.27
453.78	7421.84
453.97	7433.54
454.15	7426.52
454.34	7368.01
454.52	7627.81
454.70	7723.77
454.89	7545.89
455.07	7620.78
455.26	7775.26
455.44	7793.98
455.62	7871.22
455.81	7758.88
455.99	7786.96
456.17	8084.21
456.36	7861.86
456.54	8030.38
456.73	8006.97
456.91	8105.28
457.09	8175.49
457.28	8290.18
457.46	8145.06
457.64	8173.15
457.83	8407.20
458.01	8065.49
458.19	8264.43
458.38	8245.71
458.56	8549.98
458.74	8381.46
458.93	8360.39
459.11	8362.73
459.29	8308.90
459.48	8418.91
459.66	8418.91
459.84	8461.04
460.03	8610.83
460.21	8716.16
460.39	8662.32
460.57	8493.80
460.76	8533.59
460.94	8917.44
461.12	8762.97
461.31	8753.60
461.49	8695.09
461.67	8718.50
461.85	8896.38
462.04	8833.18
462.22	9069.58
462.40	8964.25
462.59	9076.60
462.77	9011.06
462.95	9092.98
463.13	9170.22
463.32	8943.19
463.50	9114.05
463.68	9128.09
463.86	9273.20
464.05	8973.61
464.23	9181.92
464.41	9048.51
464.59	8903.40
464.78	9312.99
464.96	9226.39
465.14	8945.53
465.32	9378.53
465.50	9446.40
465.69	9427.68
465.87	9635.99
466.05	9289.59
466.23	9476.83
466.41	9202.99
466.60	9437.04
466.78	9596.20
466.96	9320.01
467.14	9453.42
467.32	9568.11
467.51	9617.26
467.69	9350.44
467.87	9397.25
468.05	9549.39
468.23	9596.20
468.41	9521.30
468.60	9816.21
468.78	9851.31
468.96	9535.34
469.14	9767.06
469.32	9905.15
469.50	9528.32
469.69	9769.40
469.87	9769.40
470.05	9944.94
470.23	9834.93
470.41	9767.06
470.59	10038.56
470.77	9933.23
470.95	10169.63
471.14	10085.37
471.32	10050.26
471.50	10424.75
471.68	10293.68
471.86	10354.53
472.04	10721.99
472.22	10820.30
472.40	10441.13
472.58	10389.64
472.77	10391.98
472.95	10523.05
473.13	10902.22
473.31	10471.56
473.49	10511.35
473.67	10698.59
473.85	10693.91
474.03	11173.72
474.21	11094.14
474.39	11307.13
474.57	11304.79
474.75	11342.24
474.93	11370.32
475.12	11499.05
475.30	11529.48
475.48	11442.88
475.66	11449.90
475.84	11454.58
476.02	11555.22
476.20	11379.68
476.38	11843.11
476.56	12189.51
476.74	12058.44
476.92	11810.34
477.10	11934.39
477.28	12093.55
477.46	12301.86
477.64	12596.76
477.82	12716.13
478.00	12807.41
478.18	12608.47
478.36	12898.69
478.54	13043.81
478.72	12957.21
478.90	12999.34
479.08	13355.10
479.26	13247.43
479.44	13455.74
479.62	13626.60
479.80	13537.66
479.98	13565.74
480.16	13921.51
480.34	13738.94
480.52	13837.25
480.70	14146.20
480.88	13862.99
481.06	14134.50
481.24	14031.51
481.41	14459.83
481.59	14736.01
481.77	14466.85
481.95	14778.14
482.13	14754.74
482.31	14965.39
482.49	14846.02
482.67	15016.88
482.85	15211.14
483.03	15176.03
483.21	15571.58
483.39	15594.99
483.57	15672.23
483.74	15775.21
483.92	16301.83
484.10	15754.15
484.28	15992.88
484.46	16271.40
484.64	16793.34
484.82	16545.25
485.00	16470.35
485.18	16638.87
485.35	16737.17
485.53	16126.29
485.71	16500.78
485.89	16580.36
486.07	16720.79
486.25	16711.42
486.43	17078.89
486.61	17020.38
486.78	17233.36
486.96	17500.19
487.14	17851.27
487.32	17806.80
487.50	18075.96
487.68	18235.11
487.85	18822.59
488.03	18654.07
488.21	18911.53
488.39	18789.82
488.57	18911.53
488.75	18677.48
488.92	19480.28
489.10	19566.88
489.28	19686.25
489.46	19704.97
489.64	19833.70
489.81	20294.79
489.99	20236.27
490.17	20526.50
490.35	20500.75
490.53	20297.13
490.70	20823.75
490.88	20716.08
491.06	21160.78
491.24	21069.50
491.41	20938.43
491.59	20898.64
491.77	21062.48
491.95	21245.04
492.13	21507.18
492.30	21869.97
492.48	22221.05
492.66	22122.74
492.84	21745.92
493.01	22637.66
493.19	22141.47
493.37	22551.06
493.54	22831.93
493.72	22963.00
493.90	22972.36
494.08	23206.41
494.25	23503.66
494.43	23351.52
494.61	23545.79
494.79	23702.61
494.96	23445.15
495.14	23405.36
495.32	23854.74
495.49	23854.74
495.67	23999.85
495.85	24662.22
496.02	24655.20
496.20	24767.55
496.38	24826.06
496.55	24919.68
496.73	25205.23
496.91	24910.32
497.09	25209.91
497.26	25439.28
497.44	25158.42
497.62	25397.15
497.79	25369.07
497.97	25226.29
498.14	25923.77
498.32	25867.60
498.50	25820.79
498.67	26178.89
498.85	26321.66
499.03	26115.70
499.20	26396.56
499.38	26518.27
499.56	26721.90
499.73	26602.53
499.91	26544.02
500.08	26787.43
500.26	26595.51
500.44	26806.16
500.61	26838.92
500.79	26892.76
500.97	27344.48
501.14	27421.72
501.32	27400.65
501.49	27438.10
501.67	27730.67
501.84	27765.78
502.02	27789.18
502.20	27901.53
502.37	28051.32
502.55	28006.85
502.72	28596.67
502.90	28444.53
503.07	28285.37
503.25	28521.77
503.43	28545.17
503.60	28655.18
503.78	28201.11
503.95	28655.18
504.13	28893.91
504.30	29039.03
504.48	28905.62
504.65	29263.72
504.83	29488.41
505.01	29340.96
505.18	29535.22
505.36	30005.67
505.53	29696.72
505.71	30071.20
505.88	30103.97
506.06	29790.34
506.23	30010.35
506.41	29886.30
506.58	29872.26
506.76	30354.41
506.93	30473.78
507.11	30321.64
507.28	30258.45
507.46	30300.58
507.63	30597.82
507.81	30433.99
507.98	30319.30
508.16	30925.50
508.33	30703.15
508.50	31477.86
508.68	31082.31
508.85	31524.68
509.03	31225.09
509.20	31522.34
509.38	31351.48
509.55	31475.52
509.73	31613.62
509.90	32226.84
510.08	31672.13
510.25	31641.70
510.42	32306.41
510.60	32100.45
510.77	31770.43
510.95	32376.63
511.12	32313.44
511.30	32294.71
511.47	32741.75
511.64	32865.80
511.82	32957.08
511.99	32556.85
512.17	32568.55
512.34	32498.34
512.51	33268.37
512.69	33181.77
512.86	33076.45
513.04	33497.75
513.21	33207.52
513.38	33261.35
513.56	33345.61
513.73	32978.15
513.90	33713.08
514.08	33886.28
514.25	33579.67
514.43	33544.56
514.60	33457.96
514.77	33792.65
514.95	34190.55
515.12	34148.42
515.29	34543.97
515.47	34099.26
515.64	34295.87
515.81	34242.04
515.99	34572.05
516.16	34391.83
516.33	33488.38
516.51	34190.55
516.68	33776.27
516.85	33233.27
517.03	33989.26
517.20	34045.43
517.37	34375.45
517.54	34520.56
517.72	34632.91
517.89	34389.49
518.06	34607.16
518.24	34080.54
518.41	34792.06
518.58	34859.94
518.75	34817.81
518.93	35278.89
519.10	35290.60
519.27	35278.89
519.45	35321.02
519.62	35438.05
519.79	35524.65
519.96	35941.27
520.14	35709.55
520.31	35875.73
520.48	35730.62
520.65	35999.78
520.83	36322.77
521.00	36591.94
521.17	36329.80
521.34	36570.87
521.52	36643.43
521.69	36723.01
521.86	36613.00
522.03	36669.17
522.20	36680.88
522.38	36971.10
522.55	36713.64
522.72	36645.77
522.89	36877.48
523.07	37022.59
523.24	36818.97
523.41	37106.85
523.58	37228.56
523.75	38022.00
523.92	37699.01
524.10	38052.43
524.27	37790.29
524.44	37668.58
524.61	37928.38
524.78	37706.03
524.96	37652.20
525.13	38316.91
525.30	38136.69
525.47	38471.39
525.64	38068.81
525.81	38232.65
525.98	37624.11
526.16	37794.97
526.33	37450.91
526.50	37902.64
526.67	37745.82
526.84	38061.79
527.01	38073.49
527.18	37989.24
527.36	39105.67
527.53	38494.79
527.70	39005.03
527.87	38726.50
528.04	38684.37
528.21	39136.10
528.38	39056.52
528.55	38958.22
528.72	39655.70
528.89	39428.66
529.07	39201.63
529.24	39021.41
529.41	39636.97
529.58	39152.48
529.75	38923.11
529.92	39749.32
530.09	39449.73
530.26	39763.36
530.43	39416.96
530.60	39651.02
530.77	39697.83
530.94	39693.15
531.11	39695.49
531.28	39871.03
531.46	39931.88
531.63	40060.61
531.80	39463.77
531.97	39882.73
532.14	39880.39
532.31	39330.36
532.48	39688.46
532.65	40315.73
532.82	40219.77
532.99	40062.95
533.16	40102.74
533.33	40247.85
533.50	40549.78
533.67	40526.38
533.84	40643.40
534.01	40858.73
534.18	40385.94
534.35	40737.02
534.52	40545.10
534.69	40737.02
534.86	40673.83
535.03	40573.19
535.20	41078.74
535.37	41284.71
535.54	41263.64
535.71	41263.64
535.88	40928.95
536.05	41064.70
536.22	41385.35
536.38	41317.48
536.55	40973.42
536.72	41333.86
536.89	41163.00
537.06	41048.32
537.23	41626.43
537.40	41478.97
537.57	41687.28
537.74	41808.99
537.91	41895.59
538.08	41888.57
538.25	41165.34
538.42	41790.27
538.59	41806.65
538.75	41453.23
538.92	41656.85
539.09	42064.11
539.26	41780.90
539.43	41633.45
539.60	41785.58
539.77	41488.34
539.94	41682.60
540.11	41483.66
540.28	41947.08
540.44	41956.44
540.61	42005.59
540.78	41666.22
540.95	42384.76
541.12	42082.83
541.29	41972.83
541.46	42370.72
541.62	42419.87
541.79	42621.16
541.96	41762.18
542.13	42359.02
542.30	42433.91
542.47	42838.83
542.63	42689.03
542.80	42836.48
542.97	43089.26
543.14	43445.02
543.31	42792.01
543.48	43463.75
543.64	43894.41
543.81	43398.21
543.98	43227.35
544.15	43225.01
544.32	43393.53
544.48	44088.67
544.65	43625.25
544.82	43489.49
544.99	42944.15
545.16	43487.15
545.32	43433.32
545.49	43828.87
545.66	43814.83
545.83	43655.67
546.00	43789.08
546.16	43622.90
546.33	43686.10
546.50	43428.64
546.67	43641.63
546.83	43250.76
547.00	43601.84
547.17	43585.46
547.34	43896.75
547.50	43798.44
547.67	44575.50
547.84	43653.33
548.00	44109.74
548.17	44083.99
548.34	43896.75
548.51	43966.96
548.67	44360.17
548.84	44416.35
549.01	44065.27
549.18	44313.36
549.34	44287.62
549.51	44177.61
549.68	44816.58
549.84	44320.38
550.01	44425.71
550.18	44339.11
550.34	44563.80
550.51	44381.24
550.68	44493.58
550.84	44404.64
551.01	44615.29
551.18	44563.80
551.34	44683.17
551.51	44608.27
551.68	44692.53
551.84	44697.21
552.01	44343.79
552.18	44406.98
552.34	44385.92
552.51	44617.63
552.68	44538.05
552.84	45013.18
553.01	45076.38
553.18	44655.08
553.34	44828.28
553.51	44959.35
553.67	44926.58
553.84	45146.59
554.01	45052.97
554.17	45296.39
554.34	45158.30
554.51	45116.17
554.67	45443.84
554.84	45069.36
555.00	44825.94
555.17	45202.77
555.33	45401.71
555.50	44842.32
555.67	45013.18
555.83	45181.70
556.00	45137.23
556.16	45595.98
556.33	45071.70
556.50	45418.10
556.66	45415.76
556.83	44938.29
556.99	45525.76
557.16	45654.49
557.32	45748.11
557.49	45603.00
557.65	45258.94
557.82	45483.63
557.98	45635.77
558.15	45436.82
558.32	45574.91
558.48	45492.99
558.65	45127.87
558.81	45062.33
558.98	45485.97
559.14	44968.71
559.31	45303.41
559.47	45434.48
559.64	46075.79
559.80	45722.37
559.97	45736.41
560.13	45593.64
560.30	45492.99
560.46	45415.76
560.63	45556.19
560.79	46457.29
560.96	45741.09
561.12	45617.04
561.29	46066.42
561.45	46122.60
561.61	45958.76
561.78	46054.72
561.94	45556.19
562.11	45921.31
562.27	45755.13
562.44	45593.64
562.60	46014.93
562.77	45968.12
562.93	45904.93
563.10	45834.71
563.26	45979.82
563.42	46195.15
563.59	45869.82
563.75	46234.94
563.92	45956.42
564.08	46391.76
564.24	46710.07
564.41	46211.54
564.57	45698.96
564.74	46248.99
564.90	45933.01
565.07	46031.32
565.23	46127.28
565.39	46263.03
565.56	46220.90
565.72	45944.72
565.88	46260.69
566.05	46347.29
566.21	45787.90
566.38	46054.72
566.54	46005.57
566.70	46630.49
566.87	46609.43
567.03	46141.32
567.19	46775.61
567.36	46333.24
567.52	46204.52
567.68	46040.68
567.85	46443.25
568.01	46562.62
568.17	46281.75
568.34	46553.26
568.50	45954.08
568.66	45818.33
568.83	46504.10
568.99	45925.99
569.15	45855.78
569.32	45748.11
569.48	45790.24
569.64	46263.03
569.81	46476.02
569.97	46202.18
570.13	46061.74
570.30	46089.83
570.46	46096.85
570.62	45787.90
570.78	45921.31
570.95	46347.29
571.11	46600.07
571.27	46190.47
571.43	46089.83
571.60	46476.02
571.76	46160.05
571.92	46043.02
572.09	46494.74
572.25	46438.57
572.41	46677.30
572.57	46382.40
572.74	46873.91
572.90	46541.55
573.06	46410.48
573.22	46539.21
573.38	46443.25
573.55	46153.02
573.71	46604.75
573.87	46267.71
574.03	46429.21
574.20	46597.73
574.36	46639.86
574.52	46649.22
574.68	46312.18
574.84	46698.37
575.01	46258.35
575.17	46644.54
575.33	46607.09
575.49	46532.19
575.65	46464.32
575.82	46642.20
575.98	46698.37
576.14	46649.22
576.30	46649.22
576.46	46740.50
576.62	46319.20
576.79	46251.33
576.95	46237.28
577.11	46618.79
577.27	46241.96
577.43	46391.76
577.59	46445.59
577.75	46356.65
577.92	45617.04
578.08	46155.36
578.24	46347.29
578.40	46298.14
578.56	46284.09
578.72	46564.96
578.88	46440.91
579.04	47044.77
579.21	46539.21
579.37	46693.69
579.53	46710.07
579.69	46246.65
579.85	46754.54
580.01	46281.75
580.17	46494.74
580.33	46368.35
580.49	46810.71
580.65	46967.53
580.82	46602.41
580.98	46394.10
581.14	46752.20
581.30	46700.71
581.46	46590.70
581.62	46813.05
581.78	46485.38
581.94	46471.34
582.10	46497.08
582.26	46649.22
582.42	46274.73
582.58	46635.17
582.74	46588.36
582.90	46876.25
583.06	46822.42
583.22	46480.70
583.38	46562.62
583.54	46766.24
583.70	46623.47
583.86	46848.16
584.02	46370.69
584.18	46714.75
584.34	46436.23
584.50	46082.81
584.66	46588.36
584.82	46518.15
584.98	46944.12
585.14	46368.35
585.30	46160.05
585.46	46436.23
585.62	46461.97
585.78	46602.41
585.94	46267.71
586.10	46405.80
586.26	46476.02
586.42	46635.17
586.58	46794.33
586.74	46639.86
586.90	46443.25
587.06	46454.95
587.22	46377.72
587.38	46080.47
587.54	47430.96
587.70	46710.07
587.86	46576.66
588.02	46330.90
588.18	46944.12
588.34	46520.49
588.49	45867.48
588.65	46148.34
588.81	46347.29
588.97	46134.30
589.13	46258.35
589.29	46064.08
589.45	46515.81
589.61	46272.39
589.77	47049.45
589.93	46710.07
