SpectraSuite Data File
++++++++++++++++++++++++++++++++++++
Date: Fri Oct 25 10:47:14 EDT 2013
User: price-jones
Dark Spectrum Present: No
Reference Spectrum Present: No
Number of Sampled Component Spectra: 1
Spectrometers: USB2+H05261
Integration Time (usec): 100000 (USB2+H05261)
Spectra Averaged: 1 (USB2+H05261)
Boxcar Smoothing: 0 (USB2+H05261)
Correct for Electrical Dark: No (USB2+H05261)
Strobe/Lamp Enabled: No (USB2+H05261)
Correct for Detector Non-linearity: No (USB2+H05261)
Correct for Stray Light: No (USB2+H05261)
Number of Pixels in Processed Spectrum: 2048
>>>>>Begin Processed Spectral Data<<<<<
365.73	112.35
365.92	112.35
366.12	112.35
366.32	65.54
366.52	35.11
366.72	105.32
366.91	42.13
367.11	49.15
367.31	49.15
367.51	81.92
367.70	7.02
367.90	37.45
368.10	30.43
368.30	0.00
368.49	102.98
368.69	37.45
368.89	39.79
369.09	25.75
369.28	133.41
369.48	79.58
369.68	63.19
369.87	131.07
370.07	91.28
370.27	117.03
370.47	196.60
370.66	367.46
370.86	402.57
371.06	475.13
371.25	411.93
371.45	402.57
371.65	440.02
371.84	409.59
372.04	447.04
372.24	435.34
372.44	449.38
372.63	433.00
372.83	491.51
373.03	517.26
373.22	517.26
373.42	512.58
373.62	519.60
373.81	573.43
374.01	503.22
374.21	603.86
374.40	559.39
374.60	634.29
374.79	535.98
374.99	454.06
375.19	528.96
375.38	580.45
375.58	498.53
375.78	547.69
375.97	535.98
376.17	631.94
376.37	573.43
376.56	613.22
376.76	526.62
376.95	482.15
377.15	559.39
377.35	561.73
377.54	601.52
377.74	557.05
377.93	620.24
378.13	650.67
378.33	641.31
378.52	615.56
378.72	622.58
378.91	608.54
379.11	587.47
379.31	582.79
379.50	613.22
379.70	617.90
379.89	699.82
380.09	676.41
380.28	627.26
380.48	599.18
380.68	615.56
380.87	774.72
381.07	596.84
381.26	650.67
381.46	734.93
381.65	683.44
381.85	704.50
382.04	725.57
382.24	636.63
382.43	582.79
382.63	653.01
382.83	695.14
383.02	641.31
383.22	704.50
383.41	676.41
383.61	695.14
383.80	669.39
384.00	727.91
384.19	685.78
384.39	748.97
384.58	699.82
384.78	835.57
384.97	732.59
385.17	758.33
385.36	734.93
385.56	753.65
385.75	655.35
385.95	711.52
386.14	781.74
386.34	706.84
386.53	681.10
386.72	758.33
386.92	828.55
387.11	786.42
387.31	751.31
387.50	809.83
387.70	802.80
387.89	851.96
388.09	751.31
388.28	716.20
388.48	784.08
388.67	772.38
388.86	880.04
389.06	833.23
389.25	866.00
389.45	847.27
389.64	814.51
389.84	877.70
390.03	910.47
390.22	891.74
390.42	861.32
390.61	856.64
390.81	875.36
391.00	905.79
391.19	943.24
391.39	884.72
391.58	924.51
391.78	1015.79
391.97	922.17
392.16	858.98
392.36	968.98
392.55	917.49
392.75	950.26
392.94	940.90
393.13	856.64
393.33	1006.43
393.52	926.85
393.71	1011.11
393.91	1067.28
394.10	1053.24
394.29	1001.75
394.49	947.92
394.68	1027.50
394.88	1060.26
395.07	1132.82
395.26	1008.77
395.46	1006.43
395.65	1076.65
395.84	1050.90
396.04	1135.16
396.23	1139.84
396.42	1102.39
396.62	1165.59
396.81	1088.35
397.00	1036.86
397.19	1181.97
397.39	1179.63
397.58	1221.76
397.77	1179.63
397.97	1177.29
398.16	1238.14
398.35	1198.35
398.55	1219.42
398.74	1249.85
398.93	1301.34
399.12	1289.64
399.32	1277.93
399.51	1310.70
399.70	1441.77
399.90	1338.79
400.09	1280.27
400.28	1406.66
400.47	1303.68
400.67	1275.59
400.86	1359.85
401.05	1387.94
401.24	1362.19
401.44	1350.49
401.63	1359.85
401.82	1469.86
402.01	1448.79
402.21	1474.54
402.40	1469.86
402.59	1481.56
402.78	1399.64
402.97	1413.68
403.17	1490.92
403.36	1537.73
403.55	1455.81
403.74	1511.99
403.93	1460.49
404.13	1558.80
404.32	1612.63
404.51	1638.38
404.70	1696.89
404.89	1673.48
405.09	1666.46
405.28	1621.99
405.47	1579.86
405.66	1636.03
405.85	1664.12
406.05	1610.29
406.24	1638.38
406.43	1724.97
406.62	1729.66
406.81	1720.29
407.00	1743.70
407.20	1626.67
407.39	1783.49
407.58	1912.22
407.77	1900.52
407.96	1858.39
408.15	1757.74
408.34	1872.43
408.54	1830.30
408.73	1806.89
408.92	1844.34
409.11	2050.31
409.30	1968.39
409.49	1916.90
409.68	1961.37
409.87	1989.46
410.07	2010.52
410.26	1956.69
410.45	1963.71
410.64	2221.17
410.83	2125.21
411.02	2085.42
411.21	2115.84
411.40	2223.51
411.59	2275.00
411.78	2202.44
411.98	2200.10
412.17	2188.40
412.36	2385.01
412.55	2335.85
412.74	2209.47
412.93	2368.62
413.12	2354.58
413.31	2422.45
413.50	2415.43
413.69	2476.29
413.88	2544.16
414.07	2541.82
414.26	2478.63
414.45	2462.24
414.64	2527.78
414.83	2565.23
415.02	2567.57
415.22	2600.34
415.41	2670.55
415.60	2708.00
415.79	2726.72
415.98	2663.53
416.17	2724.38
416.36	2766.51
416.55	2708.00
416.74	2827.37
416.93	2909.29
417.12	2888.22
417.31	2970.14
417.50	2775.88
417.69	2888.22
417.88	2960.78
418.07	2958.44
418.26	2869.50
418.45	2925.67
418.64	3101.21
418.83	2988.86
419.02	3215.90
419.21	3082.49
419.39	3199.51
419.58	3002.91
419.77	3040.36
419.96	3035.67
420.15	3211.22
420.34	3180.79
420.53	3215.90
420.72	3328.24
420.91	3243.98
421.10	3232.28
421.29	3318.88
421.48	3208.87
421.67	3358.67
421.86	3236.96
422.05	3361.01
422.24	3396.12
422.43	3363.35
422.61	3403.14
422.80	3358.67
422.99	3405.48
423.18	3492.08
423.37	3407.82
423.56	3358.67
423.75	3424.20
423.94	3412.50
424.13	3131.64
424.32	3220.58
424.50	3424.20
424.69	3428.88
424.88	3412.50
425.07	3351.65
425.26	3475.70
425.45	3316.54
425.64	3506.12
425.83	3407.82
426.01	3428.88
426.20	3426.54
426.39	3414.84
426.58	3337.60
426.77	3363.35
426.96	3492.08
427.15	3466.33
427.33	3452.29
427.52	3506.12
427.71	3588.04
427.90	3602.08
428.09	3658.26
428.28	3602.08
428.46	3824.44
428.65	3681.66
428.84	3775.28
429.03	3730.81
429.22	3625.49
429.40	3735.50
429.59	3655.92
429.78	3543.57
429.97	3363.35
430.16	3602.08
430.34	3707.41
430.53	3836.14
430.72	3772.94
430.91	3630.17
431.10	3852.52
431.28	3880.61
431.47	3995.29
431.66	3985.93
431.85	3985.93
432.03	4063.17
432.22	4063.17
432.41	4018.70
432.60	4177.86
432.79	4084.23
432.97	4161.47
433.16	4198.92
433.35	4163.81
433.54	4021.04
433.72	4194.24
433.91	4035.08
434.10	4138.07
434.28	4271.48
434.47	4280.84
434.66	4292.54
434.85	4477.44
435.03	4231.69
435.22	4360.42
435.41	4383.82
435.59	4447.02
435.78	4447.02
435.97	4301.90
436.16	4451.70
436.34	4418.93
436.53	4498.51
436.72	4550.00
436.90	4437.66
437.09	4620.22
437.28	4496.17
437.46	4550.00
437.65	4575.75
437.84	4601.49
438.02	4557.02
438.21	4479.79
438.40	4524.26
438.58	4739.58
438.77	4718.52
438.96	4657.67
439.14	4777.03
439.33	4858.95
439.52	5074.28
439.70	4971.30
439.89	4959.60
440.08	4978.32
440.26	4966.62
440.45	4966.62
440.63	4990.02
440.82	5095.35
441.01	5128.11
441.19	5160.88
441.38	5221.74
441.57	5345.78
441.75	5249.82
441.94	5425.36
442.12	5479.19
442.31	5423.02
442.50	5404.30
442.68	5411.32
442.87	5584.52
443.05	5483.88
443.24	5561.11
443.43	5647.71
443.61	5685.16
443.80	5806.87
443.98	5568.13
444.17	5383.23
444.35	5441.75
444.54	5624.31
444.73	5701.54
444.91	5797.51
445.10	5661.76
445.28	5792.83
445.47	5563.45
445.65	5589.20
445.84	5650.05
446.02	5671.12
446.21	5619.63
446.39	5610.26
446.58	5750.70
446.77	5753.04
446.95	5526.00
447.14	5675.80
447.32	5781.12
447.51	5851.34
447.69	5659.42
447.88	5853.68
448.06	5729.63
448.25	5851.34
448.43	5905.17
448.62	5863.04
448.80	5750.70
448.99	5877.09
449.17	5926.24
449.36	5970.71
449.54	6129.86
449.73	6066.67
449.91	6101.78
450.10	6118.16
450.28	6251.57
450.46	6141.57
450.65	6157.95
450.83	6298.38
451.02	6223.48
451.20	6211.78
451.39	6319.45
451.57	6277.32
451.76	6113.48
451.94	6377.96
452.13	6263.27
452.31	6155.61
452.49	6230.51
452.68	6473.92
452.86	6239.87
453.05	6471.58
453.23	6324.13
453.42	6267.95
453.60	6347.53
453.78	6384.98
453.97	6279.66
454.15	6504.35
454.34	6277.32
454.52	6548.82
454.70	6658.82
454.89	6698.61
455.07	6588.61
455.26	6590.95
455.44	6747.76
455.62	6644.78
455.81	6836.70
455.99	6712.66
456.17	6548.82
456.36	6750.10
456.54	6810.96
456.73	7002.88
456.91	7056.72
457.09	7073.10
457.28	7082.46
457.46	6829.68
457.64	6939.69
457.83	6935.01
458.01	6935.01
458.19	7255.66
458.38	7166.72
458.56	7297.79
458.74	7042.67
458.93	7178.42
459.11	7236.94
459.29	7279.07
459.48	7300.13
459.66	7250.98
459.84	7258.00
460.03	7492.05
460.21	7346.94
460.39	7412.48
460.57	7639.51
460.76	7517.80
460.94	7609.08
461.12	7356.30
461.31	7414.82
461.49	7632.49
461.67	7548.23
461.85	7564.61
462.04	7569.29
462.22	8051.44
462.40	7831.43
462.59	7712.07
462.77	7786.96
462.95	7702.70
463.13	7662.91
463.32	7744.83
463.50	7878.24
463.68	7712.07
463.86	7836.11
464.05	7911.01
464.23	7838.45
464.41	7922.71
464.59	7779.94
464.78	7992.93
464.96	7866.54
465.14	7789.30
465.32	8145.06
465.50	8114.64
465.69	8198.90
465.87	8016.33
466.05	7866.54
466.23	8098.25
466.41	8088.89
466.60	8245.71
466.78	8116.98
466.96	8095.91
467.14	8280.82
467.32	8292.52
467.51	8423.59
467.69	8107.62
467.87	8217.62
468.05	8381.46
468.23	8126.34
468.41	8416.57
468.60	8273.79
468.78	8482.10
468.96	8121.66
469.14	8388.48
469.32	8589.77
469.50	8126.34
469.69	8669.34
469.87	8683.39
470.05	8688.07
470.23	8706.79
470.41	8833.18
470.59	9015.74
470.77	8606.15
470.95	8882.33
471.14	8908.08
471.32	8858.93
471.50	9048.51
471.68	8999.36
471.86	9048.51
472.04	9139.79
472.22	9287.25
472.40	8980.64
472.58	8940.85
472.77	9146.81
472.95	9259.16
473.13	9327.03
473.31	9287.25
473.49	9177.24
473.67	9397.25
473.85	9455.76
474.03	9661.73
474.21	9734.29
474.39	9687.48
474.57	9525.98
474.75	9689.82
474.93	9870.04
475.12	9701.52
475.30	9895.78
475.48	9937.91
475.66	10225.80
475.84	9989.41
476.02	10092.39
476.20	10015.15
476.38	10256.23
476.56	10635.39
476.74	10333.47
476.92	10394.32
477.10	10342.83
477.28	10700.93
477.46	10693.91
477.64	10885.83
477.82	10677.52
478.00	11026.26
478.18	10984.13
478.36	11087.12
478.54	11206.48
478.72	11417.13
478.90	11304.79
479.08	11346.92
479.26	11566.93
479.44	11475.65
479.62	11566.93
479.80	11918.01
479.98	11845.45
480.16	12060.78
480.34	11737.79
480.52	12290.15
480.70	12109.93
480.88	12056.10
481.06	12166.10
481.24	12304.20
481.41	12496.12
481.59	12699.75
481.77	12622.51
481.95	12884.65
482.13	12814.43
482.31	13116.36
482.49	13294.24
482.67	13312.97
482.85	13020.40
483.03	13427.65
483.21	13462.76
483.39	13589.15
483.57	13530.64
483.74	13809.16
483.92	13872.36
484.10	13694.47
484.28	14214.07
484.46	14382.59
484.64	14649.41
484.82	14040.87
485.00	14406.00
485.18	14415.36
485.35	14855.38
485.53	14670.48
485.71	14970.07
485.89	15143.27
486.07	14860.06
486.25	15026.24
486.43	15183.06
486.61	15035.60
486.78	15529.45
486.96	15632.44
487.14	15602.01
487.32	15686.27
487.50	15922.66
487.68	16152.04
487.85	16402.47
488.03	16404.81
488.21	16446.94
488.39	16840.15
488.57	16423.54
488.75	16718.45
488.92	17186.55
489.10	17132.72
489.28	17362.09
489.46	17280.18
489.64	17397.20
489.81	17781.05
489.99	18026.81
490.17	17954.25
490.35	18256.18
490.53	18054.89
490.70	18146.17
490.88	18361.50
491.06	18640.03
491.24	18611.94
491.41	18682.16
491.59	18642.37
491.77	18656.41
491.95	19026.21
492.13	19243.88
492.30	19534.11
492.48	19269.63
492.66	19667.52
492.84	19489.64
493.01	19819.66
493.19	19510.71
493.37	20034.99
493.54	19920.30
493.72	20140.31
493.90	20329.89
494.08	20231.59
494.25	20596.71
494.43	20552.24
494.61	20903.32
494.79	21050.78
494.96	20884.60
495.14	21116.31
495.32	21331.64
495.49	21493.14
495.67	21209.93
495.85	21659.32
496.02	21621.87
496.20	21652.30
496.38	21996.35
496.55	22326.37
496.73	22003.38
496.91	21984.65
497.09	22546.38
497.26	22544.04
497.44	22541.70
497.62	22576.81
497.79	22904.48
497.97	22820.22
498.14	22904.48
498.32	22864.69
498.50	23033.21
498.67	23356.21
498.85	23269.61
499.03	23707.29
499.20	23857.08
499.38	23611.32
499.56	23594.94
499.73	23817.29
499.91	23737.71
500.08	23990.49
500.26	23810.27
500.44	24336.89
500.61	24322.85
500.79	23997.51
500.97	24357.96
501.14	24758.19
501.32	24865.85
501.49	24587.33
501.67	24744.14
501.84	24741.80
502.02	24819.04
502.20	24907.98
502.37	25181.82
502.55	25324.60
502.72	25064.80
502.90	25181.82
503.07	25233.32
503.25	25441.62
503.43	25420.56
503.60	25738.87
503.78	25469.71
503.95	25752.91
504.13	25699.08
504.30	26024.42
504.48	25963.56
504.65	26260.81
504.83	26366.13
505.01	26501.89
505.18	26253.79
505.36	26796.79
505.53	26639.98
505.71	26546.36
505.88	26930.20
506.06	26270.17
506.23	26761.69
506.41	26614.23
506.58	26874.03
506.76	27108.08
506.93	27253.20
507.11	27700.24
507.28	27185.32
507.46	27489.59
507.63	27199.37
507.81	27658.11
507.98	27220.43
508.16	27751.73
508.33	27814.93
508.50	27971.74
508.68	28002.17
508.85	28254.95
509.03	28383.68
509.20	28070.04
509.38	28449.21
509.55	28449.21
509.73	28407.08
509.90	28772.21
510.08	28573.26
510.25	28570.92
510.42	28526.45
510.60	28477.30
510.77	28961.79
510.95	28863.49
511.12	28917.32
511.30	29139.67
511.47	28886.89
511.64	29268.40
511.82	29371.38
511.99	29221.59
512.17	29233.29
512.34	29469.69
512.51	29427.56
512.69	29834.81
512.86	29874.60
513.04	30108.65
513.21	29872.26
513.38	29935.45
513.56	29621.82
513.73	29607.78
513.90	29734.17
514.08	30663.36
514.25	30604.84
514.43	30415.26
514.60	30431.65
514.77	30412.92
514.95	30726.55
515.12	30700.81
515.29	30932.52
515.47	30906.77
515.64	30686.76
515.81	31229.77
515.99	30810.81
516.16	31042.53
516.33	31234.45
516.51	31037.84
516.68	30890.39
516.85	31002.74
517.03	31402.97
517.20	31154.87
517.37	31180.62
517.54	31632.34
517.72	31845.33
517.89	31381.90
518.06	31730.64
518.24	31447.44
518.41	31908.52
518.58	31751.71
518.75	31742.35
518.93	32135.56
519.10	32329.82
519.27	32112.15
519.45	31789.16
519.62	32137.90
519.79	31948.31
519.96	32414.08
520.14	32694.94
520.31	32596.64
520.48	32774.52
520.65	32823.67
520.83	32762.82
521.00	33062.41
521.17	32877.51
521.34	33259.01
521.52	32835.38
521.69	33078.79
521.86	33441.57
522.03	33422.85
522.20	33294.12
522.38	33722.44
522.55	33411.15
522.72	33696.69
522.89	33827.76
523.07	33834.78
523.24	33394.76
523.41	34218.63
523.58	34026.71
523.75	34199.91
523.92	33755.21
524.10	33846.49
524.27	34022.03
524.44	34316.93
524.61	34534.60
524.78	34445.66
524.96	35068.25
525.13	34504.18
525.30	34616.52
525.47	35063.57
525.64	34899.73
525.81	35082.29
525.98	34691.42
526.16	34497.16
526.33	34623.54
526.50	35290.60
526.67	34799.08
526.84	34857.60
527.01	34653.97
527.18	35175.91
527.36	34904.41
527.53	35276.55
527.70	35644.02
527.87	35938.93
528.04	35058.88
528.21	35550.40
528.38	35133.78
528.55	36023.19
528.72	36273.62
528.89	35967.01
529.07	35768.07
529.24	35550.40
529.41	35681.47
529.58	35550.40
529.75	35941.27
529.92	35971.69
530.09	36517.04
530.26	36240.86
530.43	35995.10
530.60	36065.31
530.77	36065.31
530.94	36378.95
531.11	36053.61
531.28	36170.64
531.46	36371.92
531.63	36238.51
531.80	36912.59
531.97	36608.32
532.14	36760.45
532.31	36444.48
532.48	36355.54
532.65	37205.16
532.82	36818.97
532.99	37095.15
533.16	36708.96
533.33	36847.05
533.50	37083.45
533.67	37165.37
533.84	36907.91
534.01	37186.43
534.18	36961.74
534.35	37457.93
534.52	36882.16
534.69	37532.83
534.86	37312.82
535.03	37457.93
535.20	37605.39
535.37	37614.75
535.54	38110.94
535.71	37825.40
535.88	37670.92
536.05	37380.70
536.22	37928.38
536.38	37809.01
536.55	37834.76
536.72	37792.63
536.89	38183.50
537.06	37708.37
537.23	37862.85
537.40	37614.75
537.57	38480.75
537.74	38340.32
537.91	37881.57
538.08	38595.43
538.25	38270.10
538.42	38160.09
538.59	38644.59
538.75	37902.64
538.92	38696.08
539.09	38677.35
539.26	38972.26
539.43	38974.60
539.60	38785.02
539.77	38567.35
539.94	38869.28
540.11	38836.51
540.28	38534.58
540.44	38735.87
540.61	38836.51
540.78	38628.20
540.95	38775.66
541.12	38550.96
541.29	39005.03
541.46	38939.49
541.62	39086.95
541.79	39409.94
541.96	39002.69
542.13	39227.38
542.30	39068.22
542.47	39480.16
542.63	39339.72
542.80	39323.34
542.97	39777.40
543.14	39892.09
543.31	40198.70
543.48	39768.04
543.64	40470.20
543.81	39807.83
543.98	39821.87
544.15	39662.72
544.32	40369.56
544.48	40514.67
544.65	40027.84
544.82	40144.87
544.99	39782.09
545.16	40149.55
545.32	40135.51
545.49	40397.65
545.66	40531.06
545.83	40507.65
546.00	40285.30
546.16	40273.60
546.33	40439.78
546.50	40100.40
546.67	40657.45
546.83	40264.24
547.00	40535.74
547.17	40362.54
547.34	40479.57
547.50	41041.29
547.67	40664.47
547.84	40617.66
548.00	40919.59
548.17	41345.56
548.34	41301.09
548.51	41158.32
548.67	41326.84
548.84	41071.72
549.01	40790.86
549.18	40854.05
549.34	40928.95
549.51	41230.88
549.68	41399.40
549.84	41141.94
550.01	41581.96
550.18	41053.00
550.34	41525.78
550.51	41092.79
550.68	41326.84
550.84	40938.31
551.01	41113.85
551.18	41357.27
551.34	41254.28
551.51	41778.56
551.68	41359.61
551.84	41326.84
552.01	41462.59
552.18	41783.24
552.34	41357.27
552.51	42492.43
552.68	41825.37
552.84	41666.22
553.01	42373.06
553.18	41610.04
553.34	41958.78
553.51	41411.10
553.67	41682.60
553.84	41909.63
554.01	42110.92
554.17	42150.71
554.34	41867.50
554.51	42026.66
554.67	42216.24
554.84	42286.46
555.00	42082.83
555.17	41790.27
555.33	42419.87
555.50	42309.86
555.67	42244.33
555.83	42295.82
556.00	42209.22
556.16	42319.23
556.33	42892.66
556.50	42513.49
556.66	42656.26
556.83	41867.50
556.99	42639.88
557.16	42672.65
557.32	42312.20
557.49	42417.53
557.65	42010.28
557.82	42637.54
557.98	42302.84
558.15	42560.30
558.32	42548.60
558.48	42838.83
558.65	42623.50
558.81	42520.51
558.98	42628.18
559.14	42810.74
559.31	42883.30
559.47	42958.19
559.64	43182.88
559.80	42988.62
559.97	43112.67
560.13	42714.78
560.30	43096.28
560.46	42979.26
560.63	42789.67
560.79	43110.33
560.96	43035.43
561.12	43035.43
561.29	42899.68
561.45	43136.07
561.61	43037.77
561.78	42909.04
561.94	42682.01
562.11	43292.89
562.27	42703.07
562.44	42990.96
562.60	43182.88
562.77	43435.66
562.93	42911.38
563.10	43302.25
563.26	42990.96
563.42	42897.34
563.59	43044.79
563.75	43206.29
563.92	43540.99
564.08	43117.35
564.24	43529.28
564.41	43330.34
564.57	43161.82
564.74	43086.92
564.90	43679.08
565.07	43358.42
565.23	43536.30
565.39	43206.29
565.56	43791.42
565.72	43606.52
565.88	43583.12
566.05	43543.33
566.21	43239.06
566.38	43278.85
566.54	43051.81
566.70	43454.39
566.87	43648.65
567.03	43583.12
567.19	44102.71
567.36	43833.55
567.52	43681.42
567.68	43852.28
567.85	43688.44
568.01	43716.53
568.17	43753.97
568.34	43496.52
568.50	43611.20
568.66	43325.66
568.83	44009.09
568.99	43461.41
569.15	43510.56
569.32	43550.35
569.48	43391.19
569.64	43983.35
569.81	43665.03
569.97	43852.28
570.13	43356.08
570.30	43330.34
570.46	43297.57
570.62	43201.61
570.78	43271.82
570.95	43526.94
571.11	43592.48
571.27	43538.65
571.43	43803.13
571.60	44067.61
571.76	44004.41
571.92	43480.13
572.09	43395.87
572.25	43782.06
572.41	43503.54
572.57	44058.24
572.74	44552.10
572.90	43938.88
573.06	43910.79
573.22	43854.62
573.38	43936.54
573.55	43519.92
573.71	44098.03
573.87	43810.15
574.03	43770.36
574.20	43852.28
574.36	43683.76
574.52	44247.83
574.68	43817.17
574.84	43852.28
575.01	43456.73
575.17	43735.25
575.33	43697.80
575.49	43800.79
575.65	44479.54
575.82	44046.54
575.98	44271.23
576.14	44161.23
576.30	43964.62
576.46	43744.61
576.62	44069.95
576.79	43838.23
576.95	43835.89
577.11	43924.83
577.27	44149.53
577.43	44025.48
577.59	43571.41
577.75	44058.24
577.92	43976.33
578.08	43423.96
578.24	43634.61
578.40	43842.92
578.56	44055.90
578.72	43901.43
578.88	44509.97
579.04	44428.05
579.21	44123.78
579.37	43650.99
579.53	43985.69
579.69	44098.03
579.85	44210.38
580.01	44460.82
580.17	43931.86
580.33	44252.51
580.49	43997.39
580.65	44430.39
580.82	44493.58
580.98	43892.07
581.14	44123.78
581.30	44222.08
581.46	44285.28
581.62	44151.87
581.78	43927.17
581.94	44507.63
582.10	44629.34
582.26	44362.51
582.42	44296.98
582.58	44292.30
582.74	43985.69
582.90	43632.27
583.06	44266.55
583.22	44123.78
583.38	44528.69
583.54	44226.76
583.70	44179.95
583.86	44002.07
584.02	44226.76
584.18	44205.70
584.34	43929.51
584.50	44435.07
584.66	44315.70
584.82	44318.04
584.98	44776.79
585.14	44315.70
585.30	43969.30
585.46	44107.40
585.62	44409.32
585.78	44112.08
585.94	43540.99
586.10	44587.21
586.26	44439.75
586.42	44259.53
586.58	44308.68
586.74	44343.79
586.90	44243.15
587.06	44287.62
587.22	44399.96
587.38	43700.14
587.54	44886.79
587.70	44198.68
587.86	44493.58
588.02	44362.51
588.18	44463.16
588.34	44170.59
588.49	44154.21
588.65	43866.32
588.81	44107.40
588.97	43959.94
589.13	44198.68
589.29	44514.65
589.45	44680.83
589.61	44605.93
589.77	44753.38
589.93	44830.62
590.08	44289.96
590.24	44177.61
590.40	44341.45
