SpectraSuite Data File
++++++++++++++++++++++++++++++++++++
Date: Fri Oct 25 10:43:53 EDT 2013
User: price-jones
Dark Spectrum Present: No
Reference Spectrum Present: No
Number of Sampled Component Spectra: 1
Spectrometers: USB2+H05261
Integration Time (usec): 100000 (USB2+H05261)
Spectra Averaged: 1 (USB2+H05261)
Boxcar Smoothing: 0 (USB2+H05261)
Correct for Electrical Dark: No (USB2+H05261)
Strobe/Lamp Enabled: No (USB2+H05261)
Correct for Detector Non-linearity: No (USB2+H05261)
Correct for Stray Light: No (USB2+H05261)
Number of Pixels in Processed Spectrum: 2048
>>>>>Begin Processed Spectral Data<<<<<
365.73	201.29
365.92	201.29
366.12	201.29
366.32	23.41
366.52	0.00
366.72	72.56
366.91	28.09
367.11	7.02
367.31	7.02
367.51	9.36
367.70	39.79
367.90	72.56
368.10	53.83
368.30	0.00
368.49	0.00
368.69	28.09
368.89	65.54
369.09	0.00
369.28	11.70
369.48	16.38
369.68	58.51
369.87	147.45
370.07	65.54
370.27	105.32
370.47	191.92
370.66	379.17
370.86	383.85
371.06	437.68
371.25	479.81
371.45	425.98
371.65	468.11
371.84	482.15
372.04	540.66
372.24	543.00
372.44	571.09
372.63	521.94
372.83	524.28
373.03	411.93
373.22	538.32
373.42	624.92
373.62	498.53
373.81	599.18
374.01	585.13
374.21	517.26
374.40	582.79
374.60	519.60
374.79	540.66
374.99	596.84
375.19	606.20
375.38	566.41
375.58	578.11
375.78	671.73
375.97	622.58
376.17	660.03
376.37	596.84
376.56	603.86
376.76	636.63
376.95	606.20
377.15	669.39
377.35	587.47
377.54	702.16
377.74	664.71
377.93	617.90
378.13	676.41
378.33	695.14
378.52	617.90
378.72	777.06
378.91	720.88
379.11	678.76
379.31	648.33
379.50	655.35
379.70	678.76
379.89	669.39
380.09	746.63
380.28	664.71
380.48	704.50
380.68	770.04
380.87	697.48
381.07	606.20
381.26	683.44
381.46	784.08
381.65	718.54
381.85	755.99
382.04	732.59
382.24	711.52
382.43	711.52
382.63	671.73
382.83	809.83
383.02	807.48
383.22	760.67
383.41	751.31
383.61	772.38
383.80	730.25
384.00	774.72
384.19	699.82
384.39	753.65
384.58	901.11
384.78	807.48
384.97	819.19
385.17	821.53
385.36	851.96
385.56	830.89
385.75	812.17
385.95	814.51
386.14	936.21
386.34	842.59
386.53	840.25
386.72	901.11
386.92	894.08
387.11	849.61
387.31	875.36
387.50	884.72
387.70	812.17
387.89	866.00
388.09	901.11
388.28	940.90
388.48	891.74
388.67	894.08
388.86	866.00
389.06	999.41
389.25	983.02
389.45	994.73
389.64	999.41
389.84	950.26
390.03	1064.94
390.22	1043.88
390.42	1083.67
390.61	1025.15
390.81	1057.92
391.00	1004.09
391.19	1184.31
391.39	1067.28
391.58	1088.35
391.78	1032.18
391.97	1018.13
392.16	1095.37
392.36	1015.79
392.55	1064.94
392.75	1027.50
392.94	943.24
393.13	980.68
393.33	1015.79
393.52	994.73
393.71	1118.78
393.91	1104.73
394.10	1200.69
394.29	1165.59
394.49	1184.31
394.68	1165.59
394.88	1193.67
395.07	1275.59
395.26	1263.89
395.46	1254.53
395.65	1338.79
395.84	1242.82
396.04	1221.76
396.23	1287.29
396.42	1235.80
396.62	1203.04
396.81	1210.06
397.00	1217.08
397.19	1327.08
397.39	1327.08
397.58	1334.11
397.77	1502.62
397.97	1362.19
398.16	1418.36
398.35	1483.90
398.55	1476.88
398.74	1519.01
398.93	1614.97
399.12	1474.54
399.32	1565.82
399.51	1547.09
399.70	1619.65
399.90	1701.57
400.09	1530.71
400.28	1621.99
400.47	1614.97
400.67	1736.68
400.86	1813.92
401.05	1820.94
401.24	1713.27
401.44	1732.00
401.63	1825.62
401.82	1792.85
402.01	1790.51
402.21	1767.10
402.40	1860.73
402.59	1741.36
402.78	1839.66
402.97	1872.43
403.17	1956.69
403.36	1933.28
403.55	1933.28
403.74	1921.58
403.93	1846.68
404.13	1902.86
404.32	1907.54
404.51	1916.90
404.70	2094.78
404.89	1935.62
405.09	2031.58
405.28	1914.56
405.47	2003.50
405.66	2101.80
405.85	2043.29
406.05	2071.37
406.24	2078.40
406.43	2057.33
406.62	2216.49
406.81	2253.94
407.00	2115.84
407.20	2136.91
407.39	2160.31
407.58	2223.51
407.77	2237.55
407.96	2275.00
408.15	2389.69
408.34	2363.94
408.54	2279.68
408.73	2387.35
408.92	2349.90
409.11	2368.62
409.30	2370.96
409.49	2333.51
409.68	2326.49
409.87	2342.88
410.07	2403.73
410.26	2513.74
410.45	2448.20
410.64	2525.44
410.83	2492.67
411.02	2502.03
411.21	2504.37
411.40	2642.46
411.59	2644.81
411.78	2654.17
411.98	2794.60
412.17	2773.53
412.36	2698.64
412.55	2787.58
412.74	2780.56
412.93	2827.37
413.12	2803.96
413.31	3052.06
413.50	2867.16
413.69	2991.20
413.88	3126.96
414.07	3080.14
414.26	3077.80
414.45	2977.16
414.64	3094.19
414.83	3108.23
415.02	3103.55
415.22	3148.02
415.41	3222.92
415.60	3262.71
415.79	3281.43
415.98	3410.16
416.17	3506.12
416.36	3276.75
416.55	3417.18
416.74	3449.95
416.93	3375.05
417.12	3386.76
417.31	3396.12
417.50	3435.91
417.69	3667.62
417.88	3513.14
418.07	3562.30
418.26	3520.17
418.45	3590.38
418.64	3672.30
418.83	3695.71
419.02	3737.84
419.21	3684.00
419.39	3564.64
419.58	3672.30
419.77	3782.31
419.96	3801.03
420.15	3873.59
420.34	3779.97
420.53	3880.61
420.72	4086.58
420.91	3913.38
421.10	3974.23
421.29	4025.72
421.48	3843.16
421.67	3971.89
421.86	3854.86
422.05	3934.44
422.24	3969.55
422.43	3852.52
422.61	3918.06
422.80	4053.81
422.99	4074.87
423.18	4119.34
423.37	4114.66
423.56	3967.21
423.75	4100.62
423.94	4156.79
424.13	3803.37
424.32	3920.40
424.50	4145.09
424.69	4149.77
424.88	4241.05
425.07	4142.75
425.26	3868.91
425.45	3985.93
425.64	4077.21
425.83	4053.81
426.01	4273.82
426.20	4016.36
426.39	4053.81
426.58	4105.30
426.77	4091.26
426.96	4081.89
427.15	4030.40
427.33	4245.73
427.52	4283.18
427.71	4201.26
427.90	4374.46
428.09	4348.72
428.28	4329.99
428.46	4196.58
428.65	4107.64
428.84	4318.29
429.03	4351.06
429.22	4315.95
429.40	4191.90
429.59	4168.49
429.78	4156.79
429.97	4121.68
430.16	4114.66
430.34	4168.49
430.53	4402.55
430.72	4191.90
430.91	4390.84
431.10	4425.95
431.28	4706.82
431.47	4774.69
431.66	4657.67
431.85	4814.48
432.03	4828.53
432.22	5011.09
432.41	4798.10
432.60	4851.93
432.79	4788.74
432.97	4880.02
433.16	4901.08
433.35	4725.54
433.54	4814.48
433.72	4765.33
433.91	4884.70
434.10	4720.86
434.28	4924.49
434.47	5001.72
434.66	5111.73
434.85	5095.35
435.03	5107.05
435.22	4992.36
435.41	5184.29
435.59	5334.08
435.78	5193.65
435.97	5163.22
436.16	5558.77
436.34	5341.10
436.53	5259.18
436.72	5483.88
436.90	5305.99
437.09	5394.93
437.28	5109.39
437.46	5287.27
437.65	5331.74
437.84	5254.50
438.02	5252.16
438.21	5315.36
438.40	5308.34
438.58	5490.90
438.77	5617.29
438.96	5530.69
439.14	5703.89
439.33	5802.19
439.52	5825.59
439.70	5652.39
439.89	5753.04
440.08	5966.03
440.26	5788.14
440.45	6050.28
440.63	6239.87
440.82	6265.61
441.01	6108.80
441.19	6293.70
441.38	6076.03
441.57	6293.70
441.75	6293.70
441.94	6478.60
442.12	6363.92
442.31	6574.56
442.50	6469.24
442.68	6331.15
442.87	6579.25
443.05	6626.06
443.24	6612.01
443.43	6647.12
443.61	6698.61
443.80	6895.22
443.98	6565.20
444.17	6380.30
444.35	6808.62
444.54	6862.45
444.73	6920.96
444.91	6705.63
445.10	6726.70
445.28	6700.95
445.47	6583.93
445.65	6750.10
445.84	6534.78
446.02	6628.40
446.21	6846.07
446.39	6787.55
446.58	6857.77
446.77	7002.88
446.95	6647.12
447.14	7007.56
447.32	6848.41
447.51	6906.92
447.69	6939.69
447.88	6939.69
448.06	6939.69
448.25	6913.94
448.43	6981.82
448.62	7021.61
448.80	6958.41
448.99	6967.77
449.17	7061.40
449.36	7019.27
449.54	7204.17
449.73	7272.04
449.91	7412.48
450.10	7599.72
450.28	7379.71
450.46	7524.82
450.65	7431.20
450.83	7396.09
451.02	7363.33
451.20	7604.40
451.39	7536.52
451.57	7365.67
451.76	7335.24
451.94	7435.88
452.13	7475.67
452.31	7342.26
452.49	7269.70
452.68	7332.90
452.86	7321.20
453.05	7440.56
453.23	7517.80
453.42	7634.83
453.60	7459.29
453.78	7768.24
453.97	7702.70
454.15	7702.70
454.34	7602.06
454.52	7721.43
454.70	7667.60
454.89	7470.99
455.07	7756.54
455.26	7941.44
455.44	7950.80
455.62	7929.74
455.81	7936.76
455.99	7985.91
456.17	8154.43
456.36	8138.04
456.54	8344.01
456.73	8395.50
456.91	8313.58
457.09	8257.41
457.28	8386.14
457.46	8360.39
457.64	8318.26
457.83	8210.60
458.01	8285.50
458.19	8390.82
458.38	8381.46
458.56	8507.85
458.74	8631.90
458.93	8383.80
459.11	8531.25
459.29	8400.18
459.48	8648.28
459.66	8615.51
459.84	8510.19
460.03	8840.20
460.21	8849.57
460.39	8648.28
460.57	8676.37
460.76	8730.20
460.94	8662.32
461.12	8875.31
461.31	8912.76
461.49	8870.63
461.67	8844.88
461.85	9275.54
462.04	9114.05
462.22	9081.28
462.40	9228.73
462.59	9032.13
462.77	9226.39
462.95	9256.82
463.13	9118.73
463.32	9081.28
463.50	9268.52
463.68	9291.93
463.86	9210.01
464.05	9228.73
464.23	9123.41
464.41	9387.89
464.59	9348.10
464.78	9364.48
464.96	9462.79
465.14	9261.50
465.32	9334.06
465.50	9570.45
465.69	9474.49
465.87	9703.86
466.05	9537.68
466.23	9469.81
466.41	9540.02
466.60	9612.58
466.78	9331.72
466.96	9336.40
467.14	9692.16
467.32	9366.82
467.51	9717.90
467.69	9551.73
467.87	9673.43
468.05	9877.06
468.23	9692.16
468.41	9479.17
468.60	9858.34
468.78	9912.17
468.96	9958.98
469.14	9987.07
469.32	10097.07
469.50	9748.33
469.69	10136.86
469.87	9928.55
470.05	10176.65
470.23	10204.74
470.41	10176.65
470.59	10429.43
470.77	10017.49
470.95	10237.50
471.14	10296.02
471.32	10178.99
471.50	10363.89
471.68	10600.29
471.86	10576.88
472.04	10792.21
472.22	10937.32
472.40	10672.84
472.58	10635.39
472.77	10595.61
472.95	10930.30
473.13	11159.67
473.31	10799.23
473.49	10855.40
473.67	11026.26
473.85	11073.07
474.03	11328.19
474.21	11239.25
474.39	11286.06
474.57	11328.19
474.75	11325.85
474.93	11417.13
475.12	11485.01
475.30	11396.07
475.48	11592.67
475.66	11712.04
475.84	11461.60
476.02	11571.61
476.20	11620.76
476.38	11728.42
476.56	12042.06
476.74	12208.23
476.92	12081.85
477.10	12044.40
477.28	12336.96
477.46	12273.77
477.64	12456.33
477.82	12961.89
478.00	13067.21
478.18	12793.37
478.36	12919.76
478.54	13118.70
478.72	13270.84
478.90	13280.20
479.08	13362.12
479.26	13401.91
479.44	13359.78
479.62	13666.39
479.80	13703.84
479.98	13673.41
480.16	14073.64
480.34	13975.34
480.52	14272.59
480.70	13898.10
480.88	14031.51
481.06	14066.62
481.24	14001.08
481.41	14377.91
481.59	14661.12
481.77	14693.88
481.95	15145.61
482.13	15070.71
482.31	14864.74
482.49	15250.93
482.67	15218.16
482.85	15328.17
483.03	15630.10
483.21	15763.51
483.39	15852.45
483.57	15894.58
483.74	15714.36
483.92	15817.34
484.10	15669.89
484.28	16341.62
484.46	16346.30
484.64	16610.78
484.82	16472.69
485.00	16697.38
485.18	16961.86
485.35	16919.73
485.53	16507.80
485.71	16535.88
485.89	16814.41
486.07	16908.03
486.25	17001.65
486.43	17392.52
486.61	17034.42
486.78	17635.94
486.96	17530.61
487.14	18431.72
487.32	18361.50
487.50	18363.84
487.68	18651.73
487.85	18932.59
488.03	19171.33
488.21	19098.77
488.39	19054.30
488.57	19066.00
488.75	19073.03
488.92	19271.97
489.10	19871.15
489.28	19833.70
489.46	20287.76
489.64	20372.02
489.81	20767.57
489.99	20814.38
490.17	20491.39
490.35	21001.63
490.53	20762.89
490.70	20961.84
490.88	21202.91
491.06	21256.75
491.24	21179.51
491.41	21102.27
491.59	21652.30
491.77	21130.36
491.95	21752.94
492.13	22106.36
492.30	22361.48
492.48	22272.54
492.66	22431.69
492.84	22178.92
493.01	22806.18
493.19	22541.70
493.37	22672.77
493.54	22902.14
493.72	23234.50
493.90	23035.55
494.08	23363.23
494.25	23646.43
494.43	23782.18
494.61	23880.49
494.79	24175.39
494.96	23796.23
495.14	24079.43
495.32	24409.45
495.49	24292.42
495.67	24208.16
495.85	24608.39
496.02	25036.71
496.20	24774.57
496.38	24973.52
496.55	25181.82
496.73	25645.25
496.91	25181.82
497.09	25832.49
497.26	25804.41
497.44	25532.90
497.62	26118.04
497.79	25935.48
497.97	25731.85
498.14	25893.35
498.32	26080.59
498.50	26342.73
498.67	26752.32
498.85	26480.82
499.03	26677.43
499.20	27007.44
499.38	27028.51
499.56	26958.29
499.73	27211.07
499.91	27288.31
500.08	27524.70
500.26	26995.74
500.44	26962.97
500.61	27250.86
500.79	27077.66
500.97	27522.36
501.14	27482.57
501.32	27878.12
501.49	27681.52
501.67	27967.06
501.84	27915.57
502.02	28554.54
502.20	28659.86
502.37	28514.75
502.55	28739.44
502.72	28432.83
502.90	28865.83
503.07	28673.90
503.25	28652.84
503.43	28725.39
503.60	28711.35
503.78	28671.56
503.95	29015.62
504.13	28760.50
504.30	29619.48
504.48	29352.66
504.65	29907.37
504.83	29745.87
505.01	29696.72
505.18	29860.55
505.36	29867.58
505.53	30153.12
505.71	30253.76
505.88	30464.41
506.06	30040.78
506.23	30756.98
506.41	30022.05
506.58	30693.79
506.76	30731.23
506.93	30799.11
507.11	30813.15
507.28	30787.41
507.46	30433.99
507.63	31019.12
507.81	31016.78
507.98	30855.28
508.16	30881.03
508.33	30991.03
508.50	31400.63
508.68	31807.88
508.85	31559.78
509.03	31690.85
509.20	31496.59
509.38	31775.11
509.55	32130.87
509.73	32203.43
509.90	32212.79
510.08	31931.93
510.25	32072.36
510.42	32254.92
510.60	32327.48
510.77	32636.43
510.95	32959.42
511.12	32643.45
511.30	33099.86
511.47	32730.05
511.64	32933.68
511.82	33249.65
511.99	32610.68
512.17	32914.95
512.34	33001.55
512.51	33544.56
512.69	33652.22
512.86	33453.28
513.04	33752.87
513.21	33497.75
513.38	33209.86
513.56	33425.19
513.73	33432.21
513.90	33954.15
514.08	33905.00
514.25	34206.93
514.43	33392.42
514.60	34125.01
514.77	34476.09
514.95	34019.69
515.12	34164.80
515.29	34190.55
515.47	35082.29
515.64	34747.59
515.81	34759.30
515.99	34913.77
516.16	34295.87
516.33	34291.19
516.51	34216.29
516.68	33652.22
516.85	33883.94
517.03	34010.32
517.20	34756.96
517.37	34909.09
517.54	35063.57
517.72	34948.88
517.89	34459.71
518.06	34639.93
518.24	34689.08
518.41	34660.99
518.58	35035.48
518.75	35309.32
518.93	35590.19
519.10	35393.58
519.27	35784.45
519.45	36020.84
519.62	36353.20
519.79	35864.03
519.96	35913.18
520.14	36126.17
520.31	35728.28
520.48	36322.77
520.65	36538.10
520.83	36851.73
521.00	36701.94
521.17	36397.67
521.34	36999.19
521.52	36781.52
521.69	37198.13
521.86	36699.60
522.03	37153.66
522.20	37453.25
522.38	37268.35
522.55	37193.45
522.72	37116.22
522.89	36921.95
523.07	37429.85
523.24	37340.91
523.41	37970.51
523.58	37661.56
523.75	38157.75
523.92	37813.70
524.10	37940.08
524.27	38202.22
524.44	37766.88
524.61	38127.33
524.78	38202.22
524.96	38244.35
525.13	38642.24
525.30	38635.22
525.47	38302.87
525.64	38583.73
525.81	38728.84
525.98	37970.51
526.16	37912.00
526.33	37928.38
526.50	38120.31
526.67	38071.15
526.84	38022.00
527.01	37855.82
527.18	38312.23
527.36	38469.04
527.53	38967.58
527.70	39051.84
527.87	38857.57
528.04	39028.43
528.21	39697.83
528.38	39400.58
528.55	39611.23
528.72	39562.08
528.89	39400.58
529.07	39758.68
529.24	39243.76
529.41	39782.09
529.58	39538.67
529.75	39271.85
529.92	39901.45
530.09	40011.46
530.26	39754.00
530.43	40540.42
530.60	40011.46
530.77	40149.55
530.94	40027.84
531.11	40306.37
531.28	40278.28
531.46	40421.05
531.63	40680.85
531.80	40044.23
531.97	40189.34
532.14	39929.54
532.31	40084.01
532.48	39948.26
532.65	39983.37
532.82	40425.73
532.99	40814.26
533.16	40353.18
533.33	40746.39
533.50	40851.71
533.67	40713.62
533.84	40666.81
534.01	40816.60
534.18	40484.25
534.35	41020.23
534.52	40917.25
534.69	41352.58
534.86	41179.39
535.03	41216.83
535.20	41558.55
535.37	41504.72
535.54	41808.99
535.71	41132.57
535.88	41425.14
536.05	41251.94
536.22	41783.24
536.38	41862.82
536.55	41532.81
536.72	41317.48
536.89	41085.76
537.06	41614.72
537.23	41469.61
537.40	41993.89
537.57	41701.32
537.74	41928.36
537.91	42190.50
538.08	41942.40
538.25	42064.11
538.42	42263.05
538.59	42342.63
538.75	41792.61
538.92	42218.58
539.09	42256.03
539.26	42277.10
539.43	42188.16
539.60	42216.24
539.77	42064.11
539.94	42171.77
540.11	41993.89
540.28	42244.33
540.44	42529.87
540.61	42454.98
540.78	42281.78
540.95	42251.35
541.12	41961.12
541.29	42220.92
541.46	42787.33
541.62	42611.79
541.79	43033.09
541.96	42288.80
542.13	42382.42
542.30	42560.30
542.47	42607.11
542.63	42616.47
542.80	42780.31
542.97	42937.13
543.14	43269.48
543.31	43140.75
543.48	43489.49
543.64	43716.53
543.81	44170.59
543.98	43859.30
544.15	43938.88
544.32	43210.97
544.48	44018.46
544.65	43643.97
544.82	43992.71
544.99	43461.41
545.16	43421.62
545.32	43456.73
545.49	44048.88
545.66	44158.89
545.83	43587.80
546.00	44128.46
546.16	44072.29
546.33	43992.71
546.50	43669.72
546.67	44243.15
546.83	43641.63
547.00	44151.87
547.17	44184.63
547.34	43873.34
547.50	43948.24
547.67	44282.94
547.84	43849.94
548.00	44683.17
548.17	44811.90
548.34	44320.38
548.51	44765.09
548.67	44697.21
548.84	44149.53
549.01	44105.06
549.18	44327.41
549.34	44685.51
549.51	44596.57
549.68	44830.62
549.84	44650.40
550.01	44774.45
550.18	44472.52
550.34	44587.21
550.51	44416.35
550.68	44692.53
550.84	44041.86
551.01	45085.74
551.18	44711.25
551.34	44580.18
551.51	44790.83
551.68	45352.56
551.84	45003.82
552.01	44912.54
552.18	44945.31
552.34	44832.96
552.51	44863.39
552.68	45067.02
552.84	44924.24
553.01	45254.26
553.18	45013.18
553.34	45202.77
553.51	44861.05
553.67	45111.49
553.84	45680.24
554.01	45518.74
554.17	45378.31
554.34	46007.91
554.51	45251.92
554.67	45837.05
554.84	46033.66
555.00	45387.67
555.17	45083.40
555.33	45544.48
555.50	45432.14
555.67	45694.28
555.83	45668.53
556.00	45558.53
556.16	45610.02
556.33	45258.94
556.50	45406.39
556.66	45867.48
556.83	45289.37
556.99	45722.37
557.16	45654.49
557.32	45846.41
557.49	45553.85
557.65	45776.20
557.82	45954.08
557.98	45888.54
558.15	45897.91
558.32	45963.44
558.48	45855.78
558.65	45834.71
558.81	45684.92
558.98	45844.07
559.14	45663.85
559.31	45397.03
559.47	46071.10
559.64	45991.53
559.80	45865.14
559.97	45813.65
560.13	45727.05
560.30	45949.40
560.46	46122.60
560.63	46005.57
560.79	46288.77
560.96	46106.21
561.12	46246.65
561.29	45773.86
561.45	45954.08
561.61	46302.82
561.78	46227.92
561.94	45947.06
562.11	46162.39
562.27	46263.03
562.44	46185.79
562.60	46190.47
562.77	46328.56
562.93	46466.66
563.10	46719.43
563.26	45940.04
563.42	46204.52
563.59	45741.09
563.75	46366.01
563.92	46698.37
564.08	46583.68
564.24	46384.74
564.41	46611.77
564.57	46195.15
564.74	46412.82
564.90	46522.83
565.07	46354.31
565.23	46354.31
565.39	46328.56
565.56	46447.93
565.72	46136.64
565.88	46150.68
566.05	45883.86
566.21	46443.25
566.38	46127.28
566.54	46639.86
566.70	46218.56
566.87	46820.08
567.03	46260.69
567.19	46719.43
567.36	46485.38
567.52	46363.67
567.68	46550.91
567.85	46401.12
568.01	46735.82
568.17	46717.09
568.34	46700.71
568.50	46326.22
568.66	46866.89
568.83	46555.60
568.99	46286.43
569.15	46677.30
569.32	46447.93
569.48	46206.86
569.64	46405.80
569.81	46691.35
569.97	46312.18
570.13	46600.07
570.30	46323.88
570.46	46284.09
570.62	46644.54
570.78	45827.69
570.95	46124.94
571.11	46469.00
571.27	46176.43
571.43	46291.12
571.60	46515.81
571.76	46686.67
571.92	46398.78
572.09	46883.27
572.25	46543.89
572.41	46501.76
572.57	46946.47
572.74	46857.52
572.90	46813.05
573.06	46932.42
573.22	46625.81
573.38	46752.20
573.55	46417.50
573.71	46878.59
573.87	47040.09
574.03	46424.53
574.20	46782.63
574.36	46719.43
574.52	46763.90
574.68	46761.56
574.84	46997.96
575.01	46745.18
575.17	47047.11
575.33	46312.18
575.49	46541.55
575.65	46885.61
575.82	46768.58
575.98	46679.64
576.14	46927.74
576.30	46597.73
576.46	46319.20
576.62	46586.02
576.79	46529.85
576.95	46403.46
577.11	46356.65
577.27	46724.11
577.43	46616.45
577.59	46136.64
577.75	46337.93
577.92	46281.75
578.08	46438.57
578.24	46213.88
578.40	46763.90
578.56	46415.16
578.72	46124.94
578.88	47019.02
579.04	46862.21
579.21	46780.29
579.37	46148.34
579.53	46452.61
579.69	46567.30
579.85	46527.51
580.01	46485.38
580.17	46651.56
580.33	46934.76
580.49	46646.88
580.65	46632.83
580.82	46852.84
580.98	46618.79
581.14	46380.06
581.30	47283.50
581.46	47004.98
581.62	46923.06
581.78	47019.02
581.94	47065.83
582.10	46710.07
582.26	46845.82
582.42	47126.69
582.58	46923.06
582.74	46632.83
582.90	47002.64
583.06	46920.72
583.22	46934.76
583.38	47201.58
583.54	47395.85
583.70	47185.20
583.86	47384.15
584.02	46820.08
584.18	46822.42
584.34	46789.65
584.50	46857.52
584.66	46480.70
584.82	46564.96
584.98	47129.03
585.14	47009.66
585.30	46639.86
585.46	46646.88
585.62	46064.08
585.78	46768.58
585.94	45972.80
586.10	46597.73
586.26	46834.12
586.42	46925.40
586.58	46909.02
586.74	46883.27
586.90	46403.46
587.06	46588.36
587.22	46801.35
587.38	46597.73
587.54	46855.18
587.70	47239.03
587.86	47047.11
588.02	47126.69
588.18	46873.91
588.34	46749.86
588.49	46115.58
588.65	45956.42
588.81	46185.79
588.97	46403.46
589.13	46131.96
589.29	46588.36
589.45	46436.23
589.61	46396.44
589.77	46611.77
589.93	47026.04
