SpectraSuite Data File
++++++++++++++++++++++++++++++++++++
Date: Fri Oct 25 11:25:19 EDT 2013
User: price-jones
Dark Spectrum Present: No
Reference Spectrum Present: No
Number of Sampled Component Spectra: 1
Spectrometers: USB2+H05261
Integration Time (usec): 100000 (USB2+H05261)
Spectra Averaged: 1 (USB2+H05261)
Boxcar Smoothing: 0 (USB2+H05261)
Correct for Electrical Dark: No (USB2+H05261)
Strobe/Lamp Enabled: No (USB2+H05261)
Correct for Detector Non-linearity: No (USB2+H05261)
Correct for Stray Light: No (USB2+H05261)
Number of Pixels in Processed Spectrum: 2048
>>>>>Begin Processed Spectral Data<<<<<
365.73	220.01
365.92	220.01
366.12	220.01
366.32	128.73
366.52	161.50
366.72	182.56
366.91	201.29
367.11	131.07
367.31	56.17
367.51	142.77
367.70	168.52
367.90	145.11
368.10	145.11
368.30	135.75
368.49	88.94
368.69	121.71
368.89	152.13
369.09	156.82
369.28	173.20
369.48	208.31
369.68	177.88
369.87	163.84
370.07	236.39
370.27	184.90
370.47	358.10
370.66	580.45
370.86	587.47
371.06	648.33
371.25	704.50
371.45	692.80
371.65	697.48
371.84	690.46
372.04	692.80
372.24	662.37
372.44	634.29
372.63	828.55
372.83	702.16
373.03	734.93
373.22	730.25
373.42	772.38
373.62	814.51
373.81	753.65
374.01	800.46
374.21	896.43
374.40	793.44
374.60	823.87
374.79	741.95
374.99	835.57
375.19	901.11
375.38	828.55
375.58	877.70
375.78	943.24
375.97	840.25
376.17	875.36
376.37	940.90
376.56	898.77
376.76	858.98
376.95	875.36
377.15	875.36
377.35	922.17
377.54	912.81
377.74	910.47
377.93	950.26
378.13	880.04
378.33	1015.79
378.52	992.39
378.72	945.58
378.91	847.27
379.11	833.23
379.31	978.34
379.50	880.04
379.70	1057.92
379.89	1004.09
380.09	980.68
380.28	997.07
380.48	1043.88
380.68	964.30
380.87	924.51
381.07	985.37
381.26	1102.39
381.46	959.62
381.65	959.62
381.85	1095.37
382.04	1046.22
382.24	1020.47
382.43	1076.65
382.63	1015.79
382.83	1029.84
383.02	1076.65
383.22	1156.22
383.41	1015.79
383.61	1090.69
383.80	1132.82
384.00	1132.82
384.19	1142.18
384.39	1163.25
384.58	1170.27
384.78	1144.52
384.97	1203.04
385.17	1193.67
385.36	1167.93
385.56	1125.80
385.75	1149.20
385.95	1163.25
386.14	1102.39
386.34	1252.19
386.53	1228.78
386.72	1191.33
386.92	1198.35
387.11	1177.29
387.31	1254.53
387.50	1170.27
387.70	1273.25
387.89	1249.85
388.09	1249.85
388.28	1345.81
388.48	1331.76
388.67	1336.45
388.86	1383.26
389.06	1217.08
389.25	1331.76
389.45	1334.11
389.64	1287.29
389.84	1355.17
390.03	1371.55
390.22	1380.92
390.42	1334.11
390.61	1430.07
390.81	1427.73
391.00	1348.15
391.19	1462.83
391.39	1547.09
391.58	1493.26
391.78	1465.18
391.97	1535.39
392.16	1441.77
392.36	1472.20
392.55	1481.56
392.75	1533.05
392.94	1600.93
393.13	1526.03
393.33	1621.99
393.52	1500.28
393.71	1619.65
393.91	1446.45
394.10	1549.43
394.29	1582.20
394.49	1631.35
394.68	1664.12
394.88	1671.14
395.07	1753.06
395.26	1689.87
395.46	1650.08
395.65	1661.78
395.84	1720.29
396.04	1867.75
396.23	1621.99
396.42	1708.59
396.62	1694.55
396.81	1755.40
397.00	1769.44
397.19	1856.04
397.39	1781.15
397.58	1865.41
397.77	1874.77
397.97	1816.26
398.16	1846.68
398.35	1837.32
398.55	1860.73
398.74	1909.88
398.93	1935.62
399.12	1893.49
399.32	1973.07
399.51	1933.28
399.70	1989.46
399.90	1944.99
400.09	1998.82
400.28	2090.10
400.47	2073.71
400.67	2003.50
400.86	2052.65
401.05	2036.27
401.24	2106.48
401.44	2092.44
401.63	2120.53
401.82	2176.70
402.01	2094.78
402.21	2155.63
402.40	2221.17
402.59	2200.10
402.78	2218.83
402.97	2237.55
403.17	2228.19
403.36	2246.91
403.55	2204.78
403.74	2270.32
403.93	2310.11
404.13	2415.43
404.32	2305.43
404.51	2448.20
404.70	2434.16
404.89	2321.81
405.09	2417.77
405.28	2436.50
405.47	2438.84
405.66	2480.97
405.85	2497.35
406.05	2562.89
406.24	2586.29
406.43	2581.61
406.62	2628.42
406.81	2710.34
407.00	2597.99
407.20	2628.42
407.39	2574.59
407.58	2827.37
407.77	2684.59
407.96	2722.04
408.15	2764.17
408.34	2796.94
408.54	2810.98
408.73	2834.39
408.92	2675.23
409.11	2736.09
409.30	2897.58
409.49	2810.98
409.68	2897.58
409.87	2913.97
410.07	3007.59
410.26	2981.84
410.45	3023.97
410.64	2963.12
410.83	3070.78
411.02	3208.87
411.21	3021.63
411.40	3047.38
411.59	3243.98
411.78	3150.36
411.98	3220.58
412.17	3243.98
412.36	3339.94
412.55	3302.50
412.74	3442.93
412.93	3288.45
413.12	3281.43
413.31	3468.67
413.50	3286.11
413.69	3616.13
413.88	3499.10
414.07	3543.57
414.26	3463.99
414.45	3644.21
414.64	3599.74
414.83	3691.02
415.02	3889.97
415.22	3768.26
415.41	3831.46
415.60	3824.44
415.79	3705.07
415.98	3758.90
416.17	4035.08
416.36	3864.22
416.55	3997.64
416.74	4149.77
416.93	3932.10
417.12	4016.36
417.31	4182.54
417.50	4205.94
417.69	4322.97
417.88	4262.12
418.07	4271.48
418.26	4219.99
418.45	4266.80
418.64	4409.57
418.83	4461.06
419.02	4318.29
419.21	4458.72
419.39	4430.63
419.58	4360.42
419.77	4479.79
419.96	4472.76
420.15	4505.53
420.34	4538.30
420.53	4519.57
420.72	4664.69
420.91	4634.26
421.10	4674.05
421.29	4667.03
421.48	4702.14
421.67	4891.72
421.86	4706.82
422.05	4809.80
422.24	4807.46
422.43	4837.89
422.61	4968.96
422.80	4887.04
422.99	4884.70
423.18	4908.10
423.37	5034.49
423.56	4938.53
423.75	4882.36
423.94	4959.60
424.13	4400.21
424.32	4737.24
424.50	4706.82
424.69	5020.45
424.88	5097.69
425.07	4905.76
425.26	4952.57
425.45	4908.10
425.64	4858.95
425.83	4971.30
426.01	4994.70
426.20	5090.67
426.39	4978.32
426.58	4779.37
426.77	5034.49
426.96	5043.85
427.15	5036.83
427.33	5104.71
427.52	5041.51
427.71	5247.48
427.90	5195.99
428.09	5287.27
428.28	5170.24
428.46	5416.00
428.65	5273.23
428.84	5430.04
429.03	5547.07
429.22	5172.58
429.40	5420.68
429.59	5406.64
429.78	5156.20
429.97	5322.38
430.16	5465.15
430.34	5685.16
430.53	5614.95
430.72	5582.18
430.91	5511.96
431.10	5488.56
431.28	5750.70
431.47	5743.67
431.66	5839.64
431.85	5696.86
432.03	5776.44
432.22	6094.76
432.41	5858.36
432.60	5834.96
432.79	5837.30
432.97	6057.31
433.16	5860.70
433.35	6069.01
433.54	6064.33
433.72	6125.18
433.91	6047.94
434.10	6017.52
434.28	5994.11
434.47	6097.10
434.66	6083.05
434.85	6256.25
435.03	6270.30
435.22	6331.15
435.41	6483.28
435.59	6396.68
435.78	6448.18
435.97	6387.32
436.16	6225.82
436.34	6326.47
436.53	6518.39
436.72	6752.45
436.90	6614.35
437.09	6492.65
437.28	6424.77
437.46	6480.94
437.65	6544.14
437.84	6752.45
438.02	6686.91
438.21	6736.06
438.40	6672.87
438.58	7002.88
438.77	6986.50
438.96	6707.98
439.14	7002.88
439.33	7208.85
439.52	7346.94
439.70	7185.44
439.89	7321.20
440.08	7358.64
440.26	7314.17
440.45	7428.86
440.63	7489.71
440.82	7396.09
441.01	7543.55
441.19	7501.42
441.38	7646.53
441.57	7634.83
441.75	7541.21
441.94	8002.29
442.12	7927.39
442.31	7875.90
442.50	8016.33
442.68	7875.90
442.87	7999.95
443.05	7892.29
443.24	8138.04
443.43	8067.83
443.61	8128.68
443.80	8219.96
443.98	7922.71
444.17	7775.26
444.35	8367.42
444.54	8060.80
444.73	8262.09
444.91	8383.80
445.10	8259.75
445.28	8376.78
445.47	8428.27
445.65	8339.33
445.84	8369.76
446.02	8580.40
446.21	8262.09
446.39	8390.82
446.58	8564.02
446.77	8477.42
446.95	8215.28
447.14	8222.30
447.32	8397.84
447.51	8521.89
447.69	8271.45
447.88	8437.63
448.06	8486.78
448.25	8589.77
448.43	8498.49
448.62	8713.81
448.80	8423.59
448.99	8400.18
449.17	8739.56
449.36	8627.21
449.54	8704.45
449.73	8910.42
449.91	8826.16
450.10	8762.97
450.28	8964.25
450.46	9078.94
450.65	9025.11
450.83	9195.96
451.02	8985.32
451.20	9198.31
451.39	9097.66
451.57	9100.00
451.76	8865.95
451.94	9179.58
452.13	9399.59
452.31	9011.06
452.49	9036.81
452.68	9212.35
452.86	9254.48
453.05	9186.60
453.23	9261.50
453.42	9385.55
453.60	9284.91
453.78	9530.66
453.97	9446.40
454.15	9392.57
454.34	9518.96
454.52	9706.20
454.70	9635.99
454.89	9462.79
455.07	9591.52
455.26	9650.03
455.44	9877.06
455.62	9984.73
455.81	9888.76
455.99	9872.38
456.17	9738.97
456.36	10127.50
456.54	9921.53
456.73	10314.74
456.91	10345.17
457.09	10492.62
457.28	10469.22
457.46	10108.77
457.64	10466.88
457.83	10579.22
458.01	10293.68
458.19	10527.73
458.38	10413.04
458.56	10726.68
458.74	10721.99
458.93	10892.85
459.11	10595.61
459.29	10569.86
459.48	10881.15
459.66	10729.02
459.84	10775.83
460.03	10967.75
460.21	10668.16
460.39	10792.21
460.57	10824.98
460.76	10906.90
460.94	11117.54
461.12	11061.37
461.31	11112.86
461.49	11077.76
461.67	11077.76
461.85	11173.72
462.04	11295.43
462.22	11838.43
462.40	11637.14
462.59	11501.39
462.77	11576.29
462.95	11552.88
463.13	11529.48
463.32	11201.80
463.50	11508.41
463.68	11475.65
463.86	11445.22
464.05	11470.97
464.23	11569.27
464.41	11955.46
464.59	11627.78
464.78	11885.24
464.96	11899.28
465.14	11726.08
465.32	11768.21
465.50	11859.49
465.69	12105.25
465.87	12198.87
466.05	12056.10
466.23	11948.43
466.41	12126.32
466.60	12250.36
466.78	12231.64
466.96	12053.76
467.14	12219.94
467.32	12105.25
467.51	12634.21
467.69	11901.62
467.87	12248.02
468.05	12507.82
468.23	12470.37
468.41	12233.98
468.60	12472.71
468.78	12784.01
468.96	12662.30
469.14	12765.28
469.32	12931.46
469.50	12695.07
469.69	12823.80
469.87	13032.10
470.05	13006.36
470.23	13008.70
470.41	13022.74
470.59	13408.93
470.77	13107.00
470.95	13266.16
471.14	13439.36
471.32	13055.51
471.50	13547.02
471.68	13390.20
471.86	13514.25
472.04	13767.03
472.22	14026.83
472.40	13673.41
472.58	13675.75
472.77	13848.95
472.95	13858.31
473.13	14480.89
473.31	13930.87
473.49	14052.58
473.67	14073.64
473.85	14171.94
474.03	14633.03
474.21	14633.03
474.39	14974.75
474.57	14637.71
474.75	14628.35
474.93	14888.15
475.12	14923.26
475.30	15080.07
475.48	14895.17
475.66	15073.05
475.84	14965.39
476.02	15456.90
476.20	15272.00
476.38	15606.69
476.56	15791.59
476.74	15777.55
476.92	15702.65
477.10	15702.65
477.28	16196.51
477.46	16020.97
477.64	16119.27
477.82	16526.52
478.00	16751.21
478.18	16842.50
478.36	16884.62
478.54	17055.48
478.72	17132.72
478.90	17385.50
479.08	17504.87
479.26	17252.09
479.44	17612.53
479.62	17752.96
479.80	17834.88
479.98	18237.45
480.16	18551.09
480.34	18059.57
480.52	18260.86
480.70	18436.40
480.88	18422.36
481.06	18642.37
481.24	18743.01
481.41	19302.40
481.59	19096.43
481.77	19527.09
481.95	19349.21
482.13	19609.01
482.31	19351.55
482.49	20107.54
482.67	19719.01
482.85	20252.66
483.03	20273.72
483.21	20372.02
483.39	20863.54
483.57	20788.64
483.74	20556.93
483.92	20896.30
484.10	20713.74
484.28	21252.06
484.46	21687.40
484.64	21729.53
484.82	21909.75
485.00	21741.24
485.18	22691.49
485.35	23016.83
485.53	22796.82
485.71	22794.48
485.89	23293.01
486.07	23370.25
486.25	23185.35
486.43	23496.64
486.61	23594.94
486.78	23838.36
486.96	24301.78
487.14	24343.91
487.32	24386.04
487.50	24938.41
487.68	24851.81
487.85	24599.03
488.03	25322.26
488.21	25727.17
488.39	25507.16
488.57	25874.62
488.75	25989.31
488.92	26211.66
489.10	26630.62
489.28	26382.52
489.46	26588.49
489.64	26890.41
489.81	27208.73
489.99	27672.15
490.17	27513.00
490.35	27653.43
490.53	28102.81
490.70	28194.09
490.88	28194.09
491.06	28577.94
491.24	28491.34
491.41	28802.63
491.59	29046.05
491.77	28854.12
491.95	29233.29
492.13	29890.98
492.30	29738.85
492.48	30143.76
492.66	29921.41
492.84	29996.31
493.01	30267.81
493.19	30419.94
493.37	31087.00
493.54	30855.28
493.72	31253.17
493.90	31126.78
494.08	31391.26
494.25	31894.48
494.43	31828.95
494.61	31779.79
494.79	32229.18
494.96	32505.36
495.14	32708.99
495.32	32753.46
495.49	32755.80
495.67	33408.81
495.85	33181.77
496.02	33715.42
496.20	33682.65
496.38	34040.75
496.55	34188.21
496.73	34490.13
496.91	34068.84
497.09	34679.72
497.26	34717.17
497.44	34597.80
497.62	34672.70
497.79	35468.48
497.97	35232.08
498.14	35838.28
498.32	35861.69
498.50	35936.59
498.67	36488.95
498.85	35882.75
499.03	36524.06
499.20	36685.56
499.38	36783.86
499.56	37240.26
499.73	36718.32
499.91	36793.22
500.08	37160.69
500.26	36879.82
500.44	37598.37
500.61	37380.70
500.79	37446.23
500.97	38101.58
501.14	38309.89
501.32	38007.96
501.49	38330.95
501.67	38213.93
501.84	38403.51
502.02	38876.30
502.20	38658.63
502.37	38850.55
502.55	38880.98
502.72	38721.82
502.90	39445.05
503.07	39131.42
503.25	39452.07
503.43	39295.25
503.60	39442.71
503.78	40009.12
503.95	39903.79
504.13	40322.75
504.30	40027.84
504.48	40247.85
504.65	40629.36
504.83	40627.02
505.01	40942.99
505.18	40854.05
505.36	41261.30
505.53	40842.35
505.71	41476.63
505.88	41642.81
506.06	41095.13
506.23	41689.62
506.41	41347.90
506.58	41418.12
506.76	41825.37
506.93	42071.13
507.11	41661.54
507.28	41951.76
507.46	42394.12
507.63	42775.63
507.81	42630.52
507.98	42473.70
508.16	42513.49
508.33	43461.41
508.50	43119.69
508.68	43079.90
508.85	43323.32
509.03	43005.00
509.20	43725.89
509.38	43866.32
509.55	43653.33
509.73	44566.14
509.90	44273.57
510.08	44343.79
510.25	43887.39
510.42	44432.73
510.60	44694.87
510.77	45151.27
510.95	45202.77
511.12	45013.18
511.30	45118.51
511.47	44727.64
511.64	45174.68
511.82	45593.64
511.99	45205.11
512.17	45698.96
512.34	45294.05
512.51	46150.68
512.69	46246.65
512.86	46155.36
513.04	46417.50
513.21	46351.97
513.38	46595.38
513.56	46859.87
513.73	46340.27
513.90	46691.35
514.08	46806.03
514.25	46794.33
514.43	47150.09
514.60	47129.03
514.77	47430.96
514.95	47454.36
515.12	47393.51
515.29	47150.09
515.47	47760.97
515.64	47697.78
515.81	47690.76
515.99	47847.57
516.16	47983.32
516.33	47840.55
516.51	48212.70
516.68	48027.79
516.85	47878.00
517.03	48252.48
517.20	48428.02
517.37	48439.73
517.54	48336.74
517.72	48994.43
517.89	48655.06
518.06	48919.54
518.24	48879.75
518.41	48797.83
518.58	49083.37
518.75	48959.33
518.93	49446.16
519.10	49347.86
519.27	49647.44
519.45	49605.31
519.62	49722.34
519.79	49521.05
519.96	49918.95
520.14	49743.41
520.31	49806.60
520.48	50138.96
520.65	50188.11
520.83	50452.59
521.00	50829.41
521.17	50160.02
521.34	50267.69
521.52	50600.04
521.69	50401.10
521.86	50806.01
522.03	51150.07
522.20	51096.24
522.38	51175.81
522.55	51004.95
522.72	51040.06
522.89	50876.22
523.07	51257.73
523.24	51103.26
523.41	51196.88
523.58	51271.78
523.75	51704.77
523.92	51821.80
524.10	51676.69
524.27	51889.68
524.44	51819.46
524.61	52004.36
524.78	51770.31
524.96	51789.03
525.13	52062.88
525.30	52367.15
525.47	52322.68
525.64	51824.14
525.81	52336.72
525.98	52217.35
526.16	52329.70
526.33	52648.01
526.50	52795.46
526.67	52530.98
526.84	52746.31
527.01	52575.45
527.18	52479.49
527.36	52898.45
527.53	53003.77
527.70	53333.79
527.87	53258.89
528.04	53193.36
528.21	53244.85
528.38	53160.59
528.55	53244.85
528.72	53043.56
528.89	53294.00
529.07	53413.37
529.24	53090.37
529.41	53553.80
529.58	53404.00
529.75	53677.85
529.92	53518.69
530.09	53467.20
530.26	53546.78
530.43	53804.24
530.60	53481.24
530.77	53764.45
530.94	53820.62
531.11	53787.85
531.28	53858.07
531.46	54099.14
531.63	54033.61
531.80	54085.10
531.97	54120.21
532.14	54291.07
532.31	54520.44
532.48	54185.74
532.65	54583.63
532.82	53979.78
532.99	54424.48
533.16	54705.34
533.33	54578.95
533.50	54553.21
533.67	54499.37
533.84	54543.84
534.01	54651.51
534.18	54808.32
534.35	54885.56
534.52	54911.31
534.69	55063.44
534.86	55304.52
535.03	54731.09
535.20	54794.28
535.37	55082.17
535.54	55248.35
535.71	54873.86
535.88	55051.74
536.05	55440.27
536.22	55461.33
536.38	55419.20
536.55	55384.10
536.72	55269.41
536.89	55463.67
537.06	55157.06
537.23	55601.77
537.40	55372.39
537.57	55297.50
537.74	55475.38
537.91	55688.37
538.08	55473.04
538.25	55456.65
538.42	55683.69
538.59	56076.90
538.75	55458.99
538.92	55498.78
539.09	56093.28
539.26	55964.55
539.43	55819.44
539.60	55997.32
539.77	55910.72
539.94	56427.98
540.11	56149.45
540.28	56100.30
540.44	56502.87
540.61	56334.35
540.78	56044.13
540.95	56383.51
541.12	56217.33
541.29	56203.28
541.46	56425.64
541.62	56453.72
541.79	56493.51
541.96	56182.22
542.13	56301.59
542.30	56427.98
542.47	56610.54
542.63	56598.83
542.80	56746.29
542.97	57013.11
543.14	56718.20
543.31	56938.21
543.48	57036.51
543.64	57123.11
543.81	57270.57
543.98	57151.20
544.15	57146.52
544.32	57095.03
544.48	57172.27
544.65	57186.31
544.82	57329.08
544.99	57078.64
545.16	57172.27
545.32	57233.12
545.49	57235.46
545.66	57326.74
545.83	57467.17
546.00	57513.98
546.16	57382.91
546.33	57396.96
546.50	57116.09
546.67	57776.12
546.83	57279.93
547.00	57640.37
547.17	57556.11
547.34	57762.08
547.50	57666.12
547.67	57804.21
547.84	57984.43
548.00	57970.39
548.17	58225.51
548.34	57794.85
548.51	57939.96
548.67	57949.32
548.84	57762.08
549.01	58099.12
549.18	57804.21
549.34	58024.22
549.51	58202.10
549.68	58281.68
549.84	58085.07
550.01	58085.07
550.18	57977.41
550.34	58120.18
550.51	58288.70
550.68	58237.21
550.84	58234.87
551.01	58197.42
551.18	58506.37
551.34	58272.32
551.51	58349.56
551.68	58443.18
551.84	58377.64
552.01	58159.97
552.18	58473.60
552.34	58426.79
552.51	58595.31
552.68	58244.23
552.84	58459.56
553.01	58803.62
553.18	58719.36
553.34	58815.32
553.51	58525.10
553.67	58501.69
553.84	58822.34
554.01	58890.22
554.17	58794.26
554.34	58953.41
554.51	58787.24
554.67	58784.90
554.84	58789.58
555.00	58794.26
555.17	58796.60
555.33	58693.61
555.50	58829.37
555.67	58599.99
555.83	58763.83
556.00	58843.41
556.16	59114.91
556.33	59030.65
556.50	59004.91
556.66	59164.06
556.83	58915.96
556.99	59238.96
557.16	59192.15
557.32	59386.41
557.49	59487.06
557.65	59079.80
557.82	59353.65
557.98	59229.60
558.15	59131.29
558.32	59278.75
558.48	59344.28
558.65	59442.59
558.81	59281.09
558.98	59573.66
559.14	59407.48
559.31	59379.39
559.47	59498.76
559.64	59587.70
559.80	59400.46
559.97	59487.06
560.13	59571.32
560.30	59451.95
560.46	59325.56
560.63	59732.81
560.79	59477.69
560.96	59786.64
561.12	59805.37
561.29	59484.72
561.45	59695.36
561.61	59543.23
561.78	59709.41
561.94	59655.57
562.11	59746.86
562.27	59707.07
562.44	59833.46
562.60	59898.99
562.77	59751.54
562.93	59786.64
563.10	60027.72
563.26	59877.93
563.42	60013.68
563.59	59887.29
563.75	59812.39
563.92	59721.11
564.08	59807.71
564.24	60067.51
564.41	59971.55
564.57	60058.15
564.74	59847.50
564.90	59969.21
565.07	59877.93
565.23	59854.52
565.39	59973.89
565.56	59992.61
565.72	60027.72
565.88	60011.34
566.05	59990.27
566.21	60095.60
566.38	60048.78
566.54	60069.85
566.70	60130.70
566.87	60006.65
567.03	60144.75
567.19	60144.75
567.36	60193.90
567.52	60111.98
567.68	60413.91
567.85	60257.09
568.01	60207.94
568.17	59987.93
568.34	60472.42
568.50	60076.87
568.66	60210.28
568.83	60144.75
568.99	60072.19
569.15	60420.93
569.32	60289.86
569.48	60226.66
569.64	60420.93
569.81	60203.26
569.97	59929.42
570.13	60413.91
570.30	60301.56
570.46	60388.16
570.62	60336.67
570.78	60250.07
570.95	60303.90
571.11	60441.99
571.27	60282.84
571.43	60233.69
571.60	60533.28
571.76	60327.31
571.92	60231.35
572.09	60507.53
572.25	60254.75
572.41	60416.25
572.57	60364.76
572.74	60493.49
572.90	60561.36
573.06	60465.40
573.22	60526.25
573.38	60591.79
573.55	60502.85
573.71	60631.58
573.87	60636.26
574.03	60294.54
574.20	60493.49
574.36	60465.40
574.52	60652.64
574.68	60711.16
574.84	60736.90
575.01	60449.02
575.17	60629.24
575.33	60505.19
575.49	60528.59
575.65	60704.13
575.82	60589.45
575.98	60757.97
576.14	60683.07
576.30	60687.75
576.46	60362.42
576.62	60629.24
576.79	60542.64
576.95	60432.63
577.11	60818.82
577.27	60540.30
577.43	60741.58
577.59	60598.81
577.75	60610.51
577.92	60507.53
578.08	60657.32
578.24	60596.47
578.40	60783.71
578.56	60811.80
578.72	60678.39
578.88	60755.63
579.04	60830.52
579.21	60657.32
579.37	60701.79
579.53	60935.85
579.69	60479.44
579.85	60603.49
580.01	60654.98
580.17	60486.46
580.33	60919.46
580.49	60795.42
580.65	60610.51
580.82	60594.13
580.98	60764.99
581.14	60507.53
581.30	60816.48
581.46	60945.21
581.62	60947.55
581.78	60678.39
581.94	60762.65
582.10	60800.10
582.26	60800.10
582.42	60680.73
582.58	60694.77
582.74	60877.33
582.90	60757.97
583.06	60793.07
583.22	60790.73
583.38	60825.84
583.54	60755.63
583.70	60912.44
583.86	60879.67
584.02	60671.37
584.18	61024.79
584.34	60996.70
584.50	60865.63
584.66	60811.80
584.82	60692.43
584.98	60961.59
585.14	60940.53
585.30	60671.37
585.46	60863.29
585.62	60935.85
585.78	61048.19
585.94	60774.35
586.10	60853.93
586.26	60786.05
586.42	60921.80
586.58	61059.90
586.74	60788.39
586.90	60832.86
587.06	60800.10
587.22	60900.74
587.38	60772.01
587.54	61022.45
587.70	60935.85
587.86	60753.29
588.02	60963.93
588.18	60987.34
588.34	60921.80
588.49	60891.38
