SpectraSuite Data File
++++++++++++++++++++++++++++++++++++
Date: Fri Oct 25 10:43:46 EDT 2013
User: price-jones
Dark Spectrum Present: No
Reference Spectrum Present: No
Number of Sampled Component Spectra: 1
Spectrometers: USB2+H05261
Integration Time (usec): 100000 (USB2+H05261)
Spectra Averaged: 1 (USB2+H05261)
Boxcar Smoothing: 0 (USB2+H05261)
Correct for Electrical Dark: No (USB2+H05261)
Strobe/Lamp Enabled: No (USB2+H05261)
Correct for Detector Non-linearity: No (USB2+H05261)
Correct for Stray Light: No (USB2+H05261)
Number of Pixels in Processed Spectrum: 2048
>>>>>Begin Processed Spectral Data<<<<<
365.73	105.32
365.92	105.32
366.12	105.32
366.32	37.45
366.52	0.00
366.72	98.30
366.91	81.92
367.11	81.92
367.31	58.51
367.51	0.00
367.70	0.00
367.90	81.92
368.10	60.85
368.30	67.88
368.49	0.00
368.69	93.62
368.89	11.70
369.09	23.41
369.28	70.22
369.48	49.15
369.68	98.30
369.87	56.17
370.07	91.28
370.27	114.69
370.47	121.71
370.66	402.57
370.86	470.45
371.06	418.96
371.25	510.24
371.45	433.00
371.65	423.64
371.84	512.58
372.04	418.96
372.24	521.94
372.44	463.43
372.63	519.60
372.83	535.98
373.03	533.64
373.22	566.41
373.42	500.87
373.62	498.53
373.81	512.58
374.01	526.62
374.21	573.43
374.40	517.26
374.60	550.03
374.79	547.69
374.99	575.77
375.19	528.96
375.38	592.16
375.58	521.94
375.78	620.24
375.97	519.60
376.17	660.03
376.37	564.07
376.56	641.31
376.76	629.60
376.95	564.07
377.15	641.31
377.35	594.50
377.54	634.29
377.74	746.63
377.93	617.90
378.13	660.03
378.33	671.73
378.52	622.58
378.72	596.84
378.91	620.24
379.11	629.60
379.31	660.03
379.50	697.48
379.70	699.82
379.89	631.94
380.09	641.31
380.28	685.78
380.48	748.97
380.68	704.50
380.87	716.20
381.07	643.65
381.26	805.14
381.46	706.84
381.65	681.10
381.85	758.33
382.04	641.31
382.24	765.36
382.43	641.31
382.63	692.80
382.83	805.14
383.02	657.69
383.22	765.36
383.41	706.84
383.61	784.08
383.80	786.42
384.00	718.54
384.19	875.36
384.39	781.74
384.58	699.82
384.78	748.97
384.97	791.10
385.17	812.17
385.36	800.46
385.56	798.12
385.75	786.42
385.95	828.55
386.14	851.96
386.34	772.38
386.53	779.40
386.72	711.52
386.92	849.61
387.11	987.71
387.31	915.15
387.50	863.66
387.70	891.74
387.89	847.27
388.09	896.43
388.28	849.61
388.48	847.27
388.67	894.08
388.86	964.30
389.06	994.73
389.25	964.30
389.45	908.13
389.64	1015.79
389.84	1067.28
390.03	1039.20
390.22	959.62
390.42	987.71
390.61	978.34
390.81	1001.75
391.00	959.62
391.19	980.68
391.39	1102.39
391.58	1046.22
391.78	990.05
391.97	1020.47
392.16	987.71
392.36	1036.86
392.55	971.32
392.75	985.37
392.94	922.17
393.13	1022.81
393.33	929.19
393.52	1006.43
393.71	1020.47
393.91	1032.18
394.10	1100.05
394.29	1137.50
394.49	1177.29
394.68	1116.44
394.88	1228.78
395.07	1214.74
395.26	1156.22
395.46	1205.38
395.65	1249.85
395.84	1170.27
396.04	1228.78
396.23	1210.06
396.42	1128.14
396.62	1235.80
396.81	1219.42
397.00	1254.53
397.19	1228.78
397.39	1275.59
397.58	1287.29
397.77	1306.02
397.97	1430.07
398.16	1430.07
398.35	1383.26
398.55	1469.86
398.74	1460.49
398.93	1561.14
399.12	1504.96
399.32	1383.26
399.51	1481.56
399.70	1474.54
399.90	1507.30
400.09	1572.84
400.28	1500.28
400.47	1502.62
400.67	1643.06
400.86	1558.80
401.05	1685.19
401.24	1643.06
401.44	1647.74
401.63	1577.52
401.82	1626.67
402.01	1617.31
402.21	1638.38
402.40	1661.78
402.59	1762.42
402.78	1631.35
402.97	1650.08
403.17	1748.38
403.36	1802.21
403.55	1750.72
403.74	1806.89
403.93	1898.17
404.13	1849.02
404.32	1790.51
404.51	1797.53
404.70	1874.77
404.89	1907.54
405.09	1942.64
405.28	1846.68
405.47	1879.45
405.66	2015.20
405.85	2017.54
406.05	1900.52
406.24	1930.94
406.43	2015.20
406.62	2033.93
406.81	2015.20
407.00	1930.94
407.20	1977.75
407.39	2083.08
407.58	2087.76
407.77	2099.46
407.96	2150.95
408.15	2092.44
408.34	2190.74
408.54	2162.66
408.73	2209.47
408.92	2244.57
409.11	2218.83
409.30	2265.64
409.49	2214.15
409.68	2263.30
409.87	2296.07
410.07	2324.15
410.26	2345.22
410.45	2246.91
410.64	2282.02
410.83	2518.42
411.02	2424.80
411.21	2567.57
411.40	2513.74
411.59	2523.10
411.78	2600.34
411.98	2581.61
412.17	2672.89
412.36	2668.21
412.55	2588.63
412.74	2693.96
412.93	2684.59
413.12	2722.04
413.31	2778.22
413.50	2686.94
413.69	2644.81
413.88	2822.69
414.07	2848.43
414.26	2897.58
414.45	2888.22
414.64	3014.61
414.83	2916.31
415.02	2916.31
415.22	3005.25
415.41	2965.46
415.60	3052.06
415.79	3171.43
415.98	3281.43
416.17	3309.52
416.36	3176.11
416.55	3222.92
416.74	3178.45
416.93	3056.74
417.12	3173.77
417.31	3239.30
417.50	3229.94
417.69	3300.16
417.88	3353.99
418.07	3239.30
418.26	3304.84
418.45	3428.88
418.64	3494.42
418.83	3503.78
419.02	3548.25
419.21	3410.16
419.39	3506.12
419.58	3494.42
419.77	3510.80
419.96	3674.64
420.15	3641.87
420.34	3630.17
420.53	3665.28
420.72	3660.60
420.91	3929.76
421.10	3751.88
421.29	3892.31
421.48	3833.80
421.67	3843.16
421.86	3658.26
422.05	3676.98
422.24	3789.33
422.43	3791.67
422.61	3705.07
422.80	3838.48
422.99	3878.27
423.18	3826.78
423.37	3840.82
423.56	3779.97
423.75	3922.74
423.94	3765.92
424.13	3468.67
424.32	3705.07
424.50	3812.73
424.69	3967.21
424.88	4091.26
425.07	3960.19
425.26	3831.46
425.45	3705.07
425.64	3794.01
425.83	3791.67
426.01	3999.98
426.20	3896.99
426.39	3969.55
426.58	3939.12
426.77	3943.80
426.96	3922.74
427.15	3875.93
427.33	3943.80
427.52	3943.80
427.71	4086.58
427.90	4065.51
428.09	4140.41
428.28	4091.26
428.46	4149.77
428.65	4189.56
428.84	4166.15
429.03	4187.22
429.22	3915.72
429.40	3981.25
429.59	4032.74
429.78	3981.25
429.97	3843.16
430.16	4035.08
430.34	4238.71
430.53	3988.27
430.72	4105.30
430.91	4187.22
431.10	4142.75
431.28	4444.68
431.47	4491.49
431.66	4418.93
431.85	4442.34
432.03	4456.38
432.22	4601.49
432.41	4533.62
432.60	4482.13
432.79	4758.31
432.97	4720.86
433.16	4566.39
433.35	4585.11
433.54	4552.34
433.72	4702.14
433.91	4685.75
434.10	4774.69
434.28	4706.82
434.47	4723.20
434.66	4851.93
434.85	4915.12
435.03	4819.16
435.22	4896.40
435.41	5107.05
435.59	4940.87
435.78	5139.82
435.97	5151.52
436.16	5093.01
436.34	5041.51
436.53	5097.69
436.72	5118.75
436.90	4917.47
437.09	4980.66
437.28	4985.34
437.46	4936.19
437.65	5121.09
437.84	4973.64
438.02	4840.23
438.21	5174.92
438.40	4940.87
438.58	5116.41
438.77	5233.44
438.96	5341.10
439.14	5430.04
439.33	5355.15
439.52	5568.13
439.70	5329.40
439.89	5591.54
440.08	5626.65
440.26	5603.24
440.45	5708.57
440.63	5797.51
440.82	5870.06
441.01	5834.96
441.19	5746.02
441.38	6024.54
441.57	5994.11
441.75	6019.86
441.94	6242.21
442.12	6195.40
442.31	6342.85
442.50	6218.80
442.68	6148.59
442.87	6218.80
443.05	6139.23
443.24	6361.58
443.43	6420.09
443.61	6384.98
443.80	6354.55
443.98	6193.06
444.17	6256.25
444.35	6349.87
444.54	6438.81
444.73	6408.39
444.91	6284.34
445.10	6038.58
445.28	6232.85
445.47	6282.00
445.65	6204.76
445.84	6375.62
446.02	6324.13
446.21	6363.92
446.39	6553.50
446.58	6441.15
446.77	6377.96
446.95	6567.54
447.14	6441.15
447.32	6654.14
447.51	6572.22
447.69	6553.50
447.88	6595.63
448.06	6485.62
448.25	6473.92
448.43	6511.37
448.62	6464.56
448.80	6693.93
448.99	6574.56
449.17	6640.10
449.36	6810.96
449.54	6853.09
449.73	6974.80
449.91	6942.03
450.10	7000.54
450.28	7030.97
450.46	6899.90
450.65	6944.37
450.83	7075.44
451.02	7033.31
451.20	6920.96
451.39	7211.19
451.57	7213.53
451.76	7042.67
451.94	7166.72
452.13	7073.10
452.31	7087.14
452.49	6892.88
452.68	7101.19
452.86	7082.46
453.05	7155.02
453.23	7101.19
453.42	7117.57
453.60	7101.19
453.78	7288.43
453.97	7321.20
454.15	7162.04
454.34	7117.57
454.52	7332.90
454.70	7155.02
454.89	7400.77
455.07	7515.46
455.26	7454.61
455.44	7630.15
455.62	7632.49
455.81	7698.02
455.99	7665.25
456.17	7709.72
456.36	7786.96
456.54	7861.86
456.73	7946.12
456.91	7911.01
457.09	7779.94
457.28	8042.08
457.46	7990.59
457.64	7906.33
457.83	7882.92
458.01	7623.12
458.19	8070.17
458.38	8131.02
458.56	8016.33
458.74	8166.13
458.93	8006.97
459.11	8088.89
459.29	8056.12
459.48	8236.35
459.66	8194.22
459.84	8149.75
460.03	8121.66
460.21	8152.09
460.39	8437.63
460.57	8198.90
460.76	8470.40
460.94	8493.80
461.12	8554.66
461.31	8442.31
461.49	8407.20
461.67	8313.58
461.85	8730.20
462.04	8720.84
462.22	9100.00
462.40	8847.22
462.59	8615.51
462.77	8896.38
462.95	8652.96
463.13	8617.85
463.32	8552.32
463.50	8856.59
463.68	8725.52
463.86	8840.20
464.05	8805.10
464.23	8823.82
464.41	8985.32
464.59	8795.73
464.78	9039.15
464.96	8779.35
465.14	8720.84
465.32	8980.64
465.50	9186.60
465.69	9109.36
465.87	9174.90
466.05	8997.02
466.23	9055.53
466.41	8957.23
466.60	9022.77
466.78	9060.21
466.96	9130.43
467.14	9081.28
467.32	9413.63
467.51	9217.03
467.69	9121.07
467.87	9249.80
468.05	9273.20
468.23	9296.61
468.41	9406.61
468.60	9202.99
468.78	9404.27
468.96	9336.40
469.14	9446.40
469.32	9668.75
469.50	9158.52
469.69	9547.05
469.87	9708.54
470.05	9870.04
470.23	9598.54
470.41	9488.53
470.59	9757.69
470.77	9722.59
470.95	9685.14
471.14	10001.11
471.32	9816.21
471.50	10029.20
471.68	9973.02
471.86	10150.90
472.04	10232.82
472.22	10333.47
472.40	10216.44
472.58	10228.14
472.77	10195.37
472.95	10509.01
473.13	10796.89
473.31	10274.95
473.49	10340.49
473.67	10347.51
473.85	10785.19
474.03	10700.93
474.21	10621.35
474.39	10787.53
474.57	10846.04
474.75	11061.37
474.93	11126.91
475.12	10771.15
475.30	11201.80
475.48	11082.44
475.66	11178.40
475.84	11166.70
476.02	11265.00
476.20	11197.12
476.38	11431.18
476.56	11655.87
476.74	11569.27
476.92	11480.33
477.10	11758.85
477.28	11576.29
477.46	11716.72
477.64	11915.67
477.82	12140.36
478.00	12547.61
478.18	12329.94
478.36	12423.56
478.54	12486.76
478.72	12580.38
478.90	12674.00
479.08	12865.92
479.26	13008.70
479.44	12821.45
479.62	13055.51
479.80	13029.76
479.98	13142.11
480.16	13432.33
480.34	13324.67
480.52	13486.17
480.70	13366.80
480.88	13441.70
481.06	13638.30
481.24	13776.39
481.41	13958.96
481.59	13998.74
481.77	14204.71
481.95	14324.08
482.13	14239.82
482.31	14251.52
482.49	14534.73
482.67	14506.64
482.85	14703.25
483.03	14902.19
483.21	14916.23
483.39	15204.12
483.57	15044.96
483.74	15393.70
483.92	15618.39
484.10	15176.03
484.28	15452.22
484.46	15761.17
484.64	16013.95
484.82	15948.41
485.00	15815.00
485.18	16205.87
485.35	16219.91
485.53	16025.65
485.71	15934.37
485.89	16208.21
486.07	16336.94
486.25	16311.19
486.43	16372.05
486.61	16879.94
486.78	16704.40
486.96	17081.23
487.14	17216.98
487.32	17682.75
487.50	17436.99
487.68	17811.48
487.85	18363.84
488.03	18204.69
488.21	18459.81
488.39	18389.59
488.57	18167.24
488.75	18520.66
488.92	18677.48
489.10	18717.26
489.28	19096.43
489.46	19403.04
489.64	19274.31
489.81	19822.00
489.99	19711.99
490.17	20002.22
490.35	20245.63
490.53	19852.42
490.70	20037.33
490.88	20063.07
491.06	20624.80
491.24	20428.20
491.41	20166.06
491.59	20379.04
491.77	20456.28
491.95	20552.24
492.13	20554.58
492.30	21371.43
492.48	21420.58
492.66	21345.69
492.84	21865.28
493.01	21738.90
493.19	21584.42
493.37	21699.11
493.54	21731.87
493.72	22263.18
493.90	22153.17
494.08	22672.77
494.25	22574.47
494.43	22396.59
494.61	23227.48
494.79	23208.75
494.96	22857.67
495.14	22979.38
495.32	23241.52
495.49	23459.19
495.67	23520.04
495.85	23503.66
496.02	23730.69
496.20	24376.68
496.38	23866.44
496.55	23999.85
496.73	24624.78
496.91	24460.94
497.09	24482.00
497.26	24790.95
497.44	24514.77
497.62	24814.36
497.79	25001.60
497.97	24774.57
498.14	24924.36
498.32	25177.14
498.50	25326.94
498.67	25434.60
498.85	25783.34
499.03	25881.64
499.20	26003.35
499.38	26038.46
499.56	25862.92
499.73	25902.71
499.91	26391.88
500.08	25881.64
500.26	26029.10
500.44	26389.54
500.61	26232.72
500.79	26314.64
500.97	26675.09
501.14	26546.36
501.32	26569.76
501.49	26874.03
501.67	26611.89
501.84	27023.83
502.02	26991.06
502.20	27030.85
502.37	27262.56
502.55	27461.51
502.72	27604.28
502.90	27667.47
503.07	27681.52
503.25	27435.76
503.43	27557.47
503.60	27529.38
503.78	27440.44
503.95	27639.39
504.13	28233.88
504.30	28458.57
504.48	28510.07
504.65	28367.29
504.83	28559.22
505.01	28613.05
505.18	28631.77
505.36	29032.00
505.53	28893.91
505.71	28849.44
505.88	29371.38
506.06	29088.18
506.23	29233.29
506.41	29024.98
506.58	29633.52
506.76	29635.86
506.93	29383.09
507.11	29418.19
507.28	29729.48
507.46	29813.74
507.63	29783.32
507.81	29890.98
507.98	30108.65
508.16	29764.59
508.33	30092.27
508.50	30237.38
508.68	30548.67
508.85	30457.39
509.03	30560.37
509.20	30616.55
509.38	31005.08
509.55	30731.23
509.73	30808.47
509.90	31044.87
510.08	30679.74
510.25	31044.87
510.42	31433.39
510.60	31194.66
510.77	31339.77
510.95	30918.48
511.12	31299.98
511.30	31543.40
511.47	31924.91
511.64	31887.46
511.82	31608.93
511.99	31555.10
512.17	32194.07
512.34	31641.70
512.51	31941.29
512.69	31896.82
512.86	32304.07
513.04	32456.21
513.21	32414.08
513.38	32245.56
513.56	32491.32
513.73	32278.33
513.90	32584.94
514.08	32432.80
514.25	32809.63
514.43	32847.08
514.60	32842.40
514.77	32676.22
514.95	32966.45
515.12	32994.53
515.29	33195.82
515.47	33254.33
515.64	33734.14
515.81	33589.03
515.99	33661.58
516.16	33455.62
516.33	32982.83
516.51	33294.12
516.68	32734.73
516.85	32943.04
517.03	33319.87
517.20	33647.54
517.37	33970.54
517.54	34356.72
517.72	33778.61
517.89	33727.12
518.06	33549.24
518.24	33408.81
518.41	33710.74
518.58	34225.65
518.75	34316.93
518.93	34185.86
519.10	34288.85
519.27	34424.60
519.45	34431.62
519.62	35084.63
519.79	34930.16
519.96	34892.71
520.14	34642.27
520.31	35079.95
520.48	34986.33
520.65	35037.82
520.83	35402.94
521.00	35110.38
521.17	35498.91
521.34	35658.06
521.52	35739.98
521.69	35573.80
521.86	35873.39
522.03	36006.80
522.20	35711.89
522.38	35789.13
522.55	36086.38
522.72	35878.07
522.89	35981.06
523.07	36315.75
523.24	36177.66
523.41	36631.72
523.58	36273.62
523.75	36627.04
523.92	36868.12
524.10	36727.69
524.27	36678.54
524.44	36776.84
524.61	36875.14
524.78	36999.19
524.96	37450.91
525.13	36910.25
525.30	37179.41
525.47	37301.12
525.64	37156.00
525.81	37406.44
525.98	37102.17
526.16	37106.85
526.33	36943.02
526.50	37249.63
526.67	36935.99
526.84	36975.78
527.01	36664.49
527.18	37537.51
527.36	37284.73
527.53	37750.50
527.70	38003.28
527.87	37823.06
528.04	37202.82
528.21	37511.77
528.38	38307.55
528.55	38014.98
528.72	37876.89
528.89	38667.99
529.07	38038.39
529.24	38225.63
529.41	38232.65
529.58	38169.46
529.75	38050.09
529.92	38410.53
530.09	38782.68
530.26	38029.02
530.43	38801.40
530.60	38618.84
530.77	38689.06
530.94	39643.99
531.11	38679.69
531.28	38820.13
531.46	39110.35
531.63	38735.87
531.80	38806.08
531.97	38548.62
532.14	39145.46
532.31	38550.96
532.48	39250.78
532.65	39154.82
532.82	39159.50
532.99	39578.46
533.16	39508.24
533.33	39552.71
533.50	39419.30
533.67	39592.50
533.84	39264.83
534.01	39648.68
534.18	39328.02
534.35	39695.49
534.52	39655.70
534.69	39948.26
534.86	40357.86
535.03	40053.59
535.20	40617.66
535.37	40306.37
535.54	40458.50
535.71	40374.24
535.88	40128.48
536.05	40142.53
536.22	40041.88
536.38	40123.80
536.55	40381.26
536.72	40165.93
536.89	40081.67
537.06	40135.51
537.23	40568.51
537.40	40919.59
537.57	40858.73
537.74	40809.58
537.91	41048.32
538.08	40989.80
538.25	40446.80
538.42	41069.38
538.59	40793.20
538.75	40620.00
538.92	40755.75
539.09	40980.44
539.26	40933.63
539.43	41134.92
539.60	40765.11
539.77	40718.30
539.94	41205.13
540.11	40629.36
540.28	40914.90
540.44	41170.02
540.61	41006.19
540.78	41031.93
540.95	40556.80
541.12	40868.09
541.29	41104.49
541.46	41326.84
541.62	41514.08
541.79	41296.41
541.96	41308.11
542.13	41537.49
542.30	41350.24
542.47	41429.82
542.63	41209.81
542.80	42024.32
542.97	41766.86
543.14	42094.53
543.31	42300.50
543.48	42223.26
543.64	42792.01
543.81	42520.51
543.98	42256.03
544.15	42225.60
544.32	42258.37
544.48	43126.71
544.65	42244.33
544.82	42646.90
544.99	42265.39
545.16	42124.96
545.32	42768.61
545.49	42572.00
545.66	43225.01
545.83	42965.21
546.00	42684.35
546.16	42710.10
546.33	42796.70
546.50	42513.49
546.67	42859.89
546.83	42478.38
547.00	42904.36
547.17	42916.06
547.34	42794.36
547.50	42792.01
547.67	43421.62
547.84	43234.38
548.00	43227.35
548.17	43276.51
548.34	43178.20
548.51	43545.67
548.67	43058.84
548.84	43133.73
549.01	42513.49
549.18	43559.71
549.34	43409.92
549.51	43442.68
549.68	43615.88
549.84	43735.25
550.01	43901.43
550.18	43775.04
550.34	43543.33
550.51	43608.86
550.68	43206.29
550.84	43133.73
551.01	43976.33
551.18	43985.69
551.34	43145.44
551.51	43789.08
551.68	43910.79
551.84	43810.15
552.01	43482.47
552.18	43768.02
552.34	43557.37
552.51	43959.94
552.68	43999.73
552.84	43786.74
553.01	44037.18
553.18	44119.10
553.34	44210.38
553.51	43627.59
553.67	44179.95
553.84	44418.69
554.01	44753.38
554.17	44364.85
554.34	44264.21
554.51	44348.47
554.67	44561.46
554.84	44477.20
555.00	44538.05
555.17	44058.24
555.33	44392.94
555.50	44369.54
555.67	44250.17
555.83	44004.41
556.00	44472.52
556.16	44655.08
556.33	44336.77
556.50	44327.41
556.66	44416.35
556.83	44376.56
556.99	44456.14
557.16	44507.63
557.32	44566.14
557.49	44858.71
557.65	44605.93
557.82	44722.96
557.98	44725.30
558.15	44498.26
558.32	44423.37
558.48	44612.95
558.65	44477.20
558.81	44442.09
558.98	44664.44
559.14	44671.46
559.31	44495.92
559.47	44832.96
559.64	44896.16
559.80	44947.65
559.97	45242.56
560.13	44657.42
560.30	44783.81
560.46	44949.99
560.63	44896.16
560.79	45251.92
560.96	45177.02
561.12	45244.90
561.29	45528.10
561.45	44781.47
561.61	44828.28
561.78	45181.70
561.94	44638.70
562.11	44486.56
562.27	44741.68
562.44	44952.33
562.60	45081.06
562.77	45078.72
562.93	45127.87
563.10	45483.63
563.26	44437.41
563.42	45537.46
563.59	44809.56
563.75	45200.43
563.92	45193.40
564.08	45158.30
564.24	45352.56
564.41	45172.34
564.57	44968.71
564.74	44898.50
564.90	44978.07
565.07	45535.12
565.23	44765.09
565.39	44928.92
565.56	45221.49
565.72	44992.12
565.88	44823.60
566.05	44690.19
566.21	45181.70
566.38	45298.73
566.54	45146.59
566.70	45741.09
566.87	45500.01
567.03	45198.09
567.19	45837.05
567.36	45333.84
567.52	45521.08
567.68	45647.47
567.85	45469.59
568.01	45387.67
568.17	45022.54
568.34	45401.71
568.50	45434.48
568.66	45275.32
568.83	45153.62
568.99	45071.70
569.15	45366.60
569.32	45303.41
569.48	45481.29
569.64	45638.11
569.81	44931.26
569.97	45705.98
570.13	45354.90
570.30	45404.05
570.46	45265.96
570.62	44898.50
570.78	44856.37
570.95	45354.90
571.11	45167.66
571.27	45401.71
571.43	45460.23
571.60	45572.57
571.76	45537.46
571.92	45603.00
572.09	45303.41
572.25	45783.22
572.41	45528.10
572.57	45713.00
572.74	46010.25
572.90	45825.35
573.06	45734.07
573.22	45509.38
573.38	45443.84
573.55	45202.77
573.71	45848.75
573.87	45820.67
574.03	45331.50
574.20	45563.21
574.36	45579.59
574.52	45010.84
574.68	45773.86
574.84	46017.27
575.01	45586.61
575.17	45375.97
575.33	45464.91
575.49	45155.96
575.65	45649.81
575.82	45883.86
575.98	45439.16
576.14	45708.32
576.30	45729.39
576.46	46000.89
576.62	45495.33
576.79	45628.74
576.95	45380.65
577.11	45897.91
577.27	45900.25
577.43	45530.44
577.59	45010.84
577.75	45478.95
577.92	45216.81
578.08	45467.25
578.24	45373.63
578.40	45186.38
578.56	45893.22
578.72	45956.42
578.88	46089.83
579.04	45340.86
579.21	45514.06
579.37	45823.01
579.53	45485.97
579.69	45258.94
579.85	45397.03
580.01	46127.28
580.17	45715.34
580.33	45703.64
580.49	45598.32
580.65	45579.59
580.82	45434.48
580.98	45626.40
581.14	45762.15
581.30	45984.51
581.46	46000.89
581.62	45893.22
581.78	45900.25
581.94	45937.69
582.10	45322.13
582.26	45972.80
582.42	45801.94
582.58	45750.45
582.74	45720.02
582.90	45769.18
583.06	45942.38
583.22	45860.46
583.38	46417.50
583.54	46534.53
583.70	45708.32
583.86	45965.78
584.02	45867.48
584.18	45853.44
584.34	45617.04
584.50	45703.64
584.66	45460.23
584.82	45607.68
584.98	45649.81
585.14	45933.01
585.30	45710.66
585.46	45542.14
585.62	45345.54
585.78	45696.62
585.94	45801.94
586.10	45874.50
586.26	45764.49
586.42	45982.16
586.58	45937.69
586.74	45951.74
586.90	45801.94
587.06	45830.03
587.22	45937.69
587.38	45780.88
587.54	46192.81
587.70	46087.49
587.86	45684.92
588.02	45717.68
588.18	45968.12
588.34	45537.46
588.49	45179.36
588.65	45125.53
588.81	45041.27
588.97	45418.10
589.13	45354.90
589.29	45471.93
589.45	45769.18
589.61	45806.62
589.77	46408.14
589.93	46216.22
590.08	45895.56
