SpectraSuite Data File
++++++++++++++++++++++++++++++++++++
Date: Fri Oct 25 11:23:45 EDT 2013
User: price-jones
Dark Spectrum Present: No
Reference Spectrum Present: No
Number of Sampled Component Spectra: 1
Spectrometers: USB2+H05261
Integration Time (usec): 100000 (USB2+H05261)
Spectra Averaged: 1 (USB2+H05261)
Boxcar Smoothing: 0 (USB2+H05261)
Correct for Electrical Dark: No (USB2+H05261)
Strobe/Lamp Enabled: No (USB2+H05261)
Correct for Detector Non-linearity: No (USB2+H05261)
Correct for Stray Light: No (USB2+H05261)
Number of Pixels in Processed Spectrum: 2048
>>>>>Begin Processed Spectral Data<<<<<
365.73	285.55
365.92	285.55
366.12	285.55
366.32	245.76
366.52	110.01
366.72	217.67
366.91	149.79
367.11	105.32
367.31	142.77
367.51	161.50
367.70	81.92
367.90	131.07
368.10	133.41
368.30	95.96
368.49	149.79
368.69	173.20
368.89	154.48
369.09	173.20
369.28	124.05
369.48	210.65
369.68	156.82
369.87	238.73
370.07	189.58
370.27	290.23
370.47	362.78
370.66	606.20
370.86	615.56
371.06	650.67
371.25	713.86
371.45	671.73
371.65	711.52
371.84	683.44
372.04	746.63
372.24	777.06
372.44	748.97
372.63	674.07
372.83	716.20
373.03	688.12
373.22	702.16
373.42	774.72
373.62	835.57
373.81	793.44
374.01	748.97
374.21	758.33
374.40	837.91
374.60	774.72
374.79	835.57
374.99	809.83
375.19	821.53
375.38	800.46
375.58	851.96
375.78	875.36
375.97	926.85
376.17	847.27
376.37	849.61
376.56	821.53
376.76	884.72
376.95	842.59
377.15	954.94
377.35	849.61
377.54	856.64
377.74	908.13
377.93	912.81
378.13	830.89
378.33	877.70
378.52	891.74
378.72	894.08
378.91	964.30
379.11	938.55
379.31	905.79
379.50	884.72
379.70	1055.58
379.89	1034.52
380.09	959.62
380.28	943.24
380.48	987.71
380.68	1008.77
380.87	971.32
381.07	997.07
381.26	1036.86
381.46	985.37
381.65	1123.46
381.85	1034.52
382.04	1081.33
382.24	1088.35
382.43	1043.88
382.63	1071.97
382.83	1067.28
383.02	1151.54
383.22	1205.38
383.41	1076.65
383.61	1167.93
383.80	1104.73
384.00	1130.48
384.19	1153.88
384.39	1128.14
384.58	1032.18
384.78	1118.78
384.97	1109.41
385.17	1167.93
385.36	1156.22
385.56	1207.72
385.75	1177.29
385.95	1097.71
386.14	1184.31
386.34	1151.54
386.53	1170.27
386.72	1174.95
386.92	1247.51
387.11	1247.51
387.31	1254.53
387.50	1205.38
387.70	1275.59
387.89	1249.85
388.09	1352.83
388.28	1174.95
388.48	1320.06
388.67	1273.25
388.86	1387.94
389.06	1238.14
389.25	1423.05
389.45	1397.30
389.64	1366.87
389.84	1420.71
390.03	1413.68
390.22	1392.62
390.42	1362.19
390.61	1399.64
390.81	1437.09
391.00	1460.49
391.19	1469.86
391.39	1497.94
391.58	1416.02
391.78	1430.07
391.97	1584.54
392.16	1530.71
392.36	1507.30
392.55	1462.83
392.75	1523.69
392.94	1563.48
393.13	1540.07
393.33	1483.90
393.52	1598.59
393.71	1643.06
393.91	1584.54
394.10	1523.69
394.29	1544.75
394.49	1582.20
394.68	1600.93
394.88	1612.63
395.07	1715.61
395.26	1739.02
395.46	1621.99
395.65	1708.59
395.84	1708.59
396.04	1687.53
396.23	1760.08
396.42	1724.97
396.62	1720.29
396.81	1790.51
397.00	1902.86
397.19	1853.70
397.39	1760.08
397.58	1820.94
397.77	1778.81
397.97	1886.47
398.16	1879.45
398.35	1909.88
398.55	1804.55
398.74	1944.99
398.93	1928.60
399.12	1940.30
399.32	1872.43
399.51	1886.47
399.70	2012.86
399.90	1888.81
400.09	2022.22
400.28	2052.65
400.47	2071.37
400.67	2024.56
400.86	2097.12
401.05	2029.24
401.24	2232.87
401.44	2118.18
401.63	2085.42
401.82	2169.68
402.01	2078.40
402.21	2113.50
402.40	2342.88
402.59	2190.74
402.78	2328.83
402.97	2237.55
403.17	2239.89
403.36	2174.36
403.55	2317.13
403.74	2317.13
403.93	2298.41
404.13	2457.56
404.32	2464.58
404.51	2464.58
404.70	2375.64
404.89	2450.54
405.09	2448.20
405.28	2394.37
405.47	2321.81
405.66	2581.61
405.85	2473.95
406.05	2558.21
406.24	2586.29
406.43	2537.14
406.62	2658.85
406.81	2677.57
407.00	2530.12
407.20	2654.17
407.39	2651.83
407.58	2693.96
407.77	2705.66
407.96	2773.53
408.15	2827.37
408.34	2733.75
408.54	2820.35
408.73	2775.88
408.92	2796.94
409.11	2928.01
409.30	2909.29
409.49	2965.46
409.68	2888.22
409.87	2993.55
410.07	2888.22
410.26	3075.46
410.45	3082.49
410.64	3023.97
410.83	3035.67
411.02	3056.74
411.21	3243.98
411.40	3152.70
411.59	3185.47
411.78	3117.59
411.98	3227.60
412.17	3321.22
412.36	3339.94
412.55	3337.60
412.74	3407.82
412.93	3384.41
413.12	3316.54
413.31	3602.08
413.50	3459.31
413.69	3552.93
413.88	3679.32
414.07	3667.62
414.26	3602.08
414.45	3644.21
414.64	3707.41
414.83	3786.99
415.02	3850.18
415.22	3875.93
415.41	3906.35
415.60	3882.95
415.79	3962.53
415.98	4023.38
416.17	4187.22
416.36	4032.74
416.55	4030.40
416.74	3985.93
416.93	4159.13
417.12	4168.49
417.31	4173.18
417.50	4117.00
417.69	4294.88
417.88	4283.18
418.07	4299.56
418.26	4229.35
418.45	4407.23
418.64	4496.17
418.83	4304.25
419.02	4479.79
419.21	4519.57
419.39	4636.60
419.58	4561.70
419.77	4496.17
419.96	4622.56
420.15	4734.90
420.34	4622.56
420.53	4503.19
420.72	4823.84
420.91	4730.22
421.10	4674.05
421.29	4856.61
421.48	4716.18
421.67	4716.18
421.86	4905.76
422.05	4826.18
422.24	4929.17
422.43	4999.38
422.61	5060.24
422.80	4968.96
422.99	4933.85
423.18	5053.22
423.37	5053.22
423.56	4978.32
423.75	4959.60
423.94	4767.67
424.13	4587.45
424.32	4744.27
424.50	4931.51
424.69	5146.84
424.88	5121.09
425.07	5011.09
425.26	4992.36
425.45	5046.20
425.64	5022.79
425.83	4999.38
426.01	5165.56
426.20	5074.28
426.39	5121.09
426.58	5043.85
426.77	5158.54
426.96	5186.63
427.15	5022.79
427.33	5177.26
427.52	5224.08
427.71	5331.74
427.90	5380.89
428.09	5334.08
428.28	5488.56
428.46	5404.30
428.65	5418.34
428.84	5528.35
429.03	5612.60
429.22	5427.70
429.40	5434.72
429.59	5528.35
429.78	5366.85
429.97	5324.72
430.16	5518.98
430.34	5542.39
430.53	5750.70
430.72	5734.31
430.91	5650.05
431.10	5607.92
431.28	5746.02
431.47	5893.47
431.66	5912.19
431.85	5816.23
432.03	5867.72
432.22	6019.86
432.41	5893.47
432.60	5921.56
432.79	6052.63
432.97	6050.28
433.16	6118.16
433.35	5956.66
433.54	6118.16
433.72	6258.59
433.91	5994.11
434.10	6162.63
434.28	6111.14
434.47	6279.66
434.66	6291.36
434.85	6438.81
435.03	6457.54
435.22	6284.34
435.41	6619.04
435.59	6448.18
435.78	6546.48
435.97	6459.88
436.16	6429.45
436.34	6583.93
436.53	6555.84
436.72	6813.30
436.90	6448.18
437.09	6726.70
437.28	6562.86
437.46	6604.99
437.65	6703.29
437.84	6715.00
438.02	6832.02
438.21	6778.19
438.40	6787.55
438.58	6956.07
438.77	6998.20
438.96	7045.01
439.14	7206.51
439.33	7403.11
439.52	7321.20
439.70	7330.56
439.89	7351.62
440.08	7492.05
440.26	7585.68
440.45	7302.47
440.63	7447.58
440.82	7662.91
441.01	7625.47
441.19	7646.53
441.38	7655.89
441.57	7707.38
441.75	7946.12
441.94	7878.24
442.12	7885.26
442.31	8025.70
442.50	7957.82
442.68	8161.45
442.87	8173.15
443.05	8079.53
443.24	8325.29
443.43	8231.66
443.61	8255.07
443.80	8643.60
443.98	8112.30
444.17	7932.08
444.35	8241.03
444.54	8514.87
444.73	8308.90
444.91	8482.10
445.10	8475.08
445.28	8388.48
445.47	8496.14
445.65	8409.54
445.84	8489.12
446.02	8608.49
446.21	8252.73
446.39	8334.65
446.58	8489.12
446.77	8461.04
446.95	8437.63
447.14	8564.02
447.32	8622.53
447.51	8617.85
447.69	8599.13
447.88	8547.64
448.06	8526.57
448.25	8557.00
448.43	8828.50
448.62	8692.75
448.80	8692.75
448.99	8730.20
449.17	8840.20
449.36	8711.47
449.54	8821.48
449.73	9011.06
449.91	9097.66
450.10	9074.26
450.28	9149.15
450.46	9018.08
450.65	9163.20
450.83	9011.06
451.02	8968.93
451.20	9228.73
451.39	9228.73
451.57	9184.26
451.76	9130.43
451.94	9324.69
452.13	9413.63
452.31	9348.10
452.49	9341.08
452.68	9427.68
452.86	9467.47
453.05	9495.55
453.23	9469.81
453.42	9575.13
453.60	9530.66
453.78	9696.84
453.97	9434.70
454.15	9628.96
454.34	9460.45
454.52	10083.03
454.70	9764.72
454.89	9745.99
455.07	9867.70
455.26	10174.31
455.44	10143.88
455.62	9879.40
455.81	9973.02
455.99	10106.43
456.17	10178.99
456.36	10099.41
456.54	10242.18
456.73	10160.27
456.91	10630.71
457.09	10399.00
457.28	10586.24
457.46	10289.00
457.64	10511.35
457.83	10581.56
458.01	10623.69
458.19	10616.67
458.38	10520.71
458.56	10649.44
458.74	10984.13
458.93	10827.32
459.11	10934.98
459.29	11094.14
459.48	10703.27
459.66	11035.63
459.84	10986.47
460.03	11154.99
460.21	11105.84
460.39	11089.46
460.57	11225.21
460.76	11087.12
460.94	11042.65
461.12	11241.59
461.31	11276.70
461.49	11084.78
461.67	11506.07
461.85	11557.57
462.04	11342.24
462.22	11782.26
462.40	11529.48
462.59	11555.22
462.77	11534.16
462.95	11719.06
463.13	11595.01
463.32	11875.88
463.50	11688.64
463.68	11985.88
463.86	12037.38
464.05	11775.24
464.23	11791.62
464.41	11913.33
464.59	11527.14
464.78	12287.81
464.96	12131.00
465.14	11798.64
465.32	12116.95
465.50	12285.47
465.69	12217.60
465.87	12301.86
466.05	12182.49
466.23	12409.52
466.41	12416.54
466.60	12807.41
466.78	12346.33
466.96	12418.88
467.14	12423.56
467.32	12416.54
467.51	12599.10
467.69	12414.20
467.87	12606.13
468.05	12599.10
468.23	12458.67
468.41	12564.00
468.60	12720.81
468.78	12868.27
468.96	12617.83
469.14	12617.83
469.32	13109.34
469.50	12788.69
469.69	13097.64
469.87	13172.54
470.05	13116.36
470.23	13188.92
470.41	13298.92
470.59	13502.55
470.77	13481.49
470.95	13324.67
471.14	13811.50
471.32	13280.20
471.50	13809.16
471.68	13603.19
471.86	13853.63
472.04	13848.95
472.22	14153.22
472.40	13664.05
472.58	13919.17
472.77	13977.68
472.95	14111.09
473.13	14637.71
473.31	14143.86
473.49	14129.81
473.67	14537.07
473.85	14431.74
474.03	14796.87
474.21	14696.22
474.39	14813.25
474.57	14773.46
474.75	15047.30
474.93	15000.49
475.12	15098.80
475.30	15255.61
475.48	15204.12
475.66	15101.14
475.84	15264.97
476.02	15503.71
476.20	15639.46
476.38	15822.02
476.56	16046.71
476.74	15999.90
476.92	16102.89
477.10	15927.35
477.28	16119.27
477.46	16437.58
477.64	16624.83
477.82	16741.85
478.00	16971.22
478.18	16882.28
478.36	16898.67
478.54	17200.60
478.72	17256.77
478.90	17736.58
479.08	17865.31
479.26	17937.87
479.44	17989.36
479.62	18160.22
479.80	18190.64
479.98	18331.08
480.16	18941.96
480.34	18668.11
480.52	18806.20
480.70	18787.48
480.88	18551.09
481.06	19075.37
481.24	19070.68
481.41	19384.32
481.59	19255.59
481.77	19576.24
481.95	19786.89
482.13	19927.32
482.31	19721.35
482.49	20259.68
482.67	20315.85
482.85	20786.30
483.03	20711.40
483.21	21062.48
483.39	20954.82
483.57	21167.80
483.74	21312.92
483.92	21322.28
484.10	21371.43
484.28	21802.09
484.46	22080.61
484.64	22593.19
484.82	22190.62
485.00	22611.92
485.18	22649.36
485.35	23335.14
485.53	23040.23
485.71	23098.75
485.89	23672.18
486.07	23098.75
486.25	23662.82
486.43	23618.35
486.61	24128.58
486.78	24379.02
486.96	24273.70
487.14	24795.64
487.32	24683.29
487.50	24973.52
487.68	25139.69
487.85	25284.81
488.03	25781.00
488.21	26389.54
488.39	25898.03
488.57	26265.49
488.75	26867.01
488.92	26787.43
489.10	26740.62
489.28	27098.72
489.46	27068.30
489.64	27459.16
489.81	27784.50
489.99	27655.77
490.17	28187.07
490.35	28374.31
490.53	28790.93
490.70	28423.47
490.88	28620.07
491.06	29366.70
491.24	29076.48
491.41	29146.69
491.59	29394.79
491.77	29713.10
491.95	29797.36
492.13	29846.51
492.30	30054.82
492.48	30635.27
492.66	30326.32
492.84	30597.82
493.01	31056.57
493.19	30742.94
493.37	31171.25
493.54	31260.20
493.72	31505.95
493.90	31971.72
494.08	31826.60
494.25	32353.23
494.43	32301.73
494.61	32346.20
494.79	32514.72
494.96	32755.80
495.14	33034.32
495.32	33291.78
495.49	33406.47
495.67	33237.95
495.85	33696.69
496.02	33905.00
496.20	34323.96
496.38	34227.99
496.55	34354.38
496.73	35143.14
496.91	34740.57
497.09	35480.18
497.26	35356.13
497.44	35353.79
497.62	35370.18
497.79	35983.40
497.97	36123.83
498.14	36357.88
498.32	36484.27
498.50	36163.62
498.67	36507.68
498.85	36795.56
499.03	37226.22
499.20	36744.07
499.38	37001.53
499.56	37326.86
499.73	37474.32
499.91	37394.74
500.08	37504.74
500.26	37607.73
500.44	37834.76
500.61	38209.25
500.79	37869.87
500.97	38511.17
501.14	38756.93
501.32	38724.16
501.49	38824.81
501.67	39096.31
501.84	39679.10
502.02	39150.14
502.20	39473.13
502.37	39622.93
502.55	39732.93
502.72	39426.32
502.90	39496.54
503.07	40231.47
503.25	40306.37
503.43	40027.84
503.60	40418.71
503.78	40842.35
503.95	40715.96
504.13	40149.55
504.30	40996.82
504.48	40875.12
504.65	41338.54
504.83	41443.87
505.01	41904.95
505.18	41579.62
505.36	41818.35
505.53	41855.80
505.71	41577.28
505.88	42005.59
506.06	42010.28
506.23	42249.01
506.41	42043.04
506.58	42529.87
506.76	42871.59
506.93	42457.32
507.11	42787.33
507.28	42873.93
507.46	42766.27
507.63	43119.69
507.81	43381.83
507.98	42866.91
508.16	43313.95
508.33	43756.32
508.50	43702.48
508.68	44037.18
508.85	43943.56
509.03	44114.42
509.20	44163.57
509.38	44425.71
509.55	44547.42
509.73	44615.29
509.90	44949.99
510.08	44973.39
510.25	45067.02
510.42	45120.85
510.60	45420.44
510.77	45764.49
510.95	45476.61
511.12	45553.85
511.30	45195.74
511.47	45401.71
511.64	45610.02
511.82	46099.19
511.99	46232.60
512.17	46438.57
512.34	46108.55
512.51	46611.77
512.69	46679.64
512.86	46876.25
513.04	46635.17
513.21	46885.61
513.38	46972.21
513.56	47208.61
513.73	46454.95
513.90	47239.03
514.08	46988.60
514.25	47374.78
514.43	47358.40
514.60	47636.92
514.77	47552.66
514.95	48069.92
515.12	47889.70
515.29	47608.84
515.47	48390.58
515.64	48542.71
515.81	48161.20
515.99	48587.18
516.16	48545.05
516.33	49059.97
516.51	49027.20
516.68	48816.55
516.85	48446.75
517.03	48851.66
517.20	49226.15
517.37	48994.43
517.54	49148.91
517.72	49366.58
517.89	49340.83
518.06	49329.13
518.24	49696.59
518.41	49666.17
518.58	49645.10
518.75	49287.00
518.93	49825.32
519.10	49640.42
519.27	50246.62
519.45	49848.73
519.62	50284.07
519.79	49837.03
519.96	49916.61
520.14	50396.42
520.31	50239.60
520.48	50740.47
520.65	50747.50
520.83	50576.64
521.00	50775.58
521.17	50382.37
521.34	50864.52
521.52	51093.89
521.69	50782.60
521.86	51374.76
522.03	51260.07
522.20	51718.82
522.38	51660.30
522.55	51367.74
522.72	51697.75
522.89	51924.78
523.07	51889.68
523.24	52074.58
523.41	51892.02
523.58	51409.87
523.75	52179.90
523.92	52030.11
524.10	51817.12
524.27	52346.08
524.44	52205.65
524.61	52161.18
524.78	52219.69
524.96	52428.00
525.13	52530.98
525.30	52587.16
525.47	52825.89
525.64	52783.76
525.81	52999.09
525.98	52978.03
526.16	53027.18
526.33	52802.49
526.50	53017.82
526.67	52926.53
526.84	53130.16
527.01	53272.93
527.18	53258.89
527.36	53263.57
527.53	53425.07
527.70	53801.89
527.87	53492.94
528.04	53642.74
528.21	53787.85
528.38	53724.66
528.55	53715.29
528.72	53476.56
528.89	53588.91
529.07	53736.36
529.24	53542.10
529.41	54035.95
529.58	53918.92
529.75	53586.57
529.92	54049.99
530.09	54073.40
530.26	54085.10
530.43	54244.26
530.60	54031.27
530.77	54047.65
530.94	54433.84
531.11	54253.62
531.28	54518.10
531.46	54405.75
531.63	54649.17
531.80	54504.06
531.97	54742.79
532.14	54738.11
532.31	54801.30
532.48	54958.12
532.65	54747.47
532.82	54450.22
532.99	54810.67
533.16	54869.18
533.33	54901.95
533.50	55065.78
533.67	55077.49
533.84	54920.67
534.01	55119.62
534.18	55145.36
534.35	55702.41
534.52	55299.84
534.69	55285.79
534.86	55489.42
535.03	55253.03
535.20	55297.50
535.37	55468.36
535.54	55522.19
535.71	55440.27
535.88	55608.79
536.05	55564.32
536.22	55716.45
536.38	55746.88
536.55	55831.14
536.72	55697.73
536.89	55978.59
537.06	55950.51
537.23	55964.55
537.40	55887.31
537.57	55807.73
537.74	55917.74
537.91	56149.45
538.08	55910.72
538.25	55779.65
538.42	56236.05
538.59	56444.36
538.75	56058.17
538.92	56191.58
539.09	56418.61
539.26	56280.52
539.43	56212.65
539.60	56427.98
539.77	56411.59
539.94	56442.02
540.11	56341.38
540.28	56451.38
540.44	56601.18
540.61	56725.22
540.78	56615.22
540.95	56711.18
541.12	56570.75
541.29	56526.28
541.46	56757.99
541.62	56697.14
541.79	56952.26
541.96	56467.76
542.13	57050.56
542.30	56893.74
542.47	57031.83
542.63	57003.75
542.80	57134.82
542.97	57209.71
543.14	57453.13
543.31	57198.01
543.48	57408.66
543.64	57539.73
543.81	57429.72
543.98	57439.09
544.15	57312.70
544.32	57682.50
544.48	57755.06
544.65	57546.75
544.82	57614.63
544.99	57198.01
545.16	57616.97
545.32	57750.38
545.49	57792.51
545.66	57907.19
545.83	57872.09
546.00	57792.51
546.16	57752.72
546.33	57900.17
546.50	57539.73
546.67	57820.59
546.83	57523.35
547.00	57923.58
547.17	57869.75
547.34	57815.91
547.50	58188.06
547.67	58075.71
547.84	58309.77
548.00	58319.13
548.17	58347.21
548.34	58330.83
548.51	58389.34
548.67	58412.75
548.84	58340.19
549.01	58085.07
549.18	58223.17
549.34	58504.03
549.51	58585.95
549.68	58569.57
549.84	58686.59
550.01	58492.33
550.18	58480.63
550.34	58529.78
550.51	58740.42
550.68	58595.31
550.84	58485.31
551.01	58721.70
551.18	58564.88
551.34	58712.34
551.51	58688.93
551.68	58728.72
551.84	58885.54
552.01	58635.10
552.18	59002.56
552.34	58525.10
552.51	58913.62
552.68	58777.87
552.84	58866.81
553.01	59157.04
553.18	58918.31
553.34	59040.01
553.51	58932.35
553.67	59018.95
553.84	59267.05
554.01	59189.81
554.17	59227.26
554.34	59381.73
554.51	59143.00
554.67	59231.94
554.84	59175.76
555.00	59199.17
555.17	59000.22
555.33	59196.83
555.50	59009.59
555.67	59168.74
555.83	59161.72
556.00	59231.94
556.16	59423.86
556.33	59606.42
556.50	59538.55
556.66	59583.02
556.83	59297.47
556.99	59590.04
557.16	59564.29
557.32	59531.53
557.49	59873.24
557.65	59676.64
557.82	59491.74
557.98	59313.86
558.15	59716.43
558.32	59716.43
558.48	59512.80
558.65	59634.51
558.81	59613.44
558.98	59838.14
559.14	59749.20
559.31	59840.48
559.47	59704.73
559.64	59957.50
559.80	59812.39
559.97	59803.03
560.13	59964.52
560.30	59777.28
560.46	60055.81
560.63	59980.91
560.79	59929.42
560.96	59985.59
561.12	59929.42
561.29	59915.37
561.45	59950.48
561.61	59999.63
561.78	59917.71
561.94	60193.90
562.11	59980.91
562.27	59952.82
562.44	60074.53
562.60	60107.30
562.77	60137.72
562.93	59992.61
563.10	60210.28
563.26	59966.87
563.42	60111.98
563.59	60097.94
563.75	60046.44
563.92	60336.67
564.08	60126.02
564.24	60268.79
564.41	60245.39
564.57	60238.37
564.74	60292.20
564.90	60310.92
565.07	60135.38
565.23	60367.10
565.39	60406.89
565.56	60392.84
565.72	60399.86
565.88	60418.59
566.05	60257.09
566.21	60350.71
566.38	60266.45
566.54	60378.80
566.70	60552.00
566.87	60736.90
567.03	60434.97
567.19	60612.85
567.36	60465.40
567.52	60465.40
567.68	60844.57
567.85	60390.50
568.01	60502.85
568.17	60488.80
568.34	60673.71
568.50	60432.63
568.66	60299.22
568.83	60537.96
568.99	60322.63
569.15	60505.19
569.32	60547.32
569.48	60449.02
569.64	60734.56
569.81	60587.11
569.97	60341.35
570.13	60570.72
570.30	60575.40
570.46	60772.01
570.62	60629.24
570.78	60746.26
570.95	60427.95
571.11	60952.23
571.27	60638.60
571.43	60734.56
571.60	60577.75
571.76	60809.46
571.92	60921.80
572.09	60544.98
572.25	60919.46
572.41	60554.34
572.57	60617.53
572.74	60956.91
572.90	60575.40
573.06	60977.98
573.22	60870.31
573.38	60903.08
573.55	60694.77
573.71	60970.96
573.87	60610.51
574.03	60671.37
574.20	60942.87
574.36	60910.10
574.52	60905.42
574.68	60870.31
574.84	60877.33
575.01	61029.47
575.17	60865.63
575.33	60846.91
575.49	60816.48
575.65	60949.89
575.82	60980.32
575.98	60931.17
576.14	61160.54
576.30	60863.29
576.46	61029.47
576.62	60811.80
576.79	60896.06
576.95	60790.73
577.11	61043.51
577.27	60968.61
577.43	60996.70
577.59	60900.74
577.75	60926.49
577.92	60790.73
578.08	60816.48
578.24	60994.36
578.40	61141.81
578.56	61195.65
578.72	61038.83
578.88	61020.11
579.04	61214.37
579.21	60987.34
579.37	61183.94
579.53	61188.63
579.69	61034.15
579.85	60903.08
580.01	61003.72
580.17	61045.85
580.33	61141.81
580.49	61165.22
580.65	60837.54
580.82	60849.25
580.98	60996.70
581.14	60992.02
581.30	61324.38
581.46	60900.74
581.62	61155.86
581.78	60830.52
581.94	61130.11
582.10	60912.44
582.26	61205.01
582.42	60992.02
582.58	61137.13
582.74	60928.83
582.90	61052.87
583.06	61071.60
583.22	60996.70
583.38	60963.93
583.54	60935.85
583.70	61137.13
583.86	61202.67
584.02	61034.15
584.18	61298.63
584.34	61244.80
584.50	61181.60
584.66	61027.13
584.82	60966.27
584.98	61226.07
585.14	61221.39
585.30	61102.03
585.46	61282.25
585.62	61322.04
585.78	61141.81
585.94	61137.13
586.10	61120.75
586.26	61059.90
586.42	61251.82
586.58	61350.12
586.74	61223.73
586.90	61130.11
587.06	61130.11
587.22	61270.54
587.38	61237.78
587.54	61385.23
587.70	61595.88
587.86	61315.01
588.02	61027.13
588.18	61322.04
588.34	61109.05
