SpectraSuite Data File
++++++++++++++++++++++++++++++++++++
Date: Fri Oct 25 11:34:31 EDT 2013
User: price-jones
Dark Spectrum Present: No
Reference Spectrum Present: No
Number of Sampled Component Spectra: 1
Spectrometers: USB2+H05261
Integration Time (usec): 100000 (USB2+H05261)
Spectra Averaged: 1 (USB2+H05261)
Boxcar Smoothing: 0 (USB2+H05261)
Correct for Electrical Dark: No (USB2+H05261)
Strobe/Lamp Enabled: No (USB2+H05261)
Correct for Detector Non-linearity: No (USB2+H05261)
Correct for Stray Light: No (USB2+H05261)
Number of Pixels in Processed Spectrum: 2048
>>>>>Begin Processed Spectral Data<<<<<
365.73	306.61
365.92	306.61
366.12	306.61
366.32	180.22
366.52	201.29
366.72	238.73
366.91	173.20
367.11	215.33
367.31	86.60
367.51	128.73
367.70	182.56
367.90	145.11
368.10	215.33
368.30	208.31
368.49	102.98
368.69	201.29
368.89	224.69
369.09	184.90
369.28	257.46
369.48	201.29
369.68	208.31
369.87	189.58
370.07	264.48
370.27	337.04
370.47	248.10
370.66	489.17
370.86	531.30
371.06	491.51
371.25	575.77
371.45	524.28
371.65	573.43
371.84	526.62
372.04	517.26
372.24	571.09
372.44	482.15
372.63	645.99
372.83	594.50
373.03	608.54
373.22	554.71
373.42	657.69
373.62	631.94
373.81	683.44
374.01	702.16
374.21	685.78
374.40	578.11
374.60	669.39
374.79	662.37
374.99	725.57
375.19	674.07
375.38	585.13
375.58	573.43
375.78	653.01
375.97	695.14
376.17	690.46
376.37	695.14
376.56	631.94
376.76	645.99
376.95	636.63
377.15	702.16
377.35	627.26
377.54	671.73
377.74	718.54
377.93	706.84
378.13	688.12
378.33	784.08
378.52	748.97
378.72	739.61
378.91	744.29
379.11	723.23
379.31	730.25
379.50	624.92
379.70	688.12
379.89	746.63
380.09	751.31
380.28	688.12
380.48	718.54
380.68	779.40
380.87	702.16
381.07	720.88
381.26	674.07
381.46	760.67
381.65	737.27
381.85	706.84
382.04	739.61
382.24	734.93
382.43	805.14
382.63	704.50
382.83	725.57
383.02	755.99
383.22	823.87
383.41	858.98
383.61	770.04
383.80	770.04
384.00	755.99
384.19	793.44
384.39	725.57
384.58	763.01
384.78	774.72
384.97	814.51
385.17	812.17
385.36	779.40
385.56	763.01
385.75	788.76
385.95	748.97
386.14	828.55
386.34	767.70
386.53	891.74
386.72	938.55
386.92	866.00
387.11	875.36
387.31	940.90
387.50	786.42
387.70	868.34
387.89	870.68
388.09	781.74
388.28	891.74
388.48	889.40
388.67	837.91
388.86	884.72
389.06	898.77
389.25	858.98
389.45	910.47
389.64	882.38
389.84	866.00
390.03	961.96
390.22	968.98
390.42	912.81
390.61	964.30
390.81	908.13
391.00	945.58
391.19	1008.77
391.39	997.07
391.58	898.77
391.78	929.19
391.97	1029.84
392.16	924.51
392.36	1020.47
392.55	1008.77
392.75	1018.13
392.94	1027.50
393.13	987.71
393.33	1015.79
393.52	943.24
393.71	1015.79
393.91	990.05
394.10	1076.65
394.29	1086.01
394.49	1039.20
394.68	1004.09
394.88	1071.97
395.07	1228.78
395.26	1088.35
395.46	1172.61
395.65	1151.54
395.84	1167.93
396.04	1231.12
396.23	1083.67
396.42	1146.86
396.62	1135.16
396.81	1146.86
397.00	1184.31
397.19	1179.63
397.39	1118.78
397.58	1196.01
397.77	1259.21
397.97	1151.54
398.16	1174.95
398.35	1238.14
398.55	1210.06
398.74	1214.74
398.93	1284.95
399.12	1317.72
399.32	1186.65
399.51	1191.33
399.70	1348.15
399.90	1336.45
400.09	1235.80
400.28	1231.12
400.47	1362.19
400.67	1336.45
400.86	1366.87
401.05	1252.19
401.24	1352.83
401.44	1394.96
401.63	1348.15
401.82	1348.15
402.01	1350.49
402.21	1334.11
402.40	1390.28
402.59	1516.67
402.78	1528.37
402.97	1465.18
403.17	1521.35
403.36	1493.26
403.55	1469.86
403.74	1511.99
403.93	1500.28
404.13	1638.38
404.32	1561.14
404.51	1446.45
404.70	1596.25
404.89	1521.35
405.09	1614.97
405.28	1668.80
405.47	1593.90
405.66	1603.27
405.85	1643.06
406.05	1614.97
406.24	1741.36
406.43	1696.89
406.62	1783.49
406.81	1762.42
407.00	1643.06
407.20	1668.80
407.39	1732.00
407.58	1832.64
407.77	1853.70
407.96	1834.98
408.15	1753.06
408.34	1844.34
408.54	1785.83
408.73	1823.28
408.92	1893.49
409.11	1867.75
409.30	1842.00
409.49	1949.67
409.68	1935.62
409.87	1968.39
410.07	2047.97
410.26	1961.37
410.45	1977.75
410.64	1968.39
410.83	2024.56
411.02	1989.46
411.21	2092.44
411.40	2076.06
411.59	2101.80
411.78	2090.10
411.98	2097.12
412.17	2223.51
412.36	2127.55
412.55	2174.36
412.74	2216.49
412.93	2218.83
413.12	2265.64
413.31	2282.02
413.50	2277.34
413.69	2321.81
413.88	2403.73
414.07	2270.32
414.26	2387.35
414.45	2523.10
414.64	2420.11
414.83	2654.17
415.02	2427.14
415.22	2413.09
415.41	2459.90
415.60	2581.61
415.79	2588.63
415.98	2530.12
416.17	2600.34
416.36	2576.93
416.55	2609.70
416.74	2635.44
416.93	2675.23
417.12	2766.51
417.31	2649.49
417.50	2810.98
417.69	2913.97
417.88	2778.22
418.07	2818.00
418.26	2803.96
418.45	2848.43
418.64	2832.05
418.83	3026.31
419.02	2897.58
419.21	2981.84
419.39	3054.40
419.58	2986.52
419.77	3000.57
419.96	3059.08
420.15	3054.40
420.34	2963.12
420.53	3061.42
420.72	3068.44
420.91	3136.32
421.10	3155.04
421.29	3124.62
421.48	3016.95
421.67	3155.04
421.86	3145.68
422.05	3136.32
422.24	3152.70
422.43	3253.34
422.61	3236.96
422.80	3087.17
422.99	3251.00
423.18	3325.90
423.37	3272.07
423.56	3272.07
423.75	3286.11
423.94	3145.68
424.13	3063.76
424.32	3056.74
424.50	3370.37
424.69	3400.80
424.88	3346.97
425.07	3206.53
425.26	3335.26
425.45	3349.31
425.64	3253.34
425.83	3267.39
426.01	3463.99
426.20	3318.88
426.39	3396.12
426.58	3190.15
426.77	3302.50
426.96	3368.03
427.15	3382.07
427.33	3335.26
427.52	3550.59
427.71	3480.38
427.90	3585.70
428.09	3475.70
428.28	3585.70
428.46	3501.44
428.65	3571.66
428.84	3550.59
429.03	3613.79
429.22	3487.40
429.40	3583.36
429.59	3669.96
429.78	3405.48
429.97	3616.13
430.16	3672.30
430.34	3641.87
430.53	3660.60
430.72	3667.62
430.91	3801.03
431.10	3660.60
431.28	3843.16
431.47	3831.46
431.66	3875.93
431.85	3782.31
432.03	3873.59
432.22	3824.44
432.41	3822.09
432.60	3896.99
432.79	3765.92
432.97	3953.16
433.16	3908.69
433.35	3904.01
433.54	4009.34
433.72	4091.26
433.91	3943.80
434.10	4102.96
434.28	3976.57
434.47	4105.30
434.66	4191.90
434.85	4119.34
435.03	4166.15
435.22	3953.16
435.41	4135.73
435.59	4058.49
435.78	4227.01
435.97	4117.00
436.16	4147.43
436.34	4074.87
436.53	4241.05
436.72	4400.21
436.90	4248.07
437.09	4407.23
437.28	4152.11
437.46	4215.30
437.65	4437.66
437.84	4386.16
438.02	4362.76
438.21	4484.47
438.40	4437.66
438.58	4517.23
438.77	4542.98
438.96	4531.28
439.14	4606.17
439.33	4629.58
439.52	4641.28
439.70	4608.51
439.89	4910.44
440.08	4816.82
440.26	4912.78
440.45	4636.60
440.63	4957.25
440.82	4971.30
441.01	4786.40
441.19	4912.78
441.38	4985.34
441.57	5015.77
441.75	5228.76
441.94	5172.58
442.12	5193.65
442.31	5242.80
442.50	5217.05
442.68	5252.16
442.87	5121.09
443.05	5025.13
443.24	5303.65
443.43	5238.12
443.61	5380.89
443.80	5523.66
443.98	5221.74
444.17	5083.64
444.35	5547.07
444.54	5472.17
444.73	5448.77
444.91	5526.00
445.10	5423.02
445.28	5362.17
445.47	5275.57
445.65	5240.46
445.84	5355.15
446.02	5542.39
446.21	5472.17
446.39	5465.15
446.58	5605.58
446.77	5467.49
446.95	5451.11
447.14	5383.23
447.32	5600.90
447.51	5465.15
447.69	5263.86
447.88	5523.66
448.06	5446.43
448.25	5603.24
448.43	5504.94
448.62	5596.22
448.80	5472.17
448.99	5621.97
449.17	5624.31
449.36	5586.86
449.54	5863.04
449.73	5919.21
449.91	5860.70
450.10	5748.36
450.28	5930.92
450.46	5762.40
450.65	5668.78
450.83	5696.86
451.02	5884.11
451.20	5888.79
451.39	5930.92
451.57	5830.27
451.76	5778.78
451.94	6108.80
452.13	6066.67
452.31	5973.05
452.49	5951.98
452.68	6024.54
452.86	6024.54
453.05	5980.07
453.23	6148.59
453.42	6061.99
453.60	5849.00
453.78	6174.33
453.97	6015.18
454.15	6099.44
454.34	6223.48
454.52	6239.87
454.70	6190.72
454.89	6321.79
455.07	6289.02
455.26	6195.40
455.44	6246.89
455.62	6438.81
455.81	6342.85
455.99	6314.77
456.17	6574.56
456.36	6434.13
456.54	6665.85
456.73	6532.44
456.91	6738.40
457.09	6574.56
457.28	6834.36
457.46	6619.04
457.64	6595.63
457.83	6555.84
458.01	6677.55
458.19	6743.08
458.38	6764.15
458.56	6740.74
458.74	6888.20
458.93	6836.70
459.11	6967.77
459.29	6920.96
459.48	6925.65
459.66	6892.88
459.84	6998.20
460.03	7159.70
460.21	6904.58
460.39	7054.37
460.57	7075.44
460.76	7194.81
460.94	7304.81
461.12	7325.88
461.31	7098.84
461.49	7148.00
461.67	7002.88
461.85	7166.72
462.04	7218.21
462.22	7765.90
462.40	7440.56
462.59	7393.75
462.77	7492.05
462.95	7475.67
463.13	7489.71
463.32	7412.48
463.50	7557.59
463.68	7548.23
463.86	7543.55
464.05	7393.75
464.23	7604.40
464.41	7662.91
464.59	7426.52
464.78	7817.39
464.96	7604.40
465.14	7552.91
465.32	7676.96
465.50	7889.95
465.69	7581.00
465.87	7793.98
466.05	7733.13
466.23	7819.73
466.41	7824.41
466.60	8039.74
466.78	7836.11
466.96	7913.35
467.14	7833.77
467.32	7822.07
467.51	8161.45
467.69	7723.77
467.87	7953.14
468.05	7981.23
468.23	7889.95
468.41	8063.15
468.60	7983.57
468.78	8308.90
468.96	7962.50
469.14	8138.04
469.32	8252.73
469.50	7995.27
469.69	8306.56
469.87	8229.32
470.05	8372.10
470.23	8456.36
470.41	8376.78
470.59	8341.67
470.77	8451.67
470.95	8329.97
471.14	8711.47
471.32	8411.89
471.50	8622.53
471.68	8688.07
471.86	8587.43
472.04	8741.90
472.22	8938.51
472.40	8894.04
472.58	8554.66
472.77	8746.58
472.95	8856.59
473.13	9240.44
473.31	9090.64
473.49	8882.33
473.67	8987.66
473.85	9067.24
474.03	9371.50
474.21	9071.92
474.39	9217.03
474.57	9132.77
474.75	9383.21
474.93	9664.07
475.12	9671.09
475.30	9530.66
475.48	9673.43
475.66	9561.09
475.84	9547.05
476.02	9575.13
476.20	9776.42
476.38	10111.11
476.56	10221.12
476.74	10012.81
476.92	10026.86
477.10	9966.00
477.28	10310.06
477.46	10211.76
477.64	10319.42
477.82	10366.23
478.00	10761.78
478.18	10691.57
478.36	10796.89
478.54	10757.10
478.72	10787.53
478.90	10988.82
479.08	11014.56
479.26	11187.76
479.44	10958.39
479.62	11080.10
479.80	11323.51
479.98	11466.28
480.16	11681.61
480.34	11433.52
480.52	11548.20
480.70	11623.10
480.88	11477.99
481.06	11613.74
481.24	11782.26
481.41	11999.93
481.59	11955.46
481.77	12135.68
481.95	12123.98
482.13	12299.52
482.31	12231.64
482.49	12786.35
482.67	12739.54
482.85	12917.42
483.03	12912.74
483.21	13083.59
483.39	13107.00
483.57	12989.97
483.74	13217.01
483.92	13341.05
484.10	13434.68
484.28	13502.55
484.46	13741.29
484.64	13764.69
484.82	14101.73
485.00	13888.74
485.18	14148.54
485.35	14614.30
485.53	14174.28
485.71	14459.83
485.89	14726.65
486.07	14843.68
486.25	14857.72
486.43	14860.06
486.61	14740.69
486.78	14874.10
486.96	15098.80
487.14	15281.36
487.32	15316.47
487.50	15538.82
487.68	15651.16
487.85	15817.34
488.03	16173.10
488.21	16084.16
488.39	16079.48
488.57	15934.37
488.75	16245.66
488.92	16538.23
489.10	16814.41
489.28	16872.92
489.46	16776.96
489.64	16720.79
489.81	17291.88
489.99	17109.32
490.17	17177.19
490.35	17635.94
490.53	17554.02
490.70	17551.68
490.88	17577.42
491.06	17987.02
491.24	18120.43
491.41	18097.02
491.59	18127.45
491.77	18375.55
491.95	18387.25
492.13	18576.83
492.30	18799.18
492.48	18778.12
492.66	19037.92
492.84	19154.94
493.01	18710.24
493.19	18972.38
493.37	19468.58
493.54	19131.54
493.72	19307.08
493.90	19620.71
494.08	19393.68
494.25	19831.36
494.43	20011.58
494.61	20435.22
494.79	20276.06
494.96	20121.59
495.14	20067.75
495.32	20819.07
495.49	20648.21
495.67	20800.34
495.85	20739.49
496.02	21118.65
496.20	21043.76
496.38	21317.60
496.55	21310.58
496.73	21827.84
496.91	21476.76
497.09	21458.03
497.26	21764.64
497.44	21357.39
497.62	22050.19
497.79	22064.23
497.97	22405.95
498.14	22183.60
498.32	22537.02
498.50	22450.42
498.67	22616.60
498.85	22834.27
499.03	22621.28
499.20	23058.96
499.38	22822.56
499.56	23307.05
499.73	23077.68
499.91	22909.16
500.08	23496.64
500.26	23641.75
500.44	23606.64
500.61	23342.16
500.79	23552.81
500.97	24072.41
501.14	24247.95
501.32	23995.17
501.49	23840.70
501.67	24112.20
501.84	24238.59
502.02	24437.53
502.20	24531.15
502.37	24570.94
502.55	24629.46
502.72	24706.70
502.90	24554.56
503.07	24821.38
503.25	24821.38
503.43	24592.01
503.60	25090.54
503.78	25174.80
503.95	25142.03
504.13	25287.15
504.30	25479.07
504.48	25621.84
504.65	25460.35
504.83	25518.86
505.01	25509.50
505.18	26080.59
505.36	25771.64
505.53	26270.17
505.71	26214.00
505.88	26293.58
506.06	25624.18
506.23	25965.90
506.41	26321.66
506.58	26312.30
506.76	26529.97
506.93	26670.40
507.11	26511.25
507.28	26492.52
507.46	26824.88
507.63	26930.20
507.81	27168.94
507.98	26848.29
508.16	27019.14
508.33	27175.96
508.50	27234.47
508.68	27356.18
508.85	27653.43
509.03	27452.14
509.20	27510.66
509.38	27545.76
509.55	27845.35
509.73	27805.56
509.90	28369.63
510.08	28060.68
510.25	27871.10
510.42	28474.96
510.60	28184.73
510.77	28460.91
510.95	28687.95
511.12	28676.24
511.30	28559.22
511.47	28863.49
511.64	28938.38
511.82	28634.11
511.99	28725.39
512.17	28886.89
512.34	28954.77
512.51	29277.76
512.69	29544.58
512.86	29397.13
513.04	29074.13
513.21	29289.46
513.38	29621.82
513.56	29909.71
513.73	29710.76
513.90	29813.74
514.08	29427.56
514.25	29816.08
514.43	29989.28
514.60	30326.32
514.77	30064.18
514.95	30078.22
515.12	30298.23
515.29	30389.52
515.47	30024.39
515.64	30625.91
515.81	30529.95
515.99	30693.79
516.16	30859.96
516.33	30642.29
516.51	30871.67
516.68	30742.94
516.85	31197.00
517.03	31225.09
517.20	31267.22
517.37	30895.07
517.54	31281.26
517.72	31094.02
517.89	31524.68
518.06	31321.05
518.24	31222.75
518.41	31234.45
518.58	31622.98
518.75	31414.67
518.93	31660.43
519.10	31608.93
519.27	31693.19
519.45	31562.12
519.62	31941.29
519.79	31740.00
519.96	32130.87
520.14	31908.52
520.31	32013.85
520.48	32093.43
520.65	32496.00
520.83	32854.10
521.00	32875.16
521.17	32659.84
521.34	32847.08
521.52	32889.21
521.69	32919.63
521.86	32718.35
522.03	32865.80
522.20	33024.96
522.38	33378.38
522.55	33376.04
522.72	33490.73
522.89	33006.23
523.07	34012.66
523.24	33647.54
523.41	33474.34
523.58	33317.53
523.75	33970.54
523.92	33682.65
524.10	33542.22
524.27	33724.78
524.44	34115.65
524.61	33776.27
524.78	34270.12
524.96	34043.09
525.13	34155.44
525.30	34567.37
525.47	34483.11
525.64	34501.84
525.81	34391.83
525.98	34602.48
526.16	34120.33
526.33	34550.99
526.50	35077.61
526.67	34466.73
526.84	34602.48
527.01	34663.33
527.18	34850.58
527.36	34747.59
527.53	35068.25
527.70	35358.47
527.87	35494.22
528.04	34817.81
528.21	35171.23
528.38	35225.06
528.55	35683.81
528.72	35622.95
528.89	35686.15
529.07	35412.31
529.24	35405.28
529.41	35651.04
529.58	35180.59
529.75	35964.67
529.92	36067.66
530.09	35920.20
530.26	35618.27
530.43	36119.15
530.60	35585.50
530.77	35702.53
530.94	35718.92
531.11	35648.70
531.28	36385.97
531.46	36149.57
531.63	36488.95
531.80	36346.18
531.97	36631.72
532.14	36320.43
532.31	36172.98
532.48	36715.98
532.65	36959.40
532.82	36659.81
532.99	36858.76
533.16	36430.44
533.33	36975.78
533.50	36718.32
533.67	37163.03
533.84	36938.33
534.01	37141.96
534.18	36692.58
534.35	37333.89
534.52	37237.92
534.69	37638.15
534.86	37860.51
535.03	37376.01
535.20	37572.62
535.37	37483.68
535.54	37596.03
535.71	37230.90
535.88	37724.75
536.05	37780.93
536.22	38113.28
536.38	37790.29
536.55	37546.87
536.72	37757.52
536.89	37184.09
537.06	37942.42
537.23	37888.59
537.40	37923.70
537.57	38000.94
537.74	37977.53
537.91	38352.02
538.08	38213.93
538.25	38047.75
538.42	38375.42
538.59	38553.30
538.75	38096.90
538.92	38490.11
539.09	38403.51
539.26	38579.05
539.43	38300.53
539.60	38583.73
539.77	38380.10
539.94	38649.27
540.11	38904.38
540.28	38707.78
540.44	38609.48
540.61	38815.44
540.78	38366.06
540.95	39072.90
541.12	38878.64
541.29	38455.00
541.46	39412.28
541.62	38888.00
541.79	39054.18
541.96	38925.45
542.13	39185.25
542.30	38895.02
542.47	39203.97
542.63	39313.98
542.80	39576.12
542.97	40287.64
543.14	39945.92
543.31	39636.97
543.48	39746.98
543.64	40435.10
543.81	40346.15
543.98	40081.67
544.15	39878.05
544.32	39985.71
544.48	40624.68
544.65	39945.92
544.82	40631.70
544.99	40081.67
545.16	40474.88
545.32	40023.16
545.49	40533.40
545.66	40456.16
545.83	40341.47
546.00	40369.56
546.16	40517.01
546.33	40437.44
546.50	40051.25
546.67	41006.19
546.83	40479.57
547.00	40142.53
547.17	40519.35
547.34	40388.28
547.50	40622.34
547.67	41034.27
547.84	41053.00
548.00	41160.66
548.17	41371.31
548.34	41186.41
548.51	41235.56
548.67	41532.81
548.84	41127.89
549.01	41317.48
549.18	41106.83
549.34	41572.60
549.51	41471.95
549.68	41689.62
549.84	41504.72
550.01	41242.58
550.18	41511.74
550.34	41476.63
550.51	41495.36
550.68	41151.30
550.84	41432.16
551.01	41546.85
551.18	41841.76
551.34	41469.61
551.51	41612.38
551.68	41294.07
551.84	41406.42
552.01	41820.69
552.18	41720.05
552.34	41645.15
552.51	42040.70
552.68	41551.53
552.84	41881.55
553.01	42377.74
553.18	41844.10
553.34	41893.25
553.51	41947.08
553.67	42068.79
553.84	42347.31
554.01	41972.83
554.17	42403.49
554.34	42553.28
554.51	42174.11
554.67	42831.80
554.84	42319.23
555.00	42429.23
555.17	42316.89
555.33	42476.04
555.50	42539.24
555.67	42595.41
555.83	42080.49
556.00	42756.91
556.16	42923.08
556.33	42459.66
556.50	42569.66
556.66	42766.27
556.83	42714.78
556.99	43288.21
557.16	42703.07
557.32	43175.86
557.49	43316.29
557.65	42754.57
557.82	43023.73
557.98	42976.92
558.15	43126.71
558.32	43208.63
558.48	43140.75
558.65	43278.85
558.81	43166.50
558.98	43189.91
559.14	43079.90
559.31	43215.65
559.47	43042.45
559.64	43344.38
559.80	43339.70
559.97	43690.78
560.13	42913.72
560.30	42923.08
560.46	43470.77
560.63	43604.18
560.79	43302.25
560.96	43590.14
561.12	43728.23
561.29	43297.57
561.45	43782.06
561.61	43423.96
561.78	43648.65
561.94	43732.91
562.11	43501.20
562.27	43217.99
562.44	43550.35
562.60	43746.95
562.77	43339.70
562.93	43379.49
563.10	43798.44
563.26	43667.37
563.42	43814.83
563.59	43761.00
563.75	43468.43
563.92	44266.55
564.08	43578.43
564.24	43973.98
564.41	43739.93
564.57	43999.73
564.74	43938.88
564.90	43885.04
565.07	43805.47
565.23	43973.98
565.39	43957.60
565.56	43908.45
565.72	43810.15
565.88	44055.90
566.05	44374.22
566.21	44079.31
566.38	44034.84
566.54	44060.58
566.70	44203.36
566.87	44360.17
567.03	44226.76
567.19	44069.95
567.36	44039.52
567.52	44083.99
567.68	44294.64
567.85	44189.31
568.01	44566.14
568.17	44252.51
568.34	44271.23
568.50	44350.81
568.66	43866.32
568.83	44308.68
568.99	44205.70
569.15	44849.35
569.32	44184.63
569.48	44151.87
569.64	44514.65
569.81	44449.11
569.97	44556.78
570.13	44383.58
570.30	44135.48
570.46	44580.18
570.62	44690.19
570.78	44421.03
570.95	44112.08
571.11	44711.25
571.27	44397.62
571.43	44062.93
571.60	44018.46
571.76	44409.32
571.92	44519.33
572.09	44460.82
572.25	44680.83
572.41	44442.09
572.57	44687.85
572.74	45476.61
572.90	44364.85
573.06	45181.70
573.22	44868.07
573.38	45092.76
573.55	44612.95
573.71	45071.70
573.87	44868.07
574.03	45181.70
574.20	44755.72
574.36	44765.09
574.52	44858.71
574.68	44832.96
574.84	44708.91
575.01	45050.63
575.17	45277.66
575.33	44765.09
575.49	44851.69
575.65	45024.89
575.82	44542.74
575.98	44591.89
576.14	45347.88
576.30	45139.57
576.46	44779.13
576.62	45106.80
576.79	44839.98
576.95	44650.40
577.11	44362.51
577.27	44739.34
577.43	45052.97
577.59	45223.83
577.75	44680.83
577.92	44643.38
578.08	44800.19
578.24	45085.74
578.40	45067.02
578.56	44617.63
578.72	44959.35
578.88	44776.79
579.04	45081.06
579.21	44821.26
579.37	45195.74
579.53	44889.13
579.69	44872.75
579.85	45373.63
580.01	44919.56
580.17	44734.66
580.33	44793.17
580.49	44947.65
580.65	45045.95
580.82	45326.81
580.98	45390.01
581.14	45048.29
581.30	45354.90
581.46	44875.09
581.62	44952.33
581.78	44788.49
581.94	45586.61
582.10	45144.25
582.26	45212.13
582.42	45380.65
582.58	44900.84
582.74	44692.53
582.90	45062.33
583.06	45528.10
583.22	45263.62
583.38	45357.24
583.54	44973.39
583.70	45280.00
583.86	45610.02
584.02	45120.85
584.18	45364.26
584.34	45013.18
584.50	45954.08
584.66	45301.07
584.82	45392.35
584.98	45347.88
585.14	45153.62
585.30	44711.25
585.46	45483.63
585.62	45265.96
585.78	45146.59
585.94	44933.60
586.10	45268.30
586.26	45036.59
586.42	44690.19
586.58	45373.63
586.74	45155.96
586.90	45354.90
587.06	44996.80
587.22	45141.91
587.38	45031.91
587.54	45294.05
587.70	45432.14
587.86	45368.94
588.02	45301.07
588.18	45392.35
588.34	45181.70
588.49	45118.51
588.65	45216.81
588.81	44928.92
588.97	45574.91
589.13	45382.99
589.29	45240.21
589.45	45535.12
589.61	45525.76
589.77	45710.66
589.93	45610.02
590.08	45766.84
