SpectraSuite Data File
++++++++++++++++++++++++++++++++++++
Date: Fri Oct 25 11:25:26 EDT 2013
User: price-jones
Dark Spectrum Present: No
Reference Spectrum Present: No
Number of Sampled Component Spectra: 1
Spectrometers: USB2+H05261
Integration Time (usec): 100000 (USB2+H05261)
Spectra Averaged: 1 (USB2+H05261)
Boxcar Smoothing: 0 (USB2+H05261)
Correct for Electrical Dark: No (USB2+H05261)
Strobe/Lamp Enabled: No (USB2+H05261)
Correct for Detector Non-linearity: No (USB2+H05261)
Correct for Stray Light: No (USB2+H05261)
Number of Pixels in Processed Spectrum: 2048
>>>>>Begin Processed Spectral Data<<<<<
365.73	255.12
365.92	255.12
366.12	255.12
366.32	154.48
366.52	180.22
366.72	220.01
366.91	163.84
367.11	147.45
367.31	184.90
367.51	145.11
367.70	189.58
367.90	124.05
368.10	154.48
368.30	107.66
368.49	147.45
368.69	126.39
368.89	163.84
369.09	105.32
369.28	154.48
369.48	145.11
369.68	128.73
369.87	234.05
370.07	212.99
370.27	149.79
370.47	285.55
370.66	557.05
370.86	638.97
371.06	697.48
371.25	692.80
371.45	732.59
371.65	702.16
371.84	606.20
372.04	645.99
372.24	688.12
372.44	781.74
372.63	748.97
372.83	730.25
373.03	741.95
373.22	779.40
373.42	723.23
373.62	730.25
373.81	837.91
374.01	793.44
374.21	814.51
374.40	777.06
374.60	781.74
374.79	779.40
374.99	922.17
375.19	858.98
375.38	795.78
375.58	894.08
375.78	931.53
375.97	816.85
376.17	999.41
376.37	826.21
376.56	912.81
376.76	910.47
376.95	954.94
377.15	861.32
377.35	896.43
377.54	903.45
377.74	936.21
377.93	875.36
378.13	950.26
378.33	1029.84
378.52	915.15
378.72	931.53
378.91	903.45
379.11	877.70
379.31	1015.79
379.50	931.53
379.70	889.40
379.89	964.30
380.09	945.58
380.28	997.07
380.48	887.06
380.68	1020.47
380.87	1013.45
381.07	1043.88
381.26	959.62
381.46	959.62
381.65	973.66
381.85	1083.67
382.04	1015.79
382.24	1095.37
382.43	1156.22
382.63	1081.33
382.83	1064.94
383.02	1137.50
383.22	1123.46
383.41	1069.62
383.61	1132.82
383.80	1151.54
384.00	1102.39
384.19	1125.80
384.39	1090.69
384.58	1111.75
384.78	1116.44
384.97	1158.57
385.17	1121.12
385.36	1179.63
385.56	1153.88
385.75	1212.40
385.95	1231.12
386.14	1083.67
386.34	1151.54
386.53	1275.59
386.72	1205.38
386.92	1301.34
387.11	1287.29
387.31	1174.95
387.50	1247.51
387.70	1259.21
387.89	1247.51
388.09	1193.67
388.28	1280.27
388.48	1373.89
388.67	1280.27
388.86	1259.21
389.06	1345.81
389.25	1317.72
389.45	1280.27
389.64	1376.24
389.84	1423.05
390.03	1439.43
390.22	1458.15
390.42	1420.71
390.61	1357.51
390.81	1418.36
391.00	1488.58
391.19	1406.66
391.39	1577.52
391.58	1427.73
391.78	1493.26
391.97	1462.83
392.16	1519.01
392.36	1504.96
392.55	1455.81
392.75	1596.25
392.94	1451.13
393.13	1549.43
393.33	1493.26
393.52	1544.75
393.71	1610.29
393.91	1696.89
394.10	1577.52
394.29	1643.06
394.49	1589.22
394.68	1654.76
394.88	1577.52
395.07	1675.82
395.26	1640.72
395.46	1727.32
395.65	1762.42
395.84	1673.48
396.04	1696.89
396.23	1708.59
396.42	1664.12
396.62	1743.70
396.81	1804.55
397.00	1762.42
397.19	1736.68
397.39	1750.72
397.58	1736.68
397.77	1839.66
397.97	1914.56
398.16	1853.70
398.35	1860.73
398.55	1827.96
398.74	1785.83
398.93	1961.37
399.12	1968.39
399.32	1930.94
399.51	1919.24
399.70	1947.33
399.90	1940.30
400.09	1998.82
400.28	2083.08
400.47	1905.20
400.67	2162.66
400.86	1923.92
401.05	1991.80
401.24	2054.99
401.44	2085.42
401.63	2104.14
401.82	2211.81
402.01	2127.55
402.21	2078.40
402.40	2125.21
402.59	2118.18
402.78	2188.40
402.97	2221.17
403.17	2195.42
403.36	2256.28
403.55	2214.15
403.74	2275.00
403.93	2361.60
404.13	2363.94
404.32	2258.62
404.51	2340.54
404.70	2445.86
404.89	2480.97
405.09	2427.14
405.28	2417.77
405.47	2422.45
405.66	2448.20
405.85	2483.31
406.05	2530.12
406.24	2495.01
406.43	2565.23
406.62	2637.78
406.81	2619.06
407.00	2626.08
407.20	2553.52
407.39	2600.34
407.58	2626.08
407.77	2710.34
407.96	2684.59
408.15	2715.02
408.34	2801.62
408.54	2668.21
408.73	2787.58
408.92	2801.62
409.11	2853.11
409.30	2916.31
409.49	2841.41
409.68	2951.42
409.87	2724.38
410.07	2916.31
410.26	2981.84
410.45	2963.12
410.64	2960.78
410.83	2995.89
411.02	3115.25
411.21	3201.85
411.40	3028.65
411.59	3201.85
411.78	3068.44
411.98	3258.03
412.17	3180.79
412.36	3265.05
412.55	3370.37
412.74	3412.50
412.93	3321.22
413.12	3321.22
413.31	3602.08
413.50	3536.55
413.69	3471.01
413.88	3588.04
414.07	3630.17
414.26	3517.83
414.45	3634.85
414.64	3854.86
414.83	3527.19
415.02	3644.21
415.22	3817.41
415.41	3691.02
415.60	3836.14
415.79	3775.28
415.98	3871.25
416.17	3911.04
416.36	3962.53
416.55	3929.76
416.74	4149.77
416.93	4011.68
417.12	3985.93
417.31	4072.53
417.50	4250.41
417.69	4219.99
417.88	4126.36
418.07	4238.71
418.26	4222.33
418.45	4482.13
418.64	4418.93
418.83	4421.27
419.02	4369.78
419.21	4348.72
419.39	4491.49
419.58	4470.42
419.77	4327.65
419.96	4461.06
420.15	4486.81
420.34	4442.34
420.53	4571.07
420.72	4741.93
420.91	4608.51
421.10	4599.15
421.29	4727.88
421.48	4727.88
421.67	4688.09
421.86	4678.73
422.05	4835.55
422.24	4758.31
422.43	4718.52
422.61	4926.83
422.80	4699.80
422.99	4947.89
423.18	4943.21
423.37	4968.96
423.56	4908.10
423.75	4835.55
423.94	4751.29
424.13	4667.03
424.32	4788.74
424.50	4889.38
424.69	4973.64
424.88	5039.17
425.07	4830.87
425.26	4788.74
425.45	4954.91
425.64	5046.20
425.83	5034.49
426.01	5062.58
426.20	5144.50
426.39	5123.43
426.58	5022.79
426.77	4933.85
426.96	5069.60
427.15	5076.62
427.33	5179.61
427.52	5102.37
427.71	5097.69
427.90	5069.60
428.09	5284.93
428.28	5511.96
428.46	5203.01
428.65	5291.95
428.84	5465.15
429.03	5460.47
429.22	5350.46
429.40	5439.40
429.59	5359.83
429.78	5341.10
429.97	5263.86
430.16	5504.94
430.34	5521.32
430.53	5556.43
430.72	5626.65
430.91	5551.75
431.10	5535.37
431.28	5535.37
431.47	5720.27
431.66	5689.84
431.85	5741.33
432.03	5921.56
432.22	6104.12
432.41	5764.74
432.60	5701.54
432.79	5846.66
432.97	6012.84
433.16	5860.70
433.35	5886.45
433.54	5921.56
433.72	5980.07
433.91	6005.81
434.10	6054.97
434.28	5966.03
434.47	6066.67
434.66	6104.12
434.85	6387.32
435.03	6291.36
435.22	6139.23
435.41	6431.79
435.59	6305.40
435.78	6389.66
435.97	6387.32
436.16	6338.17
436.34	6443.49
436.53	6485.62
436.72	6565.20
436.90	6438.81
437.09	6534.78
437.28	6408.39
437.46	6408.39
437.65	6478.60
437.84	6693.93
438.02	6733.72
438.21	6766.49
438.40	6583.93
438.58	6787.55
438.77	6874.15
438.96	6799.26
439.14	7138.63
439.33	7227.57
439.52	7218.21
439.70	7070.76
439.89	7311.83
440.08	7279.07
440.26	7321.20
440.45	7279.07
440.63	7358.64
440.82	7449.93
441.01	7630.15
441.19	7365.67
441.38	7524.82
441.57	7599.72
441.75	7667.60
441.94	7906.33
442.12	7969.52
442.31	8093.57
442.50	7978.89
442.68	8004.63
442.87	7864.20
443.05	8004.63
443.24	8088.89
443.43	8156.77
443.61	8152.09
443.80	8046.76
443.98	7850.16
444.17	7850.16
444.35	8262.09
444.54	8259.75
444.73	8166.13
444.91	8280.82
445.10	8341.67
445.28	8451.67
445.47	8037.40
445.65	8191.88
445.84	8161.45
446.02	8231.66
446.21	8423.59
446.39	8322.94
446.58	8465.72
446.77	8388.48
446.95	8271.45
447.14	8304.22
447.32	8545.30
447.51	8439.97
447.69	8336.99
447.88	8255.07
448.06	8503.17
448.25	8273.79
448.43	8709.13
448.62	8505.51
448.80	8482.10
448.99	8372.10
449.17	8601.47
449.36	8449.33
449.54	8716.16
449.73	8795.73
449.91	8994.68
450.10	8980.64
450.28	8971.27
450.46	9001.70
450.65	8912.76
450.83	9015.74
451.02	8807.44
451.20	9015.74
451.39	9020.42
451.57	9228.73
451.76	9055.53
451.94	9102.34
452.13	9146.81
452.31	9165.54
452.49	9214.69
452.68	9235.75
452.86	9214.69
453.05	9305.97
453.23	9273.20
453.42	9224.05
453.60	9022.77
453.78	9511.94
453.97	9380.87
454.15	9371.50
454.34	9544.70
454.52	9614.92
454.70	9650.03
454.89	9743.65
455.07	9570.45
455.26	9540.02
455.44	9858.34
455.62	9577.47
455.81	9998.77
455.99	9989.41
456.17	9980.04
456.36	9994.09
456.54	10090.05
456.73	10228.14
456.91	10359.21
457.09	10377.94
457.28	10143.88
457.46	10389.64
457.64	10537.09
457.83	10523.05
458.01	10462.19
458.19	10628.37
458.38	10331.12
458.56	10441.13
458.74	10541.77
458.93	10506.66
459.11	10609.65
459.29	10593.26
459.48	10988.82
459.66	10775.83
459.84	10757.10
460.03	11204.14
460.21	10789.87
460.39	11066.05
460.57	10846.04
460.76	11162.01
460.94	11129.25
461.12	11323.51
461.31	11164.36
461.49	11080.10
461.67	11176.06
461.85	11225.21
462.04	11328.19
462.22	11527.14
462.40	11482.67
462.59	11503.73
462.77	11468.62
462.95	11644.17
463.13	11583.31
463.32	11506.07
463.50	11864.18
463.68	11779.92
463.86	11597.35
464.05	11742.47
464.23	11470.97
464.41	11894.60
464.59	11943.75
464.78	11925.03
464.96	11978.86
465.14	11602.04
465.32	11843.11
465.50	12011.63
465.69	11887.58
465.87	12002.27
466.05	11925.03
466.23	12072.48
466.41	12070.14
466.60	12463.35
466.78	11782.26
466.96	12018.65
467.14	12248.02
467.32	12238.66
467.51	12507.82
467.69	12065.46
467.87	12292.49
468.05	12114.61
468.23	12311.22
468.41	12383.77
468.60	12587.40
468.78	12730.17
468.96	12142.70
469.14	12575.70
469.32	12814.43
469.50	12655.28
469.69	12884.65
469.87	13146.79
470.05	13027.42
470.23	13107.00
470.41	12947.84
470.59	13273.18
470.77	12999.34
470.95	13221.69
471.14	13228.71
471.32	13099.98
471.50	13605.53
471.68	13584.47
471.86	13448.72
472.04	13572.77
472.22	13947.25
472.40	13722.56
472.58	13760.01
472.77	14111.09
472.95	13891.08
473.13	14363.87
473.31	13937.89
473.49	14043.21
473.67	13958.96
473.85	14005.77
474.03	14431.74
474.21	14492.60
474.39	14569.83
474.57	14473.87
474.75	14857.72
474.93	14621.33
475.12	14967.73
475.30	14876.44
475.48	15098.80
475.66	15105.82
475.84	15204.12
476.02	15087.09
476.20	15229.87
476.38	15587.97
476.56	15988.20
476.74	15976.50
476.92	15662.86
477.10	15777.55
477.28	15751.81
477.46	16133.31
477.64	16198.85
477.82	16285.45
478.00	16683.34
478.18	16835.47
478.36	16903.35
478.54	17069.53
478.72	17174.85
478.90	17128.04
479.08	17444.01
479.26	17420.61
479.44	17642.96
479.62	17752.96
479.80	17722.54
479.98	17895.74
480.16	18445.76
480.34	18239.79
480.52	18724.29
480.70	18443.42
480.88	18452.78
481.06	18574.49
481.24	18593.22
481.41	18939.62
481.59	19255.59
481.77	19372.61
481.95	19087.07
482.13	19634.75
482.31	19421.77
482.49	19936.68
482.67	20039.67
482.85	20428.20
483.03	20304.15
483.21	20477.35
483.39	20833.11
483.57	20807.36
483.74	21022.69
483.92	21071.84
484.10	21043.76
484.28	21345.69
484.46	21682.72
484.64	22162.53
484.82	21706.13
485.00	22349.78
485.18	22576.81
485.35	22817.88
485.53	22405.95
485.71	22459.78
485.89	23616.01
486.07	23356.21
486.25	23253.22
486.43	23386.63
486.61	23627.71
486.78	23742.39
486.96	23939.00
487.14	24554.56
487.32	24360.30
487.50	24570.94
487.68	24526.47
487.85	24730.10
488.03	25165.44
488.21	25586.74
488.39	25415.88
488.57	25696.74
488.75	26204.64
488.92	26230.38
489.10	26457.42
489.28	26546.36
489.46	26838.92
489.64	27065.96
489.81	27204.05
489.99	27810.25
490.17	27197.02
490.35	27800.88
490.53	27943.66
490.70	28158.99
490.88	27971.74
491.06	28077.07
491.24	28807.31
491.41	28449.21
491.59	29029.66
491.77	28938.38
491.95	29305.85
492.13	29654.59
492.30	30031.41
492.48	29766.93
492.66	30085.25
492.84	29928.43
493.01	30803.79
493.19	30614.21
493.37	31030.82
493.54	30787.41
493.72	31208.70
493.90	31171.25
494.08	31325.73
494.25	31826.60
494.43	31791.50
494.61	31945.97
494.79	32259.60
494.96	32292.37
495.14	32444.51
495.32	32528.77
495.49	33247.31
495.67	33099.86
495.85	33413.49
496.02	33731.80
496.20	33656.90
496.38	33619.46
496.55	34066.50
496.73	34426.94
496.91	34108.63
497.09	34677.38
497.26	35012.07
497.44	34604.82
497.62	34731.21
497.79	35337.41
497.97	34946.54
498.14	35419.33
498.32	35599.55
498.50	35629.98
498.67	36472.57
498.85	36037.23
499.03	36613.00
499.20	36140.21
499.38	36664.49
499.56	36858.76
499.73	36587.25
499.91	37029.62
500.08	37359.63
500.26	36959.40
500.44	37521.13
500.61	37141.96
500.79	37343.25
500.97	37619.43
501.14	38328.61
501.32	38239.67
501.49	38436.28
501.67	38586.07
501.84	38550.96
502.02	38539.26
502.20	39042.48
502.37	39154.82
502.55	38829.49
502.72	39580.80
502.90	39412.28
503.07	39065.88
503.25	39693.15
503.43	39419.30
503.60	39412.28
503.78	39672.08
503.95	39901.45
504.13	40238.49
504.30	40018.48
504.48	39915.50
504.65	40517.01
504.83	40615.32
505.01	40971.08
505.18	41081.08
505.36	41368.97
505.53	40914.90
505.71	41567.91
505.88	41497.70
506.06	41354.93
506.23	41762.18
506.41	41500.04
506.58	41724.73
506.76	41876.86
506.93	42213.90
507.11	42216.24
507.28	42307.52
507.46	42412.85
507.63	42593.07
507.81	42738.18
507.98	42244.33
508.16	42927.77
508.33	43091.60
508.50	43110.33
508.68	43419.28
508.85	43660.35
509.03	43473.11
509.20	43421.62
509.38	44198.68
509.55	43833.55
509.73	44451.45
509.90	44093.35
510.08	44486.56
510.25	44158.89
510.42	44463.16
510.60	44924.24
510.77	44608.27
510.95	44926.58
511.12	44865.73
511.30	45006.16
511.47	45240.21
511.64	44809.56
511.82	45844.07
511.99	45357.24
512.17	45603.00
512.34	45406.39
512.51	45914.29
512.69	45925.99
512.86	45769.18
513.04	46279.41
513.21	46284.09
513.38	46190.47
513.56	46775.61
513.73	46686.67
513.90	46801.35
514.08	46351.97
514.25	47117.32
514.43	47051.79
514.60	47349.04
514.77	46960.51
514.95	47103.28
515.12	47215.63
515.29	46866.89
515.47	47547.98
515.64	48128.44
515.81	47779.70
515.99	48018.43
516.16	48121.41
516.33	48280.57
516.51	48879.75
516.68	48182.27
516.85	48285.25
517.03	48488.88
517.20	48193.97
517.37	48451.43
517.54	48802.51
517.72	48718.25
517.89	49223.81
518.06	48685.48
518.24	48931.24
518.41	48882.09
518.58	49031.88
518.75	49013.16
518.93	49453.18
519.10	48739.32
519.27	49478.92
519.45	49256.57
519.62	49502.33
519.79	49886.18
519.96	49495.31
520.14	49766.81
520.31	49984.48
520.48	50279.39
520.65	50115.55
520.83	50504.08
521.00	50541.53
521.17	50183.43
521.34	50571.96
521.52	50614.08
521.69	50513.44
521.86	50553.23
522.03	50983.89
522.20	51110.28
522.38	51316.25
522.55	50890.27
522.72	51129.00
522.89	51084.53
523.07	51276.46
523.24	51049.42
523.41	51470.72
523.58	51246.03
523.75	51725.84
523.92	51533.92
524.10	51877.97
524.27	51737.54
524.44	51789.03
524.61	51889.68
524.78	51629.88
524.96	51718.82
525.13	51929.47
525.30	51964.57
525.47	52360.12
525.64	52128.41
525.81	52350.76
525.98	52465.45
526.16	52310.97
526.33	52456.09
526.50	52853.98
526.67	52411.62
526.84	52596.52
527.01	52680.78
527.18	52629.29
527.36	52650.35
527.53	52786.10
527.70	53141.86
527.87	53148.88
528.04	53057.60
528.21	53036.54
528.38	53066.97
528.55	53120.80
528.72	53043.56
528.89	53209.74
529.07	52931.22
529.24	53202.72
529.41	53256.55
529.58	53265.91
529.75	53485.92
529.92	53523.37
530.09	53165.27
530.26	53619.33
530.43	53729.34
530.60	53551.46
530.77	53467.20
530.94	53778.49
531.11	53911.90
531.28	54000.84
531.46	54136.59
531.63	54007.86
531.80	54017.22
531.97	54277.02
532.14	54307.45
532.31	54045.31
532.48	54415.11
532.65	54377.67
532.82	54335.54
532.99	54454.90
533.16	54258.30
533.33	54511.08
533.50	54653.85
533.67	54571.93
533.84	54653.85
534.01	54653.85
534.18	54677.25
534.35	55044.72
534.52	54644.49
534.69	54892.58
534.86	55269.41
535.03	54990.89
535.20	54976.84
535.37	54920.67
535.54	55318.56
535.71	54897.27
535.88	55386.44
536.05	55187.49
536.22	55402.82
536.38	55501.12
536.55	55157.06
536.72	55426.23
536.89	55150.04
537.06	55395.80
537.23	55566.66
537.40	55360.69
537.57	55386.44
537.74	55547.93
537.91	55772.63
538.08	55559.64
538.25	55611.13
538.42	55576.02
538.59	55913.06
538.75	55693.05
538.92	55730.50
539.09	55978.59
539.26	55765.60
539.43	55840.50
539.60	55899.01
539.77	56016.04
539.94	55917.74
540.11	56123.71
540.28	56135.41
540.44	56034.77
540.61	56313.29
540.78	56116.68
540.95	56140.09
541.12	55945.83
541.29	56507.55
541.46	56175.20
541.62	56243.07
541.79	56446.70
541.96	56112.00
542.13	56360.10
542.30	56537.98
542.47	56591.81
542.63	56706.50
542.80	56734.59
542.97	56889.06
543.14	57071.62
543.31	57088.01
543.48	57003.75
543.64	57366.53
543.81	57050.56
543.98	57001.41
544.15	56797.78
544.32	57277.59
544.48	57176.95
544.65	57322.06
544.82	57151.20
544.99	56954.60
545.16	57387.60
545.32	57418.02
545.49	57464.83
545.66	57483.56
545.83	57263.55
546.00	57513.98
546.16	57420.36
546.33	57387.60
546.50	57343.12
546.67	57551.43
546.83	57284.61
547.00	57457.81
547.17	57551.43
547.34	57787.83
547.50	57764.42
547.67	57689.52
547.84	57839.32
548.00	57977.41
548.17	57925.92
548.34	57586.54
548.51	58085.07
548.67	58042.95
548.84	57827.62
549.01	57970.39
549.18	57944.64
549.34	58066.35
549.51	57862.72
549.68	58089.76
549.84	57970.39
550.01	58351.90
550.18	58024.22
550.34	58234.87
550.51	58326.15
550.68	58181.04
550.84	57965.71
551.01	58312.11
551.18	58494.67
551.34	58293.38
551.51	58473.60
551.68	58398.71
551.84	58494.67
552.01	58017.20
552.18	58578.93
552.34	58159.97
552.51	58379.98
552.68	58272.32
552.84	58487.65
553.01	58688.93
553.18	58651.48
553.34	58677.23
553.51	58450.20
553.67	58667.87
553.84	58740.42
554.01	58721.70
554.17	58674.89
554.34	58658.51
554.51	58749.79
554.67	58763.83
554.84	58770.85
555.00	58953.41
555.17	58798.94
555.33	58667.87
555.50	58672.55
555.67	58784.90
555.83	58515.73
556.00	58894.90
556.16	59028.31
556.33	59150.02
556.50	58782.55
556.66	59051.72
556.83	58972.14
556.99	59285.77
557.16	59161.72
557.32	59344.28
557.49	59365.35
557.65	59222.58
557.82	59203.85
557.98	59309.18
558.15	59236.62
558.32	59426.20
558.48	59114.91
558.65	59234.28
558.81	59063.42
558.98	59435.56
559.14	59290.45
559.31	59458.97
559.47	59360.67
559.64	59449.61
559.80	59674.30
559.97	59636.85
560.13	59386.41
560.30	59402.80
560.46	59480.03
560.63	59601.74
560.79	59704.73
560.96	59655.57
561.12	59344.28
561.29	59599.40
561.45	59744.51
561.61	59564.29
561.78	59470.67
561.94	59465.99
562.11	59711.75
562.27	59849.84
562.44	59681.32
562.60	59678.98
562.77	59540.89
562.93	59583.02
563.10	59924.74
563.26	59643.87
563.42	59999.63
563.59	59814.73
563.75	59662.60
563.92	59901.33
564.08	59742.17
564.24	59983.25
564.41	59828.77
564.57	59957.50
564.74	59896.65
564.90	59805.37
565.07	60079.21
565.23	59877.93
565.39	60013.68
565.56	60072.19
565.72	59980.91
565.88	59882.61
566.05	59987.93
566.21	59920.05
566.38	59810.05
566.54	59971.55
566.70	60205.60
566.87	60130.70
567.03	59966.87
567.19	60046.44
567.36	60245.39
567.52	60009.00
567.68	60193.90
567.85	60292.20
568.01	60062.83
568.17	60119.00
568.34	60268.79
568.50	60254.75
568.66	60121.34
568.83	60233.69
568.99	60020.70
569.15	60179.85
569.32	60121.34
569.48	60317.95
569.64	60172.83
569.81	60114.32
569.97	59990.27
570.13	60329.65
570.30	60413.91
570.46	60357.74
570.62	60329.65
570.78	60479.44
570.95	60285.18
571.11	60458.38
571.27	60315.61
571.43	60350.71
571.60	60243.05
571.76	60322.63
571.92	60353.05
572.09	60353.05
572.25	60439.65
572.41	60287.52
572.57	60495.83
572.74	60519.23
572.90	60441.99
573.06	60500.51
573.22	60449.02
573.38	60376.46
573.55	60568.38
573.71	60601.15
573.87	60289.86
574.03	60374.12
574.20	60535.62
574.36	60285.18
574.52	60594.13
574.68	60662.00
574.84	60807.12
575.01	60612.85
575.17	60575.40
575.33	60409.23
575.49	60378.80
575.65	60523.91
575.82	60704.13
575.98	60626.90
576.14	60825.84
576.30	60767.33
576.46	60528.59
576.62	60495.83
576.79	60657.32
576.95	60516.89
577.11	60509.87
577.27	60533.28
577.43	60697.11
577.59	60584.77
577.75	60470.08
577.92	60395.18
578.08	60573.06
578.24	60701.79
578.40	60622.22
578.56	60912.44
578.72	60465.40
578.88	60809.46
579.04	60781.37
579.21	60654.98
579.37	60750.94
579.53	60835.20
579.69	60575.40
579.85	60493.49
580.01	60470.08
580.17	60491.15
580.33	60676.05
580.49	60701.79
580.65	60552.00
580.82	60694.77
580.98	60554.34
581.14	60753.29
581.30	60837.54
581.46	60671.37
581.62	60617.53
581.78	60683.07
581.94	60633.92
582.10	60542.64
582.26	60669.03
582.42	60638.60
582.58	60598.81
582.74	60680.73
582.90	60767.33
583.06	60804.78
583.22	60559.02
583.38	60757.97
583.54	60664.35
583.70	60704.13
583.86	60729.88
584.02	60589.45
584.18	60851.59
584.34	60647.96
584.50	60856.27
584.66	60701.79
584.82	60575.40
584.98	60919.46
585.14	61010.74
585.30	60662.00
585.46	60942.87
585.62	60800.10
585.78	60989.68
585.94	60659.66
586.10	61024.79
586.26	60856.27
586.42	60931.17
586.58	60823.50
586.74	60800.10
586.90	60825.84
587.06	60935.85
587.22	61078.62
587.38	60786.05
587.54	61064.58
587.70	60987.34
587.86	60865.63
588.02	60828.18
588.18	60968.61
588.34	60867.97
588.49	60926.49
