SpectraSuite Data File
++++++++++++++++++++++++++++++++++++
Date: Fri Oct 25 10:44:34 EDT 2013
User: price-jones
Dark Spectrum Present: No
Reference Spectrum Present: No
Number of Sampled Component Spectra: 1
Spectrometers: USB2+H05261
Integration Time (usec): 100000 (USB2+H05261)
Spectra Averaged: 1 (USB2+H05261)
Boxcar Smoothing: 0 (USB2+H05261)
Correct for Electrical Dark: No (USB2+H05261)
Strobe/Lamp Enabled: No (USB2+H05261)
Correct for Detector Non-linearity: No (USB2+H05261)
Correct for Stray Light: No (USB2+H05261)
Number of Pixels in Processed Spectrum: 2048
>>>>>Begin Processed Spectral Data<<<<<
365.73	102.98
365.92	102.98
366.12	102.98
366.32	11.70
366.52	0.00
366.72	67.88
366.91	0.00
367.11	11.70
367.31	63.19
367.51	0.00
367.70	37.45
367.90	30.43
368.10	39.79
368.30	14.04
368.49	18.72
368.69	28.09
368.89	72.56
369.09	86.60
369.28	58.51
369.48	86.60
369.68	128.73
369.87	63.19
370.07	77.24
370.27	79.58
370.47	152.13
370.66	367.46
370.86	369.80
371.06	437.68
371.25	400.23
371.45	374.49
371.65	416.62
371.84	407.25
372.04	416.62
372.24	393.21
372.44	393.21
372.63	491.51
372.83	461.09
373.03	421.30
373.22	435.34
373.42	465.77
373.62	533.64
373.81	592.16
374.01	585.13
374.21	571.09
374.40	533.64
374.60	552.37
374.79	564.07
374.99	589.82
375.19	517.26
375.38	564.07
375.58	578.11
375.78	425.98
375.97	538.32
376.17	587.47
376.37	594.50
376.56	627.26
376.76	550.03
376.95	603.86
377.15	545.34
377.35	613.22
377.54	601.52
377.74	615.56
377.93	606.20
378.13	634.29
378.33	629.60
378.52	636.63
378.72	636.63
378.91	585.13
379.11	592.16
379.31	596.84
379.50	650.67
379.70	685.78
379.89	667.05
380.09	638.97
380.28	674.07
380.48	723.23
380.68	573.43
380.87	648.33
381.07	706.84
381.26	716.20
381.46	709.18
381.65	683.44
381.85	631.94
382.04	641.31
382.24	664.71
382.43	674.07
382.63	653.01
382.83	688.12
383.02	660.03
383.22	723.23
383.41	660.03
383.61	671.73
383.80	770.04
384.00	711.52
384.19	746.63
384.39	802.80
384.58	734.93
384.78	727.91
384.97	788.76
385.17	798.12
385.36	770.04
385.56	739.61
385.75	713.86
385.95	741.95
386.14	791.10
386.34	788.76
386.53	830.89
386.72	798.12
386.92	854.30
387.11	840.25
387.31	854.30
387.50	755.99
387.70	821.53
387.89	770.04
388.09	753.65
388.28	861.32
388.48	823.87
388.67	814.51
388.86	849.61
389.06	840.25
389.25	828.55
389.45	938.55
389.64	880.04
389.84	908.13
390.03	954.94
390.22	947.92
390.42	912.81
390.61	816.85
390.81	929.19
391.00	1008.77
391.19	1067.28
391.39	936.21
391.58	950.26
391.78	940.90
391.97	887.06
392.16	816.85
392.36	1001.75
392.55	973.66
392.75	987.71
392.94	919.83
393.13	961.96
393.33	924.51
393.52	990.05
393.71	1004.09
393.91	1041.54
394.10	1083.67
394.29	1076.65
394.49	1032.18
394.68	1151.54
394.88	1086.01
395.07	1121.12
395.26	1139.84
395.46	1114.10
395.65	1076.65
395.84	1142.18
396.04	1200.69
396.23	1001.75
396.42	1172.61
396.62	1151.54
396.81	1163.25
397.00	1191.33
397.19	1083.67
397.39	1228.78
397.58	1268.57
397.77	1210.06
397.97	1247.51
398.16	1186.65
398.35	1327.08
398.55	1327.08
398.74	1294.32
398.93	1324.74
399.12	1238.14
399.32	1282.61
399.51	1413.68
399.70	1394.96
399.90	1378.58
400.09	1420.71
400.28	1540.07
400.47	1481.56
400.67	1441.77
400.86	1575.18
401.05	1497.94
401.24	1521.35
401.44	1528.37
401.63	1488.58
401.82	1645.40
402.01	1495.60
402.21	1540.07
402.40	1661.78
402.59	1582.20
402.78	1558.80
402.97	1500.28
403.17	1547.09
403.36	1540.07
403.55	1675.82
403.74	1743.70
403.93	1636.03
404.13	1636.03
404.32	1549.43
404.51	1593.90
404.70	1652.42
404.89	1668.80
405.09	1785.83
405.28	1806.89
405.47	1781.15
405.66	1851.36
405.85	1788.17
406.05	1781.15
406.24	1788.17
406.43	1827.96
406.62	1755.40
406.81	1984.77
407.00	1886.47
407.20	1762.42
407.39	1846.68
407.58	1991.80
407.77	1944.99
407.96	2036.27
408.15	1968.39
408.34	2059.67
408.54	2062.01
408.73	2120.53
408.92	2094.78
409.11	2181.38
409.30	2059.67
409.49	2057.33
409.68	1975.41
409.87	2052.65
410.07	2150.95
410.26	2244.57
410.45	2165.00
410.64	2087.76
410.83	2129.89
411.02	2253.94
411.21	2321.81
411.40	2438.84
411.59	2361.60
411.78	2410.75
411.98	2401.39
412.17	2466.92
412.36	2349.90
412.55	2401.39
412.74	2469.27
412.93	2382.67
413.12	2448.20
413.31	2583.95
413.50	2572.25
413.69	2607.36
413.88	2663.53
414.07	2661.19
414.26	2665.87
414.45	2628.42
414.64	2717.36
414.83	2848.43
415.02	2750.13
415.22	2726.72
415.41	2918.65
415.60	2892.90
415.79	2857.79
415.98	3014.61
416.17	2939.71
416.36	2923.33
416.55	2977.16
416.74	2909.29
416.93	2993.55
417.12	3047.38
417.31	3073.12
417.50	3021.63
417.69	3145.68
417.88	3124.62
418.07	3075.46
418.26	3098.87
418.45	3152.70
418.64	3262.71
418.83	3344.63
419.02	3314.20
419.21	3243.98
419.39	3304.84
419.58	3370.37
419.77	3269.73
419.96	3332.92
420.15	3339.94
420.34	3321.22
420.53	3410.16
420.72	3405.48
420.91	3330.58
421.10	3545.91
421.29	3644.21
421.48	3391.44
421.67	3524.85
421.86	3473.36
422.05	3473.36
422.24	3496.76
422.43	3475.70
422.61	3578.68
422.80	3599.74
422.99	3447.61
423.18	3566.98
423.37	3534.21
423.56	3562.30
423.75	3653.58
423.94	3623.15
424.13	3426.54
424.32	3456.97
424.50	3602.08
424.69	3637.19
424.88	3700.39
425.07	3510.80
425.26	3471.01
425.45	3716.77
425.64	3716.77
425.83	3754.22
426.01	3742.52
426.20	3644.21
426.39	3712.09
426.58	3691.02
426.77	3648.90
426.96	3648.90
427.15	3756.56
427.33	3770.60
427.52	3843.16
427.71	3747.20
427.90	3772.94
428.09	3794.01
428.28	3805.71
428.46	3826.78
428.65	3824.44
428.84	3901.67
429.03	3971.89
429.22	3779.97
429.40	3794.01
429.59	3918.06
429.78	3719.11
429.97	3634.85
430.16	3623.15
430.34	3836.14
430.53	3990.61
430.72	3911.04
430.91	4117.00
431.10	3985.93
431.28	4135.73
431.47	4119.34
431.66	4290.20
431.85	4028.06
432.03	4367.44
432.22	4194.24
432.41	4332.33
432.60	4215.30
432.79	4301.90
432.97	4451.70
433.16	4418.93
433.35	4215.30
433.54	4278.50
433.72	4311.27
433.91	4264.46
434.10	4472.76
434.28	4428.29
434.47	4400.21
434.66	4402.55
434.85	4428.29
435.03	4617.88
435.22	4440.00
435.41	4713.84
435.59	4540.64
435.78	4727.88
435.97	4697.46
436.16	4652.98
436.34	4603.83
436.53	4713.84
436.72	4777.03
436.90	4734.90
437.09	4802.78
437.28	4552.34
437.46	4683.41
437.65	4734.90
437.84	4720.86
438.02	4706.82
438.21	4791.08
438.40	4788.74
438.58	5048.54
438.77	4994.70
438.96	4978.32
439.14	5093.01
439.33	5160.88
439.52	5064.92
439.70	5200.67
439.89	5273.23
440.08	5184.29
440.26	5247.48
440.45	5320.04
440.63	5472.17
440.82	5544.73
441.01	5385.57
441.19	5500.26
441.38	5479.19
441.57	5547.07
441.75	5659.42
441.94	5727.29
442.12	5600.90
442.31	5788.14
442.50	5762.40
442.68	5748.36
442.87	5762.40
443.05	5881.77
443.24	5905.17
443.43	5874.74
443.61	5830.27
443.80	6272.64
443.98	5706.23
444.17	5717.93
444.35	5919.21
444.54	6038.58
444.73	5954.32
444.91	5937.94
445.10	5884.11
445.28	5987.09
445.47	5907.51
445.65	5926.24
445.84	5909.85
446.02	6146.25
446.21	5949.64
446.39	6085.39
446.58	6012.84
446.77	6176.67
446.95	5973.05
447.14	6092.41
447.32	6071.35
447.51	6076.03
447.69	6143.91
447.88	6146.25
448.06	6188.38
448.25	5987.09
448.43	6071.35
448.62	6127.52
448.80	6132.20
448.99	6342.85
449.17	6300.72
449.36	6150.93
449.54	6499.67
449.73	6476.26
449.91	6541.80
450.10	6424.77
450.28	6576.91
450.46	6586.27
450.65	6544.14
450.83	6715.00
451.02	6651.80
451.20	6614.35
451.39	6511.37
451.57	6476.26
451.76	6413.07
451.94	6483.28
452.13	6848.41
452.31	6703.29
452.49	6597.97
452.68	6621.38
452.86	6399.02
453.05	6562.86
453.23	6871.81
453.42	6656.48
453.60	6682.23
453.78	6923.30
453.97	6813.30
454.15	6939.69
454.34	6759.47
454.52	6855.43
454.70	6930.33
454.89	6974.80
455.07	7035.65
455.26	7035.65
455.44	6972.46
455.62	7208.85
455.81	7117.57
455.99	7133.95
456.17	7096.50
456.36	7007.56
456.54	7281.41
456.73	7087.14
456.91	7548.23
457.09	7475.67
457.28	7676.96
457.46	7241.62
457.64	7536.52
457.83	7459.29
458.01	7349.28
458.19	7531.84
458.38	7442.90
458.56	7531.84
458.74	7716.75
458.93	7672.28
459.11	7644.19
459.29	7604.40
459.48	7747.17
459.66	7866.54
459.84	7899.31
460.03	7880.58
460.21	7899.31
460.39	7777.60
460.57	7861.86
460.76	7948.46
460.94	7815.05
461.12	7903.99
461.31	7981.23
461.49	8002.29
461.67	7943.78
461.85	8226.98
462.04	7918.03
462.22	8329.97
462.40	8196.56
462.59	8140.38
462.77	7906.33
462.95	8283.16
463.13	8126.34
463.32	8278.47
463.50	8285.50
463.68	8208.26
463.86	8304.22
464.05	8210.60
464.23	8205.92
464.41	8514.87
464.59	8285.50
464.78	8496.14
464.96	8521.89
465.14	8346.35
465.32	8390.82
465.50	8379.12
465.69	8477.42
465.87	8526.57
466.05	8549.98
466.23	8416.57
466.41	8446.99
466.60	8664.66
466.78	8395.50
466.96	8638.92
467.14	8807.44
467.32	8868.29
467.51	8905.74
467.69	8533.59
467.87	8454.02
468.05	9027.45
468.23	8952.55
468.41	8444.65
468.60	8748.92
468.78	8744.24
468.96	8774.67
469.14	8835.52
469.32	8992.34
469.50	8720.84
469.69	8966.59
469.87	9165.54
470.05	9022.77
470.23	9231.07
470.41	9008.72
470.59	9062.55
470.77	9092.98
470.95	9165.54
471.14	9385.55
471.32	9160.86
471.50	9479.17
471.68	9188.94
471.86	9418.32
472.04	9621.94
472.22	9694.50
472.40	9338.74
472.58	9554.07
472.77	9633.64
472.95	9902.81
473.13	9813.87
473.31	9771.74
473.49	9720.24
473.67	9771.74
473.85	9841.95
474.03	10214.10
474.21	10106.43
474.39	10361.55
474.57	10178.99
474.75	10160.27
474.93	10471.56
475.12	10183.67
475.30	10270.27
475.48	10291.34
475.66	10445.81
475.84	10267.93
476.02	10679.86
476.20	10415.38
476.38	10736.04
476.56	11117.54
476.74	10991.16
476.92	10857.75
477.10	10813.28
477.28	11199.46
477.46	10899.87
477.64	11185.42
477.82	11569.27
478.00	11604.38
478.18	11566.93
478.36	11534.16
478.54	11864.18
478.72	11749.49
478.90	11716.72
479.08	11929.71
479.26	12252.70
479.44	12182.49
479.62	12187.17
479.80	12208.23
479.98	12264.41
480.16	12554.63
480.34	12507.82
480.52	12798.05
480.70	12734.85
480.88	12624.85
481.06	12800.39
481.24	12886.99
481.41	13282.54
481.59	13078.91
481.77	13282.54
481.95	13226.37
482.13	13275.52
482.31	13324.67
482.49	13750.65
482.67	13593.83
482.85	13919.17
483.03	14286.63
483.21	14043.21
483.39	14197.69
483.57	14335.78
483.74	14665.80
483.92	14406.00
484.10	14291.31
484.28	14726.65
484.46	14972.41
484.64	15363.28
484.82	14949.00
485.00	15098.80
485.18	15470.94
485.35	15445.20
485.53	15169.01
485.71	15161.99
485.89	15590.31
486.07	15506.05
486.25	15784.57
486.43	15644.14
486.61	16053.73
486.78	16025.65
486.96	16180.12
487.14	16629.51
487.32	16470.35
487.50	16805.05
487.68	16975.91
487.85	16879.94
488.03	17324.65
488.21	17383.16
488.39	17563.38
488.57	17479.12
488.75	17795.09
488.92	17958.93
489.10	17933.18
489.28	17869.99
489.46	18253.84
489.64	18267.88
489.81	18630.66
489.99	18628.32
490.17	18813.23
490.35	18845.99
490.53	19115.16
490.70	19187.71
490.88	18892.80
491.06	19527.09
491.24	19124.52
491.41	19194.73
491.59	19494.32
491.77	19555.18
491.95	19740.08
492.13	20091.16
492.30	20205.84
492.48	20121.59
492.66	20472.67
492.84	20020.94
493.01	20592.03
493.19	20379.04
493.37	20453.94
493.54	20762.89
493.72	21125.68
493.90	21184.19
494.08	21312.92
494.25	21645.27
494.43	21532.93
494.61	21624.21
494.79	21944.86
494.96	21869.97
495.14	21862.94
495.32	22059.55
495.49	21928.48
495.67	22515.95
495.85	22342.75
496.02	22452.76
496.20	22647.02
496.38	22871.72
496.55	22871.72
496.73	23164.28
496.91	23274.29
497.09	23388.97
497.26	23271.95
497.44	23506.00
497.62	23548.13
497.79	23690.90
497.97	23655.79
498.14	24063.05
498.32	24191.78
498.50	23896.87
498.67	24065.39
498.85	24519.45
499.03	24620.10
499.20	24243.27
499.38	24662.22
499.56	24793.29
499.73	24367.32
499.91	24819.04
500.08	25034.37
500.26	24685.63
500.44	24992.24
500.61	25142.03
500.79	24830.74
500.97	25083.52
501.14	25390.13
501.32	25493.12
501.49	25453.33
501.67	25687.38
501.84	25818.45
502.02	25907.39
502.20	25687.38
502.37	25891.01
502.55	26036.12
502.72	26272.51
502.90	26265.49
503.07	26466.78
503.25	26244.43
503.43	26286.56
503.60	26485.50
503.78	26637.64
503.95	26544.02
504.13	26438.69
504.30	27112.77
504.48	26937.23
504.65	27077.66
504.83	27297.67
505.01	27346.82
505.18	27098.72
505.36	27461.51
505.53	27557.47
505.71	27948.34
505.88	27901.53
506.06	27665.13
506.23	27761.09
506.41	27604.28
506.58	27971.74
506.76	28264.31
506.93	27985.79
507.11	27990.47
507.28	28517.09
507.46	28362.61
507.63	28606.03
507.81	28121.54
507.98	28063.02
508.16	28210.48
508.33	28779.23
508.50	28676.24
508.68	28973.49
508.85	29127.97
509.03	29226.27
509.20	29268.40
509.38	29244.99
509.55	29383.09
509.73	29528.20
509.90	29544.58
510.08	29448.62
510.25	29731.83
510.42	29617.14
510.60	29881.62
510.77	30057.16
510.95	30232.70
511.12	29589.05
511.30	30099.29
511.47	30286.53
511.64	30426.96
511.82	30529.95
511.99	30286.53
512.17	30164.82
512.34	30398.88
512.51	30834.22
512.69	30881.03
512.86	30733.57
513.04	31182.96
513.21	30590.80
513.38	30810.81
513.56	31206.36
513.73	31007.42
513.90	31255.51
514.08	31098.70
514.25	31679.15
514.43	31302.32
514.60	31353.82
514.77	31400.63
514.95	31789.16
515.12	31632.34
515.29	31681.49
515.47	31882.78
515.64	32100.45
515.81	31791.50
515.99	32173.00
516.16	31917.89
516.33	31871.07
516.51	32149.60
516.68	31632.34
516.85	31929.59
517.03	32095.77
517.20	32238.54
517.37	32098.11
517.54	32507.70
517.72	32463.23
517.89	32304.07
518.06	32947.72
518.24	32449.19
518.41	32711.33
518.58	32627.07
518.75	33099.86
518.93	33022.62
519.10	32975.81
519.27	33308.16
519.45	33301.14
519.62	33596.05
519.79	33804.36
519.96	33722.44
520.14	33689.67
520.31	33404.13
520.48	33448.60
520.65	33453.28
520.83	34183.52
521.00	34389.49
521.17	34129.69
521.34	34040.75
521.52	34045.43
521.69	34548.65
521.86	34752.27
522.03	34396.51
522.20	34295.87
522.38	34455.03
522.55	34878.66
522.72	34976.97
522.89	34572.05
523.07	34859.94
523.24	35079.95
523.41	34822.49
523.58	34848.24
523.75	35220.38
523.92	35227.40
524.10	35569.12
524.27	35393.58
524.44	35615.93
524.61	35218.04
524.78	35644.02
524.96	35622.95
525.13	35798.49
525.30	35737.64
525.47	35976.37
525.64	36020.84
525.81	35791.47
525.98	35634.66
526.16	35952.97
526.33	35524.65
526.50	35702.53
526.67	35693.17
526.84	36081.70
527.01	35896.80
527.18	36140.21
527.36	36027.87
527.53	36418.74
527.70	37074.09
527.87	36652.79
528.04	36170.64
528.21	36849.39
528.38	36952.38
528.55	36774.50
528.72	36889.18
528.89	37085.79
529.07	36720.66
529.24	36383.63
529.41	36786.20
529.58	36797.90
529.75	36669.17
529.92	37090.47
530.09	37069.40
530.26	37118.56
530.43	37191.11
530.60	37104.51
530.77	37048.34
530.94	37708.37
531.11	37167.71
531.28	37518.79
531.46	37886.25
531.63	37764.54
531.80	37907.32
531.97	37661.56
532.14	37649.86
532.31	37399.42
532.48	37638.15
532.65	37827.74
532.82	37638.15
532.99	37710.71
533.16	37516.45
533.33	37890.93
533.50	38054.77
533.67	37926.04
533.84	38429.26
534.01	38043.07
534.18	38010.30
534.35	38562.67
534.52	38164.78
534.69	38536.92
534.86	38672.67
535.03	38703.10
535.20	38855.23
535.37	38873.96
535.54	38909.07
535.71	38508.83
535.88	38918.43
536.05	38450.32
536.22	38873.96
536.38	38801.40
536.55	38843.53
536.72	38880.98
536.89	38604.80
537.06	39061.20
537.23	39180.57
537.40	39407.60
537.57	39208.65
537.74	39091.63
537.91	39658.04
538.08	39321.00
538.25	39220.36
538.42	39409.94
538.59	39529.31
538.75	39543.35
538.92	39290.57
539.09	39693.15
539.26	39461.43
539.43	39658.04
539.60	39601.86
539.77	39377.17
539.94	39426.32
540.11	39648.68
540.28	39964.65
540.44	40072.31
540.61	39737.62
540.78	39562.08
540.95	39496.54
541.12	39997.41
541.29	39335.04
541.46	39665.06
541.62	39791.45
541.79	40505.31
541.96	39864.00
542.13	40397.65
542.30	40442.12
542.47	40046.57
542.63	40297.00
542.80	40098.06
542.97	40832.99
543.14	40641.06
543.31	40531.06
543.48	40762.77
543.64	41312.80
543.81	41022.57
543.98	40797.88
544.15	41064.70
544.32	41500.04
544.48	41212.15
544.65	40620.00
544.82	41116.19
544.99	40781.49
545.16	41518.76
545.32	41450.89
545.49	41923.68
545.66	41778.56
545.83	41312.80
546.00	41846.44
546.16	41500.04
546.33	41516.42
546.50	41350.24
546.67	41294.07
546.83	41085.76
547.00	41453.23
547.17	41378.33
547.34	41584.30
547.50	42281.78
547.67	41502.38
547.84	41874.52
548.00	42134.32
548.17	41780.90
548.34	42052.41
548.51	41921.34
548.67	41853.46
548.84	42108.58
549.01	42216.24
549.18	41902.61
549.34	42501.79
549.51	42527.53
549.68	42457.32
549.84	42391.78
550.01	42476.04
550.18	42068.79
550.34	42422.21
550.51	42176.45
550.68	42440.93
550.84	42270.08
551.01	42316.89
551.18	42363.70
551.34	42672.65
551.51	42614.13
551.68	42370.72
551.84	42707.76
552.01	42478.38
552.18	42040.70
552.34	42249.01
552.51	42794.36
552.68	42536.90
552.84	42899.68
553.01	42995.64
553.18	43026.07
553.34	42370.72
553.51	42356.67
553.67	42604.77
553.84	42876.27
554.01	42801.38
554.17	42899.68
554.34	42993.30
554.51	42967.55
554.67	42925.42
554.84	43318.64
555.00	42773.29
555.17	42436.25
555.33	42986.28
555.50	43002.66
555.67	42499.45
555.83	43164.16
556.00	43159.48
556.16	43585.46
556.33	43089.26
556.50	43107.99
556.66	43592.48
556.83	42682.01
556.99	43592.48
557.16	43325.66
557.32	43461.41
557.49	43770.36
557.65	43381.83
557.82	43054.15
557.98	43379.49
558.15	43283.53
558.32	43489.49
558.48	43353.74
558.65	43344.38
558.81	43311.61
558.98	43264.80
559.14	43599.50
559.31	43360.76
559.47	43674.40
559.64	43964.62
559.80	43732.91
559.97	43725.89
560.13	43695.46
560.30	43222.67
560.46	43395.87
560.63	43847.60
560.79	44294.64
560.96	44069.95
561.12	43746.95
561.29	43791.42
561.45	43927.17
561.61	43934.20
561.78	43817.17
561.94	43707.16
562.11	43625.25
562.27	44154.21
562.44	44032.50
562.60	44023.14
562.77	44247.83
562.93	44201.02
563.10	43768.02
563.26	43662.69
563.42	44261.87
563.59	43700.14
563.75	43906.11
563.92	44332.09
564.08	44538.05
564.24	44357.83
564.41	44016.11
564.57	43988.03
564.74	43824.19
564.90	43868.66
565.07	44177.61
565.23	44158.89
565.39	43833.55
565.56	44044.20
565.72	43658.01
565.88	44327.41
566.05	43908.45
566.21	44435.07
566.38	43915.47
566.54	44158.89
566.70	44603.59
566.87	44102.71
567.03	44322.72
567.19	45251.92
567.36	44533.37
567.52	44217.40
567.68	44381.24
567.85	44854.03
568.01	44264.21
568.17	44535.71
568.34	44587.21
568.50	44435.07
568.66	44547.42
568.83	44423.37
568.99	44402.30
569.15	44390.60
569.32	44294.64
569.48	43772.70
569.64	44446.77
569.81	44580.18
569.97	43943.56
570.13	44437.41
570.30	44301.66
570.46	44023.14
570.62	43997.39
570.78	43906.11
570.95	44182.29
571.11	44598.91
571.27	44355.49
571.43	44266.55
571.60	44598.91
571.76	44271.23
571.92	44638.70
572.09	44519.33
572.25	44229.10
572.41	44250.17
572.57	44788.49
572.74	44758.06
572.90	44669.12
573.06	44619.97
573.22	44692.53
573.38	44325.07
573.55	44327.41
573.71	44587.21
573.87	44776.79
574.03	44226.76
574.20	44783.81
574.36	44713.59
574.52	44678.49
574.68	44657.42
574.84	44371.88
575.01	44488.90
575.17	44542.74
575.33	44315.70
575.49	44524.01
575.65	45059.99
575.82	45111.49
575.98	44477.20
576.14	44882.11
576.30	44676.15
576.46	44713.59
576.62	44346.13
576.79	44746.36
576.95	43997.39
577.11	44531.03
577.27	44739.34
577.43	44690.19
577.59	44781.47
577.75	44648.06
577.92	44652.74
578.08	44334.43
578.24	44278.25
578.40	44037.18
578.56	44495.92
578.72	44854.03
578.88	44699.55
579.04	44980.42
579.21	44729.98
579.37	44741.68
579.53	44928.92
579.69	44498.26
579.85	44964.03
580.01	44374.22
580.17	45076.38
580.33	44870.41
580.49	44718.28
580.65	45186.38
580.82	44978.07
580.98	44631.68
581.14	44568.48
581.30	45092.76
581.46	44795.51
581.62	45031.91
581.78	44575.50
581.94	44638.70
582.10	44524.01
582.26	44921.90
582.42	44917.22
582.58	44582.52
582.74	44903.18
582.90	44839.98
583.06	45048.29
583.22	44713.59
583.38	45174.68
583.54	45476.61
583.70	44767.43
583.86	44884.45
584.02	44179.95
584.18	44589.55
584.34	45078.72
584.50	44755.72
584.66	44547.42
584.82	44657.42
584.98	45010.84
585.14	44964.03
585.30	44385.92
585.46	45284.68
585.62	44671.46
585.78	44818.92
585.94	44416.35
586.10	44594.23
586.26	44898.50
586.42	45071.70
586.58	45368.94
586.74	44893.82
586.90	44664.44
587.06	44875.09
587.22	44886.79
587.38	44835.30
587.54	45158.30
587.70	44928.92
587.86	44755.72
588.02	45020.20
588.18	45010.84
588.34	44797.85
588.49	44360.17
588.65	44219.74
588.81	44748.70
588.97	44580.18
589.13	44580.18
589.29	45006.16
589.45	44556.78
589.61	45235.53
589.77	45146.59
589.93	44823.60
590.08	45258.94
590.24	45111.49
