SpectraSuite Data File
++++++++++++++++++++++++++++++++++++
Date: Fri Oct 25 10:47:10 EDT 2013
User: price-jones
Dark Spectrum Present: No
Reference Spectrum Present: No
Number of Sampled Component Spectra: 1
Spectrometers: USB2+H05261
Integration Time (usec): 100000 (USB2+H05261)
Spectra Averaged: 1 (USB2+H05261)
Boxcar Smoothing: 0 (USB2+H05261)
Correct for Electrical Dark: No (USB2+H05261)
Strobe/Lamp Enabled: No (USB2+H05261)
Correct for Detector Non-linearity: No (USB2+H05261)
Correct for Stray Light: No (USB2+H05261)
Number of Pixels in Processed Spectrum: 2048
>>>>>Begin Processed Spectral Data<<<<<
365.73	159.16
365.92	159.16
366.12	159.16
366.32	14.04
366.52	0.00
366.72	4.68
366.91	65.54
367.11	30.43
367.31	51.49
367.51	23.41
367.70	70.22
367.90	44.47
368.10	30.43
368.30	44.47
368.49	37.45
368.69	46.81
368.89	95.96
369.09	44.47
369.28	86.60
369.48	98.30
369.68	86.60
369.87	60.85
370.07	140.43
370.27	49.15
370.47	205.97
370.66	365.12
370.86	306.61
371.06	486.83
371.25	458.74
371.45	428.32
371.65	477.47
371.84	411.93
372.04	442.36
372.24	461.09
372.44	451.72
372.63	486.83
372.83	566.41
373.03	468.11
373.22	493.85
373.42	543.00
373.62	568.75
373.81	505.56
374.01	477.47
374.21	468.11
374.40	538.32
374.60	533.64
374.79	531.30
374.99	519.60
375.19	528.96
375.38	477.47
375.58	552.37
375.78	582.79
375.97	550.03
376.17	601.52
376.37	564.07
376.56	683.44
376.76	533.64
376.95	517.26
377.15	617.90
377.35	550.03
377.54	671.73
377.74	660.03
377.93	671.73
378.13	592.16
378.33	599.18
378.52	571.09
378.72	606.20
378.91	629.60
379.11	589.82
379.31	648.33
379.50	674.07
379.70	657.69
379.89	734.93
380.09	667.05
380.28	627.26
380.48	594.50
380.68	589.82
380.87	631.94
381.07	636.63
381.26	674.07
381.46	589.82
381.65	657.69
381.85	624.92
382.04	688.12
382.24	706.84
382.43	683.44
382.63	711.52
382.83	704.50
383.02	725.57
383.22	627.26
383.41	676.41
383.61	657.69
383.80	758.33
384.00	723.23
384.19	727.91
384.39	725.57
384.58	772.38
384.78	814.51
384.97	753.65
385.17	720.88
385.36	674.07
385.56	755.99
385.75	737.27
385.95	765.36
386.14	774.72
386.34	744.29
386.53	763.01
386.72	802.80
386.92	760.67
387.11	763.01
387.31	856.64
387.50	812.17
387.70	777.06
387.89	830.89
388.09	896.43
388.28	837.91
388.48	795.78
388.67	877.70
388.86	847.27
389.06	880.04
389.25	922.17
389.45	858.98
389.64	856.64
389.84	917.49
390.03	903.45
390.22	959.62
390.42	919.83
390.61	887.06
390.81	863.66
391.00	910.47
391.19	973.66
391.39	945.58
391.58	952.60
391.78	980.68
391.97	1013.45
392.16	966.64
392.36	1034.52
392.55	945.58
392.75	947.92
392.94	882.38
393.13	1041.54
393.33	922.17
393.52	898.77
393.71	947.92
393.91	1015.79
394.10	1034.52
394.29	1022.81
394.49	985.37
394.68	1060.26
394.88	1121.12
395.07	1128.14
395.26	1135.16
395.46	1123.46
395.65	1107.07
395.84	1158.57
396.04	1153.88
396.23	1184.31
396.42	1043.88
396.62	1109.41
396.81	1193.67
397.00	1114.10
397.19	1067.28
397.39	1184.31
397.58	1193.67
397.77	1149.20
397.97	1261.55
398.16	1306.02
398.35	1203.04
398.55	1254.53
398.74	1226.44
398.93	1324.74
399.12	1289.64
399.32	1217.08
399.51	1331.76
399.70	1490.92
399.90	1261.55
400.09	1308.36
400.28	1380.92
400.47	1355.17
400.67	1380.92
400.86	1359.85
401.05	1467.52
401.24	1362.19
401.44	1378.58
401.63	1418.36
401.82	1458.15
402.01	1387.94
402.21	1380.92
402.40	1488.58
402.59	1486.24
402.78	1561.14
402.97	1476.88
403.17	1568.16
403.36	1526.03
403.55	1451.13
403.74	1600.93
403.93	1619.65
404.13	1703.91
404.32	1579.86
404.51	1678.16
404.70	1689.87
404.89	1689.87
405.09	1729.66
405.28	1647.74
405.47	1678.16
405.66	1757.74
405.85	1762.42
406.05	1696.89
406.24	1748.38
406.43	1764.76
406.62	1818.60
406.81	1898.17
407.00	1799.87
407.20	1792.85
407.39	1715.61
407.58	1820.94
407.77	1858.39
407.96	1874.77
408.15	1865.41
408.34	1900.52
408.54	1891.15
408.73	1970.73
408.92	1973.07
409.11	2115.84
409.30	2150.95
409.49	2015.20
409.68	1937.96
409.87	2064.35
410.07	2106.48
410.26	2129.89
410.45	2146.27
410.64	2150.95
410.83	2115.84
411.02	2251.60
411.21	2183.72
411.40	2054.99
411.59	2174.36
411.78	2286.70
411.98	2338.20
412.17	2347.56
412.36	2244.57
412.55	2387.35
412.74	2347.56
412.93	2333.51
413.12	2380.32
413.31	2389.69
413.50	2368.62
413.69	2464.58
413.88	2588.63
414.07	2565.23
414.26	2637.78
414.45	2672.89
414.64	2513.74
414.83	2684.59
415.02	2583.95
415.22	2698.64
415.41	2745.45
415.60	2647.15
415.79	2668.21
415.98	2682.25
416.17	2686.94
416.36	2757.15
416.55	2815.66
416.74	2935.03
416.93	2916.31
417.12	2850.77
417.31	2953.76
417.50	2932.69
417.69	3021.63
417.88	3019.29
418.07	3045.04
418.26	3023.97
418.45	3155.04
418.64	3136.32
418.83	3126.96
419.02	3126.96
419.21	3098.87
419.39	3183.13
419.58	3098.87
419.77	3131.64
419.96	3091.85
420.15	3281.43
420.34	3183.13
420.53	3337.60
420.72	3272.07
420.91	3325.90
421.10	3389.10
421.29	3440.59
421.48	3335.26
421.67	3339.94
421.86	3330.58
422.05	3276.75
422.24	3243.98
422.43	3332.92
422.61	3463.99
422.80	3368.03
422.99	3473.36
423.18	3389.10
423.37	3501.44
423.56	3442.93
423.75	3398.46
423.94	3466.33
424.13	3239.30
424.32	3375.05
424.50	3440.59
424.69	3564.64
424.88	3576.34
425.07	3438.25
425.26	3524.85
425.45	3578.68
425.64	3578.68
425.83	3468.67
426.01	3681.66
426.20	3506.12
426.39	3541.23
426.58	3508.46
426.77	3522.51
426.96	3646.55
427.15	3545.91
427.33	3742.52
427.52	3520.17
427.71	3566.98
427.90	3676.98
428.09	3644.21
428.28	3618.47
428.46	3662.94
428.65	3779.97
428.84	3836.14
429.03	3728.47
429.22	3644.21
429.40	3749.54
429.59	3681.66
429.78	3611.45
429.97	3531.87
430.16	3786.99
430.34	3726.13
430.53	3833.80
430.72	3810.39
430.91	3901.67
431.10	3749.54
431.28	4109.98
431.47	4007.00
431.66	4032.74
431.85	4018.70
432.03	4053.81
432.22	4119.34
432.41	4077.21
432.60	4142.75
432.79	4074.87
432.97	4201.26
433.16	4182.54
433.35	4149.77
433.54	4308.93
433.72	4255.09
433.91	4203.60
434.10	4194.24
434.28	4210.62
434.47	4320.63
434.66	4421.27
434.85	4325.31
435.03	4365.10
435.22	4337.01
435.41	4542.98
435.59	4447.02
435.78	4301.90
435.97	4496.17
436.16	4535.96
436.34	4482.13
436.53	4454.04
436.72	4594.47
436.90	4573.41
437.09	4479.79
437.28	4528.94
437.46	4608.51
437.65	4435.32
437.84	4608.51
438.02	4596.81
438.21	4718.52
438.40	4571.07
438.58	4709.16
438.77	4779.37
438.96	4849.59
439.14	4917.47
439.33	4819.16
439.52	4842.57
439.70	5081.30
439.89	4961.94
440.08	5032.15
440.26	5071.94
440.45	5039.17
440.63	5139.82
440.82	5254.50
441.01	5100.03
441.19	5343.44
441.38	5350.46
441.57	5406.64
441.75	5336.42
441.94	5530.69
442.12	5518.98
442.31	5514.30
442.50	5710.91
442.68	5514.30
442.87	5439.40
443.05	5603.24
443.24	5664.10
443.43	5790.49
443.61	5689.84
443.80	5928.58
443.98	5614.95
444.17	5474.51
444.35	5589.20
444.54	5757.72
444.73	5970.71
444.91	5710.91
445.10	5710.91
445.28	5701.54
445.47	5502.60
445.65	5596.22
445.84	5664.10
446.02	5865.38
446.21	5722.61
446.39	5769.42
446.58	5811.55
446.77	5830.27
446.95	5832.62
447.14	5959.00
447.32	5989.43
447.51	5830.27
447.69	5928.58
447.88	5886.45
448.06	5823.25
448.25	6019.86
448.43	6050.28
448.62	5741.33
448.80	5912.19
448.99	6031.56
449.17	6066.67
449.36	5916.87
449.54	6214.12
449.73	6113.48
449.91	6104.12
450.10	6043.26
450.28	6331.15
450.46	6331.15
450.65	6300.72
450.83	6377.96
451.02	6232.85
451.20	6312.42
451.39	6443.49
451.57	6296.04
451.76	6298.38
451.94	6406.05
452.13	6544.14
452.31	6448.18
452.49	6340.51
452.68	6347.53
452.86	6443.49
453.05	6457.54
453.23	6546.48
453.42	6406.05
453.60	6335.83
453.78	6532.44
453.97	6392.00
454.15	6569.88
454.34	6420.09
454.52	6630.74
454.70	6668.19
454.89	6719.68
455.07	6717.34
455.26	6574.56
455.44	6883.52
455.62	6693.93
455.81	6740.74
455.99	6771.17
456.17	7070.76
456.36	7000.54
456.54	6829.68
456.73	6899.90
456.91	7265.02
457.09	7346.94
457.28	7213.53
457.46	6965.43
457.64	7248.64
457.83	7122.25
458.01	7122.25
458.19	7344.60
458.38	7124.59
458.56	7220.55
458.74	7321.20
458.93	7176.08
459.11	7517.80
459.29	7403.11
459.48	7222.89
459.66	7419.50
459.84	7461.63
460.03	7597.38
460.21	7517.80
460.39	7480.35
460.57	7714.41
460.76	7529.50
460.94	7562.27
461.12	7761.22
461.31	7588.02
461.49	7669.94
461.67	7648.87
461.85	7726.11
462.04	7620.78
462.22	8283.16
462.40	7845.48
462.59	7735.47
462.77	8028.04
462.95	7894.63
463.13	7838.45
463.32	7770.58
463.50	8070.17
463.68	8131.02
463.86	8051.44
464.05	8058.46
464.23	8025.70
464.41	8035.06
464.59	7971.86
464.78	8219.96
464.96	8105.28
465.14	7988.25
465.32	8102.93
465.50	8285.50
465.69	8301.88
465.87	8081.87
466.05	8116.98
466.23	8229.32
466.41	8145.06
466.60	8369.76
466.78	8252.73
466.96	8271.45
467.14	8325.29
467.32	8369.76
467.51	8269.11
467.69	8423.59
467.87	8290.18
468.05	8425.93
468.23	8439.97
468.41	8365.07
468.60	8489.12
468.78	8645.94
468.96	8470.40
469.14	8643.60
469.32	8498.49
469.50	8393.16
469.69	8784.03
469.87	8865.95
470.05	8655.30
470.23	8781.69
470.41	8772.33
470.59	8823.82
470.77	8854.25
470.95	9060.21
471.14	9118.73
471.32	8854.25
471.50	8882.33
471.68	9261.50
471.86	9191.28
472.04	9226.39
472.22	9373.85
472.40	9263.84
472.58	9228.73
472.77	9202.99
472.95	9458.10
473.13	9790.46
473.31	9568.11
473.49	9521.30
473.67	9228.73
473.85	9385.55
474.03	9633.64
474.21	9785.78
474.39	9942.60
474.57	9729.61
474.75	10118.14
474.93	9919.19
475.12	9832.59
475.30	10036.22
475.48	9935.57
475.66	10157.92
475.84	10108.77
476.02	10401.34
476.20	10214.10
476.38	10595.61
476.56	10698.59
476.74	10677.52
476.92	10572.20
477.10	10633.05
477.28	10942.00
477.46	10817.96
477.64	10808.59
477.82	11075.42
478.00	11124.57
478.18	11126.91
478.36	11314.15
478.54	11250.96
478.72	11548.20
478.90	11456.92
479.08	11712.04
479.26	11503.73
479.44	11824.39
479.62	11714.38
479.80	12100.57
479.98	11922.69
480.16	12374.41
480.34	12135.68
480.52	12390.80
480.70	12334.62
480.88	12091.21
481.06	12458.67
481.24	12461.01
481.41	12678.68
481.59	12793.37
481.77	12952.52
481.95	12929.12
482.13	12872.95
482.31	12898.69
482.49	13202.96
482.67	13268.50
482.85	13401.91
483.03	13490.85
483.21	13715.54
483.39	13715.54
483.57	13839.59
483.74	13862.99
483.92	14326.42
484.10	13919.17
484.28	14167.26
484.46	14501.96
484.64	14548.77
484.82	14583.88
485.00	14642.39
485.18	14991.13
485.35	14988.79
485.53	14848.36
485.71	14991.13
485.89	15213.48
486.07	15276.68
486.25	15494.35
486.43	15463.92
486.61	15672.23
486.78	15667.55
486.96	15735.42
487.14	15896.92
487.32	16135.65
487.50	16049.05
487.68	16365.03
487.85	16624.83
488.03	16830.79
488.21	16842.50
488.39	16959.52
488.57	17039.10
488.75	17074.21
488.92	17364.43
489.10	17231.02
489.28	17429.97
489.46	17752.96
489.64	17869.99
489.81	17841.90
489.99	18221.07
490.17	18307.67
490.35	18497.25
490.53	18235.11
490.70	18721.95
490.88	18558.11
491.06	18836.63
491.24	18824.93
491.41	18726.63
491.59	18546.40
491.77	19058.98
491.95	19087.07
492.13	19527.09
492.30	19566.88
492.48	19758.80
492.66	19634.75
492.84	19613.69
493.01	20088.82
493.19	19822.00
493.37	19871.15
493.54	20159.03
493.72	20744.17
493.90	20507.77
494.08	20826.09
494.25	20830.77
494.43	20814.38
494.61	21123.33
494.79	21170.15
494.96	21376.11
495.14	21448.67
495.32	21596.12
495.49	21661.66
495.67	21923.80
495.85	21977.63
496.02	22136.79
496.20	22181.26
496.38	22366.16
496.55	22195.30
496.73	22864.69
496.91	22398.93
497.09	22967.68
497.26	22689.15
497.44	22717.24
497.62	22958.31
497.79	23342.16
497.97	22967.68
498.14	23466.21
498.32	23311.74
498.50	23339.82
498.67	23527.06
498.85	23370.25
499.03	23931.98
499.20	23791.55
499.38	24088.79
499.56	24030.28
499.73	24091.13
499.91	24023.26
500.08	24755.85
500.26	23915.59
500.44	24512.43
500.61	24266.67
500.79	24301.78
500.97	24678.61
501.14	24723.08
501.32	25146.72
501.49	24929.05
501.67	24957.13
501.84	25069.48
502.02	25385.45
502.20	25277.79
502.37	25298.85
502.55	25432.26
502.72	25685.04
502.90	25830.15
503.07	25497.80
503.25	25598.44
503.43	25717.81
503.60	26127.40
503.78	25940.16
503.95	26199.96
504.13	25802.07
504.30	26146.12
504.48	26225.70
504.65	26506.57
504.83	26785.09
505.01	26314.64
505.18	26574.44
505.36	26972.33
505.53	26761.69
505.71	26944.25
505.88	27276.60
506.06	26607.21
506.23	27077.66
506.41	26785.09
506.58	27381.93
506.76	28065.36
506.93	27482.57
507.11	27777.48
507.28	27700.24
507.46	27754.07
507.63	27786.84
507.81	27866.42
507.98	27887.48
508.16	27866.42
508.33	28278.35
508.50	28130.90
508.68	28077.07
508.85	28685.61
509.03	28465.60
509.20	28613.05
509.38	28774.55
509.55	28828.38
509.73	28491.34
509.90	29212.23
510.08	28638.80
510.25	29055.41
510.42	28994.56
510.60	29111.58
510.77	29443.94
510.95	29605.44
511.12	28891.57
511.30	29673.31
511.47	29607.78
511.64	29755.23
511.82	29685.01
511.99	29823.11
512.17	29701.40
512.34	29720.12
512.51	30218.66
512.69	30272.49
512.86	30345.05
513.04	30321.64
513.21	30258.45
513.38	30267.81
513.56	30595.48
513.73	30143.76
513.90	30654.00
514.08	30363.77
514.25	30909.11
514.43	31318.71
514.60	30377.81
514.77	30965.29
514.95	31140.83
515.12	30974.65
515.29	31129.12
515.47	31356.16
515.64	30911.46
515.81	31033.16
515.99	31470.84
516.16	31398.29
516.33	31662.77
516.51	31393.61
516.68	31171.25
516.85	31330.41
517.03	31405.31
517.20	31814.90
517.37	31955.33
517.54	31826.60
517.72	31651.06
517.89	32100.45
518.06	31793.84
518.24	31772.77
518.41	32128.53
518.58	31922.57
518.75	32158.96
518.93	32833.04
519.10	32362.59
519.27	32613.02
519.45	32503.02
519.62	32659.84
519.79	33053.05
519.96	32566.21
520.14	33160.71
520.31	33254.33
520.48	33046.02
520.65	33083.47
520.83	33141.99
521.00	33202.84
521.17	33060.07
521.34	33296.46
521.52	33612.43
521.69	33439.23
521.86	33951.81
522.03	34075.86
522.20	33254.33
522.38	33680.31
522.55	33790.31
522.72	34143.74
522.89	33907.34
523.07	34143.74
523.24	33944.79
523.41	34078.20
523.58	34099.26
523.75	34714.83
523.92	34279.49
524.10	34698.44
524.27	34806.11
524.44	35091.65
524.61	34763.98
524.78	34775.68
524.96	34993.35
525.13	35040.16
525.30	35239.11
525.47	34902.07
525.64	35250.81
525.81	34916.11
525.98	35189.95
526.16	34918.45
526.33	35211.02
526.50	35466.14
526.67	35154.85
526.84	34986.33
527.01	35543.38
527.18	35438.05
527.36	35372.52
527.53	35653.38
527.70	36184.68
527.87	35885.09
528.04	35800.83
528.21	35990.42
528.38	35974.03
528.55	36116.81
528.72	35880.41
528.89	36587.25
529.07	36343.84
529.24	36112.13
529.41	36041.91
529.58	36634.06
529.75	36301.71
529.92	36348.52
530.09	36196.38
530.26	36893.86
530.43	36769.82
530.60	36613.00
530.77	36465.55
530.94	36905.57
531.11	36968.76
531.28	37181.75
531.46	36744.07
531.63	37249.63
531.80	37017.91
531.97	37331.54
532.14	37308.14
532.31	36980.46
532.48	37411.12
532.65	37549.21
532.82	37081.11
532.99	37577.30
533.16	37249.63
533.33	37071.75
533.50	37617.09
533.67	37813.70
533.84	37041.32
534.01	37619.43
534.18	37226.22
534.35	37755.18
534.52	37846.46
534.69	37923.70
534.86	38199.88
535.03	37858.17
535.20	38185.84
535.37	38469.04
535.54	38349.68
535.71	38106.26
535.88	37766.88
536.05	37944.76
536.22	38087.54
536.38	38274.78
536.55	38148.39
536.72	38012.64
536.89	38515.86
537.06	38272.44
537.23	38492.45
537.40	38724.16
537.57	38293.50
537.74	38422.23
537.91	38869.28
538.08	38983.96
538.25	38651.61
538.42	38431.60
538.59	39283.55
538.75	38291.16
538.92	38902.04
539.09	39187.59
539.26	38637.56
539.43	38438.62
539.60	39597.18
539.77	38885.66
539.94	39363.13
540.11	38838.85
540.28	38923.11
540.44	39292.91
540.61	39042.48
540.78	39519.95
540.95	39615.91
541.12	39519.95
541.29	39344.41
541.46	39838.26
541.62	39798.47
541.79	39440.37
541.96	39611.23
542.13	39372.49
542.30	39622.93
542.47	39517.60
542.63	39157.16
542.80	39730.59
542.97	40304.02
543.14	40477.22
543.31	40512.33
543.48	40044.23
543.64	40758.09
543.81	40666.81
543.98	40252.53
544.15	40596.59
544.32	40301.68
544.48	40657.45
544.65	40657.45
544.82	40336.79
544.99	40058.27
545.16	40428.07
545.32	40390.62
545.49	40795.54
545.66	40781.49
545.83	40842.35
546.00	41123.21
546.16	40891.50
546.33	41022.57
546.50	40399.99
546.67	40793.20
546.83	40149.55
547.00	40758.09
547.17	41067.04
547.34	40865.75
547.50	41024.91
547.67	41141.94
547.84	40711.28
548.00	41446.21
548.17	41420.46
548.34	41263.64
548.51	41537.49
548.67	41869.84
548.84	41844.10
549.01	41202.79
549.18	41619.41
549.34	41720.05
549.51	41677.92
549.68	41785.58
549.84	41673.24
550.01	41345.56
550.18	41631.11
550.34	41560.89
550.51	41406.42
550.68	41680.26
550.84	41818.35
551.01	41811.33
551.18	41816.01
551.34	41766.86
551.51	41715.37
551.68	41750.48
551.84	41745.80
552.01	41792.61
552.18	41825.37
552.34	41551.53
552.51	41998.57
552.68	41729.41
552.84	42466.68
553.01	42246.67
553.18	41820.69
553.34	42511.15
553.51	41991.55
553.67	42260.71
553.84	42349.65
554.01	42347.31
554.17	42689.03
554.34	42562.64
554.51	42431.57
554.67	42602.43
554.84	42843.51
555.00	42438.59
555.17	42670.31
555.33	42887.98
555.50	42370.72
555.67	42478.38
555.83	42550.94
556.00	42768.61
556.16	43332.68
556.33	42717.12
556.50	43009.68
556.66	43199.27
556.83	43019.05
556.99	43150.12
557.16	42689.03
557.32	43187.56
557.49	42628.18
557.65	42384.76
557.82	42672.65
557.98	42691.37
558.15	43241.40
558.32	42990.96
558.48	43110.33
558.65	43302.25
558.81	43330.34
558.98	42976.92
559.14	42916.06
559.31	43253.10
559.47	43276.51
559.64	43784.40
559.80	43260.12
559.97	43732.91
560.13	43117.35
560.30	43349.06
560.46	43016.71
560.63	43129.05
560.79	43566.73
560.96	43796.10
561.12	43608.86
561.29	43360.76
561.45	43061.18
561.61	43484.81
561.78	43686.10
561.94	43414.60
562.11	43356.08
562.27	43819.51
562.44	43274.16
562.60	43473.11
562.77	43608.86
562.93	43419.28
563.10	43707.16
563.26	43278.85
563.42	43346.72
563.59	43746.95
563.75	43274.16
563.92	43920.15
564.08	43629.93
564.24	43489.49
564.41	43810.15
564.57	43636.95
564.74	43409.92
564.90	43800.79
565.07	43672.06
565.23	43873.34
565.39	43512.90
565.56	43983.35
565.72	43672.06
565.88	43798.44
566.05	43552.69
566.21	44100.37
566.38	43203.95
566.54	44072.29
566.70	44156.55
566.87	44191.65
567.03	43658.01
567.19	43908.45
567.36	44123.78
567.52	43814.83
567.68	44191.65
567.85	44116.76
568.01	44275.91
568.17	43828.87
568.34	43917.81
568.50	44245.49
568.66	43959.94
568.83	44414.01
568.99	43658.01
569.15	44018.46
569.32	43966.96
569.48	43620.56
569.64	44198.68
569.81	44292.30
569.97	44416.35
570.13	43896.75
570.30	43728.23
570.46	43735.25
570.62	43948.24
570.78	43838.23
570.95	44009.09
571.11	44414.01
571.27	44093.35
571.43	44172.93
571.60	44285.28
571.76	44381.24
571.92	44034.84
572.09	43920.15
572.25	44163.57
572.41	44254.85
572.57	44390.60
572.74	44339.11
572.90	44545.08
573.06	44107.40
573.22	44095.69
573.38	43908.45
573.55	44154.21
573.71	43964.62
573.87	44378.90
574.03	44395.28
574.20	44224.42
574.36	44509.97
574.52	44130.80
574.68	44678.49
574.84	44334.43
575.01	43966.96
575.17	44261.87
575.33	43999.73
575.49	44509.97
575.65	44547.42
575.82	44456.14
575.98	44346.13
576.14	44877.43
576.30	44002.07
576.46	44383.58
576.62	44168.25
576.79	44212.72
576.95	43915.47
577.11	44554.44
577.27	43906.11
577.43	44713.59
577.59	44666.78
577.75	44341.45
577.92	44025.48
578.08	44238.47
578.24	44271.23
578.40	44362.51
578.56	44470.18
578.72	44336.77
578.88	44781.47
579.04	44870.41
579.21	44182.29
579.37	44163.57
579.53	44268.89
579.69	44137.82
579.85	44388.26
580.01	44320.38
580.17	44238.47
580.33	44364.85
580.49	44364.85
580.65	44650.40
580.82	44453.79
580.98	44172.93
581.14	43908.45
581.30	44432.73
581.46	44350.81
581.62	44325.07
581.78	44500.61
581.94	44591.89
582.10	44662.10
582.26	44940.63
582.42	44313.36
582.58	44849.35
582.74	44224.42
582.90	44074.63
583.06	44989.78
583.22	44608.27
583.38	44641.04
583.54	44493.58
583.70	44493.58
583.86	44659.76
584.02	44222.08
584.18	44659.76
584.34	44594.23
584.50	44755.72
584.66	44608.27
584.82	44591.89
584.98	44708.91
585.14	44278.25
585.30	44444.43
585.46	44636.36
585.62	44657.42
585.78	44676.15
585.94	44474.86
586.10	44786.15
586.26	44748.70
586.42	44397.62
586.58	44519.33
586.74	44430.39
586.90	44388.26
587.06	44804.88
587.22	44570.82
587.38	44179.95
587.54	45057.65
587.70	45008.50
587.86	44912.54
588.02	44769.77
588.18	44823.60
588.34	44610.61
588.49	44385.92
588.65	44254.85
588.81	44446.77
588.97	44039.52
589.13	44196.34
589.29	44446.77
589.45	44755.72
589.61	44748.70
589.77	44989.78
589.93	44402.30
590.08	44987.44
590.24	44570.82
590.40	44690.19
