SpectraSuite Data File
++++++++++++++++++++++++++++++++++++
Date: Fri Oct 25 11:22:28 EDT 2013
User: price-jones
Dark Spectrum Present: No
Reference Spectrum Present: No
Number of Sampled Component Spectra: 1
Spectrometers: USB2+H05261
Integration Time (usec): 100000 (USB2+H05261)
Spectra Averaged: 1 (USB2+H05261)
Boxcar Smoothing: 0 (USB2+H05261)
Correct for Electrical Dark: No (USB2+H05261)
Strobe/Lamp Enabled: No (USB2+H05261)
Correct for Detector Non-linearity: No (USB2+H05261)
Correct for Stray Light: No (USB2+H05261)
Number of Pixels in Processed Spectrum: 2048
>>>>>Begin Processed Spectral Data<<<<<
365.73	203.63
365.92	203.63
366.12	203.63
366.32	131.07
366.52	159.16
366.72	243.42
366.91	114.69
367.11	67.88
367.31	95.96
367.51	154.48
367.70	67.88
367.90	121.71
368.10	74.90
368.30	98.30
368.49	161.50
368.69	175.54
368.89	126.39
369.09	145.11
369.28	98.30
369.48	184.90
369.68	177.88
369.87	215.33
370.07	175.54
370.27	276.18
370.47	290.23
370.66	622.58
370.86	580.45
371.06	650.67
371.25	671.73
371.45	603.86
371.65	681.10
371.84	641.31
372.04	669.39
372.24	678.76
372.44	709.18
372.63	765.36
372.83	685.78
373.03	716.20
373.22	695.14
373.42	617.90
373.62	734.93
373.81	807.48
374.01	805.14
374.21	821.53
374.40	877.70
374.60	842.59
374.79	842.59
374.99	826.21
375.19	809.83
375.38	854.30
375.58	912.81
375.78	858.98
375.97	840.25
376.17	826.21
376.37	828.55
376.56	875.36
376.76	894.08
376.95	814.51
377.15	919.83
377.35	931.53
377.54	908.13
377.74	929.19
377.93	933.87
378.13	940.90
378.33	917.49
378.52	917.49
378.72	910.47
378.91	943.24
379.11	931.53
379.31	945.58
379.50	985.37
379.70	1013.45
379.89	1057.92
380.09	959.62
380.28	994.73
380.48	976.00
380.68	966.64
380.87	947.92
381.07	1093.03
381.26	1004.09
381.46	1025.15
381.65	1062.60
381.85	1125.80
382.04	1029.84
382.24	983.02
382.43	1055.58
382.63	1022.81
382.83	1160.91
383.02	1071.97
383.22	1029.84
383.41	1144.52
383.61	1109.41
383.80	1118.78
384.00	1118.78
384.19	1107.07
384.39	1158.57
384.58	1181.97
384.78	1151.54
384.97	1158.57
385.17	1156.22
385.36	1153.88
385.56	1132.82
385.75	1104.73
385.95	1270.91
386.14	1207.72
386.34	1214.74
386.53	1256.87
386.72	1153.88
386.92	1352.83
387.11	1254.53
387.31	1228.78
387.50	1303.68
387.70	1153.88
387.89	1327.08
388.09	1355.17
388.28	1205.38
388.48	1277.93
388.67	1299.00
388.86	1303.68
389.06	1348.15
389.25	1268.57
389.45	1303.68
389.64	1336.45
389.84	1390.28
390.03	1465.18
390.22	1430.07
390.42	1366.87
390.61	1399.64
390.81	1373.89
391.00	1394.96
391.19	1420.71
391.39	1394.96
391.58	1497.94
391.78	1556.46
391.97	1409.00
392.16	1465.18
392.36	1493.26
392.55	1481.56
392.75	1554.12
392.94	1504.96
393.13	1526.03
393.33	1495.60
393.52	1551.78
393.71	1652.42
393.91	1673.48
394.10	1586.88
394.29	1619.65
394.49	1619.65
394.68	1624.33
394.88	1629.01
395.07	1666.46
395.26	1586.88
395.46	1629.01
395.65	1832.64
395.84	1837.32
396.04	1816.26
396.23	1846.68
396.42	1668.80
396.62	1792.85
396.81	1736.68
397.00	1736.68
397.19	1799.87
397.39	1834.98
397.58	1771.79
397.77	1778.81
397.97	1877.11
398.16	1954.35
398.35	1991.80
398.55	1837.32
398.74	1959.03
398.93	1952.01
399.12	1944.99
399.32	1834.98
399.51	2057.33
399.70	2085.42
399.90	2003.50
400.09	2127.55
400.28	2169.68
400.47	2122.87
400.67	2012.86
400.86	2174.36
401.05	2118.18
401.24	2120.53
401.44	2132.23
401.63	2186.06
401.82	2099.46
402.01	2120.53
402.21	2300.75
402.40	2186.06
402.59	2326.49
402.78	2289.04
402.97	2186.06
403.17	2228.19
403.36	2235.21
403.55	2239.89
403.74	2392.03
403.93	2410.75
404.13	2431.82
404.32	2354.58
404.51	2403.73
404.70	2544.16
404.89	2462.24
405.09	2464.58
405.28	2476.29
405.47	2471.61
405.66	2605.02
405.85	2539.48
406.05	2544.16
406.24	2605.02
406.43	2534.80
406.62	2644.81
406.81	2719.70
407.00	2623.74
407.20	2670.55
407.39	2605.02
407.58	2663.53
407.77	2719.70
407.96	2759.49
408.15	2810.98
408.34	2850.77
408.54	2881.20
408.73	2876.52
408.92	2935.03
409.11	2909.29
409.30	2988.86
409.49	2953.76
409.68	2967.80
409.87	2944.39
410.07	3049.72
410.26	3038.02
410.45	3082.49
410.64	3091.85
410.83	3117.59
411.02	3232.28
411.21	3222.92
411.40	3169.09
411.59	3361.01
411.78	3335.26
411.98	3075.46
412.17	3370.37
412.36	3337.60
412.55	3419.52
412.74	3449.95
412.93	3461.65
413.12	3384.41
413.31	3646.55
413.50	3597.40
413.69	3473.36
413.88	3517.83
414.07	3550.59
414.26	3817.41
414.45	3630.17
414.64	3730.81
414.83	3627.83
415.02	3728.47
415.22	3751.88
415.41	3901.67
415.60	3808.05
415.79	3950.82
415.98	3936.78
416.17	3981.25
416.36	3880.61
416.55	4175.52
416.74	4112.32
416.93	3957.85
417.12	4126.36
417.31	4198.92
417.50	4060.83
417.69	4365.10
417.88	4416.59
418.07	4212.96
418.26	4425.95
418.45	4425.95
418.64	4643.62
418.83	4505.53
419.02	4304.25
419.21	4440.00
419.39	4538.30
419.58	4535.96
419.77	4475.10
419.96	4720.86
420.15	4641.28
420.34	4468.08
420.53	4784.06
420.72	4758.31
420.91	4657.67
421.10	4706.82
421.29	4997.04
421.48	4779.37
421.67	4861.29
421.86	4805.12
422.05	4793.42
422.24	4816.82
422.43	4987.68
422.61	4870.65
422.80	5006.41
422.99	5177.26
423.18	4968.96
423.37	5008.75
423.56	5121.09
423.75	4915.12
423.94	4908.10
424.13	4739.58
424.32	4751.29
424.50	5011.09
424.69	5121.09
424.88	5067.26
425.07	5064.92
425.26	5296.63
425.45	5034.49
425.64	4999.38
425.83	5102.37
426.01	5153.86
426.20	5247.48
426.39	5238.12
426.58	5102.37
426.77	5118.75
426.96	5231.10
427.15	5174.92
427.33	5252.16
427.52	5266.21
427.71	5320.04
427.90	5207.69
428.09	5364.51
428.28	5411.32
428.46	5430.04
428.65	5296.63
428.84	5647.71
429.03	5685.16
429.22	5444.09
429.40	5678.14
429.59	5430.04
429.78	5359.83
429.97	5486.22
430.16	5628.99
430.34	5640.69
430.53	5818.57
430.72	5865.38
430.91	5839.64
431.10	5621.97
431.28	5685.16
431.47	5834.96
431.66	5813.89
431.85	5877.09
432.03	6054.97
432.22	6047.94
432.41	5935.60
432.60	5970.71
432.79	5846.66
432.97	6113.48
433.16	5921.56
433.35	6064.33
433.54	6127.52
433.72	6139.23
433.91	6157.95
434.10	6132.20
434.28	6076.03
434.47	6361.58
434.66	6389.66
434.85	6307.74
435.03	6480.94
435.22	6279.66
435.41	6464.56
435.59	6520.73
435.78	6560.52
435.97	6668.19
436.16	6630.74
436.34	6551.16
436.53	6682.23
436.72	6656.48
436.90	6429.45
437.09	6640.10
437.28	6590.95
437.46	6733.72
437.65	6942.03
437.84	6815.64
438.02	6920.96
438.21	6850.75
438.40	6862.45
438.58	7084.80
438.77	7087.14
438.96	6981.82
439.14	7384.39
439.33	7349.28
439.52	7330.56
439.70	7286.09
439.89	7358.64
440.08	7564.61
440.26	7482.69
440.45	7330.56
440.63	7658.23
440.82	7674.62
441.01	7475.67
441.19	7648.87
441.38	7777.60
441.57	7953.14
441.75	7829.09
441.94	8093.57
442.12	8093.57
442.31	8245.71
442.50	8053.78
442.68	8184.85
442.87	8259.75
443.05	8170.81
443.24	8299.54
443.43	8283.16
443.61	8234.00
443.80	8425.93
443.98	8189.53
444.17	7932.08
444.35	8606.15
444.54	8669.34
444.73	8549.98
444.91	8587.43
445.10	8475.08
445.28	8423.59
445.47	8341.67
445.65	8491.46
445.84	8606.15
446.02	8510.19
446.21	8540.61
446.39	8655.30
446.58	8528.91
446.77	8542.96
446.95	8465.72
447.14	8606.15
447.32	8713.81
447.51	8416.57
447.69	8542.96
447.88	8711.47
448.06	8592.11
448.25	8704.45
448.43	8683.39
448.62	8678.71
448.80	8554.66
448.99	8854.25
449.17	8858.93
449.36	8954.89
449.54	9100.00
449.73	9116.39
449.91	9217.03
450.10	9179.58
450.28	9193.62
450.46	9039.15
450.65	9427.68
450.83	9263.84
451.02	9083.62
451.20	9142.13
451.39	9289.59
451.57	9312.99
451.76	9018.08
451.94	9188.94
452.13	9455.76
452.31	9551.73
452.49	9357.46
452.68	9612.58
452.86	9294.27
453.05	9603.22
453.23	9563.43
453.42	9598.54
453.60	9472.15
453.78	9530.66
453.97	9561.09
454.15	9717.90
454.34	9647.69
454.52	9741.31
454.70	9753.01
454.89	10108.77
455.07	9844.29
455.26	10068.98
455.44	10167.29
455.62	10162.61
455.81	10061.96
455.99	10113.45
456.17	10333.47
456.36	10415.38
456.54	10380.28
456.73	10466.88
456.91	10658.80
457.09	10733.70
457.28	10567.52
457.46	10455.17
457.64	10651.78
457.83	10714.97
458.01	10726.68
458.19	10881.15
458.38	10721.99
458.56	11112.86
458.74	10972.43
458.93	10787.53
459.11	10712.63
459.29	10979.45
459.48	10827.32
459.66	10993.50
459.84	10998.18
460.03	11162.01
460.21	10939.66
460.39	11073.07
460.57	11122.23
460.76	11330.53
460.94	11342.24
461.12	11428.84
461.31	11311.81
461.49	11337.56
461.67	11255.64
461.85	11508.41
462.04	11548.20
462.22	11721.40
462.40	11815.02
462.59	11716.72
462.77	11641.82
462.95	11854.81
463.13	11784.60
463.32	11808.00
463.50	11932.05
463.68	12147.38
463.86	12126.32
464.05	11714.38
464.23	11918.01
464.41	12161.42
464.59	11894.60
464.78	12205.89
464.96	12259.73
465.14	12042.06
465.32	12205.89
465.50	12257.39
465.69	12484.42
465.87	12189.51
466.05	12287.81
466.23	12362.71
466.41	12381.43
466.60	12390.80
466.78	12184.83
466.96	12379.09
467.14	12367.39
467.32	12360.37
467.51	12587.40
467.69	12409.52
467.87	12697.41
468.05	12865.92
468.23	12554.63
468.41	12582.72
468.60	12870.61
468.78	12917.42
468.96	12545.27
469.14	13219.35
469.32	13107.00
469.50	12896.35
469.69	13130.41
469.87	13369.14
470.05	13540.00
470.23	13610.22
470.41	13167.85
470.59	13479.15
470.77	13488.51
470.95	13486.17
471.14	13724.90
471.32	13083.59
471.50	13975.34
471.68	13685.11
471.86	13851.29
472.04	13823.20
472.22	14221.10
472.40	13788.10
472.58	14195.35
472.77	14354.51
472.95	14368.55
473.13	14876.44
473.31	14054.92
473.49	14448.13
473.67	14431.74
473.85	14504.30
474.03	14829.63
474.21	14853.04
474.39	15183.06
474.57	15122.20
474.75	15391.36
474.93	15384.34
475.12	15281.36
475.30	15421.79
475.48	15140.93
475.66	15452.22
475.84	15510.73
476.02	15751.81
476.20	15644.14
476.38	16091.18
476.56	16210.55
476.74	16332.26
476.92	16086.50
477.10	16135.65
477.28	16603.76
477.46	16634.19
477.64	16563.97
477.82	16772.28
478.00	17015.69
478.18	16826.11
478.36	17324.65
478.54	17444.01
478.72	17568.06
478.90	17638.28
479.08	17965.95
479.26	18094.68
479.44	17879.35
479.62	17963.61
479.80	18090.00
479.98	18373.21
480.16	19063.66
480.34	18663.43
480.52	18867.06
480.70	18998.13
480.88	18597.90
481.06	18803.86
481.24	19154.94
481.41	19431.13
481.59	19410.06
481.77	20163.72
481.95	19716.67
482.13	19829.02
482.31	19967.11
482.49	20467.98
482.67	20475.01
482.85	20645.87
483.03	20826.09
483.21	20978.22
483.39	21472.07
483.57	21296.53
483.74	21287.17
483.92	21923.80
484.10	21476.76
484.28	22066.57
484.46	22508.93
484.64	22640.00
484.82	22302.96
485.00	22618.94
485.18	22930.23
485.35	23215.77
485.53	23257.90
485.71	23491.96
485.89	23868.78
486.07	23873.46
486.25	23983.47
486.43	23939.00
486.61	24065.39
486.78	24594.35
486.96	24491.37
487.14	24959.47
487.32	25062.46
487.50	24952.45
487.68	25296.51
487.85	25795.04
488.03	25968.24
488.21	26206.98
488.39	26286.56
488.57	26529.97
488.75	26675.09
488.92	26955.95
489.10	27124.47
489.28	27145.53
489.46	27508.32
489.64	27367.88
489.81	28098.13
489.99	27995.15
490.17	28327.50
490.35	28561.56
490.53	28568.58
490.70	28823.70
490.88	28484.32
491.06	29235.63
491.24	29640.54
491.41	29252.02
491.59	29907.37
491.77	30033.75
491.95	30345.05
492.13	30651.66
492.30	30670.38
492.48	30309.94
492.66	30672.72
492.84	30986.35
493.01	31129.12
493.19	31241.47
493.37	31625.32
493.54	31927.25
493.72	32245.56
493.90	32173.00
494.08	32072.36
494.25	32664.52
494.43	32130.87
494.61	33228.59
494.79	33036.66
494.96	32786.22
495.14	33315.19
495.32	33776.27
495.49	33802.02
495.67	33722.44
495.85	34099.26
496.02	34209.27
496.20	34469.07
496.38	34377.79
496.55	34866.96
496.73	35175.91
496.91	35140.80
497.09	35260.17
497.26	35365.49
497.44	35632.32
497.62	35842.96
497.79	36409.37
497.97	35606.57
498.14	36392.99
498.32	37003.87
498.50	36882.16
498.67	37048.34
498.85	36957.06
499.03	37338.57
499.20	36987.49
499.38	37064.72
499.56	37909.66
499.73	38197.54
499.91	37886.25
500.08	38319.25
500.26	38096.90
500.44	38216.27
500.61	38387.13
500.79	38506.49
500.97	38478.41
501.14	38866.94
501.32	39421.64
501.49	38946.51
501.67	39714.21
501.84	39683.78
502.02	39686.12
502.20	39812.51
502.37	39903.79
502.55	39498.88
502.72	39990.39
502.90	39866.34
503.07	40114.44
503.25	40432.75
503.43	40149.55
503.60	40769.79
503.78	40718.30
503.95	41160.66
504.13	41207.47
504.30	41174.70
504.48	41326.84
504.65	41577.28
504.83	41429.82
505.01	42136.66
505.18	41792.61
505.36	42532.22
505.53	41991.55
505.71	42031.34
505.88	42412.85
506.06	42129.64
506.23	43232.04
506.41	42445.62
506.58	42883.30
506.76	43112.67
506.93	43016.71
507.11	43234.38
507.28	43274.16
507.46	43274.16
507.63	43887.39
507.81	43915.47
507.98	43548.01
508.16	43571.41
508.33	44044.20
508.50	44435.07
508.68	44472.52
508.85	44811.90
509.03	44201.02
509.20	44839.98
509.38	45020.20
509.55	44671.46
509.73	45109.14
509.90	45223.83
510.08	45408.73
510.25	45036.59
510.42	45298.73
510.60	45549.17
510.77	45736.41
510.95	46263.03
511.12	45951.74
511.30	45656.83
511.47	46328.56
511.64	46227.92
511.82	46607.09
511.99	46550.91
512.17	46471.34
512.34	46583.68
512.51	47100.94
512.69	46602.41
512.86	47035.41
513.04	47334.99
513.21	47454.36
513.38	47257.76
513.56	47580.75
513.73	47334.99
513.90	47232.01
514.08	47564.37
514.25	48116.73
514.43	47838.21
514.60	47990.34
514.77	48439.73
514.95	48327.38
515.12	48142.48
515.29	48406.96
515.47	48402.28
515.64	48865.70
515.81	48617.61
515.99	49074.01
516.16	48917.20
516.33	48842.30
516.51	48975.71
516.68	49310.41
516.85	49036.56
517.03	49010.82
517.20	49635.74
517.37	49436.80
517.54	49230.83
517.72	49776.17
517.89	49045.93
518.06	49825.32
518.24	49801.92
518.41	49701.28
518.58	49928.31
518.75	49556.16
518.93	50300.45
519.10	50129.59
519.27	50438.54
519.45	50239.60
519.62	50403.44
519.79	50447.91
519.96	50483.01
520.14	50569.61
520.31	50908.99
520.48	51040.06
520.65	50906.65
520.83	51346.67
521.00	51356.03
521.17	51147.73
521.34	51206.24
521.52	51386.46
521.69	51370.08
521.86	52020.75
522.03	51634.56
522.20	51634.56
522.38	52114.37
522.55	51770.31
522.72	51899.04
522.89	52154.16
523.07	51971.60
523.24	52144.80
523.41	52186.92
523.58	52013.73
523.75	52346.08
523.92	52013.73
524.10	52507.58
524.27	52528.64
524.44	52704.18
524.61	52739.29
524.78	52619.92
524.96	52463.11
525.13	52996.75
525.30	52830.57
525.47	53069.31
525.64	52985.05
525.81	53024.84
525.98	52985.05
526.16	53226.12
526.33	53242.51
526.50	53425.07
526.67	53542.10
526.84	53352.51
527.01	53600.61
527.18	53738.70
527.36	53593.59
527.53	53347.83
527.70	53600.61
527.87	53422.73
528.04	53745.72
528.21	53727.00
528.38	54012.54
528.55	54057.01
528.72	53675.51
528.89	54024.25
529.07	53719.98
529.24	53881.47
529.41	54160.00
529.58	54291.07
529.75	54174.04
529.92	54475.97
530.09	54326.17
530.26	54363.62
530.43	54330.86
530.60	54354.26
530.77	54258.30
530.94	54443.20
531.11	54277.02
531.28	54728.75
531.46	54798.96
531.63	55047.06
531.80	54693.64
531.97	54796.62
532.14	54894.92
532.31	54955.78
532.48	55077.49
532.65	55337.29
532.82	54815.35
532.99	55154.72
533.16	55147.70
533.33	55182.81
533.50	55370.05
533.67	55180.47
533.84	55344.31
534.01	55580.70
534.18	55412.18
534.35	55657.94
534.52	55447.29
534.69	55704.75
534.86	55891.99
535.03	55402.82
535.20	55510.49
535.37	55437.93
535.54	55903.70
535.71	55861.57
535.88	55772.63
536.05	56016.04
536.22	56016.04
536.38	55997.32
536.55	56147.11
536.72	56151.79
536.89	56114.34
537.06	56343.72
537.23	56123.71
537.40	55938.80
537.57	56079.24
537.74	56130.73
537.91	56594.15
538.08	56119.02
538.25	56236.05
538.42	56205.62
538.59	56442.02
538.75	56451.38
538.92	56439.68
539.09	56640.96
539.26	56545.00
539.43	56559.05
539.60	56598.83
539.77	56743.95
539.94	56933.53
540.11	56765.01
540.28	56949.92
540.44	56816.50
540.61	56821.19
540.78	56910.13
540.95	56821.19
541.12	56734.59
541.29	56917.15
541.46	57050.56
541.62	56919.49
541.79	57041.20
541.96	56521.60
542.13	57010.77
542.30	57165.24
542.47	57352.49
542.63	57425.04
542.80	57427.38
542.97	57485.90
543.14	57591.22
543.31	57663.78
543.48	57392.28
543.64	57703.57
543.81	57733.99
543.98	57565.48
544.15	57820.59
544.32	57932.94
544.48	57792.51
544.65	57975.07
544.82	57961.03
544.99	57523.35
545.16	57937.62
545.32	57834.64
545.49	57958.69
545.66	58127.20
545.83	58174.02
546.00	58068.69
546.16	57872.09
546.33	58092.10
546.50	57982.09
546.67	58101.46
546.83	58040.60
547.00	58211.46
547.17	58255.93
547.34	58049.97
547.50	58302.74
547.67	58309.77
547.84	58316.79
548.00	58401.05
548.17	58660.85
548.34	58550.84
548.51	58665.53
548.67	58592.97
548.84	58401.05
549.01	58412.75
549.18	58670.21
549.34	58384.66
549.51	58550.84
549.68	58798.94
549.84	58873.84
550.01	58965.12
550.18	58672.55
550.34	58791.92
550.51	58855.11
550.68	58749.79
550.84	58639.78
551.01	58955.75
551.18	58920.65
551.34	58922.99
551.51	58995.54
551.68	59143.00
551.84	58901.92
552.01	58937.03
552.18	59025.97
552.34	58934.69
552.51	59152.36
552.68	59009.59
552.84	59004.91
553.01	59494.08
553.18	59327.90
553.34	59124.27
553.51	59058.74
553.67	59185.13
553.84	59227.26
554.01	59271.73
554.17	59150.02
554.34	59393.43
554.51	59463.65
554.67	59573.66
554.84	59480.03
555.00	59543.23
555.17	59222.58
555.33	59367.69
555.50	59243.64
555.67	59606.42
555.83	59419.18
556.00	59519.82
556.16	59599.40
556.33	59744.51
556.50	59463.65
556.66	59636.85
556.83	59580.68
556.99	59852.18
557.16	59962.18
557.32	59870.90
557.49	59828.77
557.65	59952.82
557.82	59709.41
557.98	59704.73
558.15	59828.77
558.32	59983.25
558.48	59728.13
558.65	59763.24
558.81	60081.55
558.98	59770.26
559.14	59966.87
559.31	60046.44
559.47	60081.55
559.64	60114.32
559.80	60182.19
559.97	59990.27
560.13	60060.49
560.30	60027.72
560.46	60282.84
560.63	60140.07
560.79	60200.92
560.96	60327.31
561.12	60261.77
561.29	60259.43
561.45	60144.75
561.61	60196.24
561.78	60189.22
561.94	60275.82
562.11	60261.77
562.27	60048.78
562.44	60378.80
562.60	60327.31
562.77	60343.69
562.93	60268.79
563.10	60315.61
563.26	60465.40
563.42	60519.23
563.59	60233.69
563.75	60575.40
563.92	60324.97
564.08	60411.57
564.24	60470.08
564.41	60477.10
564.57	60603.49
564.74	60516.89
564.90	60409.23
565.07	60556.68
565.23	60451.36
565.39	60376.46
565.56	60662.00
565.72	60381.14
565.88	60516.89
566.05	60514.55
566.21	60521.57
566.38	60507.53
566.54	60669.03
566.70	60657.32
566.87	60856.27
567.03	60643.28
567.19	60879.67
567.36	60610.51
567.52	60748.60
567.68	60987.34
567.85	60706.47
568.01	60835.20
568.17	60736.90
568.34	60584.77
568.50	60708.82
568.66	60666.69
568.83	60610.51
568.99	60631.58
569.15	60882.02
569.32	60903.08
569.48	60872.65
569.64	60903.08
569.81	60713.50
569.97	60809.46
570.13	60563.70
570.30	60690.09
570.46	60858.61
570.62	60924.14
570.78	60877.33
570.95	60935.85
571.11	60919.46
571.27	60708.82
571.43	60837.54
571.60	60910.10
571.76	60788.39
571.92	60945.21
572.09	60956.91
572.25	60832.86
572.41	60772.01
572.57	60882.02
572.74	61090.32
572.90	60884.36
573.06	61066.92
573.22	61130.11
573.38	61071.60
573.55	61160.54
573.71	61106.71
573.87	60947.55
574.03	60893.72
574.20	61001.38
574.36	60797.76
574.52	61104.37
574.68	61190.97
574.84	61380.55
575.01	61340.76
575.17	61240.12
575.33	61090.32
575.49	60992.02
575.65	61291.61
575.82	61212.03
575.98	60900.74
576.14	61324.38
576.30	61048.19
576.46	61116.07
576.62	61190.97
576.79	60989.68
576.95	61137.13
577.11	61197.99
577.27	61172.24
577.43	61080.96
577.59	61095.00
577.75	61043.51
577.92	61099.68
578.08	61069.26
578.24	61284.59
578.40	61389.91
578.56	61399.27
578.72	61111.39
578.88	61312.67
579.04	61378.21
579.21	61230.75
579.37	61310.33
579.53	61408.64
579.69	61092.66
579.85	61205.01
580.01	61336.08
580.17	61202.67
580.33	61165.22
580.49	61401.61
580.65	61172.24
580.82	61099.68
580.98	60992.02
581.14	61193.31
581.30	61343.10
581.46	61123.09
581.62	61481.19
581.78	61282.25
581.94	61261.18
582.10	61408.64
582.26	61366.51
582.42	61326.72
582.58	61509.28
582.74	61151.18
582.90	61392.25
583.06	61511.62
583.22	61212.03
583.38	61450.77
583.54	61406.30
583.70	61357.14
583.86	61436.72
584.02	61076.28
584.18	61464.81
584.34	61399.27
584.50	61413.32
584.66	61282.25
584.82	61132.45
584.98	61439.06
585.14	61333.74
585.30	61272.88
585.46	61441.40
585.62	61448.42
585.78	61471.83
585.94	61123.09
586.10	61371.19
586.26	61190.97
586.42	61436.72
586.58	61406.30
586.74	61331.40
586.90	61263.52
587.06	61483.53
587.22	61333.74
587.38	61415.66
587.54	61621.62
587.70	61560.77
587.86	61469.49
588.02	61329.06
588.18	61471.83
588.34	61310.33
588.49	61408.64
