SpectraSuite Data File
++++++++++++++++++++++++++++++++++++
Date: Fri Oct 25 10:48:00 EDT 2013
User: price-jones
Dark Spectrum Present: No
Reference Spectrum Present: No
Number of Sampled Component Spectra: 1
Spectrometers: USB2+H05261
Integration Time (usec): 100000 (USB2+H05261)
Spectra Averaged: 1 (USB2+H05261)
Boxcar Smoothing: 0 (USB2+H05261)
Correct for Electrical Dark: No (USB2+H05261)
Strobe/Lamp Enabled: No (USB2+H05261)
Correct for Detector Non-linearity: No (USB2+H05261)
Correct for Stray Light: No (USB2+H05261)
Number of Pixels in Processed Spectrum: 2048
>>>>>Begin Processed Spectral Data<<<<<
365.73	95.96
365.92	95.96
366.12	95.96
366.32	39.79
366.52	0.00
366.72	84.26
366.91	42.13
367.11	21.06
367.31	23.41
367.51	42.13
367.70	102.98
367.90	39.79
368.10	23.41
368.30	21.06
368.49	23.41
368.69	126.39
368.89	18.72
369.09	0.00
369.28	84.26
369.48	117.03
369.68	105.32
369.87	175.54
370.07	105.32
370.27	156.82
370.47	154.48
370.66	390.87
370.86	348.74
371.06	383.85
371.25	379.17
371.45	482.15
371.65	440.02
371.84	423.64
372.04	451.72
372.24	465.77
372.44	437.68
372.63	498.53
372.83	526.62
373.03	503.22
373.22	521.94
373.42	599.18
373.62	535.98
373.81	521.94
374.01	540.66
374.21	566.41
374.40	585.13
374.60	557.05
374.79	601.52
374.99	634.29
375.19	526.62
375.38	578.11
375.58	571.09
375.78	608.54
375.97	503.22
376.17	617.90
376.37	587.47
376.56	582.79
376.76	594.50
376.95	561.73
377.15	624.92
377.35	624.92
377.54	655.35
377.74	606.20
377.93	578.11
378.13	643.65
378.33	596.84
378.52	543.00
378.72	552.37
378.91	627.26
379.11	655.35
379.31	676.41
379.50	587.47
379.70	624.92
379.89	688.12
380.09	585.13
380.28	587.47
380.48	655.35
380.68	660.03
380.87	603.86
381.07	615.56
381.26	732.59
381.46	674.07
381.65	774.72
381.85	692.80
382.04	578.11
382.24	734.93
382.43	709.18
382.63	648.33
382.83	725.57
383.02	709.18
383.22	704.50
383.41	702.16
383.61	723.23
383.80	704.50
384.00	800.46
384.19	643.65
384.39	784.08
384.58	753.65
384.78	763.01
384.97	723.23
385.17	718.54
385.36	657.69
385.56	744.29
385.75	718.54
385.95	805.14
386.14	767.70
386.34	711.52
386.53	751.31
386.72	788.76
386.92	744.29
387.11	819.19
387.31	877.70
387.50	889.40
387.70	821.53
387.89	774.72
388.09	842.59
388.28	812.17
388.48	802.80
388.67	924.51
388.86	966.64
389.06	788.76
389.25	910.47
389.45	873.02
389.64	837.91
389.84	954.94
390.03	849.61
390.22	931.53
390.42	851.96
390.61	912.81
390.81	875.36
391.00	877.70
391.19	894.08
391.39	1011.11
391.58	980.68
391.78	931.53
391.97	940.90
392.16	968.98
392.36	1090.69
392.55	1060.26
392.75	997.07
392.94	894.08
393.13	985.37
393.33	964.30
393.52	936.21
393.71	1043.88
393.91	1027.50
394.10	1083.67
394.29	1029.84
394.49	1050.90
394.68	1062.60
394.88	1053.24
395.07	1114.10
395.26	1109.41
395.46	1111.75
395.65	1118.78
395.84	1114.10
396.04	1228.78
396.23	1048.56
396.42	1069.62
396.62	1074.31
396.81	1163.25
397.00	1135.16
397.19	1214.74
397.39	1261.55
397.58	1212.40
397.77	1207.72
397.97	1231.12
398.16	1165.59
398.35	1284.95
398.55	1233.46
398.74	1320.06
398.93	1270.91
399.12	1317.72
399.32	1301.34
399.51	1399.64
399.70	1359.85
399.90	1322.40
400.09	1327.08
400.28	1437.09
400.47	1481.56
400.67	1432.41
400.86	1432.41
401.05	1483.90
401.24	1598.59
401.44	1455.81
401.63	1481.56
401.82	1411.34
402.01	1348.15
402.21	1509.65
402.40	1509.65
402.59	1558.80
402.78	1556.46
402.97	1526.03
403.17	1467.52
403.36	1591.56
403.55	1591.56
403.74	1631.35
403.93	1636.03
404.13	1652.42
404.32	1685.19
404.51	1584.54
404.70	1631.35
404.89	1626.67
405.09	1643.06
405.28	1666.46
405.47	1732.00
405.66	1774.13
405.85	1692.21
406.05	1741.36
406.24	1783.49
406.43	1788.17
406.62	1799.87
406.81	1872.43
407.00	1825.62
407.20	1790.51
407.39	1806.89
407.58	1893.49
407.77	1921.58
407.96	1872.43
408.15	1947.33
408.34	1830.30
408.54	1942.64
408.73	1891.15
408.92	1968.39
409.11	1970.73
409.30	1973.07
409.49	1963.71
409.68	2069.03
409.87	2012.86
410.07	2050.31
410.26	2099.46
410.45	2232.87
410.64	2129.89
410.83	2134.57
411.02	2214.15
411.21	2218.83
411.40	2190.74
411.59	2190.74
411.78	2183.72
411.98	2200.10
412.17	2333.51
412.36	2235.21
412.55	2296.07
412.74	2333.51
412.93	2502.03
413.12	2441.18
413.31	2452.88
413.50	2427.14
413.69	2480.97
413.88	2579.27
414.07	2497.35
414.26	2605.02
414.45	2626.08
414.64	2574.59
414.83	2513.74
415.02	2647.15
415.22	2827.37
415.41	2846.09
415.60	2729.06
415.79	2733.75
415.98	2862.48
416.17	2801.62
416.36	2867.16
416.55	2829.71
416.74	2825.03
416.93	2864.82
417.12	2820.35
417.31	2911.63
417.50	2920.99
417.69	2991.20
417.88	3084.83
418.07	2993.55
418.26	3052.06
418.45	3016.95
418.64	3262.71
418.83	3052.06
419.02	3073.12
419.21	3080.14
419.39	3143.34
419.58	3159.72
419.77	3152.70
419.96	3255.69
420.15	3236.96
420.34	3136.32
420.53	3176.11
420.72	3365.69
420.91	3262.71
421.10	3332.92
421.29	3382.07
421.48	3325.90
421.67	3393.78
421.86	3382.07
422.05	3274.41
422.24	3391.44
422.43	3339.94
422.61	3442.93
422.80	3438.25
422.99	3492.08
423.18	3510.80
423.37	3534.21
423.56	3398.46
423.75	3463.99
423.94	3503.78
424.13	3243.98
424.32	3220.58
424.50	3527.19
424.69	3407.82
424.88	3609.11
425.07	3513.14
425.26	3529.53
425.45	3501.44
425.64	3403.14
425.83	3424.20
426.01	3714.43
426.20	3499.10
426.39	3475.70
426.58	3400.80
426.77	3557.61
426.96	3461.65
427.15	3517.83
427.33	3513.14
427.52	3630.17
427.71	3702.73
427.90	3609.11
428.09	3679.32
428.28	3749.54
428.46	3665.28
428.65	3896.99
428.84	3749.54
429.03	3733.15
429.22	3735.50
429.40	3768.26
429.59	3854.86
429.78	3595.06
429.97	3531.87
430.16	3590.38
430.34	3854.86
430.53	3796.35
430.72	3915.72
430.91	3875.93
431.10	3859.54
431.28	3971.89
431.47	4173.18
431.66	4021.04
431.85	3892.31
432.03	3934.44
432.22	4163.81
432.41	4205.94
432.60	4156.79
432.79	4187.22
432.97	4098.28
433.16	4203.60
433.35	4168.49
433.54	4262.12
433.72	4299.56
433.91	4074.87
434.10	4245.73
434.28	4409.57
434.47	4311.27
434.66	4259.78
434.85	4486.81
435.03	4379.14
435.22	4456.38
435.41	4484.47
435.59	4395.53
435.78	4428.29
435.97	4545.32
436.16	4472.76
436.34	4606.17
436.53	4514.89
436.72	4683.41
436.90	4573.41
437.09	4615.54
437.28	4402.55
437.46	4561.70
437.65	4706.82
437.84	4592.13
438.02	4486.81
438.21	4704.48
438.40	4697.46
438.58	4851.93
438.77	4830.87
438.96	4809.80
439.14	4971.30
439.33	4779.37
439.52	4814.48
439.70	4905.76
439.89	5156.20
440.08	5046.20
440.26	5116.41
440.45	5018.11
440.63	5156.20
440.82	5380.89
441.01	5198.33
441.19	5219.39
441.38	5469.83
441.57	5245.14
441.75	5469.83
441.94	5504.94
442.12	5514.30
442.31	5542.39
442.50	5509.62
442.68	5626.65
442.87	5547.07
443.05	5610.26
443.24	5664.10
443.43	5717.93
443.61	5783.46
443.80	5673.46
443.98	5636.01
444.17	5652.39
444.35	5710.91
444.54	5863.04
444.73	5851.34
444.91	5776.44
445.10	5664.10
445.28	5856.02
445.47	5767.08
445.65	5708.57
445.84	5689.84
446.02	5973.05
446.21	5884.11
446.39	5804.53
446.58	5916.87
446.77	5776.44
446.95	5818.57
447.14	5818.57
447.32	5989.43
447.51	5940.28
447.69	5877.09
447.88	5851.34
448.06	5760.06
448.25	5961.34
448.43	6038.58
448.62	5849.00
448.80	5867.72
448.99	5900.49
449.17	5905.17
449.36	5923.90
449.54	6258.59
449.73	6054.97
449.91	6279.66
450.10	6195.40
450.28	6265.61
450.46	6427.11
450.65	6167.31
450.83	6230.51
451.02	6221.14
451.20	6422.43
451.39	6338.17
451.57	6361.58
451.76	6289.02
451.94	6473.92
452.13	6478.60
452.31	6399.02
452.49	6445.84
452.68	6286.68
452.86	6394.34
453.05	6494.99
453.23	6415.41
453.42	6513.71
453.60	6497.33
453.78	6616.69
453.97	6647.12
454.15	6399.02
454.34	6569.88
454.52	6633.08
454.70	6766.49
454.89	6604.99
455.07	6712.66
455.26	6668.19
455.44	6834.36
455.62	6927.99
455.81	6995.86
455.99	7000.54
456.17	6768.83
456.36	6867.13
456.54	7112.89
456.73	6956.07
456.91	7267.36
457.09	7112.89
457.28	7304.81
457.46	7037.99
457.64	7075.44
457.83	7260.34
458.01	7035.65
458.19	7398.43
458.38	7190.13
458.56	7250.98
458.74	7232.26
458.93	7506.10
459.11	7475.67
459.29	7349.28
459.48	7597.38
459.66	7482.69
459.84	7431.20
460.03	7566.95
460.21	7630.15
460.39	7536.52
460.57	7485.03
460.76	7779.94
460.94	7592.70
461.12	7485.03
461.31	7676.96
461.49	7676.96
461.67	7515.46
461.85	7786.96
462.04	7733.13
462.22	8451.67
462.40	7946.12
462.59	7953.14
462.77	8013.99
462.95	7903.99
463.13	7882.92
463.32	7978.89
463.50	7981.23
463.68	8053.78
463.86	8025.70
464.05	7789.30
464.23	8091.23
464.41	7964.84
464.59	7948.46
464.78	8201.24
464.96	8028.04
465.14	8070.17
465.32	8191.88
465.50	8215.28
465.69	8318.26
465.87	8283.16
466.05	8252.73
466.23	8243.37
466.41	8304.22
466.60	8273.79
466.78	8217.62
466.96	8121.66
467.14	8306.56
467.32	8402.52
467.51	8519.55
467.69	8124.00
467.87	8446.99
468.05	8627.21
468.23	8484.44
468.41	8608.49
468.60	8526.57
468.78	8559.34
468.96	8355.71
469.14	8748.92
469.32	8652.96
469.50	8671.68
469.69	8807.44
469.87	8847.22
470.05	8982.98
470.23	8737.22
470.41	8821.48
470.59	8924.46
470.77	8945.53
470.95	8994.68
471.14	9231.07
471.32	8842.54
471.50	9317.67
471.68	9015.74
471.86	9277.88
472.04	9310.65
472.22	9570.45
472.40	9200.65
472.58	9415.98
472.77	9305.97
472.95	9530.66
473.13	9727.27
473.31	9607.90
473.49	9341.08
473.67	9483.85
473.85	9476.83
474.03	9750.67
474.21	9895.78
474.39	9771.74
474.57	9785.78
474.75	9968.34
474.93	9991.75
475.12	10043.24
475.30	9989.41
475.48	9940.26
475.66	10057.28
475.84	10160.27
476.02	10202.40
476.20	10258.57
476.38	10703.27
476.56	10822.64
476.74	10644.76
476.92	10700.93
477.10	10661.14
477.28	11052.01
477.46	10546.45
477.64	10897.53
477.82	11227.55
478.00	11234.57
478.18	11117.54
478.36	11211.17
478.54	11360.96
478.72	11562.25
478.90	11775.24
479.08	11667.57
479.26	11690.98
479.44	11943.75
479.62	11871.20
479.80	11981.20
479.98	12070.14
480.16	12126.32
480.34	12341.64
480.52	12442.29
480.70	12379.09
480.88	12332.28
481.06	12568.68
481.24	12386.12
481.41	12636.55
481.59	13062.53
481.77	12980.61
481.95	13088.28
482.13	12924.44
482.31	12872.95
482.49	13179.56
482.67	13095.30
482.85	13495.53
483.03	13607.87
483.21	13731.92
483.39	13895.76
483.57	13830.23
483.74	13743.63
483.92	14043.21
484.10	14008.11
484.28	14389.61
484.46	14464.51
484.64	14799.21
484.82	14717.29
485.00	14579.20
485.18	14698.56
485.35	15108.16
485.53	14752.40
485.71	14689.20
485.89	15349.23
486.07	14970.07
486.25	15075.39
486.43	15508.39
486.61	15674.57
486.78	15672.23
486.96	15950.75
487.14	16243.32
487.32	16013.95
487.50	15899.26
487.68	16573.33
487.85	16531.20
488.03	16947.82
488.21	17097.61
488.39	16765.26
488.57	17074.21
488.75	17139.74
488.92	17198.26
489.10	17483.80
489.28	17561.04
489.46	17523.59
489.64	17434.65
489.81	18125.11
489.99	18113.41
490.17	18293.63
490.35	18679.82
490.53	18286.61
490.70	18511.30
490.88	18738.33
491.06	18780.46
491.24	18941.96
491.41	18665.77
491.59	19269.63
491.77	19112.81
491.95	19321.12
492.13	19363.25
492.30	19606.67
492.48	19623.05
492.66	19531.77
492.84	19908.60
493.01	19796.25
493.19	19894.55
493.37	20016.26
493.54	20297.13
493.72	20463.30
493.90	20482.03
494.08	20865.88
494.25	20917.37
494.43	21046.10
494.61	21266.11
494.79	21247.38
494.96	20996.95
495.14	21043.76
495.32	21102.27
495.49	21551.65
495.67	21589.10
495.85	21455.69
496.02	22005.72
496.20	22373.18
496.38	22373.18
496.55	22368.50
496.73	22534.68
496.91	22466.80
497.09	22492.55
497.26	22670.43
497.44	22834.27
497.62	22876.40
497.79	23016.83
497.97	23143.22
498.14	23255.56
498.32	23424.08
498.50	23583.24
498.67	23307.05
498.85	23784.52
499.03	23941.34
499.20	23711.97
499.38	23920.28
499.56	24060.71
499.73	23964.75
499.91	23922.62
500.08	24467.96
500.26	24489.03
500.44	24465.62
500.61	24879.89
500.79	24379.02
500.97	25113.95
501.14	25163.10
501.32	25245.02
501.49	24959.47
501.67	24982.88
501.84	25010.96
502.02	24903.30
502.20	25212.25
502.37	26031.44
502.55	25366.73
502.72	25565.67
502.90	25879.30
503.07	25453.33
503.25	25741.21
503.43	25893.35
503.60	25715.47
503.78	25865.26
503.95	25797.38
504.13	26162.51
504.30	26588.49
504.48	26008.03
504.65	26478.48
504.83	26464.44
505.01	27122.13
505.18	26810.84
505.36	26881.05
505.53	27136.17
505.71	26836.58
505.88	27124.47
506.06	26747.64
506.23	27019.14
506.41	27175.96
506.58	27302.35
506.76	27367.88
506.93	27285.97
507.11	27583.21
507.28	27620.66
507.46	27494.27
507.63	27777.48
507.81	28119.20
507.98	27887.48
508.16	28023.23
508.33	27936.63
508.50	28479.64
508.68	28250.27
508.85	28446.87
509.03	28589.64
509.20	28835.40
509.38	28772.21
509.55	29015.62
509.73	29034.35
509.90	28723.05
510.08	29156.05
510.25	29064.77
510.42	29034.35
510.60	29111.58
510.77	29528.20
510.95	29663.95
511.12	29142.01
511.30	29413.51
511.47	29893.32
511.64	30176.53
511.82	30466.75
511.99	29560.97
512.17	29944.81
512.34	29764.59
512.51	29949.50
512.69	30490.16
512.86	30110.99
513.04	30866.98
513.21	30567.40
513.38	30181.21
513.56	30459.73
513.73	30118.01
513.90	30698.47
514.08	30714.85
514.25	30834.22
514.43	30581.44
514.60	30822.51
514.77	30939.54
514.95	31040.18
515.12	31517.65
515.29	31044.87
515.47	31452.12
515.64	31438.08
515.81	31044.87
515.99	31601.91
516.16	31351.48
516.33	31786.82
516.51	31524.68
516.68	31489.57
516.85	31206.36
517.03	31660.43
517.20	31730.64
517.37	32011.51
517.54	32020.87
517.72	31892.14
517.89	31927.25
518.06	31695.53
518.24	31810.22
518.41	31779.79
518.58	32011.51
518.75	31981.08
518.93	32334.50
519.10	32481.95
519.27	32858.78
519.45	32606.00
519.62	32549.83
519.79	32835.38
519.96	32933.68
520.14	33310.50
520.31	32865.80
520.48	33422.85
520.65	32994.53
520.83	33425.19
521.00	33598.39
521.17	33064.75
521.34	33488.38
521.52	33537.54
521.69	33628.82
521.86	33890.96
522.03	33802.02
522.20	33919.04
522.38	33682.65
522.55	33689.67
522.72	33947.13
522.89	34073.52
523.07	34155.44
523.24	33780.95
523.41	34422.26
523.58	34087.56
523.75	34525.24
523.92	34724.19
524.10	34600.14
524.27	34520.56
524.44	34829.51
524.61	35005.05
524.78	34700.78
524.96	34895.05
525.13	35035.48
525.30	35620.61
525.47	35201.66
525.64	35136.12
525.81	34911.43
525.98	35559.76
526.16	34850.58
526.33	34625.89
526.50	35597.21
526.67	35175.91
526.84	35248.47
527.01	35206.34
527.18	35445.07
527.36	35831.26
527.53	35306.98
527.70	36062.97
527.87	35924.88
528.04	36060.63
528.21	36282.98
528.38	35903.82
528.55	35981.06
528.72	36261.92
528.89	36210.43
529.07	36217.45
529.24	36444.48
529.41	36046.59
529.58	35763.39
529.75	36404.69
529.92	36407.03
530.09	36601.30
530.26	36474.91
530.43	37078.77
530.60	36570.87
530.77	36765.14
530.94	36910.25
531.11	36706.62
531.28	36671.51
531.46	37113.87
531.63	37113.87
531.80	36973.44
531.97	36950.04
532.14	37076.43
532.31	37097.49
532.48	37397.08
532.65	37539.85
532.82	37235.58
532.99	37373.67
533.16	37223.88
533.33	37343.25
533.50	37322.18
533.67	37289.42
533.84	37811.35
534.01	37951.79
534.18	37453.25
534.35	38314.57
534.52	37404.10
534.69	37818.38
534.86	38000.94
535.03	37715.39
535.20	38139.03
535.37	38307.55
535.54	38298.19
535.71	38164.78
535.88	37968.17
536.05	38005.62
536.22	38000.94
536.38	38162.43
536.55	38417.55
536.72	38405.85
536.89	38244.35
537.06	38066.47
537.23	38602.46
537.40	38546.28
537.57	38726.50
537.74	38515.86
537.91	38607.14
538.08	38691.40
538.25	38590.75
538.42	38609.48
538.59	39089.29
538.75	38586.07
538.92	38637.56
539.09	39426.32
539.26	39016.73
539.43	39108.01
539.60	38820.13
539.77	39070.56
539.94	38986.30
540.11	38721.82
540.28	38932.47
540.44	39250.78
540.61	38724.16
540.78	38958.22
540.95	39538.67
541.12	38906.73
541.29	39484.84
541.46	39182.91
541.62	39220.36
541.79	39714.21
541.96	39421.64
542.13	39260.15
542.30	39679.10
542.47	39878.05
542.63	39786.77
542.80	39777.40
542.97	40002.10
543.14	40645.74
543.31	40385.94
543.48	39702.51
543.64	40517.01
543.81	40388.28
543.98	40334.45
544.15	40304.02
544.32	40418.71
544.48	40940.65
544.65	40376.58
544.82	40615.32
544.99	40802.56
545.16	40627.02
545.32	40863.41
545.49	40517.01
545.66	41104.49
545.83	41228.54
546.00	40938.31
546.16	41104.49
546.33	40620.00
546.50	40641.06
546.67	41116.19
546.83	40313.39
547.00	40830.65
547.17	41518.76
547.34	40383.60
547.50	41132.57
547.67	41457.91
547.84	41394.71
548.00	41596.00
548.17	41352.58
548.34	40830.65
548.51	41654.51
548.67	41385.35
548.84	41694.30
549.01	41181.73
549.18	41338.54
549.34	41455.57
549.51	42068.79
549.68	41762.18
549.84	42066.45
550.01	41738.77
550.18	42333.27
550.34	41691.96
550.51	41336.20
550.68	41593.66
550.84	41399.40
551.01	42209.22
551.18	41481.31
551.34	42050.06
551.51	41998.57
551.68	42038.36
551.84	42073.47
552.01	41635.79
552.18	41954.10
552.34	41752.82
552.51	41900.27
552.68	41762.18
552.84	42337.95
553.01	42426.89
553.18	41869.84
553.34	42040.70
553.51	42129.64
553.67	41855.80
553.84	42824.78
554.01	42595.41
554.17	42178.79
554.34	42700.73
554.51	42918.40
554.67	42752.23
554.84	42604.77
555.00	42476.04
555.17	42433.91
555.33	42532.22
555.50	42511.15
555.67	42600.09
555.83	42518.17
556.00	42941.81
556.16	43005.00
556.33	42609.45
556.50	42068.79
556.66	42773.29
556.83	42672.65
556.99	43056.50
557.16	43103.31
557.32	42700.73
557.49	43227.35
557.65	42541.58
557.82	42724.14
557.98	43278.85
558.15	42925.42
558.32	42712.44
558.48	43166.50
558.65	43309.27
558.81	43232.04
558.98	43072.88
559.14	43079.90
559.31	42789.67
559.47	43372.47
559.64	43718.87
559.80	43643.97
559.97	43316.29
560.13	43363.11
560.30	43241.40
560.46	43512.90
560.63	43292.89
560.79	43515.24
560.96	43594.82
561.12	43840.57
561.29	43564.39
561.45	43227.35
561.61	43634.61
561.78	43290.55
561.94	43613.54
562.11	43154.80
562.27	43161.82
562.44	43749.29
562.60	44044.20
562.77	43978.67
562.93	43742.27
563.10	43583.12
563.26	43601.84
563.42	43746.95
563.59	43442.68
563.75	43810.15
563.92	43725.89
564.08	43777.38
564.24	43966.96
564.41	43709.50
564.57	43714.19
564.74	43917.81
564.90	43910.79
565.07	43576.09
565.23	43906.11
565.39	43494.18
565.56	44245.49
565.72	43845.26
565.88	43688.44
566.05	43658.01
566.21	43819.51
566.38	43480.13
566.54	44004.41
566.70	44102.71
566.87	44596.57
567.03	44259.53
567.19	44201.02
567.36	43931.86
567.52	43695.46
567.68	44030.16
567.85	43805.47
568.01	44018.46
568.17	44037.18
568.34	44083.99
568.50	44142.50
568.66	43901.43
568.83	43838.23
568.99	43981.01
569.15	44018.46
569.32	43672.06
569.48	43835.89
569.64	44395.28
569.81	43959.94
569.97	44222.08
570.13	43896.75
570.30	44034.84
570.46	44105.06
570.62	43732.91
570.78	43988.03
570.95	43824.19
571.11	44294.64
571.27	43833.55
571.43	43997.39
571.60	44275.91
571.76	44009.09
571.92	44032.50
572.09	44233.78
572.25	43892.07
572.41	43641.63
572.57	44371.88
572.74	44924.24
572.90	44371.88
573.06	44261.87
573.22	44294.64
573.38	44222.08
573.55	43517.58
573.71	44350.81
573.87	44151.87
574.03	44048.88
574.20	44388.26
574.36	44175.27
574.52	44456.14
574.68	44411.67
574.84	44423.37
575.01	44463.16
575.17	44156.55
575.33	44456.14
575.49	43894.41
575.65	44423.37
575.82	44863.39
575.98	44636.36
576.14	44304.00
576.30	44692.53
576.46	43938.88
576.62	44009.09
576.79	44189.31
576.95	44229.10
577.11	44186.97
577.27	44516.99
577.43	44568.48
577.59	43910.79
577.75	43992.71
577.92	44109.74
578.08	43906.11
578.24	43922.49
578.40	44348.47
578.56	44287.62
578.72	44460.82
578.88	44795.51
579.04	44694.87
579.21	44126.12
579.37	44271.23
579.53	44002.07
579.69	43929.51
579.85	44463.16
580.01	44556.78
580.17	44741.68
580.33	44886.79
580.49	44832.96
580.65	44816.58
580.82	44626.99
580.98	44732.32
581.14	44205.70
581.30	44341.45
581.46	44313.36
581.62	44505.29
581.78	44409.32
581.94	44793.17
582.10	45027.23
582.26	44662.10
582.42	44697.21
582.58	44774.45
582.74	44261.87
582.90	44666.78
583.06	44320.38
583.22	44474.86
583.38	44900.84
583.54	44816.58
583.70	44538.05
583.86	44025.48
584.02	44582.52
584.18	44371.88
584.34	44161.23
584.50	44135.48
584.66	44353.15
584.82	44240.81
584.98	44605.93
585.14	44624.65
585.30	44467.84
585.46	44374.22
585.62	44439.75
585.78	44659.76
585.94	44243.15
586.10	44619.97
586.26	44369.54
586.42	44610.61
586.58	44718.28
586.74	44182.29
586.90	44704.23
587.06	44208.04
587.22	44900.84
587.38	44362.51
587.54	44879.77
587.70	45029.57
587.86	44839.98
588.02	44184.63
588.18	44697.21
588.34	44257.19
588.49	44357.83
588.65	44374.22
588.81	44390.60
588.97	44502.95
589.13	44442.09
589.29	45006.16
589.45	44655.08
589.61	44758.06
589.77	44825.94
589.93	44732.32
590.08	45059.99
590.24	44694.87
