SpectraSuite Data File
++++++++++++++++++++++++++++++++++++
Date: Fri Oct 25 11:23:15 EDT 2013
User: price-jones
Dark Spectrum Present: No
Reference Spectrum Present: No
Number of Sampled Component Spectra: 1
Spectrometers: USB2+H05261
Integration Time (usec): 100000 (USB2+H05261)
Spectra Averaged: 1 (USB2+H05261)
Boxcar Smoothing: 0 (USB2+H05261)
Correct for Electrical Dark: No (USB2+H05261)
Strobe/Lamp Enabled: No (USB2+H05261)
Correct for Detector Non-linearity: No (USB2+H05261)
Correct for Stray Light: No (USB2+H05261)
Number of Pixels in Processed Spectrum: 2048
>>>>>Begin Processed Spectral Data<<<<<
365.73	262.14
365.92	262.14
366.12	262.14
366.32	114.69
366.52	126.39
366.72	166.18
366.91	147.45
367.11	102.98
367.31	86.60
367.51	81.92
367.70	121.71
367.90	159.16
368.10	140.43
368.30	121.71
368.49	100.64
368.69	124.05
368.89	119.37
369.09	100.64
369.28	191.92
369.48	154.48
369.68	231.71
369.87	215.33
370.07	177.88
370.27	250.44
370.47	306.61
370.66	566.41
370.86	653.01
371.06	601.52
371.25	657.69
371.45	645.99
371.65	638.97
371.84	697.48
372.04	678.76
372.24	744.29
372.44	755.99
372.63	741.95
372.83	779.40
373.03	730.25
373.22	699.82
373.42	767.70
373.62	812.17
373.81	826.21
374.01	807.48
374.21	828.55
374.40	751.31
374.60	875.36
374.79	758.33
374.99	842.59
375.19	828.55
375.38	863.66
375.58	854.30
375.78	809.83
375.97	870.68
376.17	915.15
376.37	866.00
376.56	842.59
376.76	837.91
376.95	847.27
377.15	954.94
377.35	856.64
377.54	919.83
377.74	905.79
377.93	933.87
378.13	940.90
378.33	842.59
378.52	835.57
378.72	929.19
378.91	933.87
379.11	954.94
379.31	968.98
379.50	936.21
379.70	1004.09
379.89	997.07
380.09	1029.84
380.28	1004.09
380.48	1008.77
380.68	915.15
380.87	999.41
381.07	945.58
381.26	961.96
381.46	1011.11
381.65	1107.07
381.85	1125.80
382.04	1139.84
382.24	1081.33
382.43	1071.97
382.63	1013.45
382.83	1027.50
383.02	1111.75
383.22	1116.44
383.41	1102.39
383.61	1137.50
383.80	1116.44
384.00	1179.63
384.19	1078.99
384.39	1130.48
384.58	1135.16
384.78	1170.27
384.97	1228.78
385.17	1149.20
385.36	1219.42
385.56	1130.48
385.75	1181.97
385.95	1123.46
386.14	1226.44
386.34	1252.19
386.53	1203.04
386.72	1214.74
386.92	1203.04
387.11	1238.14
387.31	1219.42
387.50	1247.51
387.70	1259.21
387.89	1263.89
388.09	1327.08
388.28	1306.02
388.48	1242.82
388.67	1397.30
388.86	1338.79
389.06	1397.30
389.25	1413.68
389.45	1299.00
389.64	1268.57
389.84	1341.13
390.03	1411.34
390.22	1299.00
390.42	1411.34
390.61	1352.83
390.81	1425.39
391.00	1413.68
391.19	1486.24
391.39	1497.94
391.58	1420.71
391.78	1427.73
391.97	1533.05
392.16	1453.47
392.36	1624.33
392.55	1528.37
392.75	1584.54
392.94	1472.20
393.13	1579.86
393.33	1551.78
393.52	1483.90
393.71	1591.56
393.91	1537.73
394.10	1535.39
394.29	1612.63
394.49	1603.27
394.68	1584.54
394.88	1544.75
395.07	1657.10
395.26	1724.97
395.46	1710.93
395.65	1724.97
395.84	1729.66
396.04	1776.47
396.23	1650.08
396.42	1753.06
396.62	1748.38
396.81	1778.81
397.00	1715.61
397.19	1837.32
397.39	1788.17
397.58	1914.56
397.77	1881.79
397.97	1853.70
398.16	1891.15
398.35	1778.81
398.55	1863.07
398.74	1846.68
398.93	1968.39
399.12	1877.11
399.32	1895.83
399.51	1973.07
399.70	2017.54
399.90	1926.26
400.09	1956.69
400.28	1996.48
400.47	1919.24
400.67	2120.53
400.86	2069.03
401.05	2057.33
401.24	2150.95
401.44	2181.38
401.63	2134.57
401.82	2157.97
402.01	2141.59
402.21	2172.02
402.40	2165.00
402.59	2244.57
402.78	2286.70
402.97	2174.36
403.17	2265.64
403.36	2258.62
403.55	2291.38
403.74	2279.68
403.93	2335.85
404.13	2410.75
404.32	2342.88
404.51	2424.80
404.70	2382.67
404.89	2431.82
405.09	2516.08
405.28	2459.90
405.47	2520.76
405.66	2544.16
405.85	2530.12
406.05	2649.49
406.24	2605.02
406.43	2612.04
406.62	2576.93
406.81	2785.24
407.00	2656.51
407.20	2677.57
407.39	2647.15
407.58	2722.04
407.77	2722.04
407.96	2754.81
408.15	2658.85
408.34	2724.38
408.54	2782.90
408.73	2881.20
408.92	2902.26
409.11	3075.46
409.30	2939.71
409.49	2906.95
409.68	2928.01
409.87	2960.78
410.07	2984.18
410.26	3016.95
410.45	2963.12
410.64	3047.38
410.83	3138.66
411.02	3185.47
411.21	3213.56
411.40	3162.06
411.59	3141.00
411.78	3260.37
411.98	3246.32
412.17	3246.32
412.36	3229.94
412.55	3346.97
412.74	3398.46
412.93	3417.18
413.12	3489.74
413.31	3529.53
413.50	3419.52
413.69	3489.74
413.88	3735.50
414.07	3499.10
414.26	3684.00
414.45	3735.50
414.64	3693.37
414.83	3747.20
415.02	3747.20
415.22	3768.26
415.41	3880.61
415.60	3772.94
415.79	3925.08
415.98	3988.27
416.17	3999.98
416.36	4007.00
416.55	4025.72
416.74	4119.34
416.93	4070.19
417.12	4138.07
417.31	4159.13
417.50	4257.43
417.69	4229.35
417.88	4486.81
418.07	4238.71
418.26	4381.48
418.45	4425.95
418.64	4421.27
418.83	4456.38
419.02	4430.63
419.21	4664.69
419.39	4615.54
419.58	4585.11
419.77	4601.49
419.96	4706.82
420.15	4582.77
420.34	4533.62
420.53	4596.81
420.72	4617.88
420.91	4748.95
421.10	4887.04
421.29	4772.35
421.48	4638.94
421.67	4896.40
421.86	4919.81
422.05	4835.55
422.24	4781.71
422.43	4734.90
422.61	4968.96
422.80	4961.94
422.99	5097.69
423.18	5013.43
423.37	5050.88
423.56	5006.41
423.75	4985.34
423.94	4968.96
424.13	4671.71
424.32	4791.08
424.50	5057.90
424.69	5170.24
424.88	5057.90
425.07	5048.54
425.26	4999.38
425.45	4966.62
425.64	5032.15
425.83	5011.09
426.01	5055.56
426.20	5170.24
426.39	5114.07
426.58	5198.33
426.77	5123.43
426.96	5102.37
427.15	5135.14
427.33	5322.38
427.52	5074.28
427.71	5170.24
427.90	5268.55
428.09	5226.42
428.28	5404.30
428.46	5514.30
428.65	5439.40
428.84	5556.43
429.03	5551.75
429.22	5507.28
429.40	5488.56
429.59	5453.45
429.78	5444.09
429.97	5231.10
430.16	5570.48
430.34	5633.67
430.53	5650.05
430.72	5748.36
430.91	5575.16
431.10	5692.18
431.28	5738.99
431.47	5893.47
431.66	6017.52
431.85	5851.34
432.03	6052.63
432.22	6024.54
432.41	5970.71
432.60	5895.81
432.79	5987.09
432.97	6047.94
433.16	6012.84
433.35	5961.34
433.54	6186.04
433.72	6244.55
433.91	6005.81
434.10	6223.48
434.28	6237.53
434.47	6162.63
434.66	6310.08
434.85	6541.80
435.03	6459.88
435.22	6406.05
435.41	6661.16
435.59	6602.65
435.78	6506.69
435.97	6609.67
436.16	6373.28
436.34	6459.88
436.53	6553.50
436.72	6630.74
436.90	6539.46
437.09	6682.23
437.28	6473.92
437.46	6738.40
437.65	6764.15
437.84	6841.39
438.02	6707.98
438.21	6825.00
438.40	6600.31
438.58	6944.37
438.77	7035.65
438.96	7166.72
439.14	7316.51
439.33	7162.04
439.52	7351.62
439.70	7258.00
439.89	7522.48
440.08	7520.14
440.26	7426.52
440.45	7328.22
440.63	7555.25
440.82	7765.90
441.01	7529.50
441.19	7702.70
441.38	7791.64
441.57	7903.99
441.75	7847.82
441.94	7985.91
442.12	8077.19
442.31	8095.91
442.50	8203.58
442.68	8163.79
442.87	8023.36
443.05	8217.62
443.24	8173.15
443.43	8182.51
443.61	8212.94
443.80	8585.08
443.98	8266.77
444.17	7845.48
444.35	8299.54
444.54	8519.55
444.73	8540.61
444.91	8346.35
445.10	8308.90
445.28	8514.87
445.47	8360.39
445.65	8369.76
445.84	8601.47
446.02	8486.78
446.21	8468.06
446.39	8535.93
446.58	8531.25
446.77	8561.68
446.95	8301.88
447.14	8615.51
447.32	8744.24
447.51	8547.64
447.69	8512.53
447.88	8397.84
448.06	8617.85
448.25	8552.32
448.43	8795.73
448.62	8779.35
448.80	8601.47
448.99	8730.20
449.17	8870.63
449.36	8671.68
449.54	8842.54
449.73	8872.97
449.91	9289.59
450.10	9195.96
450.28	9071.92
450.46	9041.49
450.65	9001.70
450.83	9160.86
451.02	8870.63
451.20	9217.03
451.39	9219.37
451.57	9160.86
451.76	9221.71
451.94	9233.41
452.13	9348.10
452.31	9535.34
452.49	9226.39
452.68	9357.46
452.86	9343.42
453.05	9460.45
453.23	9577.47
453.42	9247.46
453.60	9628.96
453.78	9696.84
453.97	9355.12
454.15	9624.28
454.34	9568.11
454.52	9757.69
454.70	9666.41
454.89	9984.73
455.07	9783.44
455.26	10031.54
455.44	9951.96
455.62	9970.68
455.81	10031.54
455.99	10036.22
456.17	10066.64
456.36	10193.03
456.54	10420.06
456.73	10480.92
456.91	10656.46
457.09	10483.26
457.28	10541.77
457.46	10530.07
457.64	10654.12
457.83	10623.69
458.01	10649.44
458.19	11037.97
458.38	10546.45
458.56	10803.91
458.74	10820.30
458.93	10719.65
459.11	10607.31
459.29	10827.32
459.48	10958.39
459.66	10949.03
459.84	10934.98
460.03	11194.78
460.21	11037.97
460.39	11040.31
460.57	11218.19
460.76	11138.61
460.94	11323.51
461.12	11227.55
461.31	11370.32
461.49	11201.80
461.67	11033.29
461.85	11489.69
462.04	11281.38
462.22	11728.42
462.40	11639.48
462.59	11698.00
462.77	11686.29
462.95	11695.66
463.13	11595.01
463.32	11803.32
463.50	11826.73
463.68	12093.55
463.86	11843.11
464.05	11700.34
464.23	12004.61
464.41	11915.67
464.59	11934.39
464.78	12416.54
464.96	12107.59
465.14	11910.99
465.32	12327.60
465.50	12278.45
465.69	12236.32
465.87	12414.20
466.05	12393.14
466.23	12463.35
466.41	12187.17
466.60	12681.02
466.78	12451.65
466.96	12496.12
467.14	12421.22
467.32	12496.12
467.51	12865.92
467.69	12299.52
467.87	12795.71
468.05	12957.21
468.23	12435.27
468.41	12641.23
468.60	12795.71
468.78	12870.61
468.96	12732.51
469.14	13256.79
469.32	13027.42
469.50	12746.56
469.69	13095.30
469.87	13015.72
470.05	12842.52
470.23	13380.84
470.41	13195.94
470.59	13528.30
470.77	13444.04
470.95	13238.07
471.14	13413.61
471.32	13577.45
471.50	13610.22
471.68	13664.05
471.86	13865.33
472.04	14073.64
472.22	14321.74
472.40	13710.86
472.58	13937.89
472.77	13937.89
472.95	14326.42
473.13	14654.09
473.31	14427.06
473.49	14083.00
473.67	14516.00
473.85	14434.08
474.03	14806.23
474.21	14775.80
474.39	14855.38
474.57	14904.53
474.75	14953.68
474.93	15150.29
475.12	15119.86
475.30	14995.81
475.48	15377.32
475.66	15328.17
475.84	15527.11
476.02	15651.16
476.20	15435.83
476.38	15751.81
476.56	16276.09
476.74	16032.67
476.92	16016.29
477.10	16035.01
477.28	16475.03
477.46	16369.71
477.64	16456.31
477.82	16662.27
478.00	16849.52
478.18	16931.44
478.36	17036.76
478.54	17125.70
478.72	17245.07
478.90	17738.92
479.08	17806.80
479.26	17907.44
479.44	17921.48
479.62	17968.29
479.80	18078.30
479.98	18415.34
480.16	18944.30
480.34	18352.14
480.52	18923.23
480.70	18897.49
480.88	18757.05
481.06	18904.51
481.24	19262.61
481.41	19311.76
481.59	19468.58
481.77	19646.46
481.95	19917.96
482.13	20032.65
482.31	19730.72
482.49	20610.76
482.67	20259.68
482.85	20802.68
483.03	20762.89
483.21	20781.62
483.39	21151.42
483.57	20828.43
483.74	21397.18
483.92	21502.50
484.10	21317.60
484.28	22010.40
484.46	22352.12
484.64	22569.79
484.82	22010.40
485.00	22319.35
485.18	22913.84
485.35	22953.63
485.53	23035.55
485.71	23405.36
485.89	23356.21
486.07	23461.53
486.25	23805.59
486.43	23777.50
486.61	24542.86
486.78	24369.66
486.96	24301.78
487.14	24648.18
487.32	25097.56
487.50	25060.12
487.68	24987.56
487.85	25570.35
488.03	25848.88
488.21	26033.78
488.39	25855.90
488.57	26419.97
488.75	26338.05
488.92	26892.76
489.10	26670.40
489.28	26740.62
489.46	27489.59
489.64	27187.66
489.81	27824.29
489.99	27714.28
490.17	28091.11
490.35	28191.75
490.53	28215.16
490.70	28517.09
490.88	28716.03
491.06	29158.39
491.24	29242.65
491.41	29289.46
491.59	29612.46
491.77	29607.78
491.95	30038.44
492.13	29979.92
492.30	30656.34
492.48	30366.11
492.66	30270.15
492.84	30560.37
493.01	30806.13
493.19	31157.21
493.37	31356.16
493.54	31339.77
493.72	32072.36
493.90	32074.70
494.08	31931.93
494.25	32299.39
494.43	32601.32
494.61	32524.08
494.79	32840.06
494.96	33085.81
495.14	33088.15
495.32	33610.09
495.49	33071.77
495.67	33549.24
495.85	33867.55
496.02	34015.01
496.20	34429.28
496.38	34188.21
496.55	34274.80
496.73	35178.25
496.91	34995.69
497.09	34878.66
497.26	35159.53
497.44	35452.09
497.62	35997.44
497.79	36189.36
497.97	35885.09
498.14	36367.24
498.32	37078.77
498.50	36601.30
498.67	37022.59
498.85	37085.79
499.03	36842.37
499.20	36863.44
499.38	37228.56
499.56	37479.00
499.73	37448.57
499.91	37631.13
500.08	37785.61
500.26	37645.18
500.44	37649.86
500.61	38447.98
500.79	38197.54
500.97	38375.42
501.14	38925.45
501.32	38588.41
501.49	38920.77
501.67	39068.22
501.84	38941.83
502.02	39105.67
502.20	39218.02
502.37	39255.46
502.55	39407.60
502.72	40018.48
502.90	40161.25
503.07	39501.22
503.25	40580.21
503.43	39749.32
503.60	40549.78
503.78	40650.42
503.95	40547.44
504.13	40844.69
504.30	41219.17
504.48	41214.49
504.65	40996.82
504.83	41364.29
505.01	41378.33
505.18	41385.35
505.36	41738.77
505.53	41680.26
505.71	42005.59
505.88	42375.40
506.06	41724.73
506.23	42747.54
506.41	42146.03
506.58	42328.59
506.76	42363.70
506.93	42618.81
507.11	42679.67
507.28	42745.20
507.46	42918.40
507.63	43159.48
507.81	43494.18
507.98	42979.26
508.16	43103.31
508.33	43845.26
508.50	43559.71
508.68	43950.58
508.85	44273.57
509.03	43793.76
509.20	44535.71
509.38	44781.47
509.55	44339.11
509.73	44729.98
509.90	45167.66
510.08	45074.04
510.25	45160.64
510.42	45102.12
510.60	45528.10
510.77	46052.38
510.95	46195.15
511.12	45544.48
511.30	45331.50
511.47	45780.88
511.64	46047.70
511.82	45977.48
511.99	46000.89
512.17	46525.17
512.34	46253.67
512.51	46476.02
512.69	47234.35
512.86	46646.88
513.04	46885.61
513.21	46979.23
513.38	47004.98
513.56	47070.51
513.73	46934.76
513.90	47636.92
514.08	47246.05
514.25	47833.53
514.43	47901.40
514.60	47938.85
514.77	47454.36
514.95	48392.92
515.12	47927.15
515.29	48074.60
515.47	48512.28
515.64	48575.48
515.81	48807.19
515.99	48528.67
516.16	48711.23
516.33	48781.45
516.51	48959.33
516.68	48762.72
516.85	48825.92
517.03	49389.98
517.20	49057.63
517.37	49205.08
517.54	48914.86
517.72	49268.28
517.89	48975.71
518.06	49214.44
518.24	49366.58
518.41	49860.43
518.58	49799.58
518.75	49858.09
518.93	49949.37
519.10	49958.73
519.27	49867.45
519.45	50066.40
519.62	50174.06
519.79	50529.83
519.96	50246.62
520.14	50618.77
520.31	50461.95
520.48	50813.03
520.65	50600.04
520.83	50789.62
521.00	50965.17
521.17	50770.90
521.34	51061.13
521.52	51079.85
521.69	51077.51
521.86	51597.11
522.03	51650.94
522.20	51681.37
522.38	51700.09
522.55	51875.63
522.72	51643.92
522.89	52011.38
523.07	51924.78
523.24	51880.31
523.41	52076.92
523.58	51784.35
523.75	52259.48
523.92	52060.54
524.10	52168.20
524.27	52392.89
524.44	52395.23
524.61	52460.77
524.78	52629.29
524.96	52666.73
525.13	52533.32
525.30	52790.78
525.47	52875.04
525.64	52868.02
525.81	52856.32
525.98	53034.20
526.16	52870.36
526.33	52891.43
526.50	53195.70
526.67	53076.33
526.84	53324.43
527.01	52917.17
527.18	53352.51
527.36	53485.92
527.53	53485.92
527.70	53642.74
527.87	53818.28
528.04	53315.06
528.21	53977.43
528.38	53530.39
528.55	53944.67
528.72	53598.27
528.89	53687.21
529.07	53476.56
529.24	53741.04
529.41	54017.22
529.58	53958.71
529.75	54253.62
529.92	53984.46
530.09	54164.68
530.26	54321.49
530.43	54403.41
530.60	53783.17
530.77	53914.24
530.94	54546.18
531.11	54639.81
531.28	54307.45
531.46	54672.57
531.63	54492.35
531.80	54443.20
531.97	54518.10
532.14	54869.18
532.31	54621.08
532.48	54808.32
532.65	54901.95
532.82	54410.43
532.99	54883.22
533.16	55117.28
533.33	55082.17
533.50	55351.33
533.67	55290.48
533.84	55025.99
534.01	55248.35
534.18	55117.28
534.35	55398.14
534.52	55604.11
534.69	55501.12
534.86	55477.72
535.03	55559.64
535.20	55517.51
535.37	55547.93
535.54	55627.51
535.71	55377.08
535.88	55868.59
536.05	55622.83
536.22	55791.35
536.38	55821.78
536.55	55894.33
536.72	56053.49
536.89	55957.53
537.06	55817.10
537.23	56137.75
537.40	55791.35
537.57	56088.60
537.74	55985.61
537.91	56018.38
538.08	56364.78
538.25	55997.32
538.42	56168.18
538.59	56516.92
538.75	56474.79
538.92	56355.42
539.09	56322.65
539.26	56205.62
539.43	56552.02
539.60	56547.34
539.77	56568.41
539.94	56690.12
540.11	56582.45
540.28	56886.72
540.44	56699.48
540.61	56699.48
540.78	56631.60
540.95	56699.48
541.12	56697.14
541.29	56790.76
541.46	56619.90
541.62	56706.50
541.79	57073.96
541.96	56608.20
542.13	56797.78
542.30	56919.49
542.47	57050.56
542.63	56980.34
542.80	57193.33
542.97	57263.55
543.14	57605.26
543.31	57485.90
543.48	57490.58
543.64	57787.83
543.81	57731.65
543.98	57439.09
544.15	57441.43
544.32	57682.50
544.48	57867.40
544.65	57661.44
544.82	57691.86
544.99	57556.11
545.16	57778.46
545.32	57481.22
545.49	57851.02
545.66	58131.89
545.83	57860.38
546.00	57907.19
546.16	57979.75
546.33	57757.40
546.50	57829.96
546.67	57972.73
546.83	57783.15
547.00	58103.80
547.17	58192.74
547.34	57865.06
547.50	58188.06
547.67	58253.59
547.84	58260.62
548.00	58269.98
548.17	58464.24
548.34	58244.23
548.51	58452.54
548.67	58520.41
548.84	58464.24
549.01	58377.64
549.18	58354.24
549.34	58436.16
549.51	58438.50
549.68	58578.93
549.84	58567.23
550.01	58543.82
550.18	58520.41
550.34	58862.13
550.51	59035.33
550.68	58607.01
550.84	58686.59
551.01	58796.60
551.18	58787.24
551.34	58824.68
551.51	58780.21
551.68	58824.68
551.84	58644.46
552.01	58707.66
552.18	58981.50
552.34	58866.81
552.51	58834.05
552.68	58820.00
552.84	58930.01
553.01	59051.72
553.18	59035.33
553.34	58974.48
553.51	59103.21
553.67	59032.99
553.84	59283.43
554.01	59288.11
554.17	59154.70
554.34	59182.79
554.51	59288.11
554.67	59124.27
554.84	59276.41
555.00	59360.67
555.17	59051.72
555.33	59105.55
555.50	59082.14
555.67	59353.65
555.83	59325.56
556.00	59267.05
556.16	59629.83
556.33	59508.12
556.50	59278.75
556.66	59477.69
556.83	59316.20
556.99	59693.02
557.16	59767.92
557.32	59604.08
557.49	59915.37
557.65	59416.84
557.82	59437.90
557.98	59714.09
558.15	59695.36
558.32	59852.18
558.48	59620.47
558.65	59608.76
558.81	59760.90
558.98	59817.07
559.14	59875.58
559.31	59976.23
559.47	60090.91
559.64	59943.46
559.80	60018.36
559.97	59962.18
560.13	59877.93
560.30	60067.51
560.46	60020.70
560.63	60018.36
560.79	59941.12
560.96	60163.47
561.12	60128.36
561.29	59728.13
561.45	59994.95
561.61	59917.71
561.78	59999.63
561.94	60053.47
562.11	60095.60
562.27	60140.07
562.44	60048.78
562.60	60336.67
562.77	60278.16
562.93	59915.37
563.10	60331.99
563.26	59980.91
563.42	60385.82
563.59	60156.45
563.75	60331.99
563.92	60322.63
564.08	60285.18
564.24	60430.29
564.41	60210.28
564.57	60331.99
564.74	60437.31
564.90	60390.50
565.07	60168.15
565.23	60289.86
565.39	60346.03
565.56	60427.95
565.72	60303.90
565.88	60636.26
566.05	60280.50
566.21	60322.63
566.38	60577.75
566.54	60694.77
566.70	60729.88
566.87	60549.66
567.03	60388.16
567.19	60547.32
567.36	60669.03
567.52	60589.45
567.68	60608.17
567.85	60547.32
568.01	60704.13
568.17	60603.49
568.34	60711.16
568.50	60514.55
568.66	60465.40
568.83	60715.84
568.99	60587.11
569.15	60505.19
569.32	60704.13
569.48	60423.27
569.64	60622.22
569.81	60701.79
569.97	60786.05
570.13	60568.38
570.30	60619.88
570.46	60711.16
570.62	60830.52
570.78	60753.29
570.95	60559.02
571.11	60856.27
571.27	60711.16
571.43	60844.57
571.60	60956.91
571.76	60910.10
571.92	60762.65
572.09	60741.58
572.25	60886.70
572.41	60889.04
572.57	61017.77
572.74	60975.64
572.90	60837.54
573.06	61029.47
573.22	60804.78
573.38	61139.47
573.55	60891.38
573.71	61013.08
573.87	60931.17
574.03	60858.61
574.20	60999.04
574.36	61001.38
574.52	60844.57
574.68	60790.73
574.84	60954.57
575.01	61095.00
575.17	61055.21
575.33	60968.61
575.49	60732.22
575.65	61057.56
575.82	61071.60
575.98	61045.85
576.14	61179.26
576.30	61029.47
576.46	60935.85
576.62	60809.46
576.79	60898.40
576.95	61099.68
577.11	61125.43
577.27	61120.75
577.43	61160.54
577.59	61099.68
577.75	60800.10
577.92	60872.65
578.08	60996.70
578.24	60926.49
578.40	61216.71
578.56	61219.05
578.72	61071.60
578.88	61385.23
579.04	61190.97
579.21	61272.88
579.37	61043.51
579.53	61207.35
579.69	60949.89
579.85	61144.16
580.01	61057.56
580.17	61048.19
580.33	61216.71
580.49	61279.91
580.65	61141.81
580.82	60921.80
580.98	60910.10
581.14	60903.08
581.30	61207.35
581.46	61153.52
581.62	61380.55
581.78	61141.81
581.94	61169.90
582.10	61073.94
582.26	61130.11
582.42	60989.68
582.58	61158.20
582.74	61202.67
582.90	61263.52
583.06	61071.60
583.22	61118.41
583.38	61256.50
583.54	61048.19
583.70	61300.97
583.86	61169.90
584.02	61099.68
584.18	61228.41
584.34	61291.61
584.50	61312.67
584.66	61120.75
584.82	61006.06
584.98	61392.25
585.14	61319.70
585.30	60956.91
585.46	61275.22
585.62	61326.72
585.78	61420.34
585.94	61144.16
586.10	61172.24
586.26	61090.32
586.42	61389.91
586.58	61202.67
586.74	61282.25
586.90	61258.84
587.06	61202.67
587.22	61467.15
587.38	61183.94
587.54	61403.95
587.70	61333.74
587.86	61418.00
588.02	61429.70
588.18	61605.24
588.34	61155.86
