SpectraSuite Data File
++++++++++++++++++++++++++++++++++++
Date: Fri Oct 25 11:22:39 EDT 2013
User: price-jones
Dark Spectrum Present: No
Reference Spectrum Present: No
Number of Sampled Component Spectra: 1
Spectrometers: USB2+H05261
Integration Time (usec): 100000 (USB2+H05261)
Spectra Averaged: 1 (USB2+H05261)
Boxcar Smoothing: 0 (USB2+H05261)
Correct for Electrical Dark: No (USB2+H05261)
Strobe/Lamp Enabled: No (USB2+H05261)
Correct for Detector Non-linearity: No (USB2+H05261)
Correct for Stray Light: No (USB2+H05261)
Number of Pixels in Processed Spectrum: 2048
>>>>>Begin Processed Spectral Data<<<<<
365.73	205.97
365.92	205.97
366.12	205.97
366.32	131.07
366.52	98.30
366.72	166.18
366.91	145.11
367.11	145.11
367.31	117.03
367.51	102.98
367.70	124.05
367.90	72.56
368.10	79.58
368.30	133.41
368.49	95.96
368.69	217.67
368.89	154.48
369.09	138.09
369.28	124.05
369.48	159.16
369.68	84.26
369.87	154.48
370.07	114.69
370.27	224.69
370.47	308.95
370.66	554.71
370.86	681.10
371.06	638.97
371.25	716.20
371.45	660.03
371.65	638.97
371.84	613.22
372.04	734.93
372.24	725.57
372.44	763.01
372.63	791.10
372.83	755.99
373.03	657.69
373.22	753.65
373.42	779.40
373.62	840.25
373.81	816.85
374.01	814.51
374.21	807.48
374.40	809.83
374.60	755.99
374.79	791.10
374.99	896.43
375.19	819.19
375.38	847.27
375.58	814.51
375.78	894.08
375.97	868.34
376.17	999.41
376.37	903.45
376.56	908.13
376.76	770.04
376.95	889.40
377.15	823.87
377.35	894.08
377.54	875.36
377.74	980.68
377.93	929.19
378.13	856.64
378.33	950.26
378.52	898.77
378.72	978.34
378.91	901.11
379.11	919.83
379.31	964.30
379.50	929.19
379.70	959.62
379.89	994.73
380.09	968.98
380.28	973.66
380.48	950.26
380.68	870.68
380.87	990.05
381.07	1043.88
381.26	1004.09
381.46	1086.01
381.65	959.62
381.85	968.98
382.04	1104.73
382.24	1064.94
382.43	1090.69
382.63	1004.09
382.83	1043.88
383.02	1053.24
383.22	1057.92
383.41	1022.81
383.61	1135.16
383.80	1111.75
384.00	1102.39
384.19	1219.42
384.39	1179.63
384.58	1107.07
384.78	1067.28
384.97	1146.86
385.17	1118.78
385.36	1153.88
385.56	1144.52
385.75	1114.10
385.95	1174.95
386.14	1128.14
386.34	1277.93
386.53	1259.21
386.72	1231.12
386.92	1268.57
387.11	1210.06
387.31	1284.95
387.50	1177.29
387.70	1231.12
387.89	1252.19
388.09	1371.55
388.28	1217.08
388.48	1226.44
388.67	1256.87
388.86	1296.66
389.06	1282.61
389.25	1245.16
389.45	1275.59
389.64	1280.27
389.84	1324.74
390.03	1420.71
390.22	1352.83
390.42	1404.32
390.61	1380.92
390.81	1432.41
391.00	1434.75
391.19	1446.45
391.39	1357.51
391.58	1411.34
391.78	1542.41
391.97	1497.94
392.16	1448.79
392.36	1455.81
392.55	1441.77
392.75	1469.86
392.94	1582.20
393.13	1554.12
393.33	1614.97
393.52	1554.12
393.71	1652.42
393.91	1540.07
394.10	1537.73
394.29	1603.27
394.49	1568.16
394.68	1570.50
394.88	1680.50
395.07	1614.97
395.26	1673.48
395.46	1659.44
395.65	1849.02
395.84	1701.57
396.04	1804.55
396.23	1743.70
396.42	1820.94
396.62	1732.00
396.81	1699.23
397.00	1680.50
397.19	1806.89
397.39	1799.87
397.58	1832.64
397.77	1783.49
397.97	1860.73
398.16	1837.32
398.35	1895.83
398.55	1844.34
398.74	1961.37
398.93	2033.93
399.12	1919.24
399.32	1952.01
399.51	1942.64
399.70	2083.08
399.90	1956.69
400.09	1966.05
400.28	2054.99
400.47	1980.09
400.67	2052.65
400.86	2040.95
401.05	2080.74
401.24	2115.84
401.44	2146.27
401.63	2125.21
401.82	2176.70
402.01	2251.60
402.21	2003.50
402.40	2267.98
402.59	2218.83
402.78	2275.00
402.97	2260.96
403.17	2115.84
403.36	2314.79
403.55	2317.13
403.74	2483.31
403.93	2380.32
404.13	2370.96
404.32	2375.64
404.51	2310.11
404.70	2457.56
404.89	2342.88
405.09	2544.16
405.28	2480.97
405.47	2572.25
405.66	2609.70
405.85	2469.27
406.05	2551.18
406.24	2637.78
406.43	2394.37
406.62	2605.02
406.81	2733.75
407.00	2553.52
407.20	2691.62
407.39	2588.63
407.58	2647.15
407.77	2820.35
407.96	2801.62
408.15	2876.52
408.34	2747.79
408.54	2871.84
408.73	2815.66
408.92	2885.88
409.11	2897.58
409.30	2895.24
409.49	2906.95
409.68	2925.67
409.87	2909.29
410.07	3166.74
410.26	3009.93
410.45	3045.04
410.64	3023.97
410.83	3059.08
411.02	3141.00
411.21	3183.13
411.40	3122.27
411.59	3199.51
411.78	3150.36
411.98	3236.96
412.17	3393.78
412.36	3302.50
412.55	3302.50
412.74	3377.39
412.93	3468.67
413.12	3475.70
413.31	3581.02
413.50	3529.53
413.69	3557.61
413.88	3648.90
414.07	3602.08
414.26	3707.41
414.45	3583.36
414.64	3529.53
414.83	3812.73
415.02	3714.43
415.22	3637.19
415.41	3714.43
415.60	3885.29
415.79	3941.46
415.98	4051.47
416.17	3974.23
416.36	4074.87
416.55	4046.79
416.74	4231.69
416.93	4149.77
417.12	4021.04
417.31	4051.47
417.50	4189.56
417.69	4458.72
417.88	4369.78
418.07	4227.01
418.26	4299.56
418.45	4444.68
418.64	4585.11
418.83	4550.00
419.02	4521.92
419.21	4376.80
419.39	4535.96
419.58	4489.15
419.77	4465.74
419.96	4636.60
420.15	4512.55
420.34	4660.01
420.53	4748.95
420.72	4732.56
420.91	4730.22
421.10	4765.33
421.29	4755.97
421.48	4706.82
421.67	4774.69
421.86	4851.93
422.05	4889.38
422.24	4837.89
422.43	4709.16
422.61	4891.72
422.80	5022.79
422.99	5006.41
423.18	5114.07
423.37	5097.69
423.56	4898.74
423.75	5011.09
423.94	4706.82
424.13	4664.69
424.32	4685.75
424.50	5095.35
424.69	5254.50
424.88	4964.28
425.07	4992.36
425.26	4971.30
425.45	4952.57
425.64	4905.76
425.83	4919.81
426.01	5036.83
426.20	5135.14
426.39	5263.86
426.58	5057.90
426.77	4971.30
426.96	5004.07
427.15	5123.43
427.33	5315.36
427.52	5254.50
427.71	5249.82
427.90	5305.99
428.09	5465.15
428.28	5383.23
428.46	5420.68
428.65	5387.91
428.84	5600.90
429.03	5476.85
429.22	5411.32
429.40	5507.28
429.59	5490.90
429.78	5327.06
429.97	5245.14
430.16	5425.36
430.34	5610.26
430.53	5678.14
430.72	5692.18
430.91	5666.44
431.10	5727.29
431.28	5767.08
431.47	5659.42
431.66	5898.15
431.85	5771.76
432.03	5886.45
432.22	5977.73
432.41	6022.20
432.60	6059.65
432.79	6038.58
432.97	6008.16
433.16	6038.58
433.35	6094.76
433.54	6059.65
433.72	6190.72
433.91	6146.25
434.10	6157.95
434.28	6087.73
434.47	6209.44
434.66	6354.55
434.85	6246.89
435.03	6265.61
435.22	6340.51
435.41	6459.88
435.59	6370.94
435.78	6520.73
435.97	6562.86
436.16	6523.07
436.34	6576.91
436.53	6530.09
436.72	6649.46
436.90	6408.39
437.09	6609.67
437.28	6506.69
437.46	6703.29
437.65	6771.17
437.84	6796.92
438.02	6707.98
438.21	6890.54
438.40	6651.80
438.58	7066.08
438.77	6916.28
438.96	6951.39
439.14	7218.21
439.33	7110.55
439.52	7204.17
439.70	7290.77
439.89	7431.20
440.08	7393.75
440.26	7562.27
440.45	7318.86
440.63	7522.48
440.82	7868.88
441.01	7510.78
441.19	7644.19
441.38	7922.71
441.57	7911.01
441.75	7927.39
441.94	7915.69
442.12	7808.03
442.31	8100.59
442.50	8119.32
442.68	8109.96
442.87	8252.73
443.05	8325.29
443.24	8210.60
443.43	8234.00
443.61	8362.73
443.80	8559.34
443.98	8236.35
444.17	7915.69
444.35	8442.31
444.54	8566.36
444.73	8423.59
444.91	8294.86
445.10	8421.25
445.28	8472.74
445.47	8414.23
445.65	8421.25
445.84	8500.83
446.02	8512.53
446.21	8519.55
446.39	8479.76
446.58	8587.43
446.77	8458.70
446.95	8149.75
447.14	8512.53
447.32	8636.58
447.51	8564.02
447.69	8411.89
447.88	8777.01
448.06	8631.90
448.25	8533.59
448.43	8702.11
448.62	8531.25
448.80	8557.00
448.99	8793.39
449.17	8847.22
449.36	9064.89
449.54	8695.09
449.73	8798.07
449.91	9076.60
450.10	9305.97
450.28	9259.16
450.46	9268.52
450.65	9121.07
450.83	9188.94
451.02	9163.20
451.20	9191.28
451.39	9184.26
451.57	9078.94
451.76	9184.26
451.94	9172.56
452.13	9329.38
452.31	9460.45
452.49	9355.12
452.68	9425.34
452.86	9312.99
453.05	9533.00
453.23	9666.41
453.42	9401.93
453.60	9504.92
453.78	9750.67
453.97	9530.66
454.15	9689.82
454.34	9399.59
454.52	9708.54
454.70	9710.88
454.89	9874.72
455.07	9769.40
455.26	9867.70
455.44	10120.48
455.62	9961.32
455.81	10087.71
455.99	9877.06
456.17	10083.03
456.36	9970.68
456.54	10237.50
456.73	10291.34
456.91	10686.89
457.09	10623.69
457.28	10710.29
457.46	10249.21
457.64	10335.81
457.83	10644.76
458.01	10604.97
458.19	10815.62
458.38	10595.61
458.56	10719.65
458.74	10827.32
458.93	10619.01
459.11	10902.22
459.29	10888.17
459.48	10874.13
459.66	10913.92
459.84	10970.09
460.03	10862.43
460.21	11077.76
460.39	11089.46
460.57	11056.69
460.76	11009.88
460.94	11389.05
461.12	11257.98
461.31	11248.61
461.49	11328.19
461.67	11515.44
461.85	11496.71
462.04	11379.68
462.22	11939.07
462.40	11538.84
462.59	11672.25
462.77	11667.57
462.95	11992.90
463.13	11651.19
463.32	11595.01
463.50	11719.06
463.68	12004.61
463.86	12020.99
464.05	11789.28
464.23	11627.78
464.41	11932.05
464.59	11850.13
464.78	12343.99
464.96	11995.25
465.14	11892.26
465.32	12320.58
465.50	12304.20
465.69	12278.45
465.87	12236.32
466.05	12023.33
466.23	12140.36
466.41	12128.66
466.60	12641.23
466.78	12414.20
466.96	12390.80
467.14	12318.24
467.32	12248.02
467.51	12648.26
467.69	12308.88
467.87	12837.84
468.05	12730.17
468.23	12589.74
468.41	12624.85
468.60	12830.82
468.78	12886.99
468.96	12643.57
469.14	12933.80
469.32	13336.37
469.50	12531.23
469.69	12973.59
469.87	13305.95
470.05	13217.01
470.23	13191.26
470.41	13018.06
470.59	13123.38
470.77	13331.69
470.95	13125.72
471.14	13558.72
471.32	13095.30
471.50	13486.17
471.68	13568.09
471.86	13493.19
472.04	13891.08
472.22	14022.15
472.40	13752.99
472.58	13902.78
472.77	14251.52
472.95	14237.48
473.13	14759.42
473.31	14274.93
473.49	14066.62
473.67	14176.62
473.85	14464.51
474.03	14974.75
474.21	14768.78
474.39	14794.53
474.57	14979.43
474.75	14841.34
474.93	15049.64
475.12	15019.22
475.30	15040.28
475.48	15169.01
475.66	15583.29
475.84	15339.87
476.02	15452.22
476.20	15468.60
476.38	15765.85
476.56	16004.58
476.74	16042.03
476.92	15936.71
477.10	15920.32
477.28	16114.59
477.46	16390.77
477.64	16657.59
477.82	16332.26
478.00	17146.76
478.18	17043.78
478.36	17118.68
478.54	17165.49
478.72	17619.55
478.90	17329.33
479.08	17715.51
479.26	18101.70
479.44	17731.90
479.62	18228.09
479.80	18015.10
479.98	18513.64
480.16	18925.57
480.34	18523.00
480.52	18930.25
480.70	18745.35
480.88	18534.70
481.06	18958.34
481.24	19168.99
481.41	19271.97
481.59	19601.99
481.77	19473.26
481.95	19756.46
482.13	19903.92
482.31	19892.21
482.49	20102.86
482.67	20034.99
482.85	20442.24
483.03	20718.42
483.21	21095.25
483.39	21249.72
483.57	20952.48
483.74	21280.15
483.92	21488.46
484.10	21156.10
484.28	21376.11
484.46	22202.32
484.64	22464.46
484.82	22017.42
485.00	22508.93
485.18	23138.54
485.35	23417.06
485.53	22906.82
485.71	23131.51
485.89	23784.52
486.07	23527.06
486.25	23775.16
486.43	23992.83
486.61	24135.60
486.78	24273.70
486.96	24208.16
487.14	24830.74
487.32	24680.95
487.50	25268.42
487.68	25209.91
487.85	25324.60
488.03	26008.03
488.21	26036.12
488.39	25855.90
488.57	26312.30
488.75	26333.37
488.92	26871.69
489.10	26906.80
489.28	27075.32
489.46	27281.28
489.64	27421.72
489.81	27899.19
489.99	27749.39
490.17	27882.80
490.35	28409.42
490.53	28130.90
490.70	28634.11
490.88	28624.75
491.06	28973.49
491.24	29383.09
491.41	29256.70
491.59	29549.26
491.77	29303.51
491.95	29972.90
492.13	29888.64
492.30	30494.84
492.48	30302.92
492.66	30391.86
492.84	30974.65
493.01	30834.22
493.19	30831.88
493.37	31578.51
493.54	31126.78
493.72	31798.52
493.90	31470.84
494.08	31653.40
494.25	32144.92
494.43	32641.11
494.61	32552.17
494.79	33043.68
494.96	32893.89
495.14	33062.41
495.32	33846.49
495.49	33439.23
495.67	33563.28
495.85	33809.04
496.02	34015.01
496.20	34139.05
496.38	34225.65
496.55	34150.76
496.73	35494.22
496.91	35133.78
497.09	35033.14
497.26	35526.99
497.44	35442.73
497.62	35332.73
497.79	36130.85
497.97	35920.20
498.14	36414.05
498.32	36643.43
498.50	36140.21
498.67	36980.46
498.85	36435.12
499.03	37071.75
499.20	37062.38
499.38	37027.28
499.56	37111.53
499.73	37635.81
499.91	37614.75
500.08	38251.38
500.26	37766.88
500.44	37490.70
500.61	38115.62
500.79	37993.92
500.97	38272.44
501.14	38686.71
501.32	38913.75
501.49	38848.21
501.67	39143.12
501.84	39388.88
502.02	39138.44
502.20	39349.09
502.37	39522.29
502.55	39545.69
502.72	39868.69
502.90	39789.11
503.07	40119.12
503.25	40112.10
503.43	40025.50
503.60	40360.20
503.78	40584.89
503.95	40444.46
504.13	40891.50
504.30	41434.50
504.48	40828.30
504.65	40924.27
504.83	41418.12
505.01	42021.98
505.18	41462.59
505.36	41645.15
505.53	41647.49
505.71	42190.50
505.88	41897.93
506.06	41869.84
506.23	42305.18
506.41	41895.59
506.58	42445.62
506.76	42511.15
506.93	43012.02
507.11	42302.84
507.28	42204.54
507.46	43416.94
507.63	43005.00
507.81	43842.92
507.98	43517.58
508.16	43618.22
508.33	43702.48
508.50	43667.37
508.68	43821.85
508.85	44479.54
509.03	44360.17
509.20	44236.12
509.38	44844.66
509.55	44744.02
509.73	44631.68
509.90	45013.18
510.08	44905.52
510.25	45013.18
510.42	44884.45
510.60	45345.54
510.77	45691.94
510.95	45724.71
511.12	45631.08
511.30	45478.95
511.47	45806.62
511.64	45567.89
511.82	46328.56
511.99	46267.71
512.17	46330.90
512.34	46087.49
512.51	46817.74
512.69	46899.65
512.86	46394.10
513.04	47049.45
513.21	46960.51
513.38	47166.48
513.56	47107.96
513.73	46906.68
513.90	47388.83
514.08	47227.33
514.25	47660.33
514.43	47929.49
514.60	47828.85
514.77	47688.42
514.95	48315.68
515.12	47709.48
515.29	47934.17
515.47	48177.59
515.64	48397.60
515.81	48053.54
515.99	48648.03
516.16	48861.02
516.33	48306.32
516.51	48577.82
516.68	48942.94
516.85	48645.69
517.03	49331.47
517.20	49038.90
517.37	49165.29
517.54	49205.08
517.72	49488.29
517.89	49420.41
518.06	49373.60
518.24	49174.66
518.41	49476.58
518.58	49240.19
518.75	49755.11
518.93	50155.34
519.10	49935.33
519.27	50211.51
519.45	50026.61
519.62	50176.40
519.79	50213.85
519.96	50136.62
520.14	50305.13
520.31	50138.96
520.48	50567.27
520.65	50763.88
520.83	50883.25
521.00	51182.84
521.17	51044.74
521.34	50969.85
521.52	51086.87
521.69	51054.11
521.86	51526.89
522.03	51433.27
522.20	51622.86
522.38	51423.91
522.55	51751.59
522.72	51566.68
522.89	51732.86
523.07	51899.04
523.24	51484.76
523.41	52130.75
523.58	51512.85
523.75	52282.89
523.92	52306.29
524.10	52154.16
524.27	52238.42
524.44	51955.21
524.61	52453.75
524.78	52210.33
524.96	52603.54
525.13	52495.88
525.30	52556.73
525.47	52746.31
525.64	52594.18
525.81	52968.66
525.98	53078.67
526.16	52811.85
526.33	53057.60
526.50	53357.19
526.67	52903.13
526.84	53256.55
527.01	52975.69
527.18	53209.74
527.36	53160.59
527.53	53612.31
527.70	53663.80
527.87	53354.85
528.04	53336.13
528.21	53738.70
528.38	53727.00
528.55	54082.76
528.72	53696.57
528.89	53661.46
529.07	53357.19
529.24	53619.33
529.41	53963.39
529.58	53900.20
529.75	53925.94
529.92	53970.41
530.09	53998.50
530.26	53932.96
530.43	54103.82
530.60	53921.26
530.77	54176.38
530.94	54171.70
531.11	54178.72
531.28	54445.54
531.46	54185.74
531.63	54473.63
531.80	54398.73
531.97	54532.14
532.14	54852.80
532.31	54665.55
532.48	54927.69
532.65	54901.95
532.82	54852.80
532.99	54906.63
533.16	55119.62
533.33	54850.45
533.50	55231.96
533.67	55096.21
533.84	54930.03
534.01	55147.70
534.18	54864.50
534.35	55451.97
534.52	55262.39
534.69	55442.61
534.86	55515.17
535.03	55370.05
535.20	55648.58
535.37	55693.05
535.54	55524.53
535.71	55566.66
535.88	55561.98
536.05	55891.99
536.22	55899.01
536.38	55742.20
536.55	55742.20
536.72	55903.70
536.89	55765.60
537.06	55669.64
537.23	56044.13
537.40	55753.90
537.57	55952.85
537.74	56236.05
537.91	56397.55
538.08	56205.62
538.25	56186.90
538.42	56154.13
538.59	56542.66
538.75	56161.15
538.92	56324.99
539.09	56580.11
539.26	56165.84
539.43	56322.65
539.60	56460.74
539.77	56289.88
539.94	56502.87
540.11	56521.60
540.28	56530.96
540.44	56893.74
540.61	56467.76
540.78	56587.13
540.95	56692.46
541.12	56559.05
541.29	56545.00
541.46	56708.84
541.62	56910.13
541.79	56985.02
541.96	56617.56
542.13	56814.16
542.30	56790.76
542.47	57286.95
542.63	57013.11
542.80	57167.58
542.97	57134.82
543.14	57530.37
543.31	57408.66
543.48	57301.00
543.64	57553.77
543.81	57607.61
543.98	57598.24
544.15	57584.20
544.32	57549.09
544.48	57649.74
544.65	57542.07
544.82	57460.15
544.99	57256.53
545.16	57652.08
545.32	57542.07
545.49	57965.71
545.66	57862.72
545.83	57954.00
546.00	57773.78
546.16	58122.52
546.33	57605.26
546.50	57839.32
546.67	57656.76
546.83	57759.74
547.00	58138.91
547.17	57979.75
547.34	57963.37
547.50	58113.16
547.67	58515.73
547.84	58344.87
548.00	58223.17
548.17	58497.01
548.34	58375.30
548.51	58543.82
548.67	58499.35
548.84	58534.46
549.01	58408.07
549.18	58382.32
549.34	58506.37
549.51	58581.27
549.68	58485.31
549.84	58553.18
550.01	58721.70
550.18	58501.69
550.34	58688.93
550.51	58452.54
550.68	58576.59
550.84	58459.56
551.01	58714.68
551.18	58658.51
551.34	58656.17
551.51	58731.06
551.68	58820.00
551.84	58742.77
552.01	58831.71
552.18	58805.96
552.34	58798.94
552.51	58918.31
552.68	58742.77
552.84	58990.86
553.01	59082.14
553.18	58981.50
553.34	59168.74
553.51	58915.96
553.67	58997.88
553.84	59086.82
554.01	59131.29
554.17	59049.38
554.34	59140.66
554.51	59255.34
554.67	59348.96
554.84	59105.55
555.00	59063.42
555.17	59203.85
555.33	59173.42
555.50	59051.72
555.67	59236.62
555.83	59379.39
556.00	59227.26
556.16	59763.24
556.33	59435.56
556.50	59379.39
556.66	59613.44
556.83	59456.63
556.99	59697.70
557.16	59695.36
557.32	59590.04
557.49	59833.46
557.65	59475.35
557.82	59643.87
557.98	59884.95
558.15	59819.41
558.32	59611.10
558.48	59648.55
558.65	59599.40
558.81	59875.58
558.98	59882.61
559.14	59983.25
559.31	59870.90
559.47	59849.84
559.64	59945.80
559.80	60032.40
559.97	59962.18
560.13	59891.97
560.30	60055.81
560.46	59971.55
560.63	60023.04
560.79	59924.74
560.96	59859.20
561.12	59938.78
561.29	59957.50
561.45	60093.25
561.61	59950.48
561.78	59838.14
561.94	60023.04
562.11	59964.52
562.27	60016.02
562.44	60126.02
562.60	60191.56
562.77	60140.07
562.93	60013.68
563.10	60306.24
563.26	60079.21
563.42	60589.45
563.59	60175.17
563.75	60451.36
563.92	60191.56
564.08	60285.18
564.24	60233.69
564.41	60341.35
564.57	60350.71
564.74	60334.33
564.90	60514.55
565.07	60233.69
565.23	60388.16
565.39	60261.77
565.56	60491.15
565.72	60212.62
565.88	60512.21
566.05	60282.84
566.21	60392.84
566.38	60444.33
566.54	60495.83
566.70	60458.38
566.87	60708.82
567.03	60313.26
567.19	60708.82
567.36	60339.01
567.52	60544.98
567.68	60704.13
567.85	60491.15
568.01	60502.85
568.17	60533.28
568.34	60643.28
568.50	60633.92
568.66	60626.90
568.83	60582.43
568.99	60591.79
569.15	60687.75
569.32	60640.94
569.48	60626.90
569.64	60795.42
569.81	60441.99
569.97	60369.44
570.13	60652.64
570.30	60631.58
570.46	60715.84
570.62	60853.93
570.78	60631.58
570.95	60797.76
571.11	60928.83
571.27	60699.45
571.43	60601.15
571.60	60694.77
571.76	60839.89
571.92	60917.12
572.09	61013.08
572.25	60636.26
572.41	60640.94
572.57	60690.09
572.74	61144.16
572.90	60963.93
573.06	60725.20
573.22	60654.98
573.38	60645.62
573.55	60898.40
573.71	60846.91
573.87	60907.76
574.03	60891.38
574.20	60804.78
574.36	60643.28
574.52	60750.94
574.68	60839.89
574.84	61001.38
575.01	60739.24
575.17	60907.76
575.33	60825.84
575.49	61006.06
575.65	60933.51
575.82	61043.51
575.98	61017.77
576.14	61141.81
576.30	61038.83
576.46	60835.20
576.62	60858.61
576.79	60907.76
576.95	60842.23
577.11	60849.25
577.27	61099.68
577.43	61055.21
577.59	61080.96
577.75	61001.38
577.92	60910.10
578.08	60905.42
578.24	61212.03
578.40	61020.11
578.56	61162.88
578.72	61020.11
578.88	61279.91
579.04	61277.57
579.21	60996.70
579.37	61375.87
579.53	61160.54
579.69	61158.20
579.85	61034.15
580.01	61270.54
580.17	61066.92
580.33	61272.88
580.49	60975.64
580.65	61237.78
580.82	60931.17
580.98	60963.93
581.14	60882.02
581.30	61130.11
581.46	61048.19
581.62	61073.94
581.78	60959.25
581.94	61237.78
582.10	61141.81
582.26	61001.38
582.42	61076.28
582.58	61078.62
582.74	61118.41
582.90	61010.74
583.06	61137.13
583.22	61113.73
583.38	61230.75
583.54	61183.94
583.70	61258.84
583.86	61176.92
584.02	60926.49
584.18	61240.12
584.34	61190.97
584.50	61034.15
584.66	61219.05
584.82	61195.65
584.98	61481.19
585.14	61139.47
585.30	61137.13
585.46	61343.10
585.62	61165.22
585.78	61247.14
585.94	61188.63
586.10	61212.03
586.26	61268.20
586.42	61373.53
586.58	61382.89
586.74	61319.70
586.90	61214.37
587.06	61092.66
587.22	61165.22
587.38	61235.44
587.54	61413.32
587.70	61296.29
587.86	61296.29
588.02	61350.12
588.18	61429.70
588.34	61352.46
588.49	61263.52
