SpectraSuite Data File
++++++++++++++++++++++++++++++++++++
Date: Fri Oct 25 11:26:21 EDT 2013
User: price-jones
Dark Spectrum Present: No
Reference Spectrum Present: No
Number of Sampled Component Spectra: 1
Spectrometers: USB2+H05261
Integration Time (usec): 100000 (USB2+H05261)
Spectra Averaged: 1 (USB2+H05261)
Boxcar Smoothing: 0 (USB2+H05261)
Correct for Electrical Dark: No (USB2+H05261)
Strobe/Lamp Enabled: No (USB2+H05261)
Correct for Detector Non-linearity: No (USB2+H05261)
Correct for Stray Light: No (USB2+H05261)
Number of Pixels in Processed Spectrum: 2048
>>>>>Begin Processed Spectral Data<<<<<
365.73	250.44
365.92	250.44
366.12	250.44
366.32	201.29
366.52	142.77
366.72	149.79
366.91	86.60
367.11	138.09
367.31	114.69
367.51	114.69
367.70	63.19
367.90	138.09
368.10	161.50
368.30	229.37
368.49	126.39
368.69	217.67
368.89	187.24
369.09	187.24
369.28	203.63
369.48	124.05
369.68	156.82
369.87	177.88
370.07	182.56
370.27	245.76
370.47	341.72
370.66	568.75
370.86	681.10
371.06	613.22
371.25	777.06
371.45	603.86
371.65	608.54
371.84	739.61
372.04	655.35
372.24	692.80
372.44	692.80
372.63	798.12
372.83	676.41
373.03	674.07
373.22	816.85
373.42	660.03
373.62	795.78
373.81	777.06
374.01	814.51
374.21	844.93
374.40	814.51
374.60	819.19
374.79	774.72
374.99	781.74
375.19	786.42
375.38	863.66
375.58	767.70
375.78	882.38
375.97	861.32
376.17	961.96
376.37	887.06
376.56	854.30
376.76	844.93
376.95	868.34
377.15	933.87
377.35	919.83
377.54	952.60
377.74	837.91
377.93	968.98
378.13	968.98
378.33	891.74
378.52	880.04
378.72	940.90
378.91	887.06
379.11	849.61
379.31	940.90
379.50	898.77
379.70	1074.31
379.89	1004.09
380.09	1025.15
380.28	947.92
380.48	983.02
380.68	964.30
380.87	931.53
381.07	1078.99
381.26	945.58
381.46	931.53
381.65	1046.22
381.85	983.02
382.04	1088.35
382.24	1118.78
382.43	1071.97
382.63	990.05
382.83	1163.25
383.02	1046.22
383.22	1163.25
383.41	1076.65
383.61	1123.46
383.80	1163.25
384.00	1125.80
384.19	1125.80
384.39	1158.57
384.58	1121.12
384.78	1170.27
384.97	1245.16
385.17	1118.78
385.36	1125.80
385.56	1135.16
385.75	1214.74
385.95	1144.52
386.14	1191.33
386.34	1282.61
386.53	1254.53
386.72	1205.38
386.92	1256.87
387.11	1275.59
387.31	1245.16
387.50	1170.27
387.70	1191.33
387.89	1306.02
388.09	1203.04
388.28	1329.42
388.48	1282.61
388.67	1242.82
388.86	1448.79
389.06	1299.00
389.25	1364.53
389.45	1306.02
389.64	1376.24
389.84	1380.92
390.03	1420.71
390.22	1399.64
390.42	1366.87
390.61	1369.21
390.81	1453.47
391.00	1502.62
391.19	1369.21
391.39	1397.30
391.58	1437.09
391.78	1390.28
391.97	1460.49
392.16	1423.05
392.36	1579.86
392.55	1469.86
392.75	1533.05
392.94	1472.20
393.13	1542.41
393.33	1535.39
393.52	1521.35
393.71	1619.65
393.91	1739.02
394.10	1589.22
394.29	1593.90
394.49	1593.90
394.68	1629.01
394.88	1600.93
395.07	1526.03
395.26	1706.25
395.46	1706.25
395.65	1631.35
395.84	1685.19
396.04	1767.10
396.23	1710.93
396.42	1687.53
396.62	1762.42
396.81	1795.19
397.00	1717.95
397.19	1778.81
397.39	1795.19
397.58	1724.97
397.77	1811.57
397.97	1898.17
398.16	1884.13
398.35	1898.17
398.55	1879.45
398.74	1827.96
398.93	1987.11
399.12	1949.67
399.32	1891.15
399.51	2031.58
399.70	1989.46
399.90	2031.58
400.09	2038.61
400.28	2099.46
400.47	2057.33
400.67	2073.71
400.86	2214.15
401.05	2179.04
401.24	2029.24
401.44	2157.97
401.63	2078.40
401.82	2066.69
402.01	2097.12
402.21	2200.10
402.40	2153.29
402.59	2202.44
402.78	2132.23
402.97	2120.53
403.17	2284.36
403.36	2209.47
403.55	2169.68
403.74	2328.83
403.93	2403.73
404.13	2349.90
404.32	2370.96
404.51	2263.30
404.70	2363.94
404.89	2286.70
405.09	2462.24
405.28	2359.26
405.47	2466.92
405.66	2473.95
405.85	2520.76
406.05	2560.55
406.24	2658.85
406.43	2637.78
406.62	2635.44
406.81	2647.15
407.00	2572.25
407.20	2684.59
407.39	2637.78
407.58	2619.06
407.77	2668.21
407.96	2850.77
408.15	2670.55
408.34	2839.07
408.54	2752.47
408.73	2745.45
408.92	2834.39
409.11	2920.99
409.30	2843.75
409.49	2834.39
409.68	2913.97
409.87	2864.82
410.07	2939.71
410.26	3063.76
410.45	3026.31
410.64	3005.25
410.83	3105.89
411.02	3155.04
411.21	3187.81
411.40	3075.46
411.59	3178.45
411.78	3246.32
411.98	3117.59
412.17	3286.11
412.36	3241.64
412.55	3337.60
412.74	3384.41
412.93	3386.76
413.12	3248.66
413.31	3543.57
413.50	3449.95
413.69	3431.23
413.88	3574.00
414.07	3543.57
414.26	3524.85
414.45	3665.28
414.64	3583.36
414.83	3676.98
415.02	3740.18
415.22	3740.18
415.41	3791.67
415.60	3798.69
415.79	3847.84
415.98	3990.61
416.17	4046.79
416.36	3866.56
416.55	4070.19
416.74	4072.53
416.93	4063.17
417.12	4039.76
417.31	4173.18
417.50	4201.26
417.69	4219.99
417.88	4074.87
418.07	4287.86
418.26	4243.39
418.45	4339.35
418.64	4531.28
418.83	4470.42
419.02	4500.85
419.21	4432.97
419.39	4594.47
419.58	4451.70
419.77	4348.72
419.96	4568.73
420.15	4606.17
420.34	4552.34
420.53	4727.88
420.72	4690.43
420.91	4643.62
421.10	4746.61
421.29	4791.08
421.48	4664.69
421.67	4805.12
421.86	4854.27
422.05	4793.42
422.24	4765.33
422.43	4870.65
422.61	4816.82
422.80	4971.30
422.99	4908.10
423.18	4999.38
423.37	4898.74
423.56	4807.46
423.75	4788.74
423.94	4774.69
424.13	4482.13
424.32	4662.35
424.50	4809.80
424.69	4992.36
424.88	5093.01
425.07	4926.83
425.26	4835.55
425.45	4987.68
425.64	4903.42
425.83	4933.85
426.01	4926.83
426.20	4917.47
426.39	5200.67
426.58	5078.96
426.77	5062.58
426.96	5060.24
427.15	5008.75
427.33	5207.69
427.52	4898.74
427.71	5174.92
427.90	5238.12
428.09	5238.12
428.28	5352.81
428.46	5261.52
428.65	5387.91
428.84	5397.28
429.03	5500.26
429.22	5252.16
429.40	5495.58
429.59	5523.66
429.78	5336.42
429.97	5275.57
430.16	5399.62
430.34	5528.35
430.53	5631.33
430.72	5710.91
430.91	5612.60
431.10	5687.50
431.28	5706.23
431.47	5722.61
431.66	5647.71
431.85	5703.89
432.03	5809.21
432.22	5970.71
432.41	5886.45
432.60	5764.74
432.79	5881.77
432.97	5905.17
433.16	5902.83
433.35	6076.03
433.54	5937.94
433.72	6003.47
433.91	6111.14
434.10	6059.65
434.28	5963.68
434.47	6209.44
434.66	6300.72
434.85	6225.82
435.03	6258.59
435.22	6228.17
435.41	6480.94
435.59	6317.11
435.78	6408.39
435.97	6401.37
436.16	6516.05
436.34	6333.49
436.53	6537.12
436.72	6609.67
436.90	6450.52
437.09	6516.05
437.28	6478.60
437.46	6448.18
437.65	6480.94
437.84	6803.94
438.02	6607.33
438.21	6604.99
438.40	6705.63
438.58	6787.55
438.77	7014.59
438.96	6979.48
439.14	7012.24
439.33	7164.38
439.52	7176.08
439.70	7073.10
439.89	7148.00
440.08	7246.30
440.26	7140.97
440.45	7176.08
440.63	7541.21
440.82	7623.12
441.01	7440.56
441.19	7578.65
441.38	7698.02
441.57	7831.43
441.75	7843.14
441.94	7896.97
442.12	7922.71
442.31	7873.56
442.50	8058.46
442.68	8004.63
442.87	8086.55
443.05	7992.93
443.24	8081.87
443.43	7922.71
443.61	8100.59
443.80	8461.04
443.98	7983.57
444.17	7864.20
444.35	8018.68
444.54	8262.09
444.73	8177.83
444.91	8163.79
445.10	8217.62
445.28	8226.98
445.47	8425.93
445.65	8336.99
445.84	8353.37
446.02	8421.25
446.21	8271.45
446.39	8243.37
446.58	8503.17
446.77	8451.67
446.95	8219.96
447.14	8564.02
447.32	8510.19
447.51	8395.50
447.69	8571.04
447.88	8458.70
448.06	8554.66
448.25	8568.70
448.43	8388.48
448.62	8695.09
448.80	8351.03
448.99	8655.30
449.17	8468.06
449.36	8580.40
449.54	8809.78
449.73	8821.48
449.91	8997.02
450.10	8999.36
450.28	9261.50
450.46	9081.28
450.65	8840.20
450.83	9050.85
451.02	9008.72
451.20	9202.99
451.39	9046.17
451.57	9116.39
451.76	9202.99
451.94	9046.17
452.13	9160.86
452.31	9177.24
452.49	9165.54
452.68	9362.14
452.86	9259.16
453.05	9483.85
453.23	9334.06
453.42	9387.89
453.60	9303.63
453.78	9369.16
453.97	9404.27
454.15	9488.53
454.34	9315.33
454.52	9486.19
454.70	9584.49
454.89	9657.05
455.07	9640.67
455.26	9710.88
455.44	9767.06
455.62	9680.46
455.81	9731.95
455.99	10054.94
456.17	9900.47
456.36	10008.13
456.54	10132.18
456.73	10214.10
456.91	10415.38
457.09	10452.83
457.28	10260.91
457.46	10286.65
457.64	10293.68
457.83	10361.55
458.01	10345.17
458.19	10686.89
458.38	10548.79
458.56	10757.10
458.74	10724.33
458.93	10548.79
459.11	10635.39
459.29	10803.91
459.48	10796.89
459.66	10862.43
459.84	10806.25
460.03	10953.71
460.21	11002.86
460.39	10923.28
460.57	10946.69
460.76	10864.77
460.94	11302.45
461.12	11073.07
461.31	11166.70
461.49	11131.59
461.67	11150.31
461.85	11194.78
462.04	11243.93
462.22	11716.72
462.40	11557.57
462.59	11538.84
462.77	11325.85
462.95	11716.72
463.13	11571.61
463.32	11534.16
463.50	11580.97
463.68	11623.10
463.86	11602.04
464.05	11602.04
464.23	11758.85
464.41	11672.25
464.59	11616.08
464.78	12121.63
464.96	11648.85
465.14	11777.58
465.32	11983.54
465.50	12018.65
465.69	12315.90
465.87	12079.50
466.05	12119.29
466.23	11969.50
466.41	12084.19
466.60	12161.42
466.78	12093.55
466.96	11999.93
467.14	12318.24
467.32	12451.65
467.51	12512.50
467.69	12290.15
467.87	12304.20
468.05	12407.18
468.23	12545.27
468.41	12285.47
468.60	12519.53
468.78	12645.91
468.96	12479.74
469.14	12723.15
469.32	12737.20
469.50	12634.21
469.69	12917.42
469.87	12781.67
470.05	13013.38
470.23	13167.85
470.41	13139.77
470.59	13212.32
470.77	13235.73
470.95	13247.43
471.14	13345.73
471.32	13074.23
471.50	13528.30
471.68	13535.32
471.86	13444.04
472.04	13664.05
472.22	13928.53
472.40	13420.63
472.58	13713.20
472.77	13729.58
472.95	13963.64
473.13	14583.88
473.31	14080.66
473.49	14066.62
473.67	14097.05
473.85	14230.46
474.03	14773.46
474.21	14431.74
474.39	14658.78
474.57	14630.69
474.75	14616.65
474.93	14839.00
475.12	14586.22
475.30	15126.88
475.48	14899.85
475.66	15019.22
475.84	15129.22
476.02	15353.91
476.20	15250.93
476.38	15611.37
476.56	15864.15
476.74	16058.42
476.92	15744.78
477.10	15702.65
477.28	16238.64
477.46	16163.74
477.64	16128.63
477.82	16383.75
478.00	16669.30
478.18	16601.42
478.36	16758.24
478.54	16910.37
478.72	17130.38
478.90	17137.40
479.08	17465.08
479.26	17617.21
479.44	17727.22
479.62	17790.41
479.80	17994.04
479.98	18010.42
480.16	18354.48
480.34	18228.09
480.52	18541.72
480.70	18604.92
480.88	18328.74
481.06	18574.49
481.24	18705.56
481.41	19023.87
481.59	18916.21
481.77	19297.72
481.95	19405.38
482.13	19559.86
482.31	19775.19
482.49	20004.56
482.67	20053.71
482.85	20402.45
483.03	20622.46
483.21	20666.93
483.39	20844.81
483.57	20706.72
483.74	20915.03
483.92	21291.85
484.10	21242.70
484.28	21261.43
484.46	22038.48
484.64	22099.34
484.82	21823.16
485.00	22298.28
485.18	22609.58
485.35	22820.22
485.53	22466.80
485.71	22785.12
485.89	23227.48
486.07	23044.91
486.25	23044.91
486.43	23325.78
486.61	23866.44
486.78	23922.62
486.96	23995.17
487.14	24432.85
487.32	24589.67
487.50	24510.09
487.68	24765.21
487.85	25348.00
488.03	25118.63
488.21	25743.55
488.39	25603.12
488.57	25668.66
488.75	25907.39
488.92	26403.58
489.10	26703.17
489.28	26693.81
489.46	27241.50
489.64	26827.22
489.81	27660.45
489.99	27171.28
490.17	27592.58
490.35	27946.00
490.53	28105.15
490.70	28130.90
490.88	27871.10
491.06	28278.35
491.24	28540.49
491.41	29015.62
491.59	29116.26
491.77	28900.94
491.95	29656.93
492.13	29759.91
492.30	29771.61
492.48	29703.74
492.66	30237.38
492.84	29895.66
493.01	30256.11
493.19	30433.99
493.37	30962.95
493.54	30632.93
493.72	31145.51
493.90	31098.70
494.08	31360.84
494.25	31864.05
494.43	31503.61
494.61	32327.48
494.79	32332.16
494.96	32053.64
495.14	32542.81
495.32	32811.97
495.49	32964.10
495.67	32809.63
495.85	33472.00
496.02	33532.86
496.20	33586.69
496.38	33902.66
496.55	33968.19
496.73	35005.05
496.91	34080.54
497.09	34738.23
497.26	34576.73
497.44	34930.16
497.62	35086.97
497.79	35426.35
497.97	35517.63
498.14	35557.42
498.32	36048.93
498.50	35770.41
498.67	36774.50
498.85	36002.12
499.03	36547.47
499.20	36596.62
499.38	36800.24
499.56	36758.11
499.73	37013.23
499.91	37020.25
500.08	37202.82
500.26	37212.18
500.44	37308.14
500.61	37567.94
500.79	37596.03
500.97	37614.75
501.14	38309.89
501.32	38375.42
501.49	38190.52
501.67	38085.20
501.84	38572.03
502.02	38859.91
502.20	39302.28
502.37	38808.42
502.55	38958.22
502.72	39225.04
502.90	39538.67
503.07	39309.30
503.25	39386.54
503.43	39178.23
503.60	39681.44
503.78	39730.59
503.95	39693.15
504.13	40119.12
504.30	40135.51
504.48	40210.40
504.65	40542.76
504.83	40488.93
505.01	40971.08
505.18	40854.05
505.36	41397.06
505.53	41411.10
505.71	41455.57
505.88	41652.17
506.06	40961.72
506.23	41584.30
506.41	41280.03
506.58	41504.72
506.76	41558.55
506.93	42218.58
507.11	41947.08
507.28	42082.83
507.46	42066.45
507.63	42866.91
507.81	42672.65
507.98	42593.07
508.16	42745.20
508.33	42895.00
508.50	43145.44
508.68	43536.30
508.85	43753.97
509.03	43250.76
509.20	43948.24
509.38	43950.58
509.55	44332.09
509.73	44425.71
509.90	44458.48
510.08	44243.15
510.25	44292.30
510.42	44802.53
510.60	45132.55
510.77	44739.34
510.95	45209.79
511.12	44992.12
511.30	44921.90
511.47	45118.51
511.64	45090.42
511.82	45825.35
511.99	44968.71
512.17	45996.21
512.34	45542.14
512.51	46061.74
512.69	45792.58
512.86	45911.95
513.04	46490.06
513.21	46490.06
513.38	46543.89
513.56	46674.96
513.73	46681.98
513.90	46738.16
514.08	46665.60
514.25	46773.27
514.43	47079.88
514.60	46990.94
514.77	47103.28
514.95	47571.39
515.12	47077.54
515.29	47459.04
515.47	47564.37
515.64	47683.73
515.81	47482.45
515.99	47927.15
516.16	48306.32
516.33	48184.61
516.51	48594.20
516.68	48390.58
516.85	48240.78
517.03	48706.55
517.20	48935.92
517.37	48446.75
517.54	48341.42
517.72	48664.42
517.89	48938.26
518.06	48872.73
518.24	48748.68
518.41	48886.77
518.58	49191.04
518.75	49151.25
518.93	49345.51
519.10	49462.54
519.27	49932.99
519.45	49357.22
519.62	49727.02
519.79	49951.71
519.96	49574.89
520.14	50054.70
520.31	49624.04
520.48	50157.68
520.65	49991.50
520.83	50452.59
521.00	50337.90
521.17	50199.81
521.34	50532.17
521.52	50403.44
521.69	50693.66
521.86	50981.55
522.03	50738.13
522.20	51091.55
522.38	51363.06
522.55	51327.95
522.72	51138.36
522.89	51180.49
523.07	51304.54
523.24	51210.92
523.41	51136.02
523.58	51274.12
523.75	51760.95
523.92	51367.74
524.10	51667.33
524.27	51599.45
524.44	51882.66
524.61	51936.49
524.78	51899.04
524.96	51985.64
525.13	52086.28
525.30	51929.47
525.47	52250.12
525.64	52128.41
525.81	52355.44
525.98	52376.51
526.16	52238.42
526.33	52458.43
526.50	52493.54
526.67	52491.19
526.84	52650.35
527.01	52807.17
527.18	52774.40
527.36	52837.59
527.53	52828.23
527.70	53216.76
527.87	53195.70
528.04	52924.19
528.21	52903.13
528.38	53247.19
528.55	53439.11
528.72	53198.04
528.89	53109.10
529.07	53345.49
529.24	53404.00
529.41	53785.51
529.58	53258.89
529.75	53394.64
529.92	53647.42
530.09	53511.67
530.26	53612.31
530.43	53916.58
530.60	53701.25
530.77	53759.76
530.94	53979.78
531.11	53820.62
531.28	54064.03
531.46	54251.28
531.63	53968.07
531.80	53801.89
531.97	54155.32
532.14	54372.99
532.31	54349.58
532.48	54251.28
532.65	54234.89
532.82	54593.00
532.99	54639.81
533.16	54281.70
533.33	54714.70
533.50	54796.62
533.67	54731.09
533.84	54464.27
534.01	54813.01
534.18	54581.29
534.35	54997.91
534.52	54915.99
534.69	55168.77
534.86	55068.12
535.03	54801.30
535.20	55004.93
535.37	55260.05
535.54	55068.12
535.71	55004.93
535.88	55178.13
536.05	55365.37
536.22	55573.68
536.38	55477.72
536.55	55519.85
536.72	55571.34
536.89	55201.53
537.06	55337.29
537.23	55655.60
537.40	55124.30
537.57	55526.87
537.74	55618.15
537.91	55849.86
538.08	55660.28
538.25	55613.47
538.42	55756.24
538.59	55856.88
538.75	55688.37
538.92	55786.67
539.09	56060.51
539.26	55983.27
539.43	55842.84
539.60	56299.25
539.77	56128.39
539.94	56247.75
540.11	56156.47
540.28	56303.93
540.44	56247.75
540.61	56505.21
540.78	56240.73
540.95	56353.08
541.12	56205.62
541.29	56264.14
541.46	56406.91
541.62	56554.36
541.79	56549.68
541.96	56137.75
542.13	56275.84
542.30	56463.08
542.47	56608.20
542.63	56680.75
542.80	56750.97
542.97	56788.42
543.14	57034.17
543.31	56959.28
543.48	56982.68
543.64	57345.47
543.81	57186.31
543.98	57277.59
544.15	56999.07
544.32	57289.29
544.48	57249.50
544.65	57305.68
544.82	57008.43
544.99	57401.64
545.16	57448.45
545.32	57261.21
545.49	57446.11
545.66	57635.69
545.83	57366.53
546.00	57619.31
546.16	57436.75
546.33	57525.69
546.50	57403.98
546.67	57677.82
546.83	57298.65
547.00	57380.57
547.17	57420.36
547.34	57750.38
547.50	57958.69
547.67	58045.29
547.84	57876.77
548.00	58033.58
548.17	57993.79
548.34	57780.81
548.51	58082.73
548.67	58232.53
548.84	57982.09
549.01	57771.44
549.18	57935.28
549.34	58220.83
549.51	57986.77
549.68	58185.72
549.84	58255.93
550.01	58225.51
550.18	58178.70
550.34	58262.96
550.51	58447.86
550.68	58321.47
550.84	57935.28
551.01	58585.95
551.18	58157.63
551.34	58255.93
551.51	58438.50
551.68	58602.33
551.84	58529.78
552.01	58382.32
552.18	58436.16
552.34	58351.90
552.51	58497.01
552.68	58328.49
552.84	58356.58
553.01	58501.69
553.18	58695.95
553.34	58857.45
553.51	58555.52
553.67	58611.70
553.84	58658.51
554.01	58831.71
554.17	59032.99
554.34	58726.38
554.51	58941.71
554.67	59121.93
554.84	58791.92
555.00	58913.62
555.17	58770.85
555.33	58733.40
555.50	58707.66
555.67	58763.83
555.83	58773.19
556.00	58761.49
556.16	59510.46
556.33	59178.10
556.50	59121.93
556.66	59161.72
556.83	59068.10
556.99	59367.69
557.16	59313.86
557.32	59257.68
557.49	59505.78
557.65	59089.16
557.82	59213.21
557.98	59351.30
558.15	59327.90
558.32	59477.69
558.48	59161.72
558.65	59377.05
558.81	59519.82
558.98	59295.13
559.14	59487.06
559.31	59311.52
559.47	59510.46
559.64	59583.02
559.80	59545.57
559.97	59571.32
560.13	59615.79
560.30	59281.09
560.46	59363.01
560.63	59545.57
560.79	59477.69
560.96	59765.58
561.12	59674.30
561.29	59723.45
561.45	59704.73
561.61	59508.12
561.78	59700.04
561.94	59566.63
562.11	59643.87
562.27	59994.95
562.44	59882.61
562.60	59875.58
562.77	59952.82
562.93	59522.16
563.10	60079.21
563.26	59664.94
563.42	60079.21
563.59	60023.04
563.75	59821.75
563.92	59796.01
564.08	59922.40
564.24	59997.29
564.41	60074.53
564.57	59948.14
564.74	59765.58
564.90	59852.18
565.07	59915.37
565.23	59948.14
565.39	59826.43
565.56	59990.27
565.72	60009.00
565.88	60009.00
566.05	59945.80
566.21	59793.67
566.38	59992.61
566.54	60252.41
566.70	60175.17
566.87	60168.15
567.03	60107.30
567.19	60154.11
567.36	60079.21
567.52	60123.68
567.68	60261.77
567.85	60060.49
568.01	60320.29
568.17	60198.58
568.34	60107.30
568.50	60009.00
568.66	60292.20
568.83	60289.86
568.99	60289.86
569.15	60324.97
569.32	60076.87
569.48	60264.11
569.64	60416.25
569.81	60266.45
569.97	60261.77
570.13	60339.01
570.30	60289.86
570.46	60346.03
570.62	60236.03
570.78	60238.37
570.95	60156.45
571.11	60301.56
571.27	60367.10
571.43	60292.20
571.60	60523.91
571.76	60477.10
571.92	60596.47
572.09	60301.56
572.25	60437.31
572.41	60413.91
572.57	60355.39
572.74	60683.07
572.90	60512.21
573.06	60540.30
573.22	60523.91
573.38	60559.02
573.55	60561.36
573.71	60605.83
573.87	60643.28
574.03	60434.97
574.20	60514.55
574.36	60320.29
574.52	60568.38
574.68	60671.37
574.84	60683.07
575.01	60507.53
575.17	60409.23
575.33	60580.09
575.49	60411.57
575.65	60615.19
575.82	60685.41
575.98	60584.77
576.14	60708.82
576.30	60776.69
576.46	60636.26
576.62	60530.93
576.79	60633.92
576.95	60472.42
577.11	60619.88
577.27	60549.66
577.43	60849.25
577.59	60662.00
577.75	60598.81
577.92	60472.42
578.08	60594.13
578.24	60671.37
578.40	61062.24
578.56	60514.55
578.72	60542.64
578.88	61017.77
579.04	60741.58
579.21	60800.10
579.37	60863.29
579.53	60877.33
579.69	60699.45
579.85	60767.33
580.01	60495.83
580.17	60519.23
580.33	60594.13
580.49	60776.69
580.65	60746.26
580.82	60631.58
580.98	60664.35
581.14	60734.56
581.30	60762.65
581.46	60734.56
581.62	60811.80
581.78	60647.96
581.94	60774.35
582.10	60879.67
582.26	60734.56
582.42	60619.88
582.58	60685.41
582.74	60566.04
582.90	60755.63
583.06	60811.80
583.22	60669.03
583.38	60849.25
583.54	60896.06
583.70	60741.58
583.86	60743.92
584.02	60645.62
584.18	60669.03
584.34	60874.99
584.50	60982.66
584.66	60896.06
584.82	60816.48
584.98	61045.85
585.14	60886.70
585.30	60814.14
585.46	60858.61
585.62	60832.86
585.78	61006.06
585.94	60673.71
586.10	60811.80
586.26	60975.64
586.42	60921.80
586.58	61062.24
586.74	60821.16
586.90	61001.38
587.06	60729.88
587.22	60933.51
587.38	60718.18
587.54	61006.06
587.70	60952.23
587.86	60746.26
588.02	60769.67
588.18	61169.90
588.34	60898.40
588.49	60811.80
