SpectraSuite Data File
++++++++++++++++++++++++++++++++++++
Date: Fri Oct 25 11:23:41 EDT 2013
User: price-jones
Dark Spectrum Present: No
Reference Spectrum Present: No
Number of Sampled Component Spectra: 1
Spectrometers: USB2+H05261
Integration Time (usec): 100000 (USB2+H05261)
Spectra Averaged: 1 (USB2+H05261)
Boxcar Smoothing: 0 (USB2+H05261)
Correct for Electrical Dark: No (USB2+H05261)
Strobe/Lamp Enabled: No (USB2+H05261)
Correct for Detector Non-linearity: No (USB2+H05261)
Correct for Stray Light: No (USB2+H05261)
Number of Pixels in Processed Spectrum: 2048
>>>>>Begin Processed Spectral Data<<<<<
365.73	238.73
365.92	238.73
366.12	238.73
366.32	175.54
366.52	163.84
366.72	107.66
366.91	98.30
367.11	51.49
367.31	128.73
367.51	88.94
367.70	173.20
367.90	95.96
368.10	159.16
368.30	91.28
368.49	212.99
368.69	142.77
368.89	182.56
369.09	131.07
369.28	126.39
369.48	142.77
369.68	142.77
369.87	222.35
370.07	212.99
370.27	187.24
370.47	287.89
370.66	559.39
370.86	624.92
371.06	655.35
371.25	660.03
371.45	674.07
371.65	622.58
371.84	638.97
372.04	678.76
372.24	751.31
372.44	748.97
372.63	793.44
372.83	819.19
373.03	711.52
373.22	664.71
373.42	760.67
373.62	727.91
373.81	770.04
374.01	842.59
374.21	840.25
374.40	788.76
374.60	823.87
374.79	777.06
374.99	751.31
375.19	744.29
375.38	844.93
375.58	889.40
375.78	919.83
375.97	922.17
376.17	837.91
376.37	821.53
376.56	873.02
376.76	933.87
376.95	837.91
377.15	912.81
377.35	809.83
377.54	924.51
377.74	896.43
377.93	858.98
378.13	903.45
378.33	896.43
378.52	896.43
378.72	856.64
378.91	957.28
379.11	915.15
379.31	999.41
379.50	931.53
379.70	940.90
379.89	999.41
380.09	1029.84
380.28	933.87
380.48	929.19
380.68	1022.81
380.87	978.34
381.07	1029.84
381.26	973.66
381.46	1006.43
381.65	1015.79
381.85	1020.47
382.04	1027.50
382.24	1027.50
382.43	1074.31
382.63	1053.24
382.83	1041.54
383.02	1078.99
383.22	1142.18
383.41	1095.37
383.61	1086.01
383.80	1193.67
384.00	1095.37
384.19	1107.07
384.39	1041.54
384.58	1086.01
384.78	1095.37
384.97	1158.57
385.17	1188.99
385.36	1217.08
385.56	1156.22
385.75	1104.73
385.95	1261.55
386.14	1247.51
386.34	1205.38
386.53	1181.97
386.72	1167.93
386.92	1226.44
387.11	1284.95
387.31	1203.04
387.50	1165.59
387.70	1233.46
387.89	1219.42
388.09	1212.40
388.28	1205.38
388.48	1242.82
388.67	1301.34
388.86	1306.02
389.06	1373.89
389.25	1401.98
389.45	1294.32
389.64	1352.83
389.84	1275.59
390.03	1418.36
390.22	1425.39
390.42	1329.42
390.61	1343.47
390.81	1430.07
391.00	1448.79
391.19	1474.54
391.39	1430.07
391.58	1434.75
391.78	1434.75
391.97	1425.39
392.16	1495.60
392.36	1577.52
392.55	1462.83
392.75	1540.07
392.94	1488.58
393.13	1481.56
393.33	1465.18
393.52	1430.07
393.71	1577.52
393.91	1619.65
394.10	1544.75
394.29	1612.63
394.49	1652.42
394.68	1657.10
394.88	1593.90
395.07	1598.59
395.26	1624.33
395.46	1727.32
395.65	1748.38
395.84	1769.44
396.04	1762.42
396.23	1753.06
396.42	1699.23
396.62	1757.74
396.81	1785.83
397.00	1739.02
397.19	1818.60
397.39	1741.36
397.58	1834.98
397.77	1809.23
397.97	1902.86
398.16	1888.81
398.35	1905.20
398.55	1914.56
398.74	1895.83
398.93	2054.99
399.12	1919.24
399.32	1975.41
399.51	2085.42
399.70	2136.91
399.90	1851.36
400.09	2064.35
400.28	1966.05
400.47	1994.14
400.67	2073.71
400.86	2120.53
401.05	2092.44
401.24	2069.03
401.44	1959.03
401.63	2143.93
401.82	2134.57
402.01	2118.18
402.21	2204.78
402.40	2174.36
402.59	2258.62
402.78	2230.53
402.97	2267.98
403.17	2340.54
403.36	2253.94
403.55	2284.36
403.74	2310.11
403.93	2424.80
404.13	2368.62
404.32	2359.26
404.51	2413.09
404.70	2359.26
404.89	2356.92
405.09	2434.16
405.28	2466.92
405.47	2490.33
405.66	2502.03
405.85	2502.03
406.05	2689.28
406.24	2532.46
406.43	2605.02
406.62	2656.51
406.81	2693.96
407.00	2670.55
407.20	2464.58
407.39	2612.04
407.58	2658.85
407.77	2766.51
407.96	2733.75
408.15	2745.45
408.34	2686.94
408.54	2806.30
408.73	2850.77
408.92	2857.79
409.11	2857.79
409.30	2906.95
409.49	2923.33
409.68	2878.86
409.87	2937.37
410.07	2974.82
410.26	2974.82
410.45	3005.25
410.64	3063.76
410.83	3047.38
411.02	3227.60
411.21	3066.10
411.40	2942.05
411.59	3218.24
411.78	3162.06
411.98	3124.62
412.17	3253.34
412.36	3377.39
412.55	3290.79
412.74	3463.99
412.93	3353.99
413.12	3351.65
413.31	3592.72
413.50	3531.87
413.69	3669.96
413.88	3695.71
414.07	3456.97
414.26	3602.08
414.45	3623.15
414.64	3693.37
414.83	3700.39
415.02	3707.41
415.22	3684.00
415.41	3932.10
415.60	3801.03
415.79	3946.14
415.98	3946.14
416.17	4070.19
416.36	3983.59
416.55	3992.95
416.74	4201.26
416.93	3974.23
417.12	4170.83
417.31	4149.77
417.50	4210.62
417.69	4304.25
417.88	4126.36
418.07	4292.54
418.26	4402.55
418.45	4297.22
418.64	4344.03
418.83	4325.31
419.02	4395.53
419.21	4454.04
419.39	4575.75
419.58	4477.44
419.77	4468.08
419.96	4554.68
420.15	4622.56
420.34	4592.13
420.53	4622.56
420.72	4645.96
420.91	4589.79
421.10	4760.65
421.29	4739.58
421.48	4690.43
421.67	4739.58
421.86	4641.28
422.05	4770.01
422.24	4863.63
422.43	4816.82
422.61	4777.03
422.80	5280.25
422.99	4858.95
423.18	5008.75
423.37	5085.98
423.56	4994.70
423.75	4823.84
423.94	4786.40
424.13	4634.26
424.32	4781.71
424.50	4938.53
424.69	5041.51
424.88	5069.60
425.07	4863.63
425.26	4971.30
425.45	5046.20
425.64	4910.44
425.83	4880.02
426.01	5097.69
426.20	5100.03
426.39	5060.24
426.58	5013.43
426.77	5076.62
426.96	5186.63
427.15	5102.37
427.33	5275.57
427.52	5247.48
427.71	5401.96
427.90	5289.61
428.09	5343.44
428.28	5275.57
428.46	5355.15
428.65	5385.57
428.84	5474.51
429.03	5397.28
429.22	5371.53
429.40	5437.06
429.59	5458.13
429.78	5467.49
429.97	5453.45
430.16	5500.26
430.34	5488.56
430.53	5582.18
430.72	5769.42
430.91	5657.07
431.10	5631.33
431.28	5877.09
431.47	5877.09
431.66	5944.96
431.85	5830.27
432.03	6120.50
432.22	6186.04
432.41	5980.07
432.60	5919.21
432.79	5994.11
432.97	6001.13
433.16	5937.94
433.35	5991.77
433.54	5975.39
433.72	6108.80
433.91	6141.57
434.10	6232.85
434.28	6111.14
434.47	6244.55
434.66	6258.59
434.85	6483.28
435.03	6253.91
435.22	6373.28
435.41	6401.37
435.59	6527.75
435.78	6441.15
435.97	6424.77
436.16	6497.33
436.34	6424.77
436.53	6555.84
436.72	6710.32
436.90	6480.94
437.09	6593.29
437.28	6523.07
437.46	6710.32
437.65	6848.41
437.84	6689.25
438.02	6860.11
438.21	6939.69
438.40	6899.90
438.58	7019.27
438.77	6995.86
438.96	7002.88
439.14	7143.32
439.33	7077.78
439.52	7094.16
439.70	7225.23
439.89	7342.26
440.08	7314.17
440.26	7611.42
440.45	7370.35
440.63	7365.67
440.82	7613.76
441.01	7545.89
441.19	7695.68
441.38	7712.07
441.57	7566.95
441.75	7712.07
441.94	7903.99
442.12	7925.05
442.31	7925.05
442.50	8049.10
442.68	8042.08
442.87	8072.51
443.05	8063.15
443.24	8266.77
443.43	8203.58
443.61	8311.24
443.80	8620.19
443.98	7880.58
444.17	8013.99
444.35	8306.56
444.54	8107.62
444.73	8276.13
444.91	8264.43
445.10	8386.14
445.28	8215.28
445.47	8163.79
445.65	8367.42
445.84	8273.79
446.02	8547.64
446.21	8430.61
446.39	8266.77
446.58	8512.53
446.77	8475.08
446.95	8344.01
447.14	8542.96
447.32	8641.26
447.51	8589.77
447.69	8435.29
447.88	8641.26
448.06	8524.23
448.25	8538.27
448.43	8451.67
448.62	8461.04
448.80	8692.75
448.99	8615.51
449.17	8917.44
449.36	8854.25
449.54	8929.14
449.73	8723.18
449.91	9018.08
450.10	9083.62
450.28	9233.41
450.46	9181.92
450.65	9160.86
450.83	9102.34
451.02	9095.32
451.20	9064.89
451.39	9228.73
451.57	9235.75
451.76	9205.33
451.94	9118.73
452.13	9455.76
452.31	9315.33
452.49	9160.86
452.68	9638.33
452.86	9366.82
453.05	9263.84
453.23	9516.62
453.42	9210.01
453.60	9394.91
453.78	9488.53
453.97	9507.26
454.15	9495.55
454.34	9420.66
454.52	9544.70
454.70	9558.75
454.89	9886.42
455.07	9823.23
455.26	9755.35
455.44	9991.75
455.62	9909.83
455.81	9813.87
455.99	9987.07
456.17	9867.70
456.36	10026.86
456.54	10242.18
456.73	10218.78
456.91	10497.30
457.09	10387.30
457.28	10712.63
457.46	10303.04
457.64	10420.06
457.83	10490.28
458.01	10651.78
458.19	10855.40
458.38	10604.97
458.56	10562.84
458.74	10672.84
458.93	10647.10
459.11	10576.88
459.29	10740.72
459.48	11002.86
459.66	10665.82
459.84	11056.69
460.03	11084.78
460.21	11084.78
460.39	10899.87
460.57	11180.74
460.76	11068.39
460.94	11056.69
461.12	11382.03
461.31	11272.02
461.49	11325.85
461.67	10988.82
461.85	11384.37
462.04	11351.60
462.22	11583.31
462.40	11740.13
462.59	11300.11
462.77	11377.34
462.95	11747.15
463.13	11721.40
463.32	11651.19
463.50	11981.20
463.68	11971.84
463.86	11957.80
464.05	11548.20
464.23	11639.48
464.41	11901.62
464.59	11681.61
464.78	12156.74
464.96	12166.10
465.14	11805.66
465.32	12241.00
465.50	12161.42
465.69	12334.62
465.87	12116.95
466.05	12098.23
466.23	12400.16
466.41	12114.61
466.60	12367.39
466.78	12121.63
466.96	12266.75
467.14	12421.22
467.32	12566.34
467.51	12695.07
467.69	12255.04
467.87	12627.19
468.05	12482.08
468.23	12709.11
468.41	12524.21
468.60	12725.49
468.78	12954.87
468.96	12650.60
469.14	12861.24
469.32	13015.72
469.50	12505.48
469.69	13048.49
469.87	13242.75
470.05	12940.82
470.23	13053.17
470.41	13118.70
470.59	13324.67
470.77	13179.56
470.95	13240.41
471.14	13612.56
471.32	13282.54
471.50	13387.86
471.68	13612.56
471.86	13572.77
472.04	13771.71
472.22	13790.44
472.40	13858.31
472.58	13731.92
472.77	14024.49
472.95	13982.36
473.13	14532.39
473.31	14277.27
473.49	14331.10
473.67	14005.77
473.85	14286.63
474.03	14766.44
474.21	14712.61
474.39	14801.55
474.57	14768.78
474.75	15009.86
474.93	15014.54
475.12	15232.21
475.30	15180.71
475.48	14998.15
475.66	15108.16
475.84	15150.29
476.02	15536.48
476.20	15520.09
476.38	15646.48
476.56	15901.60
476.74	16079.48
476.92	15917.98
477.10	16013.95
477.28	16133.31
477.46	16453.97
477.64	16311.19
477.82	16786.32
478.00	16889.31
478.18	17149.11
478.36	16938.46
478.54	17085.91
478.72	17151.45
478.90	17516.57
479.08	17621.89
479.26	17605.51
479.44	17710.83
479.62	17837.22
479.80	18155.54
479.98	18366.18
480.16	18733.65
480.34	18604.92
480.52	18714.92
480.70	18633.00
480.88	18415.34
481.06	18876.42
481.24	18670.45
481.41	19119.84
481.59	19391.34
481.77	19632.41
481.95	19843.06
482.13	19924.98
482.31	19679.22
482.49	20365.00
482.67	20091.16
482.85	20570.97
483.03	20746.51
483.21	20786.30
483.39	21099.93
483.57	21188.87
483.74	21160.78
483.92	21404.20
484.10	21544.63
484.28	21565.70
484.46	22122.74
484.64	22422.33
484.82	21888.69
485.00	22394.25
485.18	22801.50
485.35	22724.26
485.53	23023.85
485.71	23309.40
485.89	23665.16
486.07	23707.29
486.25	23442.81
486.43	24116.88
486.61	24034.96
486.78	24285.40
486.96	23969.43
487.14	24999.26
487.32	24430.51
487.50	24978.20
487.68	25083.52
487.85	25516.52
488.03	25750.57
488.21	26148.46
488.39	25823.13
488.57	26204.64
488.75	26324.01
488.92	26171.87
489.10	27239.15
489.28	26714.87
489.46	27171.28
489.64	27316.39
489.81	27709.60
489.99	28137.92
490.17	27934.29
490.35	28166.01
490.53	28158.99
490.70	28428.15
490.88	28304.10
491.06	28933.70
491.24	29303.51
491.41	29296.49
491.59	29472.03
491.77	29813.74
491.95	29638.20
492.13	29830.13
492.30	29886.30
492.48	30450.37
492.66	30513.56
492.84	30455.05
493.01	30986.35
493.19	30801.45
493.37	30953.58
493.54	31370.20
493.72	31695.53
493.90	31756.39
494.08	32173.00
494.25	32341.52
494.43	32236.20
494.61	32467.91
494.79	32847.08
494.96	32767.50
495.14	32929.00
495.32	33013.26
495.49	33467.32
495.67	33469.66
495.85	33853.51
496.02	34426.94
496.20	34054.79
496.38	33579.67
496.55	34052.45
496.73	34953.56
496.91	34944.20
497.09	34581.42
497.26	35281.24
497.44	35196.98
497.62	35449.75
497.79	35997.44
497.97	35718.92
498.14	36018.50
498.32	36196.38
498.50	36264.26
498.67	36676.19
498.85	36645.77
499.03	36811.95
499.20	36758.11
499.38	37092.81
499.56	37074.09
499.73	37219.20
499.91	37261.33
500.08	37792.63
500.26	37120.90
500.44	37481.34
500.61	37956.47
500.79	37638.15
500.97	38150.73
501.14	38529.90
501.32	38876.30
501.49	38782.68
501.67	38796.72
501.84	39009.71
502.02	39194.61
502.20	39007.37
502.37	39936.56
502.55	39363.13
502.72	39812.51
502.90	39433.35
503.07	39407.60
503.25	40004.44
503.43	40044.23
503.60	39718.89
503.78	40699.58
503.95	40657.45
504.13	40933.63
504.30	40704.26
504.48	40622.34
504.65	41123.21
504.83	41177.04
505.01	41886.23
505.18	41380.67
505.36	41881.55
505.53	41181.73
505.71	42052.41
505.88	41804.31
506.06	41464.93
506.23	42375.40
506.41	42330.93
506.58	42164.75
506.76	42403.49
506.93	42897.34
507.11	42562.64
507.28	42452.64
507.46	43210.97
507.63	43093.94
507.81	43428.64
507.98	43234.38
508.16	43096.28
508.33	43849.94
508.50	43466.09
508.68	43966.96
508.85	43873.34
509.03	43793.76
509.20	44486.56
509.38	44425.71
509.55	44807.22
509.73	45015.52
509.90	44844.66
510.08	44732.32
510.25	44851.69
510.42	44985.10
510.60	44959.35
510.77	45357.24
510.95	45804.28
511.12	44907.86
511.30	45420.44
511.47	45635.77
511.64	45427.46
511.82	45687.26
511.99	45734.07
512.17	46059.40
512.34	45741.09
512.51	46527.51
512.69	46663.26
512.86	46527.51
513.04	47089.24
513.21	47063.49
513.38	46632.83
513.56	47346.70
513.73	47014.34
513.90	47103.28
514.08	47079.88
514.25	47550.32
514.43	47590.11
514.60	47622.88
514.77	47430.96
514.95	47789.06
515.12	48060.56
515.29	47597.13
515.47	48018.43
515.64	48219.72
515.81	48348.45
515.99	48652.72
516.16	48804.85
516.33	48617.61
516.51	48760.38
516.68	48500.58
516.85	48765.06
517.03	48875.07
517.20	49052.95
517.37	49511.69
517.54	49010.82
517.72	49071.67
517.89	49352.54
518.06	49088.06
518.24	49427.43
518.41	49212.10
518.58	49443.82
518.75	49638.08
518.93	49375.94
519.10	49553.82
519.27	49998.52
519.45	49876.82
519.62	50300.45
519.79	49886.18
519.96	50164.70
520.14	50227.90
520.31	50045.33
520.48	50813.03
520.65	50555.57
520.83	50646.85
521.00	50883.25
521.17	50770.90
521.34	50944.10
521.52	51004.95
521.69	50789.62
521.86	51473.06
522.03	51428.59
522.20	51384.12
522.38	51784.35
522.55	51770.31
522.72	51765.63
522.89	51681.37
523.07	51709.46
523.24	51831.16
523.41	51924.78
523.58	51594.77
523.75	52079.26
523.92	51999.68
524.10	52135.43
524.27	52285.23
524.44	52191.61
524.61	52332.04
524.78	52437.36
524.96	52116.71
525.13	52444.38
525.30	52727.59
525.47	52645.67
525.64	52495.88
525.81	52610.56
525.98	52856.32
526.16	52638.65
526.33	52849.30
526.50	53127.82
526.67	52811.85
526.84	52868.02
527.01	53165.27
527.18	52987.39
527.36	53193.36
527.53	53214.42
527.70	53591.25
527.87	53696.57
528.04	53296.34
528.21	53429.75
528.38	53624.01
528.55	53715.29
528.72	53570.18
528.89	53420.39
529.07	53474.22
529.24	53434.43
529.41	53867.43
529.58	53621.67
529.75	53579.54
529.92	54017.22
530.09	54071.06
530.26	53818.28
530.43	54068.72
530.60	53930.62
530.77	53932.96
530.94	54433.84
531.11	54113.19
531.28	54267.66
531.46	54382.35
531.63	54398.73
531.80	54424.48
531.97	54546.18
532.14	54780.24
532.31	54466.61
532.48	54307.45
532.65	54857.48
532.82	54487.67
532.99	54920.67
533.16	54672.57
533.33	54850.45
533.50	55246.00
533.67	54756.83
533.84	54805.98
534.01	55002.59
534.18	55229.62
534.35	55416.86
534.52	55285.79
534.69	55367.71
534.86	55370.05
535.03	54911.31
535.20	55533.89
535.37	55561.98
535.54	55545.59
535.71	55437.93
535.88	55512.83
536.05	55533.89
536.22	55597.09
536.38	55730.50
536.55	55655.60
536.72	55725.81
536.89	55599.43
537.06	55669.64
537.23	56051.15
537.40	55861.57
537.57	55704.75
537.74	55707.09
537.91	56086.26
538.08	56011.36
538.25	55690.71
538.42	56048.81
538.59	56390.53
538.75	56329.67
538.92	56233.71
539.09	56420.95
539.26	56327.33
539.43	56191.58
539.60	56250.09
539.77	56355.42
539.94	56451.38
540.11	56788.42
540.28	56629.26
540.44	56659.69
540.61	56577.77
540.78	56575.43
540.95	56662.03
541.12	56559.05
541.29	56582.45
541.46	56573.09
541.62	56699.48
541.79	56835.23
541.96	56603.52
542.13	56582.45
542.30	56882.04
542.47	57165.24
542.63	56755.65
542.80	56830.55
542.97	57137.16
543.14	57289.29
543.31	57265.89
543.48	57481.22
543.64	57329.08
543.81	57413.34
543.98	57396.96
544.15	57467.17
544.32	57764.42
544.48	57654.42
544.65	57382.91
544.82	57530.37
544.99	57198.01
545.16	57642.71
545.32	57551.43
545.49	57673.14
545.66	57853.36
545.83	57750.38
546.00	57633.35
546.16	57804.21
546.33	57822.93
546.50	57521.01
546.67	57874.43
546.83	57436.75
547.00	57944.64
547.17	57719.95
547.34	58260.62
547.50	58127.20
547.67	57975.07
547.84	58019.54
548.00	58106.14
548.17	58288.70
548.34	58258.27
548.51	58387.00
548.67	58335.51
548.84	58262.96
549.01	58082.73
549.18	58351.90
549.34	58567.23
549.51	58630.42
549.68	58562.54
549.84	58291.04
550.01	58478.28
550.18	58429.13
550.34	58700.64
550.51	58639.78
550.68	58630.42
550.84	58192.74
551.01	58464.24
551.18	58590.63
551.34	58569.57
551.51	58789.58
551.68	58578.93
551.84	58674.89
552.01	58646.80
552.18	58684.25
552.34	58801.28
552.51	58822.34
552.68	58609.35
552.84	58717.02
553.01	59194.49
553.18	58948.73
553.34	59032.99
553.51	58930.01
553.67	58995.54
553.84	59117.25
554.01	59161.72
554.17	58941.71
554.34	59030.65
554.51	58911.28
554.67	59133.63
554.84	59217.89
555.00	59168.74
555.17	59040.01
555.33	59032.99
555.50	59150.02
555.67	59311.52
555.83	59093.85
556.00	59138.32
556.16	59568.97
556.33	59306.83
556.50	59281.09
556.66	59573.66
556.83	59330.24
556.99	59632.17
557.16	59543.23
557.32	59587.70
557.49	59662.60
557.65	59522.16
557.82	59487.06
557.98	59580.68
558.15	59515.14
558.32	59777.28
558.48	59503.44
558.65	59498.76
558.81	59543.23
558.98	59901.33
559.14	59725.79
559.31	59779.62
559.47	59917.71
559.64	59796.01
559.80	59870.90
559.97	59875.58
560.13	59749.20
560.30	59943.46
560.46	59891.97
560.63	59831.11
560.79	60037.08
560.96	59852.18
561.12	60090.91
561.29	60079.21
561.45	59957.50
561.61	59929.42
561.78	60037.08
561.94	59915.37
562.11	59943.46
562.27	60074.53
562.44	60168.15
562.60	60039.42
562.77	60053.47
562.93	59891.97
563.10	60060.49
563.26	60154.11
563.42	60217.30
563.59	60090.91
563.75	60104.96
563.92	60095.60
564.08	59891.97
564.24	60327.31
564.41	60376.46
564.57	60502.85
564.74	60308.58
564.90	60074.53
565.07	60268.79
565.23	60114.32
565.39	60271.14
565.56	60348.37
565.72	60165.81
565.88	60273.48
566.05	60217.30
566.21	60324.97
566.38	60374.12
566.54	60404.55
566.70	60596.47
566.87	60519.23
567.03	60203.26
567.19	60467.74
567.36	60573.06
567.52	60451.36
567.68	60549.66
567.85	60322.63
568.01	60437.31
568.17	60310.92
568.34	60575.40
568.50	60533.28
568.66	60350.71
568.83	60348.37
568.99	60608.17
569.15	60530.93
569.32	60526.25
569.48	60491.15
569.64	60589.45
569.81	60713.50
569.97	60516.89
570.13	60741.58
570.30	60463.06
570.46	60537.96
570.62	60669.03
570.78	60507.53
570.95	60680.73
571.11	60594.13
571.27	60563.70
571.43	60577.75
571.60	60858.61
571.76	60640.94
571.92	60701.79
572.09	60594.13
572.25	60757.97
572.41	60699.45
572.57	60823.50
572.74	60959.25
572.90	60748.60
573.06	60956.91
573.22	60919.46
573.38	60638.60
573.55	60755.63
573.71	61071.60
573.87	60987.34
574.03	60549.66
574.20	60666.69
574.36	60762.65
574.52	60954.57
574.68	60748.60
574.84	61010.74
575.01	60729.88
575.17	60786.05
575.33	60666.69
575.49	60741.58
575.65	60882.02
575.82	60912.44
575.98	60697.11
576.14	61066.92
576.30	60966.27
576.46	60736.90
576.62	60823.50
576.79	60928.83
576.95	60694.77
577.11	61104.37
577.27	61020.11
577.43	61062.24
577.59	60802.44
577.75	60849.25
577.92	60818.82
578.08	60842.23
578.24	60900.74
578.40	61031.81
578.56	61066.92
578.72	60917.12
578.88	61109.05
579.04	61116.07
579.21	60863.29
579.37	61387.57
579.53	61064.58
579.69	60853.93
579.85	60985.00
580.01	61034.15
580.17	60846.91
580.33	61083.30
580.49	61050.53
580.65	61165.22
580.82	60788.39
580.98	60968.61
581.14	60858.61
581.30	61027.13
581.46	60739.24
581.62	61158.20
581.78	60893.72
581.94	60893.72
582.10	60928.83
582.26	61104.37
582.42	61092.66
582.58	60999.04
582.74	60947.55
582.90	60863.29
583.06	61013.08
583.22	60926.49
583.38	60985.00
583.54	61085.64
583.70	61104.37
583.86	61127.77
584.02	60903.08
584.18	61317.35
584.34	61048.19
584.50	61244.80
584.66	60811.80
584.82	60767.33
584.98	61169.90
585.14	61155.86
585.30	60956.91
585.46	61141.81
585.62	61167.56
585.78	61347.78
585.94	60900.74
586.10	61116.07
586.26	60933.51
586.42	61242.46
586.58	61165.22
586.74	61141.81
586.90	61207.35
587.06	61034.15
587.22	61160.54
587.38	61169.90
587.54	61244.80
587.70	61364.17
587.86	61144.16
588.02	61193.31
588.18	61240.12
588.34	61169.90
588.49	61095.00
