SpectraSuite Data File
++++++++++++++++++++++++++++++++++++
Date: Fri Oct 25 11:34:31 EDT 2013
User: price-jones
Dark Spectrum Present: No
Reference Spectrum Present: No
Number of Sampled Component Spectra: 1
Spectrometers: USB2+H05261
Integration Time (usec): 100000 (USB2+H05261)
Spectra Averaged: 1 (USB2+H05261)
Boxcar Smoothing: 0 (USB2+H05261)
Correct for Electrical Dark: No (USB2+H05261)
Strobe/Lamp Enabled: No (USB2+H05261)
Correct for Detector Non-linearity: No (USB2+H05261)
Correct for Stray Light: No (USB2+H05261)
Number of Pixels in Processed Spectrum: 2048
>>>>>Begin Processed Spectral Data<<<<<
365.73	292.57
365.92	292.57
366.12	292.57
366.32	170.86
366.52	154.48
366.72	241.08
366.91	128.73
367.11	196.60
367.31	224.69
367.51	131.07
367.70	198.95
367.90	161.50
368.10	177.88
368.30	229.37
368.49	175.54
368.69	217.67
368.89	245.76
369.09	159.16
369.28	138.09
369.48	257.46
369.68	241.08
369.87	238.73
370.07	248.10
370.27	285.55
370.47	362.78
370.66	500.87
370.86	547.69
371.06	491.51
371.25	533.64
371.45	535.98
371.65	489.17
371.84	479.81
372.04	540.66
372.24	533.64
372.44	603.86
372.63	690.46
372.83	613.22
373.03	599.18
373.22	638.97
373.42	669.39
373.62	622.58
373.81	641.31
374.01	688.12
374.21	699.82
374.40	589.82
374.60	699.82
374.79	648.33
374.99	627.26
375.19	617.90
375.38	552.37
375.58	594.50
375.78	662.37
375.97	660.03
376.17	638.97
376.37	617.90
376.56	601.52
376.76	571.09
376.95	695.14
377.15	716.20
377.35	748.97
377.54	662.37
377.74	685.78
377.93	620.24
378.13	580.45
378.33	725.57
378.52	678.76
378.72	716.20
378.91	765.36
379.11	662.37
379.31	720.88
379.50	617.90
379.70	779.40
379.89	660.03
380.09	676.41
380.28	699.82
380.48	641.31
380.68	739.61
380.87	716.20
381.07	744.29
381.26	779.40
381.46	734.93
381.65	709.18
381.85	809.83
382.04	737.27
382.24	732.59
382.43	758.33
382.63	755.99
382.83	772.38
383.02	781.74
383.22	786.42
383.41	725.57
383.61	788.76
383.80	814.51
384.00	763.01
384.19	751.31
384.39	842.59
384.58	798.12
384.78	763.01
384.97	805.14
385.17	763.01
385.36	840.25
385.56	903.45
385.75	809.83
385.95	854.30
386.14	760.67
386.34	851.96
386.53	795.78
386.72	781.74
386.92	945.58
387.11	877.70
387.31	821.53
387.50	802.80
387.70	833.23
387.89	936.21
388.09	816.85
388.28	884.72
388.48	929.19
388.67	854.30
388.86	833.23
389.06	971.32
389.25	912.81
389.45	856.64
389.64	910.47
389.84	943.24
390.03	940.90
390.22	938.55
390.42	999.41
390.61	894.08
390.81	966.64
391.00	978.34
391.19	983.02
391.39	931.53
391.58	1025.15
391.78	966.64
391.97	1006.43
392.16	922.17
392.36	1039.20
392.55	1025.15
392.75	868.34
392.94	924.51
393.13	976.00
393.33	1020.47
393.52	1121.12
393.71	1039.20
393.91	1041.54
394.10	1060.26
394.29	1046.22
394.49	1046.22
394.68	1086.01
394.88	1032.18
395.07	1104.73
395.26	1104.73
395.46	1263.89
395.65	1064.94
395.84	1121.12
396.04	1083.67
396.23	1153.88
396.42	1160.91
396.62	1128.14
396.81	1100.05
397.00	1144.52
397.19	1158.57
397.39	1252.19
397.58	1181.97
397.77	1177.29
397.97	1203.04
398.16	1135.16
398.35	1132.82
398.55	1256.87
398.74	1226.44
398.93	1313.04
399.12	1233.46
399.32	1198.35
399.51	1200.69
399.70	1277.93
399.90	1343.47
400.09	1317.72
400.28	1366.87
400.47	1366.87
400.67	1409.00
400.86	1261.55
401.05	1451.13
401.24	1413.68
401.44	1357.51
401.63	1378.58
401.82	1493.26
402.01	1455.81
402.21	1394.96
402.40	1404.32
402.59	1418.36
402.78	1474.54
402.97	1455.81
403.17	1472.20
403.36	1514.33
403.55	1493.26
403.74	1490.92
403.93	1472.20
404.13	1577.52
404.32	1509.65
404.51	1504.96
404.70	1626.67
404.89	1523.69
405.09	1680.50
405.28	1652.42
405.47	1675.82
405.66	1516.67
405.85	1483.90
406.05	1640.72
406.24	1699.23
406.43	1624.33
406.62	1734.34
406.81	1788.17
407.00	1673.48
407.20	1732.00
407.39	1830.30
407.58	1823.28
407.77	1746.04
407.96	1736.68
408.15	1809.23
408.34	1820.94
408.54	1914.56
408.73	1891.15
408.92	1870.09
409.11	1860.73
409.30	1834.98
409.49	1949.67
409.68	1846.68
409.87	1774.13
410.07	1952.01
410.26	1961.37
410.45	1895.83
410.64	2071.37
410.83	2036.27
411.02	1980.09
411.21	2106.48
411.40	2090.10
411.59	2106.48
411.78	2090.10
411.98	2073.71
412.17	2083.08
412.36	2106.48
412.55	2232.87
412.74	2157.97
412.93	2242.23
413.12	2246.91
413.31	2452.88
413.50	2263.30
413.69	2244.57
413.88	2429.48
414.07	2366.28
414.26	2256.28
414.45	2415.43
414.64	2373.30
414.83	2441.18
415.02	2452.88
415.22	2553.52
415.41	2562.89
415.60	2518.42
415.79	2546.50
415.98	2544.16
416.17	2555.86
416.36	2513.74
416.55	2586.29
416.74	2726.72
416.93	2616.72
417.12	2677.57
417.31	2649.49
417.50	2792.26
417.69	2928.01
417.88	2794.60
418.07	2759.49
418.26	2829.71
418.45	2834.39
418.64	3026.31
418.83	2778.22
419.02	2946.73
419.21	2857.79
419.39	2869.50
419.58	2916.31
419.77	2949.08
419.96	2963.12
420.15	3143.34
420.34	3089.51
420.53	3052.06
420.72	3026.31
420.91	3089.51
421.10	2956.10
421.29	3173.77
421.48	3105.89
421.67	3201.85
421.86	3138.66
422.05	3138.66
422.24	3063.76
422.43	3222.92
422.61	3269.73
422.80	3150.36
422.99	3307.18
423.18	3201.85
423.37	3246.32
423.56	3283.77
423.75	3258.03
423.94	3241.64
424.13	3028.65
424.32	3105.89
424.50	3225.26
424.69	3405.48
424.88	3246.32
425.07	3215.90
425.26	3185.47
425.45	3419.52
425.64	3248.66
425.83	3335.26
426.01	3372.71
426.20	3454.63
426.39	3424.20
426.58	3342.28
426.77	3330.58
426.96	3351.65
427.15	3382.07
427.33	3421.86
427.52	3295.47
427.71	3403.14
427.90	3337.60
428.09	3471.01
428.28	3581.02
428.46	3475.70
428.65	3492.08
428.84	3613.79
429.03	3513.14
429.22	3510.80
429.40	3510.80
429.59	3501.44
429.78	3503.78
429.97	3595.06
430.16	3637.19
430.34	3602.08
430.53	3698.05
430.72	3843.16
430.91	3801.03
431.10	3590.38
431.28	3850.18
431.47	3648.90
431.66	3955.51
431.85	3763.58
432.03	3960.19
432.22	3875.93
432.41	3761.24
432.60	3878.27
432.79	3770.60
432.97	4086.58
433.16	3934.44
433.35	3943.80
433.54	4037.42
433.72	4028.06
433.91	4044.45
434.10	4065.51
434.28	4093.60
434.47	4077.21
434.66	4002.32
434.85	4126.36
435.03	4168.49
435.22	4173.18
435.41	4156.79
435.59	4124.02
435.78	4262.12
435.97	4189.56
436.16	4100.62
436.34	4271.48
436.53	4245.73
436.72	4320.63
436.90	4077.21
437.09	4299.56
437.28	4205.94
437.46	4327.65
437.65	4344.03
437.84	4542.98
438.02	4367.44
438.21	4461.06
438.40	4369.78
438.58	4578.09
438.77	4667.03
438.96	4442.34
439.14	4589.79
439.33	4629.58
439.52	4578.09
439.70	4587.45
439.89	4746.61
440.08	4767.67
440.26	4795.76
440.45	4858.95
440.63	4903.42
440.82	4952.57
441.01	4828.53
441.19	4957.25
441.38	4901.08
441.57	4910.44
441.75	5081.30
441.94	5198.33
442.12	5064.92
442.31	5188.97
442.50	5132.79
442.68	5198.33
442.87	5378.55
443.05	5329.40
443.24	5305.99
443.43	5249.82
443.61	5245.14
443.80	5254.50
443.98	5174.92
444.17	5088.32
444.35	5057.90
444.54	5577.50
444.73	5423.02
444.91	5446.43
445.10	5465.15
445.28	5526.00
445.47	5242.80
445.65	5277.91
445.84	5444.09
446.02	5610.26
446.21	5584.52
446.39	5373.87
446.58	5544.73
446.77	5467.49
446.95	5366.85
447.14	5540.05
447.32	5523.66
447.51	5547.07
447.69	5603.24
447.88	5486.22
448.06	5507.28
448.25	5619.63
448.43	5495.58
448.62	5584.52
448.80	5652.39
448.99	5535.37
449.17	5736.65
449.36	5640.69
449.54	5748.36
449.73	5788.14
449.91	5783.46
450.10	5809.21
450.28	5771.76
450.46	5762.40
450.65	5820.91
450.83	5816.23
451.02	5820.91
451.20	5870.06
451.39	5734.31
451.57	5818.57
451.76	5947.30
451.94	5940.28
452.13	5905.17
452.31	5912.19
452.49	5858.36
452.68	6033.90
452.86	6047.94
453.05	6155.61
453.23	6024.54
453.42	6129.86
453.60	6160.29
453.78	6073.69
453.97	6104.12
454.15	6134.54
454.34	6239.87
454.52	6134.54
454.70	6127.52
454.89	6239.87
455.07	6176.67
455.26	6115.82
455.44	6443.49
455.62	6389.66
455.81	6326.47
455.99	6317.11
456.17	6539.46
456.36	6387.32
456.54	6450.52
456.73	6567.54
456.91	6757.13
457.09	6871.81
457.28	6881.18
457.46	6661.16
457.64	6754.79
457.83	6616.69
458.01	6799.26
458.19	6906.92
458.38	6815.64
458.56	6979.48
458.74	6871.81
458.93	6707.98
459.11	6930.33
459.29	6918.62
459.48	6951.39
459.66	6993.52
459.84	7019.27
460.03	7066.08
460.21	6972.46
460.39	7028.63
460.57	7030.97
460.76	7197.15
460.94	7386.73
461.12	7243.96
461.31	7199.49
461.49	7211.19
461.67	7279.07
461.85	7435.88
462.04	7332.90
462.22	7761.22
462.40	7438.22
462.59	7382.05
462.77	7360.98
462.95	7356.30
463.13	7339.92
463.32	7225.23
463.50	7417.16
463.68	7541.21
463.86	7501.42
464.05	7482.69
464.23	7325.88
464.41	7667.60
464.59	7281.41
464.78	7857.18
464.96	7576.31
465.14	7405.46
465.32	7623.12
465.50	7667.60
465.69	7833.77
465.87	7630.15
466.05	7616.10
466.23	7786.96
466.41	7737.81
466.60	7861.86
466.78	7791.64
466.96	7786.96
467.14	7946.12
467.32	7875.90
467.51	7999.95
467.69	7763.56
467.87	7805.69
468.05	8037.40
468.23	7908.67
468.41	8046.76
468.60	7962.50
468.78	8084.21
468.96	8077.19
469.14	8053.78
469.32	8105.28
469.50	8088.89
469.69	8196.56
469.87	8400.18
470.05	8091.23
470.23	8421.25
470.41	8486.78
470.59	8500.83
470.77	8336.99
470.95	8524.23
471.14	8596.79
471.32	8571.04
471.50	8566.36
471.68	8643.60
471.86	8784.03
472.04	8730.20
472.22	8713.81
472.40	8765.31
472.58	8519.55
472.77	8945.53
472.95	8777.01
473.13	9221.71
473.31	8933.82
473.49	9078.94
473.67	9092.98
473.85	9100.00
474.03	9294.27
474.21	9317.67
474.39	9458.10
474.57	9254.48
474.75	9460.45
474.93	9392.57
475.12	9483.85
475.30	9549.39
475.48	9383.21
475.66	9720.24
475.84	9542.36
476.02	9657.05
476.20	9579.81
476.38	10012.81
476.56	9982.38
476.74	10071.33
476.92	9996.43
477.10	9998.77
477.28	10363.89
477.46	10057.28
477.64	10258.57
477.82	10506.66
478.00	10820.30
478.18	10611.99
478.36	10721.99
478.54	10937.32
478.72	10846.04
478.90	11000.52
479.08	11265.00
479.26	11124.57
479.44	11087.12
479.62	11651.19
479.80	11276.70
479.98	11442.88
480.16	11517.78
480.34	11618.42
480.52	11889.92
480.70	11936.73
480.88	11513.10
481.06	11824.39
481.24	12051.42
481.41	11990.56
481.59	12180.15
481.77	12329.94
481.95	12285.47
482.13	12287.81
482.31	11908.65
482.49	12533.57
482.67	12571.02
482.85	12919.76
483.03	12994.65
483.21	12936.14
483.39	12994.65
483.57	12980.61
483.74	12966.57
483.92	13336.37
484.10	13352.76
484.28	13453.40
484.46	13741.29
484.64	13823.20
484.82	13790.44
485.00	13858.31
485.18	13823.20
485.35	14359.19
485.53	14134.50
485.71	14326.42
485.89	14684.52
486.07	14876.44
486.25	14597.92
486.43	14761.76
486.61	15005.17
486.78	14977.09
486.96	15019.22
487.14	15087.09
487.32	15569.24
487.50	15562.22
487.68	15768.19
487.85	16002.24
488.03	15784.57
488.21	16198.85
488.39	15950.75
488.57	16224.59
488.75	16205.87
488.92	16402.47
489.10	16681.00
489.28	16720.79
489.46	17205.28
489.64	16840.15
489.81	17097.61
489.99	17362.09
490.17	17343.37
490.35	17521.25
490.53	17675.73
490.70	17776.37
490.88	17575.08
491.06	17848.93
491.24	17853.61
491.41	18026.81
491.59	18160.22
491.77	18146.17
491.95	18530.02
492.13	18633.00
492.30	18946.64
492.48	18902.17
492.66	18733.65
492.84	18864.72
493.01	18892.80
493.19	18885.78
493.37	19297.72
493.54	19211.12
493.72	19510.71
493.90	19548.15
494.08	19864.13
494.25	19847.74
494.43	19924.98
494.61	20500.75
494.79	20341.60
494.96	20247.97
495.14	20355.64
495.32	20730.12
495.49	20449.26
495.67	20746.51
495.85	20739.49
496.02	21205.25
496.20	21549.31
496.38	21460.37
496.55	21355.05
496.73	21781.03
496.91	21443.99
497.09	21443.99
497.26	21748.26
497.44	22017.42
497.62	22195.30
497.79	22209.34
497.97	21996.35
498.14	22155.51
498.32	22654.05
498.50	22806.18
498.67	22520.63
498.85	22794.48
499.03	22768.73
499.20	22792.14
499.38	22937.25
499.56	23171.30
499.73	23257.90
499.91	23571.54
500.08	23618.35
500.26	23173.64
500.44	23351.52
500.61	23744.73
500.79	23578.56
500.97	23807.93
501.14	24332.21
501.32	24088.79
501.49	24140.29
501.67	24116.88
501.84	24641.16
502.02	24407.11
502.20	24353.27
502.37	24573.28
502.55	24505.41
502.72	24821.38
502.90	24912.66
503.07	24540.52
503.25	24819.04
503.43	24755.85
503.60	24966.49
503.78	24987.56
503.95	24940.75
504.13	25025.01
504.30	25434.60
504.48	25125.65
504.65	25668.66
504.83	25579.71
505.01	25825.47
505.18	25539.93
505.36	25956.54
505.53	25738.87
505.71	25626.53
505.88	26321.66
506.06	26085.27
506.23	26204.64
506.41	26019.74
506.58	26211.66
506.76	26490.18
506.93	26670.40
507.11	26518.27
507.28	26803.82
507.46	26822.54
507.63	26845.94
507.81	27229.79
507.98	26733.60
508.16	26757.00
508.33	27370.22
508.50	27283.62
508.68	27264.90
508.85	27747.05
509.03	27805.56
509.20	27608.96
509.38	27835.99
509.55	27763.43
509.73	27887.48
509.90	27882.80
510.08	27864.08
510.25	28327.50
510.42	28081.75
510.60	28257.29
510.77	28580.28
510.95	28863.49
511.12	28058.34
511.30	28563.90
511.47	28713.69
511.64	28685.61
511.82	28713.69
511.99	28755.82
512.17	28821.36
512.34	28919.66
512.51	29357.34
512.69	29387.77
512.86	29022.64
513.04	29142.01
513.21	29359.68
513.38	29479.05
513.56	29284.78
513.73	29591.39
513.90	29715.44
514.08	29446.28
514.25	29677.99
514.43	30323.98
514.60	30050.14
514.77	30008.01
514.95	30129.72
515.12	29757.57
515.29	29886.30
515.47	30349.73
515.64	30499.52
515.81	30415.26
515.99	30506.54
516.16	30892.73
516.33	30616.55
516.51	31040.18
516.68	30558.03
516.85	30829.54
517.03	31299.98
517.20	30909.11
517.37	30859.96
517.54	31077.63
517.72	31248.49
517.89	31227.43
518.06	31571.49
518.24	31428.71
518.41	31290.62
518.58	31653.40
518.75	31314.03
518.93	32121.51
519.10	31576.17
519.27	31456.80
519.45	31765.75
519.62	31903.84
519.79	32013.85
519.96	32519.40
520.14	32079.38
520.31	32142.58
520.48	32266.63
520.65	32634.09
520.83	32430.46
521.00	32811.97
521.17	32631.75
521.34	32580.26
521.52	32844.74
521.69	32641.11
521.86	32818.99
522.03	32755.80
522.20	32992.19
522.38	33343.27
522.55	33460.30
522.72	33188.80
522.89	33472.00
523.07	33326.89
523.24	33661.58
523.41	33467.32
523.58	33366.68
523.75	33750.52
523.92	33394.76
524.10	33797.34
524.27	33893.30
524.44	33905.00
524.61	34361.40
524.78	34424.60
524.96	34064.16
525.13	33919.04
525.30	34164.80
525.47	34249.06
525.64	33993.94
525.81	34546.31
525.98	34302.89
526.16	34359.06
526.33	34239.70
526.50	34890.37
526.67	34256.08
526.84	34728.87
527.01	34211.61
527.18	35119.74
527.36	34885.68
527.53	35124.42
527.70	35101.01
527.87	35412.31
528.04	35215.70
528.21	34962.92
528.38	35454.44
528.55	35791.47
528.72	35510.61
528.89	35358.47
529.07	35257.83
529.24	35459.12
529.41	35622.95
529.58	35845.30
529.75	35456.78
529.92	35941.27
530.09	35557.42
530.26	35505.93
530.43	36189.36
530.60	35615.93
530.77	35866.37
530.94	36126.17
531.11	36130.85
531.28	35992.76
531.46	36402.35
531.63	36243.20
531.80	36135.53
531.97	36243.20
532.14	36404.69
532.31	36517.04
532.48	36928.97
532.65	36762.79
532.82	36694.92
532.99	37013.23
533.16	36837.69
533.33	36720.66
533.50	36753.43
533.67	36945.36
533.84	36877.48
534.01	37141.96
534.18	36917.27
534.35	37205.16
534.52	37074.09
534.69	37471.98
534.86	37303.46
535.03	37383.04
535.20	37546.87
535.37	37446.23
535.54	37666.24
535.71	37518.79
535.88	37888.59
536.05	37589.00
536.22	37963.49
536.38	37677.94
536.55	37862.85
536.72	37813.70
536.89	37750.50
537.06	37390.06
537.23	37844.12
537.40	37682.62
537.57	37677.94
537.74	37577.30
537.91	38363.72
538.08	37951.79
538.25	37937.74
538.42	37996.26
538.59	38497.13
538.75	37930.72
538.92	38576.71
539.09	38483.09
539.26	38447.98
539.43	38712.46
539.60	38672.67
539.77	38595.43
539.94	38857.57
540.11	38728.84
540.28	38611.82
540.44	38909.07
540.61	38394.15
540.78	38679.69
540.95	38927.79
541.12	38843.53
541.29	39192.27
541.46	38904.38
541.62	39138.44
541.79	39463.77
541.96	39049.50
542.13	38794.38
542.30	39138.44
542.47	39250.78
542.63	39564.42
542.80	39431.01
542.97	40055.93
543.14	39796.13
543.31	39608.89
543.48	39655.70
543.64	40222.11
543.81	40236.15
543.98	39810.17
544.15	39859.32
544.32	40163.59
544.48	40477.22
544.65	40130.83
544.82	39931.88
544.99	39828.90
545.16	39746.98
545.32	40091.04
545.49	40634.04
545.66	40549.78
545.83	40886.82
546.00	40687.87
546.16	40449.14
546.33	40184.66
546.50	40137.85
546.67	40250.19
546.83	40336.79
547.00	40364.88
547.17	40692.55
547.34	40538.08
547.50	41141.94
547.67	40989.80
547.84	40847.03
548.00	41172.36
548.17	41198.11
548.34	41146.62
548.51	41319.82
548.67	41514.08
548.84	41069.38
549.01	40612.98
549.18	40914.90
549.34	41486.00
549.51	41469.61
549.68	41289.39
549.84	41146.62
550.01	41368.97
550.18	41635.79
550.34	41530.47
550.51	41511.74
550.68	41642.81
550.84	41474.29
551.01	41890.91
551.18	41425.14
551.34	41635.79
551.51	41759.84
551.68	41820.69
551.84	41645.15
552.01	41249.60
552.18	41567.91
552.34	41628.77
552.51	42188.16
552.68	41933.04
552.84	41862.82
553.01	42061.77
553.18	41858.14
553.34	42256.03
553.51	41551.53
553.67	41963.46
553.84	42256.03
554.01	42586.05
554.17	41996.23
554.34	42167.09
554.51	41972.83
554.67	42555.62
554.84	42602.43
555.00	42457.32
555.17	41984.53
555.33	42838.83
555.50	42782.65
555.67	43012.02
555.83	42761.59
556.00	42698.39
556.16	43129.05
556.33	42981.60
556.50	43054.15
556.66	42513.49
556.83	42707.76
556.99	43044.79
557.16	43285.87
557.32	42855.21
557.49	42944.15
557.65	42789.67
557.82	42895.00
557.98	42733.50
558.15	42988.62
558.32	43054.15
558.48	42759.25
558.65	42988.62
558.81	42815.42
558.98	43012.02
559.14	43119.69
559.31	42686.69
559.47	42916.06
559.64	43271.82
559.80	43110.33
559.97	43620.56
560.13	42824.78
560.30	43320.98
560.46	43505.88
560.63	43959.94
560.79	43636.95
560.96	43126.71
561.12	43838.23
561.29	43700.14
561.45	43597.16
561.61	43445.02
561.78	43182.88
561.94	43463.75
562.11	43559.71
562.27	43718.87
562.44	43466.09
562.60	43592.48
562.77	43988.03
562.93	43990.37
563.10	43819.51
563.26	43604.18
563.42	43763.34
563.59	43496.52
563.75	43826.53
563.92	43952.92
564.08	43557.37
564.24	44397.62
564.41	44175.27
564.57	43997.39
564.74	43990.37
564.90	43749.29
565.07	43807.81
565.23	43634.61
565.39	43819.51
565.56	44198.68
565.72	43812.49
565.88	43641.63
566.05	43716.53
566.21	44339.11
566.38	44086.33
566.54	44252.51
566.70	44208.04
566.87	44212.72
567.03	43791.42
567.19	44046.54
567.36	44020.80
567.52	44240.81
567.68	44388.26
567.85	43966.96
568.01	44273.57
568.17	44224.42
568.34	44381.24
568.50	44409.32
568.66	43842.92
568.83	44060.58
568.99	44065.27
569.15	44500.61
569.32	44399.96
569.48	44336.77
569.64	44449.11
569.81	44573.16
569.97	44502.95
570.13	44800.19
570.30	44657.42
570.46	44278.25
570.62	44552.10
570.78	44779.13
570.95	44142.50
571.11	44460.82
571.27	44264.21
571.43	44191.65
571.60	44332.09
571.76	44088.67
571.92	44409.32
572.09	44364.85
572.25	44601.25
572.41	44952.33
572.57	44296.98
572.74	45209.79
572.90	44416.35
573.06	44575.50
573.22	44940.63
573.38	45263.62
573.55	45055.31
573.71	44900.84
573.87	44959.35
574.03	44727.64
574.20	44839.98
574.36	44587.21
574.52	44940.63
574.68	44755.72
574.84	44729.98
575.01	44907.86
575.17	45113.83
575.33	45153.62
575.49	44430.39
575.65	45050.63
575.82	44858.71
575.98	44786.15
576.14	45244.90
576.30	44996.80
576.46	45057.65
576.62	44914.88
576.79	45036.59
576.95	44765.09
577.11	44381.24
577.27	44964.03
577.43	44847.00
577.59	45132.55
577.75	44949.99
577.92	44687.85
578.08	45120.85
578.24	44825.94
578.40	45284.68
578.56	45191.06
578.72	44685.51
578.88	44825.94
579.04	44713.59
579.21	45048.29
579.37	44765.09
579.53	45036.59
579.69	44980.42
579.85	44601.25
580.01	45270.64
580.17	44545.08
580.33	45434.48
580.49	44858.71
580.65	44814.24
580.82	45125.53
580.98	44957.01
581.14	44975.73
581.30	45366.60
581.46	45179.36
581.62	45092.76
581.78	45415.76
581.94	44992.12
582.10	45153.62
582.26	45354.90
582.42	45483.63
582.58	45413.41
582.74	44994.46
582.90	44994.46
583.06	45628.74
583.22	44959.35
583.38	45144.25
583.54	45221.49
583.70	45392.35
583.86	45385.33
584.02	45490.65
584.18	45134.89
584.34	45492.99
584.50	45743.43
584.66	45420.44
584.82	45202.77
584.98	45382.99
585.14	45371.28
585.30	44842.32
585.46	45027.23
585.62	45024.89
585.78	45249.58
585.94	44793.17
586.10	45277.66
586.26	44938.29
586.42	44989.78
586.58	45525.76
586.74	45668.53
586.90	45200.43
587.06	45240.21
587.22	45436.82
587.38	44945.31
587.54	45640.45
587.70	45890.88
587.86	45560.87
588.02	45324.47
588.18	45439.16
588.34	45315.11
588.49	45560.87
588.65	45254.26
588.81	45235.53
588.97	45521.08
589.13	45521.08
589.29	45200.43
589.45	45322.13
589.61	45399.37
589.77	45237.87
589.93	45174.68
590.08	45701.30
