SpectraSuite Data File
++++++++++++++++++++++++++++++++++++
Date: Fri Oct 25 10:44:13 EDT 2013
User: price-jones
Dark Spectrum Present: No
Reference Spectrum Present: No
Number of Sampled Component Spectra: 1
Spectrometers: USB2+H05261
Integration Time (usec): 100000 (USB2+H05261)
Spectra Averaged: 1 (USB2+H05261)
Boxcar Smoothing: 0 (USB2+H05261)
Correct for Electrical Dark: No (USB2+H05261)
Strobe/Lamp Enabled: No (USB2+H05261)
Correct for Detector Non-linearity: No (USB2+H05261)
Correct for Stray Light: No (USB2+H05261)
Number of Pixels in Processed Spectrum: 2048
>>>>>Begin Processed Spectral Data<<<<<
365.73	124.05
365.92	124.05
366.12	124.05
366.32	95.96
366.52	0.00
366.72	93.62
366.91	28.09
367.11	0.00
367.31	0.00
367.51	0.00
367.70	0.00
367.90	28.09
368.10	0.00
368.30	46.81
368.49	42.13
368.69	28.09
368.89	21.06
369.09	42.13
369.28	65.54
369.48	35.11
369.68	44.47
369.87	149.79
370.07	46.81
370.27	208.31
370.47	194.26
370.66	320.65
370.86	440.02
371.06	489.17
371.25	538.32
371.45	496.19
371.65	461.09
371.84	425.98
372.04	440.02
372.24	505.56
372.44	437.68
372.63	482.15
372.83	524.28
373.03	503.22
373.22	470.45
373.42	507.90
373.62	566.41
373.81	514.92
374.01	528.96
374.21	510.24
374.40	599.18
374.60	631.94
374.79	603.86
374.99	601.52
375.19	617.90
375.38	566.41
375.58	568.75
375.78	589.82
375.97	550.03
376.17	690.46
376.37	643.65
376.56	613.22
376.76	561.73
376.95	655.35
377.15	627.26
377.35	650.67
377.54	741.95
377.74	655.35
377.93	559.39
378.13	655.35
378.33	610.88
378.52	660.03
378.72	692.80
378.91	648.33
379.11	734.93
379.31	615.56
379.50	655.35
379.70	695.14
379.89	566.41
380.09	723.23
380.28	685.78
380.48	723.23
380.68	678.76
380.87	676.41
381.07	624.92
381.26	695.14
381.46	704.50
381.65	718.54
381.85	671.73
382.04	674.07
382.24	709.18
382.43	734.93
382.63	697.48
382.83	732.59
383.02	718.54
383.22	641.31
383.41	730.25
383.61	734.93
383.80	830.89
384.00	739.61
384.19	802.80
384.39	842.59
384.58	898.77
384.78	709.18
384.97	755.99
385.17	791.10
385.36	795.78
385.56	833.23
385.75	777.06
385.95	849.61
386.14	812.17
386.34	814.51
386.53	943.24
386.72	863.66
386.92	851.96
387.11	868.34
387.31	882.38
387.50	826.21
387.70	823.87
387.89	870.68
388.09	727.91
388.28	889.40
388.48	826.21
388.67	950.26
388.86	950.26
389.06	926.85
389.25	1020.47
389.45	992.39
389.64	1027.50
389.84	1036.86
390.03	959.62
390.22	1032.18
390.42	1004.09
390.61	950.26
390.81	1027.50
391.00	1027.50
391.19	1001.75
391.39	1116.44
391.58	1020.47
391.78	1032.18
391.97	1102.39
392.16	1043.88
392.36	1020.47
392.55	1013.45
392.75	961.96
392.94	994.73
393.13	905.79
393.33	1083.67
393.52	1048.56
393.71	1130.48
393.91	1172.61
394.10	1043.88
394.29	1128.14
394.49	1156.22
394.68	1179.63
394.88	1193.67
395.07	1254.53
395.26	1151.54
395.46	1160.91
395.65	1289.64
395.84	1226.44
396.04	1217.08
396.23	1135.16
396.42	1116.44
396.62	1144.52
396.81	1174.95
397.00	1235.80
397.19	1289.64
397.39	1273.25
397.58	1263.89
397.77	1399.64
397.97	1301.34
398.16	1427.73
398.35	1406.66
398.55	1432.41
398.74	1423.05
398.93	1533.05
399.12	1563.48
399.32	1490.92
399.51	1554.12
399.70	1563.48
399.90	1565.82
400.09	1404.32
400.28	1654.76
400.47	1614.97
400.67	1671.14
400.86	1664.12
401.05	1671.14
401.24	1612.63
401.44	1631.35
401.63	1715.61
401.82	1792.85
402.01	1694.55
402.21	1645.40
402.40	1647.74
402.59	1640.72
402.78	1788.17
402.97	1806.89
403.17	1750.72
403.36	1781.15
403.55	1776.47
403.74	1898.17
403.93	1900.52
404.13	1837.32
404.32	1734.34
404.51	1839.66
404.70	1947.33
404.89	1774.13
405.09	1937.96
405.28	1879.45
405.47	1912.22
405.66	1930.94
405.85	2008.18
406.05	1984.77
406.24	1982.43
406.43	1961.37
406.62	1984.77
406.81	2099.46
407.00	2083.08
407.20	1991.80
407.39	2080.74
407.58	2150.95
407.77	2134.57
407.96	2141.59
408.15	2225.85
408.34	2228.19
408.54	2221.17
408.73	2258.62
408.92	2333.51
409.11	2275.00
409.30	2235.21
409.49	2359.26
409.68	2246.91
409.87	2282.02
410.07	2279.68
410.26	2298.41
410.45	2296.07
410.64	2401.39
410.83	2485.65
411.02	2551.18
411.21	2534.80
411.40	2537.14
411.59	2605.02
411.78	2553.52
411.98	2509.05
412.17	2497.35
412.36	2693.96
412.55	2689.28
412.74	2764.17
412.93	2768.85
413.12	2726.72
413.31	2839.07
413.50	2890.56
413.69	2864.82
413.88	2939.71
414.07	2876.52
414.26	2930.35
414.45	2995.89
414.64	3026.31
414.83	2888.22
415.02	3021.63
415.22	2932.69
415.41	3138.66
415.60	3206.53
415.79	3080.14
415.98	3309.52
416.17	3183.13
416.36	3251.00
416.55	3229.94
416.74	3180.79
416.93	3225.26
417.12	3337.60
417.31	3356.33
417.50	3386.76
417.69	3407.82
417.88	3384.41
418.07	3335.26
418.26	3344.63
418.45	3471.01
418.64	3578.68
418.83	3487.40
419.02	3576.34
419.21	3574.00
419.39	3578.68
419.58	3391.44
419.77	3391.44
419.96	3566.98
420.15	3651.24
420.34	3644.21
420.53	3765.92
420.72	3796.35
420.91	3833.80
421.10	3730.81
421.29	3873.59
421.48	3627.83
421.67	3889.97
421.86	3950.82
422.05	3658.26
422.24	3779.97
422.43	3604.42
422.61	3913.38
422.80	3852.52
422.99	3941.46
423.18	3953.16
423.37	3859.54
423.56	3962.53
423.75	3859.54
423.94	3812.73
424.13	3564.64
424.32	3602.08
424.50	3990.61
424.69	3929.76
424.88	3941.46
425.07	3866.56
425.26	3805.71
425.45	3782.31
425.64	3960.19
425.83	3812.73
426.01	3925.08
426.20	3932.10
426.39	3906.35
426.58	3801.03
426.77	3843.16
426.96	3971.89
427.15	4070.19
427.33	3976.57
427.52	3932.10
427.71	4086.58
427.90	4046.79
428.09	4109.98
428.28	4032.74
428.46	4180.20
428.65	4140.41
428.84	4126.36
429.03	4241.05
429.22	4175.52
429.40	4222.33
429.59	4056.15
429.78	3836.14
429.97	3889.97
430.16	4065.51
430.34	3988.27
430.53	4152.11
430.72	4308.93
430.91	4297.22
431.10	4308.93
431.28	4540.64
431.47	4559.36
431.66	4674.05
431.85	4416.59
432.03	4655.33
432.22	4645.96
432.41	4592.13
432.60	4650.64
432.79	4706.82
432.97	4711.50
433.16	4802.78
433.35	4631.92
433.54	4620.22
433.72	4578.09
433.91	4652.98
434.10	4645.96
434.28	4676.39
434.47	4730.22
434.66	4798.10
434.85	5008.75
435.03	4767.67
435.22	4863.63
435.41	5149.18
435.59	5163.22
435.78	5053.22
435.97	5062.58
436.16	4975.98
436.34	5004.07
436.53	5109.39
436.72	5181.95
436.90	5116.41
437.09	5266.21
437.28	4957.25
437.46	5139.82
437.65	5076.62
437.84	5130.45
438.02	5107.05
438.21	5188.97
438.40	5135.14
438.58	5270.89
438.77	5455.79
438.96	5455.79
439.14	5530.69
439.33	5373.87
439.52	5657.07
439.70	5542.39
439.89	5476.85
440.08	5626.65
440.26	5624.31
440.45	5696.86
440.63	5874.74
440.82	5731.97
441.01	5923.90
441.19	5849.00
441.38	6064.33
441.57	6129.86
441.75	5982.41
441.94	6277.32
442.12	6134.54
442.31	6251.57
442.50	6164.97
442.68	6059.65
442.87	6349.87
443.05	6436.47
443.24	6326.47
443.43	6394.34
443.61	6347.53
443.80	6672.87
443.98	6296.04
444.17	6319.45
444.35	6403.71
444.54	6609.67
444.73	6487.96
444.91	6478.60
445.10	6565.20
445.28	6394.34
445.47	6164.97
445.65	6410.73
445.84	6450.52
446.02	6525.41
446.21	6490.31
446.39	6565.20
446.58	6619.04
446.77	6595.63
446.95	6434.13
447.14	6647.12
447.32	6502.01
447.51	6480.94
447.69	6555.84
447.88	6771.17
448.06	6581.59
448.25	6691.59
448.43	6569.88
448.62	6764.15
448.80	6607.33
448.99	6764.15
449.17	6792.23
449.36	6827.34
449.54	6923.30
449.73	6832.02
449.91	7131.61
450.10	7054.37
450.28	7222.89
450.46	7056.72
450.65	7272.04
450.83	7133.95
451.02	7023.95
451.20	7255.66
451.39	7131.61
451.57	7169.06
451.76	7070.76
451.94	7133.95
452.13	7012.24
452.31	6925.65
452.49	7126.93
452.68	7194.81
452.86	7145.66
453.05	7225.23
453.23	7166.72
453.42	7215.87
453.60	7337.58
453.78	7473.33
453.97	7414.82
454.15	7201.83
454.34	7351.62
454.52	7382.05
454.70	7393.75
454.89	7520.14
455.07	7356.30
455.26	7733.13
455.44	7613.76
455.62	7625.47
455.81	7545.89
455.99	7555.25
456.17	7644.19
456.36	7630.15
456.54	7925.05
456.73	8053.78
456.91	8051.44
457.09	8276.13
457.28	8177.83
457.46	8102.93
457.64	7950.80
457.83	8152.09
458.01	7999.95
458.19	8131.02
458.38	8051.44
458.56	8339.33
458.74	8086.55
458.93	7939.10
459.11	8142.72
459.29	8154.43
459.48	8163.79
459.66	8198.90
459.84	8346.35
460.03	8446.99
460.21	8353.37
460.39	8341.67
460.57	8379.12
460.76	8379.12
460.94	8589.77
461.12	8641.26
461.31	8566.36
461.49	8451.67
461.67	8439.97
461.85	8814.46
462.04	8517.21
462.22	9004.04
462.40	8954.89
462.59	8772.33
462.77	8704.45
462.95	9043.83
463.13	9039.15
463.32	8765.31
463.50	8884.67
463.68	9039.15
463.86	8961.91
464.05	8767.65
464.23	8891.70
464.41	8936.17
464.59	8774.67
464.78	9015.74
464.96	9013.40
465.14	8997.02
465.32	9008.72
465.50	9270.86
465.69	9200.65
465.87	9231.07
466.05	8959.57
466.23	9156.18
466.41	9181.92
466.60	9284.91
466.78	8882.33
466.96	9249.80
467.14	9191.28
467.32	9282.56
467.51	9296.61
467.69	9125.75
467.87	9186.60
468.05	9474.49
468.23	9439.38
468.41	9331.72
468.60	9446.40
468.78	9647.69
468.96	9308.31
469.14	9710.88
469.32	9799.82
469.50	9516.62
469.69	9767.06
469.87	9652.37
470.05	9977.70
470.23	9900.47
470.41	9710.88
470.59	9809.19
470.77	9738.97
470.95	9888.76
471.14	10064.30
471.32	9741.31
471.50	10169.63
471.68	10277.29
471.86	10541.77
472.04	10251.55
472.22	10565.18
472.40	10406.02
472.58	10399.00
472.77	10291.34
472.95	10352.19
473.13	10548.79
473.31	10399.00
473.49	10427.09
473.67	10588.58
473.85	10562.84
474.03	11019.24
474.21	10981.79
474.39	11021.58
474.57	10904.56
474.75	11087.12
474.93	11257.98
475.12	11178.40
475.30	11220.53
475.48	11232.23
475.66	11389.05
475.84	11138.61
476.02	11365.64
476.20	11445.22
476.38	11744.81
476.56	11819.71
476.74	11857.15
476.92	11690.98
477.10	11981.20
477.28	12035.03
477.46	12147.38
477.64	12360.37
477.82	12233.98
478.00	12540.59
478.18	12671.66
478.36	12343.99
478.54	12610.81
478.72	12695.07
478.90	12772.30
479.08	12891.67
479.26	13181.90
479.44	13301.26
479.62	12894.01
479.80	13121.04
479.98	13046.15
480.16	13607.87
480.34	13591.49
480.52	13907.46
480.70	13703.84
480.88	13806.82
481.06	13792.78
481.24	13949.59
481.41	14146.20
481.59	14312.38
481.77	14422.38
481.95	14108.75
482.13	14497.28
482.31	14506.64
482.49	14679.84
482.67	14698.56
482.85	14773.46
483.03	15133.90
483.21	15248.59
483.39	15330.51
483.57	15246.25
483.74	15452.22
483.92	15417.11
484.10	15351.57
484.28	15709.68
484.46	15999.90
484.64	16149.70
484.82	15969.48
485.00	15976.50
485.18	16362.69
485.35	16175.44
485.53	15976.50
485.71	16053.73
485.89	16229.27
486.07	16362.69
486.25	16449.28
486.43	16805.05
486.61	17039.10
486.78	17167.83
486.96	17137.40
487.14	17401.88
487.32	17668.70
487.50	17893.40
487.68	18078.30
487.85	18366.18
488.03	18129.79
488.21	18368.52
488.39	18319.37
488.57	18501.93
488.75	18902.17
488.92	18853.02
489.10	19136.22
489.28	19241.54
489.46	19557.52
489.64	19421.77
489.81	19695.61
489.99	19742.42
490.17	20322.87
490.35	20325.21
490.53	20114.56
490.70	20414.15
490.88	20388.41
491.06	20819.07
491.24	20645.87
491.41	20453.94
491.59	20467.98
491.77	20697.36
491.95	20809.70
492.13	20922.05
492.30	21584.42
492.48	21649.96
492.66	21848.90
492.84	21874.65
493.01	21846.56
493.19	21898.05
493.37	22260.84
493.54	21937.84
493.72	22696.17
493.90	22104.02
494.08	22728.94
494.25	22981.72
494.43	23215.77
494.61	23192.37
494.79	23295.35
494.96	23241.52
495.14	23494.30
495.32	23494.30
495.49	23358.55
495.67	23714.31
495.85	24098.16
496.02	24034.96
496.20	24301.78
496.38	24360.30
496.55	24393.06
496.73	24699.67
496.91	24657.54
497.09	24706.70
497.26	25003.94
497.44	24898.62
497.62	25060.12
497.79	25495.46
497.97	24929.05
498.14	25174.80
498.32	25280.13
498.50	25563.33
498.67	26043.14
498.85	25687.38
499.03	25881.64
499.20	26148.46
499.38	25968.24
499.56	26389.54
499.73	26359.11
499.91	26639.98
500.08	26476.14
500.26	26199.96
500.44	26625.93
500.61	26511.25
500.79	26295.92
500.97	26714.87
501.14	26906.80
501.32	26752.32
501.49	27105.74
501.67	27325.75
501.84	27775.14
502.02	27281.28
502.20	27271.92
502.37	28100.47
502.55	27978.76
502.72	27871.10
502.90	27882.80
503.07	27854.72
503.25	27920.25
503.43	27728.33
503.60	27852.38
503.78	28056.00
503.95	28065.36
504.13	28287.71
504.30	28524.11
504.48	28341.55
504.65	28559.22
504.83	28819.02
505.01	29399.47
505.18	28804.97
505.36	29046.05
505.53	29261.38
505.71	29717.78
505.88	29654.59
506.06	29394.79
506.23	29614.80
506.41	29528.20
506.58	29755.23
506.76	29949.50
506.93	29783.32
507.11	30085.25
507.28	30033.75
507.46	29996.31
507.63	29944.81
507.81	30251.42
507.98	29858.21
508.16	30532.29
508.33	30471.43
508.50	30574.42
508.68	30288.87
508.85	31358.50
509.03	30675.06
509.20	31009.76
509.38	31297.64
509.55	31452.12
509.73	31250.83
509.90	31489.57
510.08	30923.16
510.25	31290.62
510.42	31550.42
510.60	31693.19
510.77	31807.88
510.95	31379.56
511.12	31758.73
511.30	31800.86
511.47	32741.75
511.64	31992.78
511.82	32222.16
511.99	32025.55
512.17	32315.78
512.34	31866.39
512.51	32556.85
512.69	32814.31
512.86	32776.86
513.04	33130.28
513.21	32465.57
513.38	32624.73
513.56	32870.48
513.73	32999.21
513.90	32767.50
514.08	32943.04
514.25	33132.62
514.43	32971.13
514.60	33095.18
514.77	33193.48
514.95	33982.24
515.12	33317.53
515.29	33977.56
515.47	33673.29
515.64	33790.31
515.81	33574.98
515.99	33895.64
516.16	33769.25
516.33	33415.83
516.51	33706.05
516.68	33429.87
516.85	33083.47
517.03	33596.05
517.20	33518.81
517.37	33986.92
517.54	34274.80
517.72	34085.22
517.89	34110.97
518.06	33677.97
518.24	34230.33
518.41	34380.13
518.58	34368.43
518.75	34408.22
518.93	34707.80
519.10	34450.35
519.27	35079.95
519.45	34946.54
519.62	35196.98
519.79	35196.98
519.96	35290.60
520.14	35447.41
520.31	34707.80
520.48	35751.68
520.65	35168.89
520.83	35758.70
521.00	35735.30
521.17	35648.70
521.34	35948.29
521.52	36093.40
521.69	36421.08
521.86	36371.92
522.03	36264.26
522.20	36226.81
522.38	36472.57
522.55	36421.08
522.72	36362.56
522.89	36329.80
523.07	36292.35
523.24	36510.02
523.41	36797.90
523.58	36568.53
523.75	37104.51
523.92	37357.29
524.10	36950.04
524.27	36898.55
524.44	37205.16
524.61	37324.52
524.78	37022.59
524.96	37820.72
525.13	37691.99
525.30	37745.82
525.47	38024.34
525.64	37385.38
525.81	37261.33
525.98	37188.77
526.16	37329.20
526.33	36903.23
526.50	37773.91
526.67	37249.63
526.84	37048.34
527.01	37411.12
527.18	37970.51
527.36	37579.64
527.53	38330.95
527.70	38253.72
527.87	38349.68
528.04	38190.52
528.21	38480.75
528.38	38337.98
528.55	38660.97
528.72	38714.80
528.89	38649.27
529.07	38607.14
529.24	38279.46
529.41	38656.29
529.58	38546.28
529.75	38597.77
529.92	38499.47
530.09	38817.78
530.26	39070.56
530.43	39210.99
530.60	38974.60
530.77	39187.59
530.94	39545.69
531.11	39363.13
531.28	39000.35
531.46	39725.91
531.63	39335.04
531.80	39508.24
531.97	39372.49
532.14	39196.95
532.31	39232.06
532.48	39323.34
532.65	39433.35
532.82	39421.64
532.99	39716.55
533.16	39484.84
533.33	39810.17
533.50	39828.90
533.67	39730.59
533.84	39452.07
534.01	40020.82
534.18	39641.65
534.35	40392.97
534.52	39976.35
534.69	40383.60
534.86	40320.41
535.03	40259.55
535.20	40999.16
535.37	40680.85
535.54	41097.47
535.71	40559.14
535.88	40297.00
536.05	40381.26
536.22	41050.66
536.38	40573.19
536.55	41003.85
536.72	40713.62
536.89	40907.88
537.06	40708.94
537.23	40856.39
537.40	40774.47
537.57	41249.60
537.74	41432.16
537.91	41310.46
538.08	40966.40
538.25	40594.25
538.42	41249.60
538.59	41364.29
538.75	41053.00
538.92	41076.40
539.09	41764.52
539.26	41179.39
539.43	41148.96
539.60	41226.20
539.77	41331.52
539.94	41528.13
540.11	41017.89
540.28	41530.47
540.44	41177.04
540.61	40994.48
540.78	41612.38
540.95	41474.29
541.12	41743.45
541.29	41574.94
541.46	41748.14
541.62	42288.80
541.79	42190.50
541.96	41614.72
542.13	41273.01
542.30	41694.30
542.47	41425.14
542.63	41876.86
542.80	42440.93
542.97	42763.93
543.14	42700.73
543.31	42167.09
543.48	42777.97
543.64	43100.97
543.81	43166.50
543.98	42525.19
544.15	42471.36
544.32	43201.61
544.48	43374.81
544.65	43072.88
544.82	42948.83
544.99	42700.73
545.16	42653.92
545.32	42897.34
545.49	43807.81
545.66	43363.11
545.83	43491.83
546.00	43466.09
546.16	43222.67
546.33	43292.89
546.50	42838.83
546.67	42707.76
546.83	43021.39
547.00	43044.79
547.17	43093.94
547.34	42883.30
547.50	43384.17
547.67	43690.78
547.84	43311.61
548.00	43508.22
548.17	43648.65
548.34	43686.10
548.51	43849.94
548.67	43688.44
548.84	43491.83
549.01	43189.91
549.18	43871.00
549.34	44191.65
549.51	44044.20
549.68	43922.49
549.84	43643.97
550.01	44126.12
550.18	44142.50
550.34	43868.66
550.51	43800.79
550.68	44079.31
550.84	43793.76
551.01	44112.08
551.18	44086.33
551.34	43934.20
551.51	44142.50
551.68	44046.54
551.84	44339.11
552.01	44182.29
552.18	44516.99
552.34	44020.80
552.51	44037.18
552.68	44313.36
552.84	44484.22
553.01	44783.81
553.18	44238.47
553.34	44268.89
553.51	44306.34
553.67	44605.93
553.84	44999.14
554.01	44844.66
554.17	45155.96
554.34	44849.35
554.51	44446.77
554.67	45137.23
554.84	45045.95
555.00	44800.19
555.17	44177.61
555.33	44568.48
555.50	44481.88
555.67	44828.28
555.83	44870.41
556.00	44793.17
556.16	44734.66
556.33	44524.01
556.50	44577.84
556.66	45130.21
556.83	44968.71
556.99	45352.56
557.16	45202.77
557.32	45261.28
557.49	45146.59
557.65	44835.30
557.82	44989.78
557.98	45020.20
558.15	45097.44
558.32	45064.67
558.48	45031.91
558.65	44814.24
558.81	45090.42
558.98	45347.88
559.14	45181.70
559.31	45343.20
559.47	45595.98
559.64	45411.07
559.80	45312.77
559.97	45272.98
560.13	45368.94
560.30	45055.31
560.46	45055.31
560.63	45394.69
560.79	45940.04
560.96	45846.41
561.12	45083.40
561.29	45237.87
561.45	45329.16
561.61	45558.53
561.78	45137.23
561.94	45095.10
562.11	45404.05
562.27	44772.11
562.44	45289.37
562.60	45649.81
562.77	45633.42
562.93	45537.46
563.10	45577.25
563.26	45509.38
563.42	45670.87
563.59	45202.77
563.75	45504.70
563.92	45766.84
564.08	45670.87
564.24	45652.15
564.41	45387.67
564.57	45731.73
564.74	45574.91
564.90	45734.07
565.07	45640.45
565.23	45247.24
565.39	46021.95
565.56	45638.11
565.72	45598.32
565.88	45324.47
566.05	45488.31
566.21	45588.95
566.38	45490.65
566.54	45642.79
566.70	45794.92
566.87	46028.98
567.03	45577.25
567.19	46087.49
567.36	45858.12
567.52	45448.52
567.68	46071.10
567.85	45528.10
568.01	46302.82
568.17	45713.00
568.34	45780.88
568.50	45567.89
568.66	45633.42
568.83	45825.35
568.99	45411.07
569.15	45797.26
569.32	45954.08
569.48	46071.10
569.64	46085.15
569.81	45911.95
569.97	45982.16
570.13	45745.77
570.30	45361.92
570.46	45537.46
570.62	45614.70
570.78	45684.92
570.95	45815.99
571.11	46277.07
571.27	45516.40
571.43	45837.05
571.60	45893.22
571.76	45705.98
571.92	45731.73
572.09	46148.34
572.25	45869.82
572.41	45865.14
572.57	46354.31
572.74	46272.39
572.90	46146.00
573.06	46286.43
573.22	45790.24
573.38	46351.97
573.55	45654.49
573.71	45797.26
573.87	46209.20
574.03	46143.66
574.20	45993.87
574.36	46017.27
574.52	46253.67
574.68	46066.42
574.84	46005.57
575.01	46089.83
575.17	46003.23
575.33	45635.77
575.49	45895.56
575.65	46527.51
575.82	46061.74
575.98	45710.66
576.14	46199.83
576.30	46471.34
576.46	46061.74
576.62	45977.48
576.79	45638.11
576.95	45628.74
577.11	46340.27
577.27	46370.69
577.43	46146.00
577.59	45766.84
577.75	45729.39
577.92	45954.08
578.08	45977.48
578.24	45844.07
578.40	45577.25
578.56	46234.94
578.72	46265.37
578.88	46272.39
579.04	46213.88
579.21	46012.59
579.37	46068.76
579.53	46017.27
579.69	45727.05
579.85	46246.65
580.01	46253.67
580.17	46199.83
580.33	46007.91
580.49	45881.52
580.65	46127.28
580.82	46408.14
580.98	46138.98
581.14	45872.16
581.30	46529.85
581.46	46277.07
581.62	46410.48
581.78	46131.96
581.94	46443.25
582.10	46082.81
582.26	46550.91
582.42	45755.13
582.58	45979.82
582.74	46080.47
582.90	46007.91
583.06	46206.86
583.22	46040.68
583.38	46277.07
583.54	46396.44
583.70	46366.01
583.86	46469.00
584.02	46358.99
584.18	46412.82
584.34	46188.13
584.50	45904.93
584.66	46398.78
584.82	46129.62
584.98	46560.28
585.14	46272.39
585.30	46120.26
585.46	46066.42
585.62	46157.70
585.78	46024.29
585.94	46115.58
586.10	46291.12
586.26	46483.04
586.42	46391.76
586.58	46223.24
586.74	46532.19
586.90	45869.82
587.06	46185.79
587.22	46588.36
587.38	45918.97
587.54	46183.45
587.70	46787.31
587.86	46354.31
588.02	46291.12
588.18	46483.04
588.34	46110.89
588.49	45947.06
588.65	45305.75
588.81	45317.45
588.97	45837.05
589.13	45481.29
589.29	45855.78
589.45	46197.49
589.61	46223.24
589.77	46607.09
589.93	46115.58
