SpectraSuite Data File
++++++++++++++++++++++++++++++++++++
Date: Fri Oct 25 10:47:37 EDT 2013
User: price-jones
Dark Spectrum Present: No
Reference Spectrum Present: No
Number of Sampled Component Spectra: 1
Spectrometers: USB2+H05261
Integration Time (usec): 100000 (USB2+H05261)
Spectra Averaged: 1 (USB2+H05261)
Boxcar Smoothing: 0 (USB2+H05261)
Correct for Electrical Dark: No (USB2+H05261)
Strobe/Lamp Enabled: No (USB2+H05261)
Correct for Detector Non-linearity: No (USB2+H05261)
Correct for Stray Light: No (USB2+H05261)
Number of Pixels in Processed Spectrum: 2048
>>>>>Begin Processed Spectral Data<<<<<
365.73	166.18
365.92	166.18
366.12	166.18
366.32	58.51
366.52	60.85
366.72	53.83
366.91	63.19
367.11	70.22
367.31	18.72
367.51	0.00
367.70	63.19
367.90	65.54
368.10	70.22
368.30	70.22
368.49	21.06
368.69	23.41
368.89	18.72
369.09	0.00
369.28	51.49
369.48	4.68
369.68	86.60
369.87	93.62
370.07	25.75
370.27	184.90
370.47	231.71
370.66	402.57
370.86	418.96
371.06	400.23
371.25	496.19
371.45	407.25
371.65	444.70
371.84	435.34
372.04	465.77
372.24	484.49
372.44	475.13
372.63	571.09
372.83	526.62
373.03	526.62
373.22	486.83
373.42	484.49
373.62	524.28
373.81	526.62
374.01	587.47
374.21	533.64
374.40	491.51
374.60	507.90
374.79	559.39
374.99	547.69
375.19	568.75
375.38	615.56
375.58	533.64
375.78	585.13
375.97	573.43
376.17	627.26
376.37	608.54
376.56	575.77
376.76	533.64
376.95	650.67
377.15	596.84
377.35	559.39
377.54	594.50
377.74	547.69
377.93	573.43
378.13	645.99
378.33	624.92
378.52	645.99
378.72	622.58
378.91	587.47
379.11	653.01
379.31	645.99
379.50	620.24
379.70	678.76
379.89	699.82
380.09	624.92
380.28	613.22
380.48	692.80
380.68	727.91
380.87	697.48
381.07	681.10
381.26	718.54
381.46	802.80
381.65	685.78
381.85	758.33
382.04	662.37
382.24	706.84
382.43	674.07
382.63	599.18
382.83	645.99
383.02	753.65
383.22	697.48
383.41	746.63
383.61	737.27
383.80	711.52
384.00	725.57
384.19	770.04
384.39	821.53
384.58	688.12
384.78	765.36
384.97	786.42
385.17	734.93
385.36	739.61
385.56	748.97
385.75	716.20
385.95	788.76
386.14	856.64
386.34	760.67
386.53	760.67
386.72	809.83
386.92	812.17
387.11	849.61
387.31	819.19
387.50	866.00
387.70	837.91
387.89	858.98
388.09	842.59
388.28	826.21
388.48	880.04
388.67	826.21
388.86	936.21
389.06	898.77
389.25	943.24
389.45	884.72
389.64	866.00
389.84	1001.75
390.03	917.49
390.22	910.47
390.42	964.30
390.61	994.73
390.81	966.64
391.00	1048.56
391.19	983.02
391.39	905.79
391.58	922.17
391.78	1001.75
391.97	992.39
392.16	957.28
392.36	1050.90
392.55	929.19
392.75	990.05
392.94	978.34
393.13	1027.50
393.33	1015.79
393.52	1013.45
393.71	1022.81
393.91	1116.44
394.10	1013.45
394.29	1055.58
394.49	1104.73
394.68	1046.22
394.88	1121.12
395.07	1179.63
395.26	1149.20
395.46	1109.41
395.65	1160.91
395.84	1111.75
396.04	1181.97
396.23	1121.12
396.42	1142.18
396.62	1128.14
396.81	1123.46
397.00	1128.14
397.19	1167.93
397.39	1261.55
397.58	1233.46
397.77	1203.04
397.97	1371.55
398.16	1378.58
398.35	1418.36
398.55	1252.19
398.74	1352.83
398.93	1343.47
399.12	1362.19
399.32	1327.08
399.51	1322.40
399.70	1397.30
399.90	1369.21
400.09	1401.98
400.28	1451.13
400.47	1469.86
400.67	1439.43
400.86	1483.90
401.05	1526.03
401.24	1535.39
401.44	1614.97
401.63	1390.28
401.82	1605.61
402.01	1486.24
402.21	1593.90
402.40	1650.08
402.59	1640.72
402.78	1589.22
402.97	1563.48
403.17	1647.74
403.36	1626.67
403.55	1589.22
403.74	1703.91
403.93	1717.95
404.13	1713.27
404.32	1605.61
404.51	1664.12
404.70	1661.78
404.89	1732.00
405.09	1799.87
405.28	1774.13
405.47	1706.25
405.66	1797.53
405.85	1732.00
406.05	1626.67
406.24	1851.36
406.43	1832.64
406.62	1881.79
406.81	1935.62
407.00	1797.53
407.20	1785.83
407.39	1849.02
407.58	1902.86
407.77	1881.79
407.96	1984.77
408.15	2047.97
408.34	1912.22
408.54	1956.69
408.73	2085.42
408.92	2029.24
409.11	2165.00
409.30	2148.61
409.49	1987.11
409.68	2066.69
409.87	2129.89
410.07	2090.10
410.26	2120.53
410.45	2139.25
410.64	2153.29
410.83	2284.36
411.02	2235.21
411.21	2186.06
411.40	2312.45
411.59	2307.77
411.78	2399.05
411.98	2345.22
412.17	2387.35
412.36	2469.27
412.55	2509.05
412.74	2574.59
412.93	2487.99
413.12	2462.24
413.31	2553.52
413.50	2546.50
413.69	2651.83
413.88	2565.23
414.07	2661.19
414.26	2679.91
414.45	2752.47
414.64	2729.06
414.83	2703.32
415.02	2710.34
415.22	2808.64
415.41	2801.62
415.60	2803.96
415.79	2782.90
415.98	3038.02
416.17	2862.48
416.36	3005.25
416.55	2979.50
416.74	3009.93
416.93	2874.18
417.12	2895.24
417.31	2942.05
417.50	3040.36
417.69	3243.98
417.88	3101.21
418.07	3021.63
418.26	3073.12
418.45	3176.11
418.64	3213.56
418.83	3276.75
419.02	3089.51
419.21	3370.37
419.39	3323.56
419.58	3220.58
419.77	3232.28
419.96	3225.26
420.15	3293.13
420.34	3316.54
420.53	3361.01
420.72	3459.31
420.91	3316.54
421.10	3473.36
421.29	3442.93
421.48	3454.63
421.67	3391.44
421.86	3452.29
422.05	3510.80
422.24	3398.46
422.43	3407.82
422.61	3478.04
422.80	3648.90
422.99	3489.74
423.18	3562.30
423.37	3592.72
423.56	3576.34
423.75	3552.93
423.94	3534.21
424.13	3487.40
424.32	3489.74
424.50	3595.06
424.69	3639.53
424.88	3700.39
425.07	3456.97
425.26	3517.83
425.45	3461.65
425.64	3501.44
425.83	3585.70
426.01	3831.46
426.20	3742.52
426.39	3728.47
426.58	3585.70
426.77	3702.73
426.96	3559.95
427.15	3613.79
427.33	3786.99
427.52	3733.15
427.71	3721.45
427.90	3817.41
428.09	3761.24
428.28	3791.67
428.46	3770.60
428.65	3882.95
428.84	4023.38
429.03	3971.89
429.22	3712.09
429.40	3922.74
429.59	3932.10
429.78	3674.64
429.97	3705.07
430.16	3796.35
430.34	3810.39
430.53	3878.27
430.72	4009.34
430.91	4077.21
431.10	3920.40
431.28	4159.13
431.47	4229.35
431.66	4182.54
431.85	4280.84
432.03	4140.41
432.22	4198.92
432.41	4189.56
432.60	4187.22
432.79	4273.82
432.97	4210.62
433.16	4358.08
433.35	4379.14
433.54	4320.63
433.72	4257.43
433.91	4294.88
434.10	4407.23
434.28	4353.40
434.47	4454.04
434.66	4650.64
434.85	4484.47
435.03	4524.26
435.22	4692.77
435.41	4662.35
435.59	4674.05
435.78	4660.01
435.97	4805.12
436.16	4552.34
436.34	4727.88
436.53	4638.94
436.72	4805.12
436.90	4713.84
437.09	4823.84
437.28	4746.61
437.46	4863.63
437.65	4805.12
437.84	4844.91
438.02	4739.58
438.21	4645.96
438.40	4692.77
438.58	5050.88
438.77	4887.04
438.96	4929.17
439.14	5062.58
439.33	5060.24
439.52	5212.37
439.70	5231.10
439.89	5130.45
440.08	5212.37
440.26	5221.74
440.45	5191.31
440.63	5420.68
440.82	5530.69
441.01	5418.34
441.19	5500.26
441.38	5633.67
441.57	5605.58
441.75	5570.48
441.94	5605.58
442.12	5841.98
442.31	5640.69
442.50	5762.40
442.68	5738.99
442.87	5715.59
443.05	5776.44
443.24	5851.34
443.43	5682.82
443.61	5877.09
443.80	5996.45
443.98	5820.91
444.17	5650.05
444.35	5996.45
444.54	6076.03
444.73	5858.36
444.91	5914.53
445.10	5919.21
445.28	5802.19
445.47	5930.92
445.65	5846.66
445.84	5853.68
446.02	5961.34
446.21	6052.63
446.39	6090.07
446.58	6146.25
446.77	6101.78
446.95	5977.73
447.14	5895.81
447.32	6099.44
447.51	6038.58
447.69	6148.59
447.88	6242.21
448.06	6113.48
448.25	6071.35
448.43	5980.07
448.62	6111.14
448.80	5916.87
448.99	6296.04
449.17	6321.79
449.36	6242.21
449.54	6333.49
449.73	6502.01
449.91	6392.00
450.10	6595.63
450.28	6516.05
450.46	6569.88
450.65	6567.54
450.83	6497.33
451.02	6361.58
451.20	6483.28
451.39	6555.84
451.57	6455.20
451.76	6434.13
451.94	6436.47
452.13	6696.27
452.31	6572.22
452.49	6394.34
452.68	6604.99
452.86	6569.88
453.05	6532.44
453.23	6621.38
453.42	6602.65
453.60	6597.97
453.78	6731.38
453.97	6712.66
454.15	6719.68
454.34	6715.00
454.52	6839.05
454.70	6810.96
454.89	6848.41
455.07	6853.09
455.26	6792.23
455.44	7054.37
455.62	6895.22
455.81	7173.74
455.99	7117.57
456.17	7073.10
456.36	7150.34
456.54	7272.04
456.73	7267.36
456.91	7456.95
457.09	7389.07
457.28	7433.54
457.46	7344.60
457.64	7494.40
457.83	7637.17
458.01	7466.31
458.19	7269.70
458.38	7494.40
458.56	7627.81
458.74	7550.57
458.93	7468.65
459.11	7730.79
459.29	7513.12
459.48	7637.17
459.66	7611.42
459.84	7819.73
460.03	7808.03
460.21	7765.90
460.39	7833.77
460.57	7602.06
460.76	7901.65
460.94	7871.22
461.12	7962.50
461.31	7955.48
461.49	8011.65
461.67	7669.94
461.85	7957.82
462.04	7955.48
462.22	8505.51
462.40	7953.14
462.59	8159.11
462.77	8063.15
462.95	8243.37
463.13	8241.03
463.32	8226.98
463.50	8189.53
463.68	8124.00
463.86	8241.03
464.05	8086.55
464.23	8336.99
464.41	8131.02
464.59	8173.15
464.78	8559.34
464.96	8449.33
465.14	8437.63
465.32	8393.16
465.50	8755.94
465.69	8489.12
465.87	8259.75
466.05	8507.85
466.23	8383.80
466.41	8486.78
466.60	8631.90
466.78	8362.73
466.96	8557.00
467.14	8674.03
467.32	8718.50
467.51	8643.60
467.69	8468.06
467.87	8638.92
468.05	8603.81
468.23	8566.36
468.41	8613.17
468.60	8655.30
468.78	8968.93
468.96	8791.05
469.14	8858.93
469.32	8849.57
469.50	8713.81
469.69	8702.11
469.87	9041.49
470.05	9121.07
470.23	8978.30
470.41	9060.21
470.59	9233.41
470.77	9092.98
470.95	9205.33
471.14	9310.65
471.32	9284.91
471.50	9198.31
471.68	9348.10
471.86	9385.55
472.04	9544.70
472.22	9738.97
472.40	9303.63
472.58	9708.54
472.77	9596.20
472.95	9696.84
473.13	10040.90
473.31	9727.27
473.49	9893.44
473.67	9661.73
473.85	9795.14
474.03	10195.37
474.21	10265.59
474.39	10225.80
474.57	10017.49
474.75	10312.40
474.93	10239.84
475.12	10319.42
475.30	10490.28
475.48	10281.97
475.66	10668.16
475.84	10216.44
476.02	10436.45
476.20	10679.86
476.38	10824.98
476.56	10923.28
476.74	10839.02
476.92	11016.90
477.10	10808.59
477.28	11119.89
477.46	10920.94
477.64	11339.90
477.82	11213.51
478.00	11613.74
478.18	11613.74
478.36	11721.40
478.54	11686.29
478.72	11894.60
478.90	11922.69
479.08	12049.08
479.26	12290.15
479.44	12063.12
479.62	12173.13
479.80	12109.93
479.98	12283.13
480.16	12528.89
480.34	12503.14
480.52	12741.88
480.70	12711.45
480.88	12437.61
481.06	12975.93
481.24	12896.35
481.41	13207.64
481.59	13128.06
481.77	13284.88
481.95	13324.67
482.13	13378.50
482.31	13563.40
482.49	13626.60
482.67	13830.23
482.85	13671.07
483.03	13980.02
483.21	13825.54
483.39	14438.76
483.57	14008.11
483.74	14466.85
483.92	14466.85
484.10	14307.69
484.28	14466.85
484.46	15016.88
484.64	14965.39
484.82	15192.42
485.00	14834.32
485.18	15131.56
485.35	15550.52
485.53	15377.32
485.71	15344.55
485.89	15639.46
486.07	15459.24
486.25	15323.49
486.43	15620.74
486.61	16067.78
486.78	16016.29
486.96	15988.20
487.14	16556.95
487.32	16432.90
487.50	16535.88
487.68	17067.19
487.85	16996.97
488.03	17135.06
488.21	17193.58
488.39	17338.69
488.57	17717.86
488.75	17334.01
488.92	17860.63
489.10	18331.08
489.28	17958.93
489.46	18094.68
489.64	17944.89
489.81	18396.61
489.99	18768.76
490.17	18845.99
490.35	18998.13
490.53	18799.18
490.70	19115.16
490.88	19438.15
491.06	19389.00
491.24	19206.44
491.41	19426.45
491.59	19218.14
491.77	19213.46
491.95	19779.87
492.13	19627.73
492.30	20011.58
492.48	20065.41
492.66	20339.26
492.84	19948.39
493.01	20086.48
493.19	20690.34
493.37	20795.66
493.54	21261.43
493.72	21078.86
493.90	21254.40
494.08	21216.96
494.25	21682.72
494.43	21390.16
494.61	21956.57
494.79	22001.04
494.96	21390.16
495.14	21680.38
495.32	21954.22
495.49	22047.85
495.67	21898.05
495.85	22286.58
496.02	22579.15
496.20	22707.88
496.38	22815.54
496.55	23002.78
496.73	23517.70
496.91	23061.30
497.09	23421.74
497.26	23281.31
497.44	23295.35
497.62	23248.54
497.79	23606.64
497.97	23592.60
498.14	23838.36
498.32	23995.17
498.50	24107.52
498.67	24360.30
498.85	24114.54
499.03	24489.03
499.20	24416.47
499.38	24404.77
499.56	24732.44
499.73	24872.87
499.91	24568.60
500.08	25163.10
500.26	24680.95
500.44	25006.28
500.61	25025.01
500.79	25125.65
500.97	25214.59
501.14	25509.50
501.32	25701.42
501.49	25390.13
501.67	25003.94
501.84	25755.26
502.02	25603.12
502.20	25675.68
502.37	26164.85
502.55	25984.63
502.72	26045.48
502.90	26225.70
503.07	25965.90
503.25	26162.51
503.43	26354.43
503.60	26644.66
503.78	26679.77
503.95	26841.26
504.13	26551.04
504.30	27021.48
504.48	26714.87
504.65	27037.87
504.83	26965.31
505.01	27192.34
505.18	27061.27
505.36	27304.69
505.53	27573.85
505.71	27716.62
505.88	27426.40
506.06	27435.76
506.23	28409.42
506.41	27386.61
506.58	28254.95
506.76	27983.44
506.93	28327.50
507.11	27997.49
507.28	28189.41
507.46	28278.35
507.63	28519.43
507.81	28350.91
507.98	28402.40
508.16	28166.01
508.33	28486.66
508.50	28594.32
508.68	28891.57
508.85	29156.05
509.03	28786.25
509.20	29027.32
509.38	29759.91
509.55	29514.16
509.73	29296.49
509.90	29722.46
510.08	29240.31
510.25	29532.88
510.42	29729.48
510.60	30017.37
510.77	30139.08
510.95	30263.13
511.12	29675.65
511.30	29933.11
511.47	30558.03
511.64	30445.69
511.82	30906.77
511.99	30312.28
512.17	30785.07
512.34	30422.28
512.51	30979.33
512.69	30902.09
512.86	30773.36
513.04	31098.70
513.21	30618.89
513.38	30909.11
513.56	30668.04
513.73	30981.67
513.90	31119.76
514.08	31040.18
514.25	31571.49
514.43	31311.69
514.60	31042.53
514.77	31157.21
514.95	31653.40
515.12	31889.80
515.29	31557.44
515.47	32170.66
515.64	32215.13
515.81	31857.03
515.99	32374.29
516.16	32027.89
516.33	31850.01
516.51	32004.49
516.68	31669.79
516.85	31660.43
517.03	32048.96
517.20	31999.80
517.37	32575.58
517.54	32678.56
517.72	32613.02
517.89	32362.59
518.06	32376.63
518.24	32484.30
518.41	32680.90
518.58	32875.16
518.75	32484.30
518.93	33235.61
519.10	32701.96
519.27	33305.82
519.45	32851.76
519.62	33202.84
519.79	33490.73
519.96	33427.53
520.14	33708.40
520.31	33715.42
520.48	33989.26
520.65	33612.43
520.83	34122.67
521.00	33853.51
521.17	33773.93
521.34	34108.63
521.52	33724.78
521.69	33928.41
521.86	34700.78
522.03	34410.56
522.20	34834.19
522.38	34541.63
522.55	34813.13
522.72	34656.31
522.89	34581.42
523.07	34965.26
523.24	34408.22
523.41	34871.64
523.58	34742.91
523.75	35005.05
523.92	35292.94
524.10	35480.18
524.27	34951.22
524.44	35349.11
524.61	35335.07
524.78	35604.23
524.96	35653.38
525.13	35468.48
525.30	35995.10
525.47	35679.13
525.64	36016.16
525.81	35948.29
525.98	35721.26
526.16	35627.63
526.33	35662.74
526.50	35702.53
526.67	35791.47
526.84	36142.55
527.01	35868.71
527.18	36002.12
527.36	36133.19
527.53	36517.04
527.70	36510.02
527.87	36767.48
528.04	36692.58
528.21	36821.31
528.38	36662.15
528.55	36741.73
528.72	36957.06
528.89	37003.87
529.07	36629.38
529.24	36603.64
529.41	36753.43
529.58	37113.87
529.75	36659.81
529.92	37329.20
530.09	36914.93
530.26	37127.92
530.43	37340.91
530.60	37125.58
530.77	37195.79
530.94	37928.38
531.11	37148.98
531.28	37406.44
531.46	37673.26
531.63	37729.44
531.80	38223.29
531.97	37591.34
532.14	37652.20
532.31	37010.89
532.48	37514.11
532.65	37837.10
532.82	37663.90
532.99	38206.90
533.16	37631.13
533.33	38167.12
533.50	38827.15
533.67	38017.32
533.84	37909.66
534.01	38270.10
534.18	37914.34
534.35	38384.79
534.52	38174.14
534.69	38562.67
534.86	38361.38
535.03	38162.43
535.20	38583.73
535.37	38836.51
535.54	39213.34
535.71	38623.52
535.88	38630.54
536.05	38632.88
536.22	39075.24
536.38	39009.71
536.55	38714.80
536.72	38838.85
536.89	38576.71
537.06	38679.69
537.23	39159.50
537.40	39093.97
537.57	39145.46
537.74	39143.12
537.91	39281.21
538.08	39290.57
538.25	39208.65
538.42	39543.35
538.59	39431.01
538.75	39117.37
538.92	39597.18
539.09	39662.72
539.26	39494.20
539.43	39856.98
539.60	39573.78
539.77	39641.65
539.94	39342.06
540.11	39709.53
540.28	39569.10
540.44	39906.13
540.61	39990.39
540.78	39646.33
540.95	39938.90
541.12	40130.83
541.29	39608.89
541.46	40023.16
541.62	40009.12
541.79	40123.80
541.96	40072.31
542.13	40245.51
542.30	40453.82
542.47	39929.54
542.63	40559.14
542.80	40334.45
542.97	40835.33
543.14	40928.95
543.31	41031.93
543.48	41141.94
543.64	41340.88
543.81	41322.16
543.98	40715.96
544.15	40765.11
544.32	41102.15
544.48	41392.37
544.65	40872.78
544.82	40938.31
544.99	40828.30
545.16	40849.37
545.32	41179.39
545.49	41214.49
545.66	41460.25
545.83	41633.45
546.00	41324.50
546.16	41434.50
546.33	41427.48
546.50	41385.35
546.67	41294.07
546.83	41076.40
547.00	41067.04
547.17	41237.90
547.34	41408.76
547.50	41312.80
547.67	41855.80
547.84	41806.65
548.00	42075.81
548.17	41830.05
548.34	41827.71
548.51	42361.36
548.67	42244.33
548.84	42150.71
549.01	42012.62
549.18	42249.01
549.34	41937.72
549.51	42405.83
549.68	42204.54
549.84	42148.37
550.01	42447.96
550.18	41977.51
550.34	42307.52
550.51	42162.41
550.68	41933.04
550.84	42014.96
551.01	42782.65
551.18	42447.96
551.34	42417.53
551.51	42520.51
551.68	42665.63
551.84	42328.59
552.01	42810.74
552.18	42871.59
552.34	42527.53
552.51	42871.59
552.68	42328.59
552.84	42632.86
553.01	42700.73
553.18	42719.46
553.34	42499.45
553.51	42497.11
553.67	42754.57
553.84	42993.30
554.01	43110.33
554.17	43126.71
554.34	43089.26
554.51	42532.22
554.67	43232.04
554.84	43098.62
555.00	43058.84
555.17	42810.74
555.33	43236.72
555.50	42820.10
555.67	43309.27
555.83	43320.98
556.00	43098.62
556.16	43503.54
556.33	43339.70
556.50	43342.04
556.66	43627.59
556.83	42923.08
556.99	43608.86
557.16	43573.75
557.32	43594.82
557.49	43770.36
557.65	43337.36
557.82	43222.67
557.98	43147.78
558.15	43475.45
558.32	43878.02
558.48	44175.27
558.65	43648.65
558.81	43217.99
558.98	43311.61
559.14	43636.95
559.31	43349.06
559.47	43702.48
559.64	43622.90
559.80	43943.56
559.97	44189.31
560.13	43667.37
560.30	43562.05
560.46	43681.42
560.63	43913.13
560.79	44236.12
560.96	44378.90
561.12	43573.75
561.29	44081.65
561.45	43826.53
561.61	43594.82
561.78	43824.19
561.94	43786.74
562.11	43784.40
562.27	43849.94
562.44	43721.21
562.60	44002.07
562.77	44210.38
562.93	44046.54
563.10	44219.74
563.26	43819.51
563.42	44360.17
563.59	44137.82
563.75	43824.19
563.92	43887.39
564.08	44121.44
564.24	44201.02
564.41	44217.40
564.57	44573.16
564.74	44491.24
564.90	44591.89
565.07	44383.58
565.23	44432.73
565.39	43842.92
565.56	44605.93
565.72	44191.65
565.88	44308.68
566.05	44437.41
566.21	44318.04
566.38	44163.57
566.54	44547.42
566.70	44268.89
566.87	45013.18
567.03	44598.91
567.19	44954.67
567.36	44271.23
567.52	44196.34
567.68	44491.24
567.85	44477.20
568.01	44500.61
568.17	44699.55
568.34	44811.90
568.50	44299.32
568.66	44460.82
568.83	44048.88
568.99	44184.63
569.15	44561.46
569.32	44559.12
569.48	44238.47
569.64	44559.12
569.81	44669.12
569.97	44488.90
570.13	44587.21
570.30	44474.86
570.46	44641.04
570.62	44215.06
570.78	44142.50
570.95	44584.86
571.11	44481.88
571.27	44940.63
571.43	44484.22
571.60	44727.64
571.76	44748.70
571.92	44610.61
572.09	44849.35
572.25	44842.32
572.41	44568.48
572.57	44594.23
572.74	45265.96
572.90	44807.22
573.06	44704.23
573.22	44870.41
573.38	44809.56
573.55	44582.52
573.71	44987.44
573.87	45017.86
574.03	44428.05
574.20	44638.70
574.36	44645.72
574.52	44713.59
574.68	45031.91
574.84	44690.19
575.01	44816.58
575.17	44666.78
575.33	44044.20
575.49	44706.57
575.65	45228.51
575.82	44589.55
575.98	44669.12
576.14	45167.66
576.30	44886.79
576.46	44854.03
576.62	44367.20
576.79	44713.59
576.95	44608.27
577.11	44760.40
577.27	44870.41
577.43	44851.69
577.59	44926.58
577.75	44940.63
577.92	44725.30
578.08	44896.16
578.24	44421.03
578.40	44715.93
578.56	44636.36
578.72	44671.46
578.88	45181.70
579.04	44926.58
579.21	44355.49
579.37	44659.76
579.53	44847.00
579.69	44603.59
579.85	44814.24
580.01	45209.79
580.17	44914.88
580.33	45378.31
580.49	44704.23
580.65	45024.89
580.82	45155.96
580.98	44701.89
581.14	44509.97
581.30	45209.79
581.46	44828.28
581.62	44935.95
581.78	44821.26
581.94	45408.73
582.10	45095.10
582.26	44699.55
582.42	44964.03
582.58	45184.04
582.74	45258.94
582.90	44971.05
583.06	44765.09
583.22	45223.83
583.38	45673.21
583.54	45254.26
583.70	45485.97
583.86	45200.43
584.02	45043.61
584.18	45081.06
584.34	44751.04
584.50	45186.38
584.66	44832.96
584.82	44694.87
584.98	45186.38
585.14	45422.78
585.30	45085.74
585.46	44671.46
585.62	45001.48
585.78	44692.53
585.94	44816.58
586.10	44533.37
586.26	44928.92
586.42	45237.87
586.58	45212.13
586.74	45432.14
586.90	45038.93
587.06	45083.40
587.22	44968.71
587.38	45216.81
587.54	45200.43
587.70	45315.11
587.86	45446.18
588.02	45172.34
588.18	45081.06
588.34	44758.06
588.49	45172.34
588.65	44811.90
588.81	44570.82
588.97	45024.89
589.13	44914.88
589.29	44832.96
589.45	45490.65
589.61	45036.59
589.77	44968.71
589.93	45350.22
590.08	45205.11
590.24	45727.05
