SpectraSuite Data File
++++++++++++++++++++++++++++++++++++
Date: Fri Oct 25 11:34:08 EDT 2013
User: price-jones
Dark Spectrum Present: No
Reference Spectrum Present: No
Number of Sampled Component Spectra: 1
Spectrometers: USB2+H05261
Integration Time (usec): 100000 (USB2+H05261)
Spectra Averaged: 1 (USB2+H05261)
Boxcar Smoothing: 0 (USB2+H05261)
Correct for Electrical Dark: No (USB2+H05261)
Strobe/Lamp Enabled: No (USB2+H05261)
Correct for Detector Non-linearity: No (USB2+H05261)
Correct for Stray Light: No (USB2+H05261)
Number of Pixels in Processed Spectrum: 2048
>>>>>Begin Processed Spectral Data<<<<<
365.73	327.68
365.92	327.68
366.12	327.68
366.32	187.24
366.52	175.54
366.72	243.42
366.91	170.86
367.11	161.50
367.31	140.43
367.51	145.11
367.70	131.07
367.90	215.33
368.10	194.26
368.30	105.32
368.49	217.67
368.69	156.82
368.89	215.33
369.09	175.54
369.28	259.80
369.48	236.39
369.68	285.55
369.87	271.50
370.07	292.57
370.27	259.80
370.47	327.68
370.66	503.22
370.86	468.11
371.06	561.73
371.25	512.58
371.45	566.41
371.65	580.45
371.84	550.03
372.04	594.50
372.24	653.01
372.44	566.41
372.63	592.16
372.83	641.31
373.03	638.97
373.22	585.13
373.42	620.24
373.62	643.65
373.81	645.99
374.01	634.29
374.21	653.01
374.40	638.97
374.60	671.73
374.79	571.09
374.99	653.01
375.19	643.65
375.38	645.99
375.58	645.99
375.78	634.29
375.97	624.92
376.17	648.33
376.37	634.29
376.56	723.23
376.76	706.84
376.95	664.71
377.15	723.23
377.35	702.16
377.54	643.65
377.74	613.22
377.93	739.61
378.13	758.33
378.33	795.78
378.52	791.10
378.72	781.74
378.91	784.08
379.11	706.84
379.31	706.84
379.50	690.46
379.70	695.14
379.89	781.74
380.09	706.84
380.28	655.35
380.48	638.97
380.68	657.69
380.87	615.56
381.07	774.72
381.26	774.72
381.46	763.01
381.65	753.65
381.85	713.86
382.04	706.84
382.24	777.06
382.43	774.72
382.63	819.19
382.83	767.70
383.02	788.76
383.22	695.14
383.41	793.44
383.61	812.17
383.80	835.57
384.00	774.72
384.19	826.21
384.39	784.08
384.58	716.20
384.78	823.87
384.97	870.68
385.17	866.00
385.36	828.55
385.56	894.08
385.75	844.93
385.95	784.08
386.14	807.48
386.34	835.57
386.53	732.59
386.72	821.53
386.92	863.66
387.11	868.34
387.31	891.74
387.50	809.83
387.70	894.08
387.89	856.64
388.09	901.11
388.28	940.90
388.48	863.66
388.67	924.51
388.86	858.98
389.06	964.30
389.25	940.90
389.45	971.32
389.64	849.61
389.84	917.49
390.03	961.96
390.22	999.41
390.42	908.13
390.61	966.64
390.81	961.96
391.00	1004.09
391.19	976.00
391.39	943.24
391.58	971.32
391.78	887.06
391.97	933.87
392.16	945.58
392.36	1055.58
392.55	1050.90
392.75	992.39
392.94	1074.31
393.13	985.37
393.33	1086.01
393.52	1041.54
393.71	997.07
393.91	1020.47
394.10	1046.22
394.29	1109.41
394.49	1118.78
394.68	1097.71
394.88	1083.67
395.07	1142.18
395.26	1125.80
395.46	1107.07
395.65	1132.82
395.84	1212.40
396.04	1289.64
396.23	1191.33
396.42	1179.63
396.62	1198.35
396.81	1252.19
397.00	1245.16
397.19	1224.10
397.39	1132.82
397.58	1249.85
397.77	1226.44
397.97	1167.93
398.16	1191.33
398.35	1245.16
398.55	1291.98
398.74	1277.93
398.93	1259.21
399.12	1261.55
399.32	1320.06
399.51	1322.40
399.70	1355.17
399.90	1254.53
400.09	1336.45
400.28	1362.19
400.47	1345.81
400.67	1406.66
400.86	1401.98
401.05	1378.58
401.24	1390.28
401.44	1439.43
401.63	1434.75
401.82	1488.58
402.01	1521.35
402.21	1460.49
402.40	1528.37
402.59	1444.11
402.78	1526.03
402.97	1476.88
403.17	1467.52
403.36	1474.54
403.55	1582.20
403.74	1624.33
403.93	1488.58
404.13	1586.88
404.32	1671.14
404.51	1547.09
404.70	1652.42
404.89	1596.25
405.09	1610.29
405.28	1563.48
405.47	1596.25
405.66	1636.03
405.85	1783.49
406.05	1626.67
406.24	1755.40
406.43	1827.96
406.62	1816.26
406.81	1820.94
407.00	1720.29
407.20	1760.08
407.39	1743.70
407.58	1720.29
407.77	1703.91
407.96	1769.44
408.15	1832.64
408.34	1792.85
408.54	1891.15
408.73	1987.11
408.92	1813.92
409.11	1893.49
409.30	1863.07
409.49	1891.15
409.68	2019.88
409.87	2029.24
410.07	2031.58
410.26	2129.89
410.45	2036.27
410.64	2050.31
410.83	2066.69
411.02	2026.90
411.21	2129.89
411.40	2216.49
411.59	2183.72
411.78	2155.63
411.98	2078.40
412.17	2176.70
412.36	2256.28
412.55	2277.34
412.74	2305.43
412.93	2476.29
413.12	2331.17
413.31	2298.41
413.50	2246.91
413.69	2401.39
413.88	2490.33
414.07	2448.20
414.26	2438.84
414.45	2445.86
414.64	2487.99
414.83	2544.16
415.02	2445.86
415.22	2541.82
415.41	2616.72
415.60	2602.68
415.79	2567.57
415.98	2679.91
416.17	2785.24
416.36	2661.19
416.55	2630.76
416.74	2743.11
416.93	2733.75
417.12	2766.51
417.31	2787.58
417.50	2722.04
417.69	2867.16
417.88	2836.73
418.07	2850.77
418.26	2773.53
418.45	2951.42
418.64	3173.77
418.83	2881.20
419.02	2965.46
419.21	3124.62
419.39	3084.83
419.58	3138.66
419.77	2986.52
419.96	3066.10
420.15	3138.66
420.34	3056.74
420.53	3122.27
420.72	3059.08
420.91	3232.28
421.10	3262.71
421.29	3150.36
421.48	3066.10
421.67	3229.94
421.86	3241.64
422.05	3122.27
422.24	3234.62
422.43	3356.33
422.61	3211.22
422.80	3316.54
422.99	3267.39
423.18	3400.80
423.37	3449.95
423.56	3293.13
423.75	3417.18
423.94	3337.60
424.13	3108.23
424.32	3213.56
424.50	3265.05
424.69	3538.89
424.88	3426.54
425.07	3410.16
425.26	3314.20
425.45	3463.99
425.64	3344.63
425.83	3431.23
426.01	3463.99
426.20	3396.12
426.39	3321.22
426.58	3489.74
426.77	3297.81
426.96	3527.19
427.15	3431.23
427.33	3435.91
427.52	3466.33
427.71	3571.66
427.90	3611.45
428.09	3700.39
428.28	3574.00
428.46	3487.40
428.65	3548.25
428.84	3726.13
429.03	3747.20
429.22	3590.38
429.40	3632.51
429.59	3730.81
429.78	3639.53
429.97	3538.89
430.16	3772.94
430.34	3691.02
430.53	3878.27
430.72	3967.21
430.91	3655.92
431.10	3822.09
431.28	3829.12
431.47	3824.44
431.66	3936.78
431.85	3896.99
432.03	3875.93
432.22	4002.32
432.41	3971.89
432.60	4046.79
432.79	4056.15
432.97	3957.85
433.16	4145.09
433.35	3941.46
433.54	3868.91
433.72	4067.85
433.91	4065.51
434.10	4121.68
434.28	4196.58
434.47	4086.58
434.66	4170.83
434.85	4203.60
435.03	4222.33
435.22	4166.15
435.41	4297.22
435.59	4231.69
435.78	4234.03
435.97	4362.76
436.16	4170.83
436.34	4294.88
436.53	4414.25
436.72	4498.51
436.90	4442.34
437.09	4463.40
437.28	4360.42
437.46	4393.19
437.65	4472.76
437.84	4617.88
438.02	4444.68
438.21	4505.53
438.40	4383.82
438.58	4636.60
438.77	4737.24
438.96	4809.80
439.14	4674.05
439.33	4734.90
439.52	4943.21
439.70	4983.00
439.89	4992.36
440.08	4844.91
440.26	4816.82
440.45	4847.25
440.63	4980.66
440.82	5118.75
441.01	5060.24
441.19	5053.22
441.38	5085.98
441.57	5226.42
441.75	5107.05
441.94	5373.87
442.12	5401.96
442.31	5528.35
442.50	5275.57
442.68	5224.08
442.87	5348.12
443.05	5355.15
443.24	5488.56
443.43	5533.03
443.61	5444.09
443.80	5619.63
443.98	5397.28
444.17	5203.01
444.35	5432.38
444.54	5579.84
444.73	5544.73
444.91	5511.96
445.10	5603.24
445.28	5458.13
445.47	5511.96
445.65	5495.58
445.84	5680.48
446.02	5654.73
446.21	5600.90
446.39	5654.73
446.58	5497.92
446.77	5551.75
446.95	5589.20
447.14	5544.73
447.32	5771.76
447.51	5521.32
447.69	5579.84
447.88	5518.98
448.06	5540.05
448.25	5703.89
448.43	5753.04
448.62	5528.35
448.80	5783.46
448.99	5785.80
449.17	5804.53
449.36	5720.27
449.54	5834.96
449.73	5860.70
449.91	5851.34
450.10	5813.89
450.28	6064.33
450.46	5991.77
450.65	5949.64
450.83	5858.36
451.02	5858.36
451.20	6209.44
451.39	6033.90
451.57	6167.31
451.76	5902.83
451.94	6076.03
452.13	6181.35
452.31	6169.65
452.49	5984.75
452.68	6270.30
452.86	6054.97
453.05	6207.10
453.23	6286.68
453.42	6258.59
453.60	6043.26
453.78	6260.93
453.97	6413.07
454.15	6204.76
454.34	6410.73
454.52	6359.24
454.70	6289.02
454.89	6499.67
455.07	6499.67
455.26	6267.95
455.44	6520.73
455.62	6434.13
455.81	6497.33
455.99	6677.55
456.17	6576.91
456.36	6677.55
456.54	6642.44
456.73	6757.13
456.91	6693.93
457.09	6787.55
457.28	7021.61
457.46	6686.91
457.64	6925.65
457.83	6913.94
458.01	6878.83
458.19	7091.82
458.38	6963.09
458.56	7035.65
458.74	6974.80
458.93	7091.82
459.11	6993.52
459.29	7009.90
459.48	7241.62
459.66	7112.89
459.84	7108.21
460.03	7454.61
460.21	7194.81
460.39	7080.12
460.57	7337.58
460.76	7393.75
460.94	7389.07
461.12	7538.87
461.31	7248.64
461.49	7318.86
461.67	7318.86
461.85	7503.76
462.04	7445.24
462.22	7758.88
462.40	7674.62
462.59	7791.64
462.77	7492.05
462.95	7595.04
463.13	7676.96
463.32	7681.64
463.50	7679.30
463.68	7761.22
463.86	7744.83
464.05	7712.07
464.23	7705.04
464.41	7667.60
464.59	7658.23
464.78	7964.84
464.96	7850.16
465.14	7644.19
465.32	7894.63
465.50	7932.08
465.69	7903.99
465.87	7892.29
466.05	7852.50
466.23	7913.35
466.41	7964.84
466.60	8112.30
466.78	8032.72
466.96	8025.70
467.14	8119.32
467.32	8250.39
467.51	8257.41
467.69	8009.31
467.87	8107.62
468.05	8126.34
468.23	7964.84
468.41	8367.42
468.60	8217.62
468.78	8112.30
468.96	8198.90
469.14	8557.00
469.32	8514.87
469.50	8308.90
469.69	8535.93
469.87	8578.06
470.05	8341.67
470.23	8629.56
470.41	8437.63
470.59	8812.12
470.77	8613.17
470.95	8751.26
471.14	8784.03
471.32	8533.59
471.50	8786.37
471.68	8821.48
471.86	8887.01
472.04	9078.94
472.22	9100.00
472.40	8624.87
472.58	8973.61
472.77	9074.26
472.95	9107.02
473.13	9460.45
473.31	8940.85
473.49	9296.61
473.67	9221.71
473.85	9430.02
474.03	9462.79
474.21	9380.87
474.39	9652.37
474.57	9741.31
474.75	9645.35
474.93	9724.93
475.12	9696.84
475.30	9963.66
475.48	9657.05
475.66	9944.94
475.84	9799.82
476.02	10001.11
476.20	10015.15
476.38	10104.09
476.56	10167.29
476.74	10300.70
476.92	10200.05
477.10	10200.05
477.28	10539.43
477.46	10448.15
477.64	10677.52
477.82	10829.66
478.00	10958.39
478.18	10890.51
478.36	11080.10
478.54	11185.42
478.72	11267.34
478.90	11190.10
479.08	11358.62
479.26	11452.24
479.44	11487.35
479.62	11410.11
479.80	11620.76
479.98	11793.96
480.16	12060.78
480.34	11939.07
480.52	11899.28
480.70	12088.87
480.88	11775.24
481.06	12074.82
481.24	12243.34
481.41	12425.90
481.59	12596.76
481.77	12503.14
481.95	12748.90
482.13	12889.33
482.31	12842.52
482.49	13207.64
482.67	12840.18
482.85	13008.70
483.03	13231.05
483.21	13235.73
483.39	13387.86
483.57	13469.78
483.74	13982.36
483.92	13846.61
484.10	13781.07
484.28	13947.25
484.46	14132.15
484.64	14375.57
484.82	14232.80
485.00	14443.45
485.18	14361.53
485.35	14881.13
485.53	14717.29
485.71	14714.95
485.89	15016.88
486.07	15002.83
486.25	14963.04
486.43	14979.43
486.61	15063.69
486.78	15431.15
486.96	15592.65
487.14	15499.03
487.32	15789.25
487.50	15805.64
487.68	15803.30
487.85	16292.47
488.03	16463.33
488.21	16475.03
488.39	16428.22
488.57	16781.64
488.75	16652.91
488.92	16863.56
489.10	17142.08
489.28	16891.65
489.46	17331.67
489.64	17401.88
489.81	17420.61
489.99	17823.18
490.17	17752.96
490.35	18099.36
490.53	18394.27
490.70	18176.60
490.88	18216.39
491.06	18450.44
491.24	18747.69
491.41	18881.10
491.59	18841.31
491.77	18679.82
491.95	18700.88
492.13	19066.00
492.30	19302.40
492.48	19484.96
492.66	19290.70
492.84	19555.18
493.01	19913.28
493.19	19543.47
493.37	19810.29
493.54	19950.73
493.72	20203.50
493.90	19910.94
494.08	20168.40
494.25	20446.92
494.43	20470.33
494.61	20629.48
494.79	20992.26
494.96	20893.96
495.14	21022.69
495.32	21198.23
495.49	21336.32
495.67	21392.50
495.85	21514.20
496.02	21769.32
496.20	21701.45
496.38	21612.51
496.55	21825.50
496.73	22562.76
496.91	21977.63
497.09	22197.64
497.26	22602.55
497.44	22164.87
497.62	22338.07
497.79	23009.81
497.97	22504.25
498.14	22911.50
498.32	23140.88
498.50	22953.63
498.67	23147.90
498.85	23206.41
499.03	23173.64
499.20	23903.89
499.38	23716.65
499.56	23683.88
499.73	23665.16
499.91	23915.59
500.08	24418.81
500.26	23726.01
500.44	24112.20
500.61	24184.76
500.79	24056.03
500.97	24706.70
501.14	24800.32
501.32	24725.42
501.49	24599.03
501.67	24893.94
501.84	25123.31
502.02	25113.95
502.20	24982.88
502.37	24884.58
502.55	25074.16
502.72	25261.40
502.90	25254.38
503.07	25401.83
503.25	25612.48
503.43	25441.62
503.60	25521.20
503.78	25811.43
503.95	25881.64
504.13	25940.16
504.30	26235.06
504.48	26089.95
504.65	26380.18
504.83	26192.94
505.01	26609.55
505.18	26684.45
505.36	26714.87
505.53	26794.45
505.71	26977.01
505.88	26618.91
506.06	26960.63
506.23	27019.14
506.41	26998.08
506.58	27143.19
506.76	27117.45
506.93	27377.25
507.11	27056.59
507.28	27655.77
507.46	27370.22
507.63	27501.29
507.81	27772.80
507.98	27154.90
508.16	27725.99
508.33	27852.38
508.50	27931.95
508.68	27672.15
508.85	28133.24
509.03	28268.99
509.20	28191.75
509.38	28975.83
509.55	28386.02
509.73	28872.85
509.90	28823.70
510.08	28774.55
510.25	28769.86
510.42	28758.16
510.60	28861.15
510.77	29053.07
510.95	29347.98
511.12	29076.48
511.30	29455.64
511.47	29443.94
511.64	29741.19
511.82	29771.61
511.99	29509.47
512.17	29633.52
512.34	29736.51
512.51	29741.19
512.69	29996.31
512.86	30078.22
513.04	30155.46
513.21	30331.00
513.38	30253.76
513.56	30855.28
513.73	30305.26
513.90	30277.17
514.08	30363.77
514.25	30443.35
514.43	30579.10
514.60	30611.87
514.77	30583.78
514.95	31140.83
515.12	31145.51
515.29	31220.41
515.47	31105.72
515.64	31456.80
515.81	31072.95
515.99	31498.93
516.16	31723.62
516.33	31372.54
516.51	31580.85
516.68	31641.70
516.85	31681.49
517.03	31894.48
517.20	31960.02
517.37	32048.96
517.54	32226.84
517.72	31962.36
517.89	32245.56
518.06	32037.25
518.24	32156.62
518.41	32334.50
518.58	32313.44
518.75	32615.37
518.93	32617.71
519.10	32395.35
519.27	32584.94
519.45	32687.92
519.62	33394.76
519.79	33078.79
519.96	32528.77
520.14	32737.07
520.31	32788.56
520.48	33039.00
520.65	33411.15
520.83	33233.27
521.00	33708.40
521.17	33448.60
521.34	33738.82
521.52	33759.89
521.69	33785.63
521.86	33745.84
522.03	33865.21
522.20	34227.99
522.38	34485.45
522.55	34607.16
522.72	34136.71
522.89	34068.84
523.07	34843.56
523.24	34225.65
523.41	34167.14
523.58	34550.99
523.75	34906.75
523.92	34232.68
524.10	34684.40
524.27	34890.37
524.44	34920.79
524.61	34581.42
524.78	34946.54
524.96	34976.97
525.13	35065.91
525.30	35440.39
525.47	35576.14
525.64	35271.87
525.81	35482.52
525.98	35665.08
526.16	35360.81
526.33	35599.55
526.50	35786.79
526.67	35253.15
526.84	35791.47
527.01	35704.87
527.18	35896.80
527.36	36217.45
527.53	36018.50
527.70	36313.41
527.87	36311.07
528.04	35716.58
528.21	36273.62
528.38	36006.80
528.55	36442.14
528.72	36481.93
528.89	36339.16
529.07	36477.25
529.24	36388.31
529.41	36634.06
529.58	36554.49
529.75	36486.61
529.92	36699.60
530.09	36596.62
530.26	36692.58
530.43	36643.43
530.60	36755.77
530.77	37095.15
530.94	37177.07
531.11	36566.19
531.28	36924.29
531.46	37256.65
531.63	37081.11
531.80	37043.66
531.97	36882.16
532.14	37427.51
532.31	37378.36
532.48	37418.14
532.65	37525.81
532.82	37366.65
532.99	37787.95
533.16	37647.52
533.33	38101.58
533.50	38036.05
533.67	37755.18
533.84	37551.56
534.01	38197.54
534.18	37652.20
534.35	38450.32
534.52	38274.78
534.69	38415.21
534.86	38494.79
535.03	38178.82
535.20	38239.67
535.37	38445.64
535.54	38869.28
535.71	37984.55
535.88	38660.97
536.05	38817.78
536.22	39065.88
536.38	38639.90
536.55	38171.80
536.72	39009.71
536.89	38843.53
537.06	38883.32
537.23	38728.84
537.40	38597.77
537.57	38553.30
537.74	38930.13
537.91	39278.87
538.08	39082.27
538.25	39086.95
538.42	39262.49
538.59	39604.20
538.75	38986.30
538.92	39585.48
539.09	39751.66
539.26	39409.94
539.43	39428.66
539.60	39810.17
539.77	39510.58
539.94	39894.43
540.11	39732.93
540.28	39866.34
540.44	39622.93
540.61	39812.51
540.78	39864.00
540.95	40264.24
541.12	39751.66
541.29	39929.54
541.46	40051.25
541.62	40053.59
541.79	40531.06
541.96	39882.73
542.13	40299.34
542.30	39908.47
542.47	40498.29
542.63	40339.13
542.80	40545.10
542.97	41010.87
543.14	40678.51
543.31	40776.81
543.48	40975.76
543.64	41146.62
543.81	40863.41
543.98	41219.17
544.15	40751.07
544.32	41390.03
544.48	41240.24
544.65	41235.56
544.82	41258.96
544.99	41027.25
545.16	41277.69
545.32	41123.21
545.49	41773.88
545.66	41345.56
545.83	41778.56
546.00	41497.70
546.16	41319.82
546.33	41635.79
546.50	41673.24
546.67	41787.92
546.83	41233.22
547.00	41603.02
547.17	41486.00
547.34	41745.80
547.50	41837.08
547.67	42307.52
547.84	42185.82
548.00	42164.75
548.17	42492.43
548.34	42059.43
548.51	42157.73
548.67	42403.49
548.84	42239.65
549.01	42267.73
549.18	42459.66
549.34	42302.84
549.51	42717.12
549.68	42621.16
549.84	42286.46
550.01	42569.66
550.18	42389.44
550.34	42700.73
550.51	42665.63
550.68	42696.05
550.84	42096.88
551.01	43166.50
551.18	42230.29
551.34	42719.46
551.51	42546.26
551.68	42403.49
551.84	42855.21
552.01	42756.91
552.18	42616.47
552.34	43056.50
552.51	42864.57
552.68	42869.25
552.84	43182.88
553.01	43571.41
553.18	43023.73
553.34	42965.21
553.51	43246.08
553.67	43309.27
553.84	43386.51
554.01	43391.19
554.17	43407.58
554.34	43711.84
554.51	43955.26
554.67	43871.00
554.84	43613.54
555.00	43718.87
555.17	43358.42
555.33	43641.63
555.50	43573.75
555.67	43751.63
555.83	43746.95
556.00	43660.35
556.16	43887.39
556.33	43746.95
556.50	43871.00
556.66	43824.19
556.83	43519.92
556.99	44105.06
557.16	43793.76
557.32	44100.37
557.49	44341.45
557.65	43983.35
557.82	44418.69
557.98	43854.62
558.15	44196.34
558.32	44313.36
558.48	44102.71
558.65	43807.81
558.81	44261.87
558.98	43861.64
559.14	44177.61
559.31	44392.94
559.47	44013.77
559.64	44360.17
559.80	44549.76
559.97	44753.38
560.13	44486.56
560.30	43941.22
560.46	44594.23
560.63	44837.64
560.79	44865.73
560.96	44795.51
561.12	44823.60
561.29	44493.58
561.45	44535.71
561.61	44273.57
561.78	44744.02
561.94	44601.25
562.11	44636.36
562.27	44713.59
562.44	44694.87
562.60	44903.18
562.77	44882.11
562.93	45043.61
563.10	45003.82
563.26	44594.23
563.42	45027.23
563.59	44690.19
563.75	44865.73
563.92	45347.88
564.08	44989.78
564.24	45322.13
564.41	45331.50
564.57	44519.33
564.74	45034.25
564.90	44409.32
565.07	45132.55
565.23	44919.56
565.39	45247.24
565.56	44842.32
565.72	45275.32
565.88	44959.35
566.05	45132.55
566.21	45151.27
566.38	44847.00
566.54	45457.88
566.70	45490.65
566.87	44863.39
567.03	45399.37
567.19	45558.53
567.36	45371.28
567.52	45296.39
567.68	45134.89
567.85	45226.17
568.01	45373.63
568.17	45675.55
568.34	45179.36
568.50	45624.06
568.66	44999.14
568.83	45645.13
568.99	45457.88
569.15	45455.54
569.32	45544.48
569.48	45038.93
569.64	46005.57
569.81	45500.01
569.97	45553.85
570.13	45708.32
570.30	45291.71
570.46	45659.17
570.62	45717.68
570.78	45633.42
570.95	46028.98
571.11	46019.61
571.27	45422.78
571.43	45556.19
571.60	46075.79
571.76	45684.92
571.92	45897.91
572.09	45509.38
572.25	45415.76
572.41	45790.24
572.57	45792.58
572.74	45785.56
572.90	46026.63
573.06	45970.46
573.22	46188.13
573.38	45698.96
573.55	46010.25
573.71	45900.25
573.87	46253.67
574.03	45989.19
574.20	46026.63
574.36	45588.95
574.52	46183.45
574.68	46101.53
574.84	45935.35
575.01	46092.17
575.17	46469.00
575.33	45813.65
575.49	45677.90
575.65	45808.96
575.82	45895.56
575.98	45605.34
576.14	46429.21
576.30	46272.39
576.46	46024.29
576.62	45815.99
576.79	46021.95
576.95	45619.38
577.11	45911.95
577.27	46082.81
577.43	46211.54
577.59	45993.87
577.75	45947.06
577.92	45567.89
578.08	46234.94
578.24	46117.92
578.40	46511.13
578.56	46363.67
578.72	46174.09
578.88	46068.76
579.04	46536.87
579.21	45717.68
579.37	46232.60
579.53	46309.84
579.69	46007.91
579.85	46073.45
580.01	46138.98
580.17	45867.48
580.33	46356.65
580.49	46010.25
580.65	46443.25
580.82	46043.02
580.98	46431.55
581.14	45860.46
581.30	46129.62
581.46	45942.38
581.62	45902.59
581.78	45883.86
581.94	46471.34
582.10	46157.70
582.26	46553.26
582.42	45918.97
582.58	46181.11
582.74	46157.70
582.90	45895.56
583.06	45944.72
583.22	45993.87
583.38	46756.88
583.54	46295.80
583.70	46291.12
583.86	46677.30
584.02	46234.94
584.18	46829.44
584.34	46473.68
584.50	46396.44
584.66	46574.32
584.82	46438.57
584.98	46370.69
585.14	46560.28
585.30	46099.19
585.46	46272.39
585.62	46213.88
585.78	46263.03
585.94	46000.89
586.10	46190.47
586.26	46218.56
586.42	46220.90
586.58	46174.09
586.74	46305.16
586.90	46291.12
587.06	46127.28
587.22	46351.97
587.38	46277.07
587.54	46735.82
587.70	46461.97
587.86	46597.73
588.02	46281.75
588.18	46600.07
588.34	46354.31
588.49	46389.42
588.65	46892.63
588.81	46787.31
588.97	46307.50
589.13	46515.81
589.29	46291.12
589.45	46773.27
589.61	46485.38
589.77	46440.91
589.93	46644.54
590.08	46780.29
