SpectraSuite Data File
++++++++++++++++++++++++++++++++++++
Date: Fri Oct 25 10:44:00 EDT 2013
User: price-jones
Dark Spectrum Present: No
Reference Spectrum Present: No
Number of Sampled Component Spectra: 1
Spectrometers: USB2+H05261
Integration Time (usec): 100000 (USB2+H05261)
Spectra Averaged: 1 (USB2+H05261)
Boxcar Smoothing: 0 (USB2+H05261)
Correct for Electrical Dark: No (USB2+H05261)
Strobe/Lamp Enabled: No (USB2+H05261)
Correct for Detector Non-linearity: No (USB2+H05261)
Correct for Stray Light: No (USB2+H05261)
Number of Pixels in Processed Spectrum: 2048
>>>>>Begin Processed Spectral Data<<<<<
365.73	163.84
365.92	163.84
366.12	163.84
366.32	86.60
366.52	0.00
366.72	117.03
366.91	0.00
367.11	0.00
367.31	11.70
367.51	81.92
367.70	0.00
367.90	16.38
368.10	56.17
368.30	63.19
368.49	30.43
368.69	149.79
368.89	42.13
369.09	51.49
369.28	11.70
369.48	86.60
369.68	67.88
369.87	149.79
370.07	86.60
370.27	100.64
370.47	241.08
370.66	362.78
370.86	402.57
371.06	500.87
371.25	582.79
371.45	489.17
371.65	486.83
371.84	456.40
372.04	465.77
372.24	472.79
372.44	454.06
372.63	468.11
372.83	489.17
373.03	552.37
373.22	470.45
373.42	550.03
373.62	507.90
373.81	582.79
374.01	568.75
374.21	582.79
374.40	606.20
374.60	603.86
374.79	500.87
374.99	526.62
375.19	617.90
375.38	613.22
375.58	575.77
375.78	648.33
375.97	636.63
376.17	610.88
376.37	564.07
376.56	725.57
376.76	676.41
376.95	578.11
377.15	601.52
377.35	575.77
377.54	627.26
377.74	650.67
377.93	690.46
378.13	690.46
378.33	713.86
378.52	692.80
378.72	704.50
378.91	711.52
379.11	641.31
379.31	660.03
379.50	667.05
379.70	697.48
379.89	676.41
380.09	763.01
380.28	732.59
380.48	601.52
380.68	725.57
380.87	739.61
381.07	784.08
381.26	732.59
381.46	798.12
381.65	695.14
381.85	748.97
382.04	748.97
382.24	716.20
382.43	744.29
382.63	725.57
382.83	753.65
383.02	732.59
383.22	748.97
383.41	718.54
383.61	814.51
383.80	814.51
384.00	772.38
384.19	816.85
384.39	854.30
384.58	784.08
384.78	816.85
384.97	793.44
385.17	791.10
385.36	786.42
385.56	837.91
385.75	795.78
385.95	814.51
386.14	873.02
386.34	767.70
386.53	805.14
386.72	910.47
386.92	866.00
387.11	816.85
387.31	784.08
387.50	901.11
387.70	884.72
387.89	910.47
388.09	875.36
388.28	868.34
388.48	983.02
388.67	922.17
388.86	936.21
389.06	968.98
389.25	1041.54
389.45	1029.84
389.64	954.94
389.84	1008.77
390.03	1022.81
390.22	973.66
390.42	954.94
390.61	1071.97
390.81	1036.86
391.00	999.41
391.19	1062.60
391.39	1109.41
391.58	1100.05
391.78	1130.48
391.97	1135.16
392.16	1064.94
392.36	1100.05
392.55	1013.45
392.75	1015.79
392.94	903.45
393.13	1025.15
393.33	929.19
393.52	1008.77
393.71	1111.75
393.91	1135.16
394.10	1163.25
394.29	1088.35
394.49	1142.18
394.68	1186.65
394.88	1193.67
395.07	1228.78
395.26	1146.86
395.46	1324.74
395.65	1331.76
395.84	1254.53
396.04	1369.21
396.23	1231.12
396.42	1163.25
396.62	1226.44
396.81	1177.29
397.00	1205.38
397.19	1268.57
397.39	1334.11
397.58	1497.94
397.77	1439.43
397.97	1458.15
398.16	1490.92
398.35	1455.81
398.55	1427.73
398.74	1472.20
398.93	1621.99
399.12	1497.94
399.32	1451.13
399.51	1572.84
399.70	1638.38
399.90	1612.63
400.09	1640.72
400.28	1631.35
400.47	1638.38
400.67	1685.19
400.86	1689.87
401.05	1685.19
401.24	1753.06
401.44	1769.44
401.63	1753.06
401.82	1734.34
402.01	1732.00
402.21	1816.26
402.40	1788.17
402.59	1699.23
402.78	1790.51
402.97	1701.57
403.17	1790.51
403.36	1872.43
403.55	1870.09
403.74	1870.09
403.93	1842.00
404.13	1982.43
404.32	2012.86
404.51	1853.70
404.70	1849.02
404.89	1895.83
405.09	1975.41
405.28	1977.75
405.47	1930.94
405.66	2043.29
405.85	2036.27
406.05	2038.61
406.24	2012.86
406.43	2101.80
406.62	2260.96
406.81	2197.76
407.00	2062.01
407.20	2122.87
407.39	2169.68
407.58	2275.00
407.77	2129.89
407.96	2242.23
408.15	2293.72
408.34	2246.91
408.54	2181.38
408.73	2377.98
408.92	2354.58
409.11	2321.81
409.30	2263.30
409.49	2284.36
409.68	2366.28
409.87	2251.60
410.07	2314.79
410.26	2401.39
410.45	2342.88
410.64	2462.24
410.83	2520.76
411.02	2576.93
411.21	2651.83
411.40	2609.70
411.59	2717.36
411.78	2733.75
411.98	2782.90
412.17	2705.66
412.36	2649.49
412.55	2651.83
412.74	2750.13
412.93	2710.34
413.12	2803.96
413.31	2920.99
413.50	2754.81
413.69	2871.84
413.88	2960.78
414.07	2864.82
414.26	2970.14
414.45	2953.76
414.64	2981.84
414.83	3059.08
415.02	3089.51
415.22	3030.99
415.41	3232.28
415.60	3262.71
415.79	3300.16
415.98	3255.69
416.17	3361.01
416.36	3295.47
416.55	3325.90
416.74	3391.44
416.93	3475.70
417.12	3246.32
417.31	3372.71
417.50	3365.69
417.69	3417.18
417.88	3513.14
418.07	3377.39
418.26	3438.25
418.45	3522.51
418.64	3609.11
418.83	3719.11
419.02	3569.32
419.21	3644.21
419.39	3634.85
419.58	3543.57
419.77	3735.50
419.96	3866.56
420.15	3815.07
420.34	3810.39
420.53	3925.08
420.72	3882.95
420.91	3815.07
421.10	3887.63
421.29	4032.74
421.48	3859.54
421.67	3859.54
421.86	3808.05
422.05	3908.69
422.24	3854.86
422.43	3913.38
422.61	3875.93
422.80	3929.76
422.99	3983.59
423.18	4011.68
423.37	3908.69
423.56	3960.19
423.75	4079.55
423.94	3934.44
424.13	3836.14
424.32	3751.88
424.50	4091.26
424.69	4210.62
424.88	4011.68
425.07	3887.63
425.26	3927.42
425.45	3967.21
425.64	4016.36
425.83	4014.02
426.01	4140.41
426.20	3953.16
426.39	4072.53
426.58	4060.83
426.77	3960.19
426.96	4002.32
427.15	4056.15
427.33	4159.13
427.52	4145.09
427.71	4149.77
427.90	4203.60
428.09	4177.86
428.28	4182.54
428.46	4074.87
428.65	4135.73
428.84	4360.42
429.03	4315.95
429.22	4278.50
429.40	4147.43
429.59	4091.26
429.78	3960.19
429.97	3988.27
430.16	4044.45
430.34	4112.32
430.53	4081.89
430.72	4222.33
430.91	4229.35
431.10	4386.16
431.28	4748.95
431.47	4645.96
431.66	4739.58
431.85	4559.36
432.03	4559.36
432.22	4727.88
432.41	4683.41
432.60	4718.52
432.79	4751.29
432.97	4873.00
433.16	4884.70
433.35	4788.74
433.54	4858.95
433.72	4798.10
433.91	4737.24
434.10	4777.03
434.28	4772.35
434.47	4842.57
434.66	4950.23
434.85	5008.75
435.03	5027.47
435.22	5006.41
435.41	5235.78
435.59	5067.26
435.78	5116.41
435.97	5102.37
436.16	5207.69
436.34	5146.84
436.53	5177.26
436.72	5362.17
436.90	5142.16
437.09	5273.23
437.28	5025.13
437.46	5221.74
437.65	5343.44
437.84	5205.35
438.02	5118.75
438.21	5203.01
438.40	5263.86
438.58	5453.45
438.77	5490.90
438.96	5495.58
439.14	5586.86
439.33	5689.84
439.52	5703.89
439.70	5715.59
439.89	5790.49
440.08	5844.32
440.26	5727.29
440.45	5895.81
440.63	6008.16
440.82	6026.88
441.01	6029.22
441.19	6080.71
441.38	6141.57
441.57	6314.77
441.75	6307.74
441.94	6314.77
442.12	6291.36
442.31	6434.13
442.50	6553.50
442.68	6382.64
442.87	6361.58
443.05	6399.02
443.24	6520.73
443.43	6604.99
443.61	6377.96
443.80	6792.23
443.98	6455.20
444.17	6270.30
444.35	6827.34
444.54	6890.54
444.73	6647.12
444.91	6780.53
445.10	6703.29
445.28	6602.65
445.47	6431.79
445.65	6530.09
445.84	6658.82
446.02	6780.53
446.21	6658.82
446.39	6604.99
446.58	6782.87
446.77	6764.15
446.95	6731.38
447.14	6722.02
447.32	6911.60
447.51	6757.13
447.69	6885.86
447.88	6839.05
448.06	6953.73
448.25	6740.74
448.43	6932.67
448.62	6738.40
448.80	6715.00
448.99	6923.30
449.17	6981.82
449.36	6773.51
449.54	7157.36
449.73	7243.96
449.91	7222.89
450.10	7267.36
450.28	7274.38
450.46	7307.15
450.65	7281.41
450.83	7370.35
451.02	7358.64
451.20	7215.87
451.39	7412.48
451.57	7323.54
451.76	7438.22
451.94	7456.95
452.13	7487.37
452.31	7211.19
452.49	7279.07
452.68	7407.80
452.86	7351.62
453.05	7426.52
453.23	7417.16
453.42	7538.87
453.60	7487.37
453.78	7573.97
453.97	7548.23
454.15	7330.56
454.34	7728.45
454.52	7433.54
454.70	7721.43
454.89	7698.02
455.07	7552.91
455.26	7726.11
455.44	7861.86
455.62	7786.96
455.81	7779.94
455.99	8051.44
456.17	7801.01
456.36	7967.18
456.54	8248.05
456.73	8248.05
456.91	8257.41
457.09	8161.45
457.28	8407.20
457.46	8184.85
457.64	8098.25
457.83	8285.50
458.01	7981.23
458.19	8304.22
458.38	8264.43
458.56	8430.61
458.74	8325.29
458.93	8418.91
459.11	8535.93
459.29	8365.07
459.48	8503.17
459.66	8348.69
459.84	8557.00
460.03	8877.65
460.21	8748.92
460.39	8802.75
460.57	8631.90
460.76	8748.92
460.94	8896.38
461.12	8720.84
461.31	8760.63
461.49	8781.69
461.67	8870.63
461.85	8854.25
462.04	8917.44
462.22	9085.96
462.40	9212.35
462.59	8924.46
462.77	8872.97
462.95	9153.84
463.13	9245.12
463.32	8992.34
463.50	9324.69
463.68	9128.09
463.86	9277.88
464.05	8980.64
464.23	9088.30
464.41	9291.93
464.59	9074.26
464.78	9376.19
464.96	9233.41
465.14	9156.18
465.32	9387.89
465.50	9593.86
465.69	9525.98
465.87	9240.44
466.05	9589.17
466.23	8985.32
466.41	9191.28
466.60	9540.02
466.78	9352.78
466.96	9277.88
467.14	9380.87
467.32	9420.66
467.51	9767.06
467.69	9533.00
467.87	9596.20
468.05	9708.54
468.23	9525.98
468.41	9472.15
468.60	9888.76
468.78	9762.37
468.96	9647.69
469.14	9727.27
469.32	10010.47
469.50	9724.93
469.69	9980.04
469.87	9980.04
470.05	10129.84
470.23	10108.77
470.41	10153.24
470.59	10223.46
470.77	10078.35
470.95	10136.86
471.14	10263.25
471.32	10033.88
471.50	10607.31
471.68	10310.06
471.86	10590.92
472.04	10656.46
472.22	10834.34
472.40	10406.02
472.58	10452.83
472.77	10883.49
472.95	10869.45
473.13	11016.90
473.31	10644.76
473.49	10693.91
473.67	10696.25
473.85	10827.32
474.03	11171.38
474.21	11339.90
474.39	11377.34
474.57	11363.30
474.75	11304.79
474.93	11527.14
475.12	11332.87
475.30	11424.15
475.48	11421.81
475.66	11665.23
475.84	11363.30
476.02	11520.12
476.20	11585.65
476.38	11817.36
476.56	12058.44
476.74	12072.48
476.92	12166.10
477.10	12088.87
477.28	12491.44
477.46	12241.00
477.64	12627.19
477.82	12432.93
478.00	12652.94
478.18	12678.68
478.36	12734.85
478.54	12772.30
478.72	12886.99
478.90	13338.71
479.08	13427.65
479.26	13404.25
479.44	13413.61
479.62	13448.72
479.80	13495.53
479.98	13425.31
480.16	14024.49
480.34	13678.09
480.52	14307.69
480.70	13907.46
480.88	13614.90
481.06	14073.64
481.24	14052.58
481.41	14249.18
481.59	14794.53
481.77	14815.59
481.95	14312.38
482.13	14794.53
482.31	14710.27
482.49	14967.73
482.67	14890.49
482.85	15372.64
483.03	15337.53
483.21	15653.50
483.39	15730.74
483.57	15571.58
483.74	15676.91
483.92	15880.53
484.10	15903.94
484.28	16189.49
484.46	16381.41
484.64	16669.30
484.82	16180.12
485.00	16524.18
485.18	16489.07
485.35	16819.09
485.53	16322.90
485.71	16652.91
485.89	16781.64
486.07	17057.82
486.25	16912.71
486.43	17097.61
486.61	17221.66
486.78	17446.35
486.96	17481.46
487.14	17673.39
487.32	17963.61
487.50	18230.43
487.68	18375.55
487.85	18750.03
488.03	18618.96
488.21	18986.43
488.39	18838.97
488.57	18911.53
488.75	19176.01
488.92	19316.44
489.10	19763.48
489.28	19470.92
489.46	19899.23
489.64	20051.37
489.81	20622.46
489.99	20517.14
490.17	20596.71
490.35	20718.42
490.53	20582.67
490.70	20837.79
490.88	20861.19
491.06	21179.51
491.24	21006.31
491.41	21036.74
491.59	21142.06
491.77	21095.25
491.95	21455.69
492.13	21563.36
492.30	21954.22
492.48	21907.41
492.66	22230.41
492.84	22359.14
493.01	22066.57
493.19	22370.84
493.37	22445.74
493.54	22499.57
493.72	22654.05
493.90	23372.59
494.08	23122.15
494.25	23344.50
494.43	23522.38
494.61	23913.25
494.79	23962.40
494.96	23810.27
495.14	23840.70
495.32	24112.20
495.49	24252.63
495.67	24161.35
495.85	24659.88
496.02	24510.09
496.20	24907.98
496.38	24837.76
496.55	24851.81
496.73	25408.86
496.91	25305.87
497.09	25493.12
497.26	25432.26
497.44	25483.75
497.62	25249.70
497.79	25612.48
497.97	25301.19
498.14	25750.57
498.32	26129.74
498.50	25963.56
498.67	26256.13
498.85	26307.62
499.03	26829.56
499.20	26593.17
499.38	26771.05
499.56	26595.51
499.73	27049.57
499.91	26827.22
500.08	27126.81
500.26	26576.78
500.44	26867.01
500.61	27117.45
500.79	27002.76
500.97	26962.97
501.14	27316.39
501.32	27550.45
501.49	27449.80
501.67	27875.78
501.84	27819.61
502.02	27702.58
502.20	28411.76
502.37	28210.48
502.55	28121.54
502.72	28238.56
502.90	28671.56
503.07	28135.58
503.25	28706.67
503.43	28229.20
503.60	28641.14
503.78	28659.86
503.95	28683.27
504.13	28779.23
504.30	28772.21
504.48	29113.92
504.65	29387.77
504.83	29631.18
505.01	29713.10
505.18	29778.64
505.36	29926.09
505.53	29926.09
505.71	30340.36
505.88	30469.09
506.06	29848.85
506.23	29820.77
506.41	30204.61
506.58	29982.26
506.76	30459.73
506.93	30260.79
507.11	30415.26
507.28	30583.78
507.46	30251.42
507.63	30693.79
507.81	30586.12
507.98	30644.63
508.16	30436.33
508.33	30911.46
508.50	31007.42
508.68	31449.78
508.85	31957.67
509.03	31594.89
509.20	31599.57
509.38	31931.93
509.55	31861.71
509.73	31850.01
509.90	32350.88
510.08	31796.18
510.25	31564.46
510.42	32102.79
510.60	32285.35
510.77	31997.46
510.95	32526.42
511.12	32938.36
511.30	32795.59
511.47	32519.40
511.64	32868.14
511.82	32694.94
511.99	32432.80
512.17	33104.54
512.34	32987.51
512.51	33027.30
512.69	33352.63
512.86	33237.95
513.04	33174.75
513.21	33287.10
513.38	33570.30
513.56	33284.76
513.73	32994.53
513.90	33734.14
514.08	33163.05
514.25	33703.71
514.43	33387.74
514.60	33443.91
514.77	33830.10
514.95	34291.19
515.12	34059.48
515.29	34242.04
515.47	34487.79
515.64	34054.79
515.81	34064.16
515.99	34057.14
516.16	34478.43
516.33	34101.61
516.51	34148.42
516.68	33521.15
516.85	33715.42
517.03	33890.96
517.20	34363.75
517.37	34646.95
517.54	34883.34
517.72	34778.02
517.89	34183.52
518.06	34419.92
518.24	34389.49
518.41	34873.98
518.58	34682.06
518.75	35356.13
518.93	35201.66
519.10	34752.27
519.27	35655.72
519.45	35335.07
519.62	35952.97
519.79	35491.88
519.96	35992.76
520.14	36177.66
520.31	35709.55
520.48	35880.41
520.65	35873.39
520.83	36297.03
521.00	36266.60
521.17	36348.52
521.34	36704.28
521.52	36629.38
521.69	36713.64
521.86	36683.22
522.03	36767.48
522.20	36694.92
522.38	37053.02
522.55	36566.19
522.72	36856.42
522.89	36833.01
523.07	37120.90
523.24	37067.06
523.41	37333.89
523.58	37221.54
523.75	37752.84
523.92	37605.39
524.10	37729.44
524.27	37972.85
524.44	37888.59
524.61	38127.33
524.78	38031.36
524.96	37467.30
525.13	37986.89
525.30	38499.47
525.47	38110.94
525.64	37984.55
525.81	37921.36
525.98	38075.84
526.16	37626.45
526.33	37895.61
526.50	38426.92
526.67	37256.65
526.84	37614.75
527.01	37766.88
527.18	38153.07
527.36	38653.95
527.53	38330.95
527.70	38796.72
527.87	38583.73
528.04	38761.61
528.21	39126.74
528.38	39112.69
528.55	39210.99
528.72	39311.64
528.89	39669.74
529.07	39552.71
529.24	39232.06
529.41	39110.35
529.58	38768.63
529.75	39833.58
529.92	39414.62
530.09	39599.52
530.26	39665.06
530.43	39573.78
530.60	39447.39
530.77	39728.25
530.94	40037.20
531.11	39849.96
531.28	39751.66
531.46	40376.58
531.63	40107.42
531.80	39758.68
531.97	39686.12
532.14	39847.62
532.31	39709.53
532.48	39559.73
532.65	40009.12
532.82	40137.85
532.99	40577.87
533.16	39974.01
533.33	40329.77
533.50	40643.40
533.67	40470.20
533.84	40147.21
534.01	40481.91
534.18	40067.63
534.35	40774.47
534.52	41209.81
534.69	40594.25
534.86	40683.19
535.03	40711.28
535.20	41305.77
535.37	41839.42
535.54	41713.03
535.71	41083.42
535.88	41713.03
536.05	41092.79
536.22	41516.42
536.38	41514.08
536.55	41284.71
536.72	41141.94
536.89	41263.64
537.06	41361.95
537.23	41598.34
537.40	41427.48
537.57	41750.48
537.74	41935.38
537.91	41998.57
538.08	42080.49
538.25	41579.62
538.42	41886.23
538.59	42000.91
538.75	41624.09
538.92	41893.25
539.09	41324.50
539.26	41600.68
539.43	42176.45
539.60	41780.90
539.77	41837.08
539.94	41680.26
540.11	41851.12
540.28	42171.77
540.44	41926.02
540.61	41668.56
540.78	41895.59
540.95	41991.55
541.12	42237.31
541.29	41879.21
541.46	42052.41
541.62	42216.24
541.79	42651.58
541.96	42150.71
542.13	42204.54
542.30	42515.83
542.47	42511.15
542.63	42637.54
542.80	42167.09
542.97	42990.96
543.14	42927.77
543.31	43152.46
543.48	43124.37
543.64	43536.30
543.81	43168.84
543.98	43227.35
544.15	43274.16
544.32	43274.16
544.48	43604.18
544.65	43508.22
544.82	43395.87
544.99	42981.60
545.16	43578.43
545.32	43393.53
545.49	43756.32
545.66	44301.66
545.83	43786.74
546.00	43931.86
546.16	43973.98
546.33	43700.14
546.50	43372.47
546.67	43667.37
546.83	43468.43
547.00	43255.44
547.17	43744.61
547.34	43475.45
547.50	43861.64
547.67	44210.38
547.84	43908.45
548.00	44205.70
548.17	44491.24
548.34	44149.53
548.51	44224.42
548.67	44315.70
548.84	44149.53
549.01	44186.97
549.18	44418.69
549.34	44212.72
549.51	44353.15
549.68	44903.18
549.84	44432.73
550.01	44252.51
550.18	44257.19
550.34	44652.74
550.51	44247.83
550.68	44332.09
550.84	44121.44
551.01	44643.38
551.18	44491.24
551.34	44547.42
551.51	44811.90
551.68	44964.03
551.84	44713.59
552.01	44158.89
552.18	45237.87
552.34	44795.51
552.51	44917.22
552.68	44765.09
552.84	45074.04
553.01	44793.17
553.18	44570.82
553.34	45301.07
553.51	44865.73
553.67	45104.46
553.84	45490.65
554.01	45251.92
554.17	45265.96
554.34	45261.28
554.51	44842.32
554.67	45516.40
554.84	45008.50
555.00	44910.20
555.17	45076.38
555.33	45287.03
555.50	44961.69
555.67	45160.64
555.83	45006.16
556.00	45261.28
556.16	45811.31
556.33	44854.03
556.50	45277.66
556.66	45366.60
556.83	44795.51
556.99	45755.13
557.16	45635.77
557.32	45691.94
557.49	45368.94
557.65	45106.80
557.82	45680.24
557.98	45698.96
558.15	45621.72
558.32	45610.02
558.48	45546.82
558.65	45186.38
558.81	45340.86
558.98	45792.58
559.14	45759.81
559.31	45549.17
559.47	45930.67
559.64	45911.95
559.80	45778.54
559.97	45771.52
560.13	45495.33
560.30	45427.46
560.46	45855.78
560.63	46024.29
560.79	46312.18
560.96	45844.07
561.12	45701.30
561.29	45846.41
561.45	45907.27
561.61	45787.90
561.78	45731.73
561.94	45539.80
562.11	45715.34
562.27	45600.66
562.44	45998.55
562.60	45928.33
562.77	46174.09
562.93	46068.76
563.10	46146.00
563.26	45837.05
563.42	46148.34
563.59	45848.75
563.75	45900.25
563.92	46333.24
564.08	46054.72
564.24	46621.13
564.41	45893.22
564.57	45841.73
564.74	46506.44
564.90	45858.12
565.07	45900.25
565.23	46148.34
565.39	46068.76
565.56	46010.25
565.72	45698.96
565.88	46101.53
566.05	45998.55
566.21	46162.39
566.38	45818.33
566.54	46057.06
566.70	46625.81
566.87	46361.33
567.03	46494.74
567.19	46738.16
567.36	46417.50
567.52	46146.00
567.68	46298.14
567.85	46347.29
568.01	46358.99
568.17	45841.73
568.34	46293.46
568.50	46190.47
568.66	46267.71
568.83	46600.07
568.99	46129.62
569.15	45909.61
569.32	46422.19
569.48	46541.55
569.64	46815.40
569.81	46614.11
569.97	46515.81
570.13	46213.88
570.30	45614.70
570.46	46185.79
570.62	46050.04
570.78	46103.87
570.95	46192.81
571.11	46586.02
571.27	46124.94
571.43	46501.76
571.60	46050.04
571.76	46220.90
571.92	46529.85
572.09	46653.90
572.25	46480.70
572.41	46251.33
572.57	46775.61
572.74	46740.50
572.90	46532.19
573.06	46784.97
573.22	46270.05
573.38	46471.34
573.55	46176.43
573.71	46752.20
573.87	46511.13
574.03	46466.66
574.20	46614.11
574.36	46377.72
574.52	46529.85
574.68	46520.49
574.84	46857.52
575.01	46579.00
575.17	46389.42
575.33	46248.99
575.49	46155.36
575.65	46806.03
575.82	46637.51
575.98	46492.40
576.14	46742.84
576.30	46986.25
576.46	46649.22
576.62	46410.48
576.79	46171.75
576.95	46541.55
577.11	46522.83
577.27	46576.66
577.43	46471.34
577.59	46248.99
577.75	46094.51
577.92	46267.71
578.08	45982.16
578.24	46270.05
578.40	46323.88
578.56	46162.39
578.72	46827.10
578.88	46848.16
579.04	46852.84
579.21	46174.09
579.37	46522.83
579.53	46618.79
579.69	46115.58
579.85	46059.40
580.01	46955.83
580.17	46457.29
580.33	46344.95
580.49	46838.80
580.65	47136.05
580.82	46384.74
580.98	46859.87
581.14	46527.51
581.30	46766.24
581.46	46714.75
581.62	46658.58
581.78	46536.87
581.94	46953.49
582.10	46630.49
582.26	46906.68
582.42	46541.55
582.58	46871.57
582.74	46890.29
582.90	46815.40
583.06	46913.70
583.22	46742.84
583.38	46960.51
583.54	46972.21
583.70	46885.61
583.86	46899.65
584.02	46534.53
584.18	46749.86
584.34	46618.79
584.50	46471.34
584.66	46234.94
584.82	46197.49
584.98	46707.73
585.14	47215.63
585.30	46368.35
585.46	46422.19
585.62	46211.54
585.78	46398.78
585.94	46433.89
586.10	46576.66
586.26	46550.91
586.42	46808.37
586.58	47063.49
586.74	46733.48
586.90	46461.97
587.06	46689.01
587.22	46508.79
587.38	46349.63
587.54	46876.25
587.70	46618.79
587.86	46703.05
588.02	46490.06
588.18	46794.33
588.34	46134.30
588.49	46014.93
588.65	45764.49
588.81	46134.30
588.97	46408.14
589.13	46185.79
589.29	46096.85
589.45	46480.70
589.61	46628.15
589.77	47049.45
589.93	46499.42
