SpectraSuite Data File
++++++++++++++++++++++++++++++++++++
Date: Fri Oct 25 10:44:18 EDT 2013
User: price-jones
Dark Spectrum Present: No
Reference Spectrum Present: No
Number of Sampled Component Spectra: 1
Spectrometers: USB2+H05261
Integration Time (usec): 100000 (USB2+H05261)
Spectra Averaged: 1 (USB2+H05261)
Boxcar Smoothing: 0 (USB2+H05261)
Correct for Electrical Dark: No (USB2+H05261)
Strobe/Lamp Enabled: No (USB2+H05261)
Correct for Detector Non-linearity: No (USB2+H05261)
Correct for Stray Light: No (USB2+H05261)
Number of Pixels in Processed Spectrum: 2048
>>>>>Begin Processed Spectral Data<<<<<
365.73	212.99
365.92	212.99
366.12	212.99
366.32	37.45
366.52	49.15
366.72	84.26
366.91	42.13
367.11	2.34
367.31	0.00
367.51	46.81
367.70	25.75
367.90	53.83
368.10	7.02
368.30	7.02
368.49	35.11
368.69	79.58
368.89	51.49
369.09	35.11
369.28	49.15
369.48	102.98
369.68	74.90
369.87	84.26
370.07	86.60
370.27	175.54
370.47	201.29
370.66	322.99
370.86	379.17
371.06	461.09
371.25	543.00
371.45	507.90
371.65	468.11
371.84	472.79
372.04	468.11
372.24	468.11
372.44	491.51
372.63	517.26
372.83	496.19
373.03	517.26
373.22	458.74
373.42	517.26
373.62	610.88
373.81	531.30
374.01	564.07
374.21	547.69
374.40	503.22
374.60	587.47
374.79	531.30
374.99	550.03
375.19	578.11
375.38	617.90
375.58	571.09
375.78	638.97
375.97	615.56
376.17	662.37
376.37	660.03
376.56	603.86
376.76	585.13
376.95	655.35
377.15	667.05
377.35	645.99
377.54	634.29
377.74	636.63
377.93	613.22
378.13	695.14
378.33	690.46
378.52	664.71
378.72	681.10
378.91	688.12
379.11	615.56
379.31	622.58
379.50	702.16
379.70	688.12
379.89	681.10
380.09	692.80
380.28	753.65
380.48	730.25
380.68	702.16
380.87	774.72
381.07	739.61
381.26	697.48
381.46	664.71
381.65	713.86
381.85	695.14
382.04	725.57
382.24	720.88
382.43	655.35
382.63	713.86
382.83	664.71
383.02	800.46
383.22	835.57
383.41	767.70
383.61	758.33
383.80	711.52
384.00	812.17
384.19	798.12
384.39	926.85
384.58	840.25
384.78	758.33
384.97	842.59
385.17	767.70
385.36	873.02
385.56	823.87
385.75	765.36
385.95	795.78
386.14	840.25
386.34	842.59
386.53	786.42
386.72	849.61
386.92	873.02
387.11	875.36
387.31	826.21
387.50	851.96
387.70	868.34
387.89	908.13
388.09	912.81
388.28	840.25
388.48	873.02
388.67	922.17
388.86	868.34
389.06	945.58
389.25	905.79
389.45	1013.45
389.64	1015.79
389.84	1008.77
390.03	1029.84
390.22	1008.77
390.42	1062.60
390.61	957.28
390.81	1071.97
391.00	1050.90
391.19	1097.71
391.39	1153.88
391.58	1128.14
391.78	1078.99
391.97	1095.37
392.16	1153.88
392.36	1053.24
392.55	1025.15
392.75	1144.52
392.94	966.64
393.13	1020.47
393.33	976.00
393.52	1081.33
393.71	1050.90
393.91	1062.60
394.10	1118.78
394.29	1116.44
394.49	1160.91
394.68	1196.01
394.88	1221.76
395.07	1282.61
395.26	1249.85
395.46	1306.02
395.65	1299.00
395.84	1179.63
396.04	1299.00
396.23	1263.89
396.42	1123.46
396.62	1158.57
396.81	1273.25
397.00	1200.69
397.19	1287.29
397.39	1416.02
397.58	1352.83
397.77	1348.15
397.97	1589.22
398.16	1378.58
398.35	1516.67
398.55	1401.98
398.74	1472.20
398.93	1516.67
399.12	1554.12
399.32	1561.14
399.51	1556.46
399.70	1593.90
399.90	1486.24
400.09	1626.67
400.28	1593.90
400.47	1593.90
400.67	1687.53
400.86	1724.97
401.05	1629.01
401.24	1661.78
401.44	1715.61
401.63	1788.17
401.82	1767.10
402.01	1724.97
402.21	1750.72
402.40	1853.70
402.59	1710.93
402.78	1743.70
402.97	1732.00
403.17	1849.02
403.36	1902.86
403.55	1998.82
403.74	1944.99
403.93	1935.62
404.13	1905.20
404.32	1930.94
404.51	1973.07
404.70	1977.75
404.89	1877.11
405.09	1989.46
405.28	1858.39
405.47	2026.90
405.66	1996.48
405.85	2012.86
406.05	1984.77
406.24	2064.35
406.43	2040.95
406.62	2188.40
406.81	2214.15
407.00	2022.22
407.20	2169.68
407.39	2101.80
407.58	2195.42
407.77	2162.66
407.96	2174.36
408.15	2354.58
408.34	2298.41
408.54	2352.24
408.73	2342.88
408.92	2333.51
409.11	2434.16
409.30	2296.07
409.49	2370.96
409.68	2267.98
409.87	2317.13
410.07	2445.86
410.26	2406.07
410.45	2415.43
410.64	2487.99
410.83	2546.50
411.02	2548.84
411.21	2534.80
411.40	2752.47
411.59	2703.32
411.78	2642.46
411.98	2684.59
412.17	2705.66
412.36	2761.83
412.55	2658.85
412.74	2710.34
412.93	2857.79
413.12	2750.13
413.31	2939.71
413.50	2897.58
413.69	2857.79
413.88	2979.50
414.07	3052.06
414.26	3075.46
414.45	3042.70
414.64	3077.80
414.83	3211.22
415.02	3155.04
415.22	3185.47
415.41	3243.98
415.60	3248.66
415.79	3311.86
415.98	3183.13
416.17	3318.88
416.36	3323.56
416.55	3368.03
416.74	3152.70
416.93	3318.88
417.12	3311.86
417.31	3431.23
417.50	3410.16
417.69	3445.27
417.88	3618.47
418.07	3463.99
418.26	3496.76
418.45	3555.27
418.64	3859.54
418.83	3597.40
419.02	3548.25
419.21	3578.68
419.39	3667.62
419.58	3574.00
419.77	3606.77
419.96	3721.45
420.15	3840.82
420.34	3693.37
420.53	3880.61
420.72	3974.23
420.91	3847.84
421.10	4002.32
421.29	3864.22
421.48	3833.80
421.67	3918.06
421.86	3854.86
422.05	3847.84
422.24	3847.84
422.43	3784.65
422.61	3941.46
422.80	3932.10
422.99	3953.16
423.18	4011.68
423.37	4086.58
423.56	3904.01
423.75	4007.00
423.94	3922.74
424.13	3765.92
424.32	3868.91
424.50	4138.07
424.69	4028.06
424.88	4215.30
425.07	4067.85
425.26	4030.40
425.45	3995.29
425.64	3815.07
425.83	3922.74
426.01	4203.60
426.20	4042.11
426.39	4145.09
426.58	3955.51
426.77	4086.58
426.96	4042.11
427.15	4191.90
427.33	4224.67
427.52	4187.22
427.71	4285.52
427.90	4222.33
428.09	4318.29
428.28	4231.69
428.46	4201.26
428.65	4248.07
428.84	4407.23
429.03	4402.55
429.22	4152.11
429.40	4231.69
429.59	4081.89
429.78	3946.14
429.97	3981.25
430.16	4018.70
430.34	4091.26
430.53	4280.84
430.72	4149.77
430.91	4360.42
431.10	4365.10
431.28	4550.00
431.47	4547.66
431.66	4770.01
431.85	4624.90
432.03	4669.37
432.22	4704.48
432.41	4648.30
432.60	4748.95
432.79	4741.93
432.97	4856.61
433.16	4954.91
433.35	4564.04
433.54	4718.52
433.72	4660.01
433.91	4690.43
434.10	4678.73
434.28	4837.89
434.47	4917.47
434.66	4896.40
434.85	4983.00
435.03	5029.81
435.22	5001.72
435.41	5219.39
435.59	5170.24
435.78	5090.67
435.97	5261.52
436.16	5242.80
436.34	5277.91
436.53	5259.18
436.72	5453.45
436.90	5298.97
437.09	5334.08
437.28	5139.82
437.46	5413.66
437.65	5231.10
437.84	5331.74
438.02	5247.48
438.21	5348.12
438.40	5203.01
438.58	5446.43
438.77	5493.24
438.96	5572.82
439.14	5701.54
439.33	5673.46
439.52	5839.64
439.70	5809.21
439.89	5668.78
440.08	5944.96
440.26	5626.65
440.45	5771.76
440.63	6040.92
440.82	6139.23
441.01	6115.82
441.19	6003.47
441.38	6148.59
441.57	6232.85
441.75	6111.14
441.94	6424.77
442.12	6413.07
442.31	6572.22
442.50	6478.60
442.68	6406.05
442.87	6504.35
443.05	6520.73
443.24	6595.63
443.43	6581.59
443.61	6602.65
443.80	6780.53
443.98	6331.15
444.17	6274.98
444.35	6686.91
444.54	6679.89
444.73	6565.20
444.91	6675.21
445.10	6473.92
445.28	6366.26
445.47	6520.73
445.65	6438.81
445.84	6553.50
446.02	6724.36
446.21	6600.31
446.39	6506.69
446.58	6717.34
446.77	6808.62
446.95	6647.12
447.14	6640.10
447.32	6832.02
447.51	6825.00
447.69	6736.06
447.88	6850.75
448.06	6733.72
448.25	6789.89
448.43	7016.93
448.62	6764.15
448.80	6942.03
448.99	7007.56
449.17	6988.84
449.36	6937.35
449.54	7260.34
449.73	7066.08
449.91	7131.61
450.10	7290.77
450.28	7194.81
450.46	7349.28
450.65	7131.61
450.83	7316.51
451.02	7133.95
451.20	7435.88
451.39	7304.81
451.57	7360.98
451.76	7101.19
451.94	7096.50
452.13	7337.58
452.31	7241.62
452.49	7274.38
452.68	7344.60
452.86	7274.38
453.05	7389.07
453.23	7428.86
453.42	7309.49
453.60	7328.22
453.78	7595.04
453.97	7550.57
454.15	7634.83
454.34	7447.58
454.52	7723.77
454.70	7618.44
454.89	7644.19
455.07	7754.19
455.26	7709.72
455.44	7836.11
455.62	7801.01
455.81	7922.71
455.99	7948.46
456.17	7957.82
456.36	8072.51
456.54	8203.58
456.73	8264.43
456.91	8266.77
457.09	8313.58
457.28	8400.18
457.46	8154.43
457.64	8098.25
457.83	8285.50
458.01	8121.66
458.19	8465.72
458.38	8341.67
458.56	8313.58
458.74	8418.91
458.93	8538.27
459.11	8437.63
459.29	8315.92
459.48	8397.84
459.66	8358.05
459.84	8535.93
460.03	8622.53
460.21	8526.57
460.39	8659.98
460.57	8540.61
460.76	8842.54
460.94	8702.11
461.12	8784.03
461.31	8791.05
461.49	8758.28
461.67	8809.78
461.85	9254.48
462.04	8882.33
462.22	8999.36
462.40	9034.47
462.59	8997.02
462.77	9006.38
462.95	9067.24
463.13	9142.13
463.32	9069.58
463.50	9261.50
463.68	9310.65
463.86	9123.41
464.05	8959.57
464.23	9076.60
464.41	9029.79
464.59	9004.04
464.78	9383.21
464.96	9275.54
465.14	9193.62
465.32	9451.08
465.50	9479.17
465.69	9610.24
465.87	9301.29
466.05	9324.69
466.23	9193.62
466.41	9277.88
466.60	9678.12
466.78	9256.82
466.96	9579.81
467.14	9394.91
467.32	9451.08
467.51	9886.42
467.69	9397.25
467.87	9591.52
468.05	9956.64
468.23	9635.99
468.41	9490.87
468.60	9605.56
468.78	9956.64
468.96	9837.27
469.14	9928.55
469.32	9970.68
469.50	9788.12
469.69	9820.89
469.87	9813.87
470.05	9811.53
470.23	10010.47
470.41	10078.35
470.59	10108.77
470.77	10019.83
470.95	10038.56
471.14	10267.93
471.32	10214.10
471.50	10406.02
471.68	10640.08
471.86	10389.64
472.04	10441.13
472.22	10733.70
472.40	10579.22
472.58	10623.69
472.77	10555.82
472.95	11023.92
473.13	11281.38
473.31	10717.31
473.49	10895.19
473.67	10839.02
473.85	10911.58
474.03	11075.42
474.21	11213.51
474.39	11461.60
474.57	11145.63
474.75	11309.47
474.93	11531.82
475.12	11662.89
475.30	11407.77
475.48	11218.19
475.66	11515.44
475.84	11461.60
476.02	11754.17
476.20	11796.30
476.38	11669.91
476.56	12100.57
476.74	12116.95
476.92	12058.44
477.10	11824.39
477.28	12189.51
477.46	12196.53
477.64	12458.67
477.82	12704.43
478.00	12957.21
478.18	12578.04
478.36	12856.56
478.54	12767.62
478.72	13165.51
478.90	13121.04
479.08	13249.77
479.26	13404.25
479.44	13207.64
479.62	13217.01
479.80	13657.03
479.98	13706.18
480.16	13900.44
480.34	13841.93
480.52	13968.32
480.70	14043.21
480.88	13853.63
481.06	14211.73
481.24	14038.53
481.41	14352.16
481.59	14682.18
481.77	14464.51
481.95	14829.63
482.13	14775.80
482.31	14860.06
482.49	15056.67
482.67	15213.48
482.85	15243.91
483.03	15124.54
483.21	15852.45
483.39	15522.43
483.57	15740.10
483.74	15672.23
483.92	15625.42
484.10	15772.87
484.28	16074.80
484.46	16451.63
484.64	16896.33
484.82	16271.40
485.00	16250.34
485.18	16840.15
485.35	16507.80
485.53	16648.23
485.71	16409.50
485.89	16554.61
486.07	16453.97
486.25	16711.42
486.43	17202.94
486.61	17275.49
486.78	17193.58
486.96	17823.18
487.14	17951.91
487.32	17975.31
487.50	17984.68
487.68	18728.97
487.85	18691.52
488.03	18843.65
488.21	18721.95
488.39	18944.30
488.57	18705.56
488.75	19300.06
488.92	19374.95
489.10	19910.94
489.28	19768.16
489.46	20135.63
489.64	20023.28
489.81	20341.60
489.99	20477.35
490.17	20673.95
490.35	20580.33
490.53	20510.11
490.70	20669.27
490.88	21027.37
491.06	20912.69
491.24	21013.33
491.41	21109.29
491.59	21015.67
491.77	20999.29
491.95	21495.48
492.13	21628.89
492.30	22008.06
492.48	21982.31
492.66	22298.28
492.84	22068.91
493.01	22579.15
493.19	22171.89
493.37	22539.36
493.54	22780.43
493.72	22862.35
493.90	23164.28
494.08	23342.16
494.25	23400.68
494.43	23744.73
494.61	23571.54
494.79	24102.84
494.96	24278.38
495.14	23871.12
495.32	24051.34
495.49	23983.47
495.67	24325.19
495.85	24680.95
496.02	24687.97
496.20	24599.03
496.38	24856.49
496.55	25106.93
496.73	25675.68
496.91	25118.63
497.09	25081.18
497.26	25369.07
497.44	25656.95
497.62	25387.79
497.79	25727.17
497.97	25612.48
498.14	25855.90
498.32	26319.32
498.50	26197.62
498.67	26288.90
498.85	26452.73
499.03	26771.05
499.20	26670.40
499.38	26890.41
499.56	26890.41
499.73	26675.09
499.91	26871.69
500.08	27054.25
500.26	26621.25
500.44	26974.67
500.61	27145.53
500.79	26700.83
500.97	27449.80
501.14	27763.43
501.32	27290.65
501.49	27484.91
501.67	27541.08
501.84	27924.93
502.02	27873.44
502.20	28161.33
502.37	28467.94
502.55	28315.80
502.72	28503.04
502.90	28613.05
503.07	28505.38
503.25	28575.60
503.43	28467.94
503.60	28442.19
503.78	28376.66
503.95	28573.26
504.13	29177.12
504.30	29149.03
504.48	29174.78
504.65	29661.61
504.83	29528.20
505.01	29729.48
505.18	29642.88
505.36	29670.97
505.53	29661.61
505.71	29996.31
505.88	30185.89
506.06	29853.53
506.23	30223.34
506.41	29984.60
506.58	30450.37
506.76	30785.07
506.93	30991.03
507.11	30368.45
507.28	30721.87
507.46	30597.82
507.63	29900.34
507.81	30466.75
507.98	30555.69
508.16	30906.77
508.33	31318.71
508.50	31185.30
508.68	31564.46
508.85	31770.43
509.03	31372.54
509.20	31580.85
509.38	31658.09
509.55	31618.30
509.73	31887.46
509.90	31566.81
510.08	31845.33
510.25	31454.46
510.42	32226.84
510.60	31983.42
510.77	32332.16
510.95	32292.37
511.12	32353.23
511.30	32474.93
511.47	32910.27
511.64	32842.40
511.82	33022.62
511.99	32519.40
512.17	32809.63
512.34	32818.99
512.51	33130.28
512.69	33305.82
512.86	33242.63
513.04	33624.14
513.21	33308.16
513.38	33020.28
513.56	33085.81
513.73	32987.51
513.90	33401.79
514.08	33455.62
514.25	33684.99
514.43	33729.46
514.60	34003.30
514.77	33500.09
514.95	34080.54
515.12	33792.65
515.29	34169.48
515.47	34450.35
515.64	34440.98
515.81	34225.65
515.99	34689.08
516.16	34036.07
516.33	33956.49
516.51	34162.46
516.68	33771.59
516.85	33720.10
517.03	34206.93
517.20	34513.54
517.37	34398.85
517.54	34848.24
517.72	34668.02
517.89	34497.16
518.06	34394.17
518.24	34534.60
518.41	34885.68
518.58	35000.37
518.75	35409.96
518.93	35356.13
519.10	34841.21
519.27	35449.75
519.45	35503.59
519.62	35309.32
519.79	36053.61
519.96	35835.94
520.14	36119.15
520.31	35840.62
520.48	36034.89
520.65	35835.94
520.83	36650.45
521.00	36711.30
521.17	36072.34
521.34	36655.13
521.52	36591.94
521.69	36587.25
521.86	36741.73
522.03	36926.63
522.20	37017.91
522.38	37240.26
522.55	36786.20
522.72	36772.16
522.89	37223.88
523.07	37193.45
523.24	36741.73
523.41	37401.76
523.58	37273.03
523.75	38120.31
523.92	37624.11
524.10	38103.92
524.27	37933.06
524.44	38031.36
524.61	37691.99
524.78	37572.62
524.96	37900.29
525.13	38274.78
525.30	38094.56
525.47	38569.69
525.64	38293.50
525.81	38349.68
525.98	38167.12
526.16	37830.08
526.33	37443.89
526.50	37954.13
526.67	38038.39
526.84	37596.03
527.01	38007.96
527.18	38384.79
527.36	38803.74
527.53	38815.44
527.70	39356.11
527.87	39051.84
528.04	38593.09
528.21	38721.82
528.38	38813.10
528.55	39395.90
528.72	39569.10
528.89	39512.92
529.07	39342.06
529.24	39438.03
529.41	39299.94
529.58	39700.17
529.75	39379.51
529.92	39573.78
530.09	39814.85
530.26	39648.68
530.43	39988.05
530.60	39648.68
530.77	39772.72
530.94	40020.82
531.11	39807.83
531.28	39648.68
531.46	40299.34
531.63	40332.11
531.80	40278.28
531.97	39697.83
532.14	40271.26
532.31	39442.71
532.48	39929.54
532.65	40179.98
532.82	40013.80
532.99	40053.59
533.16	40399.99
533.33	40194.02
533.50	40788.52
533.67	40495.95
533.84	40318.07
534.01	40690.21
534.18	40807.24
534.35	41029.59
534.52	40629.36
534.69	41158.32
534.86	40940.65
535.03	40591.91
535.20	41596.00
535.37	41413.44
535.54	41689.62
535.71	41303.43
535.88	41483.66
536.05	40837.67
536.22	41322.16
536.38	41383.01
536.55	41181.73
536.72	41277.69
536.89	41350.24
537.06	41612.38
537.23	41860.48
537.40	41659.20
537.57	41387.69
537.74	41713.03
537.91	41998.57
538.08	41897.93
538.25	41626.43
538.42	41933.04
538.59	42199.86
538.75	41546.85
538.92	41427.48
539.09	42131.98
539.26	41743.45
539.43	41933.04
539.60	41621.75
539.77	41436.84
539.94	41914.31
540.11	42057.09
540.28	41605.36
540.44	42167.09
540.61	42064.11
540.78	42251.35
540.95	42178.79
541.12	42251.35
541.29	41813.67
541.46	42050.06
541.62	42487.74
541.79	42469.02
541.96	42307.52
542.13	42454.98
542.30	42689.03
542.47	42614.13
542.63	42342.63
542.80	42574.34
542.97	43143.09
543.14	43320.98
543.31	43058.84
543.48	43056.50
543.64	43646.31
543.81	43379.49
543.98	43173.52
544.15	43484.81
544.32	43461.41
544.48	44060.58
544.65	43639.29
544.82	42932.45
544.99	43807.81
545.16	43765.68
545.32	43313.95
545.49	43863.98
545.66	43634.61
545.83	43756.32
546.00	43835.89
546.16	43674.40
546.33	43714.19
546.50	43681.42
546.67	43835.89
546.83	43512.90
547.00	43653.33
547.17	43260.12
547.34	43924.83
547.50	43892.07
547.67	43990.37
547.84	44165.91
548.00	44425.71
548.17	44470.18
548.34	43934.20
548.51	44142.50
548.67	44140.16
548.84	44591.89
549.01	43990.37
549.18	44502.95
549.34	44886.79
549.51	44994.46
549.68	44760.40
549.84	44577.84
550.01	44896.16
550.18	44226.76
550.34	44631.68
550.51	44346.13
550.68	44498.26
550.84	44301.66
551.01	44582.52
551.18	44807.22
551.34	44318.04
551.51	44851.69
551.68	44870.41
551.84	44722.96
552.01	44849.35
552.18	44877.43
552.34	44498.26
552.51	44737.00
552.68	44935.95
552.84	44868.07
553.01	45008.50
553.18	45001.48
553.34	44746.36
553.51	44975.73
553.67	45027.23
553.84	45298.73
554.01	45209.79
554.17	45406.39
554.34	45476.61
554.51	45319.79
554.67	45429.80
554.84	45500.01
555.00	45137.23
555.17	45069.36
555.33	45219.15
555.50	45148.93
555.67	45535.12
555.83	44793.17
556.00	45230.85
556.16	45626.40
556.33	45191.06
556.50	45153.62
556.66	45701.30
556.83	45170.00
556.99	45722.37
557.16	45488.31
557.32	45642.79
557.49	45745.77
557.65	45490.65
557.82	45717.68
557.98	45595.98
558.15	45446.18
558.32	45528.10
558.48	45670.87
558.65	45530.44
558.81	45532.78
558.98	45153.62
559.14	45544.48
559.31	45242.56
559.47	45773.86
559.64	45888.54
559.80	46220.90
559.97	45586.61
560.13	45635.77
560.30	45382.99
560.46	45993.87
560.63	45642.79
560.79	46267.71
560.96	45904.93
561.12	46195.15
561.29	45516.40
561.45	45851.09
561.61	46309.84
561.78	46288.77
561.94	45645.13
562.11	45698.96
562.27	45989.19
562.44	45867.48
562.60	46043.02
562.77	46225.58
562.93	46092.17
563.10	46143.66
563.26	45610.02
563.42	46398.78
563.59	45617.04
563.75	46199.83
563.92	46270.05
564.08	46396.44
564.24	46295.80
564.41	46298.14
564.57	46239.62
564.74	46344.95
564.90	46096.85
565.07	46103.87
565.23	46279.41
565.39	46583.68
565.56	46014.93
565.72	46059.40
565.88	46117.92
566.05	46017.27
566.21	45902.59
566.38	45815.99
566.54	45954.08
566.70	46092.17
566.87	46213.88
567.03	46689.01
567.19	46852.84
567.36	46567.30
567.52	46211.54
567.68	46677.30
567.85	46092.17
568.01	46506.44
568.17	46155.36
568.34	46279.41
568.50	46316.86
568.66	46681.98
568.83	46019.61
568.99	45844.07
569.15	46106.21
569.32	46087.49
569.48	46089.83
569.64	46513.47
569.81	46293.46
569.97	45935.35
570.13	46396.44
570.30	45907.27
570.46	46162.39
570.62	45893.22
570.78	45848.75
570.95	46520.49
571.11	46014.93
571.27	46291.12
571.43	46202.18
571.60	46307.50
571.76	46375.37
571.92	46515.81
572.09	46483.04
572.25	46885.61
572.41	46506.44
572.57	46569.64
572.74	46745.18
572.90	46602.41
573.06	46534.53
573.22	46199.83
573.38	46651.56
573.55	46340.27
573.71	47037.75
573.87	46955.83
574.03	46518.15
574.20	46349.63
574.36	46588.36
574.52	46483.04
574.68	46511.13
574.84	46403.46
575.01	46520.49
575.17	46370.69
575.33	46438.57
575.49	46536.87
575.65	46293.46
575.82	46625.81
575.98	46836.46
576.14	46707.73
576.30	47047.11
576.46	46829.44
576.62	46653.90
576.79	46843.48
576.95	46288.77
577.11	46740.50
577.27	46422.19
577.43	46707.73
577.59	46642.20
577.75	46473.68
577.92	46050.04
578.08	46447.93
578.24	46681.98
578.40	46522.83
578.56	46480.70
578.72	46344.95
578.88	47049.45
579.04	46473.68
579.21	46543.89
579.37	46593.04
579.53	46216.22
579.69	46717.09
579.85	46492.40
580.01	46464.32
580.17	46789.65
580.33	46520.49
580.49	46681.98
580.65	46843.48
580.82	46656.24
580.98	46286.43
581.14	46609.43
581.30	46813.05
581.46	46953.49
581.62	46522.83
581.78	46241.96
581.94	47103.28
582.10	46969.87
582.26	46583.68
582.42	46700.71
582.58	46480.70
582.74	46408.14
582.90	46780.29
583.06	46569.64
583.22	46326.22
583.38	46656.24
583.54	46993.28
583.70	46824.76
583.86	46461.97
584.02	46459.63
584.18	46829.44
584.34	46349.63
584.50	46740.50
584.66	46761.56
584.82	46040.68
584.98	46366.01
585.14	46838.80
585.30	46717.09
585.46	46546.23
585.62	46735.82
585.78	46829.44
585.94	46426.87
586.10	46621.13
586.26	46674.96
586.42	46518.15
586.58	47224.99
586.74	46644.54
586.90	46656.24
587.06	46380.06
587.22	46775.61
587.38	46674.96
587.54	46714.75
587.70	46396.44
587.86	46667.94
588.02	46789.65
588.18	46787.31
588.34	46225.58
588.49	45923.65
588.65	46101.53
588.81	45820.67
588.97	46703.05
589.13	46017.27
589.29	45813.65
589.45	46199.83
589.61	46625.81
589.77	46515.81
589.93	46672.62
