SpectraSuite Data File
++++++++++++++++++++++++++++++++++++
Date: Fri Oct 25 11:22:56 EDT 2013
User: price-jones
Dark Spectrum Present: No
Reference Spectrum Present: No
Number of Sampled Component Spectra: 1
Spectrometers: USB2+H05261
Integration Time (usec): 100000 (USB2+H05261)
Spectra Averaged: 1 (USB2+H05261)
Boxcar Smoothing: 0 (USB2+H05261)
Correct for Electrical Dark: No (USB2+H05261)
Strobe/Lamp Enabled: No (USB2+H05261)
Correct for Detector Non-linearity: No (USB2+H05261)
Correct for Stray Light: No (USB2+H05261)
Number of Pixels in Processed Spectrum: 2048
>>>>>Begin Processed Spectral Data<<<<<
365.73	187.24
365.92	187.24
366.12	187.24
366.32	149.79
366.52	91.28
366.72	154.48
366.91	88.94
367.11	124.05
367.31	79.58
367.51	152.13
367.70	138.09
367.90	138.09
368.10	135.75
368.30	117.03
368.49	98.30
368.69	126.39
368.89	107.66
369.09	128.73
369.28	156.82
369.48	149.79
369.68	163.84
369.87	117.03
370.07	189.58
370.27	166.18
370.47	313.63
370.66	681.10
370.86	582.79
371.06	662.37
371.25	772.38
371.45	650.67
371.65	713.86
371.84	615.56
372.04	695.14
372.24	725.57
372.44	697.48
372.63	692.80
372.83	737.27
373.03	765.36
373.22	795.78
373.42	779.40
373.62	795.78
373.81	847.27
374.01	828.55
374.21	870.68
374.40	812.17
374.60	894.08
374.79	833.23
374.99	828.55
375.19	819.19
375.38	819.19
375.58	840.25
375.78	929.19
375.97	863.66
376.17	819.19
376.37	901.11
376.56	891.74
376.76	894.08
376.95	791.10
377.15	983.02
377.35	905.79
377.54	908.13
377.74	819.19
377.93	917.49
378.13	798.12
378.33	952.60
378.52	903.45
378.72	973.66
378.91	910.47
379.11	915.15
379.31	929.19
379.50	992.39
379.70	990.05
379.89	973.66
380.09	849.61
380.28	943.24
380.48	1039.20
380.68	985.37
380.87	1001.75
381.07	983.02
381.26	973.66
381.46	987.71
381.65	1043.88
381.85	1013.45
382.04	1046.22
382.24	1011.11
382.43	1022.81
382.63	952.60
382.83	1104.73
383.02	1013.45
383.22	1093.03
383.41	1046.22
383.61	1100.05
383.80	1097.71
384.00	1100.05
384.19	1036.86
384.39	1088.35
384.58	1233.46
384.78	1177.29
384.97	1198.35
385.17	1214.74
385.36	1203.04
385.56	1123.46
385.75	1217.08
385.95	1196.01
386.14	1200.69
386.34	1238.14
386.53	1165.59
386.72	1277.93
386.92	1338.79
387.11	1317.72
387.31	1186.65
387.50	1228.78
387.70	1203.04
387.89	1233.46
388.09	1343.47
388.28	1240.48
388.48	1327.08
388.67	1401.98
388.86	1392.62
389.06	1315.38
389.25	1432.41
389.45	1362.19
389.64	1376.24
389.84	1369.21
390.03	1411.34
390.22	1364.53
390.42	1359.85
390.61	1299.00
390.81	1322.40
391.00	1430.07
391.19	1486.24
391.39	1378.58
391.58	1430.07
391.78	1530.71
391.97	1500.28
392.16	1439.43
392.36	1500.28
392.55	1514.33
392.75	1533.05
392.94	1540.07
393.13	1526.03
393.33	1568.16
393.52	1556.46
393.71	1577.52
393.91	1710.93
394.10	1584.54
394.29	1617.31
394.49	1568.16
394.68	1584.54
394.88	1570.50
395.07	1696.89
395.26	1612.63
395.46	1666.46
395.65	1792.85
395.84	1696.89
396.04	1729.66
396.23	1771.79
396.42	1757.74
396.62	1713.27
396.81	1783.49
397.00	1788.17
397.19	1811.57
397.39	1769.44
397.58	1895.83
397.77	1809.23
397.97	1905.20
398.16	1900.52
398.35	1827.96
398.55	1788.17
398.74	1832.64
398.93	1949.67
399.12	1895.83
399.32	1909.88
399.51	1839.66
399.70	1966.05
399.90	2029.24
400.09	1984.77
400.28	1991.80
400.47	2066.69
400.67	2003.50
400.86	2097.12
401.05	2076.06
401.24	2052.65
401.44	2111.16
401.63	2169.68
401.82	2148.61
402.01	2078.40
402.21	2162.66
402.40	2202.44
402.59	2249.25
402.78	2125.21
402.97	2303.09
403.17	2225.85
403.36	2237.55
403.55	2347.56
403.74	2270.32
403.93	2347.56
404.13	2422.45
404.32	2373.30
404.51	2340.54
404.70	2443.52
404.89	2394.37
405.09	2462.24
405.28	2424.80
405.47	2513.74
405.66	2609.70
405.85	2597.99
406.05	2644.81
406.24	2473.95
406.43	2656.51
406.62	2654.17
406.81	2789.92
407.00	2616.72
407.20	2630.76
407.39	2656.51
407.58	2703.32
407.77	2787.58
407.96	2717.36
408.15	2696.30
408.34	2693.96
408.54	2822.69
408.73	2913.97
408.92	2848.43
409.11	2801.62
409.30	2775.88
409.49	2953.76
409.68	2935.03
409.87	2909.29
410.07	3000.57
410.26	2958.44
410.45	3143.34
410.64	2972.48
410.83	3038.02
411.02	3119.93
411.21	3227.60
411.40	3124.62
411.59	3131.64
411.78	3400.80
411.98	3302.50
412.17	3445.27
412.36	3314.20
412.55	3335.26
412.74	3440.59
412.93	3363.35
413.12	3426.54
413.31	3588.04
413.50	3487.40
413.69	3503.78
413.88	3768.26
414.07	3506.12
414.26	3681.66
414.45	3684.00
414.64	3684.00
414.83	3559.95
415.02	3695.71
415.22	3929.76
415.41	3826.78
415.60	3868.91
415.79	3875.93
415.98	4039.76
416.17	4114.66
416.36	4159.13
416.55	4009.34
416.74	4091.26
416.93	4124.02
417.12	4086.58
417.31	4203.60
417.50	4166.15
417.69	4304.25
417.88	4360.42
418.07	4322.97
418.26	4273.82
418.45	4550.00
418.64	4470.42
418.83	4463.40
419.02	4564.04
419.21	4617.88
419.39	4517.23
419.58	4383.82
419.77	4416.59
419.96	4573.41
420.15	4781.71
420.34	4753.63
420.53	4533.62
420.72	4720.86
420.91	4606.17
421.10	4880.02
421.29	4851.93
421.48	4704.48
421.67	4781.71
421.86	4755.97
422.05	4713.84
422.24	4805.12
422.43	4835.55
422.61	4997.04
422.80	4887.04
422.99	4994.70
423.18	5041.51
423.37	5046.20
423.56	4823.84
423.75	4898.74
423.94	4894.06
424.13	4650.64
424.32	4884.70
424.50	5093.01
424.69	5107.05
424.88	5100.03
425.07	5027.47
425.26	5100.03
425.45	4940.87
425.64	4905.76
425.83	4901.08
426.01	5074.28
426.20	5081.30
426.39	5083.64
426.58	5186.63
426.77	5064.92
426.96	5158.54
427.15	5203.01
427.33	5139.82
427.52	4915.12
427.71	5270.89
427.90	5315.36
428.09	5397.28
428.28	5404.30
428.46	5373.87
428.65	5521.32
428.84	5500.26
429.03	5696.86
429.22	5327.06
429.40	5408.98
429.59	5631.33
429.78	5317.70
429.97	5497.92
430.16	5530.69
430.34	5678.14
430.53	5778.78
430.72	5790.49
430.91	5589.20
431.10	5818.57
431.28	5849.00
431.47	5853.68
431.66	5921.56
431.85	5834.96
432.03	6071.35
432.22	6003.47
432.41	5841.98
432.60	5877.09
432.79	5963.68
432.97	5987.09
433.16	6228.17
433.35	6066.67
433.54	6279.66
433.72	6169.65
433.91	6129.86
434.10	6066.67
434.28	6085.39
434.47	6303.06
434.66	6282.00
434.85	6293.70
435.03	6427.11
435.22	6242.21
435.41	6665.85
435.59	6427.11
435.78	6464.56
435.97	6457.54
436.16	6490.31
436.34	6459.88
436.53	6551.16
436.72	6846.07
436.90	6448.18
437.09	6778.19
437.28	6593.29
437.46	6747.76
437.65	6670.53
437.84	6588.61
438.02	6794.58
438.21	6836.70
438.40	6871.81
438.58	6963.09
438.77	7002.88
438.96	6913.94
439.14	7094.16
439.33	7162.04
439.52	7339.92
439.70	7218.21
439.89	7403.11
440.08	7403.11
440.26	7389.07
440.45	7213.53
440.63	7463.97
440.82	7749.51
441.01	7705.04
441.19	7829.09
441.38	7714.41
441.57	7845.48
441.75	7772.92
441.94	8070.17
442.12	7946.12
442.31	8301.88
442.50	8156.77
442.68	7892.29
442.87	8107.62
443.05	8173.15
443.24	8372.10
443.43	8283.16
443.61	8231.66
443.80	8589.77
443.98	8234.00
444.17	7955.48
444.35	8161.45
444.54	8622.53
444.73	8294.86
444.91	8273.79
445.10	8538.27
445.28	8475.08
445.47	8428.27
445.65	8397.84
445.84	8477.42
446.02	8688.07
446.21	8486.78
446.39	8458.70
446.58	8573.38
446.77	8573.38
446.95	8489.12
447.14	8498.49
447.32	8465.72
447.51	8538.27
447.69	8638.92
447.88	8468.06
448.06	8547.64
448.25	8613.17
448.43	8706.79
448.62	8643.60
448.80	8645.94
448.99	8596.79
449.17	8849.57
449.36	8769.99
449.54	9041.49
449.73	8975.95
449.91	9186.60
450.10	8868.29
450.28	9188.94
450.46	9128.09
450.65	9092.98
450.83	9364.48
451.02	9015.74
451.20	9460.45
451.39	9102.34
451.57	9139.79
451.76	9378.53
451.94	9121.07
452.13	9214.69
452.31	9376.19
452.49	9268.52
452.68	9355.12
452.86	9554.07
453.05	9383.21
453.23	9502.58
453.42	9434.70
453.60	9287.25
453.78	9530.66
453.97	9525.98
454.15	9582.15
454.34	9530.66
454.52	9692.16
454.70	9610.24
454.89	9760.03
455.07	9841.95
455.26	10008.13
455.44	10101.75
455.62	10153.24
455.81	10029.20
455.99	10174.31
456.17	10237.50
456.36	10286.65
456.54	10394.32
456.73	10256.23
456.91	10523.05
457.09	10340.49
457.28	10693.91
457.46	10501.98
457.64	10633.05
457.83	10619.01
458.01	10279.63
458.19	10710.29
458.38	10609.65
458.56	10911.58
458.74	10656.46
458.93	10651.78
459.11	10750.08
459.29	10829.66
459.48	10635.39
459.66	10824.98
459.84	10925.62
460.03	11030.94
460.21	11052.01
460.39	11164.36
460.57	11044.99
460.76	11000.52
460.94	11222.87
461.12	11225.21
461.31	11325.85
461.49	11176.06
461.67	11255.64
461.85	11445.22
462.04	11295.43
462.22	11894.60
462.40	11946.09
462.59	11630.12
462.77	11360.96
462.95	11665.23
463.13	11726.08
463.32	11751.83
463.50	11815.02
463.68	11946.09
463.86	12159.08
464.05	11910.99
464.23	11927.37
464.41	12063.12
464.59	11737.79
464.78	12074.82
464.96	12112.27
465.14	12025.67
465.32	12285.47
465.50	12229.30
465.69	12175.47
465.87	12191.85
466.05	12177.81
466.23	12343.99
466.41	12486.76
466.60	12521.87
466.78	12126.32
466.96	12442.29
467.14	12346.33
467.32	12606.13
467.51	12472.71
467.69	12252.70
467.87	12343.99
468.05	12578.04
468.23	12287.81
468.41	12650.60
468.60	12578.04
468.78	12908.05
468.96	12573.36
469.14	12968.91
469.32	13149.13
469.50	12908.05
469.69	12952.52
469.87	13071.89
470.05	13289.56
470.23	13350.42
470.41	13142.11
470.59	13483.83
470.77	13268.50
470.95	13355.10
471.14	13736.60
471.32	13401.91
471.50	13720.22
471.68	13781.07
471.86	13720.22
472.04	13977.68
472.22	14150.88
472.40	13949.59
472.58	13778.73
472.77	14134.50
472.95	14263.22
473.13	14958.36
473.31	14169.60
473.49	14394.29
473.67	14345.14
473.85	14588.56
474.03	14593.24
474.21	14614.30
474.39	14803.89
474.57	14902.19
474.75	14839.00
474.93	15393.70
475.12	15117.52
475.30	15325.83
475.48	15414.77
475.66	15367.96
475.84	15403.07
476.02	15747.12
476.20	15468.60
476.38	15761.17
476.56	16217.57
476.74	16112.25
476.92	16348.64
477.10	15960.11
477.28	16168.42
477.46	16280.77
477.64	16589.72
477.82	16575.67
478.00	17053.14
478.18	16994.63
478.36	16992.29
478.54	17289.54
478.72	17415.93
478.90	17621.89
479.08	17715.51
479.26	17830.20
479.44	17921.48
479.62	18298.31
479.80	18221.07
479.98	18679.82
480.16	18750.03
480.34	18459.81
480.52	18672.79
480.70	18813.23
480.88	18300.65
481.06	18686.84
481.24	18747.69
481.41	19304.74
481.59	19655.82
481.77	19555.18
481.95	19564.54
482.13	19910.94
482.31	19763.48
482.49	20830.77
482.67	20603.74
482.85	20896.30
483.03	20519.48
483.21	20884.60
483.39	21113.97
483.57	20924.39
483.74	21486.12
483.92	21284.83
484.10	21472.07
484.28	21701.45
484.46	22265.52
484.64	22640.00
484.82	21841.88
485.00	22558.08
485.18	22740.64
485.35	22946.61
485.53	23051.94
485.71	23101.09
485.89	24093.47
486.07	24027.94
486.25	23789.20
486.43	23939.00
486.61	24261.99
486.78	24149.65
486.96	24252.63
487.14	24776.91
487.32	24842.45
487.50	25008.62
487.68	25359.70
487.85	25469.71
488.03	25806.75
488.21	26560.40
488.39	26403.58
488.57	26609.55
488.75	26298.26
488.92	26476.14
489.10	27145.53
489.28	26960.63
489.46	27431.08
489.64	27105.74
489.81	28121.54
489.99	28034.94
490.17	27962.38
490.35	28776.89
490.53	28327.50
490.70	28690.29
490.88	28634.11
491.06	29118.60
491.24	29223.93
491.41	29057.75
491.59	29619.48
491.77	29687.36
491.95	29724.80
492.13	30410.58
492.30	30012.69
492.48	29933.11
492.66	30820.17
492.84	30771.02
493.01	31075.29
493.19	30857.62
493.37	31096.36
493.54	31833.63
493.72	31527.02
493.90	31981.08
494.08	32407.06
494.25	32343.86
494.43	32133.21
494.61	32458.55
494.79	32737.07
494.96	32818.99
495.14	33247.31
495.32	33666.27
495.49	33628.82
495.67	33329.23
495.85	33780.95
496.02	33921.38
496.20	34621.20
496.38	34415.24
496.55	34160.12
496.73	35372.52
496.91	34590.78
497.09	34944.20
497.26	35756.36
497.44	35208.68
497.62	35697.85
497.79	36547.47
497.97	35569.12
498.14	36318.09
498.32	36807.26
498.50	36479.59
498.67	37001.53
498.85	36896.20
499.03	37315.16
499.20	37198.13
499.38	36928.97
499.56	37177.07
499.73	38061.79
499.91	37567.94
500.08	38061.79
500.26	37640.50
500.44	38106.26
500.61	38511.17
500.79	38033.71
500.97	38389.47
501.14	39005.03
501.32	38911.41
501.49	39152.48
501.67	39325.68
501.84	39358.45
502.02	39023.75
502.20	39491.86
502.37	39330.36
502.55	39501.22
502.72	40123.80
502.90	40367.22
503.07	40219.77
503.25	40112.10
503.43	40369.56
503.60	40533.40
503.78	40240.83
503.95	40430.41
504.13	40954.69
504.30	40823.62
504.48	41305.77
504.65	41247.26
504.83	41331.52
505.01	41816.01
505.18	41462.59
505.36	41989.21
505.53	41787.92
505.71	41947.08
505.88	42541.58
506.06	42146.03
506.23	42071.13
506.41	42284.12
506.58	42408.17
506.76	42653.92
506.93	43007.34
507.11	42686.69
507.28	42974.58
507.46	43075.22
507.63	43480.13
507.81	43487.15
507.98	43304.59
508.16	43405.23
508.33	43983.35
508.50	43803.13
508.68	43702.48
508.85	44458.48
509.03	44168.25
509.20	44388.26
509.38	44669.12
509.55	44968.71
509.73	44779.13
509.90	44907.86
510.08	44879.77
510.25	44851.69
510.42	44821.26
510.60	45130.21
510.77	45525.76
510.95	45888.54
511.12	45422.78
511.30	45448.52
511.47	46206.86
511.64	45701.30
511.82	46237.28
511.99	45848.75
512.17	45944.72
512.34	46347.29
512.51	46691.35
512.69	46609.43
512.86	46555.60
513.04	47105.62
513.21	46822.42
513.38	47512.88
513.56	47398.19
513.73	47807.78
513.90	47332.65
514.08	47159.45
514.25	47620.54
514.43	47885.02
514.60	47971.62
514.77	47786.72
514.95	48083.97
515.12	48083.97
515.29	47758.63
515.47	48229.08
515.64	48692.50
515.81	48397.60
515.99	48851.66
516.16	48589.52
516.33	48762.72
516.51	49322.11
516.68	48587.18
516.85	48636.33
517.03	49317.43
517.20	49228.49
517.37	49120.82
517.54	49258.91
517.72	49528.08
517.89	49251.89
518.06	49443.82
518.24	49815.96
518.41	49619.36
518.58	49808.94
518.75	49631.06
518.93	49509.35
519.10	50080.44
519.27	49951.71
519.45	49989.16
519.62	50213.85
519.79	50389.39
519.96	50625.79
520.14	50635.15
520.31	50309.82
520.48	50939.42
520.65	50714.73
520.83	50653.87
521.00	50813.03
521.17	50780.26
521.34	50679.62
521.52	50796.65
521.69	50955.80
521.86	51505.83
522.03	51526.89
522.20	51496.47
522.38	52058.20
522.55	51676.69
522.72	52006.70
522.89	51601.79
523.07	52058.20
523.24	51873.29
523.41	52161.18
523.58	51936.49
523.75	52233.74
523.92	51913.08
524.10	51983.30
524.27	52369.49
524.44	52254.80
524.61	52390.55
524.78	52545.03
524.96	52334.38
525.13	52556.73
525.30	52910.15
525.47	53130.16
525.64	52701.84
525.81	53057.60
525.98	52835.25
526.16	52882.06
526.33	52891.43
526.50	53291.66
526.67	52987.39
526.84	53329.11
527.01	53118.46
527.18	53347.83
527.36	53389.96
527.53	53474.22
527.70	53631.04
527.87	53612.31
528.04	53364.21
528.21	53626.35
528.38	53668.48
528.55	53883.81
528.72	53481.24
528.89	53841.68
529.07	53537.41
529.24	53684.87
529.41	54157.66
529.58	54120.21
529.75	53801.89
529.92	53949.35
530.09	54155.32
530.26	54454.90
530.43	54674.91
530.60	54171.70
530.77	53914.24
530.94	54305.11
531.11	54241.92
531.28	54452.56
531.46	54497.03
531.63	54780.24
531.80	54017.22
531.97	54782.58
532.14	54843.43
532.31	54756.83
532.48	54937.05
532.65	54625.76
532.82	54855.14
532.99	55105.57
533.16	54768.54
533.33	55000.25
533.50	55285.79
533.67	55313.88
533.84	54958.12
534.01	55084.51
534.18	55358.35
534.35	55571.34
534.52	55421.55
534.69	55423.89
534.86	55559.64
535.03	55320.90
535.20	55264.73
535.37	55524.53
535.54	55664.96
535.71	55381.76
535.88	55774.97
536.05	55669.64
536.22	55667.30
536.38	55753.90
536.55	55847.52
536.72	55798.37
536.89	55920.08
537.06	56020.72
537.23	55894.33
537.40	55992.64
537.57	55833.48
537.74	56179.88
537.91	56463.08
538.08	56327.33
538.25	55945.83
538.42	55971.57
538.59	56271.16
538.75	56114.34
538.92	56163.50
539.09	56374.14
539.26	56453.72
539.43	56486.49
539.60	56273.50
539.77	56465.42
539.94	56655.01
540.11	56610.54
540.28	56846.93
540.44	56788.42
540.61	56563.73
540.78	56491.17
540.95	56619.90
541.12	56563.73
541.29	56573.09
541.46	56671.39
541.62	56804.80
541.79	57127.80
541.96	56736.93
542.13	56795.44
542.30	56729.90
542.47	56975.66
542.63	57186.31
542.80	57141.84
542.97	57134.82
543.14	57305.68
543.31	57687.18
543.48	57364.19
543.64	57532.71
543.81	57579.52
543.98	57584.20
544.15	57719.95
544.32	57733.99
544.48	57993.79
544.65	57446.11
544.82	57733.99
544.99	57504.62
545.16	57689.52
545.32	57745.70
545.49	57930.60
545.66	58171.67
545.83	57701.23
546.00	58056.99
546.16	57787.83
546.33	57989.11
546.50	57829.96
546.67	57923.58
546.83	57886.13
547.00	57970.39
547.17	57989.11
547.34	58225.51
547.50	58096.78
547.67	58291.04
547.84	58312.11
548.00	58459.56
548.17	58337.85
548.34	58309.77
548.51	58710.00
548.67	58452.54
548.84	58382.32
549.01	58368.28
549.18	58504.03
549.34	58342.53
549.51	58501.69
549.68	58628.08
549.84	58583.61
550.01	58644.46
550.18	58548.50
550.34	58621.06
550.51	58766.17
550.68	58784.90
550.84	58651.48
551.01	59075.12
551.18	58791.92
551.34	58892.56
551.51	58958.09
551.68	58939.37
551.84	58677.23
552.01	59007.25
552.18	59016.61
552.34	58878.52
552.51	58983.84
552.68	58712.34
552.84	58855.11
553.01	59318.54
553.18	59047.04
553.34	59030.65
553.51	59124.27
553.67	58995.54
553.84	59238.96
554.01	59309.18
554.17	59217.89
554.34	59180.45
554.51	59079.80
554.67	59297.47
554.84	58920.65
555.00	59082.14
555.17	59196.83
555.33	59430.88
555.50	59180.45
555.67	58988.52
555.83	59119.59
556.00	59318.54
556.16	59611.10
556.33	59737.49
556.50	59414.50
556.66	59753.88
556.83	59363.01
556.99	59739.83
557.16	59613.44
557.32	59592.38
557.49	60016.02
557.65	59676.64
557.82	59700.04
557.98	59599.40
558.15	59540.89
558.32	59522.16
558.48	59526.84
558.65	59538.55
558.81	59508.12
558.98	59842.82
559.14	59985.59
559.31	59945.80
559.47	59924.74
559.64	59952.82
559.80	59976.23
559.97	59971.55
560.13	60053.47
560.30	60177.51
560.46	60072.19
560.63	59994.95
560.79	60060.49
560.96	60140.07
561.12	59906.01
561.29	60177.51
561.45	60088.57
561.61	59990.27
561.78	59856.86
561.94	59955.16
562.11	60182.19
562.27	60123.68
562.44	60329.65
562.60	60261.77
562.77	60189.22
562.93	60020.70
563.10	60273.48
563.26	60067.51
563.42	60608.17
563.59	60444.33
563.75	60383.48
563.92	60259.43
564.08	60243.05
564.24	60470.08
564.41	60381.14
564.57	60507.53
564.74	60331.99
564.90	60526.25
565.07	60317.95
565.23	60425.61
565.39	60472.42
565.56	60322.63
565.72	60200.92
565.88	60549.66
566.05	60488.80
566.21	60357.74
566.38	60509.87
566.54	60484.12
566.70	60500.51
566.87	60512.21
567.03	60388.16
567.19	60830.52
567.36	60769.67
567.52	60432.63
567.68	60832.86
567.85	60666.69
568.01	60846.91
568.17	60317.95
568.34	60807.12
568.50	60598.81
568.66	60446.68
568.83	60659.66
568.99	60594.13
569.15	60636.26
569.32	60694.77
569.48	60715.84
569.64	60788.39
569.81	60521.57
569.97	60566.04
570.13	60662.00
570.30	60678.39
570.46	60842.23
570.62	60697.11
570.78	60779.03
570.95	60718.18
571.11	60949.89
571.27	60769.67
571.43	60729.88
571.60	60891.38
571.76	60713.50
571.92	60872.65
572.09	60879.67
572.25	60832.86
572.41	60807.12
572.57	60704.13
572.74	61113.73
572.90	60786.05
573.06	60898.40
573.22	60753.29
573.38	60804.78
573.55	60804.78
573.71	61092.66
573.87	61010.74
574.03	60725.20
574.20	60872.65
574.36	60669.03
574.52	60858.61
574.68	60985.00
574.84	61001.38
575.01	60921.80
575.17	60842.23
575.33	60853.93
575.49	60762.65
575.65	61073.94
575.82	60860.95
575.98	61179.26
576.14	61099.68
576.30	61387.57
576.46	60933.51
576.62	61041.17
576.79	60924.14
576.95	60921.80
577.11	60966.27
577.27	61041.17
577.43	61041.17
577.59	60889.04
577.75	61006.06
577.92	60748.60
578.08	60893.72
578.24	60949.89
578.40	61282.25
578.56	61076.28
578.72	60968.61
578.88	61251.82
579.04	61230.75
579.21	61190.97
579.37	61305.65
579.53	61387.57
579.69	60654.98
579.85	61109.05
580.01	61090.32
580.17	61059.90
580.33	61167.56
580.49	61240.12
580.65	61261.18
580.82	60956.91
580.98	61078.62
581.14	60996.70
581.30	61141.81
581.46	60982.66
581.62	61282.25
581.78	61258.84
581.94	61200.33
582.10	60985.00
582.26	61085.64
582.42	60954.57
582.58	61141.81
582.74	61169.90
582.90	61038.83
583.06	61130.11
583.22	61106.71
583.38	61247.14
583.54	61240.12
583.70	61375.87
583.86	61137.13
584.02	61062.24
584.18	61284.59
584.34	61104.37
584.50	61181.60
584.66	61158.20
584.82	60926.49
584.98	61258.84
585.14	61251.82
585.30	61148.84
585.46	61207.35
585.62	61226.07
585.78	61410.98
585.94	61090.32
586.10	61270.54
586.26	61237.78
586.42	61160.54
586.58	61389.91
586.74	61104.37
586.90	61160.54
587.06	61293.95
587.22	61310.33
587.38	61212.03
587.54	61516.30
587.70	61228.41
587.86	61385.23
588.02	61375.87
588.18	61373.53
588.34	61116.07
588.49	61237.78
