SpectraSuite Data File
++++++++++++++++++++++++++++++++++++
Date: Fri Oct 25 10:47:02 EDT 2013
User: price-jones
Dark Spectrum Present: No
Reference Spectrum Present: No
Number of Sampled Component Spectra: 1
Spectrometers: USB2+H05261
Integration Time (usec): 100000 (USB2+H05261)
Spectra Averaged: 1 (USB2+H05261)
Boxcar Smoothing: 0 (USB2+H05261)
Correct for Electrical Dark: No (USB2+H05261)
Strobe/Lamp Enabled: No (USB2+H05261)
Correct for Detector Non-linearity: No (USB2+H05261)
Correct for Stray Light: No (USB2+H05261)
Number of Pixels in Processed Spectrum: 2048
>>>>>Begin Processed Spectral Data<<<<<
365.73	117.03
365.92	117.03
366.12	117.03
366.32	74.90
366.52	42.13
366.72	93.62
366.91	0.00
367.11	56.17
367.31	2.34
367.51	14.04
367.70	9.36
367.90	65.54
368.10	93.62
368.30	37.45
368.49	18.72
368.69	0.00
368.89	58.51
369.09	49.15
369.28	63.19
369.48	142.77
369.68	56.17
369.87	102.98
370.07	145.11
370.27	161.50
370.47	255.12
370.66	402.57
370.86	393.21
371.06	507.90
371.25	484.49
371.45	454.06
371.65	489.17
371.84	428.32
372.04	470.45
372.24	521.94
372.44	486.83
372.63	477.47
372.83	489.17
373.03	465.77
373.22	498.53
373.42	468.11
373.62	526.62
373.81	500.87
374.01	528.96
374.21	596.84
374.40	535.98
374.60	510.24
374.79	608.54
374.99	599.18
375.19	580.45
375.38	653.01
375.58	615.56
375.78	557.05
375.97	615.56
376.17	664.71
376.37	592.16
376.56	538.32
376.76	585.13
376.95	521.94
377.15	613.22
377.35	603.86
377.54	655.35
377.74	629.60
377.93	669.39
378.13	667.05
378.33	634.29
378.52	631.94
378.72	622.58
378.91	641.31
379.11	594.50
379.31	678.76
379.50	585.13
379.70	657.69
379.89	739.61
380.09	685.78
380.28	603.86
380.48	641.31
380.68	667.05
380.87	676.41
381.07	697.48
381.26	655.35
381.46	631.94
381.65	744.29
381.85	711.52
382.04	767.70
382.24	690.46
382.43	645.99
382.63	748.97
382.83	760.67
383.02	737.27
383.22	699.82
383.41	763.01
383.61	765.36
383.80	704.50
384.00	688.12
384.19	760.67
384.39	723.23
384.58	816.85
384.78	755.99
384.97	830.89
385.17	725.57
385.36	788.76
385.56	716.20
385.75	791.10
385.95	809.83
386.14	734.93
386.34	774.72
386.53	805.14
386.72	866.00
386.92	767.70
387.11	840.25
387.31	844.93
387.50	884.72
387.70	915.15
387.89	917.49
388.09	833.23
388.28	837.91
388.48	858.98
388.67	866.00
388.86	926.85
389.06	847.27
389.25	856.64
389.45	978.34
389.64	880.04
389.84	898.77
390.03	959.62
390.22	966.64
390.42	978.34
390.61	926.85
390.81	954.94
391.00	880.04
391.19	1062.60
391.39	999.41
391.58	1025.15
391.78	1027.50
391.97	915.15
392.16	950.26
392.36	938.55
392.55	976.00
392.75	1036.86
392.94	1022.81
393.13	1046.22
393.33	915.15
393.52	1008.77
393.71	1034.52
393.91	1029.84
394.10	1078.99
394.29	1100.05
394.49	1097.71
394.68	1158.57
394.88	1071.97
395.07	1102.39
395.26	1125.80
395.46	1107.07
395.65	1156.22
395.84	1118.78
396.04	1280.27
396.23	1153.88
396.42	1062.60
396.62	1196.01
396.81	1184.31
397.00	1179.63
397.19	1224.10
397.39	1221.76
397.58	1167.93
397.77	1259.21
397.97	1254.53
398.16	1376.24
398.35	1317.72
398.55	1252.19
398.74	1380.92
398.93	1364.53
399.12	1390.28
399.32	1357.51
399.51	1483.90
399.70	1397.30
399.90	1390.28
400.09	1523.69
400.28	1465.18
400.47	1460.49
400.67	1481.56
400.86	1383.26
401.05	1537.73
401.24	1448.79
401.44	1591.56
401.63	1519.01
401.82	1565.82
402.01	1507.30
402.21	1535.39
402.40	1626.67
402.59	1589.22
402.78	1661.78
402.97	1666.46
403.17	1598.59
403.36	1589.22
403.55	1624.33
403.74	1741.36
403.93	1607.95
404.13	1750.72
404.32	1657.10
404.51	1645.40
404.70	1837.32
404.89	1743.70
405.09	1715.61
405.28	1839.66
405.47	1781.15
405.66	1809.23
405.85	1820.94
406.05	1809.23
406.24	1881.79
406.43	1792.85
406.62	1881.79
406.81	1872.43
407.00	2001.16
407.20	1818.60
407.39	1982.43
407.58	1923.92
407.77	1954.35
407.96	2069.03
408.15	2019.88
408.34	2078.40
408.54	2059.67
408.73	2092.44
408.92	2143.93
409.11	2008.18
409.30	2150.95
409.49	2101.80
409.68	2097.12
409.87	2193.08
410.07	2134.57
410.26	2150.95
410.45	2179.04
410.64	2172.02
410.83	2359.26
411.02	2244.57
411.21	2373.30
411.40	2331.17
411.59	2471.61
411.78	2373.30
411.98	2354.58
412.17	2455.22
412.36	2441.18
412.55	2511.39
412.74	2495.01
412.93	2544.16
413.12	2345.22
413.31	2623.74
413.50	2499.69
413.69	2588.63
413.88	2642.46
414.07	2661.19
414.26	2661.19
414.45	2700.98
414.64	2841.41
414.83	2792.26
415.02	2761.83
415.22	2890.56
415.41	2782.90
415.60	2818.00
415.79	2834.39
415.98	3033.33
416.17	3047.38
416.36	2864.82
416.55	2939.71
416.74	3009.93
416.93	2972.48
417.12	2986.52
417.31	3059.08
417.50	3070.78
417.69	3150.36
417.88	3236.96
418.07	3112.91
418.26	3141.00
418.45	3089.51
418.64	3276.75
418.83	3236.96
419.02	3325.90
419.21	3258.03
419.39	3295.47
419.58	3246.32
419.77	3276.75
419.96	3421.86
420.15	3351.65
420.34	3246.32
420.53	3405.48
420.72	3566.98
420.91	3508.46
421.10	3534.21
421.29	3630.17
421.48	3361.01
421.67	3545.91
421.86	3557.61
422.05	3503.78
422.24	3531.87
422.43	3545.91
422.61	3569.32
422.80	3684.00
422.99	3574.00
423.18	3637.19
423.37	3672.30
423.56	3578.68
423.75	3581.02
423.94	3669.96
424.13	3473.36
424.32	3330.58
424.50	3599.74
424.69	3616.13
424.88	3726.13
425.07	3634.85
425.26	3620.81
425.45	3590.38
425.64	3698.05
425.83	3658.26
426.01	3688.68
426.20	3712.09
426.39	3730.81
426.58	3702.73
426.77	3775.28
426.96	3658.26
427.15	3796.35
427.33	3719.11
427.52	3702.73
427.71	3784.65
427.90	3990.61
428.09	3798.69
428.28	3833.80
428.46	3887.63
428.65	3953.16
428.84	3929.76
429.03	4002.32
429.22	3707.41
429.40	3887.63
429.59	3918.06
429.78	3702.73
429.97	3765.92
430.16	3775.28
430.34	3864.22
430.53	3829.12
430.72	3927.42
430.91	3957.85
431.10	3957.85
431.28	4217.65
431.47	4173.18
431.66	4306.59
431.85	4131.05
432.03	4252.75
432.22	4332.33
432.41	4318.29
432.60	4383.82
432.79	4414.25
432.97	4369.78
433.16	4344.03
433.35	4276.16
433.54	4290.20
433.72	4423.61
433.91	4351.06
434.10	4461.06
434.28	4402.55
434.47	4589.79
434.66	4393.19
434.85	4477.44
435.03	4650.64
435.22	4411.91
435.41	4730.22
435.59	4692.77
435.78	4674.05
435.97	4819.16
436.16	4706.82
436.34	4676.39
436.53	4781.71
436.72	4861.29
436.90	4678.73
437.09	4828.53
437.28	4720.86
437.46	4837.89
437.65	4660.01
437.84	4922.15
438.02	4690.43
438.21	4720.86
438.40	4709.16
438.58	5027.47
438.77	4961.94
438.96	5001.72
439.14	5078.96
439.33	5228.76
439.52	5252.16
439.70	5214.71
439.89	5151.52
440.08	5198.33
440.26	5200.67
440.45	5341.10
440.63	5369.19
440.82	5460.47
441.01	5584.52
441.19	5462.81
441.38	5591.54
441.57	5738.99
441.75	5769.42
441.94	5802.19
442.12	5795.17
442.31	5888.79
442.50	5806.87
442.68	5846.66
442.87	5771.76
443.05	5912.19
443.24	5947.30
443.43	6012.84
443.61	6057.31
443.80	6085.39
443.98	5856.02
444.17	5589.20
444.35	5905.17
444.54	6066.67
444.73	6003.47
444.91	6008.16
445.10	6015.18
445.28	5851.34
445.47	5832.62
445.65	5846.66
445.84	6164.97
446.02	6141.57
446.21	6143.91
446.39	5914.53
446.58	6218.80
446.77	6190.72
446.95	6171.99
447.14	6286.68
447.32	6155.61
447.51	6148.59
447.69	6239.87
447.88	6293.70
448.06	6101.78
448.25	6298.38
448.43	6246.89
448.62	6169.65
448.80	6057.31
448.99	6291.36
449.17	6415.41
449.36	6141.57
449.54	6333.49
449.73	6560.52
449.91	6612.01
450.10	6555.84
450.28	6565.20
450.46	6766.49
450.65	6597.97
450.83	6619.04
451.02	6527.75
451.20	6576.91
451.39	6736.06
451.57	6506.69
451.76	6731.38
451.94	6729.04
452.13	6820.32
452.31	6703.29
452.49	6445.84
452.68	6682.23
452.86	6637.76
453.05	6778.19
453.23	6775.85
453.42	6675.21
453.60	6710.32
453.78	6853.09
453.97	6647.12
454.15	6710.32
454.34	6874.15
454.52	6736.06
454.70	6892.88
454.89	6998.20
455.07	6848.41
455.26	7232.26
455.44	7150.34
455.62	6970.12
455.81	7115.23
455.99	7138.63
456.17	7241.62
456.36	7162.04
456.54	7117.57
456.73	7288.43
456.91	7365.67
457.09	7403.11
457.28	7616.10
457.46	7634.83
457.64	7517.80
457.83	7482.69
458.01	7321.20
458.19	7524.82
458.38	7297.79
458.56	7655.89
458.74	7847.82
458.93	7688.66
459.11	7812.71
459.29	7777.60
459.48	7653.55
459.66	7683.98
459.84	7805.69
460.03	7861.86
460.21	7831.43
460.39	7850.16
460.57	7840.79
460.76	7796.32
460.94	8051.44
461.12	8077.19
461.31	7955.48
461.49	8004.63
461.67	8004.63
461.85	8142.72
462.04	7967.18
462.22	8664.66
462.40	8219.96
462.59	8198.90
462.77	8065.49
462.95	8205.92
463.13	8093.57
463.32	8318.26
463.50	8379.12
463.68	8414.23
463.86	8322.94
464.05	8393.16
464.23	8243.37
464.41	8308.90
464.59	8219.96
464.78	8549.98
464.96	8369.76
465.14	8297.20
465.32	8344.01
465.50	8802.75
465.69	8589.77
465.87	8650.62
466.05	8545.30
466.23	8575.72
466.41	8585.08
466.60	8669.34
466.78	8571.04
466.96	8669.34
467.14	8760.63
467.32	8748.92
467.51	8788.71
467.69	8383.80
467.87	8594.45
468.05	8936.17
468.23	8826.16
468.41	8718.50
468.60	8863.61
468.78	9088.30
468.96	8727.86
469.14	8992.34
469.32	9160.86
469.50	8784.03
469.69	9008.72
469.87	9069.58
470.05	9334.06
470.23	9195.96
470.41	9085.96
470.59	9465.13
470.77	9123.41
470.95	9249.80
471.14	9448.74
471.32	9266.18
471.50	9408.95
471.68	9591.52
471.86	9598.54
472.04	9556.41
472.22	9851.31
472.40	9633.64
472.58	9738.97
472.77	9680.46
472.95	9898.13
473.13	10267.93
473.31	9872.38
473.49	9813.87
473.67	9745.99
473.85	9966.00
474.03	10186.01
474.21	10214.10
474.39	10338.15
474.57	10377.94
474.75	10342.83
474.93	10562.84
475.12	10509.01
475.30	10551.14
475.48	10441.13
475.66	10649.44
475.84	10340.49
476.02	10679.86
476.20	10630.71
476.38	10916.26
476.56	10960.73
476.74	11185.42
476.92	11023.92
477.10	11250.96
477.28	11115.20
477.46	11094.14
477.64	11365.64
477.82	11590.33
478.00	11627.78
478.18	11681.61
478.36	11861.84
478.54	11838.43
478.72	11798.64
478.90	12126.32
479.08	12053.76
479.26	12194.19
479.44	12224.62
479.62	12318.24
479.80	12259.73
479.98	12353.35
480.16	12772.30
480.34	12674.00
480.52	12725.49
480.70	12868.27
480.88	12915.08
481.06	12746.56
481.24	13050.83
481.41	13221.69
481.59	13458.08
481.77	13336.37
481.95	13437.02
482.13	13626.60
482.31	13486.17
482.49	13905.12
482.67	14003.43
482.85	14003.43
483.03	14221.10
483.21	14127.47
483.39	14569.83
483.57	14324.08
483.74	14583.88
483.92	14792.19
484.10	14410.68
484.28	14707.93
484.46	14916.23
484.64	15094.11
484.82	14967.73
485.00	15138.58
485.18	15501.37
485.35	15257.95
485.53	15295.40
485.71	15250.93
485.89	15653.50
486.07	15805.64
486.25	15810.32
486.43	15798.62
486.61	16128.63
486.78	16233.96
486.96	16561.63
487.14	16627.17
487.32	16262.04
487.50	17106.98
487.68	16982.93
487.85	17193.58
488.03	17390.18
488.21	17369.12
488.39	17617.21
488.57	17612.53
488.75	17708.49
488.92	17771.69
489.10	18010.42
489.28	18085.32
489.46	18485.55
489.64	18317.03
489.81	18665.77
489.99	18757.05
490.17	18953.66
490.35	18771.10
490.53	19080.05
490.70	19257.93
490.88	19157.28
491.06	19742.42
491.24	19569.22
491.41	19609.01
491.59	19742.42
491.77	19616.03
491.95	19831.36
492.13	20177.76
492.30	20262.02
492.48	20269.04
492.66	20720.76
492.84	20346.28
493.01	20908.01
493.19	20783.96
493.37	20840.13
493.54	20940.77
493.72	21404.20
493.90	21434.63
494.08	21678.04
494.25	21493.14
494.43	21902.73
494.61	21867.63
494.79	22089.98
494.96	21921.46
495.14	21872.31
495.32	22097.00
495.49	22097.00
495.67	22307.65
495.85	22462.12
496.02	22682.13
496.20	22930.23
496.38	22937.25
496.55	22974.70
496.73	23527.06
496.91	22970.02
497.09	23323.44
497.26	23634.73
497.44	23185.35
497.62	23906.23
497.79	23978.79
497.97	23864.10
498.14	24046.66
498.32	24304.12
498.50	23779.84
498.67	24741.80
498.85	24596.69
499.03	24826.06
499.20	24589.67
499.38	25095.22
499.56	24978.20
499.73	24812.02
499.91	25013.31
500.08	24919.68
500.26	25022.67
500.44	24982.88
500.61	25060.12
500.79	25198.21
500.97	25617.16
501.14	25596.10
501.32	25680.36
501.49	25348.00
501.67	25596.10
501.84	25937.82
502.02	25881.64
502.20	26190.59
502.37	26380.18
502.55	26419.97
502.72	26281.88
502.90	26663.38
503.07	26384.86
503.25	26747.64
503.43	26513.59
503.60	26508.91
503.78	26670.40
503.95	26780.41
504.13	26867.01
504.30	27094.04
504.48	26986.38
504.65	27250.86
504.83	27887.48
505.01	27920.25
505.18	28030.26
505.36	27601.94
505.53	27630.02
505.71	27903.87
505.88	27915.57
506.06	27908.55
506.23	27967.06
506.41	27742.37
506.58	28187.07
506.76	28154.30
506.93	28446.87
507.11	28266.65
507.28	28584.96
507.46	28439.85
507.63	28442.19
507.81	29071.79
507.98	28311.12
508.16	28690.29
508.33	28914.98
508.50	29181.80
508.68	29345.64
508.85	29717.78
509.03	29617.14
509.20	29282.44
509.38	29413.51
509.55	29509.47
509.73	29839.49
509.90	30040.78
510.08	29256.70
510.25	30082.91
510.42	30008.01
510.60	30272.49
510.77	30209.29
510.95	30426.96
511.12	30260.79
511.30	30499.52
511.47	30384.83
511.64	30735.92
511.82	30284.19
511.99	30150.78
512.17	30714.85
512.34	30628.25
512.51	30803.79
512.69	31108.06
512.86	31243.81
513.04	31337.43
513.21	31194.66
513.38	31393.61
513.56	31356.16
513.73	31159.55
513.90	31388.92
514.08	31634.68
514.25	31435.74
514.43	31548.08
514.60	31952.99
514.77	31845.33
514.95	31747.03
515.12	31798.52
515.29	31805.54
515.47	32158.96
515.64	32098.11
515.81	32081.72
515.99	32376.63
516.16	32034.91
516.33	32364.93
516.51	32409.40
516.68	32168.32
516.85	31674.47
517.03	32514.72
517.20	32559.19
517.37	32650.47
517.54	33036.66
517.72	32727.71
517.89	32713.67
518.06	32500.68
518.24	33050.70
518.41	33106.88
518.58	32945.38
518.75	32907.93
518.93	33235.61
519.10	33378.38
519.27	33518.81
519.45	33207.52
519.62	33591.37
519.79	33591.37
519.96	33982.24
520.14	34216.29
520.31	33846.49
520.48	33879.25
520.65	33584.35
520.83	34199.91
521.00	34064.16
521.17	34515.88
521.34	34579.07
521.52	34558.01
521.69	34518.22
521.86	34918.45
522.03	34345.02
522.20	34897.39
522.38	34799.08
522.55	34668.02
522.72	34983.99
522.89	34649.29
523.07	34567.37
523.24	35136.12
523.41	34794.40
523.58	34991.01
523.75	35817.22
523.92	35508.27
524.10	35655.72
524.27	36224.47
524.44	35796.15
524.61	35868.71
524.78	35594.87
524.96	35861.69
525.13	35955.31
525.30	36353.20
525.47	36102.76
525.64	36027.87
525.81	36318.09
525.98	36053.61
526.16	35782.11
526.33	35861.69
526.50	36072.34
526.67	35765.73
526.84	36044.25
527.01	35629.98
527.18	36320.43
527.36	36650.45
527.53	36823.65
527.70	37031.96
527.87	36800.24
528.04	36844.71
528.21	36910.25
528.38	37226.22
528.55	37078.77
528.72	37095.15
528.89	37153.66
529.07	37125.58
529.24	37186.43
529.41	37031.96
529.58	36959.40
529.75	37254.31
529.92	37310.48
530.09	37696.67
530.26	37579.64
530.43	37858.17
530.60	37525.81
530.77	37560.92
530.94	38242.01
531.11	37467.30
531.28	38078.18
531.46	38117.96
531.63	38246.69
531.80	37855.82
531.97	38220.95
532.14	38319.25
532.31	37614.75
532.48	38087.54
532.65	37975.19
532.82	38120.31
532.99	38588.41
533.16	37839.44
533.33	37919.02
533.50	38377.76
533.67	38532.24
533.84	38424.57
534.01	38586.07
534.18	38778.00
534.35	38885.66
534.52	38359.04
534.69	38864.60
534.86	38918.43
535.03	38742.89
535.20	39297.59
535.37	39601.86
535.54	38983.96
535.71	39009.71
535.88	39227.38
536.05	39122.05
536.22	39349.09
536.38	39344.41
536.55	39395.90
536.72	39447.39
536.89	38363.72
537.06	39077.58
537.23	39337.38
537.40	39313.98
537.57	39405.26
537.74	39765.70
537.91	39651.02
538.08	40109.76
538.25	39393.56
538.42	39510.58
538.59	39428.66
538.75	39463.77
538.92	39473.13
539.09	40037.20
539.26	39908.47
539.43	40074.65
539.60	40140.19
539.77	39915.50
539.94	40002.10
540.11	39854.64
540.28	39775.06
540.44	40172.96
540.61	40126.14
540.78	40072.31
540.95	40280.62
541.12	40105.08
541.29	39662.72
541.46	40547.44
541.62	40533.40
541.79	40666.81
541.96	40095.72
542.13	40500.63
542.30	40638.72
542.47	40627.02
542.63	40449.14
542.80	40535.74
542.97	41361.95
543.14	41177.04
543.31	40844.69
543.48	41088.10
543.64	41727.07
543.81	41340.88
543.98	41322.16
544.15	41205.13
544.32	41343.22
544.48	41404.08
544.65	41621.75
544.82	41631.11
544.99	41085.76
545.16	41532.81
545.32	41258.96
545.49	42078.15
545.66	41474.29
545.83	41528.13
546.00	41991.55
546.16	41680.26
546.33	41607.70
546.50	41244.92
546.67	41900.27
546.83	41626.43
547.00	42040.70
547.17	41656.85
547.34	41949.42
547.50	41977.51
547.67	42265.39
547.84	42354.33
548.00	42452.64
548.17	42476.04
548.34	42064.11
548.51	42433.91
548.67	42267.73
548.84	42349.65
549.01	42169.43
549.18	42241.99
549.34	42637.54
549.51	42679.67
549.68	42389.44
549.84	42490.09
550.01	42700.73
550.18	42075.81
550.34	42703.07
550.51	42637.54
550.68	42447.96
550.84	42326.25
551.01	42810.74
551.18	42925.42
551.34	42635.20
551.51	42618.81
551.68	42911.38
551.84	42569.66
552.01	42696.05
552.18	42639.88
552.34	42625.84
552.51	43105.65
552.68	43049.47
552.84	42983.94
553.01	43358.42
553.18	43159.48
553.34	43180.54
553.51	42911.38
553.67	43564.39
553.84	43803.13
554.01	43365.45
554.17	43496.52
554.34	43313.95
554.51	43842.92
554.67	43667.37
554.84	43892.07
555.00	43346.72
555.17	42948.83
555.33	43501.20
555.50	43459.07
555.67	43873.34
555.83	43768.02
556.00	43445.02
556.16	43704.82
556.33	44095.69
556.50	43578.43
556.66	43962.28
556.83	43510.56
556.99	43985.69
557.16	43468.43
557.32	43871.00
557.49	43871.00
557.65	43466.09
557.82	43868.66
557.98	43550.35
558.15	44095.69
558.32	43791.42
558.48	43751.63
558.65	44147.18
558.81	44116.76
558.98	43683.76
559.14	43814.83
559.31	43718.87
559.47	44210.38
559.64	44175.27
559.80	44053.56
559.97	44250.17
560.13	43985.69
560.30	43885.04
560.46	44100.37
560.63	43796.10
560.79	44456.14
560.96	44074.63
561.12	44165.91
561.29	44278.25
561.45	44184.63
561.61	44240.81
561.78	44091.01
561.94	44205.70
562.11	44383.58
562.27	43927.17
562.44	43852.28
562.60	44678.49
562.77	44500.61
562.93	44079.31
563.10	44376.56
563.26	44406.98
563.42	44367.20
563.59	44488.90
563.75	44526.35
563.92	44737.00
564.08	44722.96
564.24	44758.06
564.41	44339.11
564.57	44605.93
564.74	44760.40
564.90	44521.67
565.07	44252.51
565.23	44659.76
565.39	44601.25
565.56	44865.73
565.72	44374.22
565.88	44751.04
566.05	44669.12
566.21	44430.39
566.38	44748.70
566.54	44774.45
566.70	45118.51
566.87	45092.76
567.03	44769.77
567.19	44545.08
567.36	44535.71
567.52	44540.39
567.68	45064.67
567.85	44720.62
568.01	44591.89
568.17	44516.99
568.34	44596.57
568.50	44898.50
568.66	44409.32
568.83	45165.32
568.99	44554.44
569.15	44879.77
569.32	44858.71
569.48	44830.62
569.64	45064.67
569.81	45118.51
569.97	44671.46
570.13	44737.00
570.30	44622.31
570.46	44346.13
570.62	44697.21
570.78	44783.81
570.95	45069.36
571.11	45287.03
571.27	44765.09
571.43	44453.79
571.60	44994.46
571.76	44921.90
571.92	45188.72
572.09	44835.30
572.25	44526.35
572.41	44626.99
572.57	45120.85
572.74	45333.84
572.90	44898.50
573.06	44935.95
573.22	44580.18
573.38	44659.76
573.55	44601.25
573.71	45317.45
573.87	44725.30
574.03	45013.18
574.20	44779.13
574.36	44975.73
574.52	45345.54
574.68	45247.24
574.84	45134.89
575.01	45116.17
575.17	44872.75
575.33	44931.26
575.49	45118.51
575.65	45404.05
575.82	45085.74
575.98	44992.12
576.14	45448.52
576.30	45069.36
576.46	45003.82
576.62	44842.32
576.79	44980.42
576.95	45251.92
577.11	45237.87
577.27	45237.87
577.43	45069.36
577.59	45010.84
577.75	45195.74
577.92	44839.98
578.08	45125.53
578.24	45242.56
578.40	45074.04
578.56	45076.38
578.72	44800.19
578.88	45287.03
579.04	45420.44
579.21	45448.52
579.37	44870.41
579.53	44676.15
579.69	44655.08
579.85	45020.20
580.01	45134.89
580.17	45137.23
580.33	44861.05
580.49	45205.11
580.65	45258.94
580.82	45284.68
580.98	45310.43
581.14	45062.33
581.30	45469.59
581.46	44666.78
581.62	45343.20
581.78	45102.12
581.94	45305.75
582.10	45380.65
582.26	45495.33
582.42	45221.49
582.58	45605.34
582.74	45034.25
582.90	45504.70
583.06	45113.83
583.22	45226.17
583.38	45757.47
583.54	45237.87
583.70	45118.51
583.86	44861.05
584.02	45071.70
584.18	44758.06
584.34	45141.91
584.50	45123.19
584.66	45333.84
584.82	45301.07
584.98	45347.88
585.14	45134.89
585.30	45109.14
585.46	45071.70
585.62	45010.84
585.78	45371.28
585.94	44999.14
586.10	44788.49
586.26	45139.57
586.42	45233.19
586.58	45310.43
586.74	45500.01
586.90	45134.89
587.06	44748.70
587.22	45249.58
587.38	44657.42
587.54	45502.35
587.70	45612.36
587.86	45577.25
588.02	45392.35
588.18	45539.80
588.34	44952.33
588.49	44914.88
588.65	44807.22
588.81	44755.72
588.97	44966.37
589.13	44428.05
589.29	45165.32
589.45	45361.92
589.61	44758.06
589.77	45790.24
589.93	45603.00
590.08	45425.12
590.24	45925.99
