SpectraSuite Data File
++++++++++++++++++++++++++++++++++++
Date: Fri Oct 25 11:23:55 EDT 2013
User: price-jones
Dark Spectrum Present: No
Reference Spectrum Present: No
Number of Sampled Component Spectra: 1
Spectrometers: USB2+H05261
Integration Time (usec): 100000 (USB2+H05261)
Spectra Averaged: 1 (USB2+H05261)
Boxcar Smoothing: 0 (USB2+H05261)
Correct for Electrical Dark: No (USB2+H05261)
Strobe/Lamp Enabled: No (USB2+H05261)
Correct for Detector Non-linearity: No (USB2+H05261)
Correct for Stray Light: No (USB2+H05261)
Number of Pixels in Processed Spectrum: 2048
>>>>>Begin Processed Spectral Data<<<<<
365.73	159.16
365.92	159.16
366.12	159.16
366.32	177.88
366.52	142.77
366.72	145.11
366.91	114.69
367.11	152.13
367.31	166.18
367.51	131.07
367.70	93.62
367.90	145.11
368.10	93.62
368.30	100.64
368.49	138.09
368.69	229.37
368.89	175.54
369.09	114.69
369.28	212.99
369.48	112.35
369.68	222.35
369.87	189.58
370.07	205.97
370.27	229.37
370.47	344.06
370.66	648.33
370.86	601.52
371.06	608.54
371.25	702.16
371.45	580.45
371.65	718.54
371.84	669.39
372.04	678.76
372.24	777.06
372.44	699.82
372.63	730.25
372.83	781.74
373.03	683.44
373.22	767.70
373.42	739.61
373.62	706.84
373.81	716.20
374.01	816.85
374.21	887.06
374.40	812.17
374.60	816.85
374.79	791.10
374.99	849.61
375.19	795.78
375.38	821.53
375.58	779.40
375.78	798.12
375.97	777.06
376.17	837.91
376.37	938.55
376.56	926.85
376.76	875.36
376.95	851.96
377.15	917.49
377.35	833.23
377.54	901.11
377.74	938.55
377.93	826.21
378.13	922.17
378.33	957.28
378.52	908.13
378.72	945.58
378.91	954.94
379.11	833.23
379.31	931.53
379.50	917.49
379.70	1006.43
379.89	964.30
380.09	919.83
380.28	908.13
380.48	894.08
380.68	1025.15
380.87	992.39
381.07	959.62
381.26	985.37
381.46	983.02
381.65	1060.26
381.85	1062.60
382.04	957.28
382.24	1006.43
382.43	1074.31
382.63	1076.65
382.83	1116.44
383.02	1041.54
383.22	1100.05
383.41	1057.92
383.61	1135.16
383.80	1137.50
384.00	1086.01
384.19	1090.69
384.39	1151.54
384.58	1172.61
384.78	1107.07
384.97	1186.65
385.17	1200.69
385.36	1212.40
385.56	1163.25
385.75	1125.80
385.95	1210.06
386.14	1186.65
386.34	1289.64
386.53	1231.12
386.72	1116.44
386.92	1263.89
387.11	1214.74
387.31	1270.91
387.50	1247.51
387.70	1224.10
387.89	1287.29
388.09	1249.85
388.28	1256.87
388.48	1219.42
388.67	1385.60
388.86	1296.66
389.06	1348.15
389.25	1345.81
389.45	1397.30
389.64	1287.29
389.84	1299.00
390.03	1490.92
390.22	1383.26
390.42	1341.13
390.61	1336.45
390.81	1359.85
391.00	1404.32
391.19	1432.41
391.39	1404.32
391.58	1467.52
391.78	1540.07
391.97	1451.13
392.16	1504.96
392.36	1486.24
392.55	1521.35
392.75	1523.69
392.94	1563.48
393.13	1586.88
393.33	1554.12
393.52	1549.43
393.71	1542.41
393.91	1500.28
394.10	1565.82
394.29	1708.59
394.49	1629.01
394.68	1678.16
394.88	1516.67
395.07	1647.74
395.26	1629.01
395.46	1694.55
395.65	1722.63
395.84	1645.40
396.04	1809.23
396.23	1830.30
396.42	1776.47
396.62	1760.08
396.81	1750.72
397.00	1743.70
397.19	1832.64
397.39	1844.34
397.58	1949.67
397.77	1830.30
397.97	1933.28
398.16	1823.28
398.35	1877.11
398.55	1907.54
398.74	1893.49
398.93	1865.41
399.12	1937.96
399.32	1849.02
399.51	1930.94
399.70	2113.50
399.90	1956.69
400.09	2033.93
400.28	2069.03
400.47	2078.40
400.67	2125.21
400.86	2111.16
401.05	2118.18
401.24	2078.40
401.44	2181.38
401.63	2120.53
401.82	2057.33
402.01	2080.74
402.21	2127.55
402.40	2209.47
402.59	2183.72
402.78	2218.83
402.97	2218.83
403.17	2132.23
403.36	2160.31
403.55	2258.62
403.74	2300.75
403.93	2267.98
404.13	2293.72
404.32	2272.66
404.51	2373.30
404.70	2352.24
404.89	2286.70
405.09	2406.07
405.28	2420.11
405.47	2359.26
405.66	2546.50
405.85	2548.84
406.05	2506.71
406.24	2562.89
406.43	2530.12
406.62	2593.31
406.81	2642.46
407.00	2553.52
407.20	2614.38
407.39	2485.65
407.58	2600.34
407.77	2700.98
407.96	2747.79
408.15	2736.09
408.34	2724.38
408.54	2841.41
408.73	2796.94
408.92	2869.50
409.11	2864.82
409.30	2867.16
409.49	2857.79
409.68	2895.24
409.87	2864.82
410.07	2963.12
410.26	3009.93
410.45	3030.99
410.64	3066.10
410.83	3133.98
411.02	3068.44
411.21	3260.37
411.40	3129.30
411.59	3157.38
411.78	3141.00
411.98	3077.80
412.17	3325.90
412.36	3309.52
412.55	3410.16
412.74	3414.84
412.93	3445.27
413.12	3328.24
413.31	3639.53
413.50	3515.48
413.69	3466.33
413.88	3485.06
414.07	3613.79
414.26	3698.05
414.45	3843.16
414.64	3721.45
414.83	3864.22
415.02	3833.80
415.22	3992.95
415.41	3831.46
415.60	3847.84
415.79	3850.18
415.98	3997.64
416.17	3962.53
416.36	4009.34
416.55	3822.09
416.74	4259.78
416.93	4091.26
417.12	4081.89
417.31	4201.26
417.50	4030.40
417.69	4194.24
417.88	4217.65
418.07	4313.61
418.26	4292.54
418.45	4351.06
418.64	4423.61
418.83	4468.08
419.02	4376.80
419.21	4547.66
419.39	4528.94
419.58	4365.10
419.77	4557.02
419.96	4561.70
420.15	4664.69
420.34	4521.92
420.53	4535.96
420.72	4620.22
420.91	4777.03
421.10	4704.48
421.29	4812.14
421.48	4718.52
421.67	4732.56
421.86	4863.63
422.05	4898.74
422.24	4695.11
422.43	4833.21
422.61	4807.46
422.80	4943.21
422.99	4887.04
423.18	4940.87
423.37	4873.00
423.56	4997.04
423.75	5004.07
423.94	4964.28
424.13	4643.62
424.32	4851.93
424.50	4957.25
424.69	5167.90
424.88	5174.92
425.07	4898.74
425.26	4947.89
425.45	4968.96
425.64	4964.28
425.83	4987.68
426.01	4938.53
426.20	5128.11
426.39	5015.77
426.58	5144.50
426.77	4985.34
426.96	5135.14
427.15	5132.79
427.33	5151.52
427.52	5263.86
427.71	5224.08
427.90	5198.33
428.09	5273.23
428.28	5355.15
428.46	5376.21
428.65	5301.31
428.84	5408.98
429.03	5467.49
429.22	5406.64
429.40	5617.29
429.59	5537.71
429.78	5476.85
429.97	5247.48
430.16	5528.35
430.34	5645.37
430.53	5626.65
430.72	5706.23
430.91	5762.40
431.10	5572.82
431.28	5846.66
431.47	5598.56
431.66	5900.49
431.85	5863.04
432.03	5937.94
432.22	5982.41
432.41	5865.38
432.60	5839.64
432.79	5858.36
432.97	5919.21
433.16	5961.34
433.35	5898.15
433.54	6040.92
433.72	6008.16
433.91	5867.72
434.10	6242.21
434.28	6113.48
434.47	6286.68
434.66	6258.59
434.85	6190.72
435.03	6274.98
435.22	6356.90
435.41	6609.67
435.59	6399.02
435.78	6408.39
435.97	6436.47
436.16	6307.74
436.34	6338.17
436.53	6459.88
436.72	6492.65
436.90	6464.56
437.09	6532.44
437.28	6537.12
437.46	6658.82
437.65	6621.38
437.84	6677.55
438.02	6651.80
438.21	6530.09
438.40	6612.01
438.58	6899.90
438.77	7021.61
438.96	7157.36
439.14	7077.78
439.33	7197.15
439.52	7178.42
439.70	7325.88
439.89	7438.22
440.08	7290.77
440.26	7241.62
440.45	7314.17
440.63	7506.10
440.82	7686.32
441.01	7499.08
441.19	7758.88
441.38	7658.23
441.57	7747.17
441.75	7819.73
441.94	7976.55
442.12	7868.88
442.31	7939.10
442.50	8018.68
442.68	8037.40
442.87	8327.63
443.05	8013.99
443.24	8133.36
443.43	8109.96
443.61	8004.63
443.80	8552.32
443.98	7969.52
444.17	7805.69
444.35	8395.50
444.54	8290.18
444.73	8250.39
444.91	8428.27
445.10	8353.37
445.28	8339.33
445.47	8177.83
445.65	8339.33
445.84	8329.97
446.02	8599.13
446.21	8461.04
446.39	8360.39
446.58	8458.70
446.77	8414.23
446.95	8393.16
447.14	8383.80
447.32	8559.34
447.51	8446.99
447.69	8234.00
447.88	8470.40
448.06	8411.89
448.25	8585.08
448.43	8718.50
448.62	8629.56
448.80	8697.43
448.99	8500.83
449.17	8896.38
449.36	8603.81
449.54	8681.05
449.73	8973.61
449.91	8912.76
450.10	8840.20
450.28	9156.18
450.46	9130.43
450.65	8879.99
450.83	9004.04
451.02	8926.80
451.20	9191.28
451.39	9135.11
451.57	9135.11
451.76	9018.08
451.94	9050.85
452.13	9205.33
452.31	9404.27
452.49	9090.64
452.68	9301.29
452.86	9460.45
453.05	9598.54
453.23	9460.45
453.42	9273.20
453.60	9352.78
453.78	9584.49
453.97	9397.25
454.15	9481.51
454.34	9561.09
454.52	9734.29
454.70	9542.36
454.89	9753.01
455.07	9706.20
455.26	9891.10
455.44	10092.39
455.62	9820.89
455.81	9886.42
455.99	10010.47
456.17	9928.55
456.36	10148.56
456.54	10122.82
456.73	10274.95
456.91	10441.13
457.09	10473.90
457.28	10443.47
457.46	10434.11
457.64	10649.44
457.83	10366.23
458.01	10490.28
458.19	10946.69
458.38	10691.57
458.56	10707.95
458.74	10679.86
458.93	10740.72
459.11	10953.71
459.29	10885.83
459.48	10700.93
459.66	10806.25
459.84	10836.68
460.03	10995.84
460.21	11080.10
460.39	11098.82
460.57	10934.98
460.76	10949.03
460.94	11201.80
461.12	11215.85
461.31	11157.33
461.49	11112.86
461.67	11398.41
461.85	11332.87
462.04	11316.49
462.22	11405.43
462.40	11616.08
462.59	11438.20
462.77	11616.08
462.95	11906.31
463.13	11506.07
463.32	11480.33
463.50	11822.05
463.68	11737.79
463.86	11866.52
464.05	11693.32
464.23	11847.79
464.41	11843.11
464.59	11775.24
464.78	12212.92
464.96	12042.06
465.14	11925.03
465.32	12030.35
465.50	12243.34
465.69	12219.94
465.87	11901.62
466.05	12032.69
466.23	12079.50
466.41	12046.74
466.60	12444.63
466.78	11943.75
466.96	12203.55
467.14	12058.44
467.32	12304.20
467.51	12681.02
467.69	12013.97
467.87	12383.77
468.05	12461.01
468.23	12177.81
468.41	12477.40
468.60	12564.00
468.78	12835.50
468.96	12624.85
469.14	12620.17
469.32	13067.21
469.50	12802.73
469.69	12938.48
469.87	13008.70
470.05	13125.72
470.23	13179.56
470.41	13099.98
470.59	13245.09
470.77	13146.79
470.95	13465.10
471.14	13621.92
471.32	13114.02
471.50	13586.81
471.68	13816.18
471.86	13556.38
472.04	13774.05
472.22	13998.74
472.40	13565.74
472.58	13776.39
472.77	13994.06
472.95	14047.90
473.13	14356.85
473.31	14284.29
473.49	14335.78
473.67	14104.07
473.85	14258.54
474.03	14581.54
474.21	14757.08
474.39	14665.80
474.57	14705.59
474.75	14684.52
474.93	14939.64
475.12	15016.88
475.30	15246.25
475.48	15330.51
475.66	15349.23
475.84	15136.24
476.02	15538.82
476.20	15499.03
476.38	15484.98
476.56	15969.48
476.74	15857.13
476.92	16056.08
477.10	16105.23
477.28	16194.17
477.46	15960.11
477.64	16205.87
477.82	16325.24
478.00	16833.13
478.18	16650.57
478.36	16858.88
478.54	17090.59
478.72	16957.18
478.90	17317.62
479.08	17481.46
479.26	17748.28
479.44	17645.30
479.62	17853.61
479.80	18328.74
479.98	18218.73
480.16	18523.00
480.34	18286.61
480.52	18691.52
480.70	18483.21
480.88	18560.45
481.06	18684.50
481.24	18874.08
481.41	19227.50
481.59	19417.08
481.77	19349.21
481.95	19768.16
482.13	19913.28
482.31	19779.87
482.49	20339.26
482.67	20458.62
482.85	20547.56
483.03	20538.20
483.21	20802.68
483.39	21039.08
483.57	21120.99
483.74	21139.72
483.92	21474.42
484.10	21261.43
484.28	21621.87
484.46	21577.40
484.64	22157.85
484.82	21710.81
485.00	22408.29
485.18	22602.55
485.35	23274.29
485.53	22419.99
485.71	23016.83
485.89	23742.39
486.07	23346.84
486.25	23363.23
486.43	23625.37
486.61	23735.37
486.78	24121.56
486.96	24343.91
487.14	24636.48
487.32	24456.26
487.50	24929.05
487.68	24889.26
487.85	25209.91
488.03	25476.73
488.21	25420.56
488.39	26052.50
488.57	26073.57
488.75	26333.37
488.92	26632.96
489.10	26918.50
489.28	26665.72
489.46	27072.98
489.64	26909.14
489.81	27845.35
489.99	27536.40
490.17	27536.40
490.35	27964.72
490.53	28456.23
490.70	28149.62
490.88	28376.66
491.06	28966.47
491.24	28697.31
491.41	29298.83
491.59	29394.79
491.77	29502.45
491.95	29663.95
492.13	29717.78
492.30	29710.76
492.48	29811.40
492.66	30277.17
492.84	30251.42
493.01	30363.77
493.19	30845.92
493.37	31241.47
493.54	31061.25
493.72	31749.37
493.90	31257.85
494.08	31754.05
494.25	31798.52
494.43	32271.31
494.61	32814.31
494.79	32402.38
494.96	32500.68
495.14	33081.13
495.32	33090.49
495.49	33326.89
495.67	32980.49
495.85	33738.82
496.02	33457.96
496.20	33905.00
496.38	33928.41
496.55	33521.15
496.73	34583.76
496.91	34380.13
497.09	34684.40
497.26	35098.67
497.44	35012.07
497.62	35344.43
497.79	35688.49
497.97	35426.35
498.14	35718.92
498.32	36062.97
498.50	36219.79
498.67	36449.16
498.85	36350.86
499.03	36250.22
499.20	36547.47
499.38	37024.93
499.56	36226.81
499.73	37057.70
499.91	37432.19
500.08	37619.43
500.26	37570.28
500.44	37745.82
500.61	37785.61
500.79	37944.76
500.97	38167.12
501.14	38902.04
501.32	38429.26
501.49	38689.06
501.67	38862.26
501.84	39075.24
502.02	39257.81
502.20	38607.14
502.37	39283.55
502.55	39229.72
502.72	39571.44
502.90	39812.51
503.07	39524.63
503.25	39660.38
503.43	39749.32
503.60	40004.44
503.78	39985.71
503.95	40128.48
504.13	40620.00
504.30	40783.83
504.48	40407.01
504.65	40538.08
504.83	40793.20
505.01	41181.73
505.18	41205.13
505.36	41808.99
505.53	41207.47
505.71	41724.73
505.88	41673.24
506.06	41350.24
506.23	41743.45
506.41	41977.51
506.58	42183.48
506.76	42047.72
506.93	42527.53
507.11	42408.17
507.28	42555.62
507.46	42806.06
507.63	42941.81
507.81	43257.78
507.98	43103.31
508.16	43400.55
508.33	43323.32
508.50	43590.14
508.68	43482.47
508.85	43945.90
509.03	44175.27
509.20	43796.10
509.38	44406.98
509.55	44119.10
509.73	44282.94
509.90	44348.47
510.08	44889.13
510.25	44652.74
510.42	45092.76
510.60	44971.05
510.77	45563.21
510.95	45659.17
511.12	45193.40
511.30	45338.52
511.47	45450.86
511.64	45588.95
511.82	46017.27
511.99	45436.82
512.17	46036.00
512.34	46080.47
512.51	46476.02
512.69	46557.94
512.86	46248.99
513.04	46417.50
513.21	46532.19
513.38	46955.83
513.56	46681.98
513.73	46916.04
513.90	46974.55
514.08	47131.37
514.25	47484.79
514.43	47416.91
514.60	47199.24
514.77	47618.20
514.95	47683.73
515.12	47426.28
515.29	47618.20
515.47	47800.76
515.64	48203.33
515.81	47849.91
515.99	48208.01
516.16	48198.65
516.33	48617.61
516.51	48612.93
516.68	48158.86
516.85	48460.79
517.03	48924.22
517.20	48823.58
517.37	48776.76
517.54	48708.89
517.72	48608.25
517.89	48748.68
518.06	49315.09
518.24	49282.32
518.41	49485.95
518.58	49677.87
518.75	49340.83
518.93	49429.77
519.10	49436.80
519.27	49705.96
519.45	49958.73
519.62	49617.02
519.79	49872.14
519.96	49848.73
520.14	50483.01
520.31	50035.97
520.48	50122.57
520.65	50162.36
520.83	50740.47
521.00	50738.13
521.17	50436.20
521.34	50754.52
521.52	51007.29
521.69	50696.00
521.86	50546.21
522.03	51154.75
522.20	51107.94
522.38	51372.42
522.55	51384.12
522.72	51323.27
522.89	51203.90
523.07	51632.22
523.24	51487.10
523.41	51840.53
523.58	51475.40
523.75	52004.36
523.92	51709.46
524.10	52144.80
524.27	51987.98
524.44	52065.22
524.61	52200.97
524.78	52285.23
524.96	52264.16
525.13	52193.95
525.30	52163.52
525.47	52514.60
525.64	52729.93
525.81	52523.96
525.98	52793.12
526.16	52612.90
526.33	52832.91
526.50	53006.11
526.67	52961.64
526.84	52992.07
527.01	53050.58
527.18	52697.16
527.36	52978.03
527.53	52903.13
527.70	53514.01
527.87	53380.60
528.04	53050.58
528.21	53078.67
528.38	53294.00
528.55	53827.64
528.72	53226.12
528.89	53235.48
529.07	53516.35
529.24	53628.69
529.41	53834.66
529.58	53750.40
529.75	53600.61
529.92	53621.67
530.09	53710.61
530.26	53860.41
530.43	54038.29
530.60	53780.83
530.77	53841.68
530.94	54225.53
531.11	53900.20
531.28	54059.35
531.46	54351.92
531.63	54302.77
531.80	54059.35
531.97	54260.64
532.14	54527.46
532.31	54115.53
532.48	54625.76
532.65	54529.80
532.82	54677.25
532.99	54440.86
533.16	54674.91
533.33	54864.50
533.50	54915.99
533.67	54784.92
533.84	54794.28
534.01	55054.08
534.18	54897.27
534.35	55288.13
534.52	55161.75
534.69	55014.29
534.86	55508.14
535.03	54915.99
535.20	55391.12
535.37	55351.33
535.54	55306.86
535.71	55339.63
535.88	55306.86
536.05	55454.31
536.22	55356.01
536.38	55606.45
536.55	55732.84
536.72	55674.32
536.89	55524.53
537.06	55690.71
537.23	55840.50
537.40	55515.17
537.57	55538.57
537.74	55826.46
537.91	56226.69
538.08	55985.61
538.25	55611.13
538.42	55767.94
538.59	55976.25
538.75	56128.39
538.92	55985.61
539.09	56229.03
539.26	56182.22
539.43	56177.54
539.60	56324.99
539.77	56126.05
539.94	56339.04
540.11	56329.67
540.28	56427.98
540.44	56605.86
540.61	56509.89
540.78	56402.23
540.95	56640.96
541.12	56563.73
541.29	56416.27
541.46	56523.94
541.62	56774.37
541.79	56626.92
541.96	56397.55
542.13	56669.05
542.30	56704.16
542.47	56673.73
542.63	56945.23
542.80	56788.42
542.97	57083.33
543.14	57092.69
543.31	57102.05
543.48	57205.03
543.64	57467.17
543.81	57418.02
543.98	57394.62
544.15	57265.89
544.32	57399.30
544.48	57570.16
544.65	57200.35
544.82	57155.88
544.99	57214.40
545.16	57792.51
545.32	57291.63
545.49	57815.91
545.66	57785.49
545.83	57642.71
546.00	57364.19
546.16	57455.47
546.33	57485.90
546.50	57687.18
546.67	57701.23
546.83	57530.37
547.00	57771.44
547.17	57762.08
547.34	57813.57
547.50	57944.64
547.67	58089.76
547.84	58038.26
548.00	58094.44
548.17	58316.79
548.34	58047.63
548.51	58148.27
548.67	58148.27
548.84	58115.50
549.01	58082.73
549.18	58248.91
549.34	58279.34
549.51	58293.38
549.68	58323.81
549.84	58323.81
550.01	58602.33
550.18	58284.02
550.34	58562.54
550.51	58658.51
550.68	58529.78
550.84	58515.73
551.01	58667.87
551.18	58506.37
551.34	58468.92
551.51	58576.59
551.68	58618.72
551.84	58497.01
552.01	58578.93
552.18	58637.44
552.34	58562.54
552.51	58614.04
552.68	58639.78
552.84	58859.79
553.01	58918.31
553.18	58658.51
553.34	58894.90
553.51	58702.98
553.67	58773.19
553.84	58920.65
554.01	59114.91
554.17	58922.99
554.34	59007.25
554.51	58974.48
554.67	59084.48
554.84	58990.86
555.00	58965.12
555.17	58857.45
555.33	59077.46
555.50	58911.28
555.67	59002.56
555.83	59105.55
556.00	59044.69
556.16	59353.65
556.33	59365.35
556.50	59337.26
556.66	59330.24
556.83	59042.35
556.99	59463.65
557.16	59367.69
557.32	59557.27
557.49	59526.84
557.65	59255.34
557.82	59194.49
557.98	59147.68
558.15	59304.49
558.32	59522.16
558.48	59351.30
558.65	59412.16
558.81	59498.76
558.98	59580.68
559.14	59709.41
559.31	59571.32
559.47	59503.44
559.64	59821.75
559.80	59760.90
559.97	59611.10
560.13	59482.37
560.30	59770.26
560.46	59695.36
560.63	59772.60
560.79	59767.92
560.96	59971.55
561.12	59793.67
561.29	59957.50
561.45	59812.39
561.61	59632.17
561.78	59821.75
561.94	59831.11
562.11	59814.73
562.27	59751.54
562.44	59765.58
562.60	60041.76
562.77	60170.49
562.93	59779.62
563.10	60175.17
563.26	60018.36
563.42	60041.76
563.59	59950.48
563.75	59943.46
563.92	60191.56
564.08	59833.46
564.24	60254.75
564.41	60102.62
564.57	60116.66
564.74	60296.88
564.90	60243.05
565.07	60086.23
565.23	60261.77
565.39	60427.95
565.56	60268.79
565.72	60236.03
565.88	60336.67
566.05	60065.17
566.21	60224.32
566.38	60111.98
566.54	60299.22
566.70	60514.55
566.87	60444.33
567.03	60264.11
567.19	60411.57
567.36	60355.39
567.52	60287.52
567.68	60493.49
567.85	60301.56
568.01	60467.74
568.17	60343.69
568.34	60622.22
568.50	60343.69
568.66	60390.50
568.83	60383.48
568.99	60343.69
569.15	60467.74
569.32	60334.33
569.48	60430.29
569.64	60420.93
569.81	60495.83
569.97	60350.71
570.13	60556.68
570.30	60353.05
570.46	60837.54
570.62	60385.82
570.78	60484.12
570.95	60544.98
571.11	60594.13
571.27	60449.02
571.43	60427.95
571.60	60734.56
571.76	60556.68
571.92	60704.13
572.09	60533.28
572.25	60626.90
572.41	60334.33
572.57	60666.69
572.74	60767.33
572.90	60582.43
573.06	60626.90
573.22	60732.22
573.38	60743.92
573.55	60589.45
573.71	60743.92
573.87	60706.47
574.03	60577.75
574.20	60748.60
574.36	60673.71
574.52	60910.10
574.68	60596.47
574.84	60694.77
575.01	60659.66
575.17	60699.45
575.33	60601.15
575.49	60673.71
575.65	60933.51
575.82	60842.23
575.98	60865.63
576.14	60973.30
576.30	60809.46
576.46	60715.84
576.62	60776.69
576.79	60750.94
576.95	60425.61
577.11	60924.14
577.27	60879.67
577.43	60825.84
577.59	60774.35
577.75	60910.10
577.92	60652.64
578.08	60851.59
578.24	60802.44
578.40	60910.10
578.56	61001.38
578.72	60898.40
578.88	60910.10
579.04	61027.13
579.21	60903.08
579.37	60917.12
579.53	60867.97
579.69	60753.29
579.85	60694.77
580.01	60687.75
580.17	60699.45
580.33	60846.91
580.49	60977.98
580.65	60828.18
580.82	60821.16
580.98	60982.66
581.14	60643.28
581.30	60994.36
581.46	60956.91
581.62	60882.02
581.78	61020.11
581.94	60874.99
582.10	60849.25
582.26	60867.97
582.42	61020.11
582.58	60942.87
582.74	60947.55
582.90	60750.94
583.06	60985.00
583.22	60720.52
583.38	61022.45
583.54	60996.70
583.70	60961.59
583.86	61137.13
584.02	60917.12
584.18	61078.62
584.34	61116.07
584.50	60884.36
584.66	61076.28
584.82	60832.86
584.98	61286.93
585.14	61062.24
585.30	60987.34
585.46	61027.13
585.62	61048.19
585.78	61254.16
585.94	60837.54
586.10	61118.41
586.26	61008.40
586.42	60980.32
586.58	61249.48
586.74	61050.53
586.90	61029.47
587.06	60870.31
587.22	61226.07
587.38	61106.71
587.54	61326.72
587.70	61378.21
587.86	61095.00
588.02	61104.37
588.18	61233.10
588.34	61017.77
588.49	61169.90
