SpectraSuite Data File
++++++++++++++++++++++++++++++++++++
Date: Fri Oct 25 10:44:21 EDT 2013
User: price-jones
Dark Spectrum Present: No
Reference Spectrum Present: No
Number of Sampled Component Spectra: 1
Spectrometers: USB2+H05261
Integration Time (usec): 100000 (USB2+H05261)
Spectra Averaged: 1 (USB2+H05261)
Boxcar Smoothing: 0 (USB2+H05261)
Correct for Electrical Dark: No (USB2+H05261)
Strobe/Lamp Enabled: No (USB2+H05261)
Correct for Detector Non-linearity: No (USB2+H05261)
Correct for Stray Light: No (USB2+H05261)
Number of Pixels in Processed Spectrum: 2048
>>>>>Begin Processed Spectral Data<<<<<
365.73	95.96
365.92	95.96
366.12	95.96
366.32	65.54
366.52	0.00
366.72	44.47
366.91	35.11
367.11	37.45
367.31	0.00
367.51	28.09
367.70	37.45
367.90	39.79
368.10	0.00
368.30	42.13
368.49	0.00
368.69	25.75
368.89	53.83
369.09	11.70
369.28	37.45
369.48	37.45
369.68	72.56
369.87	100.64
370.07	58.51
370.27	91.28
370.47	194.26
370.66	344.06
370.86	393.21
371.06	472.79
371.25	550.03
371.45	425.98
371.65	479.81
371.84	454.06
372.04	512.58
372.24	503.22
372.44	463.43
372.63	550.03
372.83	491.51
373.03	538.32
373.22	526.62
373.42	479.81
373.62	517.26
373.81	587.47
374.01	543.00
374.21	517.26
374.40	547.69
374.60	627.26
374.79	608.54
374.99	580.45
375.19	589.82
375.38	631.94
375.58	650.67
375.78	552.37
375.97	641.31
376.17	678.76
376.37	514.92
376.56	610.88
376.76	678.76
376.95	695.14
377.15	631.94
377.35	685.78
377.54	641.31
377.74	610.88
377.93	629.60
378.13	725.57
378.33	711.52
378.52	734.93
378.72	641.31
378.91	681.10
379.11	657.69
379.31	608.54
379.50	641.31
379.70	720.88
379.89	716.20
380.09	816.85
380.28	699.82
380.48	704.50
380.68	683.44
380.87	720.88
381.07	760.67
381.26	741.95
381.46	669.39
381.65	655.35
381.85	741.95
382.04	727.91
382.24	706.84
382.43	624.92
382.63	748.97
382.83	772.38
383.02	711.52
383.22	716.20
383.41	784.08
383.61	638.97
383.80	835.57
384.00	683.44
384.19	812.17
384.39	889.40
384.58	856.64
384.78	830.89
384.97	828.55
385.17	734.93
385.36	774.72
385.56	849.61
385.75	800.46
385.95	788.76
386.14	830.89
386.34	901.11
386.53	910.47
386.72	966.64
386.92	980.68
387.11	854.30
387.31	889.40
387.50	917.49
387.70	905.79
387.89	997.07
388.09	968.98
388.28	861.32
388.48	889.40
388.67	922.17
388.86	1001.75
389.06	945.58
389.25	1015.79
389.45	994.73
389.64	971.32
389.84	1001.75
390.03	1022.81
390.22	1060.26
390.42	992.39
390.61	1032.18
390.81	973.66
391.00	1083.67
391.19	1069.62
391.39	1008.77
391.58	1020.47
391.78	1055.58
391.97	1071.97
392.16	1001.75
392.36	1076.65
392.55	968.98
392.75	1029.84
392.94	1083.67
393.13	1081.33
393.33	1041.54
393.52	1078.99
393.71	1090.69
393.91	1107.07
394.10	1163.25
394.29	1149.20
394.49	1261.55
394.68	1247.51
394.88	1235.80
395.07	1273.25
395.26	1284.95
395.46	1308.36
395.65	1280.27
395.84	1210.06
396.04	1235.80
396.23	1144.52
396.42	1193.67
396.62	1198.35
396.81	1235.80
397.00	1240.48
397.19	1418.36
397.39	1373.89
397.58	1362.19
397.77	1425.39
397.97	1469.86
398.16	1486.24
398.35	1476.88
398.55	1535.39
398.74	1514.33
398.93	1638.38
399.12	1558.80
399.32	1575.18
399.51	1570.50
399.70	1657.10
399.90	1610.29
400.09	1671.14
400.28	1743.70
400.47	1629.01
400.67	1717.95
400.86	1825.62
401.05	1708.59
401.24	1760.08
401.44	1764.76
401.63	1706.25
401.82	1722.63
402.01	1790.51
402.21	1839.66
402.40	1757.74
402.59	1785.83
402.78	1776.47
402.97	1720.29
403.17	1914.56
403.36	1827.96
403.55	1886.47
403.74	1961.37
403.93	1942.64
404.13	2026.90
404.32	1970.73
404.51	1949.67
404.70	1923.92
404.89	1970.73
405.09	2136.91
405.28	2005.84
405.47	2005.84
405.66	2153.29
405.85	2125.21
406.05	2057.33
406.24	2043.29
406.43	2132.23
406.62	2223.51
406.81	2200.10
407.00	2200.10
407.20	2186.06
407.39	2127.55
407.58	2221.17
407.77	2218.83
407.96	2429.48
408.15	2300.75
408.34	2319.47
408.54	2305.43
408.73	2420.11
408.92	2527.78
409.11	2366.28
409.30	2485.65
409.49	2340.54
409.68	2399.05
409.87	2441.18
410.07	2410.75
410.26	2328.83
410.45	2459.90
410.64	2520.76
410.83	2551.18
411.02	2595.65
411.21	2708.00
411.40	2642.46
411.59	2736.09
411.78	2766.51
411.98	2780.56
412.17	2759.49
412.36	2773.53
412.55	2818.00
412.74	2991.20
412.93	2843.75
413.12	2736.09
413.31	2970.14
413.50	2991.20
413.69	2958.44
413.88	3000.57
414.07	2960.78
414.26	3028.65
414.45	3108.23
414.64	3105.89
414.83	3145.68
415.02	3150.36
415.22	3110.57
415.41	3171.43
415.60	3243.98
415.79	3339.94
415.98	3274.41
416.17	3389.10
416.36	3358.67
416.55	3344.63
416.74	3510.80
416.93	3335.26
417.12	3351.65
417.31	3438.25
417.50	3407.82
417.69	3662.94
417.88	3438.25
418.07	3475.70
418.26	3653.58
418.45	3681.66
418.64	3794.01
418.83	3653.58
419.02	3618.47
419.21	3662.94
419.39	3808.05
419.58	3779.97
419.77	3655.92
419.96	3892.31
420.15	3749.54
420.34	3758.90
420.53	4025.72
420.72	4077.21
420.91	4114.66
421.10	3929.76
421.29	3990.61
421.48	3852.52
421.67	4063.17
421.86	3929.76
422.05	3904.01
422.24	3854.86
422.43	3955.51
422.61	3995.29
422.80	4032.74
422.99	4016.36
423.18	4079.55
423.37	4046.79
423.56	4077.21
423.75	4025.72
423.94	4007.00
424.13	3740.18
424.32	3838.48
424.50	4138.07
424.69	4180.20
424.88	4241.05
425.07	4016.36
425.26	4025.72
425.45	4102.96
425.64	4074.87
425.83	4159.13
426.01	4269.14
426.20	4180.20
426.39	4264.46
426.58	4011.68
426.77	4088.92
426.96	4154.45
427.15	4131.05
427.33	4086.58
427.52	4166.15
427.71	4337.01
427.90	4339.35
428.09	4278.50
428.28	4287.86
428.46	4397.87
428.65	4425.95
428.84	4215.30
429.03	4470.42
429.22	4292.54
429.40	4374.46
429.59	4217.65
429.78	4051.47
429.97	4035.08
430.16	4201.26
430.34	4152.11
430.53	4194.24
430.72	4320.63
430.91	4344.03
431.10	4608.51
431.28	4744.27
431.47	4770.01
431.66	4847.25
431.85	4636.60
432.03	4873.00
432.22	4851.93
432.41	4858.95
432.60	4847.25
432.79	4868.31
432.97	4861.29
433.16	4975.98
433.35	4880.02
433.54	4741.93
433.72	4837.89
433.91	4936.19
434.10	5020.45
434.28	5083.64
434.47	5055.56
434.66	5137.48
434.85	5011.09
435.03	5006.41
435.22	5212.37
435.41	5224.08
435.59	5205.35
435.78	5341.10
435.97	5109.39
436.16	5305.99
436.34	5355.15
436.53	5364.51
436.72	5577.50
436.90	5376.21
437.09	5460.47
437.28	5336.42
437.46	5359.83
437.65	5334.08
437.84	5430.04
438.02	5320.04
438.21	5266.21
438.40	5203.01
438.58	5554.09
438.77	5598.56
438.96	5413.66
439.14	5746.02
439.33	5860.70
439.52	5781.12
439.70	5898.15
439.89	5823.25
440.08	5856.02
440.26	5912.19
440.45	6036.24
440.63	6017.52
440.82	6010.50
441.01	6120.50
441.19	6274.98
441.38	6307.74
441.57	6370.94
441.75	6356.90
441.94	6527.75
442.12	6480.94
442.31	6579.25
442.50	6513.71
442.68	6424.77
442.87	6534.78
443.05	6628.40
443.24	6780.53
443.43	6581.59
443.61	6567.54
443.80	6867.13
443.98	6637.76
444.17	6408.39
444.35	6731.38
444.54	6883.52
444.73	6839.05
444.91	6726.70
445.10	6677.55
445.28	6707.98
445.47	6633.08
445.65	6750.10
445.84	6707.98
446.02	6792.23
446.21	6707.98
446.39	6686.91
446.58	6970.12
446.77	6972.46
446.95	6785.21
447.14	6953.73
447.32	7012.24
447.51	6993.52
447.69	6785.21
447.88	7052.03
448.06	6977.14
448.25	7066.08
448.43	7037.99
448.62	6991.18
448.80	6836.70
448.99	7286.09
449.17	7199.49
449.36	7300.13
449.54	7094.16
449.73	7297.79
449.91	7449.93
450.10	7447.58
450.28	7506.10
450.46	7482.69
450.65	7463.97
450.83	7447.58
451.02	7627.81
451.20	7669.94
451.39	7480.35
451.57	7564.61
451.76	7562.27
451.94	7510.78
452.13	7681.64
452.31	7267.36
452.49	7496.74
452.68	7639.51
452.86	7286.09
453.05	7623.12
453.23	7639.51
453.42	7669.94
453.60	7527.16
453.78	7765.90
453.97	7667.60
454.15	7737.81
454.34	7597.38
454.52	7573.97
454.70	7744.83
454.89	7824.41
455.07	7950.80
455.26	7929.74
455.44	8025.70
455.62	7967.18
455.81	8109.96
455.99	8224.64
456.17	8217.62
456.36	8383.80
456.54	8222.30
456.73	8238.69
456.91	8449.33
457.09	8526.57
457.28	8362.73
457.46	8154.43
457.64	8535.93
457.83	8498.49
458.01	8231.66
458.19	8564.02
458.38	8315.92
458.56	8472.74
458.74	8638.92
458.93	8355.71
459.11	8718.50
459.29	8744.24
459.48	8664.66
459.66	8468.06
459.84	8578.06
460.03	8791.05
460.21	8690.41
460.39	8844.88
460.57	8669.34
460.76	8802.75
460.94	8910.42
461.12	9039.15
461.31	8903.40
461.49	8865.95
461.67	9027.45
461.85	9027.45
462.04	9202.99
462.22	9488.53
462.40	9247.46
462.59	9399.59
462.77	9226.39
462.95	9296.61
463.13	9308.31
463.32	9399.59
463.50	9570.45
463.68	9453.42
463.86	9310.65
464.05	9128.09
464.23	9179.58
464.41	9626.62
464.59	9406.61
464.78	9605.56
464.96	9713.22
465.14	9453.42
465.32	9511.94
465.50	9701.52
465.69	9635.99
465.87	9720.24
466.05	9359.80
466.23	9383.21
466.41	9291.93
466.60	9654.71
466.78	9689.82
466.96	9748.33
467.14	9771.74
467.32	9797.48
467.51	9816.21
467.69	9844.29
467.87	9865.36
468.05	9783.44
468.23	9760.03
468.41	9762.37
468.60	9818.55
468.78	10050.26
468.96	9834.93
469.14	9919.19
469.32	10111.11
469.50	9792.80
469.69	10141.54
469.87	10134.52
470.05	10200.05
470.23	10010.47
470.41	10303.04
470.59	10333.47
470.77	10017.49
470.95	10232.82
471.14	10583.90
471.32	10429.43
471.50	10630.71
471.68	10693.91
471.86	10649.44
472.04	10864.77
472.22	11077.76
472.40	10548.79
472.58	10949.03
472.77	10768.80
472.95	11063.71
473.13	11330.53
473.31	11014.56
473.49	10626.03
473.67	11311.81
473.85	11040.31
474.03	11321.17
474.21	11447.56
474.39	11290.74
474.57	11417.13
474.75	11557.57
474.93	11712.04
475.12	11606.72
475.30	11470.97
475.48	11714.38
475.66	11887.58
475.84	11667.57
476.02	11721.40
476.20	11896.94
476.38	12105.25
476.56	12320.58
476.74	12032.69
476.92	12479.74
477.10	12292.49
477.28	12482.08
477.46	12599.10
477.64	12648.26
477.82	12879.97
478.00	12929.12
478.18	12781.67
478.36	12868.27
478.54	13310.63
478.72	13144.45
478.90	13406.59
479.08	13816.18
479.26	13572.77
479.44	13956.61
479.62	13619.58
479.80	13710.86
479.98	13893.42
480.16	14286.63
480.34	14061.94
480.52	14347.48
480.70	14153.22
480.88	14375.57
481.06	14621.33
481.24	14476.21
481.41	14799.21
481.59	15009.86
481.77	14899.85
481.95	14853.04
482.13	15281.36
482.31	15068.37
482.49	15559.88
482.67	15293.06
482.85	15456.90
483.03	15641.80
483.21	15763.51
483.39	15906.28
483.57	15995.22
483.74	16088.84
483.92	16306.51
484.10	16119.27
484.28	16418.86
484.46	17003.99
484.64	16947.82
484.82	16559.29
485.00	16774.62
485.18	16842.50
485.35	16945.48
485.53	16327.58
485.71	16688.02
485.89	16720.79
486.07	16692.70
486.25	16945.48
486.43	17252.09
486.61	17483.80
486.78	17795.09
486.96	17996.38
487.14	18183.62
487.32	18366.18
487.50	18618.96
487.68	18438.74
487.85	19087.07
488.03	19098.77
488.21	18963.02
488.39	18923.23
488.57	19487.30
488.75	19374.95
488.92	19669.86
489.10	20027.96
489.28	20168.40
489.46	20294.79
489.64	20594.37
489.81	20812.04
489.99	20938.43
490.17	20774.60
490.35	21106.95
490.53	20809.70
490.70	21544.63
490.88	21088.23
491.06	21462.71
491.24	21186.53
491.41	21596.12
491.59	21635.91
491.77	21406.54
491.95	21635.91
492.13	21956.57
492.30	22387.22
492.48	22562.76
492.66	22375.52
492.84	22675.11
493.01	22810.86
493.19	22682.13
493.37	22895.12
493.54	23021.51
493.72	23147.90
493.90	23620.69
494.08	23768.14
494.25	23819.63
494.43	23702.61
494.61	24140.29
494.79	24231.57
494.96	24147.31
495.14	24250.29
495.32	24577.97
495.49	24407.11
495.67	24713.72
495.85	24793.29
496.02	24996.92
496.20	25116.29
496.38	25385.45
496.55	25322.26
496.73	26087.61
496.91	25970.58
497.09	25895.69
497.26	26019.74
497.44	25848.88
497.62	25928.45
497.79	26253.79
497.97	25724.83
498.14	26286.56
498.32	26249.11
498.50	26794.45
498.67	26651.68
498.85	27129.15
499.03	27335.12
499.20	27358.52
499.38	27098.72
499.56	27332.78
499.73	27164.26
499.91	27056.59
500.08	27150.21
500.26	27154.90
500.44	27576.19
500.61	27843.01
500.79	27569.17
500.97	27786.84
501.14	28292.40
501.32	27814.93
501.49	28027.92
501.67	28023.23
501.84	28348.57
502.02	28741.78
502.20	28627.09
502.37	28966.47
502.55	28542.83
502.72	28800.29
502.90	29064.77
503.07	28753.48
503.25	29041.37
503.43	29024.98
503.60	29029.66
503.78	28994.56
503.95	28727.74
504.13	29116.26
504.30	29500.11
504.48	29706.08
504.65	29741.19
504.83	29982.26
505.01	30246.74
505.18	30103.97
505.36	30223.34
505.53	30735.92
505.71	30408.24
505.88	30511.22
506.06	30445.69
506.23	30616.55
506.41	30827.20
506.58	30871.67
506.76	30665.70
506.93	31033.16
507.11	30881.03
507.28	31239.13
507.46	31000.40
507.63	31054.23
507.81	30993.37
507.98	30857.62
508.16	31243.81
508.33	31548.08
508.50	31817.24
508.68	32105.13
508.85	32025.55
509.03	32020.87
509.20	32009.17
509.38	32297.05
509.55	32121.51
509.73	32086.40
509.90	32348.54
510.08	32247.90
510.25	32870.48
510.42	32407.06
510.60	32699.62
510.77	33237.95
510.95	33350.29
511.12	33031.98
511.30	33350.29
511.47	33010.92
511.64	33249.65
511.82	33544.56
511.99	33113.90
512.17	33039.00
512.34	33233.27
512.51	33371.36
512.69	33750.52
512.86	33560.94
513.04	34185.86
513.21	33912.02
513.38	33394.76
513.56	33862.87
513.73	33752.87
513.90	34125.01
514.08	33982.24
514.25	34326.30
514.43	34204.59
514.60	34007.98
514.77	34218.63
514.95	34639.93
515.12	34429.28
515.29	34534.60
515.47	34834.19
515.64	35220.38
515.81	34782.70
515.99	34576.73
516.16	34703.12
516.33	34433.96
516.51	34373.11
516.68	34188.21
516.85	34274.80
517.03	34721.85
517.20	34567.37
517.37	34955.90
517.54	35498.91
517.72	35288.26
517.89	35058.88
518.06	34871.64
518.24	34448.00
518.41	35180.59
518.58	35255.49
518.75	35510.61
518.93	35672.10
519.10	35775.09
519.27	36039.57
519.45	36095.74
519.62	36210.43
519.79	36245.54
519.96	36685.56
520.14	36652.79
520.31	36456.18
520.48	36545.12
520.65	36123.83
520.83	37003.87
521.00	37151.32
521.17	37125.58
521.34	37380.70
521.52	36753.43
521.69	37125.58
521.86	37357.29
522.03	37392.40
522.20	37177.07
522.38	37354.95
522.55	37158.34
522.72	37649.86
522.89	37593.68
523.07	37825.40
523.24	37469.64
523.41	38234.99
523.58	37670.92
523.75	38267.76
523.92	38436.28
524.10	38260.74
524.27	38480.75
524.44	38602.46
524.61	38476.07
524.78	38873.96
524.96	38555.64
525.13	38263.08
525.30	38899.70
525.47	39166.52
525.64	38754.59
525.81	38920.77
525.98	38565.01
526.16	38436.28
526.33	38134.35
526.50	38752.25
526.67	38305.21
526.84	38380.10
527.01	38501.81
527.18	38794.38
527.36	39033.11
527.53	39810.17
527.70	39351.43
527.87	39468.45
528.04	39201.63
528.21	39447.39
528.38	39342.06
528.55	39997.41
528.72	40318.07
528.89	40369.56
529.07	40273.60
529.24	39840.60
529.41	39896.77
529.58	39707.19
529.75	39578.46
529.92	39810.17
530.09	39835.92
530.26	40584.89
530.43	40259.55
530.60	40116.78
530.77	40126.14
530.94	40678.51
531.11	40725.32
531.28	40332.11
531.46	40418.71
531.63	40655.11
531.80	40549.78
531.97	40315.73
532.14	40376.58
532.31	40187.00
532.48	40577.87
532.65	40875.12
532.82	40720.64
532.99	41043.63
533.16	41277.69
533.33	41031.93
533.50	41422.80
533.67	40793.20
533.84	41041.29
534.01	40802.56
534.18	40730.00
534.35	41277.69
534.52	41029.59
534.69	41549.19
534.86	41682.60
535.03	41937.72
535.20	41530.47
535.37	41820.69
535.54	42267.73
535.71	41544.51
535.88	42108.58
536.05	42127.30
536.22	41757.50
536.38	41890.91
536.55	42227.95
536.72	41750.48
536.89	41783.24
537.06	41848.78
537.23	42253.69
537.40	42382.42
537.57	42241.99
537.74	42258.37
537.91	42443.27
538.08	42555.62
538.25	42319.23
538.42	42541.58
538.59	42576.69
538.75	42052.41
538.92	42129.64
539.09	42447.96
539.26	42447.96
539.43	42043.04
539.60	42925.42
539.77	42150.71
539.94	42340.29
540.11	42508.81
540.28	42724.14
540.44	42471.36
540.61	42607.11
540.78	42263.05
540.95	42611.79
541.12	42693.71
541.29	42871.59
541.46	43185.22
541.62	42969.90
541.79	43461.41
541.96	42677.33
542.13	43199.27
542.30	42988.62
542.47	42939.47
542.63	43129.05
542.80	43154.80
542.97	43430.98
543.14	43810.15
543.31	43730.57
543.48	43707.16
543.64	44346.13
543.81	43950.58
543.98	43693.12
544.15	43990.37
544.32	43852.28
544.48	44725.30
544.65	43826.53
544.82	43805.47
544.99	43840.57
545.16	43796.10
545.32	43583.12
545.49	44856.37
545.66	44753.38
545.83	44409.32
546.00	44648.06
546.16	44275.91
546.33	43810.15
546.50	43683.76
546.67	44142.50
546.83	43966.96
547.00	44091.01
547.17	43927.17
547.34	44540.39
547.50	44449.11
547.67	44371.88
547.84	44486.56
548.00	44619.97
548.17	44917.22
548.34	44587.21
548.51	45326.81
548.67	44484.22
548.84	44802.53
549.01	44685.51
549.18	44360.17
549.34	45003.82
549.51	45249.58
549.68	45144.25
549.84	44942.97
550.01	44851.69
550.18	44816.58
550.34	44870.41
550.51	44994.46
550.68	44949.99
550.84	44727.64
551.01	45162.98
551.18	45427.46
551.34	45610.02
551.51	45413.41
551.68	45059.99
551.84	45347.88
552.01	45343.20
552.18	45251.92
552.34	44795.51
552.51	45504.70
552.68	45605.34
552.84	45378.31
553.01	45909.61
553.18	45729.39
553.34	45064.67
553.51	45897.91
553.67	45532.78
553.84	45478.95
554.01	45539.80
554.17	45937.69
554.34	46108.55
554.51	46087.49
554.67	46157.70
554.84	45298.73
555.00	45539.80
555.17	45918.97
555.33	46073.45
555.50	45823.01
555.67	45507.04
555.83	45918.97
556.00	46028.98
556.16	46197.49
556.33	46038.34
556.50	46124.94
556.66	45904.93
556.83	45701.30
556.99	45666.19
557.16	46101.53
557.32	45787.90
557.49	46131.96
557.65	45839.39
557.82	46216.22
557.98	46497.08
558.15	46080.47
558.32	45916.63
558.48	46244.30
558.65	45457.88
558.81	45745.77
558.98	46239.62
559.14	46288.77
559.31	46190.47
559.47	46007.91
559.64	46232.60
559.80	46401.12
559.97	46415.16
560.13	46239.62
560.30	45890.88
560.46	46195.15
560.63	46869.23
560.79	46649.22
560.96	46829.44
561.12	45965.78
561.29	46314.52
561.45	46356.65
561.61	46234.94
561.78	46478.36
561.94	46024.29
562.11	46239.62
562.27	46314.52
562.44	46312.18
562.60	46501.76
562.77	46756.88
562.93	46698.37
563.10	46602.41
563.26	46450.27
563.42	46630.49
563.59	46401.12
563.75	46328.56
563.92	46880.93
564.08	46520.49
564.24	46557.94
564.41	46799.01
564.57	46754.54
564.74	46663.26
564.90	46686.67
565.07	46660.92
565.23	46710.07
565.39	46307.50
565.56	46799.01
565.72	46328.56
565.88	46611.77
566.05	46312.18
566.21	46693.69
566.38	46562.62
566.54	46834.12
566.70	46780.29
566.87	46885.61
567.03	47012.00
567.19	46808.37
567.36	46843.48
567.52	46789.65
567.68	47028.38
567.85	46562.62
568.01	46773.27
568.17	46705.39
568.34	46562.62
568.50	46787.31
568.66	46686.67
568.83	46756.88
568.99	46218.56
569.15	47264.78
569.32	46766.24
569.48	46904.34
569.64	46822.42
569.81	47217.97
569.97	46979.23
570.13	46728.80
570.30	46485.38
570.46	46398.78
570.62	46656.24
570.78	46616.45
570.95	46443.25
571.11	46735.82
571.27	46714.75
571.43	46995.62
571.60	46712.41
571.76	46651.56
571.92	46913.70
572.09	46782.63
572.25	46841.14
572.41	46801.35
572.57	46873.91
572.74	47571.39
572.90	46979.23
573.06	47033.07
573.22	47213.29
573.38	46937.10
573.55	46932.42
573.71	47290.52
573.87	47117.32
574.03	46866.89
574.20	46698.37
574.36	46607.09
574.52	47236.69
574.68	46667.94
574.84	46796.67
575.01	47040.09
575.17	47117.32
575.33	46906.68
575.49	46740.50
575.65	46808.37
575.82	46850.50
575.98	47063.49
576.14	47040.09
576.30	46930.08
576.46	47035.41
576.62	46845.82
576.79	46869.23
576.95	46724.11
577.11	46848.16
577.27	47143.07
577.43	47089.24
577.59	46955.83
577.75	46686.67
577.92	46485.38
578.08	46581.34
578.24	46417.50
578.40	46747.52
578.56	46920.72
578.72	46562.62
578.88	47318.61
579.04	47147.75
579.21	46796.67
579.37	46817.74
579.53	46672.62
579.69	46948.81
579.85	47337.33
580.01	47051.79
580.17	47119.66
580.33	47316.27
580.49	47327.97
580.65	47217.97
580.82	47213.29
580.98	46689.01
581.14	47313.93
581.30	47100.94
581.46	46967.53
581.62	47140.73
581.78	46710.07
581.94	47292.86
582.10	47007.32
582.26	47267.12
582.42	46988.60
582.58	46972.21
582.74	47021.36
582.90	47122.01
583.06	47337.33
583.22	47278.82
583.38	47332.65
583.54	47374.78
583.70	47122.01
583.86	47475.43
584.02	46799.01
584.18	47384.15
584.34	47140.73
584.50	47199.24
584.66	47002.64
584.82	46880.93
584.98	47208.61
585.14	47276.48
585.30	46948.81
585.46	47168.82
585.62	47290.52
585.78	47119.66
585.94	46649.22
586.10	46997.96
586.26	46674.96
586.42	47569.05
586.58	47044.77
586.74	47447.34
586.90	47187.54
587.06	47203.92
587.22	47229.67
587.38	46768.58
587.54	46756.88
587.70	47416.91
587.86	46892.63
588.02	47157.11
588.18	47037.75
588.34	46866.89
588.49	46412.82
588.65	46101.53
588.81	46319.20
588.97	46553.26
589.13	46113.23
589.29	46595.38
589.45	46824.76
589.61	47346.70
589.77	47110.30
589.93	46904.34
