SpectraSuite Data File
++++++++++++++++++++++++++++++++++++
Date: Fri Oct 25 11:24:08 EDT 2013
User: price-jones
Dark Spectrum Present: No
Reference Spectrum Present: No
Number of Sampled Component Spectra: 1
Spectrometers: USB2+H05261
Integration Time (usec): 100000 (USB2+H05261)
Spectra Averaged: 1 (USB2+H05261)
Boxcar Smoothing: 0 (USB2+H05261)
Correct for Electrical Dark: No (USB2+H05261)
Strobe/Lamp Enabled: No (USB2+H05261)
Correct for Detector Non-linearity: No (USB2+H05261)
Correct for Stray Light: No (USB2+H05261)
Number of Pixels in Processed Spectrum: 2048
>>>>>Begin Processed Spectral Data<<<<<
365.73	191.92
365.92	191.92
366.12	191.92
366.32	149.79
366.52	140.43
366.72	131.07
366.91	159.16
367.11	159.16
367.31	156.82
367.51	110.01
367.70	133.41
367.90	124.05
368.10	138.09
368.30	194.26
368.49	135.75
368.69	159.16
368.89	194.26
369.09	187.24
369.28	168.52
369.48	142.77
369.68	145.11
369.87	203.63
370.07	149.79
370.27	278.52
370.47	339.38
370.66	580.45
370.86	660.03
371.06	615.56
371.25	641.31
371.45	674.07
371.65	650.67
371.84	683.44
372.04	723.23
372.24	690.46
372.44	716.20
372.63	676.41
372.83	660.03
373.03	727.91
373.22	781.74
373.42	709.18
373.62	739.61
373.81	802.80
374.01	898.77
374.21	802.80
374.40	861.32
374.60	835.57
374.79	748.97
374.99	826.21
375.19	877.70
375.38	868.34
375.58	819.19
375.78	807.48
375.97	835.57
376.17	912.81
376.37	931.53
376.56	847.27
376.76	912.81
376.95	910.47
377.15	910.47
377.35	976.00
377.54	884.72
377.74	912.81
377.93	938.55
378.13	950.26
378.33	926.85
378.52	908.13
378.72	870.68
378.91	898.77
379.11	884.72
379.31	873.02
379.50	938.55
379.70	943.24
379.89	903.45
380.09	968.98
380.28	978.34
380.48	936.21
380.68	950.26
380.87	1032.18
381.07	1008.77
381.26	1062.60
381.46	968.98
381.65	945.58
381.85	1013.45
382.04	1095.37
382.24	968.98
382.43	1067.28
382.63	1018.13
382.83	1116.44
383.02	1118.78
383.22	1116.44
383.41	1025.15
383.61	1062.60
383.80	1121.12
384.00	1137.50
384.19	1069.62
384.39	1128.14
384.58	1071.97
384.78	1170.27
384.97	1179.63
385.17	1132.82
385.36	1160.91
385.56	1214.74
385.75	1240.48
385.95	1151.54
386.14	1196.01
386.34	1235.80
386.53	1210.06
386.72	1186.65
386.92	1184.31
387.11	1296.66
387.31	1235.80
387.50	1172.61
387.70	1214.74
387.89	1268.57
388.09	1196.01
388.28	1296.66
388.48	1289.64
388.67	1259.21
388.86	1331.76
389.06	1294.32
389.25	1376.24
389.45	1369.21
389.64	1310.70
389.84	1385.60
390.03	1378.58
390.22	1383.26
390.42	1359.85
390.61	1329.42
390.81	1465.18
391.00	1406.66
391.19	1481.56
391.39	1483.90
391.58	1404.32
391.78	1441.77
391.97	1509.65
392.16	1460.49
392.36	1554.12
392.55	1483.90
392.75	1476.88
392.94	1533.05
393.13	1624.33
393.33	1598.59
393.52	1605.61
393.71	1600.93
393.91	1586.88
394.10	1511.99
394.29	1621.99
394.49	1652.42
394.68	1666.46
394.88	1664.12
395.07	1650.08
395.26	1652.42
395.46	1755.40
395.65	1696.89
395.84	1645.40
396.04	1837.32
396.23	1804.55
396.42	1778.81
396.62	1802.21
396.81	1710.93
397.00	1685.19
397.19	1776.47
397.39	1853.70
397.58	1921.58
397.77	1748.38
397.97	1804.55
398.16	1816.26
398.35	1858.39
398.55	1827.96
398.74	1837.32
398.93	1961.37
399.12	1823.28
399.32	1933.28
399.51	1933.28
399.70	2064.35
399.90	2008.18
400.09	2090.10
400.28	1998.82
400.47	2073.71
400.67	2073.71
400.86	2186.06
401.05	2087.76
401.24	2129.89
401.44	2073.71
401.63	2162.66
401.82	2076.06
402.01	2059.67
402.21	2172.02
402.40	2200.10
402.59	2202.44
402.78	2239.89
402.97	2218.83
403.17	2225.85
403.36	2305.43
403.55	2267.98
403.74	2354.58
403.93	2338.20
404.13	2368.62
404.32	2317.13
404.51	2413.09
404.70	2326.49
404.89	2392.03
405.09	2478.63
405.28	2513.74
405.47	2413.09
405.66	2537.14
405.85	2597.99
406.05	2581.61
406.24	2715.02
406.43	2644.81
406.62	2710.34
406.81	2799.28
407.00	2724.38
407.20	2586.29
407.39	2656.51
407.58	2696.30
407.77	2698.64
407.96	2801.62
408.15	2818.00
408.34	2745.45
408.54	2754.81
408.73	3000.57
408.92	2738.43
409.11	2794.60
409.30	2878.86
409.49	2928.01
409.68	2986.52
409.87	2881.20
410.07	3049.72
410.26	2991.20
410.45	2993.55
410.64	3082.49
410.83	3115.25
411.02	3173.77
411.21	3213.56
411.40	3084.83
411.59	3262.71
411.78	3307.18
411.98	3194.83
412.17	3192.49
412.36	3337.60
412.55	3335.26
412.74	3449.95
412.93	3496.76
413.12	3501.44
413.31	3531.87
413.50	3396.12
413.69	3496.76
413.88	3595.06
414.07	3571.66
414.26	3742.52
414.45	3681.66
414.64	3667.62
414.83	3805.71
415.02	3644.21
415.22	3880.61
415.41	3791.67
415.60	3911.04
415.79	3791.67
415.98	3875.93
416.17	4088.92
416.36	3953.16
416.55	4084.23
416.74	4140.41
416.93	4119.34
417.12	3932.10
417.31	4060.83
417.50	4217.65
417.69	4294.88
417.88	4390.84
418.07	4142.75
418.26	4348.72
418.45	4315.95
418.64	4514.89
418.83	4472.76
419.02	4383.82
419.21	4500.85
419.39	4517.23
419.58	4477.44
419.77	4566.39
419.96	4645.96
420.15	4617.88
420.34	4674.05
420.53	4697.46
420.72	4706.82
420.91	4678.73
421.10	4774.69
421.29	4959.60
421.48	4631.92
421.67	4887.04
421.86	4770.01
422.05	4835.55
422.24	4816.82
422.43	4877.68
422.61	4912.78
422.80	4985.34
422.99	4915.12
423.18	5069.60
423.37	5032.15
423.56	4882.36
423.75	4957.25
423.94	4833.21
424.13	4760.65
424.32	4823.84
424.50	5018.11
424.69	5191.31
424.88	5057.90
425.07	5067.26
425.26	4821.50
425.45	5055.56
425.64	4964.28
425.83	5111.73
426.01	5100.03
426.20	4952.57
426.39	5111.73
426.58	5100.03
426.77	4905.76
426.96	5203.01
427.15	5069.60
427.33	5345.78
427.52	5177.26
427.71	5221.74
427.90	5350.46
428.09	5301.31
428.28	5378.55
428.46	5380.89
428.65	5495.58
428.84	5584.52
429.03	5544.73
429.22	5240.46
429.40	5511.96
429.59	5586.86
429.78	5376.21
429.97	5329.40
430.16	5387.91
430.34	5423.02
430.53	5746.02
430.72	5692.18
430.91	5703.89
431.10	5617.29
431.28	5753.04
431.47	5834.96
431.66	5973.05
431.85	5699.20
432.03	5930.92
432.22	5984.75
432.41	5902.83
432.60	5825.59
432.79	6008.16
432.97	5940.28
433.16	5877.09
433.35	6003.47
433.54	6033.90
433.72	6370.94
433.91	6214.12
434.10	6363.92
434.28	6176.67
434.47	6382.64
434.66	6366.26
434.85	6530.09
435.03	6097.10
435.22	6230.51
435.41	6520.73
435.59	6455.20
435.78	6394.34
435.97	6399.02
436.16	6553.50
436.34	6574.56
436.53	6487.96
436.72	6537.12
436.90	6565.20
437.09	6628.40
437.28	6593.29
437.46	6626.06
437.65	6726.70
437.84	6782.87
438.02	6885.86
438.21	6679.89
438.40	6780.53
438.58	6956.07
438.77	7150.34
438.96	6729.04
439.14	7108.21
439.33	7035.65
439.52	7171.40
439.70	7384.39
439.89	7417.16
440.08	7417.16
440.26	7375.03
440.45	7382.05
440.63	7492.05
440.82	7793.98
441.01	7515.46
441.19	7765.90
441.38	7691.00
441.57	7707.38
441.75	7611.42
441.94	8102.93
442.12	7824.41
442.31	7957.82
442.50	8124.00
442.68	7950.80
442.87	7957.82
443.05	8154.43
443.24	8229.32
443.43	8102.93
443.61	8264.43
443.80	8526.57
443.98	8217.62
444.17	8114.64
444.35	8264.43
444.54	8156.77
444.73	8329.97
444.91	8234.00
445.10	8517.21
445.28	8379.12
445.47	8273.79
445.65	8365.07
445.84	8383.80
446.02	8407.20
446.21	8360.39
446.39	8479.76
446.58	8456.36
446.77	8662.32
446.95	8411.89
447.14	8465.72
447.32	8456.36
447.51	8425.93
447.69	8599.13
447.88	8559.34
448.06	8404.86
448.25	8533.59
448.43	8489.12
448.62	8557.00
448.80	8662.32
448.99	8676.37
449.17	8774.67
449.36	8727.86
449.54	8875.31
449.73	9046.17
449.91	9029.79
450.10	8924.46
450.28	9050.85
450.46	9083.62
450.65	9078.94
450.83	9043.83
451.02	9074.26
451.20	9118.73
451.39	9064.89
451.57	9135.11
451.76	8915.10
451.94	9224.05
452.13	9252.14
452.31	9179.58
452.49	9320.01
452.68	9415.98
452.86	9514.28
453.05	9635.99
453.23	9659.39
453.42	9231.07
453.60	9373.85
453.78	9516.62
453.97	9645.35
454.15	9509.60
454.34	9521.30
454.52	9745.99
454.70	9731.95
454.89	9818.55
455.07	9820.89
455.26	9877.06
455.44	9874.72
455.62	9797.48
455.81	10033.88
455.99	10111.11
456.17	10050.26
456.36	10176.65
456.54	10068.98
456.73	10324.10
456.91	10668.16
457.09	10518.37
457.28	10611.99
457.46	10333.47
457.64	10513.69
457.83	10752.42
458.01	10539.43
458.19	10927.96
458.38	10726.68
458.56	10839.02
458.74	10801.57
458.93	10595.61
459.11	10696.25
459.29	10839.02
459.48	10747.74
459.66	10916.26
459.84	11117.54
460.03	11304.79
460.21	11108.18
460.39	11068.39
460.57	11035.63
460.76	11353.94
460.94	11236.91
461.12	11316.49
461.31	11145.63
461.49	11286.06
461.67	11033.29
461.85	11419.47
462.04	11328.19
462.22	11578.63
462.40	11712.04
462.59	11538.84
462.77	11611.40
462.95	11676.93
463.13	11653.53
463.32	11833.75
463.50	11899.28
463.68	11843.11
463.86	11967.16
464.05	11477.99
464.23	11616.08
464.41	11948.43
464.59	11646.51
464.78	11988.22
464.96	12044.40
465.14	11606.72
465.32	12320.58
465.50	12072.48
465.69	12219.94
465.87	12315.90
466.05	12215.26
466.23	12191.85
466.41	12170.79
466.60	12610.81
466.78	12259.73
466.96	12205.89
467.14	12222.28
467.32	12271.43
467.51	12622.51
467.69	12208.23
467.87	12542.93
468.05	12659.96
468.23	12376.75
468.41	12465.69
468.60	12615.49
468.78	12966.57
468.96	12601.44
469.14	12915.08
469.32	13160.83
469.50	12910.40
469.69	13273.18
469.87	13303.60
470.05	13434.68
470.23	13139.77
470.41	13348.08
470.59	13371.48
470.77	13233.39
470.95	13352.76
471.14	13429.99
471.32	13453.40
471.50	13851.29
471.68	13710.86
471.86	13572.77
472.04	13827.88
472.22	13954.27
472.40	13657.03
472.58	13830.23
472.77	14083.00
472.95	14197.69
473.13	14541.75
473.31	14153.22
473.49	14459.83
473.67	14153.22
473.85	14291.31
474.03	14604.94
474.21	14658.78
474.39	14808.57
474.57	14876.44
474.75	15026.24
474.93	14827.29
475.12	15154.97
475.30	15140.93
475.48	15009.86
475.66	15150.29
475.84	15124.54
476.02	15503.71
476.20	15482.64
476.38	15917.98
476.56	15901.60
476.74	15690.95
476.92	16156.72
477.10	15983.52
477.28	16217.57
477.46	16187.14
477.64	16411.84
477.82	16725.47
478.00	17071.87
478.18	16992.29
478.36	17170.17
478.54	17603.17
478.72	17090.59
478.90	17280.18
479.08	17764.67
479.26	17502.53
479.44	17825.52
479.62	18115.75
479.80	18279.58
479.98	17942.55
480.16	18567.47
480.34	18375.55
480.52	18663.43
480.70	18803.86
480.88	18675.13
481.06	18719.60
481.24	18946.64
481.41	19454.53
481.59	19250.91
481.77	19435.81
481.95	19609.01
482.13	19976.47
482.31	19999.88
482.49	20231.59
482.67	20407.13
482.85	20336.91
483.03	20467.98
483.21	20985.24
483.39	21022.69
483.57	20999.29
483.74	21298.88
483.92	21781.03
484.10	21294.19
484.28	21792.73
484.46	21986.99
484.64	22494.89
484.82	22181.26
485.00	22576.81
485.18	22785.12
485.35	23178.33
485.53	22960.66
485.71	23180.67
485.89	23491.96
486.07	23419.40
486.25	23433.44
486.43	23934.32
486.61	24233.91
486.78	24051.34
486.96	24386.04
487.14	24587.33
487.32	24779.25
487.50	25144.38
487.68	24769.89
487.85	25397.15
488.03	25570.35
488.21	26113.36
488.39	25933.14
488.57	26129.74
488.75	26281.88
488.92	26548.70
489.10	26813.18
489.28	26647.00
489.46	27061.27
489.64	27089.36
489.81	27674.49
489.99	27669.81
490.17	27948.34
490.35	28252.61
490.53	28208.14
490.70	28701.99
490.88	28517.09
491.06	28615.39
491.24	29158.39
491.41	29149.03
491.59	29282.44
491.77	29600.76
491.95	29481.39
492.13	29830.13
492.30	29979.92
492.48	30281.85
492.66	30536.97
492.84	30445.69
493.01	30934.86
493.19	30962.95
493.37	31718.94
493.54	31538.72
493.72	31590.21
493.90	31541.06
494.08	31835.97
494.25	32053.64
494.43	31901.50
494.61	32739.41
494.79	32823.67
494.96	32524.08
495.14	33013.26
495.32	33357.32
495.49	33261.35
495.67	33149.01
495.85	33776.27
496.02	34342.68
496.20	34335.66
496.38	34113.31
496.55	34433.96
496.73	35091.65
496.91	34726.53
497.09	35082.29
497.26	34953.56
497.44	35129.10
497.62	35295.28
497.79	36062.97
497.97	35611.25
498.14	36116.81
498.32	36381.29
498.50	36362.56
498.67	36704.28
498.85	36715.98
499.03	36987.49
499.20	36964.08
499.38	36989.83
499.56	37202.82
499.73	37453.25
499.91	37556.24
500.08	37560.92
500.26	37500.06
500.44	37991.58
500.61	37858.17
500.79	38124.99
500.97	38396.49
501.14	38848.21
501.32	39016.73
501.49	38780.34
501.67	39194.61
501.84	39065.88
502.02	39112.69
502.20	39210.99
502.37	39288.23
502.55	39168.87
502.72	40093.38
502.90	39454.41
503.07	39723.57
503.25	40048.91
503.43	40072.31
503.60	40128.48
503.78	40175.30
503.95	40877.46
504.13	41165.34
504.30	40491.27
504.48	40868.09
504.65	41034.27
504.83	41284.71
505.01	41596.00
505.18	41392.37
505.36	41816.01
505.53	41457.91
505.71	41895.59
505.88	41900.27
506.06	41572.60
506.23	42014.96
506.41	42436.25
506.58	41937.72
506.76	42246.67
506.93	42845.85
507.11	42038.36
507.28	42513.49
507.46	42990.96
507.63	42923.08
507.81	43426.30
507.98	43138.41
508.16	43416.94
508.33	43688.44
508.50	43833.55
508.68	43927.17
508.85	44114.42
509.03	43894.41
509.20	44268.89
509.38	44240.81
509.55	44861.05
509.73	44964.03
509.90	44971.05
510.08	44989.78
510.25	45160.64
510.42	44502.95
510.60	45640.45
510.77	45371.28
510.95	45633.42
511.12	45593.64
511.30	45247.24
511.47	45572.57
511.64	45872.16
511.82	45947.06
511.99	45834.71
512.17	45954.08
512.34	46021.95
512.51	46511.13
512.69	46522.83
512.86	46548.57
513.04	46717.09
513.21	46801.35
513.38	46628.15
513.56	47524.58
513.73	46965.19
513.90	47210.95
514.08	46784.97
514.25	47243.71
514.43	47482.45
514.60	47709.48
514.77	47377.12
514.95	47847.57
515.12	47433.30
515.29	47784.38
515.47	47906.08
515.64	48399.94
515.81	48399.94
515.99	48271.21
516.16	48568.46
516.33	48294.61
516.51	48619.95
516.68	48456.11
516.85	48619.95
517.03	48872.73
517.20	48825.92
517.37	48961.67
517.54	49078.69
517.72	49228.49
517.89	49570.21
518.06	49488.29
518.24	49324.45
518.41	49151.25
518.58	49837.03
518.75	49640.42
518.93	49516.37
519.10	49935.33
519.27	49954.05
519.45	49921.29
519.62	50010.23
519.79	50185.77
519.96	50436.20
520.14	50443.23
520.31	50082.78
520.48	50677.28
520.65	50253.64
520.83	50873.88
521.00	50843.46
521.17	50859.84
521.34	51103.26
521.52	50930.06
521.69	50916.01
521.86	51019.00
522.03	51297.52
522.20	51611.15
522.38	51337.31
522.55	51510.51
522.72	51372.42
522.89	51765.63
523.07	51910.74
523.24	51592.43
523.41	51896.70
523.58	51723.50
523.75	51913.08
523.92	51985.64
524.10	52456.09
524.27	52289.91
524.44	52336.72
524.61	52669.08
524.78	52217.35
524.96	52191.61
525.13	52212.67
525.30	52861.00
525.47	52388.21
525.64	52362.46
525.81	52739.29
525.98	52790.78
526.16	52933.56
526.33	52786.10
526.50	53078.67
526.67	52933.56
526.84	53310.38
527.01	53001.43
527.18	53125.48
527.36	53153.57
527.53	53088.03
527.70	53399.32
527.87	53535.07
528.04	53474.22
528.21	53727.00
528.38	53748.06
528.55	53860.41
528.72	53577.20
528.89	53539.75
529.07	53476.56
529.24	53434.43
529.41	54038.29
529.58	53841.68
529.75	53600.61
529.92	54092.12
530.09	53972.75
530.26	54363.62
530.43	53954.03
530.60	53813.60
530.77	54148.29
530.94	54340.22
531.11	54019.56
531.28	54323.83
531.46	54211.49
531.63	54602.36
531.80	54468.95
531.97	54595.34
532.14	54710.02
532.31	54555.55
532.48	54522.78
532.65	54621.08
532.82	54485.33
532.99	54976.84
533.16	54724.07
533.33	54983.86
533.50	55070.46
533.67	54988.55
533.84	55140.68
534.01	55033.02
534.18	55185.15
534.35	55524.53
534.52	55192.17
534.69	55627.51
534.86	55388.78
535.03	55311.54
535.20	55145.36
535.37	55664.96
535.54	55451.97
535.71	55346.65
535.88	55667.30
536.05	55566.66
536.22	55550.27
536.38	55831.14
536.55	55812.41
536.72	55887.31
536.89	55711.77
537.06	55536.23
537.23	55739.86
537.40	55838.16
537.57	55929.44
537.74	55711.77
537.91	55976.25
538.08	56149.45
538.25	55828.80
538.42	56097.96
538.59	56114.34
538.75	56095.62
538.92	56430.32
539.09	56509.89
539.26	56416.27
539.43	56144.77
539.60	56662.03
539.77	56404.57
539.94	56563.73
540.11	56547.34
540.28	56655.01
540.44	56652.67
540.61	56472.45
540.78	56432.66
540.95	56589.47
541.12	56458.40
541.29	56673.73
541.46	56528.62
541.62	56921.83
541.79	56804.80
541.96	56315.63
542.13	56835.23
542.30	56870.34
542.47	56863.32
542.63	57003.75
542.80	56928.85
542.97	57312.70
543.14	57329.08
543.31	57202.69
543.48	57324.40
543.64	57546.75
543.81	57441.43
543.98	57535.05
544.15	57614.63
544.32	57804.21
544.48	57890.81
544.65	57502.28
544.82	57609.95
544.99	57434.41
545.16	57684.84
545.32	57329.08
545.49	57886.13
545.66	57958.69
545.83	57778.46
546.00	57883.79
546.16	57846.34
546.33	57588.88
546.50	57701.23
546.67	57820.59
546.83	57799.53
547.00	57956.35
547.17	58005.50
547.34	57822.93
547.50	58075.71
547.67	58412.75
547.84	58026.56
548.00	58190.40
548.17	58361.26
548.34	58255.93
548.51	58209.12
548.67	58422.11
548.84	58419.77
549.01	58143.59
549.18	58162.31
549.34	58454.88
549.51	58361.26
549.68	58473.60
549.84	58464.24
550.01	58564.88
550.18	58501.69
550.34	58623.40
550.51	58557.86
550.68	58604.67
550.84	58475.94
551.01	58571.91
551.18	58562.54
551.34	58642.12
551.51	58688.93
551.68	58688.93
551.84	58822.34
552.01	58550.84
552.18	58887.88
552.34	58609.35
552.51	58754.47
552.68	58733.40
552.84	58944.05
553.01	59070.44
553.18	58887.88
553.34	59110.23
553.51	58859.79
553.67	59042.35
553.84	59133.63
554.01	59103.21
554.17	58913.62
554.34	59192.15
554.51	59185.13
554.67	59077.46
554.84	59278.75
555.00	59030.65
555.17	59011.93
555.33	59332.58
555.50	59196.83
555.67	59105.55
555.83	59128.95
556.00	59311.52
556.16	59377.05
556.33	59217.89
556.50	59234.28
556.66	59496.42
556.83	59522.16
556.99	59536.21
557.16	59629.83
557.32	59700.04
557.49	59765.58
557.65	59367.69
557.82	59583.02
557.98	59430.88
558.15	59611.10
558.32	59690.68
558.48	59473.01
558.65	59547.91
558.81	59604.08
558.98	59629.83
559.14	59728.13
559.31	59817.07
559.47	59693.02
559.64	59861.54
559.80	59882.61
559.97	59824.09
560.13	59746.86
560.30	59760.90
560.46	59835.80
560.63	59657.91
560.79	59840.48
560.96	60093.25
561.12	59943.46
561.29	59915.37
561.45	60027.72
561.61	59793.67
561.78	59901.33
561.94	59943.46
562.11	59798.35
562.27	60058.15
562.44	60032.40
562.60	60109.64
562.77	60126.02
562.93	60025.38
563.10	60156.45
563.26	59962.18
563.42	60306.24
563.59	59915.37
563.75	60083.89
563.92	60240.71
564.08	60182.19
564.24	60217.30
564.41	60376.46
564.57	60196.24
564.74	60266.45
564.90	60133.04
565.07	60374.12
565.23	60336.67
565.39	60203.26
565.56	60364.76
565.72	60268.79
565.88	60341.35
566.05	60095.60
566.21	60200.92
566.38	60313.26
566.54	60374.12
566.70	60559.02
566.87	60509.87
567.03	60163.47
567.19	60685.41
567.36	60385.82
567.52	60495.83
567.68	60460.72
567.85	60512.21
568.01	60488.80
568.17	60390.50
568.34	60736.90
568.50	60343.69
568.66	60580.09
568.83	60430.29
568.99	60463.06
569.15	60540.30
569.32	60285.18
569.48	60376.46
569.64	60727.54
569.81	60530.93
569.97	60350.71
570.13	60526.25
570.30	60502.85
570.46	60582.43
570.62	60650.30
570.78	60722.86
570.95	60533.28
571.11	60732.22
571.27	60568.38
571.43	60727.54
571.60	60741.58
571.76	60711.16
571.92	60528.59
572.09	60748.60
572.25	60757.97
572.41	60563.70
572.57	60729.88
572.74	60973.30
572.90	60544.98
573.06	60818.82
573.22	60776.69
573.38	60985.00
573.55	60844.57
573.71	60900.74
573.87	60755.63
574.03	60626.90
574.20	60926.49
574.36	60608.17
574.52	60676.05
574.68	60926.49
574.84	61027.13
575.01	60863.29
575.17	60697.11
575.33	60795.42
575.49	60783.71
575.65	60889.04
575.82	60945.21
575.98	60952.23
576.14	61043.51
576.30	60970.96
576.46	60970.96
576.62	60874.99
576.79	61013.08
576.95	60762.65
577.11	60853.93
577.27	60867.97
577.43	60903.08
577.59	60757.97
577.75	60872.65
577.92	60870.31
578.08	60942.87
578.24	60905.42
578.40	61097.34
578.56	61050.53
578.72	60818.82
578.88	61022.45
579.04	61162.88
579.21	61078.62
579.37	61160.54
579.53	61144.16
579.69	60900.74
579.85	60956.91
580.01	61031.81
580.17	60992.02
580.33	61015.43
580.49	61137.13
580.65	60874.99
580.82	61083.30
580.98	60884.36
581.14	60886.70
581.30	61036.49
581.46	61169.90
581.62	61104.37
581.78	61137.13
581.94	61359.48
582.10	61010.74
582.26	61041.17
582.42	61141.81
582.58	61113.73
582.74	61059.90
582.90	61034.15
583.06	61162.88
583.22	60835.20
583.38	61167.56
583.54	60985.00
583.70	61162.88
583.86	61146.50
584.02	61022.45
584.18	61207.35
584.34	61010.74
584.50	61331.40
584.66	61052.87
584.82	61022.45
584.98	61322.04
585.14	61118.41
585.30	61331.40
585.46	60947.55
585.62	61059.90
585.78	61279.91
585.94	60996.70
586.10	61254.16
586.26	61043.51
586.42	61249.48
586.58	61057.56
586.74	61165.22
586.90	60942.87
587.06	60889.04
587.22	61354.80
587.38	61059.90
587.54	61200.33
587.70	61373.53
587.86	61127.77
588.02	61265.86
588.18	61307.99
588.34	61123.09
588.49	61076.28
