SpectraSuite Data File
++++++++++++++++++++++++++++++++++++
Date: Fri Oct 25 10:48:19 EDT 2013
User: price-jones
Dark Spectrum Present: No
Reference Spectrum Present: No
Number of Sampled Component Spectra: 1
Spectrometers: USB2+H05261
Integration Time (usec): 100000 (USB2+H05261)
Spectra Averaged: 1 (USB2+H05261)
Boxcar Smoothing: 0 (USB2+H05261)
Correct for Electrical Dark: No (USB2+H05261)
Strobe/Lamp Enabled: No (USB2+H05261)
Correct for Detector Non-linearity: No (USB2+H05261)
Correct for Stray Light: No (USB2+H05261)
Number of Pixels in Processed Spectrum: 2048
>>>>>Begin Processed Spectral Data<<<<<
365.73	138.09
365.92	138.09
366.12	138.09
366.32	81.92
366.52	74.90
366.72	0.00
366.91	51.49
367.11	102.98
367.31	53.83
367.51	119.37
367.70	18.72
367.90	81.92
368.10	102.98
368.30	25.75
368.49	9.36
368.69	110.01
368.89	100.64
369.09	23.41
369.28	58.51
369.48	84.26
369.68	91.28
369.87	145.11
370.07	102.98
370.27	177.88
370.47	229.37
370.66	383.85
370.86	468.11
371.06	533.64
371.25	519.60
371.45	414.27
371.65	472.79
371.84	486.83
372.04	475.13
372.24	552.37
372.44	547.69
372.63	533.64
372.83	561.73
373.03	599.18
373.22	477.47
373.42	559.39
373.62	596.84
373.81	578.11
374.01	517.26
374.21	585.13
374.40	510.24
374.60	596.84
374.79	594.50
374.99	655.35
375.19	650.67
375.38	587.47
375.58	610.88
375.78	601.52
375.97	631.94
376.17	641.31
376.37	702.16
376.56	624.92
376.76	599.18
376.95	674.07
377.15	683.44
377.35	711.52
377.54	734.93
377.74	636.63
377.93	653.01
378.13	624.92
378.33	664.71
378.52	662.37
378.72	608.54
378.91	704.50
379.11	732.59
379.31	645.99
379.50	690.46
379.70	723.23
379.89	748.97
380.09	795.78
380.28	746.63
380.48	727.91
380.68	758.33
380.87	854.30
381.07	798.12
381.26	706.84
381.46	730.25
381.65	767.70
381.85	798.12
382.04	767.70
382.24	814.51
382.43	755.99
382.63	648.33
382.83	753.65
383.02	763.01
383.22	812.17
383.41	763.01
383.61	704.50
383.80	835.57
384.00	844.93
384.19	844.93
384.39	887.06
384.58	763.01
384.78	915.15
384.97	866.00
385.17	833.23
385.36	908.13
385.56	823.87
385.75	814.51
385.95	837.91
386.14	861.32
386.34	826.21
386.53	901.11
386.72	835.57
386.92	968.98
387.11	947.92
387.31	985.37
387.50	903.45
387.70	905.79
387.89	875.36
388.09	933.87
388.28	1020.47
388.48	994.73
388.67	1039.20
388.86	933.87
389.06	1008.77
389.25	1057.92
389.45	966.64
389.64	1041.54
389.84	1083.67
390.03	1109.41
390.22	1109.41
390.42	980.68
390.61	1081.33
390.81	1104.73
391.00	1116.44
391.19	1142.18
391.39	1146.86
391.58	1142.18
391.78	1102.39
391.97	1109.41
392.16	1081.33
392.36	1043.88
392.55	1055.58
392.75	1146.86
392.94	1025.15
393.13	1036.86
393.33	936.21
393.52	1041.54
393.71	1100.05
393.91	1151.54
394.10	1160.91
394.29	1146.86
394.49	1317.72
394.68	1170.27
394.88	1226.44
395.07	1294.32
395.26	1252.19
395.46	1397.30
395.65	1280.27
395.84	1212.40
396.04	1308.36
396.23	1331.76
396.42	1233.46
396.62	1228.78
396.81	1268.57
397.00	1296.66
397.19	1352.83
397.39	1434.75
397.58	1390.28
397.77	1378.58
397.97	1479.22
398.16	1481.56
398.35	1544.75
398.55	1533.05
398.74	1570.50
398.93	1624.33
399.12	1572.84
399.32	1579.86
399.51	1526.03
399.70	1694.55
399.90	1519.01
400.09	1645.40
400.28	1685.19
400.47	1715.61
400.67	1863.07
400.86	1703.91
401.05	1813.92
401.24	1774.13
401.44	1881.79
401.63	1781.15
401.82	1856.04
402.01	1795.19
402.21	1874.77
402.40	1804.55
402.59	1837.32
402.78	1813.92
402.97	1844.34
403.17	1998.82
403.36	1928.60
403.55	1830.30
403.74	1935.62
403.93	1923.92
404.13	1994.14
404.32	1954.35
404.51	1977.75
404.70	2087.76
404.89	1998.82
405.09	2033.93
405.28	2038.61
405.47	2139.25
405.66	2008.18
405.85	2108.82
406.05	2104.14
406.24	2057.33
406.43	2122.87
406.62	2174.36
406.81	2207.13
407.00	2134.57
407.20	2066.69
407.39	2157.97
407.58	2361.60
407.77	2275.00
407.96	2284.36
408.15	2382.67
408.34	2354.58
408.54	2282.02
408.73	2310.11
408.92	2310.11
409.11	2490.33
409.30	2389.69
409.49	2450.54
409.68	2408.41
409.87	2385.01
410.07	2457.56
410.26	2485.65
410.45	2499.69
410.64	2579.27
410.83	2677.57
411.02	2593.31
411.21	2726.72
411.40	2642.46
411.59	2736.09
411.78	2801.62
411.98	2679.91
412.17	2820.35
412.36	2754.81
412.55	2923.33
412.74	2972.48
412.93	2827.37
413.12	2761.83
413.31	3026.31
413.50	2874.18
413.69	2794.60
413.88	3063.76
414.07	2974.82
414.26	3066.10
414.45	3225.26
414.64	3155.04
414.83	3194.83
415.02	3239.30
415.22	3283.77
415.41	3309.52
415.60	3405.48
415.79	3300.16
415.98	3541.23
416.17	3478.04
416.36	3510.80
416.55	3419.52
416.74	3419.52
416.93	3433.57
417.12	3435.91
417.31	3515.48
417.50	3428.88
417.69	3548.25
417.88	3576.34
418.07	3541.23
418.26	3508.46
418.45	3651.24
418.64	3634.85
418.83	3674.64
419.02	3721.45
419.21	3786.99
419.39	3723.79
419.58	3695.71
419.77	3714.43
419.96	3859.54
420.15	3815.07
420.34	3691.02
420.53	3868.91
420.72	4021.04
420.91	4018.70
421.10	3988.27
421.29	3936.78
421.48	3906.35
421.67	3948.48
421.86	4037.42
422.05	3948.48
422.24	3847.84
422.43	4046.79
422.61	3978.91
422.80	4112.32
422.99	4056.15
423.18	4145.09
423.37	4203.60
423.56	4161.47
423.75	4131.05
423.94	3929.76
424.13	3920.40
424.32	3941.46
424.50	4182.54
424.69	4297.22
424.88	4191.90
425.07	4128.70
425.26	3995.29
425.45	4067.85
425.64	4203.60
425.83	4154.45
426.01	4250.41
426.20	4238.71
426.39	4222.33
426.58	4175.52
426.77	4166.15
426.96	4231.69
427.15	4140.41
427.33	4196.58
427.52	4297.22
427.71	4327.65
427.90	4320.63
428.09	4325.31
428.28	4369.78
428.46	4262.12
428.65	4250.41
428.84	4432.97
429.03	4486.81
429.22	4299.56
429.40	4238.71
429.59	4365.10
429.78	4102.96
429.97	3953.16
430.16	4238.71
430.34	4196.58
430.53	4379.14
430.72	4271.48
430.91	4379.14
431.10	4451.70
431.28	4664.69
431.47	4716.18
431.66	4777.03
431.85	4770.01
432.03	4800.44
432.22	4861.29
432.41	4709.16
432.60	4882.36
432.79	4765.33
432.97	4917.47
433.16	4997.04
433.35	4912.78
433.54	4858.95
433.72	4770.01
433.91	4933.85
434.10	4903.42
434.28	5004.07
434.47	5013.43
434.66	5097.69
434.85	5088.32
435.03	5252.16
435.22	5041.51
435.41	5259.18
435.59	5254.50
435.78	5313.02
435.97	5401.96
436.16	5378.55
436.34	5373.87
436.53	5357.49
436.72	5373.87
436.90	5205.35
437.09	5390.25
437.28	5366.85
437.46	5427.70
437.65	5547.07
437.84	5565.79
438.02	5455.79
438.21	5392.59
438.40	5240.46
438.58	5685.16
438.77	5610.26
438.96	5659.42
439.14	5724.95
439.33	5870.06
439.52	5797.51
439.70	5720.27
439.89	5937.94
440.08	5806.87
440.26	5994.11
440.45	5984.75
440.63	6092.41
440.82	6239.87
441.01	6272.64
441.19	6272.64
441.38	6279.66
441.57	6319.45
441.75	6384.98
441.94	6422.43
442.12	6420.09
442.31	6583.93
442.50	6494.99
442.68	6658.82
442.87	6366.26
443.05	6644.78
443.24	6604.99
443.43	6628.40
443.61	6822.66
443.80	6963.09
443.98	6516.05
444.17	6583.93
444.35	6719.68
444.54	6752.45
444.73	6808.62
444.91	6834.36
445.10	6799.26
445.28	6747.76
445.47	6635.42
445.65	6750.10
445.84	6764.15
446.02	6738.40
446.21	6387.32
446.39	6787.55
446.58	6888.20
446.77	6736.06
446.95	6722.02
447.14	6981.82
447.32	7194.81
447.51	6881.18
447.69	6911.60
447.88	6789.89
448.06	7014.59
448.25	6839.05
448.43	7115.23
448.62	7066.08
448.80	7073.10
448.99	6918.62
449.17	7133.95
449.36	7138.63
449.54	7480.35
449.73	7304.81
449.91	7461.63
450.10	7227.57
450.28	7487.37
450.46	7489.71
450.65	7583.34
450.83	7473.33
451.02	7398.43
451.20	7573.97
451.39	7588.02
451.57	7602.06
451.76	7475.67
451.94	7648.87
452.13	7501.42
452.31	7576.31
452.49	7283.75
452.68	7473.33
452.86	7433.54
453.05	7665.25
453.23	7768.24
453.42	7508.44
453.60	7672.28
453.78	7784.62
453.97	7733.13
454.15	7555.25
454.34	7644.19
454.52	7943.78
454.70	7913.35
454.89	7749.51
455.07	7852.50
455.26	7911.01
455.44	7934.42
455.62	7995.27
455.81	7903.99
455.99	8229.32
456.17	8018.68
456.36	8278.47
456.54	8166.13
456.73	8372.10
456.91	8362.73
457.09	8491.46
457.28	8601.47
457.46	8217.62
457.64	8451.67
457.83	8430.61
458.01	8369.76
458.19	8465.72
458.38	8503.17
458.56	8692.75
458.74	8533.59
458.93	8615.51
459.11	8755.94
459.29	8524.23
459.48	8718.50
459.66	8674.03
459.84	8659.98
460.03	8837.86
460.21	8793.39
460.39	8889.35
460.57	8889.35
460.76	8854.25
460.94	9165.54
461.12	9125.75
461.31	9057.87
461.49	8884.67
461.67	9076.60
461.85	9221.71
462.04	9001.70
462.22	9561.09
462.40	9191.28
462.59	9071.92
462.77	9102.34
462.95	9287.25
463.13	9233.41
463.32	9338.74
463.50	9198.31
463.68	9343.42
463.86	9451.08
464.05	9179.58
464.23	9172.56
464.41	9446.40
464.59	9364.48
464.78	9645.35
464.96	9462.79
465.14	9109.36
465.32	9713.22
465.50	9654.71
465.69	9717.90
465.87	9462.79
466.05	9593.86
466.23	9385.55
466.41	9535.34
466.60	9886.42
466.78	9451.08
466.96	9540.02
467.14	9891.10
467.32	9537.68
467.51	9851.31
467.69	9724.93
467.87	9720.24
468.05	9757.69
468.23	9900.47
468.41	9792.80
468.60	9848.97
468.78	10019.83
468.96	9916.85
469.14	10024.51
469.32	10246.87
469.50	9858.34
469.69	10190.69
469.87	10272.61
470.05	10176.65
470.23	10108.77
470.41	10195.37
470.59	10101.75
470.77	10293.68
470.95	10359.21
471.14	10665.82
471.32	10581.56
471.50	10937.32
471.68	10530.07
471.86	10607.31
472.04	10663.48
472.22	10913.92
472.40	10597.95
472.58	10721.99
472.77	11084.78
472.95	11094.14
473.13	11159.67
473.31	10906.90
473.49	10906.90
473.67	10988.82
473.85	11044.99
474.03	11253.30
474.21	11494.37
474.39	11510.75
474.57	11698.00
474.75	11545.86
474.93	11590.33
475.12	11653.53
475.30	11726.08
475.48	11489.69
475.66	11737.79
475.84	11887.58
476.02	11850.13
476.20	12044.40
476.38	12091.21
476.56	12571.02
476.74	12336.96
476.92	11988.22
477.10	12315.90
477.28	12479.74
477.46	12596.76
477.64	12823.80
477.82	12711.45
478.00	13256.79
478.18	13008.70
478.36	12903.37
478.54	13453.40
478.72	13336.37
478.90	13348.08
479.08	13434.68
479.26	13806.82
479.44	13570.43
479.62	13465.10
479.80	13855.97
479.98	14092.37
480.16	14317.06
480.34	14157.90
480.52	14260.88
480.70	14155.56
480.88	14169.60
481.06	14328.76
481.24	14361.53
481.41	14787.50
481.59	15021.56
481.77	14974.75
481.95	14782.82
482.13	14988.79
482.31	14993.47
482.49	15695.63
482.67	15480.30
482.85	15477.96
483.03	15620.74
483.21	15854.79
483.39	16219.91
483.57	15915.64
483.74	16086.50
483.92	16198.85
484.10	16372.05
484.28	16336.94
484.46	16561.63
484.64	16992.29
484.82	16589.72
485.00	16940.80
485.18	16959.52
485.35	16886.97
485.53	16905.69
485.71	16788.66
485.89	16950.16
486.07	16964.20
486.25	17121.02
486.43	17317.62
486.61	17507.21
486.78	18202.35
486.96	18104.04
487.14	18153.20
487.32	18272.56
487.50	18731.31
487.68	18820.25
487.85	19136.22
488.03	19250.91
488.21	19122.18
488.39	19176.01
488.57	19124.52
488.75	19721.35
488.92	19777.53
489.10	20067.75
489.28	20168.40
489.46	20472.67
489.64	20107.54
489.81	20837.79
489.99	21076.52
490.17	21032.05
490.35	21397.18
490.53	20943.11
490.70	21214.62
490.88	21582.08
491.06	21305.90
491.24	21345.69
491.41	21745.92
491.59	21483.78
491.77	21565.70
491.95	22015.08
492.13	22033.80
492.30	22033.80
492.48	22441.06
492.66	22618.94
492.84	22684.47
493.01	22813.20
493.19	22726.60
493.37	22984.06
493.54	23124.49
493.72	23407.70
493.90	23681.54
494.08	23398.34
494.25	23878.15
494.43	24222.20
494.61	24088.79
494.79	24297.10
494.96	24381.36
495.14	24142.63
495.32	24416.47
495.49	24617.75
495.67	24882.24
495.85	25205.23
496.02	24943.09
496.20	25289.49
496.38	25254.38
496.55	25479.07
496.73	25757.60
496.91	25303.53
497.09	26031.44
497.26	25792.70
497.44	25956.54
497.62	25949.52
497.79	26026.76
497.97	26005.69
498.14	26209.32
498.32	26518.27
498.50	26429.33
498.67	27136.17
498.85	26890.41
499.03	27328.10
499.20	26962.97
499.38	27283.62
499.56	27377.25
499.73	27393.63
499.91	27442.78
500.08	27611.30
500.26	27461.51
500.44	28126.22
500.61	27566.83
500.79	27332.78
500.97	28006.85
501.14	28477.30
501.32	28095.79
501.49	28402.40
501.67	28395.38
501.84	28428.15
502.02	28446.87
502.20	28631.77
502.37	29029.66
502.55	29532.88
502.72	28980.51
502.90	29076.48
503.07	29193.50
503.25	28889.23
503.43	28910.30
503.60	28973.49
503.78	29277.76
503.95	29584.37
504.13	29434.58
504.30	29530.54
504.48	29593.73
504.65	29972.90
504.83	30008.01
505.01	30302.92
505.18	30153.12
505.36	30522.93
505.53	30356.75
505.71	30745.28
505.88	31239.13
506.06	30436.33
506.23	30871.67
506.41	30338.02
506.58	30878.69
506.76	30895.07
506.93	30876.35
507.11	30857.62
507.28	30965.29
507.46	30794.43
507.63	31260.20
507.81	31182.96
507.98	31171.25
508.16	31679.15
508.33	31456.80
508.50	31686.17
508.68	32025.55
508.85	32362.59
509.03	32332.16
509.20	31913.20
509.38	32128.53
509.55	32315.78
509.73	32369.61
509.90	32198.75
510.08	32393.01
510.25	32526.42
510.42	32596.64
510.60	32617.71
510.77	32851.76
510.95	33305.82
511.12	33127.94
511.30	33490.73
511.47	33593.71
511.64	33544.56
511.82	34015.01
511.99	33097.52
512.17	33706.05
512.34	33116.24
512.51	33446.26
512.69	34017.35
512.86	33926.07
513.04	33977.56
513.21	34356.72
513.38	33940.11
513.56	34029.05
513.73	33715.42
513.90	34483.11
514.08	34162.46
514.25	34338.00
514.43	34639.93
514.60	34480.77
514.77	34403.53
514.95	34632.91
515.12	34768.66
515.29	34649.29
515.47	35211.02
515.64	35260.17
515.81	34717.17
515.99	35131.44
516.16	34881.00
516.33	34721.85
516.51	35026.12
516.68	34438.64
516.85	34513.54
517.03	34684.40
517.20	35157.19
517.37	35508.27
517.54	35665.08
517.72	35534.01
517.89	35227.40
518.06	35122.08
518.24	35089.31
518.41	35103.35
518.58	35573.80
518.75	35447.41
518.93	35950.63
519.10	36170.64
519.27	36390.65
519.45	36311.07
519.62	36582.57
519.79	36753.43
519.96	36371.92
520.14	37305.80
520.31	36212.77
520.48	36622.36
520.65	36973.44
520.83	36755.77
521.00	37081.11
521.17	36605.98
521.34	37373.67
521.52	37345.59
521.69	37242.60
521.86	37319.84
522.03	37207.50
522.20	37516.45
522.38	37668.58
522.55	37553.90
522.72	37778.59
522.89	37621.77
523.07	37853.48
523.24	37380.70
523.41	37818.38
523.58	37794.97
523.75	38323.93
523.92	38349.68
524.10	38756.93
524.27	38319.25
524.44	38213.93
524.61	38529.90
524.78	38511.17
524.96	38747.57
525.13	38848.21
525.30	39173.55
525.47	39313.98
525.64	38810.76
525.81	38726.50
525.98	38749.91
526.16	38670.33
526.33	38660.97
526.50	38438.62
526.67	38897.36
526.84	38712.46
527.01	38761.61
527.18	39023.75
527.36	39227.38
527.53	39276.53
527.70	39739.96
527.87	39807.83
528.04	39278.87
528.21	39620.59
528.38	39786.77
528.55	40079.33
528.72	40222.11
528.89	40289.98
529.07	40334.45
529.24	39833.58
529.41	39849.96
529.58	40128.48
529.75	39903.79
529.92	40086.36
530.09	39910.82
530.26	40722.98
530.43	40655.11
530.60	40327.43
530.77	40299.34
530.94	40582.55
531.11	40610.64
531.28	41324.50
531.46	40650.42
531.63	40531.06
531.80	41029.59
531.97	40907.88
532.14	40364.88
532.31	40708.94
532.48	40652.76
532.65	41029.59
532.82	40568.51
532.99	41048.32
533.16	40818.94
533.33	41298.75
533.50	41610.04
533.67	41462.59
533.84	41268.33
534.01	41399.40
534.18	41184.07
534.35	41783.24
534.52	41041.29
534.69	41818.35
534.86	41776.22
535.03	41488.34
535.20	42506.47
535.37	42279.44
535.54	42288.80
535.71	42174.11
535.88	42298.16
536.05	42045.38
536.22	42080.49
536.38	41886.23
536.55	41851.12
536.72	41862.82
536.89	41865.16
537.06	42122.62
537.23	42054.75
537.40	42340.29
537.57	42656.26
537.74	42478.38
537.91	42801.38
538.08	42557.96
538.25	42073.47
538.42	42312.20
538.59	42478.38
538.75	42396.46
538.92	42618.81
539.09	42766.27
539.26	42609.45
539.43	42726.48
539.60	42415.19
539.77	42412.85
539.94	42564.98
540.11	42574.34
540.28	43058.84
540.44	42576.69
540.61	42562.64
540.78	42892.66
540.95	42927.77
541.12	42719.46
541.29	43054.15
541.46	43084.58
541.62	43337.36
541.79	43505.88
541.96	43349.06
542.13	43075.22
542.30	43449.70
542.47	43196.93
542.63	43248.42
542.80	43435.66
542.97	43784.40
543.14	44137.82
543.31	43529.28
543.48	43810.15
543.64	44704.23
543.81	44065.27
543.98	44046.54
544.15	44266.55
544.32	44629.34
544.48	44428.05
544.65	44568.48
544.82	44547.42
544.99	43765.68
545.16	44292.30
545.32	44254.85
545.49	44605.93
545.66	44507.63
545.83	44390.60
546.00	44559.12
546.16	44151.87
546.33	44446.77
546.50	43929.51
546.67	44535.71
546.83	44135.48
547.00	44744.02
547.17	44645.72
547.34	44378.90
547.50	44875.09
547.67	44292.30
547.84	44774.45
548.00	44933.60
548.17	44868.07
548.34	45092.76
548.51	45144.25
548.67	45240.21
548.84	45708.32
549.01	44921.90
549.18	44727.64
549.34	45036.59
549.51	45390.01
549.68	45455.54
549.84	45104.46
550.01	45062.33
550.18	45034.25
550.34	45022.54
550.51	45085.74
550.68	45172.34
550.84	45198.09
551.01	45450.86
551.18	45329.16
551.34	45523.42
551.51	45371.28
551.68	45560.87
551.84	46036.00
552.01	45551.51
552.18	45188.72
552.34	45127.87
552.51	45434.48
552.68	45577.25
552.84	45951.74
553.01	46045.36
553.18	45872.16
553.34	45705.98
553.51	45647.47
553.67	45897.91
553.84	45949.40
554.01	46026.63
554.17	46363.67
554.34	46188.13
554.51	46141.32
554.67	46040.68
554.84	45970.46
555.00	46244.30
555.17	45928.33
555.33	46312.18
555.50	46122.60
555.67	46078.13
555.83	46330.90
556.00	46583.68
556.16	46522.83
556.33	46241.96
556.50	46115.58
556.66	45972.80
556.83	46164.73
556.99	46031.32
557.16	46361.33
557.32	46115.58
557.49	46588.36
557.65	45963.44
557.82	46391.76
557.98	46267.71
558.15	46293.46
558.32	46253.67
558.48	46422.19
558.65	46710.07
558.81	46038.34
558.98	46099.19
559.14	46286.43
559.31	46267.71
559.47	46593.04
559.64	46962.85
559.80	46794.33
559.97	46660.92
560.13	45893.22
560.30	46515.81
560.46	46735.82
560.63	46911.36
560.79	46644.54
560.96	47316.27
561.12	46754.54
561.29	46773.27
561.45	46981.57
561.61	46658.58
561.78	46864.55
561.94	46625.81
562.11	46454.95
562.27	46651.56
562.44	46410.48
562.60	46930.08
562.77	46967.53
562.93	46686.67
563.10	47182.86
563.26	46417.50
563.42	46754.54
563.59	46717.09
563.75	46862.21
563.92	47199.24
564.08	47154.77
564.24	47334.99
564.41	46981.57
564.57	46939.44
564.74	47334.99
564.90	47016.68
565.07	47271.80
565.23	46981.57
565.39	46700.71
565.56	47089.24
565.72	46974.55
565.88	47182.86
566.05	47182.86
566.21	46710.07
566.38	46536.87
566.54	47215.63
566.70	47306.91
566.87	46939.44
567.03	47199.24
567.19	47440.32
567.36	47325.63
567.52	46597.73
567.68	46995.62
567.85	47290.52
568.01	47035.41
568.17	46829.44
568.34	46918.38
568.50	47208.61
568.66	47075.19
568.83	47119.66
568.99	47089.24
569.15	47051.79
569.32	47143.07
569.48	47152.43
569.64	47356.06
569.81	47182.86
569.97	46780.29
570.13	47035.41
570.30	47168.82
570.46	46925.40
570.62	46670.28
570.78	46665.60
570.95	46789.65
571.11	47105.62
571.27	47152.43
571.43	46962.85
571.60	47201.58
571.76	47419.25
571.92	47587.77
572.09	46873.91
572.25	47192.22
572.41	47246.05
572.57	47229.67
572.74	47870.98
572.90	47203.92
573.06	47370.10
573.22	47323.29
573.38	47360.74
573.55	47168.82
573.71	47480.11
573.87	47267.12
574.03	47356.06
574.20	47370.10
574.36	46873.91
574.52	47636.92
574.68	47278.82
574.84	47318.61
575.01	47309.25
575.17	47131.37
575.33	46822.42
575.49	47119.66
575.65	47452.02
575.82	47381.80
575.98	47147.75
576.14	47760.97
576.30	47311.59
576.46	46806.03
576.62	46951.15
576.79	47175.84
576.95	46902.00
577.11	47377.12
577.27	47096.26
577.43	47583.09
577.59	47234.35
577.75	47178.18
577.92	46745.18
578.08	46925.40
578.24	46920.72
578.40	47325.63
578.56	47196.90
578.72	47065.83
578.88	47613.52
579.04	47805.44
579.21	47379.46
579.37	47075.19
579.53	46981.57
579.69	47283.50
579.85	47281.16
580.01	47290.52
580.17	47182.86
580.33	47217.97
580.49	47119.66
580.65	47302.23
580.82	47594.79
580.98	47304.57
581.14	47222.65
581.30	47416.91
581.46	47573.73
581.62	47529.26
581.78	47547.98
581.94	47379.46
582.10	47583.09
582.26	47622.88
582.42	47608.84
582.58	47679.05
582.74	47119.66
582.90	47655.65
583.06	47395.85
583.22	47842.89
583.38	47655.65
583.54	47161.79
583.70	47920.13
583.86	47655.65
584.02	47407.55
584.18	47814.80
584.34	47732.89
584.50	47440.32
584.66	47653.31
584.82	47440.32
584.98	47786.72
585.14	47484.79
585.30	47421.59
585.46	47285.84
585.62	47061.15
585.78	47173.50
585.94	47430.96
586.10	47484.79
586.26	47271.80
586.42	47154.77
586.58	47473.09
586.74	47461.38
586.90	47484.79
587.06	47276.48
587.22	47236.69
587.38	47391.17
587.54	47466.06
587.70	47374.78
587.86	47210.95
588.02	47379.46
588.18	47648.63
588.34	47264.78
588.49	46932.42
588.65	47189.88
588.81	46710.07
588.97	47089.24
589.13	47040.09
589.29	47367.76
589.45	47414.57
589.61	47463.72
589.77	47246.05
