SpectraSuite Data File
++++++++++++++++++++++++++++++++++++
Date: Fri Oct 25 11:25:23 EDT 2013
User: price-jones
Dark Spectrum Present: No
Reference Spectrum Present: No
Number of Sampled Component Spectra: 1
Spectrometers: USB2+H05261
Integration Time (usec): 100000 (USB2+H05261)
Spectra Averaged: 1 (USB2+H05261)
Boxcar Smoothing: 0 (USB2+H05261)
Correct for Electrical Dark: No (USB2+H05261)
Strobe/Lamp Enabled: No (USB2+H05261)
Correct for Detector Non-linearity: No (USB2+H05261)
Correct for Stray Light: No (USB2+H05261)
Number of Pixels in Processed Spectrum: 2048
>>>>>Begin Processed Spectral Data<<<<<
365.73	252.78
365.92	252.78
366.12	252.78
366.32	175.54
366.52	166.18
366.72	173.20
366.91	131.07
367.11	191.92
367.31	128.73
367.51	147.45
367.70	119.37
367.90	187.24
368.10	154.48
368.30	140.43
368.49	198.95
368.69	105.32
368.89	180.22
369.09	201.29
369.28	236.39
369.48	86.60
369.68	227.03
369.87	194.26
370.07	170.86
370.27	208.31
370.47	376.83
370.66	564.07
370.86	641.31
371.06	664.71
371.25	671.73
371.45	643.65
371.65	681.10
371.84	723.23
372.04	725.57
372.24	688.12
372.44	709.18
372.63	716.20
372.83	751.31
373.03	699.82
373.22	730.25
373.42	786.42
373.62	676.41
373.81	737.27
374.01	828.55
374.21	786.42
374.40	795.78
374.60	816.85
374.79	732.59
374.99	842.59
375.19	812.17
375.38	875.36
375.58	894.08
375.78	882.38
375.97	851.96
376.17	936.21
376.37	807.48
376.56	816.85
376.76	917.49
376.95	926.85
377.15	922.17
377.35	901.11
377.54	950.26
377.74	919.83
377.93	877.70
378.13	915.15
378.33	978.34
378.52	903.45
378.72	971.32
378.91	1006.43
379.11	887.06
379.31	870.68
379.50	891.74
379.70	917.49
379.89	924.51
380.09	992.39
380.28	887.06
380.48	882.38
380.68	915.15
380.87	915.15
381.07	1088.35
381.26	1046.22
381.46	912.81
381.65	1036.86
381.85	1034.52
382.04	940.90
382.24	1041.54
382.43	1123.46
382.63	959.62
382.83	1036.86
383.02	1090.69
383.22	1111.75
383.41	1172.61
383.61	1069.62
383.80	1186.65
384.00	1090.69
384.19	1025.15
384.39	1090.69
384.58	1184.31
384.78	1118.78
384.97	1177.29
385.17	1118.78
385.36	1146.86
385.56	1184.31
385.75	1177.29
385.95	1158.57
386.14	1174.95
386.34	1071.97
386.53	1146.86
386.72	1146.86
386.92	1191.33
387.11	1233.46
387.31	1301.34
387.50	1261.55
387.70	1247.51
387.89	1231.12
388.09	1324.74
388.28	1294.32
388.48	1313.04
388.67	1331.76
388.86	1287.29
389.06	1345.81
389.25	1301.34
389.45	1355.17
389.64	1385.60
389.84	1329.42
390.03	1495.60
390.22	1338.79
390.42	1320.06
390.61	1416.02
390.81	1345.81
391.00	1355.17
391.19	1397.30
391.39	1493.26
391.58	1488.58
391.78	1455.81
391.97	1561.14
392.16	1519.01
392.36	1486.24
392.55	1476.88
392.75	1549.43
392.94	1549.43
393.13	1519.01
393.33	1528.37
393.52	1533.05
393.71	1631.35
393.91	1586.88
394.10	1575.18
394.29	1629.01
394.49	1598.59
394.68	1619.65
394.88	1612.63
395.07	1689.87
395.26	1636.03
395.46	1657.10
395.65	1724.97
395.84	1778.81
396.04	1792.85
396.23	1675.82
396.42	1720.29
396.62	1603.27
396.81	1748.38
397.00	1689.87
397.19	1818.60
397.39	1806.89
397.58	1760.08
397.77	1757.74
397.97	1820.94
398.16	1851.36
398.35	1818.60
398.55	1874.77
398.74	1816.26
398.93	1898.17
399.12	1954.35
399.32	1879.45
399.51	1921.58
399.70	1984.77
399.90	1858.39
400.09	2015.20
400.28	1961.37
400.47	2015.20
400.67	2143.93
400.86	2054.99
401.05	2118.18
401.24	2113.50
401.44	2090.10
401.63	2083.08
401.82	2076.06
402.01	2057.33
402.21	2228.19
402.40	2148.61
402.59	2176.70
402.78	2104.14
402.97	2200.10
403.17	2303.09
403.36	2279.68
403.55	2193.08
403.74	2246.91
403.93	2392.03
404.13	2352.24
404.32	2312.45
404.51	2307.77
404.70	2317.13
404.89	2385.01
405.09	2368.62
405.28	2399.05
405.47	2492.67
405.66	2476.29
405.85	2499.69
406.05	2506.71
406.24	2574.59
406.43	2572.25
406.62	2654.17
406.81	2651.83
407.00	2654.17
407.20	2537.14
407.39	2555.86
407.58	2661.19
407.77	2733.75
407.96	2712.68
408.15	2682.25
408.34	2668.21
408.54	2677.57
408.73	2722.04
408.92	2792.26
409.11	2890.56
409.30	2818.00
409.49	2813.32
409.68	2923.33
409.87	2906.95
410.07	3035.67
410.26	2984.18
410.45	2928.01
410.64	3129.30
410.83	3157.38
411.02	3052.06
411.21	3148.02
411.40	3183.13
411.59	3314.20
411.78	3136.32
411.98	3101.21
412.17	3267.39
412.36	3246.32
412.55	3318.88
412.74	3346.97
412.93	3288.45
413.12	3290.79
413.31	3480.38
413.50	3398.46
413.69	3314.20
413.88	3545.91
414.07	3435.91
414.26	3463.99
414.45	3695.71
414.64	3709.75
414.83	3667.62
415.02	3646.55
415.22	3810.39
415.41	3777.62
415.60	3735.50
415.79	3854.86
415.98	3899.33
416.17	3840.82
416.36	3978.91
416.55	4126.36
416.74	3985.93
416.93	3957.85
417.12	4004.66
417.31	4187.22
417.50	4109.98
417.69	4201.26
417.88	4203.60
418.07	4250.41
418.26	4234.03
418.45	4353.40
418.64	4493.83
418.83	4238.71
419.02	4411.91
419.21	4517.23
419.39	4458.72
419.58	4484.47
419.77	4423.61
419.96	4510.21
420.15	4425.95
420.34	4559.36
420.53	4397.87
420.72	4580.43
420.91	4559.36
421.10	4681.07
421.29	4751.29
421.48	4643.62
421.67	4589.79
421.86	4617.88
422.05	4774.69
422.24	4807.46
422.43	4812.14
422.61	4793.42
422.80	4697.46
422.99	4830.87
423.18	4931.51
423.37	4983.00
423.56	4795.76
423.75	4898.74
423.94	4826.18
424.13	4620.22
424.32	4695.11
424.50	4882.36
424.69	5181.95
424.88	5132.79
425.07	4903.42
425.26	4954.91
425.45	4959.60
425.64	4945.55
425.83	4814.48
426.01	4994.70
426.20	4992.36
426.39	5027.47
426.58	4915.12
426.77	4905.76
426.96	5100.03
427.15	5090.67
427.33	5125.77
427.52	5121.09
427.71	5261.52
427.90	5210.03
428.09	5235.78
428.28	5270.89
428.46	5399.62
428.65	5411.32
428.84	5467.49
429.03	5453.45
429.22	5355.15
429.40	5439.40
429.59	5408.98
429.78	5181.95
429.97	5228.76
430.16	5455.79
430.34	5542.39
430.53	5511.96
430.72	5528.35
430.91	5589.20
431.10	5645.37
431.28	5825.59
431.47	5582.18
431.66	5823.25
431.85	5886.45
432.03	5867.72
432.22	5940.28
432.41	5858.36
432.60	5884.11
432.79	5923.90
432.97	5928.58
433.16	5942.62
433.35	5863.04
433.54	5898.15
433.72	6120.50
433.91	6094.76
434.10	6232.85
434.28	6078.37
434.47	6052.63
434.66	6157.95
434.85	6263.27
435.03	6265.61
435.22	6279.66
435.41	6415.41
435.59	6420.09
435.78	6333.49
435.97	6370.94
436.16	6487.96
436.34	6410.73
436.53	6401.37
436.72	6623.72
436.90	6326.47
437.09	6492.65
437.28	6331.15
437.46	6644.78
437.65	6483.28
437.84	6710.32
438.02	6548.82
438.21	6623.72
438.40	6497.33
438.58	6925.65
438.77	7049.69
438.96	6822.66
439.14	7035.65
439.33	7089.48
439.52	7239.28
439.70	7138.63
439.89	7267.36
440.08	7206.51
440.26	7330.56
440.45	7283.75
440.63	7431.20
440.82	7641.85
441.01	7370.35
441.19	7573.97
441.38	7623.12
441.57	7536.52
441.75	7700.36
441.94	7943.78
442.12	7854.84
442.31	7801.01
442.50	8039.74
442.68	7911.01
442.87	7929.74
443.05	8021.02
443.24	8161.45
443.43	8028.04
443.61	8114.64
443.80	8217.62
443.98	7894.63
444.17	7653.55
444.35	8067.83
444.54	8301.88
444.73	8243.37
444.91	8369.76
445.10	8311.24
445.28	8063.15
445.47	8315.92
445.65	8435.29
445.84	8414.23
446.02	8372.10
446.21	8241.03
446.39	8320.60
446.58	8472.74
446.77	8276.13
446.95	8149.75
447.14	8430.61
447.32	8613.17
447.51	8388.48
447.69	8344.01
447.88	8461.04
448.06	8334.65
448.25	8369.76
448.43	8346.35
448.62	8564.02
448.80	8404.86
448.99	8674.03
449.17	8688.07
449.36	8517.21
449.54	8695.09
449.73	8877.65
449.91	8901.06
450.10	8994.68
450.28	8931.48
450.46	8987.66
450.65	8788.71
450.83	8971.27
451.02	8903.40
451.20	9165.54
451.39	9041.49
451.57	9013.40
451.76	9039.15
451.94	9205.33
452.13	9064.89
452.31	9266.18
452.49	9020.42
452.68	9085.96
452.86	9277.88
453.05	9378.53
453.23	9380.87
453.42	9160.86
453.60	9343.42
453.78	9275.54
453.97	9465.13
454.15	9350.44
454.34	9359.80
454.52	9509.60
454.70	9877.06
454.89	9738.97
455.07	9640.67
455.26	9563.43
455.44	9811.53
455.62	9863.02
455.81	9661.73
455.99	9895.78
456.17	10319.42
456.36	9935.57
456.54	10164.95
456.73	10284.31
456.91	10115.80
457.09	10452.83
457.28	10333.47
457.46	10209.42
457.64	10307.72
457.83	10307.72
458.01	10464.54
458.19	10736.04
458.38	10417.72
458.56	10712.63
458.74	10647.10
458.93	10581.56
459.11	10658.80
459.29	10677.52
459.48	10827.32
459.66	10651.78
459.84	10829.66
460.03	11105.84
460.21	10918.60
460.39	10869.45
460.57	11075.42
460.76	10843.70
460.94	11094.14
461.12	10925.62
461.31	11265.00
461.49	11080.10
461.67	11094.14
461.85	11396.07
462.04	11463.94
462.22	11632.46
462.40	11550.54
462.59	11461.60
462.77	11169.04
462.95	11735.45
463.13	11585.65
463.32	11494.37
463.50	11583.31
463.68	11587.99
463.86	11824.39
464.05	11700.34
464.23	11676.93
464.41	11660.55
464.59	11426.50
464.78	11974.18
464.96	11658.21
465.14	11672.25
465.32	11997.59
465.50	12147.38
465.69	12128.66
465.87	11997.59
466.05	12023.33
466.23	12046.74
466.41	12079.50
466.60	12498.46
466.78	12018.65
466.96	12109.93
467.14	12056.10
467.32	12173.13
467.51	12409.52
467.69	12131.00
467.87	12334.62
468.05	12554.63
468.23	12360.37
468.41	12154.40
468.60	12400.16
468.78	12659.96
468.96	12369.73
469.14	12718.47
469.32	12982.95
469.50	12695.07
469.69	12828.48
469.87	12994.65
470.05	12898.69
470.23	12999.34
470.41	13099.98
470.59	13350.42
470.77	13102.32
470.95	13158.49
471.14	13549.36
471.32	13123.38
471.50	13537.66
471.68	13341.05
471.86	13458.08
472.04	13706.18
472.22	13893.42
472.40	13577.45
472.58	13689.79
472.77	13930.87
472.95	13940.23
473.13	14647.07
473.31	13895.76
473.49	14101.73
473.67	13919.17
473.85	13994.06
474.03	14579.20
474.21	14775.80
474.39	14635.37
474.57	14373.23
474.75	14595.58
474.93	14902.19
475.12	14831.97
475.30	15145.61
475.48	15215.82
475.66	15101.14
475.84	14998.15
476.02	15220.50
476.20	15286.04
476.38	15477.96
476.56	15754.15
476.74	15800.96
476.92	15613.71
477.10	15496.69
477.28	15976.50
477.46	16002.24
477.64	16407.16
477.82	16500.78
478.00	16863.56
478.18	16360.34
478.36	16772.28
478.54	16985.27
478.72	16992.29
478.90	17336.35
479.08	17507.21
479.26	17390.18
479.44	17657.00
479.62	17549.34
479.80	17977.65
479.98	18015.10
480.16	18452.78
480.34	18209.37
480.52	18052.55
480.70	18806.20
480.88	18022.12
481.06	18499.59
481.24	18663.43
481.41	18544.06
481.59	18956.00
481.77	19049.62
481.95	19400.70
482.13	19159.63
482.31	19384.32
482.49	20046.69
482.67	20058.39
482.85	20154.35
483.03	20425.86
483.21	20620.12
483.39	20737.15
483.57	20372.02
483.74	21125.68
483.92	21343.35
484.10	20982.90
484.28	21462.71
484.46	21687.40
484.64	21729.53
484.82	21656.98
485.00	22356.80
485.18	22682.13
485.35	22501.91
485.53	22408.29
485.71	22857.67
485.89	23276.63
486.07	23290.67
486.25	23145.56
486.43	23417.06
486.61	23608.98
486.78	23873.46
486.96	24027.94
487.14	24119.22
487.32	24566.26
487.50	24444.56
487.68	24751.17
487.85	25116.29
488.03	25020.33
488.21	25598.44
488.39	25603.12
488.57	25579.71
488.75	26001.01
488.92	26197.62
489.10	26492.52
489.28	26572.10
489.46	27012.12
489.64	26799.13
489.81	27461.51
489.99	27094.04
490.17	27302.35
490.35	28011.53
490.53	27924.93
490.70	28364.95
490.88	28311.12
491.06	28606.03
491.24	28685.61
491.41	28718.37
491.59	29242.65
491.77	29022.64
491.95	29132.65
492.13	29450.96
492.30	29720.12
492.48	29703.74
492.66	29912.05
492.84	29874.60
493.01	30490.16
493.19	30265.47
493.37	30635.27
493.54	30787.41
493.72	31185.30
493.90	31026.14
494.08	31276.58
494.25	31714.26
494.43	31810.22
494.61	31810.22
494.79	32203.43
494.96	32044.27
495.14	32444.51
495.32	32917.29
495.49	33113.90
495.67	32713.67
495.85	32954.74
496.02	33677.97
496.20	33633.50
496.38	33551.58
496.55	33762.23
496.73	34366.09
496.91	34017.35
497.09	34359.06
497.26	34941.86
497.44	34665.67
497.62	34618.86
497.79	35299.96
497.97	35426.35
498.14	35838.28
498.32	35955.31
498.50	35981.06
498.67	36212.77
498.85	36149.57
499.03	36278.30
499.20	36142.55
499.38	36306.39
499.56	37120.90
499.73	36821.31
499.91	36975.78
500.08	37308.14
500.26	37333.89
500.44	37474.32
500.61	37799.65
500.79	37399.42
500.97	37895.61
501.14	38391.81
501.32	38485.43
501.49	38178.82
501.67	38347.34
501.84	38782.68
502.02	38384.79
502.20	38373.08
502.37	38815.44
502.55	38689.06
502.72	39136.10
502.90	39243.76
503.07	38955.88
503.25	39269.51
503.43	39243.76
503.60	39728.25
503.78	39744.64
503.95	39770.38
504.13	40271.26
504.30	40378.92
504.48	40109.76
504.65	40236.15
504.83	40395.31
505.01	41191.09
505.18	41043.63
505.36	41134.92
505.53	40912.56
505.71	41214.49
505.88	41375.99
506.06	41338.54
506.23	41661.54
506.41	41130.23
506.58	41900.27
506.76	42057.09
506.93	42241.99
507.11	42312.20
507.28	41776.22
507.46	42522.85
507.63	42429.23
507.81	43199.27
507.98	42356.67
508.16	42843.51
508.33	42635.20
508.50	42784.99
508.68	43222.67
508.85	43337.36
509.03	43475.45
509.20	43730.57
509.38	44236.12
509.55	43885.04
509.73	44100.37
509.90	44334.43
510.08	44039.52
510.25	44210.38
510.42	44397.62
510.60	44854.03
510.77	45162.98
510.95	44751.04
511.12	44875.09
511.30	45001.48
511.47	45275.32
511.64	45488.31
511.82	45603.00
511.99	44935.95
512.17	45652.15
512.34	45441.50
512.51	45900.25
512.69	45605.34
512.86	46040.68
513.04	45944.72
513.21	46092.17
513.38	46440.91
513.56	46667.94
513.73	46394.10
513.90	46763.90
514.08	46934.76
514.25	46824.76
514.43	47166.48
514.60	47152.43
514.77	46710.07
514.95	47391.17
515.12	47311.59
515.29	46955.83
515.47	47276.48
515.64	47550.32
515.81	47744.59
515.99	47854.59
516.16	47892.04
516.33	48116.73
516.51	47997.37
516.68	47973.96
516.85	48222.06
517.03	48397.60
517.20	48381.21
517.37	48549.73
517.54	48573.14
517.72	48545.05
517.89	48931.24
518.06	48814.21
518.24	48956.99
518.41	48861.02
518.58	49155.93
518.75	48825.92
518.93	49230.83
519.10	49368.92
519.27	49256.57
519.45	49375.94
519.62	49539.78
519.79	49572.55
519.96	49762.13
520.14	49872.14
520.31	49783.19
520.48	50253.64
520.65	49977.46
520.83	50241.94
521.00	50394.07
521.17	49844.05
521.34	50443.23
521.52	50660.90
521.69	50291.09
521.86	50518.12
522.03	50890.27
522.20	51040.06
522.38	50986.23
522.55	51063.47
522.72	51126.66
522.89	51093.89
523.07	51395.82
523.24	51105.60
523.41	51250.71
523.58	50958.14
523.75	51718.82
523.92	51414.55
524.10	51487.10
524.27	51849.89
524.44	51863.93
524.61	51831.16
524.78	51765.63
524.96	51866.27
525.13	51941.17
525.30	52184.58
525.47	52360.12
525.64	52023.09
525.81	52339.06
525.98	52601.20
526.16	52332.04
526.33	52608.22
526.50	52640.99
526.67	52374.17
526.84	52872.70
527.01	52456.09
527.18	52774.40
527.36	52727.59
527.53	52893.77
527.70	53214.42
527.87	53169.95
528.04	52739.29
528.21	52945.26
528.38	53024.84
528.55	53233.14
528.72	53326.77
528.89	53268.25
529.07	52985.05
529.24	53212.08
529.41	53389.96
529.58	53593.59
529.75	53399.32
529.92	53546.78
530.09	53741.04
530.26	53542.10
530.43	53680.19
530.60	53518.69
530.77	53743.38
530.94	53939.99
531.11	53844.02
531.28	53851.05
531.46	54120.21
531.63	53822.96
531.80	54141.27
531.97	54113.19
532.14	54220.85
532.31	54162.34
532.48	54211.49
532.65	54312.13
532.82	54183.40
532.99	54490.01
533.16	54288.73
533.33	54569.59
533.50	54628.10
533.67	54681.94
533.84	54583.63
534.01	54703.00
534.18	54693.64
534.35	54965.14
534.52	54499.37
534.69	54906.63
534.86	55068.12
535.03	54813.01
535.20	54958.12
535.37	55086.85
535.54	55131.32
535.71	54813.01
535.88	55334.95
536.05	55114.94
536.22	55306.86
536.38	55451.97
536.55	55423.89
536.72	55543.25
536.89	55332.60
537.06	55171.11
537.23	55234.30
537.40	55112.59
537.57	55466.02
537.74	55625.17
537.91	55751.56
538.08	55648.58
538.25	55433.25
538.42	55636.87
538.59	55716.45
538.75	55721.13
538.92	55758.58
539.09	55929.44
539.26	55732.84
539.43	56013.70
539.60	55910.72
539.77	56016.04
539.94	56418.61
540.11	56175.20
540.28	56149.45
540.44	56004.34
540.61	56065.19
540.78	56100.30
540.95	56250.09
541.12	56067.53
541.29	56292.22
541.46	56460.74
541.62	56346.06
541.79	56664.37
541.96	56119.02
542.13	56343.72
542.30	56582.45
542.47	56568.41
542.63	56633.94
542.80	56479.47
542.97	56706.50
543.14	56853.95
543.31	56954.60
543.48	56886.72
543.64	57186.31
543.81	56879.70
543.98	57088.01
544.15	57095.03
544.32	57251.84
544.48	57272.91
544.65	57024.81
544.82	57153.54
544.99	56942.89
545.16	57429.72
545.32	57233.12
545.49	57277.59
545.66	57516.32
545.83	57298.65
546.00	57546.75
546.16	57448.45
546.33	57469.51
546.50	57308.02
546.67	57457.81
546.83	57340.78
547.00	57513.98
547.17	57347.81
547.34	57661.44
547.50	57556.11
547.67	57813.57
547.84	57776.12
548.00	57982.09
548.17	58035.92
548.34	57848.68
548.51	58021.88
548.67	57935.28
548.84	57855.70
549.01	57879.11
549.18	57961.03
549.34	58159.97
549.51	57989.11
549.68	57961.03
549.84	58234.87
550.01	58049.97
550.18	57930.60
550.34	58382.32
550.51	58169.33
550.68	58262.96
550.84	58049.97
551.01	58431.47
551.18	58415.09
551.34	58206.78
551.51	58419.77
551.68	58394.03
551.84	58138.91
552.01	58127.20
552.18	58534.46
552.34	58190.40
552.51	58560.20
552.68	58555.52
552.84	58609.35
553.01	58817.66
553.18	58377.64
553.34	58679.57
553.51	58475.94
553.67	58653.82
553.84	58700.64
554.01	58614.04
554.17	58698.30
554.34	58937.03
554.51	58773.19
554.67	58749.79
554.84	58820.00
555.00	58798.94
555.17	58859.79
555.33	59037.67
555.50	58824.68
555.67	58787.24
555.83	58681.91
556.00	58766.17
556.16	59260.02
556.33	58993.20
556.50	58967.46
556.66	59112.57
556.83	59037.67
556.99	59061.08
557.16	59339.60
557.32	59365.35
557.49	59597.06
557.65	59091.51
557.82	59124.27
557.98	59159.38
558.15	59229.60
558.32	59547.91
558.48	59395.77
558.65	59199.17
558.81	59187.47
558.98	59187.47
559.14	59370.03
559.31	59421.52
559.47	59360.67
559.64	59423.86
559.80	59552.59
559.97	59578.34
560.13	59412.16
560.30	59370.03
560.46	59664.94
560.63	59613.44
560.79	59597.06
560.96	59894.31
561.12	59632.17
561.29	59543.23
561.45	59814.73
561.61	59817.07
561.78	59742.17
561.94	59796.01
562.11	59669.62
562.27	59491.74
562.44	59842.82
562.60	60060.49
562.77	59936.44
562.93	59447.27
563.10	59814.73
563.26	59634.51
563.42	59807.71
563.59	59737.49
563.75	59662.60
563.92	59887.29
564.08	59976.23
564.24	59908.35
564.41	59786.64
564.57	59908.35
564.74	59849.84
564.90	59870.90
565.07	59859.20
565.23	59910.69
565.39	59861.54
565.56	60039.42
565.72	59887.29
565.88	59973.89
566.05	59896.65
566.21	59791.33
566.38	59990.27
566.54	60062.83
566.70	60214.96
566.87	60151.77
567.03	60072.19
567.19	60224.32
567.36	60177.51
567.52	59943.46
567.68	60182.19
567.85	60296.88
568.01	60163.47
568.17	60149.43
568.34	60317.95
568.50	60111.98
568.66	60191.56
568.83	60243.05
568.99	60156.45
569.15	60207.94
569.32	60095.60
569.48	60018.36
569.64	60221.98
569.81	60392.84
569.97	60172.83
570.13	60341.35
570.30	60320.29
570.46	60093.25
570.62	60257.09
570.78	60292.20
570.95	60364.76
571.11	60402.21
571.27	60198.58
571.43	60259.43
571.60	60392.84
571.76	60240.71
571.92	60343.69
572.09	60378.80
572.25	60418.59
572.41	60303.90
572.57	60264.11
572.74	60584.77
572.90	60355.39
573.06	60432.63
573.22	60399.86
573.38	60535.62
573.55	60552.00
573.71	60654.98
573.87	60509.87
574.03	60397.52
574.20	60376.46
574.36	60353.05
574.52	60512.21
574.68	60685.41
574.84	60659.66
575.01	60570.72
575.17	60498.17
575.33	60378.80
575.49	60418.59
575.65	60395.18
575.82	60516.89
575.98	60594.13
576.14	60554.34
576.30	60498.17
576.46	60374.12
576.62	60664.35
576.79	60453.70
576.95	60470.08
577.11	60463.06
577.27	60741.58
577.43	60680.73
577.59	60587.11
577.75	60694.77
577.92	60472.42
578.08	60624.56
578.24	60643.28
578.40	60898.40
578.56	60870.31
578.72	60547.32
578.88	60853.93
579.04	60750.94
579.21	60566.04
579.37	60734.56
579.53	60690.09
579.69	60563.70
579.85	60678.39
580.01	60488.80
580.17	60664.35
580.33	60753.29
580.49	60736.90
580.65	60598.81
580.82	60676.05
580.98	60664.35
581.14	60594.13
581.30	60629.24
581.46	60687.75
581.62	60793.07
581.78	60676.05
581.94	60767.33
582.10	60699.45
582.26	60753.29
582.42	60669.03
582.58	60713.50
582.74	60727.54
582.90	60804.78
583.06	60910.10
583.22	60486.46
583.38	60757.97
583.54	60912.44
583.70	60853.93
583.86	60676.05
584.02	60720.52
584.18	60725.20
584.34	60776.69
584.50	60711.16
584.66	60535.62
584.82	60523.91
584.98	60704.13
585.14	60755.63
585.30	60580.09
585.46	60867.97
585.62	60905.42
585.78	61003.72
585.94	60526.25
586.10	60807.12
586.26	60867.97
586.42	60940.53
586.58	60982.66
586.74	61008.40
586.90	60568.38
587.06	60837.54
587.22	60828.18
587.38	60825.84
587.54	61151.18
587.70	61013.08
587.86	60926.49
588.02	60692.43
588.18	60828.18
588.34	60856.27
588.49	60802.44
