SpectraSuite Data File
++++++++++++++++++++++++++++++++++++
Date: Fri Oct 25 11:23:36 EDT 2013
User: price-jones
Dark Spectrum Present: No
Reference Spectrum Present: No
Number of Sampled Component Spectra: 1
Spectrometers: USB2+H05261
Integration Time (usec): 100000 (USB2+H05261)
Spectra Averaged: 1 (USB2+H05261)
Boxcar Smoothing: 0 (USB2+H05261)
Correct for Electrical Dark: No (USB2+H05261)
Strobe/Lamp Enabled: No (USB2+H05261)
Correct for Detector Non-linearity: No (USB2+H05261)
Correct for Stray Light: No (USB2+H05261)
Number of Pixels in Processed Spectrum: 2048
>>>>>Begin Processed Spectral Data<<<<<
365.73	283.20
365.92	283.20
366.12	283.20
366.32	100.64
366.52	117.03
366.72	95.96
366.91	112.35
367.11	166.18
367.31	93.62
367.51	173.20
367.70	126.39
367.90	191.92
368.10	84.26
368.30	128.73
368.49	147.45
368.69	156.82
368.89	131.07
369.09	140.43
369.28	210.65
369.48	147.45
369.68	140.43
369.87	198.95
370.07	124.05
370.27	149.79
370.47	280.86
370.66	559.39
370.86	622.58
371.06	622.58
371.25	634.29
371.45	671.73
371.65	615.56
371.84	716.20
372.04	702.16
372.24	688.12
372.44	713.86
372.63	727.91
372.83	660.03
373.03	753.65
373.22	760.67
373.42	784.08
373.62	774.72
373.81	791.10
374.01	938.55
374.21	772.38
374.40	880.04
374.60	856.64
374.79	770.04
374.99	908.13
375.19	894.08
375.38	866.00
375.58	835.57
375.78	854.30
375.97	856.64
376.17	884.72
376.37	819.19
376.56	833.23
376.76	786.42
376.95	833.23
377.15	887.06
377.35	877.70
377.54	903.45
377.74	980.68
377.93	898.77
378.13	1006.43
378.33	926.85
378.52	861.32
378.72	1053.24
378.91	968.98
379.11	954.94
379.31	1015.79
379.50	1001.75
379.70	1004.09
379.89	1004.09
380.09	863.66
380.28	1006.43
380.48	924.51
380.68	898.77
380.87	1032.18
381.07	1048.56
381.26	957.28
381.46	1043.88
381.65	985.37
381.85	999.41
382.04	1057.92
382.24	1153.88
382.43	1046.22
382.63	1076.65
382.83	999.41
383.02	1086.01
383.22	1097.71
383.41	1053.24
383.61	1025.15
383.80	1132.82
384.00	1081.33
384.19	1083.67
384.39	1132.82
384.58	1137.50
384.78	1181.97
384.97	1090.69
385.17	1135.16
385.36	1088.35
385.56	1184.31
385.75	1170.27
385.95	1277.93
386.14	1299.00
386.34	1200.69
386.53	1203.04
386.72	1196.01
386.92	1315.38
387.11	1245.16
387.31	1226.44
387.50	1228.78
387.70	1200.69
387.89	1268.57
388.09	1291.98
388.28	1284.95
388.48	1205.38
388.67	1287.29
388.86	1263.89
389.06	1270.91
389.25	1345.81
389.45	1336.45
389.64	1301.34
389.84	1369.21
390.03	1383.26
390.22	1416.02
390.42	1317.72
390.61	1481.56
390.81	1425.39
391.00	1380.92
391.19	1441.77
391.39	1526.03
391.58	1404.32
391.78	1430.07
391.97	1565.82
392.16	1425.39
392.36	1521.35
392.55	1579.86
392.75	1514.33
392.94	1423.05
393.13	1640.72
393.33	1516.67
393.52	1603.27
393.71	1645.40
393.91	1624.33
394.10	1638.38
394.29	1563.48
394.49	1558.80
394.68	1694.55
394.88	1607.95
395.07	1689.87
395.26	1727.32
395.46	1671.14
395.65	1720.29
395.84	1673.48
396.04	1802.21
396.23	1638.38
396.42	1739.02
396.62	1790.51
396.81	1797.53
397.00	1891.15
397.19	1834.98
397.39	1701.57
397.58	1806.89
397.77	1750.72
397.97	1806.89
398.16	1928.60
398.35	1881.79
398.55	1891.15
398.74	1928.60
398.93	1994.14
399.12	2005.84
399.32	1891.15
399.51	1792.85
399.70	2031.58
399.90	2019.88
400.09	2031.58
400.28	2172.02
400.47	2087.76
400.67	2083.08
400.86	2038.61
401.05	2012.86
401.24	1963.71
401.44	2101.80
401.63	2043.29
401.82	2125.21
402.01	2115.84
402.21	2111.16
402.40	2115.84
402.59	2134.57
402.78	2207.13
402.97	2157.97
403.17	2267.98
403.36	2279.68
403.55	2235.21
403.74	2340.54
403.93	2256.28
404.13	2373.30
404.32	2434.16
404.51	2424.80
404.70	2434.16
404.89	2375.64
405.09	2473.95
405.28	2469.27
405.47	2452.88
405.66	2396.71
405.85	2520.76
406.05	2574.59
406.24	2588.63
406.43	2459.90
406.62	2738.43
406.81	2583.95
407.00	2459.90
407.20	2562.89
407.39	2668.21
407.58	2733.75
407.77	2773.53
407.96	2750.13
408.15	2691.62
408.34	2661.19
408.54	2792.26
408.73	2878.86
408.92	2764.17
409.11	2902.26
409.30	2925.67
409.49	2871.84
409.68	2984.18
409.87	2928.01
410.07	3126.96
410.26	2970.14
410.45	3035.67
410.64	3162.06
410.83	3023.97
411.02	3098.87
411.21	3126.96
411.40	3087.17
411.59	3211.22
411.78	3218.24
411.98	3253.34
412.17	3204.19
412.36	3302.50
412.55	3265.05
412.74	3361.01
412.93	3421.86
413.12	3412.50
413.31	3559.95
413.50	3442.93
413.69	3459.31
413.88	3564.64
414.07	3658.26
414.26	3543.57
414.45	3712.09
414.64	3679.32
414.83	3749.54
415.02	3756.56
415.22	3896.99
415.41	3911.04
415.60	3684.00
415.79	3915.72
415.98	3974.23
416.17	3887.63
416.36	3882.95
416.55	4025.72
416.74	4077.21
416.93	4067.85
417.12	4081.89
417.31	4109.98
417.50	4161.47
417.69	4266.80
417.88	4322.97
418.07	4163.81
418.26	4114.66
418.45	4400.21
418.64	4407.23
418.83	4402.55
419.02	4348.72
419.21	4533.62
419.39	4545.32
419.58	4589.79
419.77	4528.94
419.96	4458.72
420.15	4432.97
420.34	4402.55
420.53	4704.48
420.72	4737.24
420.91	4758.31
421.10	4634.26
421.29	4786.40
421.48	4671.71
421.67	4823.84
421.86	4725.54
422.05	4891.72
422.24	4922.15
422.43	4861.29
422.61	4690.43
422.80	4961.94
422.99	4875.34
423.18	4924.49
423.37	4947.89
423.56	4999.38
423.75	5116.41
423.94	4814.48
424.13	4648.30
424.32	4802.78
424.50	4873.00
424.69	5174.92
424.88	5135.14
425.07	4968.96
425.26	4884.70
425.45	4777.03
425.64	4779.37
425.83	4966.62
426.01	5015.77
426.20	4887.04
426.39	5027.47
426.58	5074.28
426.77	5123.43
426.96	5146.84
427.15	5001.72
427.33	5252.16
427.52	5170.24
427.71	5518.98
427.90	5160.88
428.09	5303.65
428.28	5245.14
428.46	5378.55
428.65	5406.64
428.84	5460.47
429.03	5408.98
429.22	5378.55
429.40	5413.66
429.59	5547.07
429.78	5355.15
429.97	5263.86
430.16	5561.11
430.34	5551.75
430.53	5671.12
430.72	5664.10
430.91	5753.04
431.10	5582.18
431.28	5785.80
431.47	5748.36
431.66	5912.19
431.85	5682.82
432.03	5898.15
432.22	5991.77
432.41	5797.51
432.60	5884.11
432.79	5959.00
432.97	6001.13
433.16	6141.57
433.35	5867.72
433.54	6162.63
433.72	5956.66
433.91	6228.17
434.10	6225.82
434.28	6066.67
434.47	6333.49
434.66	6218.80
434.85	6249.23
435.03	6427.11
435.22	6277.32
435.41	6464.56
435.59	6483.28
435.78	6410.73
435.97	6328.81
436.16	6499.67
436.34	6450.52
436.53	6504.35
436.72	6621.38
436.90	6394.34
437.09	6590.95
437.28	6509.03
437.46	6619.04
437.65	6612.01
437.84	6785.21
438.02	6747.76
438.21	6775.85
438.40	6794.58
438.58	6967.77
438.77	6927.99
438.96	6977.14
439.14	7318.86
439.33	7089.48
439.52	7159.70
439.70	7274.38
439.89	7375.03
440.08	7604.40
440.26	7330.56
440.45	7463.97
440.63	7428.86
440.82	7709.72
441.01	7501.42
441.19	7569.29
441.38	7761.22
441.57	7698.02
441.75	7901.65
441.94	7805.69
442.12	7798.66
442.31	7995.27
442.50	8049.10
442.68	8030.38
442.87	8168.47
443.05	8037.40
443.24	8159.11
443.43	8124.00
443.61	8121.66
443.80	8535.93
443.98	8210.60
444.17	7936.76
444.35	8280.82
444.54	8376.78
444.73	8390.82
444.91	8374.44
445.10	8393.16
445.28	8432.95
445.47	8234.00
445.65	8292.52
445.84	8589.77
446.02	8463.38
446.21	8301.88
446.39	8355.71
446.58	8344.01
446.77	8510.19
446.95	8180.17
447.14	8393.16
447.32	8524.23
447.51	8669.34
447.69	8608.49
447.88	8414.23
448.06	8514.87
448.25	8812.12
448.43	8585.08
448.62	8772.33
448.80	8638.92
448.99	8692.75
449.17	8755.94
449.36	8734.88
449.54	8758.28
449.73	9179.58
449.91	8985.32
450.10	8959.57
450.28	9032.13
450.46	9057.87
450.65	9118.73
450.83	8978.30
451.02	9011.06
451.20	9387.89
451.39	9198.31
451.57	9359.80
451.76	9048.51
451.94	9207.67
452.13	9528.32
452.31	9172.56
452.49	9233.41
452.68	9263.84
452.86	9537.68
453.05	9570.45
453.23	9661.73
453.42	9305.97
453.60	9116.39
453.78	9598.54
453.97	9661.73
454.15	9582.15
454.34	9497.89
454.52	9734.29
454.70	9612.58
454.89	9652.37
455.07	9783.44
455.26	10019.83
455.44	9895.78
455.62	9994.09
455.81	10059.62
455.99	10052.60
456.17	9937.91
456.36	10040.90
456.54	10157.92
456.73	10272.61
456.91	10464.54
457.09	10197.71
457.28	10544.11
457.46	10267.93
457.64	10551.14
457.83	10516.03
458.01	10401.34
458.19	10752.42
458.38	10518.37
458.56	11014.56
458.74	10663.48
458.93	10647.10
459.11	10827.32
459.29	10611.99
459.48	10513.69
459.66	10942.00
459.84	10707.95
460.03	10979.45
460.21	11040.31
460.39	10913.92
460.57	11246.27
460.76	11173.72
460.94	11183.08
461.12	11176.06
461.31	11173.72
461.49	11068.39
461.67	11052.01
461.85	11410.11
462.04	11316.49
462.22	11445.22
462.40	11660.55
462.59	11440.54
462.77	11726.08
462.95	11817.36
463.13	11449.90
463.32	11438.20
463.50	11761.19
463.68	11702.68
463.86	12020.99
464.05	11740.13
464.23	11578.63
464.41	11658.21
464.59	11744.81
464.78	12121.63
464.96	12116.95
465.14	11988.22
465.32	11796.30
465.50	12149.72
465.69	12322.92
465.87	12107.59
466.05	12100.57
466.23	12414.20
466.41	12077.16
466.60	12205.89
466.78	12358.03
466.96	12292.49
467.14	12257.39
467.32	12397.82
467.51	12561.66
467.69	12189.51
467.87	12397.82
468.05	12676.34
468.23	12613.15
468.41	12500.80
468.60	12470.37
468.78	12652.94
468.96	12592.08
469.14	12737.20
469.32	12943.16
469.50	12559.31
469.69	13067.21
469.87	13195.94
470.05	13046.15
470.23	13195.94
470.41	12982.95
470.59	13336.37
470.77	13245.09
470.95	13387.86
471.14	13682.77
471.32	13156.15
471.50	13465.10
471.68	13509.57
471.86	13881.72
472.04	13750.65
472.22	14036.19
472.40	13781.07
472.58	13750.65
472.77	14005.77
472.95	14001.08
473.13	14443.45
473.31	14303.01
473.49	14160.24
473.67	13888.74
473.85	14235.14
474.03	14541.75
474.21	14478.55
474.39	14864.74
474.57	14782.82
474.75	14867.08
474.93	14927.94
475.12	14956.02
475.30	15178.37
475.48	15012.20
475.66	15304.76
475.84	15227.53
476.02	15215.82
476.20	15543.50
476.38	15669.89
476.56	15964.79
476.74	16011.60
476.92	15845.43
477.10	16020.97
477.28	16130.97
477.46	16458.65
477.64	16554.61
477.82	16657.59
478.00	16936.12
478.18	16582.70
478.36	16922.07
478.54	17181.87
478.72	17261.45
478.90	17343.37
479.08	17654.66
479.26	17586.79
479.44	17823.18
479.62	17930.84
479.80	17970.63
479.98	18286.61
480.16	18890.46
480.34	18441.08
480.52	18747.69
480.70	18675.13
480.88	18483.21
481.06	18642.37
481.24	18911.53
481.41	19108.13
481.59	19300.06
481.77	19531.77
481.95	19620.71
482.13	20119.24
482.31	19667.52
482.49	20346.28
482.67	19906.26
482.85	20814.38
483.03	20751.19
483.21	20847.15
483.39	21081.21
483.57	20795.66
483.74	21165.46
483.92	21720.17
484.10	21392.50
484.28	21750.60
484.46	21886.35
484.64	22190.62
484.82	21923.80
485.00	22211.68
485.18	22703.20
485.35	23278.97
485.53	22862.35
485.71	22850.65
485.89	23473.23
486.07	23379.61
486.25	23510.68
486.43	23826.65
486.61	23772.82
486.78	24379.02
486.96	24093.47
487.14	24393.06
487.32	24577.97
487.50	24877.55
487.68	24936.07
487.85	25104.59
488.03	25841.85
488.21	25699.08
488.39	26073.57
488.57	26059.52
488.75	26270.17
488.92	26567.42
489.10	26520.61
489.28	26822.54
489.46	27087.02
489.64	27150.21
489.81	27669.81
489.99	27335.12
490.17	27751.73
490.35	28460.91
490.53	28161.33
490.70	28519.43
490.88	28079.41
491.06	28823.70
491.24	28772.21
491.41	29160.73
491.59	29472.03
491.77	29497.77
491.95	29682.67
492.13	29811.40
492.30	30089.93
492.48	30169.51
492.66	30366.11
492.84	30380.15
493.01	30960.61
493.19	30764.00
493.37	31152.53
493.54	31283.60
493.72	31590.21
493.90	31428.71
494.08	31929.59
494.25	32240.88
494.43	32191.73
494.61	32292.37
494.79	32591.96
494.96	32779.20
495.14	32734.73
495.32	33537.54
495.49	33284.76
495.67	33090.49
495.85	33495.41
496.02	33656.90
496.20	34174.16
496.38	34094.58
496.55	34335.66
496.73	35211.02
496.91	34579.07
497.09	34824.83
497.26	34471.41
497.44	35126.76
497.62	35131.44
497.79	35826.58
497.97	35419.33
498.14	35969.35
498.32	35859.35
498.50	36311.07
498.67	36563.85
498.85	36634.06
499.03	36631.72
499.20	36975.78
499.38	37003.87
499.56	36718.32
499.73	37258.99
499.91	37352.61
500.08	37841.78
500.26	37254.31
500.44	37699.01
500.61	37940.08
500.79	37804.33
500.97	38164.78
501.14	38916.09
501.32	38572.03
501.49	38555.64
501.67	38611.82
501.84	39339.72
502.02	38866.94
502.20	38911.41
502.37	39257.81
502.55	39302.28
502.72	39852.30
502.90	39370.15
503.07	39175.89
503.25	39978.69
503.43	39627.61
503.60	40144.87
503.78	40205.72
503.95	40327.43
504.13	40425.73
504.30	40573.19
504.48	40741.71
504.65	40835.33
504.83	41216.83
505.01	41745.80
505.18	41455.57
505.36	41631.11
505.53	41277.69
505.71	41507.06
505.88	41696.64
506.06	41544.51
506.23	41956.44
506.41	42094.53
506.58	42220.92
506.76	42284.12
506.93	42705.41
507.11	42396.46
507.28	42628.18
507.46	42642.22
507.63	42759.25
507.81	43264.80
507.98	42887.98
508.16	43213.31
508.33	43351.40
508.50	43681.42
508.68	43526.94
508.85	43976.33
509.03	44243.15
509.20	43936.54
509.38	44414.01
509.55	44580.18
509.73	44631.68
509.90	44184.63
510.08	44341.45
510.25	44772.11
510.42	44804.88
510.60	44947.65
510.77	45270.64
510.95	45570.23
511.12	45230.85
511.30	44938.29
511.47	45769.18
511.64	45640.45
511.82	46071.10
511.99	46085.15
512.17	45993.87
512.34	45755.13
512.51	46209.20
512.69	46749.86
512.86	46555.60
513.04	46368.35
513.21	46579.00
513.38	47030.72
513.56	47227.33
513.73	46885.61
513.90	47320.95
514.08	47063.49
514.25	47136.05
514.43	47519.90
514.60	47688.42
514.77	47437.98
514.95	47693.10
515.12	47693.10
515.29	47728.20
515.47	47765.65
515.64	48322.70
515.81	48247.80
515.99	48561.44
516.16	48357.81
516.33	48655.06
516.51	48622.29
516.68	48521.65
516.85	48694.85
517.03	48664.42
517.20	48732.29
517.37	48980.39
517.54	49102.10
517.72	48907.83
517.89	49308.07
518.06	49146.57
518.24	49305.73
518.41	49081.03
518.58	49633.40
518.75	49408.71
518.93	49827.66
519.10	49406.37
519.27	49869.79
519.45	49581.91
519.62	49935.33
519.79	49841.71
519.96	50136.62
520.14	50110.87
520.31	50108.53
520.48	50382.37
520.65	50342.58
520.83	50836.44
521.00	50717.07
521.17	50422.16
521.34	50773.24
521.52	51044.74
521.69	50635.15
521.86	51178.15
522.03	51295.18
522.20	51433.27
522.38	51594.77
522.55	51419.23
522.72	51356.03
522.89	51208.58
523.07	51950.53
523.24	51700.09
523.41	51821.80
523.58	51547.96
523.75	51456.68
523.92	51955.21
524.10	51966.91
524.27	52390.55
524.44	52156.50
524.61	52105.01
524.78	52172.88
524.96	52238.42
525.13	52385.87
525.30	52516.94
525.47	52788.44
525.64	52594.18
525.81	52783.76
525.98	52912.49
526.16	52615.24
526.33	52947.60
526.50	53202.72
526.67	52971.00
526.84	52849.30
527.01	52898.45
527.18	52966.32
527.36	53116.12
527.53	53174.63
527.70	53277.61
527.87	53581.88
528.04	53247.19
528.21	53504.65
528.38	53352.51
528.55	53506.99
528.72	53408.68
528.89	53492.94
529.07	53476.56
529.24	53439.11
529.41	53853.39
529.58	53827.64
529.75	53642.74
529.92	53776.15
530.09	53783.17
530.26	53855.73
530.43	54028.93
530.60	53876.79
530.77	53670.82
530.94	54169.36
531.11	54057.01
531.28	54148.29
531.46	54342.56
531.63	54202.13
531.80	54438.52
531.97	54354.26
532.14	54557.89
532.31	54667.89
532.48	54560.23
532.65	54630.44
532.82	54468.95
532.99	54911.31
533.16	54501.71
533.33	54724.07
533.50	54855.14
533.67	54948.76
533.84	54630.44
534.01	54932.37
534.18	54848.11
534.35	55306.86
534.52	55159.41
534.69	55002.59
534.86	55281.11
535.03	54969.82
535.20	55248.35
535.37	55131.32
535.54	55519.85
535.71	54831.73
535.88	55540.91
536.05	55690.71
536.22	55657.94
536.38	55639.22
536.55	55765.60
536.72	55508.14
536.89	55671.98
537.06	55749.22
537.23	55789.01
537.40	55608.79
537.57	55779.65
537.74	55955.19
537.91	55744.54
538.08	55920.08
538.25	55796.03
538.42	55868.59
538.59	56119.02
538.75	55917.74
538.92	55938.80
539.09	56189.24
539.26	56280.52
539.43	56203.28
539.60	56212.65
539.77	56271.16
539.94	56409.25
540.11	56332.01
540.28	56430.32
540.44	56619.90
540.61	56048.81
540.78	56399.89
540.95	56521.60
541.12	56816.50
541.29	56385.85
541.46	56573.09
541.62	56849.27
541.79	56650.33
541.96	56444.36
542.13	56619.90
542.30	56879.70
542.47	56912.47
542.63	57153.54
542.80	56853.95
542.97	56942.89
543.14	57097.37
543.31	57343.12
543.48	57223.76
543.64	57574.84
543.81	57394.62
543.98	57167.58
544.15	57399.30
544.32	57701.23
544.48	57448.45
544.65	57549.09
544.82	57485.90
544.99	57375.89
545.16	57591.22
545.32	57396.96
545.49	57724.63
545.66	57769.10
545.83	57462.49
546.00	57729.31
546.16	57572.50
546.33	57563.14
546.50	57464.83
546.67	57806.55
546.83	57633.35
547.00	57911.88
547.17	57804.21
547.34	57961.03
547.50	58005.50
547.67	58038.26
547.84	58087.42
548.00	58405.73
548.17	58281.68
548.34	58134.23
548.51	58113.16
548.67	58269.98
548.84	58178.70
549.01	58347.21
549.18	58375.30
549.34	58405.73
549.51	58145.93
549.68	58681.91
549.84	58288.70
550.01	58412.75
550.18	58307.43
550.34	58693.61
550.51	58356.58
550.68	58379.98
550.84	58122.52
551.01	58721.70
551.18	58649.14
551.34	58663.19
551.51	58864.47
551.68	58534.46
551.84	58644.46
552.01	58520.41
552.18	58695.95
552.34	58468.92
552.51	58941.71
552.68	58468.92
552.84	58710.00
553.01	59077.46
553.18	58726.38
553.34	58897.24
553.51	58899.58
553.67	58812.98
553.84	58988.52
554.01	58960.44
554.17	59044.69
554.34	58955.75
554.51	58885.54
554.67	59133.63
554.84	59131.29
555.00	59049.38
555.17	58810.64
555.33	59126.61
555.50	58904.26
555.67	59079.80
555.83	59133.63
556.00	59143.00
556.16	59531.53
556.33	59334.92
556.50	59395.77
556.66	59203.85
556.83	59187.47
556.99	59388.75
557.16	59423.86
557.32	59351.30
557.49	59550.25
557.65	59405.14
557.82	59175.76
557.98	59220.23
558.15	59468.33
558.32	59604.08
558.48	59250.66
558.65	59419.18
558.81	59587.70
558.98	59477.69
559.14	59620.47
559.31	59669.62
559.47	59803.03
559.64	59800.69
559.80	59606.42
559.97	59891.97
560.13	59639.19
560.30	59573.66
560.46	59817.07
560.63	59674.30
560.79	59840.48
560.96	59861.54
561.12	59824.09
561.29	60006.65
561.45	59938.78
561.61	59915.37
561.78	59877.93
561.94	59976.23
562.11	59831.11
562.27	60009.00
562.44	60081.55
562.60	60107.30
562.77	60093.25
562.93	59854.52
563.10	59906.01
563.26	60186.88
563.42	60350.71
563.59	60130.70
563.75	59966.87
563.92	60001.97
564.08	60128.36
564.24	60149.43
564.41	60074.53
564.57	60214.96
564.74	60100.28
564.90	60165.81
565.07	60135.38
565.23	60107.30
565.39	60238.37
565.56	60376.46
565.72	60231.35
565.88	60168.15
566.05	60114.32
566.21	60289.86
566.38	60458.38
566.54	60348.37
566.70	60285.18
566.87	60526.25
567.03	60243.05
567.19	60449.02
567.36	60420.93
567.52	60088.57
567.68	60683.07
567.85	60481.78
568.01	60596.47
568.17	60427.95
568.34	60439.65
568.50	60289.86
568.66	60378.80
568.83	60264.11
568.99	60449.02
569.15	60647.96
569.32	60296.88
569.48	60516.89
569.64	60477.10
569.81	60353.05
569.97	60474.76
570.13	60549.66
570.30	60327.31
570.46	60456.04
570.62	60638.60
570.78	60502.85
570.95	60493.49
571.11	60818.82
571.27	60582.43
571.43	60575.40
571.60	60853.93
571.76	60633.92
571.92	60631.58
572.09	60573.06
572.25	60636.26
572.41	60505.19
572.57	60598.81
572.74	60837.54
572.90	60397.52
573.06	60750.94
573.22	60823.50
573.38	60790.73
573.55	60860.95
573.71	60818.82
573.87	60701.79
574.03	60643.28
574.20	60776.69
574.36	60598.81
574.52	60706.47
574.68	60830.52
574.84	60732.22
575.01	60767.33
575.17	60809.46
575.33	60736.90
575.49	60832.86
575.65	60722.86
575.82	60872.65
575.98	60938.19
576.14	61043.51
576.30	60959.25
576.46	60650.30
576.62	60790.73
576.79	60727.54
576.95	60528.59
577.11	60935.85
577.27	61020.11
577.43	61080.96
577.59	60849.25
577.75	60692.43
577.92	60802.44
578.08	60912.44
578.24	61008.40
578.40	60942.87
578.56	60977.98
578.72	60807.12
578.88	60963.93
579.04	61034.15
579.21	61029.47
579.37	61064.58
579.53	60954.57
579.69	60811.80
579.85	60802.44
580.01	60736.90
580.17	60842.23
580.33	60952.23
580.49	61022.45
580.65	60996.70
580.82	60694.77
580.98	60797.76
581.14	60683.07
581.30	61003.72
581.46	60867.97
581.62	61003.72
581.78	60779.03
581.94	61123.09
582.10	60809.46
582.26	61144.16
582.42	60842.23
582.58	61237.78
582.74	60865.63
582.90	60793.07
583.06	60844.57
583.22	60921.80
583.38	61146.50
583.54	61055.21
583.70	61095.00
583.86	61038.83
584.02	60863.29
584.18	61345.44
584.34	60963.93
584.50	60912.44
584.66	60987.34
584.82	60783.71
584.98	61165.22
585.14	61195.65
585.30	60886.70
585.46	61034.15
585.62	61221.39
585.78	61282.25
585.94	60814.14
586.10	61071.60
586.26	61064.58
586.42	61022.45
586.58	61148.84
586.74	61214.37
586.90	61130.11
587.06	61141.81
587.22	61132.45
587.38	61109.05
587.54	60992.02
587.70	61069.26
587.86	61038.83
588.02	61120.75
588.18	61256.50
588.34	61102.03
