SpectraSuite Data File
++++++++++++++++++++++++++++++++++++
Date: Fri Oct 25 11:25:21 EDT 2013
User: price-jones
Dark Spectrum Present: No
Reference Spectrum Present: No
Number of Sampled Component Spectra: 1
Spectrometers: USB2+H05261
Integration Time (usec): 100000 (USB2+H05261)
Spectra Averaged: 1 (USB2+H05261)
Boxcar Smoothing: 0 (USB2+H05261)
Correct for Electrical Dark: No (USB2+H05261)
Strobe/Lamp Enabled: No (USB2+H05261)
Correct for Detector Non-linearity: No (USB2+H05261)
Correct for Stray Light: No (USB2+H05261)
Number of Pixels in Processed Spectrum: 2048
>>>>>Begin Processed Spectral Data<<<<<
365.73	245.76
365.92	245.76
366.12	245.76
366.32	168.52
366.52	112.35
366.72	180.22
366.91	126.39
367.11	154.48
367.31	65.54
367.51	142.77
367.70	166.18
367.90	77.24
368.10	114.69
368.30	126.39
368.49	170.86
368.69	166.18
368.89	149.79
369.09	196.60
369.28	163.84
369.48	156.82
369.68	177.88
369.87	161.50
370.07	102.98
370.27	259.80
370.47	271.50
370.66	585.13
370.86	582.79
371.06	641.31
371.25	657.69
371.45	669.39
371.65	620.24
371.84	699.82
372.04	720.88
372.24	657.69
372.44	692.80
372.63	725.57
372.83	676.41
373.03	788.76
373.22	753.65
373.42	765.36
373.62	770.04
373.81	861.32
374.01	795.78
374.21	837.91
374.40	767.70
374.60	873.02
374.79	737.27
374.99	821.53
375.19	763.01
375.38	840.25
375.58	781.74
375.78	826.21
375.97	889.40
376.17	945.58
376.37	830.89
376.56	870.68
376.76	844.93
376.95	889.40
377.15	950.26
377.35	957.28
377.54	919.83
377.74	976.00
377.93	858.98
378.13	924.51
378.33	947.92
378.52	933.87
378.72	1001.75
378.91	919.83
379.11	903.45
379.31	898.77
379.50	866.00
379.70	945.58
379.89	990.05
380.09	940.90
380.28	922.17
380.48	1004.09
380.68	929.19
380.87	997.07
381.07	1001.75
381.26	1004.09
381.46	866.00
381.65	1041.54
381.85	1137.50
382.04	1069.62
382.24	1090.69
382.43	1088.35
382.63	1027.50
382.83	1029.84
383.02	1132.82
383.22	1083.67
383.41	1025.15
383.61	1151.54
383.80	1067.28
384.00	1055.58
384.19	1170.27
384.39	1128.14
384.58	1132.82
384.78	1093.03
384.97	1158.57
385.17	1188.99
385.36	1135.16
385.56	1167.93
385.75	1144.52
385.95	1179.63
386.14	1263.89
386.34	1196.01
386.53	1142.18
386.72	1196.01
386.92	1170.27
387.11	1299.00
387.31	1284.95
387.50	1203.04
387.70	1287.29
387.89	1268.57
388.09	1324.74
388.28	1277.93
388.48	1186.65
388.67	1331.76
388.86	1352.83
389.06	1324.74
389.25	1324.74
389.45	1359.85
389.64	1306.02
389.84	1350.49
390.03	1409.00
390.22	1362.19
390.42	1385.60
390.61	1327.08
390.81	1371.55
391.00	1411.34
391.19	1406.66
391.39	1364.53
391.58	1516.67
391.78	1495.60
391.97	1488.58
392.16	1462.83
392.36	1486.24
392.55	1614.97
392.75	1474.54
392.94	1444.11
393.13	1467.52
393.33	1509.65
393.52	1582.20
393.71	1664.12
393.91	1603.27
394.10	1584.54
394.29	1572.84
394.49	1621.99
394.68	1645.40
394.88	1593.90
395.07	1708.59
395.26	1720.29
395.46	1647.74
395.65	1636.03
395.84	1675.82
396.04	1753.06
396.23	1790.51
396.42	1732.00
396.62	1678.16
396.81	1713.27
397.00	1685.19
397.19	1849.02
397.39	1734.34
397.58	1860.73
397.77	1858.39
397.97	1839.66
398.16	1853.70
398.35	1863.07
398.55	1898.17
398.74	1767.10
398.93	1914.56
399.12	1942.64
399.32	1830.30
399.51	1912.22
399.70	2104.14
399.90	1952.01
400.09	2054.99
400.28	1994.14
400.47	2001.16
400.67	2024.56
400.86	1970.73
401.05	2047.97
401.24	2026.90
401.44	2083.08
401.63	2136.91
401.82	2148.61
402.01	2143.93
402.21	2232.87
402.40	2153.29
402.59	2153.29
402.78	2207.13
402.97	2270.32
403.17	2150.95
403.36	2195.42
403.55	2225.85
403.74	2265.64
403.93	2335.85
404.13	2534.80
404.32	2333.51
404.51	2253.94
404.70	2410.75
404.89	2333.51
405.09	2429.48
405.28	2476.29
405.47	2478.63
405.66	2471.61
405.85	2593.31
406.05	2502.03
406.24	2539.48
406.43	2612.04
406.62	2630.76
406.81	2609.70
407.00	2642.46
407.20	2546.50
407.39	2537.14
407.58	2700.98
407.77	2700.98
407.96	2700.98
408.15	2768.85
408.34	2740.77
408.54	2679.91
408.73	2773.53
408.92	2899.92
409.11	2771.19
409.30	2813.32
409.49	2867.16
409.68	2939.71
409.87	2906.95
410.07	3000.57
410.26	2911.63
410.45	2928.01
410.64	3019.29
410.83	3108.23
411.02	2993.55
411.21	3192.49
411.40	3068.44
411.59	3204.19
411.78	3136.32
411.98	3115.25
412.17	3295.47
412.36	3204.19
412.55	3330.58
412.74	3332.92
412.93	3279.09
413.12	3293.13
413.31	3459.31
413.50	3403.14
413.69	3393.78
413.88	3541.23
414.07	3513.14
414.26	3548.25
414.45	3566.98
414.64	3667.62
414.83	3637.19
415.02	3794.01
415.22	3857.20
415.41	3770.60
415.60	3854.86
415.79	3803.37
415.98	3885.29
416.17	3955.51
416.36	3964.87
416.55	3948.48
416.74	4049.13
416.93	4016.36
417.12	4159.13
417.31	3955.51
417.50	4245.73
417.69	4283.18
417.88	4236.37
418.07	4367.44
418.26	4149.77
418.45	4334.67
418.64	4423.61
418.83	4360.42
419.02	4367.44
419.21	4468.08
419.39	4435.32
419.58	4337.01
419.77	4451.70
419.96	4638.94
420.15	4615.54
420.34	4557.02
420.53	4713.84
420.72	4585.11
420.91	4542.98
421.10	4692.77
421.29	4922.15
421.48	4664.69
421.67	4762.99
421.86	4793.42
422.05	4746.61
422.24	4833.21
422.43	4851.93
422.61	4709.16
422.80	4840.23
422.99	4791.08
423.18	4985.34
423.37	4992.36
423.56	4716.18
423.75	4873.00
423.94	4786.40
424.13	4667.03
424.32	4779.37
424.50	4882.36
424.69	5074.28
424.88	4957.25
425.07	4936.19
425.26	4854.27
425.45	4950.23
425.64	4985.34
425.83	4889.38
426.01	5039.17
426.20	5097.69
426.39	5062.58
426.58	5090.67
426.77	5093.01
426.96	5062.58
427.15	5156.20
427.33	5069.60
427.52	5275.57
427.71	5137.48
427.90	5074.28
428.09	5231.10
428.28	5240.46
428.46	5240.46
428.65	5430.04
428.84	5315.36
429.03	5369.19
429.22	5308.34
429.40	5385.57
429.59	5455.79
429.78	5277.91
429.97	5275.57
430.16	5334.08
430.34	5474.51
430.53	5551.75
430.72	5748.36
430.91	5542.39
431.10	5540.05
431.28	5638.35
431.47	5734.31
431.66	5884.11
431.85	5668.78
432.03	5900.49
432.22	5937.94
432.41	5942.62
432.60	5982.41
432.79	5996.45
432.97	6050.28
433.16	5998.79
433.35	5970.71
433.54	6061.99
433.72	6132.20
433.91	6043.26
434.10	6232.85
434.28	6111.14
434.47	6209.44
434.66	6237.53
434.85	6242.21
435.03	6244.55
435.22	6235.19
435.41	6239.87
435.59	6221.14
435.78	6502.01
435.97	6387.32
436.16	6188.38
436.34	6265.61
436.53	6658.82
436.72	6445.84
436.90	6401.37
437.09	6572.22
437.28	6291.36
437.46	6532.44
437.65	6471.58
437.84	6612.01
438.02	6644.78
438.21	6775.85
438.40	6602.65
438.58	6916.28
438.77	7101.19
438.96	6932.67
439.14	6944.37
439.33	7005.22
439.52	7201.83
439.70	7197.15
439.89	7323.54
440.08	7194.81
440.26	7171.40
440.45	7274.38
440.63	7616.10
440.82	7520.14
441.01	7545.89
441.19	7723.77
441.38	7651.21
441.57	7693.34
441.75	7779.94
441.94	7962.50
442.12	7850.16
442.31	7960.16
442.50	7969.52
442.68	8011.65
442.87	7845.48
443.05	8030.38
443.24	8088.89
443.43	8046.76
443.61	8079.53
443.80	8294.86
443.98	7990.59
444.17	7918.03
444.35	8147.40
444.54	8219.96
444.73	8152.09
444.91	8257.41
445.10	8524.23
445.28	8109.96
445.47	8252.73
445.65	8416.57
445.84	8339.33
446.02	8217.62
446.21	8203.58
446.39	8184.85
446.58	8463.38
446.77	8318.26
446.95	8379.12
447.14	8418.91
447.32	8589.77
447.51	8351.03
447.69	8351.03
447.88	8500.83
448.06	8575.72
448.25	8468.06
448.43	8634.24
448.62	8613.17
448.80	8360.39
448.99	8676.37
449.17	8786.37
449.36	8404.86
449.54	8786.37
449.73	9043.83
449.91	9050.85
450.10	9139.79
450.28	9100.00
450.46	8922.12
450.65	8938.51
450.83	9004.04
451.02	9170.22
451.20	9062.55
451.39	9142.13
451.57	9111.71
451.76	9130.43
451.94	9104.68
452.13	9350.44
452.31	9329.38
452.49	9142.13
452.68	9214.69
452.86	9334.06
453.05	9437.04
453.23	9458.10
453.42	9195.96
453.60	9132.77
453.78	9366.82
453.97	9413.63
454.15	9385.55
454.34	9430.02
454.52	9523.64
454.70	9657.05
454.89	9596.20
455.07	9717.90
455.26	9738.97
455.44	9940.26
455.62	9736.63
455.81	9867.70
455.99	10052.60
456.17	9792.80
456.36	9893.44
456.54	9902.81
456.73	10183.67
456.91	10609.65
457.09	10223.46
457.28	10363.89
457.46	10225.80
457.64	10387.30
457.83	10471.56
458.01	10518.37
458.19	10534.75
458.38	10326.44
458.56	10759.44
458.74	10682.20
458.93	10586.24
459.11	10808.59
459.29	10752.42
459.48	10801.57
459.66	10717.31
459.84	11042.65
460.03	11098.82
460.21	10855.40
460.39	11007.54
460.57	10909.24
460.76	11159.67
460.94	11166.70
461.12	11138.61
461.31	11243.93
461.49	11042.65
461.67	10991.16
461.85	11365.64
462.04	11068.39
462.22	11936.73
462.40	11623.10
462.59	11173.72
462.77	11382.03
462.95	11543.52
463.13	11482.67
463.32	11332.87
463.50	11360.96
463.68	11623.10
463.86	11758.85
464.05	11384.37
464.23	11683.95
464.41	11822.05
464.59	11658.21
464.78	11831.41
464.96	11882.90
465.14	11625.44
465.32	12121.63
465.50	11976.52
465.69	12175.47
465.87	11922.69
466.05	11983.54
466.23	12009.29
466.41	12051.42
466.60	12358.03
466.78	12229.30
466.96	12346.33
467.14	12196.53
467.32	12304.20
467.51	12248.02
467.69	11864.18
467.87	12390.80
468.05	12643.57
468.23	12456.33
468.41	12351.01
468.60	12566.34
468.78	12699.75
468.96	12416.54
469.14	12629.53
469.32	13053.17
469.50	12688.04
469.69	12985.29
469.87	12781.67
470.05	12842.52
470.23	13102.32
470.41	13170.19
470.59	13116.36
470.77	13219.35
470.95	13149.13
471.14	13530.64
471.32	12943.16
471.50	13488.51
471.68	13591.49
471.86	13516.59
472.04	13720.22
472.22	13933.21
472.40	13664.05
472.58	13729.58
472.77	13858.31
472.95	14101.73
473.13	14352.16
473.31	13853.63
473.49	14167.26
473.67	14160.24
473.85	14031.51
474.03	14410.68
474.21	14527.71
474.39	14799.21
474.57	14930.28
474.75	14827.29
474.93	14752.40
475.12	14717.29
475.30	15150.29
475.48	15033.26
475.66	14820.27
475.84	15180.71
476.02	15477.96
476.20	15267.31
476.38	15667.55
476.56	15712.02
476.74	16119.27
476.92	15536.48
477.10	15573.92
477.28	16109.91
477.46	15988.20
477.64	16327.58
477.82	16519.50
478.00	16786.32
478.18	16585.04
478.36	16617.80
478.54	17350.39
478.72	16992.29
478.90	17214.64
479.08	17657.00
479.26	17671.04
479.44	17654.66
479.62	17788.07
479.80	17813.82
479.98	17909.78
480.16	18384.91
480.34	18373.21
480.52	18555.77
480.70	18302.99
480.88	18457.46
481.06	18640.03
481.24	18567.47
481.41	18618.96
481.59	19307.08
481.77	19564.54
481.95	19580.92
482.13	19852.42
482.31	19531.77
482.49	19999.88
482.67	19971.79
482.85	20222.23
483.03	20596.71
483.21	20475.01
483.39	20725.44
483.57	20608.42
483.74	21135.04
483.92	21130.36
484.10	21151.42
484.28	21355.05
484.46	21855.92
484.64	21961.25
484.82	21783.37
485.00	22153.17
485.18	22532.34
485.35	22778.09
485.53	22721.92
485.71	22754.69
485.89	23463.87
486.07	23082.36
486.25	23290.67
486.43	23414.72
486.61	23580.90
486.78	23875.80
486.96	24086.45
487.14	24603.71
487.32	24568.60
487.50	24634.14
487.68	24776.91
487.85	24809.68
488.03	25296.51
488.21	25659.29
488.39	25668.66
488.57	25928.45
488.75	26106.34
488.92	26307.62
489.10	26389.54
489.28	26749.98
489.46	26852.97
489.64	26911.48
489.81	27321.07
489.99	27730.67
490.17	27505.98
490.35	27857.06
490.53	27894.50
490.70	28325.16
490.88	28364.95
491.06	28458.57
491.24	28643.48
491.41	28732.42
491.59	29228.61
491.77	28933.70
491.95	29223.93
492.13	29310.53
492.30	29780.98
492.48	29677.99
492.66	30338.02
492.84	29907.37
493.01	30637.61
493.19	30551.01
493.37	30747.62
493.54	31126.78
493.72	31215.72
493.90	31220.41
494.08	31419.35
494.25	31978.74
494.43	31955.33
494.61	32126.19
494.79	32533.45
494.96	32369.61
495.14	32617.71
495.32	33158.37
495.49	32725.37
495.67	33266.03
495.85	32917.29
496.02	33523.49
496.20	34033.73
496.38	33799.68
496.55	33986.92
496.73	34543.97
496.91	34389.49
497.09	34202.25
497.26	34906.75
497.44	34492.47
497.62	35082.29
497.79	35278.89
497.97	35508.27
498.14	35845.30
498.32	35398.26
498.50	36032.55
498.67	35948.29
498.85	36140.21
499.03	36479.59
499.20	36519.38
499.38	36825.99
499.56	36708.96
499.73	36931.31
499.91	37326.86
500.08	37148.98
500.26	37181.75
500.44	37361.97
500.61	37495.38
500.79	37326.86
500.97	37724.75
501.14	38588.41
501.32	38108.60
501.49	38335.63
501.67	38628.20
501.84	38918.43
502.02	38637.56
502.20	38754.59
502.37	39171.21
502.55	39213.34
502.72	39353.77
502.90	39321.00
503.07	39351.43
503.25	39709.53
503.43	39491.86
503.60	39735.27
503.78	40032.52
503.95	39587.82
504.13	40062.95
504.30	40341.47
504.48	40086.36
504.65	40741.71
504.83	40999.16
505.01	41099.81
505.18	41050.66
505.36	41312.80
505.53	40772.13
505.71	41528.13
505.88	41228.54
506.06	41628.77
506.23	41706.01
506.41	41811.33
506.58	41677.92
506.76	41865.16
506.93	42237.31
507.11	42036.02
507.28	42553.28
507.46	42501.79
507.63	42660.94
507.81	43107.99
507.98	42618.81
508.16	43084.58
508.33	42927.77
508.50	43335.02
508.68	43199.27
508.85	43531.62
509.03	43526.94
509.20	43936.54
509.38	44357.83
509.55	44109.74
509.73	44046.54
509.90	44414.01
510.08	44280.60
510.25	44500.61
510.42	44395.28
510.60	44940.63
510.77	45186.38
510.95	45298.73
511.12	44947.65
511.30	44914.88
511.47	45179.36
511.64	45008.50
511.82	45698.96
511.99	45551.51
512.17	45682.58
512.34	45249.58
512.51	46354.31
512.69	45546.82
512.86	46026.63
513.04	46183.45
513.21	46396.44
513.38	46288.77
513.56	46604.75
513.73	46679.64
513.90	47047.11
514.08	46487.72
514.25	47281.16
514.43	46965.19
514.60	47166.48
514.77	47140.73
514.95	47627.56
515.12	47208.61
515.29	47164.14
515.47	47510.53
515.64	47601.82
515.81	47482.45
515.99	47955.24
516.16	48320.36
516.33	48158.86
516.51	48193.97
516.68	48027.79
516.85	47962.26
517.03	48783.79
517.20	48413.98
517.37	48781.45
517.54	48685.48
517.72	48603.56
517.89	48451.43
518.06	48715.91
518.24	49045.93
518.41	48704.21
518.58	48994.43
518.75	48933.58
518.93	49230.83
519.10	49198.06
519.27	49411.05
519.45	49448.50
519.62	49705.96
519.79	49897.88
519.96	49698.94
520.14	49682.55
520.31	49762.13
520.48	49989.16
520.65	50080.44
520.83	50340.24
521.00	50316.84
521.17	50197.47
521.34	50342.58
521.52	50494.72
521.69	50696.00
521.86	51077.51
522.03	50815.37
522.20	51194.54
522.38	51517.53
522.55	51304.54
522.72	51068.15
522.89	50967.51
523.07	51688.39
523.24	51239.01
523.41	51442.63
523.58	51004.95
523.75	51966.91
523.92	51693.07
524.10	51711.80
524.27	51407.53
524.44	51995.00
524.61	51732.86
524.78	51952.87
524.96	51861.59
525.13	52023.09
525.30	52189.27
525.47	52076.92
525.64	52343.74
525.81	52596.52
525.98	52795.46
526.16	52105.01
526.33	52339.06
526.50	52825.89
526.67	52856.32
526.84	52879.72
527.01	52582.48
527.18	52411.62
527.36	52334.38
527.53	52949.94
527.70	53085.69
527.87	53263.57
528.04	52846.96
528.21	53052.92
528.38	53359.53
528.55	53399.32
528.72	53010.79
528.89	53338.47
529.07	53261.23
529.24	53315.06
529.41	53499.97
529.58	53593.59
529.75	53521.03
529.92	53729.34
530.09	53609.97
530.26	53853.39
530.43	53616.99
530.60	53457.84
530.77	53333.79
530.94	53691.89
531.11	54026.59
531.28	53989.14
531.46	54014.88
531.63	54078.08
531.80	54185.74
531.97	54298.09
532.14	54375.33
532.31	54248.94
532.48	54396.39
532.65	54501.71
532.82	54377.67
532.99	54571.93
533.16	54382.35
533.33	54391.71
533.50	54628.10
533.67	54490.01
533.84	54614.06
534.01	54756.83
534.18	54714.70
534.35	54784.92
534.52	54805.98
534.69	55302.18
534.86	55119.62
535.03	54784.92
535.20	54820.03
535.37	55051.74
535.54	55042.38
535.71	55016.63
535.88	55299.84
536.05	55356.01
536.22	55365.37
536.38	55381.76
536.55	55622.83
536.72	55547.93
536.89	55227.28
537.06	55372.39
537.23	55718.79
537.40	55552.62
537.57	55510.49
537.74	55622.83
537.91	55955.19
538.08	56004.34
538.25	55526.87
538.42	55758.58
538.59	56095.62
538.75	55723.47
538.92	55873.27
539.09	55826.46
539.26	55749.22
539.43	56058.17
539.60	56313.29
539.77	56002.00
539.94	56247.75
540.11	56121.37
540.28	56102.64
540.44	56016.04
540.61	56207.97
540.78	56474.79
540.95	56364.78
541.12	56238.39
541.29	56207.97
541.46	56317.97
541.62	56484.15
541.79	56413.93
541.96	56376.48
542.13	56388.19
542.30	56449.04
542.47	56708.84
542.63	56619.90
542.80	56720.54
542.97	56846.93
543.14	57111.41
543.31	57022.47
543.48	57125.46
543.64	57425.04
543.81	57099.71
543.98	57132.48
544.15	56994.39
544.32	57233.12
544.48	57338.44
544.65	57172.27
544.82	57420.36
544.99	56982.68
545.16	57176.95
545.32	57158.22
545.49	57640.37
545.66	57588.88
545.83	57593.56
546.00	57572.50
546.16	57340.78
546.33	57364.19
546.50	57277.59
546.67	57609.95
546.83	57303.34
547.00	57670.80
547.17	57453.13
547.34	57818.25
547.50	57984.43
547.67	57771.44
547.84	57982.09
548.00	57904.85
548.17	57944.64
548.34	57874.43
548.51	58176.36
548.67	58094.44
548.84	58089.76
549.01	58136.57
549.18	57876.77
549.34	58124.86
549.51	58157.63
549.68	58134.23
549.84	58134.23
550.01	58513.39
550.18	58012.52
550.34	58309.77
550.51	58232.53
550.68	58216.14
550.84	58152.95
551.01	58445.52
551.18	58328.49
551.34	58431.47
551.51	58471.26
551.68	58660.85
551.84	58513.39
552.01	58387.00
552.18	58436.16
552.34	58429.13
552.51	58670.21
552.68	58342.53
552.84	58513.39
553.01	58960.44
553.18	58791.92
553.34	58810.64
553.51	58431.47
553.67	58693.61
553.84	58948.73
554.01	58726.38
554.17	58958.09
554.34	58993.20
554.51	58782.55
554.67	58843.41
554.84	59014.27
555.00	58710.00
555.17	58763.83
555.33	58864.47
555.50	58852.77
555.67	58801.28
555.83	58904.26
556.00	58803.62
556.16	59292.79
556.33	59164.06
556.50	58972.14
556.66	59208.53
556.83	58892.56
556.99	59250.66
557.16	59128.95
557.32	59348.96
557.49	59634.51
557.65	59056.40
557.82	59398.12
557.98	59224.92
558.15	59121.93
558.32	59278.75
558.48	59245.98
558.65	59348.96
558.81	59440.24
558.98	59281.09
559.14	59290.45
559.31	59400.46
559.47	59501.10
559.64	59653.23
559.80	59374.71
559.97	59641.53
560.13	59475.35
560.30	59714.09
560.46	59573.66
560.63	59664.94
560.79	59700.04
560.96	59774.94
561.12	59669.62
561.29	59732.81
561.45	59440.24
561.61	59671.96
561.78	59566.63
561.94	59704.73
562.11	59863.88
562.27	59737.49
562.44	59796.01
562.60	59999.63
562.77	59877.93
562.93	59653.23
563.10	59817.07
563.26	59716.43
563.42	59913.03
563.59	59784.30
563.75	59765.58
563.92	59877.93
564.08	59732.81
564.24	59999.63
564.41	59873.24
564.57	59992.61
564.74	60027.72
564.90	59877.93
565.07	59852.18
565.23	59882.61
565.39	60147.09
565.56	60177.51
565.72	60009.00
565.88	59859.20
566.05	59950.48
566.21	60189.22
566.38	60151.77
566.54	60191.56
566.70	60268.79
566.87	60226.66
567.03	59847.50
567.19	60261.77
567.36	60030.06
567.52	60231.35
567.68	60310.92
567.85	60374.12
568.01	60224.32
568.17	60086.23
568.34	60329.65
568.50	60214.96
568.66	60287.52
568.83	60432.63
568.99	60170.49
569.15	60252.41
569.32	60210.28
569.48	60233.69
569.64	60196.24
569.81	60006.65
569.97	60198.58
570.13	60441.99
570.30	59938.78
570.46	60285.18
570.62	60287.52
570.78	60250.07
570.95	60214.96
571.11	60416.25
571.27	60502.85
571.43	60388.16
571.60	60516.89
571.76	60369.44
571.92	60472.42
572.09	60495.83
572.25	60182.19
572.41	60353.05
572.57	60385.82
572.74	60645.62
572.90	60390.50
573.06	60537.96
573.22	60535.62
573.38	60540.30
573.55	60434.97
573.71	60580.09
573.87	60701.79
574.03	60182.19
574.20	60479.44
574.36	60505.19
574.52	60636.26
574.68	60657.32
574.84	60736.90
575.01	60512.21
575.17	60481.78
575.33	60526.25
575.49	60488.80
575.65	60535.62
575.82	60722.86
575.98	60537.96
576.14	60463.06
576.30	60615.19
576.46	60383.48
576.62	60540.30
576.79	60622.22
576.95	60570.72
577.11	60896.06
577.27	60636.26
577.43	60753.29
577.59	60495.83
577.75	60608.17
577.92	60472.42
578.08	60570.72
578.24	60619.88
578.40	60673.71
578.56	60832.86
578.72	60781.37
578.88	60900.74
579.04	61073.94
579.21	60828.18
579.37	60734.56
579.53	60715.84
579.69	60561.36
579.85	60535.62
580.01	60942.87
580.17	60764.99
580.33	60718.18
580.49	60874.99
580.65	60835.20
580.82	60814.14
580.98	60605.83
581.14	60629.24
581.30	60832.86
581.46	60704.13
581.62	60828.18
581.78	60764.99
581.94	60762.65
582.10	60706.47
582.26	60671.37
582.42	60753.29
582.58	60846.91
582.74	60860.95
582.90	60917.12
583.06	60945.21
583.22	60692.43
583.38	60753.29
583.54	60636.26
583.70	60809.46
583.86	60921.80
584.02	60837.54
584.18	60905.42
584.34	60919.46
584.50	60889.04
584.66	60690.09
584.82	60877.33
584.98	61041.17
585.14	61024.79
585.30	60762.65
585.46	61020.11
585.62	60837.54
585.78	60987.34
585.94	60638.60
586.10	60954.57
586.26	60734.56
586.42	60736.90
586.58	60999.04
586.74	61113.73
586.90	60928.83
587.06	60977.98
587.22	61090.32
587.38	60900.74
587.54	61013.08
587.70	61181.60
587.86	60992.02
588.02	60891.38
588.18	61141.81
588.34	60889.04
588.49	61031.81
