SpectraSuite Data File
++++++++++++++++++++++++++++++++++++
Date: Fri Oct 25 11:34:40 EDT 2013
User: price-jones
Dark Spectrum Present: No
Reference Spectrum Present: No
Number of Sampled Component Spectra: 1
Spectrometers: USB2+H05261
Integration Time (usec): 100000 (USB2+H05261)
Spectra Averaged: 1 (USB2+H05261)
Boxcar Smoothing: 0 (USB2+H05261)
Correct for Electrical Dark: No (USB2+H05261)
Strobe/Lamp Enabled: No (USB2+H05261)
Correct for Detector Non-linearity: No (USB2+H05261)
Correct for Stray Light: No (USB2+H05261)
Number of Pixels in Processed Spectrum: 2048
>>>>>Begin Processed Spectral Data<<<<<
365.73	297.25
365.92	297.25
366.12	297.25
366.32	173.20
366.52	168.52
366.72	255.12
366.91	168.52
367.11	180.22
367.31	194.26
367.51	208.31
367.70	215.33
367.90	173.20
368.10	238.73
368.30	180.22
368.49	156.82
368.69	194.26
368.89	278.52
369.09	224.69
369.28	198.95
369.48	175.54
369.68	177.88
369.87	215.33
370.07	266.82
370.27	255.12
370.47	334.70
370.66	458.74
370.86	531.30
371.06	559.39
371.25	571.09
371.45	491.51
371.65	496.19
371.84	589.82
372.04	528.96
372.24	613.22
372.44	540.66
372.63	634.29
372.83	589.82
373.03	564.07
373.22	664.71
373.42	594.50
373.62	592.16
373.81	627.26
374.01	620.24
374.21	622.58
374.40	685.78
374.60	613.22
374.79	629.60
374.99	645.99
375.19	624.92
375.38	645.99
375.58	650.67
375.78	699.82
375.97	650.67
376.17	692.80
376.37	667.05
376.56	645.99
376.76	671.73
376.95	660.03
377.15	629.60
377.35	657.69
377.54	638.97
377.74	620.24
377.93	751.31
378.13	716.20
378.33	676.41
378.52	594.50
378.72	709.18
378.91	802.80
379.11	730.25
379.31	669.39
379.50	671.73
379.70	777.06
379.89	716.20
380.09	650.67
380.28	821.53
380.48	791.10
380.68	720.88
380.87	784.08
381.07	653.01
381.26	763.01
381.46	746.63
381.65	779.40
381.85	718.54
382.04	723.23
382.24	741.95
382.43	699.82
382.63	734.93
382.83	786.42
383.02	774.72
383.22	770.04
383.41	840.25
383.61	856.64
383.80	851.96
384.00	779.40
384.19	791.10
384.39	814.51
384.58	753.65
384.78	793.44
384.97	772.38
385.17	826.21
385.36	805.14
385.56	744.29
385.75	800.46
385.95	770.04
386.14	840.25
386.34	786.42
386.53	877.70
386.72	887.06
386.92	819.19
387.11	877.70
387.31	901.11
387.50	840.25
387.70	840.25
387.89	891.74
388.09	917.49
388.28	919.83
388.48	868.34
388.67	866.00
388.86	891.74
389.06	903.45
389.25	891.74
389.45	840.25
389.64	926.85
389.84	922.17
390.03	952.60
390.22	990.05
390.42	971.32
390.61	894.08
390.81	1022.81
391.00	894.08
391.19	917.49
391.39	997.07
391.58	952.60
391.78	987.71
391.97	1013.45
392.16	924.51
392.36	1078.99
392.55	961.96
392.75	971.32
392.94	1057.92
393.13	1039.20
393.33	1064.94
393.52	1074.31
393.71	1184.31
393.91	1179.63
394.10	1032.18
394.29	1034.52
394.49	1025.15
394.68	966.64
394.88	1004.09
395.07	1153.88
395.26	1071.97
395.46	1116.44
395.65	1130.48
395.84	1046.22
396.04	1212.40
396.23	1181.97
396.42	1095.37
396.62	1123.46
396.81	1130.48
397.00	1179.63
397.19	1083.67
397.39	1125.80
397.58	1203.04
397.77	1219.42
397.97	1135.16
398.16	1247.51
398.35	1205.38
398.55	1228.78
398.74	1317.72
398.93	1259.21
399.12	1221.76
399.32	1259.21
399.51	1240.48
399.70	1231.12
399.90	1336.45
400.09	1338.79
400.28	1327.08
400.47	1327.08
400.67	1352.83
400.86	1383.26
401.05	1338.79
401.24	1327.08
401.44	1465.18
401.63	1310.70
401.82	1390.28
402.01	1451.13
402.21	1366.87
402.40	1404.32
402.59	1439.43
402.78	1390.28
402.97	1425.39
403.17	1481.56
403.36	1439.43
403.55	1486.24
403.74	1502.62
403.93	1488.58
404.13	1582.20
404.32	1434.75
404.51	1474.54
404.70	1465.18
404.89	1668.80
405.09	1579.86
405.28	1636.03
405.47	1563.48
405.66	1624.33
405.85	1596.25
406.05	1586.88
406.24	1636.03
406.43	1636.03
406.62	1661.78
406.81	1722.63
407.00	1696.89
407.20	1652.42
407.39	1778.81
407.58	1881.79
407.77	1834.98
407.96	1856.04
408.15	1753.06
408.34	1785.83
408.54	1940.30
408.73	1727.32
408.92	1799.87
409.11	1877.11
409.30	1834.98
409.49	1816.26
409.68	1886.47
409.87	1968.39
410.07	2026.90
410.26	1968.39
410.45	1987.11
410.64	1928.60
410.83	2022.22
411.02	2005.84
411.21	1975.41
411.40	2054.99
411.59	2129.89
411.78	2062.01
411.98	2019.88
412.17	2132.23
412.36	2209.47
412.55	2282.02
412.74	2150.95
412.93	2242.23
413.12	2167.34
413.31	2284.36
413.50	2279.68
413.69	2186.06
413.88	2415.43
414.07	2298.41
414.26	2380.32
414.45	2296.07
414.64	2504.37
414.83	2410.75
415.02	2530.12
415.22	2532.46
415.41	2520.76
415.60	2485.65
415.79	2513.74
415.98	2597.99
416.17	2607.36
416.36	2663.53
416.55	2565.23
416.74	2649.49
416.93	2663.53
417.12	2621.40
417.31	2686.94
417.50	2747.79
417.69	2878.86
417.88	2813.32
418.07	2813.32
418.26	2867.16
418.45	2810.98
418.64	2867.16
418.83	2759.49
419.02	2991.20
419.21	2902.26
419.39	2984.18
419.58	2977.16
419.77	2916.31
419.96	3014.61
420.15	2956.10
420.34	2904.60
420.53	2944.39
420.72	3112.91
420.91	2993.55
421.10	3094.19
421.29	3005.25
421.48	2970.14
421.67	3248.66
421.86	3126.96
422.05	3075.46
422.24	3045.04
422.43	3213.56
422.61	3084.83
422.80	3190.15
422.99	3208.87
423.18	3309.52
423.37	3375.05
423.56	3290.79
423.75	3201.85
423.94	3148.02
424.13	3075.46
424.32	3162.06
424.50	3155.04
424.69	3410.16
424.88	3290.79
425.07	3187.81
425.26	3162.06
425.45	3265.05
425.64	3227.60
425.83	3243.98
426.01	3396.12
426.20	3325.90
426.39	3328.24
426.58	3295.47
426.77	3419.52
426.96	3356.33
427.15	3412.50
427.33	3398.46
427.52	3276.75
427.71	3496.76
427.90	3492.08
428.09	3534.21
428.28	3522.51
428.46	3508.46
428.65	3531.87
428.84	3534.21
429.03	3569.32
429.22	3442.93
429.40	3625.49
429.59	3543.57
429.78	3382.07
429.97	3485.06
430.16	3693.37
430.34	3632.51
430.53	3658.26
430.72	3705.07
430.91	3693.37
431.10	3531.87
431.28	3634.85
431.47	3609.11
431.66	3822.09
431.85	3976.57
432.03	3985.93
432.22	3911.04
432.41	3887.63
432.60	3749.54
432.79	3868.91
432.97	3936.78
433.16	3936.78
433.35	3997.64
433.54	4035.08
433.72	3971.89
433.91	4037.42
434.10	3960.19
434.28	3913.38
434.47	3967.21
434.66	4184.88
434.85	4100.62
435.03	4121.68
435.22	4180.20
435.41	4339.35
435.59	4058.49
435.78	4238.71
435.97	4248.07
436.16	4121.68
436.34	4086.58
436.53	4208.28
436.72	4243.39
436.90	4131.05
437.09	4259.78
437.28	4109.98
437.46	4217.65
437.65	4311.27
437.84	4290.20
438.02	4341.69
438.21	4451.70
438.40	4358.08
438.58	4503.19
438.77	4505.53
438.96	4386.16
439.14	4585.11
439.33	4596.81
439.52	4582.77
439.70	4800.44
439.89	4720.86
440.08	4791.08
440.26	4711.50
440.45	4777.03
440.63	4774.69
440.82	4901.08
441.01	4882.36
441.19	4894.06
441.38	5104.71
441.57	5011.09
441.75	4975.98
441.94	5275.57
442.12	5144.50
442.31	5109.39
442.50	5172.58
442.68	5114.07
442.87	5100.03
443.05	5294.29
443.24	5329.40
443.43	5165.56
443.61	5294.29
443.80	5408.98
443.98	5247.48
444.17	5067.26
444.35	5247.48
444.54	5315.36
444.73	5369.19
444.91	5188.97
445.10	5455.79
445.28	5336.42
445.47	5320.04
445.65	5327.06
445.84	5411.32
446.02	5584.52
446.21	5394.93
446.39	5329.40
446.58	5533.03
446.77	5523.66
446.95	5392.59
447.14	5427.70
447.32	5591.54
447.51	5411.32
447.69	5385.57
447.88	5530.69
448.06	5437.06
448.25	5465.15
448.43	5551.75
448.62	5444.09
448.80	5568.13
448.99	5446.43
449.17	5661.76
449.36	5514.30
449.54	5776.44
449.73	5736.65
449.91	5886.45
450.10	5715.59
450.28	5748.36
450.46	5678.14
450.65	6005.81
450.83	5905.17
451.02	5675.80
451.20	5956.66
451.39	5668.78
451.57	5795.17
451.76	5867.72
451.94	5867.72
452.13	6045.60
452.31	5944.96
452.49	5895.81
452.68	6038.58
452.86	6141.57
453.05	6033.90
453.23	6024.54
453.42	6106.46
453.60	5902.83
453.78	6106.46
453.97	6141.57
454.15	6057.31
454.34	6050.28
454.52	6125.18
454.70	6249.23
454.89	6188.38
455.07	6363.92
455.26	6347.53
455.44	6331.15
455.62	6340.51
455.81	6387.32
455.99	6382.64
456.17	6396.68
456.36	6445.84
456.54	6604.99
456.73	6443.49
456.91	6731.38
457.09	6717.34
457.28	6719.68
457.46	6747.76
457.64	6736.06
457.83	6789.89
458.01	6590.95
458.19	6794.58
458.38	6731.38
458.56	6780.53
458.74	6913.94
458.93	6656.48
459.11	6782.87
459.29	6984.16
459.48	6942.03
459.66	6890.54
459.84	6937.35
460.03	7164.38
460.21	6953.73
460.39	7094.16
460.57	6988.84
460.76	7040.33
460.94	7169.06
461.12	7145.66
461.31	7173.74
461.49	7028.63
461.67	7213.53
461.85	7428.86
462.04	7155.02
462.22	7648.87
462.40	7463.97
462.59	7442.90
462.77	7159.70
462.95	7346.94
463.13	7398.43
463.32	7426.52
463.50	7571.63
463.68	7562.27
463.86	7531.84
464.05	7368.01
464.23	7588.02
464.41	7456.95
464.59	7452.27
464.78	7803.35
464.96	7606.74
465.14	7414.82
465.32	7623.12
465.50	7721.43
465.69	7583.34
465.87	7662.91
466.05	7639.51
466.23	7735.47
466.41	7840.79
466.60	8060.80
466.78	7803.35
466.96	7875.90
467.14	7812.71
467.32	7808.03
467.51	7899.31
467.69	7833.77
467.87	7861.86
468.05	7906.33
468.23	7918.03
468.41	8018.68
468.60	8210.60
468.78	7957.82
468.96	7983.57
469.14	8109.96
469.32	8292.52
469.50	7847.82
469.69	8156.77
469.87	8432.95
470.05	8259.75
470.23	8329.97
470.41	8503.17
470.59	8360.39
470.77	8327.63
470.95	8416.57
471.14	8655.30
471.32	8177.83
471.50	8634.24
471.68	8732.54
471.86	8554.66
472.04	8657.64
472.22	8774.67
472.40	8554.66
472.58	8683.39
472.77	8725.52
472.95	8784.03
473.13	9057.87
473.31	8795.73
473.49	8952.55
473.67	8765.31
473.85	8961.91
474.03	9224.05
474.21	9205.33
474.39	9350.44
474.57	9369.16
474.75	9657.05
474.93	9280.22
475.12	9444.06
475.30	9516.62
475.48	9465.13
475.66	9551.73
475.84	9455.76
476.02	9717.90
476.20	9621.94
476.38	9767.06
476.56	10146.22
476.74	9961.32
476.92	9799.82
477.10	9980.04
477.28	10190.69
477.46	10153.24
477.64	10216.44
477.82	10176.65
478.00	10534.75
478.18	10399.00
478.36	10541.77
478.54	10670.50
478.72	10654.12
478.90	10803.91
479.08	10946.69
479.26	10963.07
479.44	11014.56
479.62	11122.23
479.80	11398.41
479.98	11157.33
480.16	11522.46
480.34	11403.09
480.52	11627.78
480.70	11541.18
480.88	11459.26
481.06	11592.67
481.24	11686.29
481.41	11740.13
481.59	12009.29
481.77	12250.36
481.95	12159.08
482.13	12142.70
482.31	12198.87
482.49	12716.13
482.67	12631.87
482.85	12779.32
483.03	12833.16
483.21	12659.96
483.39	13296.58
483.57	12868.27
483.74	13069.55
483.92	13177.22
484.10	13268.50
484.28	13783.41
484.46	13855.97
484.64	13760.01
484.82	13535.32
485.00	13645.32
485.18	14125.13
485.35	14424.72
485.53	14197.69
485.71	14108.75
485.89	14441.11
486.07	14441.11
486.25	14597.92
486.43	14738.35
486.61	14747.72
486.78	14998.15
486.96	14972.41
487.14	15264.97
487.32	15094.11
487.50	15534.14
487.68	15178.37
487.85	15494.35
488.03	15782.23
488.21	15896.92
488.39	15857.13
488.57	16060.76
488.75	16250.34
488.92	16423.54
489.10	16484.39
489.28	16430.56
489.46	16725.47
489.64	16699.72
489.81	17018.04
489.99	17376.14
490.17	17025.06
490.35	17542.32
490.53	17582.10
490.70	17610.19
490.88	17390.18
491.06	17783.39
491.24	18118.09
491.41	17942.55
491.59	18195.32
491.77	18136.81
491.95	18202.35
492.13	18649.39
492.30	18380.23
492.48	18663.43
492.66	18836.63
492.84	18925.57
493.01	19030.90
493.19	19197.07
493.37	19035.58
493.54	19325.80
493.72	19594.96
493.90	19576.24
494.08	19667.52
494.25	19735.40
494.43	19501.34
494.61	20088.82
494.79	20400.11
494.96	20224.57
495.14	20479.69
495.32	20613.10
495.49	20783.96
495.67	20716.08
495.85	20847.15
496.02	21261.43
496.20	21001.63
496.38	20954.82
496.55	20994.61
496.73	21305.90
496.91	21387.82
497.09	21561.02
497.26	21565.70
497.44	22005.72
497.62	21785.71
497.79	21818.47
497.97	21823.16
498.14	22459.78
498.32	22279.56
498.50	22075.93
498.67	22429.35
498.85	22532.34
499.03	22974.70
499.20	23077.68
499.38	22817.88
499.56	22815.54
499.73	23124.49
499.91	23129.17
500.08	23253.22
500.26	23117.47
500.44	23197.05
500.61	23559.83
500.79	23236.84
500.97	23623.03
501.14	23962.40
501.32	23803.25
501.49	23992.83
501.67	23997.51
501.84	24332.21
502.02	23873.46
502.20	24105.18
502.37	24479.66
502.55	24542.86
502.72	24432.85
502.90	24526.47
503.07	24472.64
503.25	24306.46
503.43	24416.47
503.60	24823.72
503.78	24812.02
503.95	24826.06
504.13	25010.96
504.30	25179.48
504.48	25263.74
504.65	25586.74
504.83	25355.02
505.01	25853.56
505.18	25434.60
505.36	25544.61
505.53	25465.03
505.71	25783.34
505.88	26096.97
506.06	25799.73
506.23	25991.65
506.41	25729.51
506.58	26370.82
506.76	26118.04
506.93	26272.51
507.11	26494.86
507.28	26508.91
507.46	26260.81
507.63	26878.71
507.81	26813.18
507.98	26962.97
508.16	26728.92
508.33	27122.13
508.50	26984.04
508.68	26759.34
508.85	27178.30
509.03	27360.86
509.20	27398.31
509.38	27449.80
509.55	27676.83
509.73	27674.49
509.90	27681.52
510.08	27318.73
510.25	27728.33
510.42	27817.27
510.60	28037.28
510.77	28198.77
510.95	28280.69
511.12	28287.71
511.30	28343.89
511.47	28407.08
511.64	28268.99
511.82	28816.68
511.99	28748.80
512.17	28439.85
512.34	28261.97
512.51	28924.34
512.69	29127.97
512.86	29062.43
513.04	29071.79
513.21	29113.92
513.38	29305.85
513.56	29294.14
513.73	29556.28
513.90	29619.48
514.08	29675.65
514.25	29530.54
514.43	29790.34
514.60	29778.64
514.77	29757.57
514.95	30087.59
515.12	29528.20
515.29	29823.11
515.47	30178.87
515.64	30415.26
515.81	29926.09
515.99	30401.22
516.16	30621.23
516.33	30438.67
516.51	30967.63
516.68	30583.78
516.85	30885.71
517.03	30766.34
517.20	31126.78
517.37	30890.39
517.54	31136.15
517.72	30918.48
517.89	30906.77
518.06	31255.51
518.24	31522.34
518.41	31346.79
518.58	30703.15
518.75	30991.03
518.93	31220.41
519.10	31417.01
519.27	31393.61
519.45	31452.12
519.62	31754.05
519.79	31765.75
519.96	31386.58
520.14	31789.16
520.31	31653.40
520.48	31969.38
520.65	31952.99
520.83	32751.12
521.00	32290.03
521.17	32297.05
521.34	32648.13
521.52	32313.44
521.69	32421.10
521.86	32484.30
522.03	32692.60
522.20	32870.48
522.38	33387.74
522.55	32884.53
522.72	32772.18
522.89	32961.76
523.07	33495.41
523.24	33127.94
523.41	33474.34
523.58	33160.71
523.75	33579.67
523.92	33127.94
524.10	33729.46
524.27	33743.50
524.44	34043.09
524.61	33460.30
524.78	33776.27
524.96	33645.20
525.13	34134.37
525.30	34036.07
525.47	33844.15
525.64	34176.50
525.81	34382.47
525.98	34735.89
526.16	33954.15
526.33	34338.00
526.50	34665.67
526.67	34099.26
526.84	34232.68
527.01	34567.37
527.18	34700.78
527.36	34998.03
527.53	34572.05
527.70	35117.40
527.87	35321.02
528.04	34574.39
528.21	34759.30
528.38	34972.28
528.55	35215.70
528.72	35009.73
528.89	35131.44
529.07	35058.88
529.24	35145.48
529.41	35241.45
529.58	35192.30
529.75	35321.02
529.92	35440.39
530.09	35522.31
530.26	35583.16
530.43	35625.29
530.60	35431.03
530.77	35669.76
530.94	36041.91
531.11	35452.09
531.28	35810.20
531.46	35791.47
531.63	35838.28
531.80	35578.48
531.97	36418.74
532.14	36116.81
532.31	35974.03
532.48	36247.88
532.65	36451.50
532.82	36318.09
532.99	36446.82
533.16	36552.15
533.33	36488.95
533.50	36481.93
533.67	36493.63
533.84	36041.91
534.01	36751.09
534.18	36772.16
534.35	36879.82
534.52	37233.24
534.69	36818.97
534.86	37226.22
535.03	37207.50
535.20	37139.62
535.37	37333.89
535.54	37151.32
535.71	37017.91
535.88	37315.16
536.05	37736.46
536.22	37596.03
536.38	37633.47
536.55	37659.22
536.72	37380.70
536.89	37483.68
537.06	37893.27
537.23	37841.78
537.40	37296.44
537.57	37750.50
537.74	37457.93
537.91	37979.87
538.08	38010.30
538.25	37589.00
538.42	37567.94
538.59	38073.49
538.75	38024.34
538.92	38057.11
539.09	38153.07
539.26	38490.11
539.43	38293.50
539.60	38349.68
539.77	38274.78
539.94	38274.78
540.11	38562.67
540.28	38543.94
540.44	38614.16
540.61	38225.63
540.78	38492.45
540.95	38536.92
541.12	38740.55
541.29	38319.25
541.46	38625.86
541.62	38740.55
541.79	39079.92
541.96	38478.41
542.13	39112.69
542.30	38677.35
542.47	39180.57
542.63	38946.51
542.80	38944.17
542.97	39814.85
543.14	39821.87
543.31	39360.79
543.48	39356.11
543.64	39470.79
543.81	39445.05
543.98	39449.73
544.15	39505.90
544.32	40074.65
544.48	40114.44
544.65	39695.49
544.82	39894.43
544.99	39910.82
545.16	39866.34
545.32	39826.56
545.49	40285.30
545.66	40369.56
545.83	40348.50
546.00	40151.89
546.16	40280.62
546.33	40367.22
546.50	39894.43
546.67	40715.96
546.83	40072.31
547.00	40076.99
547.17	40191.68
547.34	40575.53
547.50	40168.27
547.67	40584.89
547.84	40767.45
548.00	40587.23
548.17	40952.35
548.34	40832.99
548.51	41132.57
548.67	40847.03
548.84	41095.13
549.01	40959.38
549.18	40575.53
549.34	41397.06
549.51	41088.10
549.68	41006.19
549.84	41354.93
550.01	41198.11
550.18	41223.86
550.34	40935.97
550.51	41249.60
550.68	41408.76
550.84	41088.10
551.01	41237.90
551.18	41228.54
551.34	41509.40
551.51	41368.97
551.68	41769.20
551.84	41294.07
552.01	41228.54
552.18	41060.02
552.34	41062.36
552.51	41942.40
552.68	41368.97
552.84	41493.02
553.01	41729.41
553.18	41668.56
553.34	41717.71
553.51	41556.21
553.67	41989.21
553.84	41694.30
554.01	41993.89
554.17	41755.16
554.34	42513.49
554.51	42043.04
554.67	42337.95
554.84	41954.10
555.00	42036.02
555.17	41881.55
555.33	42169.43
555.50	42124.96
555.67	42281.78
555.83	41926.02
556.00	42361.36
556.16	42719.46
556.33	42745.20
556.50	42564.98
556.66	42780.31
556.83	42129.64
556.99	42405.83
557.16	42625.84
557.32	42784.99
557.49	42801.38
557.65	42342.63
557.82	42773.29
557.98	42469.02
558.15	42611.79
558.32	42773.29
558.48	42377.74
558.65	42703.07
558.81	42810.74
558.98	42586.05
559.14	42574.34
559.31	42380.08
559.47	42878.61
559.64	42670.31
559.80	43065.86
559.97	43281.19
560.13	43098.62
560.30	42792.01
560.46	43084.58
560.63	43189.91
560.79	43112.67
560.96	43192.25
561.12	43351.40
561.29	43510.56
561.45	43253.10
561.61	42859.89
561.78	43110.33
561.94	42787.33
562.11	43550.35
562.27	43276.51
562.44	43248.42
562.60	43384.17
562.77	43611.20
562.93	43447.36
563.10	43725.89
563.26	43262.46
563.42	43791.42
563.59	43419.28
563.75	43524.60
563.92	43482.47
564.08	43627.59
564.24	43735.25
564.41	43922.49
564.57	43564.39
564.74	43981.01
564.90	43187.56
565.07	43501.20
565.23	43878.02
565.39	43690.78
565.56	43765.68
565.72	43938.88
565.88	43978.67
566.05	44135.48
566.21	43988.03
566.38	43859.30
566.54	43697.80
566.70	43962.28
566.87	44076.97
567.03	43690.78
567.19	43683.76
567.36	43852.28
567.52	43957.60
567.68	44196.34
567.85	44107.40
568.01	43915.47
568.17	43880.36
568.34	44201.02
568.50	44041.86
568.66	44149.53
568.83	43744.61
568.99	44406.98
569.15	44058.24
569.32	44018.46
569.48	43889.73
569.64	44488.90
569.81	44210.38
569.97	44463.16
570.13	44329.75
570.30	43966.96
570.46	44163.57
570.62	44533.37
570.78	44453.79
570.95	43866.32
571.11	44411.67
571.27	44126.12
571.43	43873.34
571.60	43852.28
571.76	43765.68
571.92	44210.38
572.09	43840.57
572.25	44020.80
572.41	43962.28
572.57	44240.81
572.74	44753.38
572.90	44247.83
573.06	44449.11
573.22	44538.05
573.38	44591.89
573.55	44374.22
573.71	44851.69
573.87	44617.63
574.03	44107.40
574.20	44966.37
574.36	44453.79
574.52	44617.63
574.68	44268.89
574.84	44676.15
575.01	45095.10
575.17	44793.17
575.33	44388.26
575.49	44474.86
575.65	44329.75
575.82	44669.12
575.98	44715.93
576.14	44645.72
576.30	44722.96
576.46	44697.21
576.62	44027.82
576.79	44533.37
576.95	44364.85
577.11	44570.82
577.27	44650.40
577.43	44704.23
577.59	44397.62
577.75	44430.39
577.92	44364.85
578.08	44406.98
578.24	44814.24
578.40	45200.43
578.56	44706.57
578.72	44610.61
578.88	44650.40
579.04	44561.46
579.21	45001.48
579.37	44842.32
579.53	44868.07
579.69	44463.16
579.85	44807.22
580.01	44612.95
580.17	44416.35
580.33	44802.53
580.49	44603.59
580.65	44980.42
580.82	44453.79
580.98	44554.44
581.14	44388.26
581.30	44353.15
581.46	44418.69
581.62	44760.40
581.78	44374.22
581.94	45134.89
582.10	44666.78
582.26	44610.61
582.42	45029.57
582.58	44762.75
582.74	44465.50
582.90	45031.91
583.06	44924.24
583.22	44821.26
583.38	44624.65
583.54	44772.11
583.70	44671.46
583.86	44505.29
584.02	44767.43
584.18	45209.79
584.34	44767.43
584.50	45111.49
584.66	45013.18
584.82	45160.64
584.98	45263.62
585.14	45015.52
585.30	44809.56
585.46	45031.91
585.62	44931.26
585.78	44900.84
585.94	44835.30
586.10	44914.88
586.26	44479.54
586.42	44942.97
586.58	44697.21
586.74	44507.63
586.90	45003.82
587.06	45198.09
587.22	44472.52
587.38	44751.04
587.54	44893.82
587.70	45427.46
587.86	44847.00
588.02	44924.24
588.18	45067.02
588.34	44875.09
588.49	45223.83
588.65	44926.58
588.81	45275.32
588.97	44589.55
589.13	45455.54
589.29	44968.71
589.45	45366.60
589.61	45015.52
589.77	45333.84
589.93	45048.29
590.08	45656.83
590.24	45153.62
