SpectraSuite Data File
++++++++++++++++++++++++++++++++++++
Date: Fri Oct 25 11:23:02 EDT 2013
User: price-jones
Dark Spectrum Present: No
Reference Spectrum Present: No
Number of Sampled Component Spectra: 1
Spectrometers: USB2+H05261
Integration Time (usec): 100000 (USB2+H05261)
Spectra Averaged: 1 (USB2+H05261)
Boxcar Smoothing: 0 (USB2+H05261)
Correct for Electrical Dark: No (USB2+H05261)
Strobe/Lamp Enabled: No (USB2+H05261)
Correct for Detector Non-linearity: No (USB2+H05261)
Correct for Stray Light: No (USB2+H05261)
Number of Pixels in Processed Spectrum: 2048
>>>>>Begin Processed Spectral Data<<<<<
365.73	212.99
365.92	212.99
366.12	212.99
366.32	126.39
366.52	121.71
366.72	161.50
366.91	121.71
367.11	65.54
367.31	142.77
367.51	173.20
367.70	156.82
367.90	203.63
368.10	74.90
368.30	110.01
368.49	65.54
368.69	133.41
368.89	156.82
369.09	177.88
369.28	159.16
369.48	170.86
369.68	220.01
369.87	145.11
370.07	152.13
370.27	152.13
370.47	358.10
370.66	543.00
370.86	692.80
371.06	664.71
371.25	734.93
371.45	692.80
371.65	669.39
371.84	725.57
372.04	720.88
372.24	716.20
372.44	727.91
372.63	638.97
372.83	814.51
373.03	727.91
373.22	828.55
373.42	788.76
373.62	802.80
373.81	840.25
374.01	779.40
374.21	835.57
374.40	755.99
374.60	908.13
374.79	849.61
374.99	800.46
375.19	884.72
375.38	844.93
375.58	823.87
375.78	875.36
375.97	849.61
376.17	896.43
376.37	901.11
376.56	802.80
376.76	891.74
376.95	828.55
377.15	917.49
377.35	875.36
377.54	866.00
377.74	844.93
377.93	826.21
378.13	947.92
378.33	961.96
378.52	938.55
378.72	1015.79
378.91	966.64
379.11	919.83
379.31	971.32
379.50	990.05
379.70	985.37
379.89	877.70
380.09	990.05
380.28	952.60
380.48	1050.90
380.68	1020.47
380.87	1025.15
381.07	1039.20
381.26	1036.86
381.46	1034.52
381.65	1027.50
381.85	1013.45
382.04	1043.88
382.24	1149.20
382.43	1074.31
382.63	1027.50
382.83	997.07
383.02	1036.86
383.22	1165.59
383.41	1069.62
383.61	1074.31
383.80	1109.41
384.00	1062.60
384.19	1151.54
384.39	1156.22
384.58	1149.20
384.78	1212.40
384.97	1219.42
385.17	1102.39
385.36	1153.88
385.56	1039.20
385.75	1123.46
385.95	1090.69
386.14	1188.99
386.34	1153.88
386.53	1177.29
386.72	1179.63
386.92	1233.46
387.11	1146.86
387.31	1235.80
387.50	1275.59
387.70	1231.12
387.89	1282.61
388.09	1240.48
388.28	1348.15
388.48	1275.59
388.67	1282.61
388.86	1284.95
389.06	1329.42
389.25	1329.42
389.45	1327.08
389.64	1324.74
389.84	1359.85
390.03	1420.71
390.22	1479.22
390.42	1434.75
390.61	1329.42
390.81	1327.08
391.00	1362.19
391.19	1563.48
391.39	1423.05
391.58	1430.07
391.78	1451.13
391.97	1514.33
392.16	1488.58
392.36	1579.86
392.55	1570.50
392.75	1549.43
392.94	1549.43
393.13	1528.37
393.33	1575.18
393.52	1589.22
393.71	1671.14
393.91	1631.35
394.10	1598.59
394.29	1533.05
394.49	1633.69
394.68	1593.90
394.88	1696.89
395.07	1671.14
395.26	1682.85
395.46	1666.46
395.65	1640.72
395.84	1699.23
396.04	1767.10
396.23	1755.40
396.42	1753.06
396.62	1736.68
396.81	1619.65
397.00	1778.81
397.19	1937.96
397.39	1804.55
397.58	1802.21
397.77	1729.66
397.97	1729.66
398.16	1907.54
398.35	1952.01
398.55	1853.70
398.74	1816.26
398.93	1977.75
399.12	1891.15
399.32	1928.60
399.51	1907.54
399.70	2005.84
399.90	1984.77
400.09	1891.15
400.28	2043.29
400.47	2040.95
400.67	2097.12
400.86	2040.95
401.05	2038.61
401.24	2141.59
401.44	2139.25
401.63	2150.95
401.82	2263.30
402.01	2150.95
402.21	2221.17
402.40	2377.98
402.59	2092.44
402.78	2183.72
402.97	2223.51
403.17	2200.10
403.36	2396.71
403.55	2298.41
403.74	2335.85
403.93	2256.28
404.13	2368.62
404.32	2296.07
404.51	2431.82
404.70	2471.61
404.89	2443.52
405.09	2541.82
405.28	2541.82
405.47	2466.92
405.66	2551.18
405.85	2579.27
406.05	2537.14
406.24	2602.68
406.43	2602.68
406.62	2513.74
406.81	2750.13
407.00	2541.82
407.20	2516.08
407.39	2717.36
407.58	2619.06
407.77	2677.57
407.96	2829.71
408.15	2778.22
408.34	2818.00
408.54	2825.03
408.73	2806.30
408.92	2857.79
409.11	2949.08
409.30	2925.67
409.49	2890.56
409.68	2935.03
409.87	2993.55
410.07	3019.29
410.26	3028.65
410.45	2972.48
410.64	3075.46
410.83	3122.27
411.02	3103.55
411.21	3246.32
411.40	3070.78
411.59	3215.90
411.78	3199.51
411.98	3155.04
412.17	3288.45
412.36	3293.13
412.55	3368.03
412.74	3428.88
412.93	3428.88
413.12	3368.03
413.31	3527.19
413.50	3576.34
413.69	3599.74
413.88	3667.62
414.07	3545.91
414.26	3604.42
414.45	3815.07
414.64	3740.18
414.83	3702.73
415.02	3620.81
415.22	3829.12
415.41	3854.86
415.60	3889.97
415.79	3833.80
415.98	4093.60
416.17	3981.25
416.36	3999.98
416.55	4002.32
416.74	4149.77
416.93	3967.21
417.12	4095.94
417.31	4219.99
417.50	4189.56
417.69	4381.48
417.88	4329.99
418.07	4362.76
418.26	4311.27
418.45	4402.55
418.64	4617.88
418.83	4360.42
419.02	4353.40
419.21	4512.55
419.39	4578.09
419.58	4573.41
419.77	4524.26
419.96	4475.10
420.15	4568.73
420.34	4552.34
420.53	4599.15
420.72	4692.77
420.91	4711.50
421.10	4674.05
421.29	4873.00
421.48	4755.97
421.67	4819.16
421.86	4910.44
422.05	4952.57
422.24	4809.80
422.43	5018.11
422.61	4863.63
422.80	5081.30
422.99	5032.15
423.18	5078.96
423.37	5179.61
423.56	4954.91
423.75	5018.11
423.94	4952.57
424.13	4610.86
424.32	4821.50
424.50	4992.36
424.69	5114.07
424.88	5097.69
425.07	5107.05
425.26	5020.45
425.45	4985.34
425.64	4936.19
425.83	4964.28
426.01	5139.82
426.20	5128.11
426.39	4999.38
426.58	5128.11
426.77	5109.39
426.96	5296.63
427.15	5193.65
427.33	5254.50
427.52	5322.38
427.71	5359.83
427.90	5291.95
428.09	5320.04
428.28	5362.17
428.46	5322.38
428.65	5343.44
428.84	5570.48
429.03	5542.39
429.22	5200.67
429.40	5586.86
429.59	5579.84
429.78	5376.21
429.97	5329.40
430.16	5406.64
430.34	5769.42
430.53	5652.39
430.72	5720.27
430.91	5654.73
431.10	5678.14
431.28	5694.52
431.47	5790.49
431.66	5905.17
431.85	5783.46
432.03	6008.16
432.22	5963.68
432.41	5914.53
432.60	5900.49
432.79	5975.39
432.97	6005.81
433.16	6141.57
433.35	6085.39
433.54	6106.46
433.72	6115.82
433.91	6242.21
434.10	6153.27
434.28	6031.56
434.47	6272.64
434.66	6164.97
434.85	6370.94
435.03	6420.09
435.22	6370.94
435.41	6413.07
435.59	6469.24
435.78	6530.09
435.97	6689.25
436.16	6431.79
436.34	6511.37
436.53	6581.59
436.72	6792.23
436.90	6384.98
437.09	6750.10
437.28	6513.71
437.46	6546.48
437.65	6864.79
437.84	6946.71
438.02	6707.98
438.21	6684.57
438.40	6581.59
438.58	7143.32
438.77	7152.68
438.96	6843.73
439.14	7208.85
439.33	7190.13
439.52	7311.83
439.70	7194.81
439.89	7187.79
440.08	7555.25
440.26	7538.87
440.45	7314.17
440.63	7559.93
440.82	7730.79
441.01	7442.90
441.19	7620.78
441.38	7655.89
441.57	7873.56
441.75	7850.16
441.94	8170.81
442.12	7758.88
442.31	8107.62
442.50	7887.61
442.68	7960.16
442.87	7999.95
443.05	8161.45
443.24	8393.16
443.43	8056.12
443.61	8175.49
443.80	8468.06
443.98	8189.53
444.17	7946.12
444.35	8266.77
444.54	8517.21
444.73	8341.67
444.91	8346.35
445.10	8404.86
445.28	8336.99
445.47	8173.15
445.65	8388.48
445.84	8517.21
446.02	8472.74
446.21	8404.86
446.39	8461.04
446.58	8720.84
446.77	8688.07
446.95	8477.42
447.14	8358.05
447.32	8547.64
447.51	8521.89
447.69	8444.65
447.88	8741.90
448.06	8402.52
448.25	8545.30
448.43	8648.28
448.62	8751.26
448.80	8727.86
448.99	8975.95
449.17	8676.37
449.36	8659.98
449.54	8786.37
449.73	9125.75
449.91	9060.21
450.10	9013.40
450.28	8908.08
450.46	9195.96
450.65	9130.43
450.83	9097.66
451.02	9043.83
451.20	9322.35
451.39	9165.54
451.57	9210.01
451.76	9247.46
451.94	9322.35
452.13	9488.53
452.31	9224.05
452.49	9224.05
452.68	9226.39
452.86	9322.35
453.05	9570.45
453.23	9511.94
453.42	9458.10
453.60	9563.43
453.78	9406.61
453.97	9551.73
454.15	9589.17
454.34	9554.07
454.52	9703.86
454.70	9813.87
454.89	9638.33
455.07	9982.38
455.26	9839.61
455.44	10083.03
455.62	9870.04
455.81	9839.61
455.99	9977.70
456.17	10036.22
456.36	10153.24
456.54	10246.87
456.73	10499.64
456.91	10661.14
457.09	10485.60
457.28	10867.11
457.46	10476.24
457.64	10712.63
457.83	10782.85
458.01	10469.22
458.19	10801.57
458.38	10663.48
458.56	10724.33
458.74	10820.30
458.93	10764.12
459.11	10965.41
459.29	10916.26
459.48	11056.69
459.66	10916.26
459.84	10970.09
460.03	11250.96
460.21	11098.82
460.39	11185.42
460.57	11028.60
460.76	11229.89
460.94	11185.42
461.12	11166.70
461.31	11318.83
461.49	11461.60
461.67	11330.53
461.85	11784.60
462.04	11438.20
462.22	11379.68
462.40	11606.72
462.59	11620.76
462.77	11515.44
462.95	11899.28
463.13	11433.52
463.32	11660.55
463.50	11777.58
463.68	11894.60
463.86	11857.15
464.05	12051.42
464.23	11690.98
464.41	11838.43
464.59	11698.00
464.78	12318.24
464.96	12098.23
465.14	12058.44
465.32	11985.88
465.50	12395.48
465.69	12376.75
465.87	12414.20
466.05	12243.34
466.23	12173.13
466.41	12451.65
466.60	12526.55
466.78	12222.28
466.96	12283.13
467.14	12449.31
467.32	12435.27
467.51	12634.21
467.69	12210.57
467.87	12571.02
468.05	12734.85
468.23	12662.30
468.41	12500.80
468.60	12833.16
468.78	12751.24
468.96	12671.66
469.14	13034.44
469.32	13046.15
469.50	12861.24
469.69	13153.81
469.87	13380.84
470.05	13315.31
470.23	13334.03
470.41	13259.13
470.59	13259.13
470.77	13312.97
470.95	13458.08
471.14	13621.92
471.32	13280.20
471.50	13392.55
471.68	13752.99
471.86	13785.76
472.04	13844.27
472.22	14036.19
472.40	13687.45
472.58	13839.59
472.77	14345.14
472.95	14576.86
473.13	14588.56
473.31	14288.97
473.49	14281.95
473.67	14284.29
473.85	14244.50
474.03	14724.31
474.21	14902.19
474.39	14614.30
474.57	14813.25
474.75	15154.97
474.93	15201.78
475.12	14988.79
475.30	15234.55
475.48	15337.53
475.66	15358.60
475.84	15356.25
476.02	15630.10
476.20	15693.29
476.38	15807.98
476.56	15892.24
476.74	16215.23
476.92	15981.18
477.10	16056.08
477.28	16655.25
477.46	16400.13
477.64	16514.82
477.82	16659.93
478.00	17163.15
478.18	16879.94
478.36	17167.83
478.54	17240.39
478.72	17247.41
478.90	17558.70
479.08	17881.69
479.26	17998.72
479.44	17722.54
479.62	18029.15
479.80	17841.90
479.98	18417.68
480.16	18782.80
480.34	18691.52
480.52	18623.64
480.70	18576.83
480.88	18750.03
481.06	18789.82
481.24	18874.08
481.41	19264.95
481.59	19447.51
481.77	19545.81
481.95	19644.12
482.13	19948.39
482.31	19786.89
482.49	20533.52
482.67	20475.01
482.85	20725.44
483.03	20774.60
483.21	20910.35
483.39	21184.19
483.57	20950.14
483.74	21507.18
483.92	21486.12
484.10	21504.84
484.28	21888.69
484.46	22073.59
484.64	22391.91
484.82	22160.19
485.00	22897.46
485.18	22932.57
485.35	23073.00
485.53	23150.24
485.71	23037.89
485.89	23805.59
486.07	23276.63
486.25	23496.64
486.43	23831.33
486.61	23962.40
486.78	24231.57
486.96	24372.00
487.14	24762.87
487.32	24957.13
487.50	25120.97
487.68	25376.09
487.85	25479.07
488.03	25832.49
488.21	26111.02
488.39	26094.63
488.57	26548.70
488.75	26384.86
488.92	26574.44
489.10	27023.83
489.28	26979.36
489.46	27447.46
489.64	26967.65
489.81	27999.83
489.99	27917.91
490.17	27974.08
490.35	28135.58
490.53	28453.89
490.70	28587.30
490.88	28627.09
491.06	28713.69
491.24	29027.32
491.41	29172.44
491.59	29439.26
491.77	29717.78
491.95	29905.02
492.13	30036.09
492.30	30480.80
492.48	30118.01
492.66	30742.94
492.84	30705.49
493.01	31194.66
493.19	30953.58
493.37	31285.94
493.54	31143.17
493.72	31751.71
493.90	32004.49
494.08	32191.73
494.25	32205.77
494.43	32287.69
494.61	32725.37
494.79	32582.60
494.96	32439.82
495.14	32844.74
495.32	33291.78
495.49	33680.31
495.67	33958.83
495.85	33645.20
496.02	34026.71
496.20	34345.02
496.38	33933.09
496.55	34445.66
496.73	35026.12
496.91	34649.29
497.09	35309.32
497.26	35072.93
497.44	35297.62
497.62	35714.23
497.79	35967.01
497.97	35658.06
498.14	36905.57
498.32	36374.27
498.50	36292.35
498.67	36760.45
498.85	36837.69
499.03	37006.21
499.20	37104.51
499.38	37151.32
499.56	37359.63
499.73	37343.25
499.91	37645.18
500.08	38110.94
500.26	37886.25
500.44	37933.06
500.61	38054.77
500.79	38148.39
500.97	38003.28
501.14	39077.58
501.32	39047.16
501.49	39189.93
501.67	39182.91
501.84	39449.73
502.02	39068.22
502.20	39278.87
502.37	39651.02
502.55	39337.38
502.72	39463.77
502.90	40067.63
503.07	39864.00
503.25	40243.17
503.43	40119.12
503.60	40563.82
503.78	40392.97
503.95	40142.53
504.13	40622.34
504.30	41120.87
504.48	40994.48
504.65	41179.39
504.83	41326.84
505.01	41841.76
505.18	41502.38
505.36	42188.16
505.53	41549.19
505.71	41750.48
505.88	41907.29
506.06	42148.37
506.23	42351.99
506.41	42375.40
506.58	42639.88
506.76	42263.05
506.93	43133.73
507.11	42614.13
507.28	43297.57
507.46	43232.04
507.63	43428.64
507.81	43849.94
507.98	43112.67
508.16	43456.73
508.33	43559.71
508.50	43885.04
508.68	44158.89
508.85	44367.20
509.03	43910.79
509.20	44421.03
509.38	45017.86
509.55	44884.45
509.73	44914.88
509.90	44987.44
510.08	44718.28
510.25	44914.88
510.42	45010.84
510.60	45296.39
510.77	45275.32
510.95	45666.19
511.12	45675.55
511.30	45352.56
511.47	45989.19
511.64	45722.37
511.82	46230.26
511.99	46277.07
512.17	46192.81
512.34	45935.35
512.51	46754.54
512.69	46745.18
512.86	46550.91
513.04	46916.04
513.21	47330.31
513.38	47026.04
513.56	47536.28
513.73	47075.19
513.90	47459.04
514.08	46937.10
514.25	48130.78
514.43	47674.37
514.60	47936.51
514.77	48006.73
514.95	47903.74
515.12	48023.11
515.29	47952.90
515.47	48259.51
515.64	48612.93
515.81	48308.66
515.99	48633.99
516.16	48938.26
516.33	48748.68
516.51	48877.41
516.68	48683.14
516.85	49022.52
517.03	49106.78
517.20	49324.45
517.37	49020.18
517.54	49382.96
517.72	49249.55
517.89	49471.90
518.06	49305.73
518.24	49478.92
518.41	49439.14
518.58	49722.34
518.75	49659.15
518.93	50075.76
519.10	49628.72
519.27	50047.68
519.45	49815.96
519.62	50143.64
519.79	50078.10
519.96	50110.87
520.14	50447.91
520.31	50302.79
520.48	50876.22
520.65	50471.31
520.83	50965.17
521.00	50955.80
521.17	50791.97
521.34	50862.18
521.52	50934.74
521.69	51180.49
521.86	51037.72
522.03	51105.60
522.20	51437.95
522.38	51669.67
522.55	51587.75
522.72	51910.74
522.89	51423.91
523.07	52198.63
523.24	51877.97
523.41	51868.61
523.58	51777.33
523.75	52135.43
523.92	52334.38
524.10	52238.42
524.27	52470.13
524.44	52254.80
524.61	52500.56
524.78	52334.38
524.96	52678.44
525.13	52612.90
525.30	52481.83
525.47	52968.66
525.64	52931.22
525.81	52919.51
525.98	52905.47
526.16	52788.44
526.33	52961.64
526.50	53270.59
526.67	53205.06
526.84	53151.23
527.01	52942.92
527.18	53347.83
527.36	53165.27
527.53	53242.51
527.70	53506.99
527.87	53764.45
528.04	53619.33
528.21	53436.77
528.38	53565.50
528.55	53785.51
528.72	53366.55
528.89	53731.68
529.07	53558.48
529.24	53659.12
529.41	53991.48
529.58	53998.50
529.75	54049.99
529.92	53865.09
530.09	54288.73
530.26	54349.58
530.43	54307.45
530.60	54164.68
530.77	53834.66
530.94	54195.10
531.11	54241.92
531.28	54518.10
531.46	54670.23
531.63	54485.33
531.80	54363.62
531.97	54602.36
532.14	54468.95
532.31	54822.37
532.48	55018.97
532.65	54777.90
532.82	54639.81
532.99	54934.71
533.16	54892.58
533.33	54937.05
533.50	54946.42
533.67	54958.12
533.84	55269.41
534.01	55189.83
534.18	55274.09
534.35	55594.74
534.52	55323.24
534.69	55501.12
534.86	55487.08
535.03	55360.69
535.20	55601.77
535.37	55302.18
535.54	55477.72
535.71	55442.61
535.88	55697.73
536.05	55746.88
536.22	55777.31
536.38	55875.61
536.55	55742.20
536.72	55648.58
536.89	55847.52
537.06	55999.66
537.23	55913.06
537.40	55821.78
537.57	55952.85
537.74	55999.66
537.91	56142.43
538.08	56011.36
538.25	55945.83
538.42	56161.15
538.59	56170.52
538.75	56343.72
538.92	56364.78
539.09	56285.20
539.26	56437.34
539.43	56123.71
539.60	56507.55
539.77	56554.36
539.94	56818.84
540.11	56516.92
540.28	56540.32
540.44	56580.11
540.61	56596.49
540.78	56619.90
540.95	56797.78
541.12	56484.15
541.29	56774.37
541.46	56856.29
541.62	56853.95
541.79	56832.89
541.96	56793.10
542.13	56802.46
542.30	56896.08
542.47	57113.75
542.63	57080.98
542.80	57036.51
542.97	57319.72
543.14	57265.89
543.31	57418.02
543.48	57350.15
543.64	57565.48
543.81	57565.48
543.98	57455.47
544.15	57607.61
544.32	57865.06
544.48	57755.06
544.65	57581.86
544.82	57567.82
544.99	57403.98
545.16	57785.49
545.32	57607.61
545.49	58075.71
545.66	57963.37
545.83	57811.23
546.00	58075.71
546.16	57890.81
546.33	57904.85
546.50	57654.42
546.67	58035.92
546.83	57673.14
547.00	58003.16
547.17	57935.28
547.34	57914.22
547.50	58099.12
547.67	58457.22
547.84	58335.51
548.00	58169.33
548.17	58515.73
548.34	58230.19
548.51	58581.27
548.67	58695.95
548.84	58436.16
549.01	58323.81
549.18	58340.19
549.34	58436.16
549.51	58583.61
549.68	58642.12
549.84	58660.85
550.01	58679.57
550.18	58731.06
550.34	58754.47
550.51	58660.85
550.68	58597.65
550.84	58670.21
551.01	58658.51
551.18	58548.50
551.34	58724.04
551.51	58511.05
551.68	58869.15
551.84	58665.53
552.01	58658.51
552.18	59011.93
552.34	58810.64
552.51	58922.99
552.68	58684.25
552.84	59037.67
553.01	59157.04
553.18	58962.78
553.34	59000.22
553.51	59089.16
553.67	59035.33
553.84	59346.62
554.01	59306.83
554.17	59278.75
554.34	59114.91
554.51	59449.61
554.67	59213.21
554.84	59089.16
555.00	59255.34
555.17	59255.34
555.33	59283.43
555.50	59124.27
555.67	59243.64
555.83	59208.53
556.00	59213.21
556.16	59592.38
556.33	59508.12
556.50	59529.19
556.66	59370.03
556.83	59449.61
556.99	59714.09
557.16	59686.00
557.32	59676.64
557.49	60009.00
557.65	59547.91
557.82	59700.04
557.98	59564.29
558.15	59512.80
558.32	59896.65
558.48	59650.89
558.65	59524.50
558.81	59861.54
558.98	59667.28
559.14	59852.18
559.31	59767.92
559.47	59870.90
559.64	59941.12
559.80	60025.38
559.97	59908.35
560.13	59587.70
560.30	59943.46
560.46	60074.53
560.63	60039.42
560.79	60079.21
560.96	60006.65
561.12	60140.07
561.29	60142.41
561.45	60023.04
561.61	59931.76
561.78	59833.46
561.94	60104.96
562.11	60025.38
562.27	60023.04
562.44	60083.89
562.60	60444.33
562.77	60278.16
562.93	60097.94
563.10	60381.14
563.26	60207.94
563.42	60348.37
563.59	60114.32
563.75	60135.38
563.92	60189.22
564.08	60083.89
564.24	60289.86
564.41	60236.03
564.57	60331.99
564.74	60397.52
564.90	60409.23
565.07	60280.50
565.23	60388.16
565.39	60491.15
565.56	60516.89
565.72	60413.91
565.88	60371.78
566.05	60362.42
566.21	60280.50
566.38	60430.29
566.54	60523.91
566.70	60603.49
566.87	60472.42
567.03	60404.55
567.19	60940.53
567.36	60715.84
567.52	60526.25
567.68	60708.82
567.85	60713.50
568.01	60568.38
568.17	60566.04
568.34	60521.57
568.50	60577.75
568.66	60348.37
568.83	60772.01
568.99	60746.26
569.15	60767.33
569.32	60530.93
569.48	60596.47
569.64	60774.35
569.81	60601.15
569.97	60516.89
570.13	60622.22
570.30	60608.17
570.46	60563.70
570.62	60713.50
570.78	60760.31
570.95	60580.09
571.11	60643.28
571.27	60659.66
571.43	60825.84
571.60	60849.25
571.76	60666.69
571.92	60783.71
572.09	60853.93
572.25	60781.37
572.41	60921.80
572.57	60793.07
572.74	60992.02
572.90	60928.83
573.06	60891.38
573.22	60692.43
573.38	60772.01
573.55	60666.69
573.71	60903.08
573.87	60973.30
574.03	60743.92
574.20	60762.65
574.36	60919.46
574.52	60959.25
574.68	60938.19
574.84	61010.74
575.01	60994.36
575.17	61029.47
575.33	60795.42
575.49	60874.99
575.65	60882.02
575.82	60900.74
575.98	61031.81
576.14	61228.41
576.30	61099.68
576.46	61015.43
576.62	61144.16
576.79	60996.70
576.95	60722.86
577.11	61015.43
577.27	61048.19
577.43	61073.94
577.59	60853.93
577.75	60982.66
577.92	60980.32
578.08	60945.21
578.24	60884.36
578.40	61139.47
578.56	61127.77
578.72	61069.26
578.88	61242.46
579.04	61256.50
579.21	61127.77
579.37	61251.82
579.53	61186.28
579.69	61048.19
579.85	61043.51
580.01	61027.13
580.17	61102.03
580.33	61057.56
580.49	61181.60
580.65	61139.47
580.82	61165.22
580.98	61387.57
581.14	61038.83
581.30	61078.62
581.46	61027.13
581.62	61116.07
581.78	61179.26
581.94	61310.33
582.10	61134.79
582.26	61134.79
582.42	61205.01
582.58	61205.01
582.74	61172.24
582.90	61015.43
583.06	60973.30
583.22	61017.77
583.38	61296.29
583.54	61087.98
583.70	61083.30
583.86	61364.17
584.02	61141.81
584.18	61202.67
584.34	61359.48
584.50	61305.65
584.66	60994.36
584.82	61176.92
584.98	61286.93
585.14	61160.54
585.30	61027.13
585.46	61202.67
585.62	61125.43
585.78	61371.19
585.94	61080.96
586.10	61347.78
586.26	61167.56
586.42	61303.31
586.58	61310.33
586.74	61085.64
586.90	60973.30
587.06	61052.87
587.22	61305.65
587.38	61307.99
587.54	61155.86
587.70	61415.66
587.86	61284.59
588.02	61230.75
588.18	61272.88
588.34	61230.75
588.49	61221.39
