SpectraSuite Data File
++++++++++++++++++++++++++++++++++++
Date: Fri Oct 25 11:25:44 EDT 2013
User: price-jones
Dark Spectrum Present: No
Reference Spectrum Present: No
Number of Sampled Component Spectra: 1
Spectrometers: USB2+H05261
Integration Time (usec): 100000 (USB2+H05261)
Spectra Averaged: 1 (USB2+H05261)
Boxcar Smoothing: 0 (USB2+H05261)
Correct for Electrical Dark: No (USB2+H05261)
Strobe/Lamp Enabled: No (USB2+H05261)
Correct for Detector Non-linearity: No (USB2+H05261)
Correct for Stray Light: No (USB2+H05261)
Number of Pixels in Processed Spectrum: 2048
>>>>>Begin Processed Spectral Data<<<<<
365.73	201.29
365.92	201.29
366.12	201.29
366.32	149.79
366.52	182.56
366.72	58.51
366.91	105.32
367.11	140.43
367.31	72.56
367.51	98.30
367.70	93.62
367.90	161.50
368.10	142.77
368.30	217.67
368.49	112.35
368.69	100.64
368.89	140.43
369.09	194.26
369.28	161.50
369.48	128.73
369.68	189.58
369.87	208.31
370.07	236.39
370.27	255.12
370.47	313.63
370.66	571.09
370.86	620.24
371.06	631.94
371.25	636.63
371.45	655.35
371.65	676.41
371.84	709.18
372.04	678.76
372.24	770.04
372.44	751.31
372.63	716.20
372.83	713.86
373.03	793.44
373.22	732.59
373.42	821.53
373.62	800.46
373.81	833.23
374.01	800.46
374.21	774.72
374.40	866.00
374.60	856.64
374.79	809.83
374.99	919.83
375.19	849.61
375.38	828.55
375.58	945.58
375.78	940.90
375.97	943.24
376.17	856.64
376.37	889.40
376.56	835.57
376.76	887.06
376.95	936.21
377.15	919.83
377.35	856.64
377.54	915.15
377.74	863.66
377.93	917.49
378.13	924.51
378.33	908.13
378.52	882.38
378.72	931.53
378.91	870.68
379.11	912.81
379.31	889.40
379.50	908.13
379.70	999.41
379.89	938.55
380.09	940.90
380.28	980.68
380.48	999.41
380.68	1011.11
380.87	1041.54
381.07	924.51
381.26	961.96
381.46	994.73
381.65	1036.86
381.85	1107.07
382.04	1050.90
382.24	1011.11
382.43	1018.13
382.63	1142.18
382.83	1022.81
383.02	1067.28
383.22	1135.16
383.41	1062.60
383.61	1100.05
383.80	1172.61
384.00	1083.67
384.19	1093.03
384.39	1167.93
384.58	1203.04
384.78	1069.62
384.97	1100.05
385.17	1153.88
385.36	1165.59
385.56	1104.73
385.75	1111.75
385.95	1151.54
386.14	1193.67
386.34	1275.59
386.53	1228.78
386.72	1200.69
386.92	1226.44
387.11	1200.69
387.31	1249.85
387.50	1291.98
387.70	1277.93
387.89	1287.29
388.09	1294.32
388.28	1280.27
388.48	1313.04
388.67	1226.44
388.86	1320.06
389.06	1416.02
389.25	1320.06
389.45	1252.19
389.64	1376.24
389.84	1303.68
390.03	1306.02
390.22	1329.42
390.42	1390.28
390.61	1385.60
390.81	1451.13
391.00	1404.32
391.19	1481.56
391.39	1561.14
391.58	1458.15
391.78	1469.86
391.97	1483.90
392.16	1488.58
392.36	1502.62
392.55	1511.99
392.75	1565.82
392.94	1516.67
393.13	1483.90
393.33	1558.80
393.52	1519.01
393.71	1575.18
393.91	1654.76
394.10	1607.95
394.29	1607.95
394.49	1652.42
394.68	1717.95
394.88	1558.80
395.07	1708.59
395.26	1542.41
395.46	1605.61
395.65	1788.17
395.84	1753.06
396.04	1603.27
396.23	1746.04
396.42	1774.13
396.62	1778.81
396.81	1764.76
397.00	1750.72
397.19	1692.21
397.39	1802.21
397.58	1781.15
397.77	1792.85
397.97	1811.57
398.16	1846.68
398.35	1900.52
398.55	1858.39
398.74	1851.36
398.93	1977.75
399.12	1923.92
399.32	1977.75
399.51	1916.90
399.70	1952.01
399.90	1942.64
400.09	2031.58
400.28	2078.40
400.47	2052.65
400.67	2031.58
400.86	2069.03
401.05	2043.29
401.24	2036.27
401.44	2050.31
401.63	2125.21
401.82	2031.58
402.01	2064.35
402.21	2146.27
402.40	2181.38
402.59	2143.93
402.78	2197.76
402.97	2118.18
403.17	2230.53
403.36	2237.55
403.55	2242.23
403.74	2310.11
403.93	2382.67
404.13	2380.32
404.32	2410.75
404.51	2342.88
404.70	2354.58
404.89	2399.05
405.09	2455.22
405.28	2452.88
405.47	2385.01
405.66	2436.50
405.85	2511.39
406.05	2455.22
406.24	2518.42
406.43	2567.57
406.62	2621.40
406.81	2614.38
407.00	2478.63
407.20	2590.97
407.39	2628.42
407.58	2686.94
407.77	2846.09
407.96	2733.75
408.15	2810.98
408.34	2761.83
408.54	2729.06
408.73	2832.05
408.92	2780.56
409.11	2839.07
409.30	2864.82
409.49	2991.20
409.68	2869.50
409.87	2895.24
410.07	3033.33
410.26	3023.97
410.45	2995.89
410.64	2916.31
410.83	3105.89
411.02	3155.04
411.21	3141.00
411.40	3000.57
411.59	3318.88
411.78	3152.70
411.98	3166.74
412.17	3316.54
412.36	3269.73
412.55	3400.80
412.74	3272.07
412.93	3454.63
413.12	3281.43
413.31	3644.21
413.50	3361.01
413.69	3496.76
413.88	3630.17
414.07	3557.61
414.26	3730.81
414.45	3681.66
414.64	3735.50
414.83	3758.90
415.02	3756.56
415.22	3763.58
415.41	3808.05
415.60	3911.04
415.79	3756.56
415.98	3941.46
416.17	3927.42
416.36	3939.12
416.55	4049.13
416.74	4023.38
416.93	4098.28
417.12	4100.62
417.31	4205.94
417.50	4238.71
417.69	4334.67
417.88	4205.94
418.07	4294.88
418.26	4376.80
418.45	4266.80
418.64	4407.23
418.83	4400.21
419.02	4372.12
419.21	4437.66
419.39	4393.19
419.58	4472.76
419.77	4479.79
419.96	4582.77
420.15	4718.52
420.34	4767.67
420.53	4662.35
420.72	4608.51
420.91	4641.28
421.10	4608.51
421.29	4784.06
421.48	4695.11
421.67	4774.69
421.86	4868.31
422.05	4809.80
422.24	4807.46
422.43	4917.47
422.61	4816.82
422.80	5008.75
422.99	4875.34
423.18	5046.20
423.37	4964.28
423.56	4980.66
423.75	5036.83
423.94	4868.31
424.13	4587.45
424.32	4727.88
424.50	4840.23
424.69	5093.01
424.88	4901.08
425.07	4868.31
425.26	4901.08
425.45	4994.70
425.64	4926.83
425.83	4994.70
426.01	5111.73
426.20	5144.50
426.39	5156.20
426.58	4985.34
426.77	5100.03
426.96	5160.88
427.15	5076.62
427.33	4997.04
427.52	5048.54
427.71	5238.12
427.90	5303.65
428.09	5186.63
428.28	5305.99
428.46	5313.02
428.65	5195.99
428.84	5495.58
429.03	5277.91
429.22	5483.88
429.40	5437.06
429.59	5530.69
429.78	5348.12
429.97	5200.67
430.16	5504.94
430.34	5554.09
430.53	5490.90
430.72	5664.10
430.91	5661.76
431.10	5678.14
431.28	5788.14
431.47	5788.14
431.66	5804.53
431.85	5760.06
432.03	5954.32
432.22	5991.77
432.41	5825.59
432.60	5870.06
432.79	5870.06
432.97	5980.07
433.16	5961.34
433.35	5788.14
433.54	6099.44
433.72	6069.01
433.91	6071.35
434.10	6001.13
434.28	6099.44
434.47	6207.10
434.66	6319.45
434.85	6450.52
435.03	6148.59
435.22	6209.44
435.41	6443.49
435.59	6427.11
435.78	6548.82
435.97	6548.82
436.16	6600.31
436.34	6469.24
436.53	6562.86
436.72	6654.14
436.90	6569.88
437.09	6633.08
437.28	6410.73
437.46	6436.47
437.65	6707.98
437.84	6733.72
438.02	6705.63
438.21	6675.21
438.40	6743.08
438.58	6984.16
438.77	7049.69
438.96	7061.40
439.14	7140.97
439.33	7040.33
439.52	7169.06
439.70	7220.55
439.89	7316.51
440.08	7234.60
440.26	7372.69
440.45	7421.84
440.63	7412.48
440.82	7581.00
441.01	7494.40
441.19	7555.25
441.38	7824.41
441.57	7651.21
441.75	7728.45
441.94	7779.94
442.12	7964.84
442.31	7969.52
442.50	8051.44
442.68	8053.78
442.87	8159.11
443.05	8011.65
443.24	8248.05
443.43	8386.14
443.61	8313.58
443.80	8339.33
443.98	8177.83
444.17	7829.09
444.35	8201.24
444.54	8318.26
444.73	8189.53
444.91	8346.35
445.10	8271.45
445.28	8362.73
445.47	8231.66
445.65	8276.13
445.84	8484.44
446.02	8615.51
446.21	8435.29
446.39	8379.12
446.58	8531.25
446.77	8355.71
446.95	8273.79
447.14	8465.72
447.32	8498.49
447.51	8461.04
447.69	8624.87
447.88	8400.18
448.06	8493.80
448.25	8456.36
448.43	8512.53
448.62	8713.81
448.80	8442.31
448.99	8486.78
449.17	8725.52
449.36	8730.20
449.54	8912.76
449.73	8952.55
449.91	8950.21
450.10	9074.26
450.28	8964.25
450.46	9034.47
450.65	9200.65
450.83	9083.62
451.02	9060.21
451.20	9107.02
451.39	8926.80
451.57	9387.89
451.76	9128.09
451.94	9371.50
452.13	9385.55
452.31	9263.84
452.49	9163.20
452.68	9254.48
452.86	9357.46
453.05	9509.60
453.23	9415.98
453.42	9266.18
453.60	9584.49
453.78	9593.86
453.97	9462.79
454.15	9488.53
454.34	9303.63
454.52	9584.49
454.70	9647.69
454.89	9954.30
455.07	9720.24
455.26	9774.08
455.44	10097.07
455.62	9799.82
455.81	9926.21
455.99	9956.64
456.17	10054.94
456.36	9949.62
456.54	10223.46
456.73	10410.70
456.91	10368.57
457.09	10223.46
457.28	10352.19
457.46	10277.29
457.64	10672.84
457.83	10312.40
458.01	10122.82
458.19	10682.20
458.38	10532.41
458.56	10808.59
458.74	10619.01
458.93	10789.87
459.11	10600.29
459.29	10619.01
459.48	10595.61
459.66	10761.78
459.84	11005.20
460.03	11040.31
460.21	10939.66
460.39	10857.75
460.57	10981.79
460.76	11159.67
460.94	11272.02
461.12	11101.16
461.31	11206.48
461.49	11115.20
461.67	11173.72
461.85	11463.94
462.04	11262.66
462.22	11882.90
462.40	11513.10
462.59	11447.56
462.77	11449.90
462.95	11449.90
463.13	11391.39
463.32	11389.05
463.50	11705.02
463.68	11676.93
463.86	11719.06
464.05	11613.74
464.23	11779.92
464.41	12035.03
464.59	11461.60
464.78	12142.70
464.96	11871.20
465.14	11903.96
465.32	11941.41
465.50	12002.27
465.69	12119.29
465.87	12297.17
466.05	12241.00
466.23	12093.55
466.41	12257.39
466.60	12308.88
466.78	12072.48
466.96	12042.06
467.14	11992.90
467.32	12243.34
467.51	12610.81
467.69	12219.94
467.87	12514.84
468.05	12496.12
468.23	12201.21
468.41	12418.88
468.60	12795.71
468.78	12659.96
468.96	12528.89
469.14	12781.67
469.32	12917.42
469.50	12676.34
469.69	12769.96
469.87	13111.68
470.05	13046.15
470.23	13170.19
470.41	13224.03
470.59	13301.26
470.77	13128.06
470.95	13231.05
471.14	13322.33
471.32	13238.07
471.50	13521.27
471.68	13411.27
471.86	13696.82
472.04	13650.00
472.22	13853.63
472.40	13694.47
472.58	13769.37
472.77	13837.25
472.95	13902.78
473.13	14553.45
473.31	13965.98
473.49	14148.54
473.67	13989.38
473.85	14382.59
474.03	14485.58
474.21	14644.73
474.39	14698.56
474.57	14480.89
474.75	14696.22
474.93	14984.11
475.12	15260.29
475.30	14930.28
475.48	15009.86
475.66	15389.02
475.84	15176.03
476.02	15351.57
476.20	15248.59
476.38	15590.31
476.56	15889.90
476.74	15709.68
476.92	16009.26
477.10	15541.16
477.28	16273.74
477.46	16032.67
477.64	16273.74
477.82	16313.53
478.00	16952.50
478.18	16489.07
478.36	16650.57
478.54	17057.82
478.72	17015.69
478.90	17191.23
479.08	17720.20
479.26	17640.62
479.44	17605.51
479.62	17832.54
479.80	18230.43
479.98	18176.60
480.16	18476.19
480.34	18171.92
480.52	18331.08
480.70	18560.45
480.88	18401.29
481.06	18682.16
481.24	18675.13
481.41	18951.32
481.59	19328.14
481.77	19508.37
481.95	19276.65
482.13	19601.99
482.31	19339.85
482.49	20629.48
482.67	20341.60
482.85	20018.60
483.03	20446.92
483.21	20688.00
483.39	20680.97
483.57	20430.54
483.74	20908.01
483.92	21331.64
484.10	21287.17
484.28	21827.84
484.46	21736.56
484.64	21832.52
484.82	22040.82
485.00	22324.03
485.18	22829.59
485.35	22735.96
485.53	22576.81
485.71	22941.93
485.89	23337.48
486.07	23056.62
486.25	23288.33
486.43	23749.42
486.61	23658.14
486.78	23742.39
486.96	24112.20
487.14	24458.60
487.32	24372.00
487.50	24781.59
487.68	24641.16
487.85	25188.85
488.03	25502.48
488.21	25916.75
488.39	25928.45
488.57	25991.65
488.75	25799.73
488.92	26267.83
489.10	26536.99
489.28	26712.53
489.46	26862.33
489.64	27065.96
489.81	27447.46
489.99	27583.21
490.17	27662.79
490.35	28109.83
490.53	27702.58
490.70	28247.93
490.88	28327.50
491.06	28884.55
491.24	28795.61
491.41	28912.64
491.59	29081.16
491.77	29221.59
491.95	29486.07
492.13	29621.82
492.30	29806.72
492.48	29827.79
492.66	30075.88
492.84	30316.96
493.01	30752.30
493.19	30682.08
493.37	31087.00
493.54	30955.93
493.72	31377.22
493.90	30906.77
494.08	31644.04
494.25	32154.28
494.43	31737.66
494.61	32095.77
494.79	32238.54
494.96	31924.91
495.14	32385.99
495.32	32685.58
495.49	32788.56
495.67	33010.92
495.85	33352.63
496.02	33371.36
496.20	33839.47
496.38	34146.08
496.55	34036.07
496.73	34747.59
496.91	34520.56
497.09	35009.73
497.26	34855.26
497.44	34742.91
497.62	34646.95
497.79	35426.35
497.97	35711.89
498.14	35962.33
498.32	36006.80
498.50	35955.31
498.67	36098.08
498.85	36189.36
499.03	36627.04
499.20	36488.95
499.38	36734.71
499.56	36802.58
499.73	36940.68
499.91	37008.55
500.08	37652.20
500.26	37471.98
500.44	37289.42
500.61	37823.06
500.79	37741.14
500.97	37790.29
501.14	38059.45
501.32	38583.73
501.49	38195.20
501.67	38522.88
501.84	39037.80
502.02	38670.33
502.20	38909.07
502.37	39105.67
502.55	39264.83
502.72	39431.01
502.90	39452.07
503.07	39573.78
503.25	39885.07
503.43	39501.22
503.60	39775.06
503.78	40116.78
503.95	39952.94
504.13	40343.81
504.30	40187.00
504.48	40055.93
504.65	40762.77
504.83	41106.83
505.01	41022.57
505.18	41170.02
505.36	41434.50
505.53	41022.57
505.71	41022.57
505.88	41715.37
506.06	41397.06
506.23	41965.81
506.41	41893.25
506.58	42036.02
506.76	42096.88
506.93	42560.30
507.11	42230.29
507.28	42202.20
507.46	42983.94
507.63	42445.62
507.81	43194.59
507.98	42382.42
508.16	43030.75
508.33	43337.36
508.50	43737.59
508.68	43416.94
508.85	43742.27
509.03	43496.52
509.20	43922.49
509.38	44437.41
509.55	44449.11
509.73	44402.30
509.90	44430.39
510.08	44526.35
510.25	44547.42
510.42	44790.83
510.60	44683.17
510.77	44961.69
510.95	45202.77
511.12	44987.44
511.30	45272.98
511.47	45455.54
511.64	45553.85
511.82	45851.09
511.99	45539.80
512.17	45787.90
512.34	45713.00
512.51	45921.31
512.69	46230.26
512.86	46433.89
513.04	46747.52
513.21	46719.43
513.38	46504.10
513.56	46581.34
513.73	46658.58
513.90	46754.54
514.08	46934.76
514.25	46766.24
514.43	47374.78
514.60	47590.11
514.77	47274.14
514.95	47164.14
515.12	47665.01
515.29	47332.65
515.47	47962.26
515.64	47931.83
515.81	47665.01
515.99	47746.93
516.16	48128.44
516.33	48341.42
516.51	48332.06
516.68	48182.27
516.85	48135.46
517.03	48648.03
517.20	48573.14
517.37	48502.92
517.54	48751.02
517.72	48507.60
517.89	48781.45
518.06	49027.20
518.24	49263.60
518.41	49109.12
518.58	49595.95
518.75	48959.33
518.93	49605.31
519.10	48978.05
519.27	49979.80
519.45	49741.06
519.62	49778.51
519.79	49947.03
519.96	49525.74
520.14	49897.88
520.31	49970.44
520.48	50188.11
520.65	50281.73
520.83	50513.44
521.00	50567.27
521.17	50422.16
521.34	50569.61
521.52	50211.51
521.69	50754.52
521.86	50710.05
522.03	50951.12
522.20	51194.54
522.38	51468.38
522.55	51311.56
522.72	50864.52
522.89	51107.94
523.07	51622.86
523.24	51552.64
523.41	51569.02
523.58	51552.64
523.75	51648.60
523.92	51655.62
524.10	52072.24
524.27	51819.46
524.44	51824.14
524.61	51852.23
524.78	51856.91
524.96	52341.40
525.13	52191.61
525.30	52561.41
525.47	52458.43
525.64	52177.56
525.81	52739.29
525.98	52540.35
526.16	52521.62
526.33	52580.13
526.50	52903.13
526.67	52605.88
526.84	52416.30
527.01	52666.73
527.18	52933.56
527.36	52758.02
527.53	52835.25
527.70	53387.62
527.87	53361.87
528.04	53050.58
528.21	53198.04
528.38	53331.45
528.55	53284.64
528.72	52999.09
528.89	53160.59
529.07	53396.98
529.24	53368.90
529.41	53673.16
529.58	53481.24
529.75	53514.01
529.92	53993.82
530.09	53757.42
530.26	54024.25
530.43	53621.67
530.60	53624.01
530.77	53787.85
530.94	53818.28
531.11	53961.05
531.28	53876.79
531.46	54101.48
531.63	54138.93
531.80	54152.97
531.97	54265.32
532.14	54298.09
532.31	54274.68
532.48	54518.10
532.65	54553.21
532.82	54349.58
532.99	54539.16
533.16	54377.67
533.33	54770.88
533.50	54937.05
533.67	54438.52
533.84	54403.41
534.01	54866.84
534.18	54766.20
534.35	55037.70
534.52	54901.95
534.69	54955.78
534.86	54997.91
535.03	54934.71
535.20	54988.55
535.37	55180.47
535.54	55384.10
535.71	55238.98
535.88	55227.28
536.05	55463.67
536.22	55386.44
536.38	55395.80
536.55	55505.80
536.72	55370.05
536.89	55330.26
537.06	55409.84
537.23	55852.20
537.40	55594.74
537.57	55643.90
537.74	55763.26
537.91	55739.86
538.08	55856.88
538.25	55650.92
538.42	55760.92
538.59	55987.95
538.75	56072.21
538.92	56100.30
539.09	56203.28
539.26	55959.87
539.43	55997.32
539.60	56104.98
539.77	55959.87
539.94	56282.86
540.11	56210.31
540.28	56385.85
540.44	56341.38
540.61	56446.70
540.78	56360.10
540.95	56449.04
541.12	56360.10
541.29	56657.35
541.46	56427.98
541.62	56509.89
541.79	56748.63
541.96	56694.80
542.13	56512.23
542.30	56547.34
542.47	56603.52
542.63	56809.48
542.80	56722.88
542.97	57069.28
543.14	57125.46
543.31	56933.53
543.48	57034.17
543.64	57546.75
543.81	57319.72
543.98	57406.32
544.15	57265.89
544.32	57125.46
544.48	57485.90
544.65	57186.31
544.82	57268.23
544.99	57003.75
545.16	57425.04
545.32	57059.92
545.49	57591.22
545.66	57769.10
545.83	57621.65
546.00	57755.06
546.16	57443.77
546.33	57429.72
546.50	57464.83
546.67	57631.01
546.83	57366.53
547.00	57724.63
547.17	57605.26
547.34	57467.17
547.50	57808.89
547.67	57993.79
547.84	58033.58
548.00	57989.11
548.17	58017.20
548.34	58061.67
548.51	58028.90
548.67	58052.31
548.84	58220.83
549.01	58000.82
549.18	58103.80
549.34	58220.83
549.51	58019.54
549.68	58323.81
549.84	58265.30
550.01	58293.38
550.18	58220.83
550.34	58223.17
550.51	58234.87
550.68	58164.65
550.84	58138.91
551.01	58433.81
551.18	58333.17
551.34	58269.98
551.51	58623.40
551.68	58553.18
551.84	58358.92
552.01	58585.95
552.18	58471.26
552.34	58298.06
552.51	58714.68
552.68	58635.10
552.84	58625.74
553.01	58775.53
553.18	58688.93
553.34	58965.12
553.51	58873.84
553.67	58841.07
553.84	58887.88
554.01	58876.18
554.17	58852.77
554.34	58789.58
554.51	58791.92
554.67	59018.95
554.84	58986.18
555.00	58705.32
555.17	58946.39
555.33	59079.80
555.50	58705.32
555.67	58899.58
555.83	58958.09
556.00	59063.42
556.16	59360.67
556.33	59077.46
556.50	59288.11
556.66	59086.82
556.83	59044.69
556.99	59344.28
557.16	59283.43
557.32	59489.40
557.49	59332.58
557.65	59250.66
557.82	59344.28
557.98	59185.13
558.15	59222.58
558.32	59313.86
558.48	59487.06
558.65	59269.39
558.81	59465.99
558.98	59554.93
559.14	59646.21
559.31	59416.84
559.47	59346.62
559.64	59636.85
559.80	59686.00
559.97	59758.56
560.13	59770.26
560.30	59707.07
560.46	59594.72
560.63	59845.16
560.79	59767.92
560.96	59449.61
561.12	59412.16
561.29	59728.13
561.45	59990.27
561.61	59728.13
561.78	59686.00
561.94	59767.92
562.11	59559.61
562.27	59819.41
562.44	59882.61
562.60	60058.15
562.77	59915.37
562.93	59639.19
563.10	60016.02
563.26	59767.92
563.42	59884.95
563.59	60011.34
563.75	59807.71
563.92	59915.37
564.08	59793.67
564.24	60119.00
564.41	60133.04
564.57	60037.08
564.74	59999.63
564.90	59943.46
565.07	59983.25
565.23	60020.70
565.39	59973.89
565.56	59987.93
565.72	60170.49
565.88	60175.17
566.05	59994.95
566.21	60016.02
566.38	60025.38
566.54	60140.07
566.70	60261.77
566.87	60107.30
567.03	60055.81
567.19	60257.09
567.36	60289.86
567.52	60020.70
567.68	60516.89
567.85	60315.61
568.01	60231.35
568.17	60369.44
568.34	60231.35
568.50	60252.41
568.66	60289.86
568.83	60339.01
568.99	60144.75
569.15	60357.74
569.32	60186.88
569.48	60523.91
569.64	60395.18
569.81	60402.21
569.97	60275.82
570.13	60360.08
570.30	60048.78
570.46	60472.42
570.62	60519.23
570.78	60526.25
570.95	60299.22
571.11	60601.15
571.27	60245.39
571.43	60453.70
571.60	60477.10
571.76	60467.74
571.92	60573.06
572.09	60640.94
572.25	60214.96
572.41	60540.30
572.57	60512.21
572.74	60629.24
572.90	60460.72
573.06	60505.19
573.22	60591.79
573.38	60610.51
573.55	60552.00
573.71	60662.00
573.87	60718.18
574.03	60591.79
574.20	60547.32
574.36	60521.57
574.52	60823.50
574.68	60617.53
574.84	60673.71
575.01	60622.22
575.17	60477.10
575.33	60659.66
575.49	60441.99
575.65	60753.29
575.82	60671.37
575.98	60676.05
576.14	60992.02
576.30	60640.94
576.46	60605.83
576.62	60748.60
576.79	60687.75
576.95	60559.02
577.11	60830.52
577.27	60898.40
577.43	60898.40
577.59	60715.84
577.75	60535.62
577.92	60790.73
578.08	60769.67
578.24	60704.13
578.40	60907.76
578.56	60811.80
578.72	60736.90
578.88	60772.01
579.04	61090.32
579.21	60659.66
579.37	60839.89
579.53	60896.06
579.69	60741.58
579.85	60640.94
580.01	60772.01
580.17	60554.34
580.33	60790.73
580.49	60814.14
580.65	60823.50
580.82	60676.05
580.98	60776.69
581.14	60757.97
581.30	60795.42
581.46	60797.76
581.62	60870.31
581.78	60633.92
581.94	60889.04
582.10	60846.91
582.26	60746.26
582.42	60893.72
582.58	60870.31
582.74	60790.73
582.90	60949.89
583.06	60865.63
583.22	60767.33
583.38	60968.61
583.54	60926.49
583.70	61050.53
583.86	61001.38
584.02	60818.82
584.18	60804.78
584.34	60708.82
584.50	60828.18
584.66	60797.76
584.82	60889.04
584.98	61069.26
585.14	61090.32
585.30	60874.99
585.46	60776.69
585.62	60893.72
585.78	60966.27
585.94	60828.18
586.10	60853.93
586.26	60970.96
586.42	60942.87
586.58	61050.53
586.74	61120.75
586.90	60966.27
587.06	61095.00
587.22	60933.51
587.38	61027.13
587.54	60992.02
587.70	61038.83
587.86	61066.92
588.02	61024.79
588.18	61045.85
588.34	61223.73
588.49	61104.37
