SpectraSuite Data File
++++++++++++++++++++++++++++++++++++
Date: Fri Oct 25 11:34:10 EDT 2013
User: price-jones
Dark Spectrum Present: No
Reference Spectrum Present: No
Number of Sampled Component Spectra: 1
Spectrometers: USB2+H05261
Integration Time (usec): 100000 (USB2+H05261)
Spectra Averaged: 1 (USB2+H05261)
Boxcar Smoothing: 0 (USB2+H05261)
Correct for Electrical Dark: No (USB2+H05261)
Strobe/Lamp Enabled: No (USB2+H05261)
Correct for Detector Non-linearity: No (USB2+H05261)
Correct for Stray Light: No (USB2+H05261)
Number of Pixels in Processed Spectrum: 2048
>>>>>Begin Processed Spectral Data<<<<<
365.73	264.48
365.92	264.48
366.12	264.48
366.32	210.65
366.52	84.26
366.72	208.31
366.91	201.29
367.11	121.71
367.31	156.82
367.51	184.90
367.70	126.39
367.90	231.71
368.10	236.39
368.30	198.95
368.49	133.41
368.69	245.76
368.89	142.77
369.09	205.97
369.28	212.99
369.48	201.29
369.68	231.71
369.87	229.37
370.07	266.82
370.27	320.65
370.47	311.29
370.66	493.85
370.86	477.47
371.06	568.75
371.25	559.39
371.45	568.75
371.65	566.41
371.84	573.43
372.04	557.05
372.24	496.19
372.44	557.05
372.63	568.75
372.83	575.77
373.03	550.03
373.22	552.37
373.42	690.46
373.62	657.69
373.81	599.18
374.01	636.63
374.21	681.10
374.40	631.94
374.60	657.69
374.79	629.60
374.99	582.79
375.19	606.20
375.38	634.29
375.58	620.24
375.78	676.41
375.97	667.05
376.17	669.39
376.37	718.54
376.56	650.67
376.76	638.97
376.95	648.33
377.15	734.93
377.35	760.67
377.54	765.36
377.74	641.31
377.93	697.48
378.13	638.97
378.33	737.27
378.52	748.97
378.72	713.86
378.91	725.57
379.11	739.61
379.31	702.16
379.50	723.23
379.70	741.95
379.89	730.25
380.09	755.99
380.28	709.18
380.48	828.55
380.68	746.63
380.87	688.12
381.07	748.97
381.26	758.33
381.46	720.88
381.65	819.19
381.85	800.46
382.04	751.31
382.24	788.76
382.43	798.12
382.63	774.72
382.83	767.70
383.02	711.52
383.22	833.23
383.41	758.33
383.61	758.33
383.80	741.95
384.00	866.00
384.19	788.76
384.39	772.38
384.58	823.87
384.78	816.85
384.97	898.77
385.17	929.19
385.36	800.46
385.56	844.93
385.75	828.55
385.95	725.57
386.14	856.64
386.34	901.11
386.53	912.81
386.72	889.40
386.92	940.90
387.11	863.66
387.31	896.43
387.50	931.53
387.70	842.59
387.89	868.34
388.09	980.68
388.28	926.85
388.48	842.59
388.67	997.07
388.86	931.53
389.06	922.17
389.25	929.19
389.45	922.17
389.64	940.90
389.84	1055.58
390.03	947.92
390.22	992.39
390.42	840.25
390.61	926.85
390.81	926.85
391.00	971.32
391.19	1055.58
391.39	938.55
391.58	1109.41
391.78	1001.75
391.97	1067.28
392.16	905.79
392.36	1004.09
392.55	978.34
392.75	1050.90
392.94	1008.77
393.13	1069.62
393.33	1041.54
393.52	1043.88
393.71	1025.15
393.91	1060.26
394.10	1097.71
394.29	1076.65
394.49	1067.28
394.68	1043.88
394.88	1125.80
395.07	1123.46
395.26	1074.31
395.46	1191.33
395.65	1228.78
395.84	1149.20
396.04	1186.65
396.23	1167.93
396.42	1193.67
396.62	1132.82
396.81	1233.46
397.00	1191.33
397.19	1149.20
397.39	1146.86
397.58	1207.72
397.77	1226.44
397.97	1226.44
398.16	1273.25
398.35	1322.40
398.55	1259.21
398.74	1261.55
398.93	1341.13
399.12	1263.89
399.32	1327.08
399.51	1306.02
399.70	1266.23
399.90	1231.12
400.09	1341.13
400.28	1359.85
400.47	1336.45
400.67	1425.39
400.86	1390.28
401.05	1392.62
401.24	1425.39
401.44	1425.39
401.63	1446.45
401.82	1446.45
402.01	1406.66
402.21	1453.47
402.40	1474.54
402.59	1411.34
402.78	1495.60
402.97	1533.05
403.17	1423.05
403.36	1465.18
403.55	1530.71
403.74	1497.94
403.93	1504.96
404.13	1544.75
404.32	1643.06
404.51	1530.71
404.70	1582.20
404.89	1598.59
405.09	1715.61
405.28	1631.35
405.47	1614.97
405.66	1685.19
405.85	1607.95
406.05	1713.27
406.24	1659.44
406.43	1717.95
406.62	1645.40
406.81	1795.19
407.00	1746.04
407.20	1717.95
407.39	1771.79
407.58	1823.28
407.77	1750.72
407.96	1837.32
408.15	1853.70
408.34	1863.07
408.54	1942.64
408.73	1853.70
408.92	1825.62
409.11	1942.64
409.30	2031.58
409.49	1977.75
409.68	2017.54
409.87	1902.86
410.07	1973.07
410.26	2052.65
410.45	1942.64
410.64	2022.22
410.83	2108.82
411.02	2143.93
411.21	2211.81
411.40	2052.65
411.59	2118.18
411.78	2054.99
411.98	2256.28
412.17	2204.78
412.36	2214.15
412.55	2282.02
412.74	2314.79
412.93	2307.77
413.12	2333.51
413.31	2441.18
413.50	2232.87
413.69	2214.15
413.88	2422.45
414.07	2462.24
414.26	2431.82
414.45	2509.05
414.64	2387.35
414.83	2506.71
415.02	2595.65
415.22	2588.63
415.41	2619.06
415.60	2647.15
415.79	2684.59
415.98	2663.53
416.17	2689.28
416.36	2698.64
416.55	2621.40
416.74	2693.96
416.93	2705.66
417.12	2717.36
417.31	2832.05
417.50	2750.13
417.69	2967.80
417.88	2923.33
418.07	2920.99
418.26	2883.54
418.45	2932.69
418.64	3033.33
418.83	3019.29
419.02	2984.18
419.21	3005.25
419.39	3019.29
419.58	3047.38
419.77	2963.12
419.96	3068.44
420.15	3112.91
420.34	3155.04
420.53	3014.61
420.72	3155.04
420.91	3171.43
421.10	3281.43
421.29	3183.13
421.48	3166.74
421.67	3197.17
421.86	3398.46
422.05	3286.11
422.24	3243.98
422.43	3269.73
422.61	3138.66
422.80	3295.47
422.99	3279.09
423.18	3215.90
423.37	3459.31
423.56	3445.27
423.75	3377.39
423.94	3330.58
424.13	3157.38
424.32	3227.60
424.50	3328.24
424.69	3473.36
424.88	3510.80
425.07	3346.97
425.26	3276.75
425.45	3368.03
425.64	3323.56
425.83	3288.45
426.01	3452.29
426.20	3389.10
426.39	3466.33
426.58	3463.99
426.77	3435.91
426.96	3398.46
427.15	3517.83
427.33	3431.23
427.52	3445.27
427.71	3569.32
427.90	3513.14
428.09	3639.53
428.28	3698.05
428.46	3648.90
428.65	3576.34
428.84	3695.71
429.03	3810.39
429.22	3588.04
429.40	3672.30
429.59	3775.28
429.78	3604.42
429.97	3599.74
430.16	3662.94
430.34	3613.79
430.53	3824.44
430.72	3761.24
430.91	3927.42
431.10	3660.60
431.28	3803.37
431.47	3894.65
431.66	3953.16
431.85	3957.85
432.03	4109.98
432.22	4170.83
432.41	3992.95
432.60	3990.61
432.79	3981.25
432.97	3901.67
433.16	4074.87
433.35	3964.87
433.54	4079.55
433.72	4182.54
433.91	4077.21
434.10	4133.39
434.28	4051.47
434.47	4166.15
434.66	4112.32
434.85	4152.11
435.03	4184.88
435.22	4243.39
435.41	4308.93
435.59	4311.27
435.78	4369.78
435.97	4351.06
436.16	4325.31
436.34	4355.74
436.53	4250.41
436.72	4428.29
436.90	4189.56
437.09	4461.06
437.28	4273.82
437.46	4435.32
437.65	4463.40
437.84	4451.70
438.02	4559.36
438.21	4510.21
438.40	4428.29
438.58	4531.28
438.77	4592.13
438.96	4662.35
439.14	4685.75
439.33	4706.82
439.52	4880.02
439.70	4723.20
439.89	4823.84
440.08	4924.49
440.26	4894.06
440.45	4994.70
440.63	4910.44
440.82	5165.56
441.01	4884.70
441.19	5034.49
441.38	5121.09
441.57	5116.41
441.75	5198.33
441.94	5170.24
442.12	5294.29
442.31	5481.53
442.50	5394.93
442.68	5158.54
442.87	5345.78
443.05	5350.46
443.24	5446.43
443.43	5509.62
443.61	5317.70
443.80	5547.07
443.98	5469.83
444.17	5174.92
444.35	5446.43
444.54	5577.50
444.73	5521.32
444.91	5486.22
445.10	5502.60
445.28	5610.26
445.47	5406.64
445.65	5530.69
445.84	5579.84
446.02	5600.90
446.21	5603.24
446.39	5612.60
446.58	5486.22
446.77	5792.83
446.95	5446.43
447.14	5547.07
447.32	5675.80
447.51	5554.09
447.69	5727.29
447.88	5778.78
448.06	5640.69
448.25	5664.10
448.43	5900.49
448.62	5762.40
448.80	5624.31
448.99	5736.65
449.17	5647.71
449.36	5724.95
449.54	5809.21
449.73	5820.91
449.91	6031.56
450.10	6073.69
450.28	5926.24
450.46	6085.39
450.65	6031.56
450.83	5933.26
451.02	5837.30
451.20	6047.94
451.39	5849.00
451.57	6024.54
451.76	6057.31
451.94	5888.79
452.13	6289.02
452.31	6171.99
452.49	6047.94
452.68	6176.67
452.86	6132.20
453.05	6061.99
453.23	6319.45
453.42	6200.08
453.60	6087.73
453.78	6253.91
453.97	6115.82
454.15	6310.08
454.34	6230.51
454.52	6277.32
454.70	6303.06
454.89	6424.77
455.07	6466.90
455.26	6431.79
455.44	6696.27
455.62	6342.85
455.81	6579.25
455.99	6523.07
456.17	6686.91
456.36	6384.98
456.54	6736.06
456.73	6614.35
456.91	6916.28
457.09	6927.99
457.28	6895.22
457.46	6761.81
457.64	6815.64
457.83	7016.93
458.01	6841.39
458.19	6853.09
458.38	6951.39
458.56	6977.14
458.74	6930.33
458.93	6988.84
459.11	7070.76
459.29	7049.69
459.48	7133.95
459.66	7087.14
459.84	7258.00
460.03	7215.87
460.21	7283.75
460.39	7300.13
460.57	7208.85
460.76	7253.32
460.94	7346.94
461.12	7370.35
461.31	7368.01
461.49	7206.51
461.67	7297.79
461.85	7463.97
462.04	7335.24
462.22	7726.11
462.40	7595.04
462.59	7506.10
462.77	7386.73
462.95	7548.23
463.13	7768.24
463.32	7611.42
463.50	7674.62
463.68	7744.83
463.86	7756.54
464.05	7616.10
464.23	7810.37
464.41	7667.60
464.59	7566.95
464.78	7887.61
464.96	7868.88
465.14	7667.60
465.32	7995.27
465.50	7770.58
465.69	7882.92
465.87	7789.30
466.05	7889.95
466.23	7967.18
466.41	7927.39
466.60	8116.98
466.78	7854.84
466.96	7983.57
467.14	7894.63
467.32	8159.11
467.51	8327.63
467.69	8044.42
467.87	8042.08
468.05	8198.90
468.23	8091.23
468.41	8142.72
468.60	8329.97
468.78	8266.77
468.96	8219.96
469.14	8484.44
469.32	8533.59
469.50	8175.49
469.69	8374.44
469.87	8507.85
470.05	8517.21
470.23	8531.25
470.41	8568.70
470.59	8671.68
470.77	8585.08
470.95	8641.26
471.14	8868.29
471.32	8629.56
471.50	8849.57
471.68	8779.35
471.86	9022.77
472.04	8990.00
472.22	9195.96
472.40	8870.63
472.58	9116.39
472.77	9345.76
472.95	9221.71
473.13	9469.81
473.31	9247.46
473.49	9046.17
473.67	9188.94
473.85	9256.82
474.03	9617.26
474.21	9366.82
474.39	9502.58
474.57	9530.66
474.75	9809.19
474.93	9432.36
475.12	9645.35
475.30	9919.19
475.48	9745.99
475.66	9769.40
475.84	9851.31
476.02	9916.85
476.20	10003.45
476.38	10024.51
476.56	10417.72
476.74	10193.03
476.92	10068.98
477.10	10193.03
477.28	10431.77
477.46	10611.99
477.64	10562.84
477.82	10668.16
478.00	10944.34
478.18	11009.88
478.36	10939.66
478.54	11009.88
478.72	10911.58
478.90	11019.24
479.08	11234.57
479.26	11197.12
479.44	11477.99
479.62	11470.97
479.80	11662.89
479.98	11789.28
480.16	12004.61
480.34	11609.06
480.52	11997.59
480.70	11920.35
480.88	11929.71
481.06	11871.20
481.24	12252.70
481.41	12320.58
481.59	12482.08
481.77	12430.59
481.95	12318.24
482.13	12732.51
482.31	12535.91
482.49	13179.56
482.67	13102.32
482.85	13266.16
483.03	13263.82
483.21	13224.03
483.39	13460.42
483.57	13303.60
483.74	13586.81
483.92	13813.84
484.10	13598.51
484.28	13832.57
484.46	14026.83
484.64	14230.46
484.82	14167.26
485.00	14148.54
485.18	14572.18
485.35	14537.07
485.53	14780.48
485.71	14909.21
485.89	15019.22
486.07	14860.06
486.25	15304.76
486.43	15176.03
486.61	15281.36
486.78	15644.14
486.96	15552.86
487.14	15454.56
487.32	15508.39
487.50	16006.92
487.68	15861.81
487.85	16142.67
488.03	16203.53
488.21	16491.41
488.39	16688.02
488.57	16554.61
488.75	16879.94
488.92	16868.24
489.10	17336.35
489.28	17273.15
489.46	17095.27
489.64	17116.34
489.81	17867.65
489.99	17825.52
490.17	17865.31
490.35	18080.64
490.53	18040.85
490.70	18237.45
490.88	18232.77
491.06	18719.60
491.24	18417.68
491.41	18349.80
491.59	18548.75
491.77	18696.20
491.95	18864.72
492.13	19108.13
492.30	19332.82
492.48	18927.91
492.66	19496.66
492.84	19421.77
493.01	19550.49
493.19	19889.87
493.37	19922.64
493.54	20166.06
493.72	20159.03
493.90	20297.13
494.08	20168.40
494.25	20299.47
494.43	20524.16
494.61	20765.23
494.79	20931.41
494.96	20688.00
495.14	21018.01
495.32	21172.49
495.49	21310.58
495.67	21233.34
495.85	21699.11
496.02	21472.07
496.20	21439.31
496.38	21649.96
496.55	21600.80
496.73	22295.94
496.91	21745.92
497.09	22132.11
497.26	22345.09
497.44	22214.02
497.62	22572.13
497.79	22925.55
497.97	22820.22
498.14	23321.10
498.32	22813.20
498.50	23000.44
498.67	23393.65
498.85	23101.09
499.03	23571.54
499.20	23456.85
499.38	23697.92
499.56	23564.51
499.73	24006.87
499.91	24018.58
500.08	24091.13
500.26	23651.11
500.44	23974.11
500.61	23812.61
500.79	24039.64
500.97	24706.70
501.14	24702.01
501.32	24369.66
501.49	25057.78
501.67	25158.42
501.84	24879.89
502.02	24982.88
502.20	24952.45
502.37	24886.92
502.55	25163.10
502.72	25233.32
502.90	25209.91
503.07	25202.89
503.25	25401.83
503.43	25254.38
503.60	25853.56
503.78	26101.65
503.95	25759.94
504.13	26328.69
504.30	25933.14
504.48	25907.39
504.65	25989.31
504.83	26562.74
505.01	26403.58
505.18	26534.65
505.36	26525.29
505.53	26806.16
505.71	26843.60
505.88	26771.05
506.06	26644.66
506.23	27475.55
506.41	26565.08
506.58	27164.26
506.76	26883.39
506.93	27410.01
507.11	27070.64
507.28	27133.83
507.46	27477.89
507.63	27363.20
507.81	27782.16
507.98	27798.54
508.16	27700.24
508.33	27934.29
508.50	28336.87
508.68	28156.64
508.85	28128.56
509.03	28063.02
509.20	28163.67
509.38	28936.04
509.55	28570.92
509.73	28751.14
509.90	28863.49
510.08	28687.95
510.25	28753.48
510.42	28865.83
510.60	29050.73
510.77	29282.44
510.95	29509.47
511.12	28994.56
511.30	28886.89
511.47	29235.63
511.64	29364.36
511.82	29324.57
511.99	29635.86
512.17	30031.41
512.34	29851.19
512.51	29926.09
512.69	30136.74
512.86	30101.63
513.04	30127.38
513.21	30548.67
513.38	30174.19
513.56	30686.76
513.73	29881.62
513.90	30424.62
514.08	30654.00
514.25	30843.58
514.43	31044.87
514.60	30625.91
514.77	30932.52
514.95	31206.36
515.12	30951.24
515.29	31030.82
515.47	30815.49
515.64	31456.80
515.81	31119.76
515.99	31108.06
516.16	31688.51
516.33	31304.67
516.51	31686.17
516.68	31431.05
516.85	31754.05
517.03	31990.44
517.20	31838.31
517.37	31732.98
517.54	32121.51
517.72	32271.31
517.89	32004.49
518.06	32201.09
518.24	32456.21
518.41	32013.85
518.58	32114.49
518.75	32308.76
518.93	32678.56
519.10	32727.71
519.27	32517.06
519.45	32706.65
519.62	32907.93
519.79	33003.89
519.96	32620.05
520.14	32924.32
520.31	32975.81
520.48	33331.57
520.65	33223.90
520.83	33532.86
521.00	33490.73
521.17	33312.84
521.34	33596.05
521.52	33806.70
521.69	33776.27
521.86	33813.72
522.03	33727.12
522.20	34043.09
522.38	34272.46
522.55	33895.64
522.72	34078.20
522.89	34223.31
523.07	34267.78
523.24	34396.51
523.41	34792.06
523.58	34572.05
523.75	34778.02
523.92	34883.34
524.10	34714.83
524.27	34838.87
524.44	35318.68
524.61	34941.86
524.78	34998.03
524.96	35096.33
525.13	35204.00
525.30	35285.92
525.47	35449.75
525.64	34925.47
525.81	35519.97
525.98	35295.28
526.16	35489.54
526.33	35124.42
526.50	35611.25
526.67	35194.64
526.84	35779.77
527.01	35784.45
527.18	35496.56
527.36	35840.62
527.53	35784.45
527.70	36144.89
527.87	36191.70
528.04	35655.72
528.21	36329.80
528.38	36046.59
528.55	36095.74
528.72	36608.32
528.89	36580.23
529.07	36538.10
529.24	36170.64
529.41	36833.01
529.58	36182.34
529.75	36137.87
529.92	36629.38
530.09	36779.18
530.26	36748.75
530.43	36690.24
530.60	36545.12
530.77	36547.47
530.94	37024.93
531.11	36737.05
531.28	37170.05
531.46	37006.21
531.63	37303.46
531.80	37144.30
531.97	37514.11
532.14	37275.37
532.31	37326.86
532.48	37893.27
532.65	37790.29
532.82	37474.32
532.99	37350.27
533.16	37312.82
533.33	37848.80
533.50	37750.50
533.67	37872.21
533.84	37986.89
534.01	37998.60
534.18	38483.09
534.35	38602.46
534.52	38000.94
534.69	37912.00
534.86	38525.22
535.03	38038.39
535.20	38244.35
535.37	38195.20
535.54	38562.67
535.71	38251.38
535.88	38431.60
536.05	38389.47
536.22	38625.86
536.38	38642.24
536.55	38843.53
536.72	38686.71
536.89	38607.14
537.06	38962.90
537.23	38899.70
537.40	39126.74
537.57	38880.98
537.74	38731.18
537.91	39016.73
538.08	39105.67
538.25	38911.41
538.42	39065.88
538.59	39232.06
538.75	39194.61
538.92	39440.37
539.09	39587.82
539.26	39274.19
539.43	39086.95
539.60	39431.01
539.77	39777.40
539.94	39739.96
540.11	39599.52
540.28	39531.65
540.44	39519.95
540.61	39756.34
540.78	39674.42
540.95	39934.22
541.12	39985.71
541.29	39702.51
541.46	39651.02
541.62	39847.62
541.79	40030.18
541.96	39761.02
542.13	39913.16
542.30	40016.14
542.47	40348.50
542.63	40149.55
542.80	40694.89
542.97	40561.48
543.14	40917.25
543.31	40762.77
543.48	40666.81
543.64	41113.85
543.81	41034.27
543.98	40818.94
544.15	41186.41
544.32	41069.38
544.48	41523.44
544.65	41134.92
544.82	41326.84
544.99	40959.38
545.16	41216.83
545.32	41008.53
545.49	41865.16
545.66	41776.22
545.83	41916.65
546.00	41378.33
546.16	41090.44
546.33	41715.37
546.50	41099.81
546.67	41476.63
546.83	41130.23
547.00	41631.11
547.17	41191.09
547.34	41511.74
547.50	41947.08
547.67	42110.92
547.84	41911.97
548.00	42351.99
548.17	42579.03
548.34	42321.57
548.51	42485.40
548.67	42239.65
548.84	42246.67
549.01	42085.17
549.18	42387.10
549.34	42560.30
549.51	41951.76
549.68	42401.14
549.84	42225.60
550.01	42799.04
550.18	42401.14
550.34	42506.47
550.51	42738.18
550.68	42258.37
550.84	42361.36
551.01	42953.51
551.18	42443.27
551.34	42485.40
551.51	42796.70
551.68	42749.88
551.84	42775.63
552.01	42473.70
552.18	42897.34
552.34	42670.31
552.51	42965.21
552.68	42653.92
552.84	43372.47
553.01	43056.50
553.18	42614.13
553.34	42927.77
553.51	43019.05
553.67	43192.25
553.84	43082.24
554.01	43442.68
554.17	43414.60
554.34	43398.21
554.51	43473.11
554.67	43503.54
554.84	43519.92
555.00	43648.65
555.17	43519.92
555.33	43753.97
555.50	43786.74
555.67	43426.30
555.83	43447.36
556.00	43676.74
556.16	44170.59
556.33	43962.28
556.50	43569.07
556.66	43737.59
556.83	43435.66
556.99	43578.43
557.16	44081.65
557.32	44137.82
557.49	43992.71
557.65	43901.43
557.82	44161.23
557.98	43889.73
558.15	44210.38
558.32	43971.64
558.48	44018.46
558.65	44252.51
558.81	44416.35
558.98	44091.01
559.14	43999.73
559.31	44247.83
559.47	44322.72
559.64	44460.82
559.80	44254.85
559.97	44526.35
560.13	44154.21
560.30	44208.04
560.46	44547.42
560.63	44570.82
560.79	44772.11
560.96	44479.54
561.12	44744.02
561.29	44528.69
561.45	44594.23
561.61	44449.11
561.78	44514.65
561.94	44416.35
562.11	44687.85
562.27	44655.08
562.44	44491.24
562.60	45202.77
562.77	44842.32
562.93	44863.39
563.10	45249.58
563.26	44825.94
563.42	45275.32
563.59	44507.63
563.75	44673.81
563.92	44339.11
564.08	45029.57
564.24	45301.07
564.41	44839.98
564.57	44737.00
564.74	45413.41
564.90	45207.45
565.07	44868.07
565.23	45130.21
565.39	45195.74
565.56	45125.53
565.72	45263.62
565.88	44952.33
566.05	45319.79
566.21	45052.97
566.38	45013.18
566.54	45371.28
566.70	45315.11
566.87	45081.06
567.03	45001.48
567.19	45282.34
567.36	45305.75
567.52	45041.27
567.68	45497.67
567.85	45139.57
568.01	45628.74
568.17	45109.14
568.34	45565.55
568.50	45401.71
568.66	44772.11
568.83	44926.58
568.99	45574.91
569.15	45455.54
569.32	45511.72
569.48	45752.79
569.64	45612.36
569.81	45595.98
569.97	45338.52
570.13	45191.06
570.30	45469.59
570.46	45516.40
570.62	45722.37
570.78	45532.78
570.95	45598.32
571.11	45881.52
571.27	45624.06
571.43	45673.21
571.60	45792.58
571.76	45408.73
571.92	45329.16
572.09	45741.09
572.25	45310.43
572.41	45284.68
572.57	45631.08
572.74	46078.13
572.90	45797.26
573.06	46457.29
573.22	45703.64
573.38	45572.57
573.55	46106.21
573.71	46146.00
573.87	45516.40
574.03	45872.16
574.20	46096.85
574.36	45940.04
574.52	45986.85
574.68	45790.24
574.84	46234.94
575.01	45394.69
575.17	45900.25
575.33	45750.45
575.49	45813.65
575.65	46284.09
575.82	46295.80
575.98	45879.18
576.14	46415.16
576.30	46141.32
576.46	45961.10
576.62	45776.20
576.79	46150.68
576.95	45375.97
577.11	46073.45
577.27	45911.95
577.43	45904.93
577.59	46066.42
577.75	45694.28
577.92	45872.16
578.08	46087.49
578.24	46003.23
578.40	46202.18
578.56	46082.81
578.72	46146.00
578.88	46316.86
579.04	46101.53
579.21	45783.22
579.37	46291.12
579.53	46305.16
579.69	45806.62
579.85	46073.45
580.01	46110.89
580.17	46007.91
580.33	45879.18
580.49	46279.41
580.65	46258.35
580.82	46253.67
580.98	45612.36
581.14	45799.60
581.30	46457.29
581.46	46216.22
581.62	46047.70
581.78	46143.66
581.94	46501.76
582.10	46415.16
582.26	46653.90
582.42	45989.19
582.58	46185.79
582.74	46183.45
582.90	46110.89
583.06	45958.76
583.22	46019.61
583.38	46576.66
583.54	46066.42
583.70	46518.15
583.86	46248.99
584.02	46185.79
584.18	46560.28
584.34	46115.58
584.50	46492.40
584.66	46550.91
584.82	46295.80
584.98	46595.38
585.14	46646.88
585.30	45998.55
585.46	46382.40
585.62	45935.35
585.78	46251.33
585.94	46335.59
586.10	45979.82
586.26	45682.58
586.42	45947.06
586.58	46401.12
586.74	46384.74
586.90	46216.22
587.06	46031.32
587.22	46473.68
587.38	46595.38
587.54	46115.58
587.70	46651.56
587.86	46342.61
588.02	46323.88
588.18	46384.74
588.34	46181.11
588.49	46143.66
588.65	46412.82
588.81	46314.52
588.97	46625.81
589.13	46239.62
589.29	46426.87
589.45	46747.52
589.61	46440.91
589.77	46485.38
589.93	46415.16
590.08	46740.50
