SpectraSuite Data File
++++++++++++++++++++++++++++++++++++
Date: Fri Oct 25 10:48:14 EDT 2013
User: price-jones
Dark Spectrum Present: No
Reference Spectrum Present: No
Number of Sampled Component Spectra: 1
Spectrometers: USB2+H05261
Integration Time (usec): 100000 (USB2+H05261)
Spectra Averaged: 1 (USB2+H05261)
Boxcar Smoothing: 0 (USB2+H05261)
Correct for Electrical Dark: No (USB2+H05261)
Strobe/Lamp Enabled: No (USB2+H05261)
Correct for Detector Non-linearity: No (USB2+H05261)
Correct for Stray Light: No (USB2+H05261)
Number of Pixels in Processed Spectrum: 2048
>>>>>Begin Processed Spectral Data<<<<<
365.73	72.56
365.92	72.56
366.12	72.56
366.32	56.17
366.52	74.90
366.72	60.85
366.91	0.00
367.11	4.68
367.31	39.79
367.51	63.19
367.70	42.13
367.90	107.66
368.10	32.77
368.30	65.54
368.49	74.90
368.69	58.51
368.89	72.56
369.09	88.94
369.28	88.94
369.48	42.13
369.68	81.92
369.87	175.54
370.07	175.54
370.27	128.73
370.47	243.42
370.66	311.29
370.86	393.21
371.06	528.96
371.25	454.06
371.45	440.02
371.65	430.66
371.84	442.36
372.04	421.30
372.24	482.15
372.44	500.87
372.63	486.83
372.83	491.51
373.03	535.98
373.22	435.34
373.42	519.60
373.62	517.26
373.81	573.43
374.01	571.09
374.21	568.75
374.40	573.43
374.60	545.34
374.79	510.24
374.99	606.20
375.19	557.05
375.38	538.32
375.58	561.73
375.78	603.86
375.97	561.73
376.17	645.99
376.37	582.79
376.56	592.16
376.76	599.18
376.95	648.33
377.15	709.18
377.35	648.33
377.54	664.71
377.74	610.88
377.93	681.10
378.13	627.26
378.33	641.31
378.52	543.00
378.72	667.05
378.91	636.63
379.11	655.35
379.31	627.26
379.50	571.09
379.70	648.33
379.89	627.26
380.09	629.60
380.28	631.94
380.48	681.10
380.68	662.37
380.87	615.56
381.07	732.59
381.26	786.42
381.46	702.16
381.65	711.52
381.85	704.50
382.04	713.86
382.24	741.95
382.43	784.08
382.63	648.33
382.83	727.91
383.02	809.83
383.22	777.06
383.41	695.14
383.61	718.54
383.80	809.83
384.00	788.76
384.19	760.67
384.39	833.23
384.58	765.36
384.78	770.04
384.97	739.61
385.17	685.78
385.36	767.70
385.56	823.87
385.75	737.27
385.95	667.05
386.14	828.55
386.34	734.93
386.53	873.02
386.72	791.10
386.92	868.34
387.11	926.85
387.31	866.00
387.50	842.59
387.70	772.38
387.89	875.36
388.09	868.34
388.28	917.49
388.48	858.98
388.67	938.55
388.86	917.49
389.06	772.38
389.25	971.32
389.45	966.64
389.64	945.58
389.84	903.45
390.03	961.96
390.22	978.34
390.42	994.73
390.61	950.26
390.81	866.00
391.00	990.05
391.19	1095.37
391.39	1039.20
391.58	980.68
391.78	1032.18
391.97	1039.20
392.16	1027.50
392.36	983.02
392.55	1006.43
392.75	987.71
392.94	1022.81
393.13	954.94
393.33	1064.94
393.52	994.73
393.71	1036.86
393.91	1107.07
394.10	1146.86
394.29	1158.57
394.49	1048.56
394.68	1100.05
394.88	1090.69
395.07	1125.80
395.26	1181.97
395.46	1144.52
395.65	1181.97
395.84	1153.88
396.04	1174.95
396.23	1118.78
396.42	1191.33
396.62	1207.72
396.81	1179.63
397.00	1196.01
397.19	1221.76
397.39	1343.47
397.58	1299.00
397.77	1282.61
397.97	1313.04
398.16	1329.42
398.35	1406.66
398.55	1315.38
398.74	1383.26
398.93	1359.85
399.12	1420.71
399.32	1364.53
399.51	1380.92
399.70	1446.45
399.90	1387.94
400.09	1420.71
400.28	1472.20
400.47	1509.65
400.67	1526.03
400.86	1558.80
401.05	1593.90
401.24	1472.20
401.44	1476.88
401.63	1572.84
401.82	1643.06
402.01	1526.03
402.21	1584.54
402.40	1619.65
402.59	1540.07
402.78	1682.85
402.97	1603.27
403.17	1652.42
403.36	1614.97
403.55	1678.16
403.74	1813.92
403.93	1727.32
404.13	1783.49
404.32	1638.38
404.51	1732.00
404.70	1804.55
404.89	1696.89
405.09	1764.76
405.28	1823.28
405.47	1713.27
405.66	1774.13
405.85	1867.75
406.05	1825.62
406.24	1928.60
406.43	1893.49
406.62	1820.94
406.81	2054.99
407.00	1956.69
407.20	1818.60
407.39	1846.68
407.58	1916.90
407.77	2003.50
407.96	2010.52
408.15	2113.50
408.34	2019.88
408.54	1998.82
408.73	2050.31
408.92	2141.59
409.11	2232.87
409.30	2090.10
409.49	2153.29
409.68	2319.47
409.87	2179.04
410.07	2193.08
410.26	2172.02
410.45	2174.36
410.64	2085.42
410.83	2190.74
411.02	2373.30
411.21	2434.16
411.40	2267.98
411.59	2321.81
411.78	2324.15
411.98	2394.37
412.17	2499.69
412.36	2296.07
412.55	2513.74
412.74	2642.46
412.93	2546.50
413.12	2415.43
413.31	2509.05
413.50	2544.16
413.69	2644.81
413.88	2766.51
414.07	2663.53
414.26	2717.36
414.45	2642.46
414.64	2841.41
414.83	2796.94
415.02	2815.66
415.22	2848.43
415.41	2810.98
415.60	2885.88
415.79	2937.37
415.98	2911.63
416.17	2972.48
416.36	3098.87
416.55	3035.67
416.74	3070.78
416.93	2892.90
417.12	3033.33
417.31	3133.98
417.50	2981.84
417.69	3101.21
417.88	3103.55
418.07	3157.38
418.26	3124.62
418.45	3098.87
418.64	3279.09
418.83	3325.90
419.02	3204.19
419.21	3283.77
419.39	3295.47
419.58	3197.17
419.77	3262.71
419.96	3421.86
420.15	3515.48
420.34	3452.29
420.53	3475.70
420.72	3459.31
420.91	3536.55
421.10	3543.57
421.29	3606.77
421.48	3449.95
421.67	3562.30
421.86	3536.55
422.05	3452.29
422.24	3424.20
422.43	3487.40
422.61	3417.18
422.80	3719.11
422.99	3578.68
423.18	3672.30
423.37	3576.34
423.56	3707.41
423.75	3655.92
423.94	3496.76
424.13	3431.23
424.32	3590.38
424.50	3698.05
424.69	3782.31
424.88	3744.86
425.07	3576.34
425.26	3585.70
425.45	3597.40
425.64	3571.66
425.83	3602.08
426.01	3737.84
426.20	3808.05
426.39	3843.16
426.58	3644.21
426.77	3707.41
426.96	3861.88
427.15	3730.81
427.33	3728.47
427.52	3829.12
427.71	3761.24
427.90	3871.25
428.09	3836.14
428.28	3728.47
428.46	3983.59
428.65	3878.27
428.84	4042.11
429.03	4084.23
429.22	3817.41
429.40	3887.63
429.59	3955.51
429.78	3623.15
429.97	3705.07
430.16	3740.18
430.34	3899.33
430.53	3999.98
430.72	3948.48
430.91	4133.39
431.10	3999.98
431.28	4086.58
431.47	4236.37
431.66	4308.93
431.85	4215.30
432.03	4334.67
432.22	4238.71
432.41	4374.46
432.60	4308.93
432.79	4358.08
432.97	4425.95
433.16	4416.59
433.35	4418.93
433.54	4437.66
433.72	4348.72
433.91	4344.03
434.10	4468.08
434.28	4428.29
434.47	4652.98
434.66	4507.87
434.85	4629.58
435.03	4608.51
435.22	4540.64
435.41	4699.80
435.59	4674.05
435.78	4734.90
435.97	4954.91
436.16	4711.50
436.34	4744.27
436.53	4758.31
436.72	4807.46
436.90	4641.28
437.09	4676.39
437.28	4697.46
437.46	4910.44
437.65	4873.00
437.84	4873.00
438.02	5064.92
438.21	4905.76
438.40	4779.37
438.58	5020.45
438.77	5121.09
438.96	5097.69
439.14	5146.84
439.33	5188.97
439.52	5210.03
439.70	5392.59
439.89	5268.55
440.08	5458.13
440.26	5327.06
440.45	5181.95
440.63	5444.09
440.82	5488.56
441.01	5605.58
441.19	5582.18
441.38	5776.44
441.57	5682.82
441.75	5820.91
441.94	5827.93
442.12	5741.33
442.31	5912.19
442.50	5762.40
442.68	5692.18
442.87	5701.54
443.05	5837.30
443.24	5846.66
443.43	5891.13
443.61	5863.04
443.80	6047.94
443.98	5940.28
444.17	5846.66
444.35	5991.77
444.54	6085.39
444.73	6162.63
444.91	5980.07
445.10	5860.70
445.28	5856.02
445.47	5902.83
445.65	6022.20
445.84	6043.26
446.02	6064.33
446.21	6024.54
446.39	5930.92
446.58	6310.08
446.77	6221.14
446.95	5956.66
447.14	6246.89
447.32	6181.35
447.51	6190.72
447.69	6263.27
447.88	6054.97
448.06	6221.14
448.25	6312.42
448.43	6204.76
448.62	6017.52
448.80	6223.48
448.99	6223.48
449.17	6504.35
449.36	6338.17
449.54	6363.92
449.73	6480.94
449.91	6480.94
450.10	6686.91
450.28	6644.78
450.46	6457.54
450.65	6789.89
450.83	6583.93
451.02	6534.78
451.20	6843.73
451.39	6705.63
451.57	6621.38
451.76	6675.21
451.94	6642.44
452.13	6827.34
452.31	6757.13
452.49	6626.06
452.68	6656.48
452.86	6813.30
453.05	6633.08
453.23	6998.20
453.42	6796.92
453.60	6619.04
453.78	6839.05
453.97	7014.59
454.15	6876.49
454.34	6712.66
454.52	6920.96
454.70	6810.96
454.89	7119.91
455.07	6946.71
455.26	7218.21
455.44	7176.08
455.62	7250.98
455.81	7166.72
455.99	7229.91
456.17	7239.28
456.36	7131.61
456.54	7360.98
456.73	7583.34
456.91	7431.20
457.09	7365.67
457.28	7786.96
457.46	7316.51
457.64	7557.59
457.83	7648.87
458.01	7330.56
458.19	7765.90
458.38	7492.05
458.56	7772.92
458.74	7522.48
458.93	7761.22
459.11	7843.14
459.29	7658.23
459.48	7845.48
459.66	7630.15
459.84	7831.43
460.03	8032.72
460.21	7878.24
460.39	8002.29
460.57	8023.36
460.76	7955.48
460.94	8039.74
461.12	7922.71
461.31	7911.01
461.49	7985.91
461.67	8067.83
461.85	8458.70
462.04	8042.08
462.22	8634.24
462.40	8393.16
462.59	8201.24
462.77	8201.24
462.95	8210.60
463.13	8468.06
463.32	8381.46
463.50	8365.07
463.68	8542.96
463.86	8372.10
464.05	8404.86
464.23	8381.46
464.41	8507.85
464.59	8299.54
464.78	8531.25
464.96	8557.00
465.14	8461.04
465.32	8643.60
465.50	8486.78
465.69	8638.92
465.87	8596.79
466.05	8730.20
466.23	8596.79
466.41	8545.30
466.60	8716.16
466.78	8470.40
466.96	8772.33
467.14	8557.00
467.32	8875.31
467.51	8938.51
467.69	8706.79
467.87	8835.52
468.05	8791.05
468.23	8725.52
468.41	8863.61
468.60	8968.93
468.78	8940.85
468.96	8737.22
469.14	8912.76
469.32	9130.43
469.50	8877.65
469.69	9282.56
469.87	9071.92
470.05	9181.92
470.23	9034.47
470.41	9207.67
470.59	9308.31
470.77	9322.35
470.95	9303.63
471.14	9394.91
471.32	9296.61
471.50	9579.81
471.68	9530.66
471.86	9444.06
472.04	9736.63
472.22	9680.46
472.40	9530.66
472.58	9713.22
472.77	9605.56
472.95	9792.80
473.13	10150.90
473.31	9916.85
473.49	9884.08
473.67	10097.07
473.85	9970.68
474.03	10094.73
474.21	10202.40
474.39	10195.37
474.57	10256.23
474.75	10171.97
474.93	10546.45
475.12	10434.11
475.30	10548.79
475.48	10490.28
475.66	10539.43
475.84	10520.71
476.02	10509.01
476.20	10560.50
476.38	10729.02
476.56	10960.73
476.74	10963.07
476.92	11129.25
477.10	10775.83
477.28	11131.59
477.46	11325.85
477.64	11536.50
477.82	11473.31
478.00	11616.08
478.18	11485.01
478.36	11632.46
478.54	11946.09
478.72	11698.00
478.90	11978.86
479.08	12156.74
479.26	12416.54
479.44	12273.77
479.62	12496.12
479.80	12535.91
479.98	12493.78
480.16	12622.51
480.34	12849.54
480.52	12950.18
480.70	12828.48
480.88	12819.11
481.06	12961.89
481.24	13153.81
481.41	13177.22
481.59	13481.49
481.77	13540.00
481.95	13383.18
482.13	13650.00
482.31	13696.82
482.49	13776.39
482.67	14188.33
482.85	13825.54
483.03	14141.52
483.21	14361.53
483.39	14324.08
483.57	14237.48
483.74	14534.73
483.92	14747.72
484.10	14394.29
484.28	15164.33
484.46	15054.33
484.64	15197.10
484.82	14986.45
485.00	15014.54
485.18	15396.04
485.35	15379.66
485.53	15342.21
485.71	15239.23
485.89	15737.76
486.07	15370.30
486.25	15637.12
486.43	16168.42
486.61	16149.70
486.78	16329.92
486.96	16673.98
487.14	16776.96
487.32	16671.64
487.50	16910.37
487.68	16929.09
487.85	17039.10
488.03	17734.24
488.21	17598.49
488.39	17554.02
488.57	17441.67
488.75	18071.28
488.92	18050.21
489.10	18085.32
489.28	18162.56
489.46	18427.04
489.64	18588.53
489.81	18551.09
489.99	18806.20
490.17	18998.13
490.35	19246.23
490.53	19082.39
490.70	19426.45
490.88	19435.81
491.06	19192.39
491.24	19531.77
491.41	19697.95
491.59	19850.08
491.77	19632.41
491.95	19999.88
492.13	20142.65
492.30	20421.17
492.48	20327.55
492.66	20489.05
492.84	20292.44
493.01	20776.94
493.19	20725.44
493.37	20816.72
493.54	21130.36
493.72	21165.46
493.90	21263.77
494.08	21493.14
494.25	21568.04
494.43	21664.00
494.61	22122.74
494.79	22174.24
494.96	22129.77
495.14	22192.96
495.32	22391.91
495.49	22209.34
495.67	22597.87
495.85	22665.75
496.02	22925.55
496.20	23042.57
496.38	22904.48
496.55	23225.14
496.73	23709.63
496.91	23168.96
497.09	23410.04
497.26	23711.97
497.44	23555.15
497.62	23763.46
497.79	23875.80
497.97	23810.27
498.14	23786.86
498.32	24482.00
498.50	24493.71
498.67	24805.00
498.85	24786.27
499.03	24720.74
499.20	24510.09
499.38	24779.25
499.56	25240.34
499.73	25345.66
499.91	24926.71
500.08	25167.78
500.26	24861.17
500.44	25263.74
500.61	25600.78
500.79	25514.18
500.97	25331.62
501.14	25956.54
501.32	25888.67
501.49	25647.59
501.67	25790.36
501.84	25872.28
502.02	25914.41
502.20	26356.77
502.37	26150.81
502.55	26305.28
502.72	26469.12
502.90	26459.76
503.07	26654.02
503.25	26663.38
503.43	26899.78
503.60	26625.93
503.78	27253.20
503.95	26712.53
504.13	26845.94
504.30	27250.86
504.48	27548.11
504.65	27283.62
504.83	27578.53
505.01	27686.20
505.18	27683.86
505.36	27843.01
505.53	27821.95
505.71	27709.60
505.88	28088.77
506.06	28184.73
506.23	28077.07
506.41	27864.08
506.58	28484.32
506.76	28566.24
506.93	28313.46
507.11	28540.49
507.28	28409.42
507.46	28622.41
507.63	28383.68
507.81	28767.52
507.98	28528.79
508.16	29048.39
508.33	29481.39
508.50	29329.25
508.68	29376.06
508.85	29467.34
509.03	29443.94
509.20	29551.60
509.38	29708.42
509.55	29593.73
509.73	29811.40
509.90	29612.46
510.08	29610.12
510.25	30309.94
510.42	30153.12
510.60	30087.59
510.77	30618.89
510.95	30562.72
511.12	30298.23
511.30	30684.42
511.47	30794.43
511.64	30604.84
511.82	30864.64
511.99	30904.43
512.17	30991.03
512.34	30551.01
512.51	31147.85
512.69	31330.41
512.86	31119.76
513.04	31082.31
513.21	31145.51
513.38	31519.99
513.56	31615.96
513.73	31138.49
513.90	31674.47
514.08	30979.33
514.25	31814.90
514.43	31978.74
514.60	32112.15
514.77	31559.78
514.95	32252.58
515.12	31819.58
515.29	32025.55
515.47	32414.08
515.64	32404.72
515.81	32065.34
515.99	32402.38
516.16	32299.39
516.33	32362.59
516.51	32332.16
516.68	31901.50
516.85	32030.23
517.03	32250.24
517.20	32601.32
517.37	32727.71
517.54	32912.61
517.72	32938.36
517.89	32800.27
518.06	32687.92
518.24	32662.18
518.41	32856.44
518.58	33184.12
518.75	33310.50
518.93	33621.80
519.10	33027.30
519.27	33614.77
519.45	33804.36
519.62	33696.69
519.79	33858.19
519.96	33771.59
520.14	33984.58
520.31	33453.28
520.48	34052.45
520.65	34251.40
520.83	34377.79
521.00	34057.14
521.17	34649.29
521.34	33958.83
521.52	34539.29
521.69	34705.46
521.86	34845.90
522.03	34614.18
522.20	34855.26
522.38	34803.77
522.55	35297.62
522.72	35079.95
522.89	35157.19
523.07	35040.16
523.24	35030.80
523.41	35480.18
523.58	35644.02
523.75	35690.83
523.92	35559.76
524.10	35803.17
524.27	35538.69
524.44	35672.10
524.61	35658.06
524.78	36095.74
524.96	35782.11
525.13	35665.08
525.30	36051.27
525.47	36362.56
525.64	35878.07
525.81	36603.64
525.98	36086.38
526.16	35959.99
526.33	35768.07
526.50	36053.61
526.67	36123.83
526.84	36168.30
527.01	36062.97
527.18	36414.05
527.36	36617.68
527.53	36973.44
527.70	36701.94
527.87	36840.03
528.04	37146.64
528.21	36706.62
528.38	37172.39
528.55	37312.82
528.72	37034.30
528.89	37675.60
529.07	36943.02
529.24	36905.57
529.41	37148.98
529.58	37230.90
529.75	37275.37
529.92	37902.64
530.09	37556.24
530.26	37633.47
530.43	37729.44
530.60	37834.76
530.77	37598.37
530.94	37715.39
531.11	37787.95
531.28	37926.04
531.46	37848.80
531.63	37769.22
531.80	37748.16
531.97	38127.33
532.14	38085.20
532.31	38195.20
532.48	38249.03
532.65	38419.89
532.82	38085.20
532.99	37919.02
533.16	38445.64
533.33	38473.73
533.50	38242.01
533.67	38511.17
533.84	38253.72
534.01	38639.90
534.18	38410.53
534.35	38529.90
534.52	38703.10
534.69	38810.76
534.86	38827.15
535.03	38810.76
535.20	39206.31
535.37	39161.84
535.54	39096.31
535.71	39283.55
535.88	39290.57
536.05	38939.49
536.22	39447.39
536.38	39442.71
536.55	39597.18
536.72	39339.72
536.89	39484.84
537.06	39573.78
537.23	40065.29
537.40	39316.32
537.57	39658.04
537.74	39681.44
537.91	39730.59
538.08	40032.52
538.25	39255.46
538.42	39147.80
538.59	39723.57
538.75	39847.62
538.92	39615.91
539.09	40252.53
539.26	39749.32
539.43	40072.31
539.60	39976.35
539.77	39962.31
539.94	40500.63
540.11	39737.62
540.28	39999.76
540.44	40079.33
540.61	39880.39
540.78	39936.56
540.95	39983.37
541.12	40355.52
541.29	40266.58
541.46	40582.55
541.62	40404.67
541.79	40804.90
541.96	40098.06
542.13	40392.97
542.30	40367.22
542.47	40687.87
542.63	40877.46
542.80	41109.17
542.97	41263.64
543.14	41263.64
543.31	41041.29
543.48	41008.53
543.64	41656.85
543.81	41474.29
543.98	41446.21
544.15	41516.42
544.32	41493.02
544.48	41706.01
544.65	41422.80
544.82	41586.64
544.99	41179.39
545.16	41345.56
545.32	41436.84
545.49	41893.25
545.66	42033.68
545.83	41525.78
546.00	42227.95
546.16	41654.51
546.33	41645.15
546.50	41493.02
546.67	41722.39
546.83	40966.40
547.00	41628.77
547.17	41853.46
547.34	42188.16
547.50	41986.87
547.67	42213.90
547.84	42143.69
548.00	42436.25
548.17	42401.14
548.34	42569.66
548.51	42473.70
548.67	42871.59
548.84	42815.42
549.01	42401.14
549.18	42267.73
549.34	42560.30
549.51	42539.24
549.68	42178.79
549.84	42745.20
550.01	42976.92
550.18	42459.66
550.34	42686.69
550.51	42513.49
550.68	42916.06
550.84	42555.62
551.01	42808.40
551.18	42925.42
551.34	42410.51
551.51	42588.39
551.68	43150.12
551.84	43161.82
552.01	42663.28
552.18	43157.14
552.34	43070.54
552.51	43292.89
552.68	42735.84
552.84	43313.95
553.01	43379.49
553.18	43335.02
553.34	42815.42
553.51	42770.95
553.67	43367.79
553.84	43435.66
554.01	43430.98
554.17	43533.96
554.34	43358.42
554.51	43468.43
554.67	43688.44
554.84	43838.23
555.00	43096.28
555.17	43426.30
555.33	43143.09
555.50	43409.92
555.67	43653.33
555.83	43449.70
556.00	43751.63
556.16	43929.51
556.33	43735.25
556.50	43814.83
556.66	43814.83
556.83	43192.25
556.99	43927.17
557.16	43618.22
557.32	43938.88
557.49	44130.80
557.65	43782.06
557.82	43791.42
557.98	44479.54
558.15	44194.00
558.32	43999.73
558.48	43894.41
558.65	43775.04
558.81	43828.87
558.98	43838.23
559.14	44091.01
559.31	44271.23
559.47	44140.16
559.64	44336.77
559.80	44346.13
559.97	44081.65
560.13	44123.78
560.30	44055.90
560.46	44240.81
560.63	44126.12
560.79	44257.19
560.96	44481.88
561.12	44219.74
561.29	44201.02
561.45	44282.94
561.61	44444.43
561.78	44198.68
561.94	44327.41
562.11	43934.20
562.27	44594.23
562.44	44671.46
562.60	44779.13
562.77	44603.59
562.93	44343.79
563.10	44222.08
563.26	43990.37
563.42	44435.07
563.59	44210.38
563.75	44467.84
563.92	44706.57
564.08	44769.77
564.24	44568.48
564.41	44657.42
564.57	44964.03
564.74	44832.96
564.90	44512.31
565.07	44739.34
565.23	44495.92
565.39	44659.76
565.56	44507.63
565.72	44465.50
565.88	44472.52
566.05	44591.89
566.21	44416.35
566.38	44507.63
566.54	44601.25
566.70	44964.03
566.87	45155.96
567.03	44912.54
567.19	44872.75
567.36	45338.52
567.52	44814.24
567.68	44835.30
567.85	44498.26
568.01	44872.75
568.17	44987.44
568.34	44907.86
568.50	44521.67
568.66	44889.13
568.83	44851.69
568.99	44516.99
569.15	44825.94
569.32	44828.28
569.48	44641.04
569.64	45633.42
569.81	44968.71
569.97	44491.24
570.13	44851.69
570.30	44561.46
570.46	44315.70
570.62	44589.55
570.78	44526.35
570.95	44577.84
571.11	45380.65
571.27	44753.38
571.43	44587.21
571.60	44589.55
571.76	45127.87
571.92	44729.98
572.09	44903.18
572.25	45071.70
572.41	45027.23
572.57	45368.94
572.74	45198.09
572.90	45233.19
573.06	45160.64
573.22	45460.23
573.38	45235.53
573.55	44959.35
573.71	45102.12
573.87	44942.97
574.03	44762.75
574.20	45347.88
574.36	44996.80
574.52	45235.53
574.68	44954.67
574.84	45153.62
575.01	45050.63
575.17	45361.92
575.33	44830.62
575.49	45052.97
575.65	45097.44
575.82	45844.07
575.98	45092.76
576.14	45684.92
576.30	45303.41
576.46	45069.36
576.62	44875.09
576.79	45048.29
576.95	44556.78
577.11	45071.70
577.27	45345.54
577.43	44947.65
577.59	45055.31
577.75	45275.32
577.92	44437.41
578.08	44870.41
578.24	44828.28
578.40	45202.77
578.56	45598.32
578.72	45333.84
578.88	45478.95
579.04	45008.50
579.21	44907.86
579.37	44949.99
579.53	44783.81
579.69	44926.58
579.85	44938.29
580.01	45031.91
580.17	45212.13
580.33	45546.82
580.49	45640.45
580.65	45284.68
580.82	45605.34
580.98	45130.21
581.14	44928.92
581.30	45160.64
581.46	45418.10
581.62	45191.06
581.78	45378.31
581.94	45647.47
582.10	45401.71
582.26	45544.48
582.42	45181.70
582.58	45411.07
582.74	45226.17
582.90	45485.97
583.06	45272.98
583.22	45581.93
583.38	45471.93
583.54	45064.67
583.70	45469.59
583.86	44896.16
584.02	45460.23
584.18	45429.80
584.34	45127.87
584.50	45656.83
584.66	44851.69
584.82	44910.20
584.98	45485.97
585.14	45394.69
585.30	44868.07
585.46	45326.81
585.62	45015.52
585.78	45226.17
585.94	44851.69
586.10	45212.13
586.26	45165.32
586.42	45825.35
586.58	45448.52
586.74	45404.05
586.90	45125.53
587.06	45462.57
587.22	45272.98
587.38	45221.49
587.54	45338.52
587.70	45544.48
587.86	45471.93
588.02	45219.15
588.18	45394.69
588.34	45574.91
588.49	45329.16
588.65	45088.08
588.81	45099.78
588.97	44966.37
589.13	45036.59
589.29	44971.05
589.45	45518.74
589.61	45404.05
589.77	45600.66
589.93	45476.61
590.08	45979.82
590.24	45429.80
