SpectraSuite Data File
++++++++++++++++++++++++++++++++++++
Date: Fri Oct 25 11:22:52 EDT 2013
User: price-jones
Dark Spectrum Present: No
Reference Spectrum Present: No
Number of Sampled Component Spectra: 1
Spectrometers: USB2+H05261
Integration Time (usec): 100000 (USB2+H05261)
Spectra Averaged: 1 (USB2+H05261)
Boxcar Smoothing: 0 (USB2+H05261)
Correct for Electrical Dark: No (USB2+H05261)
Strobe/Lamp Enabled: No (USB2+H05261)
Correct for Detector Non-linearity: No (USB2+H05261)
Correct for Stray Light: No (USB2+H05261)
Number of Pixels in Processed Spectrum: 2048
>>>>>Begin Processed Spectral Data<<<<<
365.73	208.31
365.92	208.31
366.12	208.31
366.32	159.16
366.52	173.20
366.72	161.50
366.91	142.77
367.11	67.88
367.31	124.05
367.51	166.18
367.70	140.43
367.90	105.32
368.10	100.64
368.30	105.32
368.49	72.56
368.69	117.03
368.89	117.03
369.09	145.11
369.28	229.37
369.48	131.07
369.68	166.18
369.87	217.67
370.07	189.58
370.27	217.67
370.47	325.33
370.66	582.79
370.86	631.94
371.06	629.60
371.25	751.31
371.45	655.35
371.65	704.50
371.84	631.94
372.04	713.86
372.24	741.95
372.44	741.95
372.63	758.33
372.83	770.04
373.03	791.10
373.22	765.36
373.42	755.99
373.62	753.65
373.81	765.36
374.01	812.17
374.21	734.93
374.40	755.99
374.60	779.40
374.79	908.13
374.99	819.19
375.19	744.29
375.38	840.25
375.58	877.70
375.78	856.64
375.97	875.36
376.17	870.68
376.37	877.70
376.56	952.60
376.76	835.57
376.95	894.08
377.15	887.06
377.35	936.21
377.54	786.42
377.74	868.34
377.93	901.11
378.13	910.47
378.33	952.60
378.52	971.32
378.72	898.77
378.91	985.37
379.11	924.51
379.31	940.90
379.50	903.45
379.70	997.07
379.89	908.13
380.09	940.90
380.28	1018.13
380.48	959.62
380.68	1027.50
380.87	887.06
381.07	994.73
381.26	1015.79
381.46	915.15
381.65	997.07
381.85	1036.86
382.04	1048.56
382.24	1029.84
382.43	1032.18
382.63	1025.15
382.83	1060.26
383.02	1170.27
383.22	1167.93
383.41	1076.65
383.61	1001.75
383.80	1015.79
384.00	1186.65
384.19	1095.37
384.39	1069.62
384.58	1184.31
384.78	1048.56
384.97	1132.82
385.17	1172.61
385.36	1210.06
385.56	1165.59
385.75	1331.76
385.95	1146.86
386.14	1261.55
386.34	1299.00
386.53	1219.42
386.72	1167.93
386.92	1160.91
387.11	1226.44
387.31	1291.98
387.50	1245.16
387.70	1291.98
387.89	1238.14
388.09	1320.06
388.28	1301.34
388.48	1306.02
388.67	1252.19
388.86	1294.32
389.06	1355.17
389.25	1411.34
389.45	1320.06
389.64	1315.38
389.84	1495.60
390.03	1336.45
390.22	1394.96
390.42	1334.11
390.61	1324.74
390.81	1291.98
391.00	1409.00
391.19	1479.22
391.39	1483.90
391.58	1320.06
391.78	1446.45
391.97	1430.07
392.16	1465.18
392.36	1586.88
392.55	1540.07
392.75	1453.47
392.94	1465.18
393.13	1467.52
393.33	1577.52
393.52	1547.09
393.71	1619.65
393.91	1535.39
394.10	1621.99
394.29	1575.18
394.49	1624.33
394.68	1701.57
394.88	1678.16
395.07	1638.38
395.26	1626.67
395.46	1661.78
395.65	1722.63
395.84	1708.59
396.04	1680.50
396.23	1767.10
396.42	1680.50
396.62	1757.74
396.81	1755.40
397.00	1739.02
397.19	1888.81
397.39	1863.07
397.58	1804.55
397.77	1762.42
397.97	1715.61
398.16	1755.40
398.35	1891.15
398.55	1849.02
398.74	1994.14
398.93	2064.35
399.12	1935.62
399.32	1872.43
399.51	1909.88
399.70	2078.40
399.90	1940.30
400.09	2099.46
400.28	2104.14
400.47	1937.96
400.67	2090.10
400.86	1984.77
401.05	2129.89
401.24	2174.36
401.44	2200.10
401.63	2127.55
401.82	2106.48
402.01	2162.66
402.21	2073.71
402.40	2188.40
402.59	2113.50
402.78	2139.25
402.97	2172.02
403.17	2195.42
403.36	2244.57
403.55	2293.72
403.74	2214.15
403.93	2361.60
404.13	2399.05
404.32	2424.80
404.51	2363.94
404.70	2443.52
404.89	2258.62
405.09	2476.29
405.28	2523.10
405.47	2511.39
405.66	2485.65
405.85	2574.59
406.05	2450.54
406.24	2635.44
406.43	2588.63
406.62	2637.78
406.81	2775.88
407.00	2726.72
407.20	2487.99
407.39	2738.43
407.58	2750.13
407.77	2792.26
407.96	2719.70
408.15	2808.64
408.34	2698.64
408.54	2761.83
408.73	2722.04
408.92	2794.60
409.11	2745.45
409.30	2743.11
409.49	2909.29
409.68	2974.82
409.87	2923.33
410.07	2944.39
410.26	2944.39
410.45	3035.67
410.64	3014.61
410.83	3201.85
411.02	3009.93
411.21	3122.27
411.40	3124.62
411.59	3281.43
411.78	3164.40
411.98	3190.15
412.17	3225.26
412.36	3248.66
412.55	3440.59
412.74	3384.41
412.93	3440.59
413.12	3449.95
413.31	3555.27
413.50	3480.38
413.69	3529.53
413.88	3637.19
414.07	3672.30
414.26	3808.05
414.45	3719.11
414.64	3789.33
414.83	3777.62
415.02	3786.99
415.22	3735.50
415.41	3882.95
415.60	3882.95
415.79	3887.63
415.98	4004.66
416.17	3962.53
416.36	3896.99
416.55	4018.70
416.74	4098.28
416.93	4154.45
417.12	4177.86
417.31	4278.50
417.50	4257.43
417.69	4262.12
417.88	4241.05
418.07	4315.95
418.26	4166.15
418.45	4259.78
418.64	4454.04
418.83	4545.32
419.02	4299.56
419.21	4421.27
419.39	4514.89
419.58	4571.07
419.77	4528.94
419.96	4575.75
420.15	4603.83
420.34	4514.89
420.53	4755.97
420.72	4648.30
420.91	4706.82
421.10	4791.08
421.29	4840.23
421.48	4683.41
421.67	4966.62
421.86	4856.61
422.05	4884.70
422.24	4791.08
422.43	4842.57
422.61	5022.79
422.80	4933.85
422.99	5055.56
423.18	5195.99
423.37	4985.34
423.56	4952.57
423.75	4968.96
423.94	4947.89
424.13	4573.41
424.32	4777.03
424.50	5039.17
424.69	4985.34
424.88	5057.90
425.07	4961.94
425.26	4725.54
425.45	5093.01
425.64	5020.45
425.83	4938.53
426.01	4915.12
426.20	5111.73
426.39	4980.66
426.58	5254.50
426.77	5043.85
426.96	5261.52
427.15	5170.24
427.33	5142.16
427.52	5233.44
427.71	5327.06
427.90	5289.61
428.09	5343.44
428.28	5366.85
428.46	5261.52
428.65	5245.14
428.84	5556.43
429.03	5600.90
429.22	5352.81
429.40	5462.81
429.59	5467.49
429.78	5214.71
429.97	5425.36
430.16	5526.00
430.34	5486.22
430.53	5654.73
430.72	5628.99
430.91	5708.57
431.10	5586.86
431.28	5626.65
431.47	5781.12
431.66	5820.91
431.85	5874.74
432.03	5900.49
432.22	5933.26
432.41	6033.90
432.60	5926.24
432.79	5905.17
432.97	5947.30
433.16	6394.34
433.35	5987.09
433.54	6134.54
433.72	6122.84
433.91	6118.16
434.10	6136.88
434.28	6113.48
434.47	6127.52
434.66	6253.91
434.85	6399.02
435.03	6382.64
435.22	6431.79
435.41	6492.65
435.59	6380.30
435.78	6436.47
435.97	6471.58
436.16	6277.32
436.34	6455.20
436.53	6492.65
436.72	6576.91
436.90	6277.32
437.09	6822.66
437.28	6471.58
437.46	6656.48
437.65	6583.93
437.84	6813.30
438.02	6768.83
438.21	6892.88
438.40	6572.22
438.58	7054.37
438.77	7115.23
438.96	6995.86
439.14	7204.17
439.33	7152.68
439.52	7243.96
439.70	7302.47
439.89	7419.50
440.08	7506.10
440.26	7365.67
440.45	7494.40
440.63	7510.78
440.82	7573.97
441.01	7353.96
441.19	7742.49
441.38	7756.54
441.57	7934.42
441.75	8028.04
441.94	8039.74
442.12	7779.94
442.31	8051.44
442.50	8074.85
442.68	7985.91
442.87	7943.78
443.05	8163.79
443.24	8329.97
443.43	8133.36
443.61	8383.80
443.80	8482.10
443.98	8119.32
444.17	7871.22
444.35	8311.24
444.54	8322.94
444.73	8482.10
444.91	8278.47
445.10	8423.59
445.28	8482.10
445.47	8437.63
445.65	8287.84
445.84	8540.61
446.02	8748.92
446.21	8542.96
446.39	8503.17
446.58	8610.83
446.77	8542.96
446.95	8308.90
447.14	8648.28
447.32	8734.88
447.51	8549.98
447.69	8542.96
447.88	8561.68
448.06	8638.92
448.25	8638.92
448.43	8723.18
448.62	8521.89
448.80	8493.80
448.99	8851.91
449.17	8856.59
449.36	8587.43
449.54	8971.27
449.73	8887.01
449.91	8947.87
450.10	9125.75
450.28	9181.92
450.46	9025.11
450.65	9060.21
450.83	9214.69
451.02	9100.00
451.20	9322.35
451.39	9366.82
451.57	9247.46
451.76	9334.06
451.94	9336.40
452.13	9350.44
452.31	9364.48
452.49	9406.61
452.68	9336.40
452.86	9444.06
453.05	9390.23
453.23	9451.08
453.42	9350.44
453.60	9460.45
453.78	9547.05
453.97	9542.36
454.15	9671.09
454.34	9596.20
454.52	9528.32
454.70	9715.56
454.89	9769.40
455.07	9935.57
455.26	9954.30
455.44	10150.90
455.62	9975.36
455.81	10207.08
455.99	10279.63
456.17	10328.78
456.36	10141.54
456.54	10298.36
456.73	10307.72
456.91	10548.79
457.09	10303.04
457.28	10377.94
457.46	10317.08
457.64	10415.38
457.83	10469.22
458.01	10328.78
458.19	10846.04
458.38	10675.18
458.56	10810.93
458.74	10644.76
458.93	10649.44
459.11	10679.86
459.29	10719.65
459.48	10932.64
459.66	10944.34
459.84	11145.63
460.03	11007.54
460.21	11152.65
460.39	10895.19
460.57	10946.69
460.76	11241.59
460.94	11208.83
461.12	11365.64
461.31	11506.07
461.49	11222.87
461.67	11208.83
461.85	11449.90
462.04	11410.11
462.22	11901.62
462.40	11641.82
462.59	11346.92
462.77	11431.18
462.95	11672.25
463.13	11506.07
463.32	11742.47
463.50	11777.58
463.68	11960.14
463.86	11908.65
464.05	11772.89
464.23	11693.32
464.41	11999.93
464.59	11653.53
464.78	11955.46
464.96	11943.75
465.14	11992.90
465.32	12262.07
465.50	12339.30
465.69	12042.06
465.87	12175.47
466.05	12173.13
466.23	12327.60
466.41	12402.50
466.60	12713.79
466.78	11906.31
466.96	12334.62
467.14	12428.24
467.32	12568.68
467.51	12842.52
467.69	12170.79
467.87	12657.62
468.05	12666.98
468.23	12683.36
468.41	12695.07
468.60	12739.54
468.78	12781.67
468.96	12624.85
469.14	12894.01
469.32	13149.13
469.50	12526.55
469.69	13193.60
469.87	13193.60
470.05	13334.03
470.23	13479.15
470.41	13411.27
470.59	13516.59
470.77	13317.65
470.95	13343.39
471.14	13554.04
471.32	13245.09
471.50	13652.34
471.68	13600.85
471.86	13792.78
472.04	13907.46
472.22	13973.00
472.40	13839.59
472.58	13717.88
472.77	14101.73
472.95	14237.48
473.13	14450.47
473.31	14445.79
473.49	14115.77
473.67	14134.50
473.85	14333.44
474.03	14829.63
474.21	14876.44
474.39	14883.47
474.57	14974.75
474.75	14588.56
474.93	15035.60
475.12	15037.94
475.30	15318.81
475.48	15035.60
475.66	15147.95
475.84	15229.87
476.02	15538.82
476.20	15632.44
476.38	15721.38
476.56	16152.04
476.74	16198.85
476.92	15768.19
477.10	15683.93
477.28	16119.27
477.46	16322.90
477.64	16353.32
477.82	16641.21
478.00	16835.47
478.18	17076.55
478.36	16671.64
478.54	17128.04
478.72	17123.36
478.90	17539.97
479.08	17268.47
479.26	17928.50
479.44	17809.14
479.62	17994.04
479.80	18487.89
479.98	18171.92
480.16	18860.04
480.34	18403.63
480.52	18792.16
480.70	18813.23
480.88	18611.94
481.06	19084.73
481.24	18831.95
481.41	19311.76
481.59	19445.17
481.77	19789.23
481.95	19740.08
482.13	19943.70
482.31	19494.32
482.49	20369.68
482.67	20243.29
482.85	20669.27
483.03	21172.49
483.21	21081.21
483.39	21202.91
483.57	20730.12
483.74	21420.58
483.92	21565.70
484.10	21385.47
484.28	22078.27
484.46	22089.98
484.64	22785.12
484.82	21965.93
485.00	22541.70
485.18	22745.33
485.35	23276.63
485.53	22871.72
485.71	23447.49
485.89	23836.02
486.07	23646.43
486.25	23700.26
486.43	23988.15
486.61	24126.24
486.78	24023.26
486.96	24563.92
487.14	24954.79
487.32	24865.85
487.50	24931.39
487.68	25221.61
487.85	25181.82
488.03	25898.03
488.21	26022.08
488.39	25963.56
488.57	26494.86
488.75	26284.22
488.92	26855.31
489.10	26878.71
489.28	26609.55
489.46	27424.06
489.64	27337.46
489.81	28254.95
489.99	28063.02
490.17	28170.69
490.35	28428.15
490.53	28187.07
490.70	28882.21
490.88	28549.85
491.06	29050.73
491.24	28807.31
491.41	29401.81
491.59	29380.74
491.77	29193.50
491.95	29420.53
492.13	29780.98
492.30	30459.73
492.48	30354.41
492.66	30232.70
492.84	30457.39
493.01	30991.03
493.19	30621.23
493.37	31049.55
493.54	31409.99
493.72	31599.57
493.90	31049.55
494.08	31835.97
494.25	32287.69
494.43	32198.75
494.61	32598.98
494.79	32828.35
494.96	32727.71
495.14	33195.82
495.32	32994.53
495.49	33280.08
495.67	33446.26
495.85	33390.08
496.02	33830.10
496.20	34312.25
496.38	34162.46
496.55	34487.79
496.73	35281.24
496.91	34728.87
497.09	34705.46
497.26	35548.06
497.44	35667.42
497.62	35739.98
497.79	36006.80
497.97	35697.85
498.14	36282.98
498.32	36673.85
498.50	36650.45
498.67	36825.99
498.85	36706.62
499.03	36903.23
499.20	37170.05
499.38	36992.17
499.56	37333.89
499.73	37373.67
499.91	37699.01
500.08	37830.08
500.26	37668.58
500.44	38167.12
500.61	37912.00
500.79	38120.31
500.97	38604.80
501.14	38286.48
501.32	38705.44
501.49	38675.01
501.67	38981.62
501.84	39161.84
502.02	39016.73
502.20	39005.03
502.37	39643.99
502.55	39049.50
502.72	39608.89
502.90	39922.52
503.07	39901.45
503.25	39931.88
503.43	39793.79
503.60	40297.00
503.78	40271.26
503.95	40495.95
504.13	40509.99
504.30	40928.95
504.48	40868.09
504.65	41003.85
504.83	41167.68
505.01	41797.29
505.18	41085.76
505.36	41659.20
505.53	41523.44
505.71	42059.43
505.88	41961.12
506.06	41420.46
506.23	42239.65
506.41	42387.10
506.58	42227.95
506.76	42405.83
506.93	42700.73
507.11	42557.96
507.28	42686.69
507.46	43381.83
507.63	43035.43
507.81	43753.97
507.98	43152.46
508.16	43524.60
508.33	43639.29
508.50	43875.68
508.68	44004.41
508.85	43702.48
509.03	44107.40
509.20	44271.23
509.38	44591.89
509.55	44711.25
509.73	44430.39
509.90	44882.11
510.08	44397.62
510.25	44804.88
510.42	45125.53
510.60	45127.87
510.77	45605.34
510.95	45823.01
511.12	45560.87
511.30	45572.57
511.47	45841.73
511.64	45801.94
511.82	46085.15
511.99	45991.53
512.17	46328.56
512.34	46344.95
512.51	46850.50
512.69	46562.62
512.86	46433.89
513.04	46955.83
513.21	46869.23
513.38	46859.87
513.56	47253.08
513.73	47122.01
513.90	47224.99
514.08	47089.24
514.25	48023.11
514.43	47863.96
514.60	47580.75
514.77	47625.22
514.95	47964.60
515.12	47646.29
515.29	48161.20
515.47	48512.28
515.64	48212.70
515.81	48098.01
515.99	48549.73
516.16	48687.82
516.33	48481.86
516.51	49165.29
516.68	48921.88
516.85	48428.02
517.03	49132.53
517.20	49193.38
517.37	48985.07
517.54	49546.80
517.72	49003.80
517.89	48898.47
518.06	49303.38
518.24	49371.26
518.41	49556.16
518.58	49720.00
518.75	49633.40
518.93	50003.20
519.10	49731.70
519.27	49701.28
519.45	49827.66
519.62	50422.16
519.79	50131.93
519.96	50153.00
520.14	50323.86
520.31	50478.33
520.48	50679.62
520.65	50756.86
520.83	50899.63
521.00	50939.42
521.17	50747.50
521.34	51014.32
521.52	51026.02
521.69	51412.21
521.86	51454.34
522.03	51288.16
522.20	51646.26
522.38	51875.63
522.55	51484.76
522.72	51484.76
522.89	51559.66
523.07	51620.52
523.24	51852.23
523.41	51812.44
523.58	51707.12
523.75	52034.79
523.92	51964.57
524.10	52252.46
524.27	52184.58
524.44	52526.30
524.61	52287.57
524.78	52512.26
524.96	52392.89
525.13	52425.66
525.30	52811.85
525.47	52736.95
525.64	52559.07
525.81	53006.11
525.98	53017.82
526.16	52832.91
526.33	52978.03
526.50	53151.23
526.67	53010.79
526.84	53137.18
527.01	53088.03
527.18	53006.11
527.36	53176.97
527.53	53329.11
527.70	53574.86
527.87	53701.25
528.04	53439.11
528.21	53478.90
528.38	53581.88
528.55	53860.41
528.72	53237.83
528.89	53476.56
529.07	53710.61
529.24	53645.08
529.41	53776.15
529.58	53975.09
529.75	53820.62
529.92	54197.44
530.09	54024.25
530.26	54262.98
530.43	54316.81
530.60	54033.61
530.77	53757.42
530.94	54028.93
531.11	54244.26
531.28	54525.12
531.46	54279.36
531.63	54490.01
531.80	54712.36
531.97	54660.87
532.14	54665.55
532.31	54686.62
532.48	54817.69
532.65	55065.78
532.82	54611.72
532.99	54759.17
533.16	54822.37
533.33	55098.55
533.50	55201.53
533.67	55257.71
533.84	55203.88
534.01	55124.30
534.18	55180.47
534.35	55320.90
534.52	55339.63
534.69	55690.71
534.86	55667.30
535.03	55442.61
535.20	55166.43
535.37	55231.96
535.54	55585.38
535.71	55449.63
535.88	55564.32
536.05	55814.76
536.22	55531.55
536.38	55671.98
536.55	55711.77
536.72	55959.87
536.89	55870.93
537.06	55922.42
537.23	56086.26
537.40	55894.33
537.57	55934.12
537.74	56212.65
537.91	56100.30
538.08	56245.41
538.25	55737.52
538.42	56030.08
538.59	56266.48
538.75	56158.81
538.92	56119.02
539.09	56222.01
539.26	56233.71
539.43	56191.58
539.60	56339.04
539.77	56392.87
539.94	56645.65
540.11	56523.94
540.28	56488.83
540.44	56647.99
540.61	56545.00
540.78	56601.18
540.95	56470.11
541.12	56535.64
541.29	56549.68
541.46	56622.24
541.62	56889.06
541.79	56692.46
541.96	56591.81
542.13	56821.19
542.30	56947.57
542.47	57134.82
542.63	57006.09
542.80	56926.51
542.97	57258.87
543.14	57214.40
543.31	57237.80
543.48	57464.83
543.64	57558.45
543.81	57556.11
543.98	57429.72
544.15	57394.62
544.32	57577.18
544.48	57776.12
544.65	57640.37
544.82	57584.20
544.99	57364.19
545.16	57689.52
545.32	57443.77
545.49	57670.80
545.66	57757.40
545.83	58085.07
546.00	57813.57
546.16	57951.66
546.33	57911.88
546.50	57808.89
546.67	57946.98
546.83	57876.77
547.00	57886.13
547.17	57951.66
547.34	58052.31
547.50	57986.77
547.67	58447.86
547.84	58071.03
548.00	58328.49
548.17	58375.30
548.34	58401.05
548.51	58405.73
548.67	58553.18
548.84	58267.64
549.01	58337.85
549.18	58262.96
549.34	58312.11
549.51	58651.48
549.68	58646.80
549.84	58749.79
550.01	58609.35
550.18	58375.30
550.34	58581.27
550.51	58667.87
550.68	58740.42
550.84	58333.17
551.01	58827.02
551.18	58754.47
551.34	58735.74
551.51	58782.55
551.68	58733.40
551.84	58782.55
552.01	58609.35
552.18	58948.73
552.34	58890.22
552.51	58829.37
552.68	58569.57
552.84	58855.11
553.01	59011.93
553.18	59178.10
553.34	58941.71
553.51	59042.35
553.67	58803.62
553.84	59124.27
554.01	58981.50
554.17	59105.55
554.34	59077.46
554.51	59030.65
554.67	59131.29
554.84	59267.05
555.00	59306.83
555.17	59250.66
555.33	59229.60
555.50	58974.48
555.67	59367.69
555.83	59047.04
556.00	59203.85
556.16	59695.36
556.33	59419.18
556.50	59473.01
556.66	59578.34
556.83	59456.63
556.99	59538.55
557.16	59707.07
557.32	59585.36
557.49	59732.81
557.65	59536.21
557.82	59552.59
557.98	59393.43
558.15	59634.51
558.32	59641.53
558.48	59346.62
558.65	59524.50
558.81	59686.00
558.98	59519.82
559.14	59842.82
559.31	59798.35
559.47	59931.76
559.64	59941.12
559.80	59980.91
559.97	59908.35
560.13	59819.41
560.30	59859.20
560.46	59784.30
560.63	59997.29
560.79	59955.16
560.96	60116.66
561.12	60083.89
561.29	60102.62
561.45	59966.87
561.61	59990.27
561.78	59882.61
561.94	59927.08
562.11	59983.25
562.27	60226.66
562.44	60048.78
562.60	60322.63
562.77	60140.07
562.93	59896.65
563.10	60135.38
563.26	60006.65
563.42	60470.08
563.59	60184.54
563.75	60076.87
563.92	60172.83
564.08	59957.50
564.24	60259.43
564.41	60348.37
564.57	60378.80
564.74	60245.39
564.90	60308.58
565.07	60259.43
565.23	60339.01
565.39	60409.23
565.56	60322.63
565.72	60449.02
565.88	60238.37
566.05	60458.38
566.21	60289.86
566.38	60537.96
566.54	60493.49
566.70	60397.52
566.87	60289.86
567.03	60378.80
567.19	60781.37
567.36	60619.88
567.52	60399.86
567.68	60573.06
567.85	60509.87
568.01	60537.96
568.17	60727.54
568.34	60570.72
568.50	60505.19
568.66	60331.99
568.83	60397.52
568.99	60423.27
569.15	60685.41
569.32	60594.13
569.48	60463.06
569.64	60734.56
569.81	60584.77
569.97	60523.91
570.13	60741.58
570.30	60591.79
570.46	60772.01
570.62	60814.14
570.78	60842.23
570.95	60563.70
571.11	60755.63
571.27	60486.46
571.43	60640.94
571.60	60842.23
571.76	60823.50
571.92	60795.42
572.09	60736.90
572.25	60669.03
572.41	60802.44
572.57	60977.98
572.74	60933.51
572.90	60865.63
573.06	60800.10
573.22	60851.59
573.38	60837.54
573.55	60734.56
573.71	60940.53
573.87	60582.43
574.03	60720.52
574.20	60772.01
574.36	60783.71
574.52	60816.48
574.68	60772.01
574.84	60924.14
575.01	61158.20
575.17	60725.20
575.33	60952.23
575.49	60860.95
575.65	61109.05
575.82	61010.74
575.98	60924.14
576.14	61261.18
576.30	61006.06
576.46	60823.50
576.62	60662.00
576.79	61052.87
576.95	60954.57
577.11	60982.66
577.27	61055.21
577.43	61176.92
577.59	60945.21
577.75	61045.85
577.92	60945.21
578.08	60933.51
578.24	60800.10
578.40	61167.56
578.56	61057.56
578.72	61027.13
578.88	61151.18
579.04	61181.60
579.21	61087.98
579.37	61165.22
579.53	61322.04
579.69	60853.93
579.85	61095.00
580.01	60975.64
580.17	60956.91
580.33	61141.81
580.49	61134.79
580.65	61123.09
580.82	60935.85
580.98	60900.74
581.14	60917.12
581.30	61268.20
581.46	60945.21
581.62	61066.92
581.78	61069.26
581.94	61251.82
582.10	61013.08
582.26	61265.86
582.42	61062.24
582.58	61123.09
582.74	61214.37
582.90	60942.87
583.06	61022.45
583.22	61031.81
583.38	61179.26
583.54	61050.53
583.70	61298.63
583.86	61172.24
584.02	60900.74
584.18	61022.45
584.34	60975.64
584.50	61073.94
584.66	61167.56
584.82	61104.37
584.98	61265.86
585.14	61293.95
585.30	61153.52
585.46	61200.33
585.62	61106.71
585.78	61399.27
585.94	61069.26
586.10	61064.58
586.26	61256.50
586.42	61464.81
586.58	61420.34
586.74	61324.38
586.90	61080.96
587.06	61087.98
587.22	61268.20
587.38	61258.84
587.54	61305.65
587.70	61162.88
587.86	61207.35
588.02	61338.42
588.18	61284.59
588.34	61272.88
588.49	61165.22
