SpectraSuite Data File
++++++++++++++++++++++++++++++++++++
Date: Fri Oct 25 11:34:00 EDT 2013
User: price-jones
Dark Spectrum Present: No
Reference Spectrum Present: No
Number of Sampled Component Spectra: 1
Spectrometers: USB2+H05261
Integration Time (usec): 100000 (USB2+H05261)
Spectra Averaged: 1 (USB2+H05261)
Boxcar Smoothing: 0 (USB2+H05261)
Correct for Electrical Dark: No (USB2+H05261)
Strobe/Lamp Enabled: No (USB2+H05261)
Correct for Detector Non-linearity: No (USB2+H05261)
Correct for Stray Light: No (USB2+H05261)
Number of Pixels in Processed Spectrum: 2048
>>>>>Begin Processed Spectral Data<<<<<
365.73	294.91
365.92	294.91
366.12	294.91
366.32	140.43
366.52	203.63
366.72	227.03
366.91	229.37
367.11	201.29
367.31	175.54
367.51	147.45
367.70	149.79
367.90	173.20
368.10	198.95
368.30	212.99
368.49	191.92
368.69	229.37
368.89	198.95
369.09	187.24
369.28	243.42
369.48	175.54
369.68	231.71
369.87	294.91
370.07	250.44
370.27	269.16
370.47	362.78
370.66	435.34
370.86	496.19
371.06	479.81
371.25	547.69
371.45	512.58
371.65	559.39
371.84	545.34
372.04	552.37
372.24	660.03
372.44	622.58
372.63	507.90
372.83	533.64
373.03	627.26
373.22	695.14
373.42	573.43
373.62	575.77
373.81	578.11
374.01	678.76
374.21	631.94
374.40	697.48
374.60	655.35
374.79	648.33
374.99	664.71
375.19	638.97
375.38	645.99
375.58	655.35
375.78	688.12
375.97	774.72
376.17	699.82
376.37	594.50
376.56	653.01
376.76	702.16
376.95	685.78
377.15	699.82
377.35	704.50
377.54	629.60
377.74	697.48
377.93	716.20
378.13	716.20
378.33	711.52
378.52	748.97
378.72	711.52
378.91	720.88
379.11	650.67
379.31	741.95
379.50	753.65
379.70	758.33
379.89	727.91
380.09	685.78
380.28	664.71
380.48	723.23
380.68	671.73
380.87	753.65
381.07	720.88
381.26	678.76
381.46	716.20
381.65	746.63
381.85	695.14
382.04	765.36
382.24	779.40
382.43	807.48
382.63	779.40
382.83	826.21
383.02	772.38
383.22	812.17
383.41	760.67
383.61	758.33
383.80	779.40
384.00	840.25
384.19	727.91
384.39	854.30
384.58	877.70
384.78	898.77
384.97	828.55
385.17	875.36
385.36	767.70
385.56	753.65
385.75	786.42
385.95	903.45
386.14	854.30
386.34	863.66
386.53	912.81
386.72	889.40
386.92	922.17
387.11	889.40
387.31	858.98
387.50	875.36
387.70	868.34
387.89	929.19
388.09	912.81
388.28	812.17
388.48	990.05
388.67	947.92
388.86	903.45
389.06	912.81
389.25	1032.18
389.45	933.87
389.64	924.51
389.84	952.60
390.03	915.15
390.22	950.26
390.42	945.58
390.61	950.26
390.81	929.19
391.00	894.08
391.19	1027.50
391.39	1008.77
391.58	1100.05
391.78	983.02
391.97	980.68
392.16	971.32
392.36	1064.94
392.55	1041.54
392.75	1125.80
392.94	1057.92
393.13	978.34
393.33	1039.20
393.52	1104.73
393.71	1111.75
393.91	1107.07
394.10	1001.75
394.29	1046.22
394.49	1060.26
394.68	1114.10
394.88	1163.25
395.07	1083.67
395.26	1064.94
395.46	1142.18
395.65	1165.59
395.84	1158.57
396.04	1256.87
396.23	1114.10
396.42	1235.80
396.62	1238.14
396.81	1139.84
397.00	1193.67
397.19	1261.55
397.39	1263.89
397.58	1252.19
397.77	1196.01
397.97	1320.06
398.16	1186.65
398.35	1263.89
398.55	1228.78
398.74	1366.87
398.93	1336.45
399.12	1373.89
399.32	1240.48
399.51	1277.93
399.70	1348.15
399.90	1249.85
400.09	1341.13
400.28	1411.34
400.47	1334.11
400.67	1273.25
400.86	1437.09
401.05	1315.38
401.24	1409.00
401.44	1455.81
401.63	1528.37
401.82	1540.07
402.01	1441.77
402.21	1425.39
402.40	1446.45
402.59	1345.81
402.78	1474.54
402.97	1570.50
403.17	1446.45
403.36	1572.84
403.55	1523.69
403.74	1551.78
403.93	1516.67
404.13	1607.95
404.32	1600.93
404.51	1542.41
404.70	1703.91
404.89	1579.86
405.09	1666.46
405.28	1647.74
405.47	1701.57
405.66	1696.89
405.85	1600.93
406.05	1633.69
406.24	1769.44
406.43	1818.60
406.62	1755.40
406.81	1746.04
407.00	1661.78
407.20	1689.87
407.39	1762.42
407.58	1804.55
407.77	1825.62
407.96	1884.13
408.15	1912.22
408.34	1865.41
408.54	1849.02
408.73	1902.86
408.92	1853.70
409.11	1952.01
409.30	1980.09
409.49	1874.77
409.68	1947.33
409.87	1898.17
410.07	2024.56
410.26	2031.58
410.45	1980.09
410.64	2029.24
410.83	2148.61
411.02	2155.63
411.21	2099.46
411.40	2150.95
411.59	2078.40
411.78	2157.97
411.98	2132.23
412.17	2249.25
412.36	2286.70
412.55	2303.09
412.74	2345.22
412.93	2275.00
413.12	2289.04
413.31	2354.58
413.50	2300.75
413.69	2286.70
413.88	2392.03
414.07	2495.01
414.26	2511.39
414.45	2457.56
414.64	2504.37
414.83	2553.52
415.02	2492.67
415.22	2590.97
415.41	2635.44
415.60	2614.38
415.79	2729.06
415.98	2715.02
416.17	2754.81
416.36	2708.00
416.55	2619.06
416.74	2726.72
416.93	2729.06
417.12	2801.62
417.31	2778.22
417.50	2836.73
417.69	3049.72
417.88	2895.24
418.07	2965.46
418.26	2883.54
418.45	2953.76
418.64	3098.87
418.83	2979.50
419.02	3110.57
419.21	3073.12
419.39	3073.12
419.58	2988.86
419.77	3119.93
419.96	3091.85
420.15	3227.60
420.34	3059.08
420.53	3201.85
420.72	3126.96
420.91	3166.74
421.10	3199.51
421.29	3206.53
421.48	3035.67
421.67	3178.45
421.86	3232.28
422.05	3208.87
422.24	3131.64
422.43	3321.22
422.61	3281.43
422.80	3290.79
422.99	3459.31
423.18	3555.27
423.37	3398.46
423.56	3344.63
423.75	3346.97
423.94	3286.11
424.13	3049.72
424.32	3229.94
424.50	3386.76
424.69	3501.44
424.88	3475.70
425.07	3389.10
425.26	3442.93
425.45	3487.40
425.64	3391.44
425.83	3459.31
426.01	3463.99
426.20	3330.58
426.39	3496.76
426.58	3452.29
426.77	3471.01
426.96	3541.23
427.15	3613.79
427.33	3609.11
427.52	3569.32
427.71	3606.77
427.90	3506.12
428.09	3597.40
428.28	3625.49
428.46	3672.30
428.65	3571.66
428.84	3866.56
429.03	3803.37
429.22	3527.19
429.40	3651.24
429.59	3611.45
429.78	3534.21
429.97	3571.66
430.16	3730.81
430.34	3751.88
430.53	3861.88
430.72	3941.46
430.91	3819.75
431.10	3620.81
431.28	3873.59
431.47	4007.00
431.66	3943.80
431.85	3932.10
432.03	3925.08
432.22	4035.08
432.41	3934.44
432.60	4051.47
432.79	4060.83
432.97	4100.62
433.16	4133.39
433.35	4095.94
433.54	4234.03
433.72	4175.52
433.91	4175.52
434.10	4121.68
434.28	4124.02
434.47	4269.14
434.66	4435.32
434.85	4269.14
435.03	4273.82
435.22	4234.03
435.41	4468.08
435.59	4353.40
435.78	4397.87
435.97	4379.14
436.16	4353.40
436.34	4423.61
436.53	4390.84
436.72	4386.16
436.90	4404.89
437.09	4484.47
437.28	4306.59
437.46	4542.98
437.65	4645.96
437.84	4594.47
438.02	4449.36
438.21	4601.49
438.40	4528.94
438.58	4699.80
438.77	4814.48
438.96	4648.30
439.14	4732.56
439.33	4840.23
439.52	4943.21
439.70	4795.76
439.89	4861.29
440.08	4947.89
440.26	4985.34
440.45	4952.57
440.63	4894.06
440.82	4954.91
441.01	5057.90
441.19	4973.64
441.38	5242.80
441.57	5193.65
441.75	5144.50
441.94	5331.74
442.12	5308.34
442.31	5369.19
442.50	5320.04
442.68	5359.83
442.87	5453.45
443.05	5441.75
443.24	5448.77
443.43	5565.79
443.61	5523.66
443.80	5586.86
443.98	5476.85
444.17	5331.74
444.35	5523.66
444.54	5575.16
444.73	5483.88
444.91	5476.85
445.10	5736.65
445.28	5568.13
445.47	5490.90
445.65	5767.08
445.84	5682.82
446.02	5774.10
446.21	5526.00
446.39	5465.15
446.58	5774.10
446.77	5636.01
446.95	5638.35
447.14	5727.29
447.32	5905.17
447.51	5678.14
447.69	5516.64
447.88	5554.09
448.06	5701.54
448.25	5511.96
448.43	5755.38
448.62	5682.82
448.80	5809.21
448.99	5851.34
449.17	5877.09
449.36	5771.76
449.54	5785.80
449.73	6005.81
449.91	6036.24
450.10	5916.87
450.28	6146.25
450.46	6193.06
450.65	5933.26
450.83	5996.45
451.02	6043.26
451.20	6118.16
451.39	6073.69
451.57	6115.82
451.76	5954.32
451.94	6108.80
452.13	6129.86
452.31	6300.72
452.49	6099.44
452.68	6186.04
452.86	6326.47
453.05	6221.14
453.23	6265.61
453.42	6228.17
453.60	6328.81
453.78	6228.17
453.97	6249.23
454.15	6387.32
454.34	6361.58
454.52	6574.56
454.70	6569.88
454.89	6574.56
455.07	6373.28
455.26	6532.44
455.44	6640.10
455.62	6600.31
455.81	6602.65
455.99	6579.25
456.17	6623.72
456.36	6745.42
456.54	6757.13
456.73	6806.28
456.91	6946.71
457.09	6860.11
457.28	7047.35
457.46	6857.77
457.64	6911.60
457.83	6988.84
458.01	6925.65
458.19	7045.01
458.38	7103.53
458.56	7009.90
458.74	7169.06
458.93	7178.42
459.11	7133.95
459.29	7208.85
459.48	7119.91
459.66	7227.57
459.84	7136.29
460.03	7201.83
460.21	7339.92
460.39	7267.36
460.57	7335.24
460.76	7365.67
460.94	7396.09
461.12	7517.80
461.31	7253.32
461.49	7578.65
461.67	7478.01
461.85	7522.48
462.04	7534.18
462.22	7899.31
462.40	7726.11
462.59	7583.34
462.77	7627.81
462.95	7911.01
463.13	7655.89
463.32	7616.10
463.50	7831.43
463.68	7784.62
463.86	7819.73
464.05	7712.07
464.23	7744.83
464.41	7885.26
464.59	7728.45
464.78	7936.76
464.96	7791.64
465.14	7969.52
465.32	7964.84
465.50	7974.21
465.69	8187.19
465.87	7871.22
466.05	8266.77
466.23	7999.95
466.41	8168.47
466.60	8297.20
466.78	8196.56
466.96	8091.23
467.14	8219.96
467.32	8140.38
467.51	8128.68
467.69	8051.44
467.87	8320.60
468.05	8374.44
468.23	8184.85
468.41	8266.77
468.60	8294.86
468.78	8332.31
468.96	8168.47
469.14	8432.95
469.32	8542.96
469.50	8369.76
469.69	8498.49
469.87	8564.02
470.05	8648.28
470.23	8549.98
470.41	8718.50
470.59	8854.25
470.77	8872.97
470.95	8652.96
471.14	8879.99
471.32	8769.99
471.50	8863.61
471.68	8947.87
471.86	8999.36
472.04	9135.11
472.22	9107.02
472.40	9020.42
472.58	9259.16
472.77	8971.27
472.95	9191.28
473.13	9458.10
473.31	9067.24
473.49	9242.78
473.67	9179.58
473.85	9291.93
474.03	9657.05
474.21	9610.24
474.39	9799.82
474.57	9621.94
474.75	9631.30
474.93	9781.10
475.12	9720.24
475.30	9797.48
475.48	9584.49
475.66	10120.48
475.84	10029.20
476.02	10370.91
476.20	10216.44
476.38	10256.23
476.56	10436.45
476.74	10410.70
476.92	10459.85
477.10	10293.68
477.28	10504.32
477.46	10703.27
477.64	10569.86
477.82	10881.15
478.00	10995.84
478.18	10998.18
478.36	11066.05
478.54	11152.65
478.72	11180.74
478.90	11424.15
479.08	11475.65
479.26	11721.40
479.44	11604.38
479.62	11550.54
479.80	11688.64
479.98	11857.15
480.16	12215.26
480.34	12004.61
480.52	12360.37
480.70	12074.82
480.88	12116.95
481.06	12070.14
481.24	12269.09
481.41	12582.72
481.59	12486.76
481.77	12652.94
481.95	12479.74
482.13	13139.77
482.31	12807.41
482.49	13163.17
482.67	13315.31
482.85	13439.36
483.03	13406.59
483.21	13481.49
483.39	13523.62
483.57	13296.58
483.74	13642.98
483.92	13797.46
484.10	13469.78
484.28	14113.43
484.46	14417.70
484.64	14588.56
484.82	14335.78
485.00	14338.12
485.18	14796.87
485.35	14663.46
485.53	14878.79
485.71	14895.17
485.89	15372.64
486.07	15044.96
486.25	15042.62
486.43	15222.84
486.61	15644.14
486.78	15363.28
486.96	15400.72
487.14	15840.75
487.32	15929.69
487.50	16091.18
487.68	16166.08
487.85	16629.51
488.03	16798.02
488.21	16695.04
488.39	16769.94
488.57	16926.75
488.75	16882.28
488.92	17343.37
489.10	17238.05
489.28	17312.94
489.46	17607.85
489.64	17467.42
489.81	18087.66
489.99	17907.44
490.17	17884.03
490.35	18087.66
490.53	18134.47
490.70	18225.75
490.88	18200.01
491.06	18504.28
491.24	18569.81
491.41	18888.12
491.59	18991.11
491.77	18801.52
491.95	19131.54
492.13	19194.73
492.30	19695.61
492.48	19552.84
492.66	19473.26
492.84	19733.06
493.01	20191.80
493.19	19929.66
493.37	20053.71
493.54	19868.81
493.72	20432.88
493.90	20365.00
494.08	20587.35
494.25	20669.27
494.43	20758.21
494.61	20826.09
494.79	21064.82
494.96	21118.65
495.14	21228.66
495.32	21481.44
495.49	21195.89
495.67	21535.27
495.85	21666.34
496.02	21881.67
496.20	22171.89
496.38	22022.10
496.55	22157.85
496.73	22487.87
496.91	22340.41
497.09	22534.68
497.26	22745.33
497.44	22581.49
497.62	22963.00
497.79	23005.13
497.97	23040.23
498.14	23021.51
498.32	23726.01
498.50	23473.23
498.67	23309.40
498.85	23618.35
499.03	23662.82
499.20	23894.53
499.38	24121.56
499.56	23761.12
499.73	23999.85
499.91	24346.25
500.08	24219.86
500.26	23929.64
500.44	24304.12
500.61	24177.73
500.79	24177.73
500.97	24428.17
501.14	25104.59
501.32	24896.28
501.49	24783.93
501.67	25242.68
501.84	24959.47
502.02	25025.01
502.20	25287.15
502.37	25238.00
502.55	25406.52
502.72	25509.50
502.90	25458.01
503.07	25221.61
503.25	25399.49
503.43	25799.73
503.60	25769.30
503.78	26005.69
503.95	26001.01
504.13	26522.95
504.30	26356.77
504.48	26192.94
504.65	26263.15
504.83	26656.36
505.01	26885.73
505.18	26796.79
505.36	27063.61
505.53	26684.45
505.71	26434.01
505.88	27056.59
506.06	26698.49
506.23	26995.74
506.41	27381.93
506.58	27234.47
506.76	27658.11
506.93	27805.56
507.11	27480.23
507.28	27850.03
507.46	27716.62
507.63	27601.94
507.81	28039.62
507.98	27892.16
508.16	28098.13
508.33	28458.57
508.50	28353.25
508.68	28519.43
508.85	28730.08
509.03	28610.71
509.20	28673.90
509.38	28952.43
509.55	28779.23
509.73	29153.71
509.90	29118.60
510.08	28751.14
510.25	29249.67
510.42	29032.00
510.60	29198.18
510.77	29450.96
510.95	29900.34
511.12	29373.72
511.30	29680.33
511.47	29802.04
511.64	29752.89
511.82	29804.38
511.99	29790.34
512.17	29944.81
512.34	30022.05
512.51	29940.13
512.69	30686.76
512.86	30195.25
513.04	30431.65
513.21	30466.75
513.38	30909.11
513.56	30574.42
513.73	30438.67
513.90	30483.14
514.08	30859.96
514.25	31204.02
514.43	31143.17
514.60	30806.13
514.77	31519.99
514.95	30696.13
515.12	31232.11
515.29	31400.63
515.47	31468.50
515.64	31702.56
515.81	31360.84
515.99	31613.62
516.16	32341.52
516.33	31470.84
516.51	32065.34
516.68	31747.03
516.85	31894.48
517.03	32503.02
517.20	31960.02
517.37	32264.28
517.54	32388.33
517.72	32369.61
517.89	31999.80
518.06	32381.31
518.24	32385.99
518.41	32645.79
518.58	32811.97
518.75	32472.59
518.93	32856.44
519.10	32725.37
519.27	33118.58
519.45	33242.63
519.62	33240.29
519.79	33441.57
519.96	33350.29
520.14	33214.54
520.31	33282.42
520.48	33701.37
520.65	33797.34
520.83	34015.01
521.00	33816.06
521.17	34071.18
521.34	34260.76
521.52	34082.88
521.69	34183.52
521.86	34384.81
522.03	34448.00
522.20	34469.07
522.38	34548.65
522.55	34679.72
522.72	34485.45
522.89	34504.18
523.07	34405.88
523.24	34815.47
523.41	34576.73
523.58	34195.23
523.75	34869.30
523.92	35222.72
524.10	34897.39
524.27	34960.58
524.44	34946.54
524.61	35346.77
524.78	35187.61
524.96	35550.40
525.13	35798.49
525.30	35672.10
525.47	35632.32
525.64	35648.70
525.81	35681.47
525.98	35981.06
526.16	35985.74
526.33	35620.61
526.50	35871.05
526.67	35847.64
526.84	36304.05
527.01	35749.34
527.18	36304.05
527.36	36435.12
527.53	36290.01
527.70	36627.04
527.87	36903.23
528.04	36212.77
528.21	36964.08
528.38	36804.92
528.55	36685.56
528.72	36992.17
528.89	36919.61
529.07	36608.32
529.24	36655.13
529.41	36938.33
529.58	36755.77
529.75	36739.39
529.92	37106.85
530.09	37249.63
530.26	37366.65
530.43	37144.30
530.60	36935.99
530.77	36816.63
530.94	37390.06
531.11	37226.22
531.28	37230.90
531.46	37422.83
531.63	37904.98
531.80	37539.85
531.97	37897.95
532.14	37722.41
532.31	37610.07
532.48	37827.74
532.65	38375.42
532.82	38433.94
532.99	38054.77
533.16	37729.44
533.33	38047.75
533.50	38040.73
533.67	38174.14
533.84	38188.18
534.01	38490.11
534.18	38096.90
534.35	38693.74
534.52	38539.26
534.69	38913.75
534.86	38981.62
535.03	38670.33
535.20	38541.60
535.37	38986.30
535.54	39239.08
535.71	38815.44
535.88	39185.25
536.05	39098.65
536.22	39239.08
536.38	38939.49
536.55	39175.89
536.72	39164.18
536.89	39117.37
537.06	39431.01
537.23	39096.31
537.40	39407.60
537.57	39672.08
537.74	39407.60
537.91	40098.06
538.08	39234.40
538.25	39351.43
538.42	39442.71
538.59	39833.58
538.75	39700.17
538.92	39852.30
539.09	40343.81
539.26	40081.67
539.43	40327.43
539.60	39669.74
539.77	39826.56
539.94	40446.80
540.11	40194.02
540.28	40669.15
540.44	40355.52
540.61	39969.33
540.78	40032.52
540.95	40329.77
541.12	40250.19
541.29	40116.78
541.46	40704.26
541.62	40362.54
541.79	40715.96
541.96	40311.05
542.13	40514.67
542.30	40706.60
542.47	40437.44
542.63	40793.20
542.80	41069.38
542.97	41670.90
543.14	40966.40
543.31	40868.09
543.48	40947.67
543.64	41469.61
543.81	41336.20
543.98	41273.01
544.15	41600.68
544.32	41642.81
544.48	41762.18
544.65	41460.25
544.82	41698.98
544.99	41839.42
545.16	41497.70
545.32	41607.70
545.49	41729.41
545.66	41734.09
545.83	42080.49
546.00	42148.37
546.16	41748.14
546.33	42101.56
546.50	41457.91
546.67	42153.05
546.83	41659.20
547.00	41729.41
547.17	42328.59
547.34	42052.41
547.50	42183.48
547.67	42487.74
547.84	42436.25
548.00	43112.67
548.17	42799.04
548.34	42588.39
548.51	42787.33
548.67	42567.32
548.84	42473.70
549.01	42803.72
549.18	42630.52
549.34	42752.23
549.51	42693.71
549.68	42850.53
549.84	43164.16
550.01	42780.31
550.18	42714.78
550.34	42939.47
550.51	43494.18
550.68	43456.73
550.84	42782.65
551.01	43576.09
551.18	43290.55
551.34	43000.32
551.51	43058.84
551.68	43164.16
551.84	42911.38
552.01	43227.35
552.18	43606.52
552.34	43068.20
552.51	43732.91
552.68	43189.91
552.84	43306.93
553.01	43927.17
553.18	43358.42
553.34	43662.69
553.51	43533.96
553.67	43529.28
553.84	43889.73
554.01	44002.07
554.17	43524.60
554.34	43728.23
554.51	43468.43
554.67	43988.03
554.84	44367.20
555.00	44135.48
555.17	43800.79
555.33	44257.19
555.50	44081.65
555.67	44130.80
555.83	44418.69
556.00	43915.47
556.16	44889.13
556.33	44177.61
556.50	44098.03
556.66	44577.84
556.83	44659.76
556.99	43988.03
557.16	44985.10
557.32	44615.29
557.49	44215.06
557.65	44364.85
557.82	44392.94
557.98	44690.19
558.15	44500.61
558.32	44587.21
558.48	44247.83
558.65	44472.52
558.81	44594.23
558.98	44580.18
559.14	44701.89
559.31	44524.01
559.47	44781.47
559.64	44591.89
559.80	45099.78
559.97	44720.62
560.13	44341.45
560.30	44608.27
560.46	45130.21
560.63	45034.25
560.79	45151.27
560.96	45310.43
561.12	44825.94
561.29	44687.85
561.45	44748.70
561.61	45207.45
561.78	45251.92
561.94	44748.70
562.11	44985.10
562.27	44952.33
562.44	45123.19
562.60	45153.62
562.77	45359.58
562.93	45310.43
563.10	45525.76
563.26	45387.67
563.42	45743.43
563.59	45350.22
563.75	45034.25
563.92	44994.46
564.08	45319.79
564.24	44917.22
564.41	45277.66
564.57	45911.95
564.74	45148.93
564.90	45057.65
565.07	45457.88
565.23	45399.37
565.39	45755.13
565.56	45738.75
565.72	45205.11
565.88	45476.61
566.05	45787.90
566.21	45846.41
566.38	45153.62
566.54	45614.70
566.70	45532.78
566.87	45539.80
567.03	45167.66
567.19	46115.58
567.36	45537.46
567.52	46000.89
567.68	45865.14
567.85	45830.03
568.01	45701.30
568.17	45364.26
568.34	45928.33
568.50	46293.46
568.66	45673.21
568.83	45776.20
568.99	45965.78
569.15	46206.86
569.32	46225.58
569.48	45947.06
569.64	46312.18
569.81	46164.73
569.97	45963.44
570.13	46122.60
570.30	45717.68
570.46	46267.71
570.62	45605.34
570.78	45869.82
570.95	45783.22
571.11	46162.39
571.27	46260.69
571.43	45790.24
571.60	46337.93
571.76	46024.29
571.92	46120.26
572.09	45888.54
572.25	46045.36
572.41	45860.46
572.57	46340.27
572.74	47063.49
572.90	46071.10
573.06	46349.63
573.22	46209.20
573.38	46394.10
573.55	46241.96
573.71	46440.91
573.87	46445.59
574.03	46389.42
574.20	46511.13
574.36	46410.48
574.52	46218.56
574.68	46073.45
574.84	46284.09
575.01	46356.65
575.17	46223.24
575.33	46335.59
575.49	46674.96
575.65	46597.73
575.82	46251.33
575.98	46328.56
576.14	46663.26
576.30	46717.09
576.46	46740.50
576.62	46113.23
576.79	46138.98
576.95	46040.68
577.11	46066.42
577.27	46270.05
577.43	46518.15
577.59	46307.50
577.75	46117.92
577.92	46054.72
578.08	46258.35
578.24	46602.41
578.40	46791.99
578.56	46366.01
578.72	46543.89
578.88	46546.23
579.04	46401.12
579.21	46562.62
579.37	46513.47
579.53	46707.73
579.69	46693.69
579.85	46183.45
580.01	46377.72
580.17	46314.52
580.33	46873.91
580.49	46490.06
580.65	46843.48
580.82	46653.90
580.98	45965.78
581.14	46199.83
581.30	46972.21
581.46	46490.06
581.62	46375.37
581.78	46916.04
581.94	46649.22
582.10	46288.77
582.26	46756.88
582.42	46412.82
582.58	47093.92
582.74	46681.98
582.90	46497.08
583.06	47168.82
583.22	46445.59
583.38	46265.37
583.54	46988.60
583.70	46834.12
583.86	46408.14
584.02	46670.28
584.18	47042.43
584.34	46604.75
584.50	46899.65
584.66	46649.22
584.82	46754.54
584.98	47253.08
585.14	47004.98
585.30	46681.98
585.46	46679.64
585.62	46719.43
585.78	46560.28
585.94	46136.64
586.10	46759.22
586.26	46747.52
586.42	46925.40
586.58	47114.98
586.74	46951.15
586.90	46492.40
587.06	46782.63
587.22	46979.23
587.38	46387.08
587.54	47072.85
587.70	46806.03
587.86	46869.23
588.02	46234.94
588.18	46724.11
588.34	46602.41
588.49	46981.57
588.65	46705.39
588.81	47100.94
588.97	46740.50
589.13	46536.87
589.29	47061.15
589.45	47168.82
589.61	47049.45
589.77	46714.75
589.93	47082.22
590.08	47173.50
