SpectraSuite Data File
++++++++++++++++++++++++++++++++++++
Date: Fri Oct 25 11:33:18 EDT 2013
User: price-jones
Dark Spectrum Present: No
Reference Spectrum Present: No
Number of Sampled Component Spectra: 1
Spectrometers: USB2+H05261
Integration Time (usec): 100000 (USB2+H05261)
Spectra Averaged: 1 (USB2+H05261)
Boxcar Smoothing: 0 (USB2+H05261)
Correct for Electrical Dark: No (USB2+H05261)
Strobe/Lamp Enabled: No (USB2+H05261)
Correct for Detector Non-linearity: No (USB2+H05261)
Correct for Stray Light: No (USB2+H05261)
Number of Pixels in Processed Spectrum: 2048
>>>>>Begin Processed Spectral Data<<<<<
365.73	269.16
365.92	269.16
366.12	269.16
366.32	180.22
366.52	149.79
366.72	184.90
366.91	156.82
367.11	152.13
367.31	124.05
367.51	161.50
367.70	119.37
367.90	112.35
368.10	194.26
368.30	119.37
368.49	198.95
368.69	208.31
368.89	133.41
369.09	205.97
369.28	212.99
369.48	131.07
369.68	191.92
369.87	229.37
370.07	145.11
370.27	308.95
370.47	306.61
370.66	423.64
370.86	512.58
371.06	641.31
371.25	531.30
371.45	538.32
371.65	594.50
371.84	554.71
372.04	503.22
372.24	620.24
372.44	580.45
372.63	540.66
372.83	608.54
373.03	568.75
373.22	615.56
373.42	681.10
373.62	620.24
373.81	685.78
374.01	552.37
374.21	620.24
374.40	662.37
374.60	615.56
374.79	608.54
374.99	671.73
375.19	624.92
375.38	681.10
375.58	627.26
375.78	674.07
375.97	545.34
376.17	711.52
376.37	650.67
376.56	692.80
376.76	629.60
376.95	758.33
377.15	655.35
377.35	615.56
377.54	704.50
377.74	641.31
377.93	692.80
378.13	690.46
378.33	753.65
378.52	758.33
378.72	753.65
378.91	697.48
379.11	695.14
379.31	734.93
379.50	741.95
379.70	697.48
379.89	739.61
380.09	678.76
380.28	713.86
380.48	676.41
380.68	809.83
380.87	718.54
381.07	758.33
381.26	744.29
381.46	770.04
381.65	723.23
381.85	713.86
382.04	809.83
382.24	760.67
382.43	732.59
382.63	798.12
382.83	777.06
383.02	798.12
383.22	807.48
383.41	814.51
383.61	854.30
383.80	851.96
384.00	805.14
384.19	800.46
384.39	798.12
384.58	870.68
384.78	763.01
384.97	905.79
385.17	800.46
385.36	891.74
385.56	863.66
385.75	830.89
385.95	854.30
386.14	908.13
386.34	851.96
386.53	863.66
386.72	891.74
386.92	910.47
387.11	901.11
387.31	837.91
387.50	870.68
387.70	912.81
387.89	875.36
388.09	861.32
388.28	833.23
388.48	875.36
388.67	940.90
388.86	870.68
389.06	987.71
389.25	950.26
389.45	915.15
389.64	933.87
389.84	910.47
390.03	922.17
390.22	971.32
390.42	1004.09
390.61	947.92
390.81	968.98
391.00	947.92
391.19	968.98
391.39	1064.94
391.58	954.94
391.78	1004.09
391.97	1015.79
392.16	1034.52
392.36	1022.81
392.55	1020.47
392.75	1062.60
392.94	1050.90
393.13	1032.18
393.33	1081.33
393.52	1074.31
393.71	1100.05
393.91	1153.88
394.10	1036.86
394.29	1163.25
394.49	1097.71
394.68	1104.73
394.88	1142.18
395.07	1111.75
395.26	1205.38
395.46	1142.18
395.65	1055.58
395.84	1174.95
396.04	1142.18
396.23	1144.52
396.42	1170.27
396.62	1200.69
396.81	1170.27
397.00	1221.76
397.19	1137.50
397.39	1146.86
397.58	1268.57
397.77	1228.78
397.97	1376.24
398.16	1277.93
398.35	1336.45
398.55	1261.55
398.74	1345.81
398.93	1341.13
399.12	1245.16
399.32	1273.25
399.51	1303.68
399.70	1362.19
399.90	1362.19
400.09	1291.98
400.28	1378.58
400.47	1345.81
400.67	1479.22
400.86	1495.60
401.05	1439.43
401.24	1507.30
401.44	1500.28
401.63	1455.81
401.82	1519.01
402.01	1451.13
402.21	1511.99
402.40	1519.01
402.59	1502.62
402.78	1519.01
402.97	1481.56
403.17	1659.44
403.36	1598.59
403.55	1533.05
403.74	1586.88
403.93	1633.69
404.13	1526.03
404.32	1570.50
404.51	1673.48
404.70	1694.55
404.89	1682.85
405.09	1640.72
405.28	1631.35
405.47	1612.63
405.66	1673.48
405.85	1757.74
406.05	1727.32
406.24	1736.68
406.43	1760.08
406.62	1813.92
406.81	1984.77
407.00	1870.09
407.20	1734.34
407.39	1879.45
407.58	1778.81
407.77	1940.30
407.96	1886.47
408.15	1966.05
408.34	1818.60
408.54	2038.61
408.73	1879.45
408.92	1886.47
409.11	1954.35
409.30	1900.52
409.49	1921.58
409.68	2062.01
409.87	2059.67
410.07	2066.69
410.26	1994.14
410.45	2071.37
410.64	2122.87
410.83	2176.70
411.02	2174.36
411.21	2195.42
411.40	2197.76
411.59	2157.97
411.78	2136.91
411.98	2153.29
412.17	2223.51
412.36	2293.72
412.55	2312.45
412.74	2373.30
412.93	2448.20
413.12	2370.96
413.31	2445.86
413.50	2406.07
413.69	2495.01
413.88	2558.21
414.07	2574.59
414.26	2530.12
414.45	2574.59
414.64	2558.21
414.83	2530.12
415.02	2569.91
415.22	2593.31
415.41	2567.57
415.60	2684.59
415.79	2764.17
415.98	2806.30
416.17	2696.30
416.36	2766.51
416.55	2801.62
416.74	2801.62
416.93	2743.11
417.12	2904.60
417.31	2869.50
417.50	2799.28
417.69	2874.18
417.88	3030.99
418.07	2918.65
418.26	2911.63
418.45	2935.03
418.64	3199.51
418.83	3096.53
419.02	2935.03
419.21	3084.83
419.39	3183.13
419.58	3061.42
419.77	2991.20
419.96	3133.98
420.15	3204.19
420.34	3204.19
420.53	3290.79
420.72	3248.66
420.91	3307.18
421.10	3232.28
421.29	3288.45
421.48	3206.53
421.67	3283.77
421.86	3309.52
422.05	3279.09
422.24	3276.75
422.43	3258.03
422.61	3325.90
422.80	3499.10
422.99	3480.38
423.18	3513.14
423.37	3342.28
423.56	3412.50
423.75	3433.57
423.94	3379.73
424.13	3173.77
424.32	3311.86
424.50	3426.54
424.69	3609.11
424.88	3637.19
425.07	3405.48
425.26	3424.20
425.45	3459.31
425.64	3456.97
425.83	3414.84
426.01	3524.85
426.20	3515.48
426.39	3356.33
426.58	3475.70
426.77	3522.51
426.96	3536.55
427.15	3517.83
427.33	3662.94
427.52	3534.21
427.71	3768.26
427.90	3641.87
428.09	3651.24
428.28	3768.26
428.46	3777.62
428.65	3705.07
428.84	3695.71
429.03	3882.95
429.22	3911.04
429.40	3922.74
429.59	3726.13
429.78	3588.04
429.97	3702.73
430.16	3726.13
430.34	3847.84
430.53	3957.85
430.72	3936.78
430.91	3866.56
431.10	3904.01
431.28	3974.23
431.47	4058.49
431.66	3918.06
431.85	3955.51
432.03	4102.96
432.22	4156.79
432.41	3997.64
432.60	4037.42
432.79	4030.40
432.97	4229.35
433.16	4077.21
433.35	4058.49
433.54	4241.05
433.72	4269.14
433.91	4297.22
434.10	4234.03
434.28	4212.96
434.47	4163.81
434.66	4311.27
434.85	4381.48
435.03	4353.40
435.22	4337.01
435.41	4451.70
435.59	4447.02
435.78	4390.84
435.97	4638.94
436.16	4472.76
436.34	4465.74
436.53	4423.61
436.72	4519.57
436.90	4500.85
437.09	4554.68
437.28	4564.04
437.46	4601.49
437.65	4606.17
437.84	4622.56
438.02	4575.75
438.21	4770.01
438.40	4610.86
438.58	4788.74
438.77	4854.27
438.96	4716.18
439.14	4870.65
439.33	4947.89
439.52	4959.60
439.70	4926.83
439.89	5027.47
440.08	4945.55
440.26	5170.24
440.45	4992.36
440.63	5212.37
440.82	5032.15
441.01	4994.70
441.19	5203.01
441.38	5181.95
441.57	5172.58
441.75	5221.74
441.94	5465.15
442.12	5327.06
442.31	5453.45
442.50	5488.56
442.68	5460.47
442.87	5458.13
443.05	5685.16
443.24	5596.22
443.43	5488.56
443.61	5556.43
443.80	5849.00
443.98	5533.03
444.17	5418.34
444.35	5504.94
444.54	5682.82
444.73	5568.13
444.91	5760.06
445.10	5671.12
445.28	5514.30
445.47	5610.26
445.65	5654.73
445.84	5657.07
446.02	5753.04
446.21	5827.93
446.39	5839.64
446.58	5844.32
446.77	5650.05
446.95	5612.60
447.14	5750.70
447.32	5881.77
447.51	5818.57
447.69	5767.08
447.88	5914.53
448.06	5818.57
448.25	5729.63
448.43	5895.81
448.62	5893.47
448.80	5947.30
448.99	5858.36
449.17	5921.56
449.36	5844.32
449.54	6134.54
449.73	5921.56
449.91	6038.58
450.10	6069.01
450.28	6176.67
450.46	6207.10
450.65	6122.84
450.83	5970.71
451.02	6190.72
451.20	6169.65
451.39	6207.10
451.57	6253.91
451.76	6104.12
451.94	6080.71
452.13	6459.88
452.31	6399.02
452.49	6356.90
452.68	6333.49
452.86	6389.66
453.05	6436.47
453.23	6420.09
453.42	6300.72
453.60	6368.60
453.78	6541.80
453.97	6389.66
454.15	6431.79
454.34	6464.56
454.52	6743.08
454.70	6806.28
454.89	6651.80
455.07	6771.17
455.26	6693.93
455.44	6576.91
455.62	6876.49
455.81	6792.23
455.99	6794.58
456.17	6703.29
456.36	6977.14
456.54	6939.69
456.73	6953.73
456.91	7169.06
457.09	7150.34
457.28	7194.81
457.46	6918.62
457.64	7227.57
457.83	7185.44
458.01	7023.95
458.19	7150.34
458.38	7082.46
458.56	7173.74
458.74	7157.36
458.93	7283.75
459.11	7262.68
459.29	7227.57
459.48	7332.90
459.66	7407.80
459.84	7363.33
460.03	7442.90
460.21	7531.84
460.39	7337.58
460.57	7531.84
460.76	7510.78
460.94	7707.38
461.12	7377.37
461.31	7534.18
461.49	7585.68
461.67	7478.01
461.85	7695.68
462.04	7630.15
462.22	7950.80
462.40	7702.70
462.59	7686.32
462.77	7801.01
462.95	7784.62
463.13	7967.18
463.32	7789.30
463.50	7939.10
463.68	8049.10
463.86	8175.49
464.05	7791.64
464.23	7953.14
464.41	8088.89
464.59	8002.29
464.78	8341.67
464.96	8109.96
465.14	8032.72
465.32	8058.46
465.50	8322.94
465.69	8135.70
465.87	8187.19
466.05	8107.62
466.23	8184.85
466.41	8397.84
466.60	8514.87
466.78	8245.71
466.96	8229.32
467.14	8381.46
467.32	8397.84
467.51	8259.75
467.69	8212.94
467.87	8414.23
468.05	8664.66
468.23	8306.56
468.41	8418.91
468.60	8344.01
468.78	8566.36
468.96	8496.14
469.14	8491.46
469.32	8812.12
469.50	8425.93
469.69	8713.81
469.87	8884.67
470.05	8809.78
470.23	9020.42
470.41	8812.12
470.59	8870.63
470.77	8819.14
470.95	8915.10
471.14	8999.36
471.32	8779.35
471.50	9263.84
471.68	8889.35
471.86	9076.60
472.04	9226.39
472.22	9474.49
472.40	9280.22
472.58	9198.31
472.77	9521.30
472.95	9638.33
473.13	9643.01
473.31	9352.78
473.49	9446.40
473.67	9420.66
473.85	9715.56
474.03	9657.05
474.21	9792.80
474.39	9947.28
474.57	9949.62
474.75	9884.08
474.93	10022.17
475.12	10122.82
475.30	10064.30
475.48	10415.38
475.66	10246.87
475.84	10115.80
476.02	10356.87
476.20	10251.55
476.38	10614.33
476.56	10619.01
476.74	10693.91
476.92	10501.98
477.10	10750.08
477.28	10700.93
477.46	10878.81
477.64	10654.12
477.82	10986.47
478.00	11300.11
478.18	11316.49
478.36	11372.66
478.54	11625.44
478.72	11293.08
478.90	11749.49
479.08	11665.23
479.26	11742.47
479.44	11812.68
479.62	11847.79
479.80	11910.99
479.98	12025.67
480.16	12327.60
480.34	12205.89
480.52	12407.18
480.70	12273.77
480.88	12210.57
481.06	12477.40
481.24	12554.63
481.41	12800.39
481.59	12863.58
481.77	12709.11
481.95	13104.66
482.13	13048.49
482.31	13172.54
482.49	13118.70
482.67	13598.51
482.85	13535.32
483.03	13572.77
483.21	13795.12
483.39	13827.88
483.57	13586.81
483.74	14153.22
483.92	14019.81
484.10	14029.17
484.28	14476.21
484.46	14534.73
484.64	14754.74
484.82	14508.98
485.00	14647.07
485.18	15115.18
485.35	15370.30
485.53	15215.82
485.71	15269.66
485.89	15824.36
486.07	15604.35
486.25	15777.55
486.43	15810.32
486.61	15768.19
486.78	16011.60
486.96	15903.94
487.14	16201.19
487.32	16126.29
487.50	16367.37
487.68	16369.71
487.85	16692.70
488.03	17123.36
488.21	17121.02
488.39	17064.85
488.57	17343.37
488.75	17444.01
488.92	17645.30
489.10	17738.92
489.28	17645.30
489.46	17944.89
489.64	17790.41
489.81	18328.74
489.99	18167.24
490.17	18066.60
490.35	18504.28
490.53	18743.01
490.70	18953.66
490.88	18810.89
491.06	19002.81
491.24	19103.45
491.41	19094.09
491.59	19398.36
491.77	19669.86
491.95	19775.19
492.13	19639.44
492.30	19510.71
492.48	19882.85
492.66	19845.40
492.84	20039.67
493.01	20231.59
493.19	20313.51
493.37	20421.17
493.54	20388.41
493.72	21158.44
493.90	20884.60
494.08	20800.34
494.25	21305.90
494.43	21338.66
494.61	21319.94
494.79	21348.03
494.96	21621.87
495.14	21610.17
495.32	21769.32
495.49	22089.98
495.67	21996.35
495.85	22253.81
496.02	22176.58
496.20	22544.04
496.38	22192.96
496.55	22548.72
496.73	22927.89
496.91	22579.15
497.09	22991.08
497.26	23021.51
497.44	22944.27
497.62	22998.10
497.79	23882.83
497.97	23403.02
498.14	24030.28
498.32	23880.49
498.50	23821.97
498.67	24044.32
498.85	23964.75
499.03	24060.71
499.20	24407.11
499.38	24325.19
499.56	24355.61
499.73	24470.30
499.91	24704.35
500.08	24645.84
500.26	24699.67
500.44	25008.62
500.61	24851.81
500.79	24762.87
500.97	25296.51
501.14	25565.67
501.32	25755.26
501.49	25385.45
501.67	25394.81
501.84	25802.07
502.02	25631.21
502.20	25895.69
502.37	26073.57
502.55	25823.13
502.72	26167.19
502.90	26080.59
503.07	26092.29
503.25	26363.79
503.43	26195.28
503.60	26738.28
503.78	26426.99
503.95	26647.00
504.13	26899.78
504.30	26827.22
504.48	27080.00
504.65	27023.83
504.83	27037.87
505.01	27442.78
505.18	27220.43
505.36	27569.17
505.53	27824.29
505.71	27391.29
505.88	27761.09
506.06	27679.18
506.23	27700.24
506.41	27557.47
506.58	27765.78
506.76	28371.97
506.93	28287.71
507.11	28411.76
507.28	28346.23
507.46	28512.41
507.63	28163.67
507.81	28936.04
507.98	28580.28
508.16	28746.46
508.33	28811.99
508.50	29376.06
508.68	28943.06
508.85	29090.52
509.03	28716.03
509.20	28800.29
509.38	29514.16
509.55	29078.82
509.73	29832.47
509.90	29610.12
510.08	29998.65
510.25	29577.35
510.42	29991.62
510.60	30382.49
510.77	30202.27
510.95	30651.66
511.12	30389.52
511.30	29909.71
511.47	30661.02
511.64	30394.20
511.82	30675.06
511.99	30700.81
512.17	30721.87
512.34	30459.73
512.51	30972.31
512.69	31461.48
512.86	31302.32
513.04	31365.52
513.21	31267.22
513.38	31440.42
513.56	31543.40
513.73	31386.58
513.90	31089.34
514.08	31136.15
514.25	32114.49
514.43	31864.05
514.60	31630.00
514.77	31676.81
514.95	31988.10
515.12	31866.39
515.29	32210.45
515.47	32044.27
515.64	32088.74
515.81	32292.37
515.99	32329.82
516.16	32877.51
516.33	32842.40
516.51	32919.63
516.68	32648.13
516.85	32804.95
517.03	32783.88
517.20	32905.59
517.37	32591.96
517.54	32884.53
517.72	32870.48
517.89	33060.07
518.06	32994.53
518.24	33305.82
518.41	33141.99
518.58	33586.69
518.75	33273.06
518.93	33755.21
519.10	33266.03
519.27	34143.74
519.45	33769.25
519.62	34059.48
519.79	34075.86
519.96	34125.01
520.14	33956.49
520.31	34064.16
520.48	34099.26
520.65	34466.73
520.83	34792.06
521.00	34653.97
521.17	34511.20
521.34	34675.04
521.52	34679.72
521.69	34335.66
521.86	34799.08
522.03	35108.04
522.20	35274.21
522.38	35161.87
522.55	35608.91
522.72	35206.34
522.89	35154.85
523.07	35566.78
523.24	35805.52
523.41	35782.11
523.58	35330.39
523.75	35576.14
523.92	35838.28
524.10	35828.92
524.27	36390.65
524.44	35868.71
524.61	36013.82
524.78	36430.44
524.96	36282.98
525.13	36203.41
525.30	36116.81
525.47	36472.57
525.64	36304.05
525.81	36804.92
525.98	36821.31
526.16	36325.11
526.33	36208.09
526.50	36711.30
526.67	36828.33
526.84	37181.75
527.01	37081.11
527.18	37015.57
527.36	36994.51
527.53	36870.46
527.70	37567.94
527.87	37359.63
528.04	37317.50
528.21	37209.84
528.38	37429.85
528.55	37649.86
528.72	37699.01
528.89	37699.01
529.07	37670.92
529.24	37549.21
529.41	37663.90
529.58	37593.68
529.75	37846.46
529.92	37713.05
530.09	37626.45
530.26	37902.64
530.43	38632.88
530.60	38274.78
530.77	38176.48
530.94	38328.61
531.11	37794.97
531.28	38230.31
531.46	38232.65
531.63	38581.39
531.80	38323.93
531.97	38632.88
532.14	38508.83
532.31	38553.30
532.48	38925.45
532.65	39021.41
532.82	38546.28
532.99	39220.36
533.16	38740.55
533.33	38899.70
533.50	38885.66
533.67	38967.58
533.84	38635.22
534.01	39264.83
534.18	39138.44
534.35	39770.38
534.52	39316.32
534.69	39452.07
534.86	39728.25
535.03	39512.92
535.20	39732.93
535.37	39966.99
535.54	39847.62
535.71	39655.70
535.88	39777.40
536.05	39988.05
536.22	39826.56
536.38	40025.50
536.55	39838.26
536.72	39966.99
536.89	39892.09
537.06	39838.26
537.23	40542.76
537.40	40020.82
537.57	39849.96
537.74	40128.48
537.91	40177.64
538.08	40456.16
538.25	40130.83
538.42	40444.46
538.59	40870.43
538.75	40201.04
538.92	40634.04
539.09	40797.88
539.26	40694.89
539.43	40783.83
539.60	40854.05
539.77	40844.69
539.94	41008.53
540.11	40690.21
540.28	41097.47
540.44	41092.79
540.61	41291.73
540.78	40844.69
540.95	41294.07
541.12	41291.73
541.29	41439.18
541.46	41357.27
541.62	40966.40
541.79	41537.49
541.96	41415.78
542.13	41532.81
542.30	41326.84
542.47	41511.74
542.63	41579.62
542.80	41827.71
542.97	42155.39
543.14	42136.66
543.31	41708.35
543.48	41930.70
543.64	42686.69
543.81	42485.40
543.98	42295.82
544.15	42302.84
544.32	42808.40
544.48	42803.72
544.65	42747.54
544.82	42857.55
544.99	42185.82
545.16	42770.95
545.32	42696.05
545.49	42583.71
545.66	43159.48
545.83	42813.08
546.00	42962.87
546.16	42850.53
546.33	42920.74
546.50	42515.83
546.67	43154.80
546.83	42574.34
547.00	42962.87
547.17	42820.10
547.34	42873.93
547.50	43536.30
547.67	43262.46
547.84	43290.55
548.00	43267.14
548.17	43985.69
548.34	43325.66
548.51	43934.20
548.67	43732.91
548.84	43510.56
549.01	43456.73
549.18	43456.73
549.34	43627.59
549.51	44341.45
549.68	43674.40
549.84	43707.16
550.01	44020.80
550.18	43428.64
550.34	43564.39
550.51	43658.01
550.68	44072.29
550.84	43632.27
551.01	44362.51
551.18	43669.72
551.34	44168.25
551.51	44676.15
551.68	44002.07
551.84	44203.36
552.01	44224.42
552.18	44425.71
552.34	44254.85
552.51	44198.68
552.68	43990.37
552.84	44091.01
553.01	44346.13
553.18	44514.65
553.34	44622.31
553.51	44318.04
553.67	44680.83
553.84	45022.54
554.01	44509.97
554.17	44847.00
554.34	44734.66
554.51	44788.49
554.67	44893.82
554.84	44823.60
555.00	45357.24
555.17	44987.44
555.33	44851.69
555.50	44449.11
555.67	45078.72
555.83	44744.02
556.00	45263.62
556.16	45574.91
556.33	45102.12
556.50	45268.30
556.66	45050.63
556.83	44844.66
556.99	45509.38
557.16	45862.80
557.32	45265.96
557.49	45427.46
557.65	45244.90
557.82	45052.97
557.98	45340.86
558.15	45261.28
558.32	45659.17
558.48	45340.86
558.65	45684.92
558.81	45549.17
558.98	45764.49
559.14	45104.46
559.31	45591.30
559.47	45401.71
559.64	45797.26
559.80	45708.32
559.97	45661.51
560.13	45394.69
560.30	45577.25
560.46	46267.71
560.63	45759.81
560.79	46024.29
560.96	46316.86
561.12	46021.95
561.29	45858.12
561.45	46087.49
561.61	45705.98
561.78	45256.60
561.94	46143.66
562.11	46181.11
562.27	45792.58
562.44	45745.77
562.60	46211.54
562.77	46316.86
562.93	46080.47
563.10	46590.70
563.26	46120.26
563.42	46670.28
563.59	46164.73
563.75	46361.33
563.92	46202.18
564.08	46213.88
564.24	46396.44
564.41	46279.41
564.57	46295.80
564.74	46560.28
564.90	46653.90
565.07	46068.76
565.23	46396.44
565.39	46347.29
565.56	46174.09
565.72	46593.04
565.88	46518.15
566.05	46586.02
566.21	46431.55
566.38	46684.33
566.54	46962.85
566.70	46623.47
566.87	46356.65
567.03	46581.34
567.19	46457.29
567.36	46681.98
567.52	46387.08
567.68	47004.98
567.85	46979.23
568.01	46586.02
568.17	46707.73
568.34	46623.47
568.50	46862.21
568.66	46698.37
568.83	47260.10
568.99	46789.65
569.15	46909.02
569.32	46651.56
569.48	46569.64
569.64	47009.66
569.81	46775.61
569.97	47304.57
570.13	46948.81
570.30	46761.56
570.46	46972.21
570.62	47023.70
570.78	47168.82
570.95	47019.02
571.11	47182.86
571.27	46735.82
571.43	46822.42
571.60	46813.05
571.76	46997.96
571.92	47423.93
572.09	47075.19
572.25	46810.71
572.41	46944.12
572.57	47208.61
572.74	47054.13
572.90	46777.95
573.06	47370.10
573.22	47056.47
573.38	47119.66
573.55	47547.98
573.71	47938.85
573.87	47430.96
574.03	47290.52
574.20	47098.60
574.36	47295.21
574.52	47512.88
574.68	47194.56
574.84	47372.44
575.01	47604.16
575.17	47299.89
575.33	47597.13
575.49	47089.24
575.65	47510.53
575.82	47477.77
575.98	47129.03
576.14	47505.85
576.30	47543.30
576.46	47117.32
576.62	47299.89
576.79	47313.93
576.95	47012.00
577.11	46782.63
577.27	47103.28
577.43	47831.19
577.59	47306.91
577.75	47470.75
577.92	46834.12
578.08	46976.89
578.24	47255.42
578.40	47309.25
578.56	47353.72
578.72	47185.20
578.88	47274.14
579.04	47655.65
579.21	47334.99
579.37	47477.77
579.53	47208.61
579.69	47320.95
579.85	47311.59
580.01	47374.78
580.17	47510.53
580.33	47700.12
580.49	47700.12
580.65	47430.96
580.82	47430.96
580.98	47435.64
581.14	47370.10
581.30	47550.32
581.46	47395.85
581.62	47281.16
581.78	47384.15
581.94	47480.11
582.10	47590.11
582.26	47475.43
582.42	47765.65
582.58	47573.73
582.74	47437.98
582.90	47739.91
583.06	47391.17
583.22	47540.96
583.38	47569.05
583.54	47519.90
583.70	47817.14
583.86	47730.54
584.02	47608.84
584.18	47892.04
584.34	47611.18
584.50	47880.34
584.66	47821.83
584.82	48011.41
584.98	47777.36
585.14	47758.63
585.30	47271.80
585.46	47524.58
585.62	47625.22
585.78	47716.50
585.94	47131.37
586.10	47522.24
586.26	47627.56
586.42	47224.99
586.58	47793.74
586.74	47384.15
586.90	47648.63
587.06	47594.79
587.22	47798.42
587.38	47840.55
587.54	47723.52
587.70	48100.35
587.86	47746.93
588.02	47842.89
588.18	47550.32
588.34	47763.31
588.49	47585.43
588.65	47672.03
588.81	48032.47
588.97	47863.96
589.13	47885.02
589.29	48048.86
589.45	48355.47
589.61	48193.97
589.77	47847.57
589.93	48041.84
