SpectraSuite Data File
++++++++++++++++++++++++++++++++++++
Date: Fri Oct 25 11:34:32 EDT 2013
User: price-jones
Dark Spectrum Present: No
Reference Spectrum Present: No
Number of Sampled Component Spectra: 1
Spectrometers: USB2+H05261
Integration Time (usec): 100000 (USB2+H05261)
Spectra Averaged: 1 (USB2+H05261)
Boxcar Smoothing: 0 (USB2+H05261)
Correct for Electrical Dark: No (USB2+H05261)
Strobe/Lamp Enabled: No (USB2+H05261)
Correct for Detector Non-linearity: No (USB2+H05261)
Correct for Stray Light: No (USB2+H05261)
Number of Pixels in Processed Spectrum: 2048
>>>>>Begin Processed Spectral Data<<<<<
365.73	259.80
365.92	259.80
366.12	259.80
366.32	212.99
366.52	231.71
366.72	264.48
366.91	189.58
367.11	177.88
367.31	159.16
367.51	126.39
367.70	159.16
367.90	152.13
368.10	117.03
368.30	145.11
368.49	133.41
368.69	166.18
368.89	234.05
369.09	175.54
369.28	177.88
369.48	168.52
369.68	266.82
369.87	201.29
370.07	205.97
370.27	243.42
370.47	311.29
370.66	531.30
370.86	475.13
371.06	526.62
371.25	592.16
371.45	496.19
371.65	512.58
371.84	521.94
372.04	554.71
372.24	535.98
372.44	580.45
372.63	517.26
372.83	585.13
373.03	566.41
373.22	543.00
373.42	587.47
373.62	596.84
373.81	641.31
374.01	685.78
374.21	645.99
374.40	655.35
374.60	608.54
374.79	681.10
374.99	620.24
375.19	653.01
375.38	613.22
375.58	634.29
375.78	758.33
375.97	641.31
376.17	627.26
376.37	615.56
376.56	713.86
376.76	716.20
376.95	653.01
377.15	767.70
377.35	678.76
377.54	643.65
377.74	662.37
377.93	650.67
378.13	622.58
378.33	664.71
378.52	688.12
378.72	676.41
378.91	704.50
379.11	713.86
379.31	739.61
379.50	713.86
379.70	704.50
379.89	763.01
380.09	716.20
380.28	748.97
380.48	716.20
380.68	706.84
380.87	727.91
381.07	704.50
381.26	755.99
381.46	753.65
381.65	774.72
381.85	784.08
382.04	793.44
382.24	763.01
382.43	727.91
382.63	748.97
382.83	816.85
383.02	788.76
383.22	826.21
383.41	723.23
383.61	835.57
383.80	887.06
384.00	833.23
384.19	763.01
384.39	819.19
384.58	777.06
384.78	805.14
384.97	854.30
385.17	849.61
385.36	713.86
385.56	713.86
385.75	858.98
385.95	851.96
386.14	821.53
386.34	835.57
386.53	760.67
386.72	833.23
386.92	847.27
387.11	875.36
387.31	882.38
387.50	851.96
387.70	833.23
387.89	828.55
388.09	896.43
388.28	868.34
388.48	858.98
388.67	990.05
388.86	861.32
389.06	844.93
389.25	919.83
389.45	940.90
389.64	889.40
389.84	854.30
390.03	922.17
390.22	959.62
390.42	961.96
390.61	894.08
390.81	973.66
391.00	840.25
391.19	973.66
391.39	877.70
391.58	992.39
391.78	957.28
391.97	873.02
392.16	966.64
392.36	1013.45
392.55	1125.80
392.75	1013.45
392.94	1032.18
393.13	1034.52
393.33	1029.84
393.52	1062.60
393.71	1086.01
393.91	1074.31
394.10	1100.05
394.29	1128.14
394.49	1121.12
394.68	1121.12
394.88	1132.82
395.07	1128.14
395.26	1158.57
395.46	1078.99
395.65	1170.27
395.84	1081.33
396.04	1123.46
396.23	1132.82
396.42	1203.04
396.62	1158.57
396.81	1226.44
397.00	1207.72
397.19	1245.16
397.39	1125.80
397.58	1238.14
397.77	1221.76
397.97	1158.57
398.16	1181.97
398.35	1235.80
398.55	1280.27
398.74	1245.16
398.93	1268.57
399.12	1221.76
399.32	1146.86
399.51	1315.38
399.70	1409.00
399.90	1364.53
400.09	1193.67
400.28	1348.15
400.47	1385.60
400.67	1350.49
400.86	1355.17
401.05	1329.42
401.24	1453.47
401.44	1406.66
401.63	1394.96
401.82	1406.66
402.01	1453.47
402.21	1432.41
402.40	1401.98
402.59	1490.92
402.78	1490.92
402.97	1453.47
403.17	1439.43
403.36	1397.30
403.55	1430.07
403.74	1490.92
403.93	1554.12
404.13	1547.09
404.32	1535.39
404.51	1582.20
404.70	1584.54
404.89	1586.88
405.09	1607.95
405.28	1661.78
405.47	1596.25
405.66	1638.38
405.85	1696.89
406.05	1535.39
406.24	1600.93
406.43	1757.74
406.62	1724.97
406.81	1696.89
407.00	1722.63
407.20	1701.57
407.39	1713.27
407.58	1825.62
407.77	1785.83
407.96	1863.07
408.15	1710.93
408.34	1785.83
408.54	1893.49
408.73	1809.23
408.92	1842.00
409.11	1895.83
409.30	1853.70
409.49	1902.86
409.68	1956.69
409.87	1987.11
410.07	2031.58
410.26	2134.57
410.45	1991.80
410.64	1959.03
410.83	2005.84
411.02	1984.77
411.21	2150.95
411.40	2143.93
411.59	2204.78
411.78	2087.76
411.98	2083.08
412.17	2122.87
412.36	2022.22
412.55	2263.30
412.74	2223.51
412.93	2218.83
413.12	2190.74
413.31	2347.56
413.50	2333.51
413.69	2354.58
413.88	2363.94
414.07	2305.43
414.26	2392.03
414.45	2443.52
414.64	2436.50
414.83	2457.56
415.02	2555.86
415.22	2511.39
415.41	2698.64
415.60	2583.95
415.79	2621.40
415.98	2621.40
416.17	2640.12
416.36	2588.63
416.55	2626.08
416.74	2729.06
416.93	2633.10
417.12	2635.44
417.31	2700.98
417.50	2710.34
417.69	2820.35
417.88	2841.41
418.07	2792.26
418.26	3005.25
418.45	2902.26
418.64	2967.80
418.83	2869.50
419.02	3019.29
419.21	2913.97
419.39	2995.89
419.58	3035.67
419.77	2970.14
419.96	2977.16
420.15	3110.57
420.34	2916.31
420.53	3080.14
420.72	3105.89
420.91	3136.32
421.10	3124.62
421.29	3197.17
421.48	2965.46
421.67	3096.53
421.86	3131.64
422.05	3126.96
422.24	3133.98
422.43	3178.45
422.61	3218.24
422.80	3267.39
422.99	3176.11
423.18	3229.94
423.37	3227.60
423.56	3236.96
423.75	3236.96
423.94	3220.58
424.13	3157.38
424.32	3276.75
424.50	3302.50
424.69	3368.03
424.88	3339.94
425.07	3302.50
425.26	3243.98
425.45	3267.39
425.64	3241.64
425.83	3318.88
426.01	3400.80
426.20	3335.26
426.39	3344.63
426.58	3246.32
426.77	3318.88
426.96	3337.60
427.15	3344.63
427.33	3435.91
427.52	3431.23
427.71	3346.97
427.90	3393.78
428.09	3552.93
428.28	3541.23
428.46	3555.27
428.65	3417.18
428.84	3616.13
429.03	3726.13
429.22	3478.04
429.40	3662.94
429.59	3695.71
429.78	3438.25
429.97	3438.25
430.16	3571.66
430.34	3613.79
430.53	3810.39
430.72	3733.15
430.91	3637.19
431.10	3707.41
431.28	3749.54
431.47	3873.59
431.66	3768.26
431.85	3754.22
432.03	3960.19
432.22	4018.70
432.41	3861.88
432.60	3859.54
432.79	3763.58
432.97	3927.42
433.16	3950.82
433.35	3904.01
433.54	3976.57
433.72	3999.98
433.91	4168.49
434.10	3911.04
434.28	4112.32
434.47	4107.64
434.66	4131.05
434.85	4091.26
435.03	4168.49
435.22	4243.39
435.41	4245.73
435.59	4201.26
435.78	4257.43
435.97	4245.73
436.16	4074.87
436.34	4280.84
436.53	4189.56
436.72	4463.40
436.90	4257.43
437.09	4292.54
437.28	4079.55
437.46	4234.03
437.65	4472.76
437.84	4339.35
438.02	4327.65
438.21	4535.96
438.40	4390.84
438.58	4531.28
438.77	4524.26
438.96	4526.60
439.14	4573.41
439.33	4711.50
439.52	4538.30
439.70	4746.61
439.89	4821.50
440.08	4706.82
440.26	4767.67
440.45	4830.87
440.63	4856.61
440.82	4856.61
441.01	4908.10
441.19	4983.00
441.38	5055.56
441.57	4983.00
441.75	5013.43
441.94	5298.97
442.12	5032.15
442.31	5135.14
442.50	5130.45
442.68	5156.20
442.87	5060.24
443.05	5252.16
443.24	5439.40
443.43	5228.76
443.61	5399.62
443.80	5439.40
443.98	5226.42
444.17	5067.26
444.35	5320.04
444.54	5392.59
444.73	5322.38
444.91	5376.21
445.10	5418.34
445.28	5418.34
445.47	5280.25
445.65	5397.28
445.84	5526.00
446.02	5390.25
446.21	5533.03
446.39	5441.75
446.58	5476.85
446.77	5481.53
446.95	5502.60
447.14	5439.40
447.32	5624.31
447.51	5558.77
447.69	5495.58
447.88	5535.37
448.06	5502.60
448.25	5650.05
448.43	5455.79
448.62	5582.18
448.80	5535.37
448.99	5565.79
449.17	5640.69
449.36	5687.50
449.54	5724.95
449.73	5643.03
449.91	5706.23
450.10	5731.97
450.28	5783.46
450.46	5891.13
450.65	5643.03
450.83	5879.43
451.02	5909.85
451.20	5959.00
451.39	5853.68
451.57	6015.18
451.76	5898.15
451.94	5891.13
452.13	6015.18
452.31	6015.18
452.49	5886.45
452.68	6115.82
452.86	5818.57
453.05	6066.67
453.23	5907.51
453.42	5991.77
453.60	6047.94
453.78	6069.01
453.97	6050.28
454.15	6120.50
454.34	6223.48
454.52	6251.57
454.70	6277.32
454.89	6209.44
455.07	6303.06
455.26	6265.61
455.44	6342.85
455.62	6307.74
455.81	6431.79
455.99	6469.24
456.17	6560.52
456.36	6237.53
456.54	6630.74
456.73	6691.59
456.91	6684.57
457.09	6686.91
457.28	6832.02
457.46	6649.46
457.64	6736.06
457.83	6698.61
458.01	6541.80
458.19	6888.20
458.38	6885.86
458.56	6935.01
458.74	6780.53
458.93	6806.28
459.11	6923.30
459.29	6967.77
459.48	6916.28
459.66	7082.46
459.84	6963.09
460.03	6897.56
460.21	7075.44
460.39	7126.93
460.57	7136.29
460.76	7080.12
460.94	7082.46
461.12	7129.27
461.31	7225.23
461.49	7166.72
461.67	7131.61
461.85	7201.83
462.04	7363.33
462.22	7620.78
462.40	7412.48
462.59	7311.83
462.77	7412.48
462.95	7639.51
463.13	7318.86
463.32	7449.93
463.50	7499.08
463.68	7506.10
463.86	7669.94
464.05	7463.97
464.23	7646.53
464.41	7506.10
464.59	7520.14
464.78	7676.96
464.96	7597.38
465.14	7620.78
465.32	7578.65
465.50	7726.11
465.69	7763.56
465.87	7744.83
466.05	7805.69
466.23	7882.92
466.41	7735.47
466.60	7964.84
466.78	7779.94
466.96	7819.73
467.14	7868.88
467.32	7925.05
467.51	8032.72
467.69	7667.60
467.87	8009.31
468.05	8124.00
468.23	7983.57
468.41	7868.88
468.60	8025.70
468.78	8170.81
468.96	8102.93
469.14	7962.50
469.32	8292.52
469.50	8032.72
469.69	8222.30
469.87	8252.73
470.05	8245.71
470.23	8311.24
470.41	8285.50
470.59	8360.39
470.77	8360.39
470.95	8397.84
471.14	8678.71
471.32	8503.17
471.50	8636.58
471.68	8500.83
471.86	8667.00
472.04	8648.28
472.22	8922.12
472.40	8819.14
472.58	8706.79
472.77	8788.71
472.95	9006.38
473.13	9123.41
473.31	8901.06
473.49	9092.98
473.67	8999.36
473.85	9008.72
474.03	9200.65
474.21	9296.61
474.39	9418.32
474.57	9427.68
474.75	9387.89
474.93	9518.96
475.12	9383.21
475.30	9572.79
475.48	9490.87
475.66	9900.47
475.84	9844.29
476.02	9645.35
476.20	9586.83
476.38	9811.53
476.56	10017.49
476.74	10057.28
476.92	9935.57
477.10	9987.07
477.28	10139.20
477.46	10188.35
477.64	10401.34
477.82	10183.67
478.00	10565.18
478.18	10616.67
478.36	10696.25
478.54	10885.83
478.72	10846.04
478.90	11000.52
479.08	10857.75
479.26	11077.76
479.44	11133.93
479.62	11094.14
479.80	11276.70
479.98	11417.13
480.16	11798.64
480.34	11688.64
480.52	11768.21
480.70	11763.53
480.88	11740.13
481.06	11690.98
481.24	11831.41
481.41	11864.18
481.59	12273.77
481.77	12355.69
481.95	12131.00
482.13	12257.39
482.31	12456.33
482.49	12463.35
482.67	12699.75
482.85	12788.69
483.03	12863.58
483.21	13029.76
483.39	13261.48
483.57	13167.85
483.74	13149.13
483.92	13474.46
484.10	13060.19
484.28	13544.68
484.46	13678.09
484.64	14068.96
484.82	13891.08
485.00	13898.10
485.18	14083.00
485.35	14420.04
485.53	14281.95
485.71	14420.04
485.89	14682.18
486.07	14670.48
486.25	14441.11
486.43	14707.93
486.61	14714.95
486.78	14888.15
486.96	15152.63
487.14	15435.83
487.32	15377.32
487.50	15424.13
487.68	15693.29
487.85	15793.94
488.03	15714.36
488.21	15967.13
488.39	16252.68
488.57	16381.41
488.75	16322.90
488.92	16622.48
489.10	16830.79
489.28	16566.31
489.46	16996.97
489.64	16886.97
489.81	17345.71
489.99	17336.35
490.17	17231.02
490.35	17415.93
490.53	17216.98
490.70	17905.10
490.88	17806.80
491.06	17970.63
491.24	18008.08
491.41	18326.39
491.59	18302.99
491.77	18157.88
491.95	18370.86
492.13	18686.84
492.30	18515.98
492.48	18944.30
492.66	19023.87
492.84	18654.07
493.01	19215.80
493.19	19129.20
493.37	19166.65
493.54	19442.83
493.72	19709.65
493.90	19721.35
494.08	19611.35
494.25	19695.61
494.43	20079.46
494.61	19838.38
494.79	20435.22
494.96	20641.18
495.14	20428.20
495.32	20720.76
495.49	20540.54
495.67	20470.33
495.85	20922.05
496.02	20929.07
496.20	21158.44
496.38	21441.65
496.55	21504.84
496.73	21619.53
496.91	21661.66
497.09	21888.69
497.26	21785.71
497.44	21935.50
497.62	21940.18
497.79	22352.12
497.97	22300.62
498.14	22324.03
498.32	22497.23
498.50	22700.86
498.67	22799.16
498.85	22932.57
499.03	22970.02
499.20	22834.27
499.38	22864.69
499.56	23187.69
499.73	23323.44
499.91	23250.88
500.08	23424.08
500.26	23623.03
500.44	23332.80
500.61	23599.62
500.79	23484.94
500.97	23679.20
501.14	24393.06
501.32	23845.38
501.49	23920.28
501.67	24156.67
501.84	24229.23
502.02	24231.57
502.20	24222.20
502.37	24341.57
502.55	24437.53
502.72	24678.61
502.90	24854.15
503.07	24746.48
503.25	25099.90
503.43	25046.07
503.60	25067.14
503.78	25476.73
503.95	25322.26
504.13	25682.70
504.30	25200.55
504.48	25287.15
504.65	25401.83
504.83	25921.43
505.01	25944.84
505.18	25663.97
505.36	25696.74
505.53	25544.61
505.71	25963.56
505.88	26188.25
506.06	25844.20
506.23	26295.92
506.41	26319.32
506.58	26546.36
506.76	26221.02
506.93	26813.18
507.11	26689.13
507.28	26843.60
507.46	27255.54
507.63	27061.27
507.81	27159.58
507.98	26979.36
508.16	26707.85
508.33	27314.05
508.50	27239.15
508.68	27419.38
508.85	27489.59
509.03	27686.20
509.20	27880.46
509.38	28297.08
509.55	27728.33
509.73	27889.82
509.90	28074.73
510.08	27934.29
510.25	28009.19
510.42	28137.92
510.60	28091.11
510.77	28283.03
510.95	28652.84
511.12	28449.21
511.30	28587.30
511.47	28641.14
511.64	28404.74
511.82	28884.55
511.99	28514.75
512.17	29186.48
512.34	28737.10
512.51	29050.73
512.69	29486.07
512.86	29385.43
513.04	29823.11
513.21	29553.94
513.38	29415.85
513.56	29771.61
513.73	29340.96
513.90	29912.05
514.08	29998.65
514.25	29921.41
514.43	30052.48
514.60	29874.60
514.77	29823.11
514.95	30354.41
515.12	29855.87
515.29	29972.90
515.47	30162.48
515.64	30576.76
515.81	30176.53
515.99	30993.37
516.16	31040.18
516.33	30597.82
516.51	31213.38
516.68	30778.04
516.85	30604.84
517.03	31084.65
517.20	31133.81
517.37	31136.15
517.54	31049.55
517.72	31381.90
517.89	31180.62
518.06	31627.66
518.24	31512.97
518.41	31442.76
518.58	31370.20
518.75	31599.57
518.93	31927.25
519.10	31330.41
519.27	31929.59
519.45	31990.44
519.62	32018.53
519.79	31962.36
519.96	32107.47
520.14	32102.79
520.31	31880.44
520.48	32271.31
520.65	32402.38
520.83	32793.25
521.00	32809.63
521.17	32589.62
521.34	32903.25
521.52	33039.00
521.69	33029.64
521.86	33071.77
522.03	33055.39
522.20	33228.59
522.38	33474.34
522.55	33277.74
522.72	33263.69
522.89	33500.09
523.07	33170.07
523.24	33748.18
523.41	33497.75
523.58	33130.28
523.75	34052.45
523.92	33401.79
524.10	33769.25
524.27	34192.89
524.44	34029.05
524.61	33729.46
524.78	34010.32
524.96	34225.65
525.13	34213.95
525.30	34429.28
525.47	34628.23
525.64	34679.72
525.81	34628.23
525.98	34660.99
526.16	34199.91
526.33	34532.26
526.50	34724.19
526.67	34574.39
526.84	34726.53
527.01	34726.53
527.18	35019.10
527.36	35101.01
527.53	35065.91
527.70	34939.52
527.87	35379.54
528.04	34979.31
528.21	35091.65
528.38	35260.17
528.55	35517.63
528.72	35557.42
528.89	35459.12
529.07	35384.22
529.24	35402.94
529.41	35700.19
529.58	35817.22
529.75	35573.80
529.92	35959.99
530.09	35983.40
530.26	35625.29
530.43	35992.76
530.60	35503.59
530.77	35758.70
530.94	35936.59
531.11	35775.09
531.28	36275.96
531.46	36315.75
531.63	36215.11
531.80	36280.64
531.97	36416.40
532.14	36105.10
532.31	36278.30
532.48	36730.03
532.65	36680.88
532.82	36767.48
532.99	36643.43
533.16	36367.24
533.33	36751.09
533.50	36992.17
533.67	36584.91
533.84	36858.76
534.01	36971.10
534.18	36833.01
534.35	37418.14
534.52	37584.32
534.69	37212.18
534.86	37303.46
535.03	37179.41
535.20	37439.21
535.37	37670.92
535.54	37897.95
535.71	37801.99
535.88	37832.42
536.05	37490.70
536.22	38185.84
536.38	37804.33
536.55	37830.08
536.72	37986.89
536.89	37682.62
537.06	37736.46
537.23	38237.33
537.40	37703.69
537.57	37794.97
537.74	37951.79
537.91	38176.48
538.08	38412.87
538.25	37958.81
538.42	38167.12
538.59	38555.64
538.75	38483.09
538.92	38653.95
539.09	38679.69
539.26	38471.39
539.43	38443.30
539.60	38705.44
539.77	38490.11
539.94	38686.71
540.11	38380.10
540.28	38925.45
540.44	38455.00
540.61	39309.30
540.78	39082.27
540.95	38918.43
541.12	38848.21
541.29	38288.82
541.46	38684.37
541.62	39302.28
541.79	39271.85
541.96	39196.95
542.13	39180.57
542.30	39412.28
542.47	39253.12
542.63	39274.19
542.80	39751.66
542.97	39566.76
543.14	39725.91
543.31	39636.97
543.48	39658.04
543.64	40203.38
543.81	40091.04
543.98	39871.03
544.15	40484.25
544.32	40273.60
544.48	40299.34
544.65	40411.69
544.82	40390.62
544.99	40175.30
545.16	39945.92
545.32	40137.85
545.49	40657.45
545.66	40531.06
545.83	40631.70
546.00	40315.73
546.16	40425.73
546.33	40648.08
546.50	40421.05
546.67	40659.79
546.83	40325.09
547.00	40484.25
547.17	40748.73
547.34	40816.60
547.50	41071.72
547.67	41642.81
547.84	40678.51
548.00	41120.87
548.17	41415.78
548.34	40847.03
548.51	41347.90
548.67	41202.79
548.84	41486.00
549.01	41067.04
549.18	41106.83
549.34	41375.99
549.51	41296.41
549.68	41179.39
549.84	41123.21
550.01	41715.37
550.18	41008.53
550.34	41851.12
550.51	41247.26
550.68	41689.62
550.84	41495.36
551.01	42017.30
551.18	41415.78
551.34	41457.91
551.51	41825.37
551.68	41839.42
551.84	41450.89
552.01	41933.04
552.18	41799.63
552.34	41347.90
552.51	42536.90
552.68	41909.63
552.84	41961.12
553.01	41965.81
553.18	41741.11
553.34	41860.48
553.51	41848.78
553.67	42710.10
553.84	42258.37
554.01	42298.16
554.17	42534.56
554.34	42997.98
554.51	42548.60
554.67	42609.45
554.84	42850.53
555.00	42646.90
555.17	42188.16
555.33	42649.24
555.50	42560.30
555.67	42347.31
555.83	42719.46
556.00	42670.31
556.16	43100.97
556.33	42511.15
556.50	42651.58
556.66	42520.51
556.83	43147.78
556.99	43105.65
557.16	42965.21
557.32	43103.31
557.49	43274.16
557.65	42916.06
557.82	43178.20
557.98	43192.25
558.15	43299.91
558.32	42983.94
558.48	43051.81
558.65	43009.68
558.81	42902.02
558.98	43084.58
559.14	43260.12
559.31	43180.54
559.47	43285.87
559.64	43349.06
559.80	42909.04
559.97	43269.48
560.13	43583.12
560.30	43105.65
560.46	43672.06
560.63	43540.99
560.79	43419.28
560.96	43805.47
561.12	43728.23
561.29	43660.35
561.45	43555.03
561.61	43622.90
561.78	43732.91
561.94	43620.56
562.11	43564.39
562.27	43772.70
562.44	43721.21
562.60	43613.54
562.77	43608.86
562.93	43887.39
563.10	43828.87
563.26	43491.83
563.42	44685.51
563.59	43737.59
563.75	43613.54
563.92	43512.90
564.08	43901.43
564.24	44051.22
564.41	43840.57
564.57	43945.90
564.74	43950.58
564.90	43765.68
565.07	44046.54
565.23	44076.97
565.39	43548.01
565.56	43908.45
565.72	43964.62
565.88	43810.15
566.05	44154.21
566.21	44264.21
566.38	44484.22
566.54	44563.80
566.70	44460.82
566.87	44416.35
567.03	44016.11
567.19	43929.51
567.36	44231.44
567.52	43854.62
567.68	44570.82
567.85	44800.19
568.01	44839.98
568.17	43824.19
568.34	44149.53
568.50	44215.06
568.66	44002.07
568.83	44201.02
568.99	44184.63
569.15	44823.60
569.32	44243.15
569.48	44360.17
569.64	44844.66
569.81	44542.74
569.97	43957.60
570.13	44505.29
570.30	44179.95
570.46	44854.03
570.62	44577.84
570.78	44566.14
570.95	44416.35
571.11	45294.05
571.27	44594.23
571.43	44776.79
571.60	44648.06
571.76	44591.89
571.92	44406.98
572.09	44545.08
572.25	44371.88
572.41	44502.95
572.57	44238.47
572.74	44889.13
572.90	44568.48
573.06	44804.88
573.22	44823.60
573.38	44921.90
573.55	44788.49
573.71	44935.95
573.87	44547.42
574.03	44390.60
574.20	45254.26
574.36	44987.44
574.52	44858.71
574.68	44643.38
574.84	45123.19
575.01	44729.98
575.17	44961.69
575.33	44615.29
575.49	44687.85
575.65	44856.37
575.82	44886.79
575.98	44491.24
576.14	45024.89
576.30	45310.43
576.46	45174.68
576.62	45139.57
576.79	44875.09
576.95	44554.44
577.11	44610.61
577.27	44727.64
577.43	44964.03
577.59	44945.31
577.75	44690.19
577.92	44926.58
578.08	45193.40
578.24	44683.17
578.40	45418.10
578.56	44800.19
578.72	45382.99
578.88	45038.93
579.04	45296.39
579.21	45071.70
579.37	45057.65
579.53	45249.58
579.69	45116.17
579.85	45041.27
580.01	44776.79
580.17	44957.01
580.33	45319.79
580.49	44935.95
580.65	44999.14
580.82	44839.98
580.98	44978.07
581.14	44636.36
581.30	45111.49
581.46	44729.98
581.62	44975.73
581.78	45017.86
581.94	45141.91
582.10	44898.50
582.26	44964.03
582.42	45069.36
582.58	44966.37
582.74	45460.23
582.90	45434.48
583.06	45251.92
583.22	44992.12
583.38	45607.68
583.54	44933.60
583.70	45368.94
583.86	45226.17
584.02	45483.63
584.18	45240.21
584.34	45368.94
584.50	45689.60
584.66	45408.73
584.82	45268.30
584.98	45380.65
585.14	45392.35
585.30	45312.77
585.46	45289.37
585.62	45188.72
585.78	45397.03
585.94	44992.12
586.10	45518.74
586.26	44994.46
586.42	45736.41
586.58	45404.05
586.74	45375.97
586.90	45036.59
587.06	45418.10
587.22	45179.36
587.38	45118.51
587.54	45277.66
587.70	45619.38
587.86	45432.14
588.02	45659.17
588.18	44935.95
588.34	45469.59
588.49	45340.86
588.65	45338.52
588.81	45448.52
588.97	45556.19
589.13	44971.05
589.29	45516.40
589.45	45846.41
589.61	45425.12
589.77	45535.12
589.93	45500.01
590.08	45593.64
