SpectraSuite Data File
++++++++++++++++++++++++++++++++++++
Date: Fri Oct 25 10:44:41 EDT 2013
User: price-jones
Dark Spectrum Present: No
Reference Spectrum Present: No
Number of Sampled Component Spectra: 1
Spectrometers: USB2+H05261
Integration Time (usec): 100000 (USB2+H05261)
Spectra Averaged: 1 (USB2+H05261)
Boxcar Smoothing: 0 (USB2+H05261)
Correct for Electrical Dark: No (USB2+H05261)
Strobe/Lamp Enabled: No (USB2+H05261)
Correct for Detector Non-linearity: No (USB2+H05261)
Correct for Stray Light: No (USB2+H05261)
Number of Pixels in Processed Spectrum: 2048
>>>>>Begin Processed Spectral Data<<<<<
365.73	112.35
365.92	112.35
366.12	112.35
366.32	81.92
366.52	0.00
366.72	63.19
366.91	23.41
367.11	28.09
367.31	56.17
367.51	0.00
367.70	23.41
367.90	28.09
368.10	58.51
368.30	25.75
368.49	42.13
368.69	88.94
368.89	70.22
369.09	44.47
369.28	140.43
369.48	32.77
369.68	58.51
369.87	53.83
370.07	124.05
370.27	145.11
370.47	220.01
370.66	344.06
370.86	388.53
371.06	449.38
371.25	397.89
371.45	472.79
371.65	418.96
371.84	437.68
372.04	454.06
372.24	500.87
372.44	500.87
372.63	519.60
372.83	498.53
373.03	489.17
373.22	475.13
373.42	414.27
373.62	500.87
373.81	554.71
374.01	533.64
374.21	582.79
374.40	477.47
374.60	566.41
374.79	608.54
374.99	554.71
375.19	585.13
375.38	517.26
375.58	550.03
375.78	587.47
375.97	631.94
376.17	585.13
376.37	587.47
376.56	601.52
376.76	533.64
376.95	552.37
377.15	568.75
377.35	580.45
377.54	631.94
377.74	660.03
377.93	559.39
378.13	627.26
378.33	655.35
378.52	566.41
378.72	641.31
378.91	674.07
379.11	599.18
379.31	606.20
379.50	599.18
379.70	685.78
379.89	648.33
380.09	645.99
380.28	664.71
380.48	620.24
380.68	676.41
380.87	683.44
381.07	702.16
381.26	615.56
381.46	678.76
381.65	627.26
381.85	683.44
382.04	629.60
382.24	645.99
382.43	645.99
382.63	681.10
382.83	758.33
383.02	681.10
383.22	737.27
383.41	697.48
383.61	723.23
383.80	774.72
384.00	716.20
384.19	748.97
384.39	624.92
384.58	739.61
384.78	763.01
384.97	695.14
385.17	800.46
385.36	704.50
385.56	835.57
385.75	723.23
385.95	751.31
386.14	800.46
386.34	784.08
386.53	765.36
386.72	800.46
386.92	791.10
387.11	849.61
387.31	851.96
387.50	880.04
387.70	880.04
387.89	823.87
388.09	819.19
388.28	833.23
388.48	828.55
388.67	844.93
388.86	931.53
389.06	877.70
389.25	823.87
389.45	812.17
389.64	884.72
389.84	917.49
390.03	891.74
390.22	938.55
390.42	901.11
390.61	889.40
390.81	905.79
391.00	891.74
391.19	971.32
391.39	922.17
391.58	1004.09
391.78	964.30
391.97	936.21
392.16	929.19
392.36	976.00
392.55	959.62
392.75	903.45
392.94	863.66
393.13	947.92
393.33	957.28
393.52	957.28
393.71	1027.50
393.91	1046.22
394.10	966.64
394.29	1064.94
394.49	1172.61
394.68	980.68
394.88	978.34
395.07	1109.41
395.26	1111.75
395.46	1097.71
395.65	1139.84
395.84	1193.67
396.04	1205.38
396.23	1102.39
396.42	1071.97
396.62	1086.01
396.81	1123.46
397.00	1097.71
397.19	1235.80
397.39	1123.46
397.58	1200.69
397.77	1226.44
397.97	1210.06
398.16	1277.93
398.35	1291.98
398.55	1261.55
398.74	1329.42
398.93	1270.91
399.12	1289.64
399.32	1341.13
399.51	1306.02
399.70	1390.28
399.90	1434.75
400.09	1392.62
400.28	1584.54
400.47	1357.51
400.67	1357.51
400.86	1444.11
401.05	1404.32
401.24	1479.22
401.44	1479.22
401.63	1451.13
401.82	1472.20
402.01	1500.28
402.21	1488.58
402.40	1540.07
402.59	1465.18
402.78	1582.20
402.97	1586.88
403.17	1556.46
403.36	1607.95
403.55	1629.01
403.74	1619.65
403.93	1563.48
404.13	1682.85
404.32	1706.25
404.51	1652.42
404.70	1650.08
404.89	1699.23
405.09	1652.42
405.28	1673.48
405.47	1675.82
405.66	1717.95
405.85	1774.13
406.05	1736.68
406.24	1746.04
406.43	1860.73
406.62	1764.76
406.81	1914.56
407.00	1846.68
407.20	1860.73
407.39	1916.90
407.58	1949.67
407.77	1942.64
407.96	1874.77
408.15	1968.39
408.34	2003.50
408.54	2033.93
408.73	1980.09
408.92	1930.94
409.11	2001.16
409.30	2129.89
409.49	2115.84
409.68	1994.14
409.87	2019.88
410.07	2080.74
410.26	2136.91
410.45	2172.02
410.64	2239.89
410.83	2256.28
411.02	2120.53
411.21	2216.49
411.40	2258.62
411.59	2242.23
411.78	2293.72
411.98	2321.81
412.17	2333.51
412.36	2389.69
412.55	2422.45
412.74	2380.32
412.93	2490.33
413.12	2455.22
413.31	2471.61
413.50	2457.56
413.69	2649.49
413.88	2504.37
414.07	2532.46
414.26	2586.29
414.45	2597.99
414.64	2541.82
414.83	2605.02
415.02	2691.62
415.22	2813.32
415.41	2717.36
415.60	2724.38
415.79	2743.11
415.98	2911.63
416.17	2801.62
416.36	2715.02
416.55	2892.90
416.74	2951.42
416.93	2963.12
417.12	2925.67
417.31	3035.67
417.50	2949.08
417.69	2991.20
417.88	3084.83
418.07	3030.99
418.26	3047.38
418.45	3115.25
418.64	3204.19
418.83	3150.36
419.02	3141.00
419.21	3192.49
419.39	3171.43
419.58	3063.76
419.77	3227.60
419.96	3262.71
420.15	3279.09
420.34	3173.77
420.53	3337.60
420.72	3370.37
420.91	3398.46
421.10	3302.50
421.29	3365.69
421.48	3351.65
421.67	3384.41
421.86	3382.07
422.05	3410.16
422.24	3428.88
422.43	3323.56
422.61	3454.63
422.80	3562.30
422.99	3501.44
423.18	3485.06
423.37	3604.42
423.56	3534.21
423.75	3592.72
423.94	3513.14
424.13	3328.24
424.32	3454.63
424.50	3604.42
424.69	3630.17
424.88	3665.28
425.07	3569.32
425.26	3459.31
425.45	3468.67
425.64	3707.41
425.83	3644.21
426.01	3644.21
426.20	3552.93
426.39	3637.19
426.58	3588.04
426.77	3599.74
426.96	3599.74
427.15	3569.32
427.33	3644.21
427.52	3749.54
427.71	3630.17
427.90	3623.15
428.09	3728.47
428.28	3765.92
428.46	3777.62
428.65	3786.99
428.84	3899.33
429.03	3768.26
429.22	3791.67
429.40	3801.03
429.59	3705.07
429.78	3777.62
429.97	3623.15
430.16	3723.79
430.34	3784.65
430.53	3782.31
430.72	3815.07
430.91	3831.46
431.10	3957.85
431.28	4205.94
431.47	4140.41
431.66	4131.05
431.85	4016.36
432.03	4234.03
432.22	4250.41
432.41	4198.92
432.60	4304.25
432.79	4163.81
432.97	4210.62
433.16	4285.52
433.35	4163.81
433.54	4217.65
433.72	4287.86
433.91	4224.67
434.10	4348.72
434.28	4360.42
434.47	4465.74
434.66	4608.51
434.85	4479.79
435.03	4423.61
435.22	4454.04
435.41	4613.20
435.59	4545.32
435.78	4465.74
435.97	4681.07
436.16	4528.94
436.34	4592.13
436.53	4566.39
436.72	4660.01
436.90	4526.60
437.09	4620.22
437.28	4636.60
437.46	4638.94
437.65	4580.43
437.84	4730.22
438.02	4704.48
438.21	4784.06
438.40	4634.26
438.58	4793.42
438.77	4805.12
438.96	4910.44
439.14	4959.60
439.33	5137.48
439.52	5116.41
439.70	5139.82
439.89	5097.69
440.08	5118.75
440.26	5181.95
440.45	5242.80
440.63	5242.80
440.82	5359.83
441.01	5416.00
441.19	5416.00
441.38	5383.23
441.57	5313.02
441.75	5495.58
441.94	5657.07
442.12	5713.25
442.31	5841.98
442.50	5682.82
442.68	5514.30
442.87	5568.13
443.05	5584.52
443.24	5846.66
443.43	5617.29
443.61	5771.76
443.80	5977.73
443.98	5652.39
444.17	5619.63
444.35	5767.08
444.54	5881.77
444.73	5947.30
444.91	5839.64
445.10	5722.61
445.28	5870.06
445.47	5687.50
445.65	5891.13
445.84	5783.46
446.02	5778.78
446.21	5951.98
446.39	5743.67
446.58	5877.09
446.77	6052.63
446.95	5928.58
447.14	6043.26
447.32	5891.13
447.51	5996.45
447.69	5865.38
447.88	6005.81
448.06	6036.24
448.25	6181.35
448.43	6040.92
448.62	6104.12
448.80	5984.75
448.99	6076.03
449.17	6066.67
449.36	6080.71
449.54	6356.90
449.73	6303.06
449.91	6277.32
450.10	6464.56
450.28	6338.17
450.46	6471.58
450.65	6417.75
450.83	6434.13
451.02	6359.24
451.20	6396.68
451.39	6565.20
451.57	6286.68
451.76	6438.81
451.94	6492.65
452.13	6476.26
452.31	6392.00
452.49	6340.51
452.68	6417.75
452.86	6555.84
453.05	6551.16
453.23	6595.63
453.42	6483.28
453.60	6544.14
453.78	6551.16
453.97	6665.85
454.15	6471.58
454.34	6541.80
454.52	6745.42
454.70	6724.36
454.89	6729.04
455.07	6782.87
455.26	6904.58
455.44	6892.88
455.62	6843.73
455.81	6911.60
455.99	7019.27
456.17	7122.25
456.36	7012.24
456.54	7248.64
456.73	7192.47
456.91	7211.19
457.09	7311.83
457.28	7456.95
457.46	7075.44
457.64	7250.98
457.83	7253.32
458.01	7297.79
458.19	7435.88
458.38	7344.60
458.56	7389.07
458.74	7239.28
458.93	7379.71
459.11	7391.41
459.29	7375.03
459.48	7283.75
459.66	7482.69
459.84	7747.17
460.03	7583.34
460.21	7632.49
460.39	7693.34
460.57	7620.78
460.76	7709.72
460.94	7714.41
461.12	7801.01
461.31	7744.83
461.49	7819.73
461.67	7723.77
461.85	7960.16
462.04	7946.12
462.22	7981.23
462.40	7812.71
462.59	8142.72
462.77	7971.86
462.95	7995.27
463.13	7875.90
463.32	8016.33
463.50	8116.98
463.68	8138.04
463.86	8042.08
464.05	8194.22
464.23	8093.57
464.41	8100.59
464.59	7871.22
464.78	8285.50
464.96	8013.99
465.14	7943.78
465.32	8280.82
465.50	8351.03
465.69	8381.46
465.87	8266.77
466.05	8461.04
466.23	8196.56
466.41	8353.37
466.60	8512.53
466.78	8428.27
466.96	8362.73
467.14	8400.18
467.32	8571.04
467.51	8535.93
467.69	8318.26
467.87	8582.74
468.05	8566.36
468.23	8587.43
468.41	8557.00
468.60	8627.21
468.78	8856.59
468.96	8671.68
469.14	8847.22
469.32	8720.84
469.50	8592.11
469.69	8786.37
469.87	8924.46
470.05	8947.87
470.23	8894.04
470.41	8844.88
470.59	9156.18
470.77	8961.91
470.95	9081.28
471.14	9076.60
471.32	8971.27
471.50	9303.63
471.68	9348.10
471.86	9280.22
472.04	9322.35
472.22	9521.30
472.40	9315.33
472.58	9289.59
472.77	9362.14
472.95	9549.39
473.13	9844.29
473.31	9626.62
473.49	9624.28
473.67	9727.27
473.85	9643.01
474.03	10099.41
474.21	9958.98
474.39	10097.07
474.57	10005.79
474.75	10153.24
474.93	10097.07
475.12	10146.22
475.30	10263.25
475.48	10164.95
475.66	10188.35
475.84	10317.08
476.02	10354.53
476.20	10160.27
476.38	10431.77
476.56	10750.08
476.74	10611.99
476.92	10595.61
477.10	10630.71
477.28	10993.50
477.46	11080.10
477.64	11108.18
477.82	11311.81
478.00	11398.41
478.18	11417.13
478.36	11426.50
478.54	11454.58
478.72	11393.73
478.90	11719.06
479.08	11683.95
479.26	11955.46
479.44	11765.87
479.62	11840.77
479.80	11873.54
479.98	12217.60
480.16	12250.36
480.34	12266.75
480.52	12549.95
480.70	12477.40
480.88	12297.17
481.06	12636.55
481.24	12592.08
481.41	12919.76
481.59	12861.24
481.77	13099.98
481.95	13256.79
482.13	13252.11
482.31	13249.77
482.49	13647.66
482.67	13439.36
482.85	13579.79
483.03	13823.20
483.21	13710.86
483.39	13848.95
483.57	14059.60
483.74	14207.05
483.92	14438.76
484.10	14099.39
484.28	14457.49
484.46	14607.28
484.64	14803.89
484.82	14647.07
485.00	14628.35
485.18	15094.11
485.35	15330.51
485.53	14846.02
485.71	14853.04
485.89	15473.28
486.07	15316.47
486.25	15477.96
486.43	15669.89
486.61	15566.90
486.78	15894.58
486.96	15765.85
487.14	16507.80
487.32	16081.82
487.50	16379.07
487.68	16690.36
487.85	16800.37
488.03	16989.95
488.21	16919.73
488.39	17043.78
488.57	17114.00
488.75	17495.50
488.92	17535.29
489.10	17593.81
489.28	17441.67
489.46	17834.88
489.64	17745.94
489.81	18216.39
489.99	18436.40
490.17	18642.37
490.35	18396.61
490.53	18651.73
490.70	18806.20
490.88	18712.58
491.06	18988.77
491.24	18977.06
491.41	18883.44
491.59	19012.17
491.77	19293.04
491.95	19323.46
492.13	19295.38
492.30	19845.40
492.48	19889.87
492.66	19939.02
492.84	19695.61
493.01	20477.35
493.19	20053.71
493.37	20379.04
493.54	20294.79
493.72	20835.45
493.90	20842.47
494.08	20884.60
494.25	21301.22
494.43	21167.80
494.61	21261.43
494.79	21345.69
494.96	21341.00
495.14	21167.80
495.32	22045.51
495.49	21654.64
495.67	21769.32
495.85	22089.98
496.02	21909.75
496.20	22190.62
496.38	22506.59
496.55	22544.04
496.73	22843.63
496.91	22766.39
497.09	22998.10
497.26	23061.30
497.44	22981.72
497.62	23281.31
497.79	23466.21
497.97	23285.99
498.14	23676.86
498.32	23534.09
498.50	23625.37
498.67	23529.41
498.85	23814.95
499.03	24334.55
499.20	24350.93
499.38	24388.38
499.56	24439.87
499.73	24341.57
499.91	24308.80
500.08	24826.06
500.26	24290.08
500.44	24933.73
500.61	24723.08
500.79	24369.66
500.97	24627.12
501.14	25029.69
501.32	24606.05
501.49	25305.87
501.67	25032.03
501.84	25324.60
502.02	25135.01
502.20	25649.93
502.37	25699.08
502.55	25631.21
502.72	25851.22
502.90	25762.28
503.07	26071.23
503.25	25968.24
503.43	25722.49
503.60	25933.14
503.78	26160.17
503.95	26160.17
504.13	26436.35
504.30	26483.16
504.48	26307.62
504.65	26471.46
504.83	26948.93
505.01	27075.32
505.18	26953.61
505.36	27007.44
505.53	27241.50
505.71	27145.53
505.88	27283.62
506.06	26815.52
506.23	27147.87
506.41	27405.33
506.58	27407.67
506.76	27782.16
506.93	27747.05
507.11	27737.69
507.28	27864.08
507.46	27316.39
507.63	27775.14
507.81	28245.58
507.98	27854.72
508.16	28470.28
508.33	28414.10
508.50	28315.80
508.68	28645.82
508.85	28552.20
509.03	28292.40
509.20	28699.65
509.38	28772.21
509.55	29118.60
509.73	28790.93
509.90	29174.78
510.08	28624.75
510.25	28875.19
510.42	29385.43
510.60	29511.81
510.77	29303.51
510.95	29631.18
511.12	29589.05
511.30	29638.20
511.47	30089.93
511.64	29909.71
511.82	29827.79
511.99	29556.28
512.17	29799.70
512.34	30017.37
512.51	30221.00
512.69	30625.91
512.86	30239.72
513.04	30562.72
513.21	30466.75
513.38	30522.93
513.56	30412.92
513.73	30492.50
513.90	30646.97
514.08	30431.65
514.25	30967.63
514.43	31016.78
514.60	30574.42
514.77	30946.56
514.95	31246.15
515.12	31009.76
515.29	31236.79
515.47	31672.13
515.64	31667.45
515.81	31599.57
515.99	31594.89
516.16	31786.82
516.33	31615.96
516.51	32210.45
516.68	31215.72
516.85	31307.01
517.03	31704.90
517.20	31732.98
517.37	31707.24
517.54	32332.16
517.72	32664.52
517.89	32109.81
518.06	32107.47
518.24	32013.85
518.41	32140.24
518.58	32297.05
518.75	32517.06
518.93	32788.56
519.10	32435.14
519.27	32278.33
519.45	32818.99
519.62	32980.49
519.79	32847.08
519.96	32978.15
520.14	33317.53
520.31	33020.28
520.48	32779.20
520.65	33457.96
520.83	33652.22
521.00	33509.45
521.17	33376.04
521.34	33574.98
521.52	33778.61
521.69	33605.41
521.86	34064.16
522.03	33823.08
522.20	33940.11
522.38	34101.61
522.55	33942.45
522.72	33926.07
522.89	33748.18
523.07	34146.08
523.24	34113.31
523.41	34368.43
523.58	34391.83
523.75	35299.96
523.92	34586.10
524.10	34682.06
524.27	34548.65
524.44	34560.35
524.61	34932.50
524.78	35145.48
524.96	35115.06
525.13	35147.82
525.30	35033.14
525.47	35578.48
525.64	35618.27
525.81	35524.65
525.98	35243.79
526.16	34951.22
526.33	35063.57
526.50	35477.84
526.67	35583.16
526.84	35115.06
527.01	35456.78
527.18	35510.61
527.36	35597.21
527.53	35962.33
527.70	36645.77
527.87	36023.19
528.04	35758.70
528.21	35910.84
528.38	36161.28
528.55	36184.68
528.72	36264.26
528.89	36212.77
529.07	36282.98
529.24	36102.76
529.41	36655.13
529.58	36191.70
529.75	36004.46
529.92	36971.10
530.09	36823.65
530.26	36748.75
530.43	36275.96
530.60	36446.82
530.77	36739.39
530.94	36774.50
531.11	36264.26
531.28	37212.18
531.46	36842.37
531.63	36961.74
531.80	37071.75
531.97	37116.22
532.14	36947.70
532.31	36603.64
532.48	37113.87
532.65	37254.31
532.82	37467.30
532.99	37481.34
533.16	37069.40
533.33	37266.01
533.50	37912.00
533.67	38031.36
533.84	37495.38
534.01	37715.39
534.18	37860.51
534.35	38108.60
534.52	37940.08
534.69	37940.08
534.86	38288.82
535.03	37766.88
535.20	38244.35
535.37	38167.12
535.54	38272.44
535.71	38029.02
535.88	38321.59
536.05	38010.30
536.22	38595.43
536.38	38724.16
536.55	38314.57
536.72	38272.44
536.89	38167.12
537.06	38550.96
537.23	38752.25
537.40	38440.96
537.57	38712.46
537.74	38667.99
537.91	38969.92
538.08	38932.47
538.25	38796.72
538.42	39042.48
538.59	39828.90
538.75	38363.72
538.92	38979.28
539.09	38932.47
539.26	38789.70
539.43	38909.07
539.60	39166.52
539.77	38878.64
539.94	39402.92
540.11	39349.09
540.28	39234.40
540.44	39618.25
540.61	39061.20
540.78	39349.09
540.95	39714.21
541.12	39302.28
541.29	39470.79
541.46	39459.09
541.62	39400.58
541.79	39861.66
541.96	39475.48
542.13	39810.17
542.30	39810.17
542.47	39587.82
542.63	39924.86
542.80	40170.61
542.97	40350.84
543.14	40126.14
543.31	40266.58
543.48	40416.37
543.64	40921.93
543.81	40512.33
543.98	40360.20
544.15	40596.59
544.32	40739.36
544.48	40905.54
544.65	40376.58
544.82	40926.61
544.99	40535.74
545.16	40463.18
545.32	40596.59
545.49	41020.23
545.66	41298.75
545.83	41055.34
546.00	40439.78
546.16	41212.15
546.33	40685.53
546.50	40470.20
546.67	41249.60
546.83	40121.46
547.00	40673.83
547.17	40807.24
547.34	41160.66
547.50	41102.15
547.67	41399.40
547.84	41216.83
548.00	41581.96
548.17	41605.36
548.34	41310.46
548.51	41607.70
548.67	41944.74
548.84	41911.97
549.01	41202.79
549.18	41462.59
549.34	41258.96
549.51	41736.43
549.68	41823.03
549.84	41745.80
550.01	41806.65
550.18	41638.13
550.34	41790.27
550.51	41736.43
550.68	42103.90
550.84	41343.22
551.01	42089.85
551.18	41628.77
551.34	42113.26
551.51	41874.52
551.68	42010.28
551.84	42293.48
552.01	42000.91
552.18	41993.89
552.34	41998.57
552.51	41645.15
552.68	42113.26
552.84	42251.35
553.01	42429.23
553.18	42117.94
553.34	42024.32
553.51	41848.78
553.67	42293.48
553.84	42452.64
554.01	42309.86
554.17	42265.39
554.34	42663.28
554.51	42887.98
554.67	42686.69
554.84	42113.26
555.00	42377.74
555.17	42712.44
555.33	42511.15
555.50	42422.21
555.67	42466.68
555.83	42693.71
556.00	42670.31
556.16	42473.70
556.33	42855.21
556.50	42911.38
556.66	42497.11
556.83	43033.09
556.99	42958.19
557.16	43040.11
557.32	42742.86
557.49	43117.35
557.65	42761.59
557.82	42976.92
557.98	42892.66
558.15	43061.18
558.32	43182.88
558.48	42836.48
558.65	42850.53
558.81	43203.95
558.98	42581.37
559.14	43049.47
559.31	42960.53
559.47	43051.81
559.64	43519.92
559.80	43398.21
559.97	43505.88
560.13	42974.58
560.30	43035.43
560.46	43283.53
560.63	43353.74
560.79	43391.19
560.96	43812.49
561.12	43594.82
561.29	43494.18
561.45	43124.37
561.61	43330.34
561.78	43721.21
561.94	43185.22
562.11	43669.72
562.27	43601.84
562.44	43503.54
562.60	43803.13
562.77	43365.45
562.93	43091.60
563.10	43838.23
563.26	43353.74
563.42	43496.52
563.59	43456.73
563.75	43711.84
563.92	43650.99
564.08	43681.42
564.24	43765.68
564.41	43819.51
564.57	43700.14
564.74	43311.61
564.90	43826.53
565.07	43929.51
565.23	43700.14
565.39	43646.31
565.56	43826.53
565.72	43538.65
565.88	43852.28
566.05	44161.23
566.21	43573.75
566.38	43805.47
566.54	43679.08
566.70	44140.16
566.87	43983.35
567.03	43744.61
567.19	43625.25
567.36	44210.38
567.52	43693.12
567.68	43391.19
567.85	43800.79
568.01	44046.54
568.17	43526.94
568.34	43583.12
568.50	43889.73
568.66	44048.88
568.83	44100.37
568.99	43697.80
569.15	43789.08
569.32	44002.07
569.48	43849.94
569.64	44402.30
569.81	44114.42
569.97	43913.13
570.13	43686.10
570.30	43725.89
570.46	43938.88
570.62	43835.89
570.78	43704.82
570.95	43873.34
571.11	43999.73
571.27	43976.33
571.43	44109.74
571.60	44299.32
571.76	43686.10
571.92	43964.62
572.09	44109.74
572.25	44222.08
572.41	44076.97
572.57	44116.76
572.74	44250.17
572.90	44037.18
573.06	44142.50
573.22	44250.17
573.38	44313.36
573.55	44390.60
573.71	44619.97
573.87	44004.41
574.03	44172.93
574.20	44432.73
574.36	43849.94
574.52	44430.39
574.68	44339.11
574.84	44285.28
575.01	44109.74
575.17	44208.04
575.33	44229.10
575.49	44320.38
575.65	44554.44
575.82	44058.24
575.98	44449.11
576.14	44406.98
576.30	44428.05
576.46	44552.10
576.62	44194.00
576.79	43929.51
576.95	43908.45
577.11	43831.21
577.27	44194.00
577.43	44236.12
577.59	44105.06
577.75	43643.97
577.92	43992.71
578.08	43723.55
578.24	44137.82
578.40	44121.44
578.56	44051.22
578.72	44233.78
578.88	44655.08
579.04	44535.71
579.21	44664.44
579.37	44390.60
579.53	44388.26
579.69	43973.98
579.85	44154.21
580.01	44598.91
580.17	44388.26
580.33	44114.42
580.49	44095.69
580.65	44694.87
580.82	44432.73
580.98	43894.41
581.14	44020.80
581.30	44650.40
581.46	44641.04
581.62	44353.15
581.78	44624.65
581.94	44828.28
582.10	43861.64
582.26	44357.83
582.42	44098.03
582.58	44086.33
582.74	44348.47
582.90	44299.32
583.06	44718.28
583.22	44596.57
583.38	44528.69
583.54	44243.15
583.70	44528.69
583.86	44325.07
584.02	44470.18
584.18	43835.89
584.34	44573.16
584.50	44486.56
584.66	44306.34
584.82	44137.82
584.98	44472.52
585.14	44711.25
585.30	44296.98
585.46	44519.33
585.62	44154.21
585.78	44472.52
585.94	43835.89
586.10	44622.31
586.26	44346.13
586.42	44341.45
586.58	44856.37
586.74	44388.26
586.90	44128.46
587.06	44367.20
587.22	44598.91
587.38	44755.72
587.54	44414.01
587.70	44938.29
587.86	44311.02
588.02	44406.98
588.18	44673.81
588.34	44294.64
588.49	44009.09
588.65	44233.78
588.81	44261.87
588.97	44500.61
589.13	44442.09
589.29	44507.63
589.45	44439.75
589.61	44261.87
589.77	44521.67
589.93	44659.76
590.08	44542.74
590.24	44610.61
