SpectraSuite Data File
++++++++++++++++++++++++++++++++++++
Date: Fri Oct 25 10:47:33 EDT 2013
User: price-jones
Dark Spectrum Present: No
Reference Spectrum Present: No
Number of Sampled Component Spectra: 1
Spectrometers: USB2+H05261
Integration Time (usec): 100000 (USB2+H05261)
Spectra Averaged: 1 (USB2+H05261)
Boxcar Smoothing: 0 (USB2+H05261)
Correct for Electrical Dark: No (USB2+H05261)
Strobe/Lamp Enabled: No (USB2+H05261)
Correct for Detector Non-linearity: No (USB2+H05261)
Correct for Stray Light: No (USB2+H05261)
Number of Pixels in Processed Spectrum: 2048
>>>>>Begin Processed Spectral Data<<<<<
365.73	194.26
365.92	194.26
366.12	194.26
366.32	0.00
366.52	23.41
366.72	18.72
366.91	28.09
367.11	0.00
367.31	0.00
367.51	67.88
367.70	0.00
367.90	28.09
368.10	67.88
368.30	2.34
368.49	30.43
368.69	9.36
368.89	28.09
369.09	53.83
369.28	88.94
369.48	51.49
369.68	51.49
369.87	112.35
370.07	133.41
370.27	161.50
370.47	156.82
370.66	362.78
370.86	411.93
371.06	512.58
371.25	456.40
371.45	383.85
371.65	496.19
371.84	461.09
372.04	322.99
372.24	433.00
372.44	451.72
372.63	519.60
372.83	580.45
373.03	535.98
373.22	482.15
373.42	547.69
373.62	564.07
373.81	543.00
374.01	547.69
374.21	528.96
374.40	543.00
374.60	493.85
374.79	538.32
374.99	531.30
375.19	540.66
375.38	535.98
375.58	552.37
375.78	580.45
375.97	603.86
376.17	608.54
376.37	599.18
376.56	613.22
376.76	557.05
376.95	538.32
377.15	685.78
377.35	674.07
377.54	610.88
377.74	592.16
377.93	610.88
378.13	641.31
378.33	557.05
378.52	566.41
378.72	564.07
378.91	627.26
379.11	681.10
379.31	685.78
379.50	538.32
379.70	678.76
379.89	650.67
380.09	585.13
380.28	709.18
380.48	624.92
380.68	650.67
380.87	678.76
381.07	674.07
381.26	592.16
381.46	653.01
381.65	669.39
381.85	676.41
382.04	641.31
382.24	683.44
382.43	692.80
382.63	610.88
382.83	704.50
383.02	692.80
383.22	748.97
383.41	624.92
383.61	662.37
383.80	718.54
384.00	681.10
384.19	732.59
384.39	767.70
384.58	819.19
384.78	812.17
384.97	800.46
385.17	690.46
385.36	767.70
385.56	751.31
385.75	716.20
385.95	711.52
386.14	758.33
386.34	830.89
386.53	800.46
386.72	823.87
386.92	870.68
387.11	828.55
387.31	812.17
387.50	816.85
387.70	823.87
387.89	814.51
388.09	856.64
388.28	870.68
388.48	833.23
388.67	847.27
388.86	866.00
389.06	912.81
389.25	933.87
389.45	910.47
389.64	887.06
389.84	940.90
390.03	987.71
390.22	985.37
390.42	922.17
390.61	945.58
390.81	917.49
391.00	933.87
391.19	1041.54
391.39	1013.45
391.58	985.37
391.78	964.30
391.97	924.51
392.16	978.34
392.36	898.77
392.55	1057.92
392.75	931.53
392.94	1004.09
393.13	959.62
393.33	910.47
393.52	1025.15
393.71	997.07
393.91	1064.94
394.10	1006.43
394.29	1027.50
394.49	1032.18
394.68	1053.24
394.88	1123.46
395.07	1069.62
395.26	1123.46
395.46	1139.84
395.65	1128.14
395.84	1071.97
396.04	1242.82
396.23	1055.58
396.42	1074.31
396.62	1111.75
396.81	1144.52
397.00	1076.65
397.19	1219.42
397.39	1184.31
397.58	1224.10
397.77	1252.19
397.97	1160.91
398.16	1200.69
398.35	1266.23
398.55	1284.95
398.74	1245.16
398.93	1217.08
399.12	1322.40
399.32	1301.34
399.51	1334.11
399.70	1371.55
399.90	1331.76
400.09	1376.24
400.28	1458.15
400.47	1472.20
400.67	1418.36
400.86	1390.28
401.05	1401.98
401.24	1507.30
401.44	1387.94
401.63	1472.20
401.82	1469.86
402.01	1453.47
402.21	1472.20
402.40	1481.56
402.59	1446.45
402.78	1551.78
402.97	1490.92
403.17	1509.65
403.36	1554.12
403.55	1537.73
403.74	1610.29
403.93	1540.07
404.13	1598.59
404.32	1652.42
404.51	1563.48
404.70	1640.72
404.89	1577.52
405.09	1753.06
405.28	1652.42
405.47	1650.08
405.66	1776.47
405.85	1675.82
406.05	1748.38
406.24	1687.53
406.43	1762.42
406.62	1816.26
406.81	1891.15
407.00	1806.89
407.20	1813.92
407.39	1898.17
407.58	1804.55
407.77	1895.83
407.96	1846.68
408.15	1973.07
408.34	1933.28
408.54	1977.75
408.73	1916.90
408.92	1851.36
409.11	1984.77
409.30	2026.90
409.49	2036.27
409.68	1994.14
409.87	1916.90
410.07	2050.31
410.26	2160.31
410.45	2054.99
410.64	2078.40
410.83	2097.12
411.02	2143.93
411.21	2270.32
411.40	2256.28
411.59	2211.81
411.78	2312.45
411.98	2221.17
412.17	2331.17
412.36	2345.22
412.55	2434.16
412.74	2403.73
412.93	2445.86
413.12	2373.30
413.31	2558.21
413.50	2413.09
413.69	2597.99
413.88	2532.46
414.07	2537.14
414.26	2471.61
414.45	2579.27
414.64	2602.68
414.83	2658.85
415.02	2640.12
415.22	2677.57
415.41	2668.21
415.60	2743.11
415.79	2857.79
415.98	2768.85
416.17	2782.90
416.36	2686.94
416.55	2967.80
416.74	2913.97
416.93	2864.82
417.12	2841.41
417.31	2829.71
417.50	2895.24
417.69	3016.95
417.88	2899.92
418.07	3007.59
418.26	3073.12
418.45	3047.38
418.64	3152.70
418.83	3185.47
419.02	3178.45
419.21	3126.96
419.39	3084.83
419.58	3141.00
419.77	3136.32
419.96	3112.91
420.15	3110.57
420.34	3171.43
420.53	3258.03
420.72	3384.41
420.91	3262.71
421.10	3314.20
421.29	3321.22
421.48	3321.22
421.67	3391.44
421.86	3302.50
422.05	3335.26
422.24	3262.71
422.43	3349.31
422.61	3445.27
422.80	3419.52
422.99	3410.16
423.18	3400.80
423.37	3524.85
423.56	3475.70
423.75	3515.48
423.94	3424.20
424.13	3239.30
424.32	3391.44
424.50	3421.86
424.69	3588.04
424.88	3595.06
425.07	3468.67
425.26	3335.26
425.45	3424.20
425.64	3447.61
425.83	3426.54
426.01	3548.25
426.20	3513.14
426.39	3435.91
426.58	3559.95
426.77	3510.80
426.96	3627.83
427.15	3571.66
427.33	3609.11
427.52	3691.02
427.71	3705.07
427.90	3625.49
428.09	3604.42
428.28	3716.77
428.46	3632.51
428.65	3679.32
428.84	3845.50
429.03	3824.44
429.22	3728.47
429.40	3735.50
429.59	3749.54
429.78	3625.49
429.97	3716.77
430.16	3702.73
430.34	3740.18
430.53	3723.79
430.72	3880.61
430.91	3789.33
431.10	3721.45
431.28	3953.16
431.47	4030.40
431.66	4037.42
431.85	4028.06
432.03	4081.89
432.22	4278.50
432.41	3988.27
432.60	4152.11
432.79	3925.08
432.97	4011.68
433.16	4257.43
433.35	4117.00
433.54	4133.39
433.72	4154.45
433.91	4140.41
434.10	4194.24
434.28	4259.78
434.47	4381.48
434.66	4245.73
434.85	4245.73
435.03	4348.72
435.22	4329.99
435.41	4421.27
435.59	4372.12
435.78	4517.23
435.97	4505.53
436.16	4442.34
436.34	4545.32
436.53	4475.10
436.72	4671.71
436.90	4491.49
437.09	4545.32
437.28	4507.87
437.46	4538.30
437.65	4664.69
437.84	4702.14
438.02	4631.92
438.21	4697.46
438.40	4615.54
438.58	4842.57
438.77	4821.50
438.96	4770.01
439.14	4957.25
439.33	4952.57
439.52	4922.15
439.70	4910.44
439.89	4978.32
440.08	5090.67
440.26	5174.92
440.45	5139.82
440.63	4929.17
440.82	5289.61
441.01	5287.27
441.19	5320.04
441.38	5502.60
441.57	5305.99
441.75	5408.98
441.94	5500.26
442.12	5390.25
442.31	5504.94
442.50	5479.19
442.68	5526.00
442.87	5394.93
443.05	5671.12
443.24	5645.37
443.43	5535.37
443.61	5689.84
443.80	5830.27
443.98	5645.37
444.17	5376.21
444.35	5647.71
444.54	5785.80
444.73	5792.83
444.91	5933.26
445.10	5636.01
445.28	5741.33
445.47	5680.48
445.65	5703.89
445.84	5771.76
446.02	5905.17
446.21	5916.87
446.39	5853.68
446.58	6150.93
446.77	5774.10
446.95	5710.91
447.14	5863.04
447.32	5984.75
447.51	5900.49
447.69	5968.37
447.88	5865.38
448.06	5785.80
448.25	5951.98
448.43	5998.79
448.62	5849.00
448.80	5837.30
448.99	6010.50
449.17	5933.26
449.36	6001.13
449.54	6263.27
449.73	6015.18
449.91	6171.99
450.10	6406.05
450.28	6190.72
450.46	6485.62
450.65	6473.92
450.83	6183.70
451.02	6326.47
451.20	6218.80
451.39	6326.47
451.57	6181.35
451.76	6267.95
451.94	6408.39
452.13	6356.90
452.31	6595.63
452.49	6209.44
452.68	6476.26
452.86	6551.16
453.05	6420.09
453.23	6427.11
453.42	6342.85
453.60	6476.26
453.78	6539.46
453.97	6286.68
454.15	6649.46
454.34	6445.84
454.52	6516.05
454.70	6696.27
454.89	6803.94
455.07	6743.08
455.26	6726.70
455.44	6927.99
455.62	6871.81
455.81	6841.39
455.99	6927.99
456.17	6913.94
456.36	6953.73
456.54	6883.52
456.73	6817.98
456.91	7269.70
457.09	7213.53
457.28	7204.17
457.46	7091.82
457.64	7126.93
457.83	7173.74
458.01	7136.29
458.19	7176.08
458.38	7321.20
458.56	7527.16
458.74	7246.30
458.93	7255.66
459.11	7201.83
459.29	7164.38
459.48	7372.69
459.66	7470.99
459.84	7398.43
460.03	7721.43
460.21	7536.52
460.39	7487.37
460.57	7590.36
460.76	7524.82
460.94	7536.52
461.12	7681.64
461.31	7585.68
461.49	7616.10
461.67	7517.80
461.85	7861.86
462.04	7737.81
462.22	8109.96
462.40	7981.23
462.59	7901.65
462.77	7967.18
462.95	7861.86
463.13	7939.10
463.32	8121.66
463.50	7978.89
463.68	7864.20
463.86	7969.52
464.05	7716.75
464.23	8053.78
464.41	8018.68
464.59	7831.43
464.78	8133.36
464.96	8084.21
465.14	8088.89
465.32	8105.28
465.50	8269.11
465.69	8226.98
465.87	8138.04
466.05	8332.31
466.23	8231.66
466.41	8313.58
466.60	8180.17
466.78	8224.64
466.96	8182.51
467.14	8301.88
467.32	8435.29
467.51	8266.77
467.69	8126.34
467.87	8402.52
468.05	8402.52
468.23	8325.29
468.41	8231.66
468.60	8318.26
468.78	8716.16
468.96	8580.40
469.14	8620.19
469.32	8685.73
469.50	8360.39
469.69	8793.39
469.87	8718.50
470.05	8851.91
470.23	8762.97
470.41	8704.45
470.59	8847.22
470.77	8851.91
470.95	8814.46
471.14	9177.24
471.32	8863.61
471.50	9273.20
471.68	9116.39
471.86	9268.52
472.04	9270.86
472.22	9336.40
472.40	9343.42
472.58	9282.56
472.77	9380.87
472.95	9249.80
473.13	9790.46
473.31	9312.99
473.49	9537.68
473.67	9561.09
473.85	9467.47
474.03	9652.37
474.21	9708.54
474.39	9919.19
474.57	9748.33
474.75	9839.61
474.93	9944.94
475.12	9877.06
475.30	10164.95
475.48	10052.60
475.66	10176.65
475.84	10050.26
476.02	10139.20
476.20	10183.67
476.38	10518.37
476.56	10616.67
476.74	10839.02
476.92	10380.28
477.10	10305.38
477.28	10576.88
477.46	10604.97
477.64	10965.41
477.82	11002.86
478.00	11321.17
478.18	11159.67
478.36	11197.12
478.54	11314.15
478.72	11302.45
478.90	11489.69
479.08	11873.54
479.26	11679.27
479.44	11782.26
479.62	11843.11
479.80	11826.73
479.98	11864.18
480.16	12229.30
480.34	12023.33
480.52	12318.24
480.70	12313.56
480.88	12276.11
481.06	12362.71
481.24	12489.10
481.41	12465.69
481.59	12713.79
481.77	12713.79
481.95	13011.04
482.13	12961.89
482.31	12856.56
482.49	13507.23
482.67	13273.18
482.85	13551.70
483.03	13427.65
483.21	13762.35
483.39	13713.20
483.57	13715.54
483.74	13809.16
483.92	14202.37
484.10	13898.10
484.28	14211.73
484.46	14288.97
484.64	14780.48
484.82	14319.40
485.00	14618.99
485.18	14719.63
485.35	15047.30
485.53	14895.17
485.71	14789.85
485.89	15367.96
486.07	14871.76
486.25	15199.44
486.43	15314.13
486.61	15440.51
486.78	15590.31
486.96	15803.30
487.14	15789.25
487.32	16011.60
487.50	16280.77
487.68	16191.83
487.85	16746.53
488.03	16669.30
488.21	16856.54
488.39	17006.33
488.57	16828.45
488.75	16879.94
488.92	17205.28
489.10	17429.97
489.28	17472.10
489.46	17762.33
489.64	17752.96
489.81	17858.29
489.99	18298.31
490.17	18373.21
490.35	18146.17
490.53	18370.86
490.70	18607.26
490.88	18558.11
491.06	18588.53
491.24	19023.87
491.41	18745.35
491.59	19115.16
491.77	18867.06
491.95	19082.39
492.13	19150.26
492.30	19653.48
492.48	19590.28
492.66	19611.35
492.84	19700.29
493.01	19962.43
493.19	20030.30
493.37	20680.97
493.54	20102.86
493.72	20418.83
493.90	20255.00
494.08	20800.34
494.25	21095.25
494.43	20994.61
494.61	21109.29
494.79	21109.29
494.96	20802.68
495.14	21399.52
495.32	21563.36
495.49	21645.27
495.67	21394.84
495.85	21994.01
496.02	21986.99
496.20	22183.60
496.38	22078.27
496.55	22391.91
496.73	22583.83
496.91	22230.41
497.09	22691.49
497.26	22604.89
497.44	22630.64
497.62	22881.08
497.79	23171.30
497.97	23033.21
498.14	23250.88
498.32	23108.11
498.50	23285.99
498.67	23632.39
498.85	23679.20
499.03	23704.95
499.20	23840.70
499.38	24109.86
499.56	24203.48
499.73	24102.84
499.91	24627.12
500.08	24261.99
500.26	24362.64
500.44	24053.69
500.61	24149.65
500.79	24285.40
500.97	24622.44
501.14	24947.77
501.32	25027.35
501.49	24907.98
501.67	24903.30
501.84	25116.29
502.02	24973.52
502.20	25301.19
502.37	25233.32
502.55	25432.26
502.72	25151.40
502.90	25572.69
503.07	25254.38
503.25	25661.63
503.43	25638.23
503.60	25764.62
503.78	25935.48
503.95	25963.56
504.13	25855.90
504.30	26520.61
504.48	26010.37
504.65	26082.93
504.83	26611.89
505.01	26558.06
505.18	26813.18
505.36	26885.73
505.53	26684.45
505.71	27082.34
505.88	27002.76
506.06	27065.96
506.23	27082.34
506.41	26689.13
506.58	27438.10
506.76	27267.24
506.93	27332.78
507.11	27407.67
507.28	27653.43
507.46	27400.65
507.63	27779.82
507.81	27899.19
507.98	27683.86
508.16	27920.25
508.33	28198.77
508.50	28123.88
508.68	27915.57
508.85	28437.51
509.03	28114.52
509.20	28383.68
509.38	28559.22
509.55	28402.40
509.73	28727.74
509.90	28723.05
510.08	28678.58
510.25	28940.72
510.42	29123.29
510.60	29273.08
510.77	29146.69
510.95	29095.20
511.12	29174.78
511.30	29514.16
511.47	29724.80
511.64	29926.09
511.82	29855.87
511.99	30015.03
512.17	29762.25
512.34	29757.57
512.51	29979.92
512.69	30192.91
512.86	30204.61
513.04	30361.43
513.21	30260.79
513.38	30171.85
513.56	30391.86
513.73	30405.90
513.90	30494.84
514.08	30529.95
514.25	30831.88
514.43	30794.43
514.60	30621.23
514.77	30529.95
514.95	30710.17
515.12	31063.59
515.29	31065.93
515.47	31391.26
515.64	31758.73
515.81	31005.08
515.99	31220.41
516.16	31264.88
516.33	31793.84
516.51	31784.48
516.68	31449.78
516.85	31197.00
517.03	31477.86
517.20	32032.57
517.37	31559.78
517.54	32381.31
517.72	31857.03
517.89	31838.31
518.06	31786.82
518.24	31819.58
518.41	31782.13
518.58	31915.54
518.75	31938.95
518.93	32210.45
519.10	32388.33
519.27	32060.66
519.45	32811.97
519.62	32823.67
519.79	32575.58
519.96	32739.41
520.14	32992.19
520.31	33214.54
520.48	33291.78
520.65	33146.67
520.83	33432.21
521.00	33535.20
521.17	33549.24
521.34	33560.94
521.52	33394.76
521.69	33493.07
521.86	33668.61
522.03	33972.88
522.20	33853.51
522.38	33605.41
522.55	34068.84
522.72	33757.55
522.89	33539.88
523.07	33909.68
523.24	33481.36
523.41	34349.70
523.58	34019.69
523.75	34548.65
523.92	34216.29
524.10	34836.53
524.27	34565.03
524.44	34448.00
524.61	34621.20
524.78	34895.05
524.96	34625.89
525.13	34892.71
525.30	35129.10
525.47	35075.27
525.64	34981.65
525.81	35248.47
525.98	35204.00
526.16	35302.30
526.33	34824.83
526.50	35482.52
526.67	35014.41
526.84	35250.81
527.01	35426.35
527.18	35435.71
527.36	35782.11
527.53	35833.60
527.70	35538.69
527.87	35849.99
528.04	35555.08
528.21	35885.09
528.38	35789.13
528.55	36383.63
528.72	36231.49
528.89	36060.63
529.07	36318.09
529.24	36046.59
529.41	36032.55
529.58	36311.07
529.75	35943.61
529.92	36093.40
530.09	36491.29
530.26	36030.21
530.43	36360.22
530.60	36137.87
530.77	36896.20
530.94	36657.47
531.11	36622.36
531.28	36634.06
531.46	36715.98
531.63	36999.19
531.80	36889.18
531.97	36931.31
532.14	36849.39
532.31	37053.02
532.48	37123.24
532.65	36980.46
532.82	37017.91
532.99	37687.31
533.16	36903.23
533.33	37577.30
533.50	37677.94
533.67	37771.57
533.84	37680.28
534.01	37511.77
534.18	37926.04
534.35	37738.80
534.52	37816.04
534.69	37736.46
534.86	37715.39
535.03	37270.69
535.20	38103.92
535.37	38150.73
535.54	38345.00
535.71	38094.56
535.88	38206.90
536.05	38195.20
536.22	38153.07
536.38	38396.49
536.55	38169.46
536.72	38492.45
536.89	38267.76
537.06	37914.34
537.23	38096.90
537.40	38031.36
537.57	38440.96
537.74	38684.37
537.91	38859.91
538.08	38487.77
538.25	38085.20
538.42	39063.54
538.59	39026.09
538.75	38506.49
538.92	38630.54
539.09	39117.37
539.26	38953.54
539.43	39171.21
539.60	39122.05
539.77	38911.41
539.94	38457.34
540.11	39337.38
540.28	39208.65
540.44	38923.11
540.61	38916.09
540.78	39077.58
540.95	39192.27
541.12	38897.36
541.29	39012.05
541.46	39398.24
541.62	39105.67
541.79	39639.31
541.96	39384.19
542.13	39402.92
542.30	39468.45
542.47	39765.70
542.63	39456.75
542.80	39335.04
542.97	40561.48
543.14	40177.64
543.31	40037.20
543.48	40243.17
543.64	40498.29
543.81	40318.07
543.98	40460.84
544.15	40032.52
544.32	41001.50
544.48	40746.39
544.65	40786.18
544.82	40692.55
544.99	40479.57
545.16	40446.80
545.32	40549.78
545.49	40978.10
545.66	40666.81
545.83	40715.96
546.00	41045.97
546.16	40804.90
546.33	40645.74
546.50	40212.74
546.67	40772.13
546.83	40526.38
547.00	40636.38
547.17	40800.22
547.34	40933.63
547.50	41088.10
547.67	41226.20
547.84	41160.66
548.00	41144.28
548.17	41478.97
548.34	41368.97
548.51	41493.02
548.67	41275.35
548.84	41294.07
549.01	41518.76
549.18	41312.80
549.34	41666.22
549.51	41160.66
549.68	41413.44
549.84	41748.14
550.01	41914.31
550.18	41228.54
550.34	41734.09
550.51	41577.28
550.68	41401.74
550.84	41186.41
551.01	41710.69
551.18	41998.57
551.34	41677.92
551.51	41996.23
551.68	41731.75
551.84	41958.78
552.01	41848.78
552.18	41893.25
552.34	41771.54
552.51	42583.71
552.68	42244.33
552.84	41893.25
553.01	42412.85
553.18	41900.27
553.34	42176.45
553.51	42036.02
553.67	41773.88
553.84	42579.03
554.01	42436.25
554.17	42759.25
554.34	42810.74
554.51	42576.69
554.67	42419.87
554.84	42707.76
555.00	42351.99
555.17	42462.00
555.33	42597.75
555.50	42195.18
555.67	42515.83
555.83	42452.64
556.00	42679.67
556.16	42979.26
556.33	42796.70
556.50	42178.79
556.66	42443.27
556.83	42611.79
556.99	42478.38
557.16	43063.52
557.32	43030.75
557.49	42852.87
557.65	42721.80
557.82	42684.35
557.98	42469.02
558.15	43143.09
558.32	42843.51
558.48	43129.05
558.65	43093.94
558.81	43386.51
558.98	42864.57
559.14	43035.43
559.31	43166.50
559.47	43232.04
559.64	43449.70
559.80	43629.93
559.97	43288.21
560.13	43428.64
560.30	43040.11
560.46	43107.99
560.63	43459.07
560.79	42824.78
560.96	43540.99
561.12	43260.12
561.29	43498.86
561.45	42712.44
561.61	43618.22
561.78	43180.54
561.94	43445.02
562.11	43344.38
562.27	42780.31
562.44	43079.90
562.60	43636.95
562.77	43360.76
562.93	43157.14
563.10	43643.97
563.26	43236.72
563.42	43519.92
563.59	43358.42
563.75	43161.82
563.92	43749.29
564.08	43899.09
564.24	43880.36
564.41	44088.67
564.57	43189.91
564.74	43363.11
564.90	44128.46
565.07	43920.15
565.23	43529.28
565.39	43620.56
565.56	43636.95
565.72	44044.20
565.88	43606.52
566.05	43452.05
566.21	43669.72
566.38	43325.66
566.54	43257.78
566.70	43524.60
566.87	44453.79
567.03	43650.99
567.19	44327.41
567.36	43899.09
567.52	43590.14
567.68	44201.02
567.85	43831.21
568.01	43714.19
568.17	43756.32
568.34	44109.74
568.50	43515.24
568.66	43761.00
568.83	44081.65
568.99	43856.96
569.15	44261.87
569.32	43650.99
569.48	43639.29
569.64	44266.55
569.81	44032.50
569.97	44114.42
570.13	44163.57
570.30	44304.00
570.46	43510.56
570.62	44013.77
570.78	43772.70
570.95	44154.21
571.11	44388.26
571.27	44055.90
571.43	44296.98
571.60	44168.25
571.76	44306.34
571.92	44250.17
572.09	43590.14
572.25	44062.93
572.41	44149.53
572.57	43819.51
572.74	44701.89
572.90	44048.88
573.06	44147.18
573.22	43943.56
573.38	44165.91
573.55	43833.55
573.71	44112.08
573.87	43966.96
574.03	44126.12
574.20	44205.70
574.36	44055.90
574.52	44128.46
574.68	44423.37
574.84	44144.84
575.01	44332.09
575.17	44470.18
575.33	43887.39
575.49	43938.88
575.65	44428.05
575.82	44659.76
575.98	44301.66
576.14	44353.15
576.30	44170.59
576.46	44154.21
576.62	44243.15
576.79	44215.06
576.95	43966.96
577.11	44137.82
577.27	44404.64
577.43	44311.02
577.59	44201.02
577.75	44381.24
577.92	43990.37
578.08	44559.12
578.24	43779.72
578.40	44025.48
578.56	44453.79
578.72	44390.60
578.88	44259.53
579.04	44708.91
579.21	44521.67
579.37	44301.66
579.53	44418.69
579.69	44212.72
579.85	44004.41
580.01	44783.81
580.17	44144.84
580.33	44676.15
580.49	44463.16
580.65	44865.73
580.82	44348.47
580.98	44788.49
581.14	44175.27
581.30	44727.64
581.46	44168.25
581.62	44332.09
581.78	44598.91
581.94	44961.69
582.10	44458.48
582.26	44718.28
582.42	44479.54
582.58	44477.20
582.74	44369.54
582.90	44439.75
583.06	44322.72
583.22	44442.09
583.38	44683.17
583.54	44655.08
583.70	44538.05
583.86	44577.84
584.02	43948.24
584.18	44315.70
584.34	44891.48
584.50	44648.06
584.66	44526.35
584.82	44423.37
584.98	44540.39
585.14	44383.58
585.30	44315.70
585.46	44322.72
585.62	44243.15
585.78	44566.14
585.94	44172.93
586.10	44128.46
586.26	44154.21
586.42	44404.64
586.58	44629.34
586.74	44821.26
586.90	44236.12
587.06	44233.78
587.22	44411.67
587.38	44765.09
587.54	44744.02
587.70	45074.04
587.86	44751.04
588.02	44552.10
588.18	44662.10
588.34	44966.37
588.49	44545.08
588.65	44060.58
588.81	44460.82
588.97	44500.61
589.13	44182.29
589.29	44516.99
589.45	44615.29
589.61	45045.95
589.77	44676.15
589.93	44828.28
590.08	45027.23
590.24	44720.62
590.40	45024.89
