SpectraSuite Data File
++++++++++++++++++++++++++++++++++++
Date: Fri Oct 25 11:33:48 EDT 2013
User: price-jones
Dark Spectrum Present: No
Reference Spectrum Present: No
Number of Sampled Component Spectra: 1
Spectrometers: USB2+H05261
Integration Time (usec): 100000 (USB2+H05261)
Spectra Averaged: 1 (USB2+H05261)
Boxcar Smoothing: 0 (USB2+H05261)
Correct for Electrical Dark: No (USB2+H05261)
Strobe/Lamp Enabled: No (USB2+H05261)
Correct for Detector Non-linearity: No (USB2+H05261)
Correct for Stray Light: No (USB2+H05261)
Number of Pixels in Processed Spectrum: 2048
>>>>>Begin Processed Spectral Data<<<<<
365.73	290.23
365.92	290.23
366.12	290.23
366.32	173.20
366.52	170.86
366.72	201.29
366.91	154.48
367.11	119.37
367.31	236.39
367.51	198.95
367.70	152.13
367.90	208.31
368.10	173.20
368.30	159.16
368.49	208.31
368.69	184.90
368.89	224.69
369.09	262.14
369.28	248.10
369.48	135.75
369.68	201.29
369.87	208.31
370.07	266.82
370.27	252.78
370.47	334.70
370.66	440.02
370.86	517.26
371.06	510.24
371.25	587.47
371.45	482.15
371.65	592.16
371.84	564.07
372.04	573.43
372.24	526.62
372.44	561.73
372.63	592.16
372.83	601.52
373.03	627.26
373.22	550.03
373.42	575.77
373.62	613.22
373.81	655.35
374.01	578.11
374.21	645.99
374.40	653.01
374.60	723.23
374.79	615.56
374.99	704.50
375.19	716.20
375.38	582.79
375.58	678.76
375.78	692.80
375.97	695.14
376.17	697.48
376.37	678.76
376.56	624.92
376.76	624.92
376.95	645.99
377.15	711.52
377.35	697.48
377.54	704.50
377.74	631.94
377.93	702.16
378.13	772.38
378.33	725.57
378.52	739.61
378.72	741.95
378.91	737.27
379.11	627.26
379.31	755.99
379.50	627.26
379.70	716.20
379.89	711.52
380.09	676.41
380.28	751.31
380.48	732.59
380.68	788.76
380.87	725.57
381.07	786.42
381.26	802.80
381.46	821.53
381.65	727.91
381.85	781.74
382.04	699.82
382.24	730.25
382.43	823.87
382.63	753.65
382.83	793.44
383.02	770.04
383.22	781.74
383.41	751.31
383.61	835.57
383.80	833.23
384.00	758.33
384.19	835.57
384.39	866.00
384.58	821.53
384.78	847.27
384.97	819.19
385.17	877.70
385.36	884.72
385.56	793.44
385.75	800.46
385.95	812.17
386.14	877.70
386.34	739.61
386.53	774.72
386.72	812.17
386.92	898.77
387.11	915.15
387.31	830.89
387.50	866.00
387.70	826.21
387.89	929.19
388.09	896.43
388.28	884.72
388.48	898.77
388.67	936.21
388.86	943.24
389.06	908.13
389.25	901.11
389.45	952.60
389.64	959.62
389.84	938.55
390.03	1006.43
390.22	922.17
390.42	973.66
390.61	1008.77
390.81	933.87
391.00	978.34
391.19	1013.45
391.39	1006.43
391.58	1036.86
391.78	987.71
391.97	978.34
392.16	961.96
392.36	1093.03
392.55	1097.71
392.75	1083.67
392.94	1001.75
393.13	1078.99
393.33	1032.18
393.52	1156.22
393.71	1064.94
393.91	1057.92
394.10	1039.20
394.29	1027.50
394.49	1130.48
394.68	1057.92
394.88	1118.78
395.07	1097.71
395.26	1135.16
395.46	1214.74
395.65	1193.67
395.84	1163.25
396.04	1270.91
396.23	1210.06
396.42	1184.31
396.62	1153.88
396.81	1270.91
397.00	1217.08
397.19	1196.01
397.39	1142.18
397.58	1345.81
397.77	1270.91
397.97	1308.36
398.16	1212.40
398.35	1270.91
398.55	1317.72
398.74	1277.93
398.93	1315.38
399.12	1310.70
399.32	1306.02
399.51	1327.08
399.70	1263.89
399.90	1327.08
400.09	1310.70
400.28	1462.83
400.47	1299.00
400.67	1458.15
400.86	1420.71
401.05	1444.11
401.24	1432.41
401.44	1437.09
401.63	1472.20
401.82	1409.00
402.01	1383.26
402.21	1427.73
402.40	1474.54
402.59	1495.60
402.78	1535.39
402.97	1481.56
403.17	1572.84
403.36	1558.80
403.55	1521.35
403.74	1647.74
403.93	1614.97
404.13	1605.61
404.32	1621.99
404.51	1607.95
404.70	1589.22
404.89	1694.55
405.09	1689.87
405.28	1626.67
405.47	1715.61
405.66	1680.50
405.85	1736.68
406.05	1734.34
406.24	1732.00
406.43	1760.08
406.62	1902.86
406.81	1863.07
407.00	1820.94
407.20	1804.55
407.39	1778.81
407.58	1795.19
407.77	1916.90
407.96	1884.13
408.15	1916.90
408.34	1809.23
408.54	1947.33
408.73	1909.88
408.92	2003.50
409.11	1937.96
409.30	1947.33
409.49	2066.69
409.68	1975.41
409.87	1994.14
410.07	2005.84
410.26	1994.14
410.45	2001.16
410.64	2097.12
410.83	2223.51
411.02	2106.48
411.21	2214.15
411.40	2232.87
411.59	2244.57
411.78	2078.40
411.98	2195.42
412.17	2211.81
412.36	2312.45
412.55	2214.15
412.74	2375.64
412.93	2305.43
413.12	2338.20
413.31	2490.33
413.50	2392.03
413.69	2459.90
413.88	2506.71
414.07	2354.58
414.26	2399.05
414.45	2445.86
414.64	2530.12
414.83	2534.80
415.02	2698.64
415.22	2708.00
415.41	2733.75
415.60	2649.49
415.79	2668.21
415.98	2684.59
416.17	2719.70
416.36	2656.51
416.55	2754.81
416.74	2883.54
416.93	2743.11
417.12	2841.41
417.31	2803.96
417.50	2794.60
417.69	2998.23
417.88	3075.46
418.07	2946.73
418.26	3030.99
418.45	2935.03
418.64	3117.59
418.83	3000.57
419.02	2848.43
419.21	3091.85
419.39	3019.29
419.58	3091.85
419.77	3070.78
419.96	3197.17
420.15	3169.09
420.34	3115.25
420.53	3192.49
420.72	3246.32
420.91	3220.58
421.10	3400.80
421.29	3440.59
421.48	3279.09
421.67	3295.47
421.86	3325.90
422.05	3283.77
422.24	3274.41
422.43	3433.57
422.61	3410.16
422.80	3473.36
422.99	3372.71
423.18	3424.20
423.37	3419.52
423.56	3335.26
423.75	3478.04
423.94	3279.09
424.13	3218.24
424.32	3236.96
424.50	3419.52
424.69	3468.67
424.88	3536.55
425.07	3368.03
425.26	3344.63
425.45	3279.09
425.64	3468.67
425.83	3442.93
426.01	3478.04
426.20	3400.80
426.39	3428.88
426.58	3524.85
426.77	3377.39
426.96	3578.68
427.15	3545.91
427.33	3534.21
427.52	3611.45
427.71	3709.75
427.90	3686.34
428.09	3662.94
428.28	3723.79
428.46	3644.21
428.65	3674.64
428.84	3826.78
429.03	3761.24
429.22	3658.26
429.40	3698.05
429.59	3763.58
429.78	3648.90
429.97	3737.84
430.16	3756.56
430.34	3899.33
430.53	3772.94
430.72	3840.82
430.91	3808.05
431.10	3784.65
431.28	4016.36
431.47	3981.25
431.66	3971.89
431.85	3934.44
432.03	4046.79
432.22	4140.41
432.41	4039.76
432.60	4133.39
432.79	4077.21
432.97	4168.49
433.16	4081.89
433.35	4077.21
433.54	4081.89
433.72	4100.62
433.91	4257.43
434.10	4243.39
434.28	4163.81
434.47	4229.35
434.66	4322.97
434.85	4255.09
435.03	4250.41
435.22	4304.25
435.41	4540.64
435.59	4259.78
435.78	4355.74
435.97	4491.49
436.16	4432.97
436.34	4393.19
436.53	4491.49
436.72	4552.34
436.90	4470.42
437.09	4620.22
437.28	4561.70
437.46	4578.09
437.65	4498.51
437.84	4582.77
438.02	4645.96
438.21	4500.85
438.40	4535.96
438.58	4812.14
438.77	4777.03
438.96	4660.01
439.14	4765.33
439.33	4894.06
439.52	4830.87
439.70	4901.08
439.89	4997.04
440.08	4971.30
440.26	5027.47
440.45	5011.09
440.63	4940.87
440.82	5111.73
441.01	5069.60
441.19	5217.05
441.38	5495.58
441.57	5327.06
441.75	5437.06
441.94	5334.08
442.12	5413.66
442.31	5526.00
442.50	5448.77
442.68	5270.89
442.87	5479.19
443.05	5486.22
443.24	5547.07
443.43	5537.71
443.61	5598.56
443.80	5628.99
443.98	5423.02
444.17	5205.35
444.35	5558.77
444.54	5687.50
444.73	5706.23
444.91	5547.07
445.10	5750.70
445.28	5790.49
445.47	5530.69
445.65	5708.57
445.84	5699.20
446.02	5722.61
446.21	5764.74
446.39	5666.44
446.58	5771.76
446.77	5827.93
446.95	5612.60
447.14	5753.04
447.32	5802.19
447.51	5675.80
447.69	5731.97
447.88	5776.44
448.06	5722.61
448.25	5790.49
448.43	5741.33
448.62	5853.68
448.80	5788.14
448.99	5893.47
449.17	5797.51
449.36	5944.96
449.54	6083.05
449.73	6005.81
449.91	6122.84
450.10	6298.38
450.28	5991.77
450.46	6080.71
450.65	6122.84
450.83	6071.35
451.02	6076.03
451.20	6387.32
451.39	6256.25
451.57	6125.18
451.76	6258.59
451.94	6073.69
452.13	6392.00
452.31	6207.10
452.49	6160.29
452.68	6272.64
452.86	6188.38
453.05	6282.00
453.23	6277.32
453.42	6314.77
453.60	6286.68
453.78	6387.32
453.97	6436.47
454.15	6539.46
454.34	6532.44
454.52	6672.87
454.70	6588.61
454.89	6562.86
455.07	6693.93
455.26	6441.15
455.44	6867.13
455.62	6825.00
455.81	6602.65
455.99	6684.57
456.17	6705.63
456.36	6949.05
456.54	6869.47
456.73	6885.86
456.91	7075.44
457.09	6970.12
457.28	7136.29
457.46	7016.93
457.64	7105.87
457.83	7068.42
458.01	7070.76
458.19	7206.51
458.38	7035.65
458.56	7157.36
458.74	7279.07
458.93	7335.24
459.11	7155.02
459.29	7185.44
459.48	7211.19
459.66	7386.73
459.84	7283.75
460.03	7559.93
460.21	7377.37
460.39	7194.81
460.57	7473.33
460.76	7452.27
460.94	7630.15
461.12	7527.16
461.31	7538.87
461.49	7557.59
461.67	7531.84
461.85	7632.49
462.04	7569.29
462.22	8224.64
462.40	7936.76
462.59	7644.19
462.77	7695.68
462.95	7901.65
463.13	7749.51
463.32	7644.19
463.50	7747.17
463.68	8002.29
463.86	8030.38
464.05	7854.84
464.23	7756.54
464.41	8016.33
464.59	7688.66
464.78	8180.17
464.96	7934.42
465.14	7901.65
465.32	8063.15
465.50	8138.04
465.69	8203.58
465.87	8126.34
466.05	8128.68
466.23	8224.64
466.41	8119.32
466.60	8379.12
466.78	8212.94
466.96	8294.86
467.14	8121.66
467.32	8222.30
467.51	8411.89
467.69	8269.11
467.87	8269.11
468.05	8381.46
468.23	8362.73
468.41	8177.83
468.60	8542.96
468.78	8449.33
468.96	8599.13
469.14	8538.27
469.32	8578.06
469.50	8645.94
469.69	8638.92
469.87	8758.28
470.05	8784.03
470.23	8769.99
470.41	8875.31
470.59	8802.75
470.77	8919.78
470.95	8842.54
471.14	9153.84
471.32	8697.43
471.50	9041.49
471.68	9008.72
471.86	9020.42
472.04	9177.24
472.22	9172.56
472.40	9221.71
472.58	9109.36
472.77	9217.03
472.95	9357.46
473.13	9631.30
473.31	9558.75
473.49	9266.18
473.67	9511.94
473.85	9371.50
474.03	9694.50
474.21	9729.61
474.39	9820.89
474.57	9851.31
474.75	10012.81
474.93	10003.45
475.12	9848.97
475.30	10019.83
475.48	9907.49
475.66	9935.57
475.84	9848.97
476.02	10310.06
476.20	10101.75
476.38	10363.89
476.56	10717.31
476.74	10541.77
476.92	10581.56
477.10	10434.11
477.28	10619.01
477.46	10689.23
477.64	10890.51
477.82	11000.52
478.00	11028.60
478.18	11075.42
478.36	10944.34
478.54	11152.65
478.72	11225.21
478.90	11517.78
479.08	11756.51
479.26	11576.29
479.44	11606.72
479.62	11686.29
479.80	12051.42
479.98	11962.48
480.16	12126.32
480.34	11967.16
480.52	12250.36
480.70	12231.64
480.88	12222.28
481.06	12299.52
481.24	12355.69
481.41	12697.41
481.59	12849.54
481.77	12713.79
481.95	13055.51
482.13	13013.38
482.31	13078.91
482.49	13502.55
482.67	13327.01
482.85	13509.57
483.03	13659.37
483.21	13497.87
483.39	13547.02
483.57	13902.78
483.74	13982.36
483.92	13820.86
484.10	13984.70
484.28	14178.97
484.46	14288.97
484.64	14614.30
484.82	14190.67
485.00	14724.31
485.18	14789.85
485.35	15136.24
485.53	15110.50
485.71	15131.56
485.89	15297.74
486.07	15164.33
486.25	15372.64
486.43	15676.91
486.61	15690.95
486.78	16226.93
486.96	16009.26
487.14	16056.08
487.32	16170.76
487.50	16538.23
487.68	16507.80
487.85	16585.04
488.03	16835.47
488.21	16929.09
488.39	16828.45
488.57	17266.13
488.75	17221.66
488.92	17282.52
489.10	17418.27
489.28	17268.47
489.46	17757.64
489.64	17877.01
489.81	18087.66
489.99	18073.62
490.17	17970.63
490.35	18553.43
490.53	18647.05
490.70	18487.89
490.88	18391.93
491.06	18909.19
491.24	19241.54
491.41	19077.71
491.59	19166.65
491.77	19283.67
491.95	19482.62
492.13	19625.39
492.30	19798.59
492.48	19693.27
492.66	20016.26
492.84	19545.81
493.01	20128.61
493.19	20194.14
493.37	20390.75
493.54	20299.47
493.72	20498.41
493.90	20519.48
494.08	21008.65
494.25	20912.69
494.43	20985.24
494.61	21135.04
494.79	21071.84
494.96	21308.24
495.14	21216.96
495.32	21612.51
495.49	22099.34
495.67	21666.34
495.85	22176.58
496.02	22066.57
496.20	22167.21
496.38	22593.19
496.55	22436.38
496.73	22792.14
496.91	22565.10
497.09	22611.92
497.26	22885.76
497.44	23026.19
497.62	22878.74
497.79	23227.48
497.97	23311.74
498.14	23662.82
498.32	23730.69
498.50	23770.48
498.67	23941.34
498.85	23859.42
499.03	23906.23
499.20	24123.90
499.38	24297.10
499.56	24018.58
499.73	24570.94
499.91	24498.39
500.08	24730.10
500.26	24453.92
500.44	24821.38
500.61	24816.70
500.79	24933.73
500.97	25055.43
501.14	25041.39
501.32	25312.89
501.49	25263.74
501.67	25516.52
501.84	25497.80
502.02	25546.95
502.20	25748.23
502.37	25839.51
502.55	25589.08
502.72	25947.18
502.90	25930.80
503.07	26026.76
503.25	26136.76
503.43	25961.22
503.60	26520.61
503.78	26544.02
503.95	26202.30
504.13	26506.57
504.30	26796.79
504.48	26478.48
504.65	26717.22
504.83	27080.00
505.01	27171.28
505.18	27234.47
505.36	27180.64
505.53	27112.77
505.71	27367.88
505.88	27475.55
506.06	27686.20
506.23	27393.63
506.41	27405.33
506.58	27798.54
506.76	27704.92
506.93	27953.02
507.11	27779.82
507.28	28027.92
507.46	28276.01
507.63	28187.07
507.81	28451.55
507.98	28175.37
508.16	28568.58
508.33	28535.81
508.50	28575.60
508.68	29060.09
508.85	28819.02
509.03	28671.56
509.20	29174.78
509.38	29565.65
509.55	29235.63
509.73	29624.16
509.90	29273.08
510.08	29490.75
510.25	29474.37
510.42	30096.95
510.60	29656.93
510.77	30141.42
510.95	30450.37
511.12	29837.15
511.30	29738.85
511.47	29982.26
511.64	30188.23
511.82	29926.09
511.99	30352.07
512.17	30443.35
512.34	30632.93
512.51	30916.14
512.69	30696.13
512.86	30782.73
513.04	30998.06
513.21	30661.02
513.38	31000.40
513.56	31208.70
513.73	31243.81
513.90	31194.66
514.08	31199.34
514.25	31716.60
514.43	31468.50
514.60	31920.23
514.77	31639.36
514.95	31882.78
515.12	31634.68
515.29	31482.55
515.47	31791.50
515.64	31873.42
515.81	32051.30
515.99	32240.88
516.16	32290.03
516.33	32074.70
516.51	32334.50
516.68	32247.90
516.85	32400.04
517.03	32816.65
517.20	32737.07
517.37	32545.15
517.54	32877.51
517.72	33151.35
517.89	32786.22
518.06	33067.09
518.24	33214.54
518.41	32648.13
518.58	33003.89
518.75	33123.26
518.93	33184.12
519.10	33596.05
519.27	33696.69
519.45	33041.34
519.62	34061.82
519.79	33722.44
519.96	34155.44
520.14	33872.23
520.31	33586.69
520.48	33893.30
520.65	33853.51
520.83	34455.03
521.00	34462.05
521.17	34019.69
521.34	34359.06
521.52	34429.28
521.69	34698.44
521.86	34682.06
522.03	34960.58
522.20	34653.97
522.38	35002.71
522.55	34738.23
522.72	34696.10
522.89	35096.33
523.07	35625.29
523.24	35342.09
523.41	35620.61
523.58	35257.83
523.75	35349.11
523.92	35318.68
524.10	35442.73
524.27	35779.77
524.44	35620.61
524.61	35543.38
524.78	36055.95
524.96	36062.97
525.13	35658.06
525.30	35955.31
525.47	36130.85
525.64	36149.57
525.81	36189.36
525.98	36226.81
526.16	36381.29
526.33	36418.74
526.50	36811.95
526.67	36491.29
526.84	36432.78
527.01	36451.50
527.18	36996.85
527.36	36875.14
527.53	37020.25
527.70	37153.66
527.87	37251.97
528.04	36933.65
528.21	37144.30
528.38	36898.55
528.55	37539.85
528.72	36924.29
528.89	37516.45
529.07	37268.35
529.24	37027.28
529.41	37488.36
529.58	37500.06
529.75	37291.76
529.92	37244.94
530.09	37720.07
530.26	37708.37
530.43	37904.98
530.60	37394.74
530.77	37717.73
530.94	37790.29
531.11	37338.57
531.28	38059.45
531.46	37738.80
531.63	38082.86
531.80	37919.02
531.97	38195.20
532.14	38433.94
532.31	37940.08
532.48	38520.54
532.65	38614.16
532.82	38227.97
532.99	38565.01
533.16	38649.27
533.33	38623.52
533.50	38567.35
533.67	38520.54
533.84	38412.87
534.01	39140.78
534.18	38607.14
534.35	39288.23
534.52	38941.83
534.69	39384.19
534.86	39007.37
535.03	39173.55
535.20	39372.49
535.37	39438.03
535.54	39379.51
535.71	39576.12
535.88	39948.26
536.05	39552.71
536.22	39793.79
536.38	39903.79
536.55	39854.64
536.72	39938.90
536.89	39557.39
537.06	39615.91
537.23	39910.82
537.40	39814.85
537.57	39810.17
537.74	39459.09
537.91	40243.17
538.08	39871.03
538.25	40041.88
538.42	40172.96
538.59	40491.27
538.75	40072.31
538.92	40877.46
539.09	40392.97
539.26	40430.41
539.43	40299.34
539.60	40692.55
539.77	40818.94
539.94	40746.39
540.11	40622.34
540.28	40715.96
540.44	40912.56
540.61	40556.80
540.78	40790.86
540.95	41097.47
541.12	40992.14
541.29	40629.36
541.46	40954.69
541.62	40612.98
541.79	41170.02
541.96	40498.29
542.13	41003.85
542.30	41076.40
542.47	41235.56
542.63	40996.82
542.80	41982.19
542.97	41907.29
543.14	41670.90
543.31	42099.22
543.48	41811.33
543.64	42272.42
543.81	41846.44
543.98	41928.36
544.15	41813.67
544.32	41933.04
544.48	42043.04
544.65	42024.32
544.82	42260.71
544.99	42225.60
545.16	42377.74
545.32	42103.90
545.49	42670.31
545.66	42895.00
545.83	42251.35
546.00	42710.10
546.16	42469.02
546.33	42391.78
546.50	42230.29
546.67	42792.01
546.83	42183.48
547.00	42628.18
547.17	42836.48
547.34	43168.84
547.50	42462.00
547.67	43005.00
547.84	42988.62
548.00	42969.90
548.17	43306.93
548.34	43189.91
548.51	43283.53
548.67	43143.09
548.84	43267.14
549.01	43517.58
549.18	42756.91
549.34	43564.39
549.51	43414.60
549.68	43889.73
549.84	43344.38
550.01	43768.02
550.18	43206.29
550.34	43445.02
550.51	43576.09
550.68	43676.74
550.84	43112.67
551.01	43908.45
551.18	43601.84
551.34	43217.99
551.51	43690.78
551.68	44147.18
551.84	43889.73
552.01	43943.56
552.18	44039.52
552.34	43683.76
552.51	44289.96
552.68	43749.29
552.84	43922.49
553.01	44011.43
553.18	44046.54
553.34	44041.86
553.51	44081.65
553.67	44088.67
553.84	44612.95
554.01	44421.03
554.17	43784.40
554.34	43838.23
554.51	44804.88
554.67	44980.42
554.84	44477.20
555.00	44175.27
555.17	44282.94
555.33	44191.65
555.50	44804.88
555.67	44612.95
555.83	44655.08
556.00	44744.02
556.16	45263.62
556.33	45106.80
556.50	44877.43
556.66	44402.30
556.83	44582.52
556.99	45193.40
557.16	44861.05
557.32	45081.06
557.49	45034.25
557.65	45134.89
557.82	44704.23
557.98	45001.48
558.15	45155.96
558.32	45340.86
558.48	45045.95
558.65	45331.50
558.81	45404.05
558.98	45148.93
559.14	45174.68
559.31	45212.13
559.47	45223.83
559.64	45544.48
559.80	45429.80
559.97	45642.79
560.13	45282.34
560.30	45464.91
560.46	45310.43
560.63	45177.02
560.79	45940.04
560.96	46061.74
561.12	45654.49
561.29	45656.83
561.45	45593.64
561.61	45874.50
561.78	45689.60
561.94	45624.06
562.11	45460.23
562.27	45581.93
562.44	45537.46
562.60	45570.23
562.77	45380.65
562.93	45614.70
563.10	45916.63
563.26	46099.19
563.42	46344.95
563.59	45617.04
563.75	46216.22
563.92	45914.29
564.08	45705.98
564.24	45918.97
564.41	45808.96
564.57	46211.54
564.74	46099.19
564.90	45443.84
565.07	46094.51
565.23	46361.33
565.39	46272.39
565.56	46295.80
565.72	45762.15
565.88	46106.21
566.05	46204.52
566.21	46124.94
566.38	46176.43
566.54	46532.19
566.70	46190.47
566.87	46494.74
567.03	46033.66
567.19	46529.85
567.36	46265.37
567.52	46433.89
567.68	46712.41
567.85	46480.70
568.01	47110.30
568.17	46387.08
568.34	46471.34
568.50	46344.95
568.66	46447.93
568.83	46937.10
568.99	46476.02
569.15	46218.56
569.32	46012.59
569.48	46127.28
569.64	46562.62
569.81	46209.20
569.97	46859.87
570.13	46724.11
570.30	46326.22
570.46	46408.14
570.62	46569.64
570.78	46447.93
570.95	46124.94
571.11	47103.28
571.27	46731.14
571.43	46307.50
571.60	46602.41
571.76	46263.03
571.92	46424.53
572.09	46485.38
572.25	46567.30
572.41	46326.22
572.57	46728.80
572.74	47056.47
572.90	46920.72
573.06	46806.03
573.22	46693.69
573.38	46990.94
573.55	46485.38
573.71	47000.30
573.87	46773.27
574.03	46906.68
574.20	46986.25
574.36	46705.39
574.52	46639.86
574.68	46651.56
574.84	47021.36
575.01	47299.89
575.17	46981.57
575.33	47157.11
575.49	46887.95
575.65	46761.56
575.82	47234.35
575.98	46696.03
576.14	46965.19
576.30	47194.56
576.46	47077.54
576.62	46845.82
576.79	46990.94
576.95	46740.50
577.11	46595.38
577.27	46838.80
577.43	47033.07
577.59	47072.85
577.75	46614.11
577.92	46696.03
578.08	47154.77
578.24	47035.41
578.40	46979.23
578.56	47079.88
578.72	46871.57
578.88	47103.28
579.04	47054.13
579.21	47278.82
579.37	47093.92
579.53	47400.53
579.69	47002.64
579.85	46864.55
580.01	46986.25
580.17	46979.23
580.33	46726.46
580.49	47166.48
580.65	46997.96
580.82	47365.42
580.98	46892.63
581.14	47047.11
581.30	47224.99
581.46	47093.92
581.62	46946.47
581.78	46628.15
581.94	47334.99
582.10	46967.53
582.26	47505.85
582.42	47302.23
582.58	47428.62
582.74	47086.90
582.90	47217.97
583.06	47405.21
583.22	46967.53
583.38	47344.36
583.54	47482.45
583.70	47215.63
583.86	47519.90
584.02	47077.54
584.18	47742.25
584.34	47503.51
584.50	47384.15
584.66	47508.19
584.82	47388.83
584.98	47657.99
585.14	47269.46
585.30	46983.91
585.46	47203.92
585.62	47168.82
585.78	47367.76
585.94	47440.32
586.10	47028.38
586.26	47096.26
586.42	47224.99
586.58	47547.98
586.74	47117.32
586.90	47445.00
587.06	47030.72
587.22	47505.85
587.38	46941.78
587.54	47482.45
587.70	47695.44
587.86	47058.81
588.02	47332.65
588.18	47262.44
588.34	47129.03
588.49	47264.78
588.65	46993.28
588.81	47044.77
588.97	47428.62
589.13	47512.88
589.29	47423.93
589.45	48046.52
589.61	47295.21
589.77	47395.85
589.93	46960.51
590.08	47690.76
