SpectraSuite Data File
++++++++++++++++++++++++++++++++++++
Date: Fri Oct 25 10:48:23 EDT 2013
User: price-jones
Dark Spectrum Present: No
Reference Spectrum Present: No
Number of Sampled Component Spectra: 1
Spectrometers: USB2+H05261
Integration Time (usec): 100000 (USB2+H05261)
Spectra Averaged: 1 (USB2+H05261)
Boxcar Smoothing: 0 (USB2+H05261)
Correct for Electrical Dark: No (USB2+H05261)
Strobe/Lamp Enabled: No (USB2+H05261)
Correct for Detector Non-linearity: No (USB2+H05261)
Correct for Stray Light: No (USB2+H05261)
Number of Pixels in Processed Spectrum: 2048
>>>>>Begin Processed Spectral Data<<<<<
365.73	84.26
365.92	84.26
366.12	84.26
366.32	74.90
366.52	58.51
366.72	110.01
366.91	28.09
367.11	138.09
367.31	0.00
367.51	37.45
367.70	56.17
367.90	105.32
368.10	77.24
368.30	35.11
368.49	44.47
368.69	74.90
368.89	72.56
369.09	60.85
369.28	63.19
369.48	79.58
369.68	156.82
369.87	88.94
370.07	121.71
370.27	177.88
370.47	201.29
370.66	299.59
370.86	409.59
371.06	395.55
371.25	526.62
371.45	475.13
371.65	489.17
371.84	477.47
372.04	397.89
372.24	479.81
372.44	496.19
372.63	547.69
372.83	606.20
373.03	496.19
373.22	552.37
373.42	550.03
373.62	510.24
373.81	559.39
374.01	517.26
374.21	475.13
374.40	540.66
374.60	554.71
374.79	543.00
374.99	566.41
375.19	603.86
375.38	554.71
375.58	631.94
375.78	573.43
375.97	564.07
376.17	716.20
376.37	629.60
376.56	685.78
376.76	568.75
376.95	650.67
377.15	634.29
377.35	653.01
377.54	631.94
377.74	615.56
377.93	638.97
378.13	688.12
378.33	645.99
378.52	662.37
378.72	695.14
378.91	660.03
379.11	685.78
379.31	692.80
379.50	613.22
379.70	718.54
379.89	676.41
380.09	655.35
380.28	650.67
380.48	734.93
380.68	594.50
380.87	716.20
381.07	779.40
381.26	739.61
381.46	697.48
381.65	746.63
381.85	699.82
382.04	688.12
382.24	753.65
382.43	706.84
382.63	688.12
382.83	788.76
383.02	727.91
383.22	751.31
383.41	683.44
383.61	760.67
383.80	833.23
384.00	821.53
384.19	739.61
384.39	851.96
384.58	840.25
384.78	866.00
384.97	746.63
385.17	777.06
385.36	798.12
385.56	725.57
385.75	795.78
385.95	784.08
386.14	882.38
386.34	816.85
386.53	704.50
386.72	856.64
386.92	823.87
387.11	767.70
387.31	798.12
387.50	858.98
387.70	819.19
387.89	828.55
388.09	868.34
388.28	889.40
388.48	884.72
388.67	957.28
388.86	905.79
389.06	873.02
389.25	959.62
389.45	1011.11
389.64	961.96
389.84	973.66
390.03	976.00
390.22	976.00
390.42	938.55
390.61	1029.84
390.81	997.07
391.00	1090.69
391.19	1123.46
391.39	992.39
391.58	1128.14
391.78	1055.58
391.97	992.39
392.16	1125.80
392.36	1022.81
392.55	999.41
392.75	1039.20
392.94	1025.15
393.13	1081.33
393.33	1043.88
393.52	1123.46
393.71	1062.60
393.91	1177.29
394.10	1090.69
394.29	1116.44
394.49	1135.16
394.68	1144.52
394.88	1172.61
395.07	1196.01
395.26	1263.89
395.46	1172.61
395.65	1221.76
395.84	1259.21
396.04	1245.16
396.23	1219.42
396.42	1193.67
396.62	1242.82
396.81	1224.10
397.00	1214.74
397.19	1242.82
397.39	1277.93
397.58	1350.49
397.77	1299.00
397.97	1427.73
398.16	1371.55
398.35	1448.79
398.55	1495.60
398.74	1437.09
398.93	1500.28
399.12	1516.67
399.32	1430.07
399.51	1455.81
399.70	1626.67
399.90	1502.62
400.09	1530.71
400.28	1577.52
400.47	1605.61
400.67	1586.88
400.86	1717.95
401.05	1643.06
401.24	1540.07
401.44	1664.12
401.63	1839.66
401.82	1722.63
402.01	1640.72
402.21	1689.87
402.40	1844.34
402.59	1736.68
402.78	1673.48
402.97	1755.40
403.17	1626.67
403.36	1675.82
403.55	1863.07
403.74	1837.32
403.93	1809.23
404.13	1750.72
404.32	1898.17
404.51	1870.09
404.70	1898.17
404.89	1846.68
405.09	1944.99
405.28	1846.68
405.47	1916.90
405.66	1888.81
405.85	2012.86
406.05	1916.90
406.24	1912.22
406.43	2012.86
406.62	1949.67
406.81	2139.25
407.00	1970.73
407.20	1914.56
407.39	2033.93
407.58	2113.50
407.77	2092.44
407.96	2139.25
408.15	2242.23
408.34	2183.72
408.54	2146.27
408.73	2263.30
408.92	2279.68
409.11	2314.79
409.30	2296.07
409.49	2291.38
409.68	2188.40
409.87	2284.36
410.07	2321.81
410.26	2282.02
410.45	2370.96
410.64	2427.14
410.83	2438.84
411.02	2555.86
411.21	2544.16
411.40	2469.27
411.59	2689.28
411.78	2490.33
411.98	2691.62
412.17	2555.86
412.36	2548.84
412.55	2597.99
412.74	2630.76
412.93	2700.98
413.12	2633.10
413.31	2871.84
413.50	2815.66
413.69	2773.53
413.88	2899.92
414.07	2937.37
414.26	2867.16
414.45	2843.75
414.64	2951.42
414.83	2956.10
415.02	3070.78
415.22	3098.87
415.41	3028.65
415.60	3054.40
415.79	3009.93
415.98	3148.02
416.17	3178.45
416.36	3162.06
416.55	3166.74
416.74	3148.02
416.93	3251.00
417.12	3274.41
417.31	3218.24
417.50	3262.71
417.69	3337.60
417.88	3421.86
418.07	3407.82
418.26	3297.81
418.45	3368.03
418.64	3428.88
418.83	3522.51
419.02	3417.18
419.21	3503.78
419.39	3543.57
419.58	3421.86
419.77	3389.10
419.96	3541.23
420.15	3646.55
420.34	3627.83
420.53	3761.24
420.72	3751.88
420.91	3728.47
421.10	3726.13
421.29	3758.90
421.48	3669.96
421.67	3857.20
421.86	3686.34
422.05	3786.99
422.24	3772.94
422.43	3719.11
422.61	3756.56
422.80	3784.65
422.99	3904.01
423.18	3892.31
423.37	3981.25
423.56	3838.48
423.75	3815.07
423.94	3833.80
424.13	3646.55
424.32	3695.71
424.50	3929.76
424.69	3831.46
424.88	4002.32
425.07	3911.04
425.26	3754.22
425.45	3756.56
425.64	3843.16
425.83	3889.97
426.01	3955.51
426.20	4093.60
426.39	3985.93
426.58	3918.06
426.77	3873.59
426.96	3892.31
427.15	4107.64
427.33	4046.79
427.52	3969.55
427.71	3981.25
427.90	3964.87
428.09	4007.00
428.28	4014.02
428.46	4065.51
428.65	4023.38
428.84	4166.15
429.03	4257.43
429.22	4056.15
429.40	4070.19
429.59	4173.18
429.78	4028.06
429.97	3964.87
430.16	3854.86
430.34	4065.51
430.53	4329.99
430.72	4070.19
430.91	4180.20
431.10	4166.15
431.28	4266.80
431.47	4390.84
431.66	4601.49
431.85	4500.85
432.03	4613.20
432.22	4608.51
432.41	4500.85
432.60	4685.75
432.79	4538.30
432.97	4622.56
433.16	4746.61
433.35	4697.46
433.54	4594.47
433.72	4552.34
433.91	4596.81
434.10	4772.35
434.28	4713.84
434.47	4760.65
434.66	4760.65
434.85	4910.44
435.03	4741.93
435.22	4924.49
435.41	5160.88
435.59	5006.41
435.78	5050.88
435.97	5177.26
436.16	5064.92
436.34	5064.92
436.53	5055.56
436.72	5153.86
436.90	4947.89
437.09	5160.88
437.28	4912.78
437.46	5048.54
437.65	5088.32
437.84	5048.54
438.02	5036.83
438.21	5053.22
438.40	5064.92
438.58	5305.99
438.77	5228.76
438.96	5280.25
439.14	5289.61
439.33	5530.69
439.52	5600.90
439.70	5533.03
439.89	5647.71
440.08	5645.37
440.26	5713.25
440.45	5706.23
440.63	5666.44
440.82	5825.59
441.01	5776.44
441.19	5893.47
441.38	6076.03
441.57	6036.24
441.75	6038.58
441.94	6136.88
442.12	6064.33
442.31	6396.68
442.50	6363.92
442.68	6394.34
442.87	6232.85
443.05	6242.21
443.24	6326.47
443.43	6277.32
443.61	6183.70
443.80	6626.06
443.98	6363.92
444.17	6101.78
444.35	6527.75
444.54	6422.43
444.73	6338.17
444.91	6415.41
445.10	6462.22
445.28	6314.77
445.47	6331.15
445.65	6296.04
445.84	6478.60
446.02	6436.47
446.21	6373.28
446.39	6593.29
446.58	6569.88
446.77	6422.43
446.95	6333.49
447.14	6647.12
447.32	6628.40
447.51	6457.54
447.69	6583.93
447.88	6574.56
448.06	6593.29
448.25	6459.88
448.43	6612.01
448.62	6434.13
448.80	6384.98
448.99	6649.46
449.17	6754.79
449.36	6825.00
449.54	6963.09
449.73	6871.81
449.91	6881.18
450.10	6944.37
450.28	6911.60
450.46	6913.94
450.65	7115.23
450.83	7197.15
451.02	6988.84
451.20	7037.99
451.39	7316.51
451.57	7052.03
451.76	7019.27
451.94	6944.37
452.13	7166.72
452.31	7021.61
452.49	6958.41
452.68	7091.82
452.86	6970.12
453.05	7056.72
453.23	7215.87
453.42	7269.70
453.60	7276.73
453.78	7253.32
453.97	7283.75
454.15	7258.00
454.34	7190.13
454.52	7377.37
454.70	7552.91
454.89	7314.17
455.07	7463.97
455.26	7543.55
455.44	7566.95
455.62	7644.19
455.81	7604.40
455.99	7660.57
456.17	7721.43
456.36	7691.00
456.54	7653.55
456.73	7747.17
456.91	8063.15
457.09	7840.79
457.28	8037.40
457.46	7871.22
457.64	8044.42
457.83	7964.84
458.01	8025.70
458.19	8219.96
458.38	7960.16
458.56	8259.75
458.74	8124.00
458.93	7908.67
459.11	8105.28
459.29	8109.96
459.48	8336.99
459.66	8205.92
459.84	8182.51
460.03	8454.02
460.21	8224.64
460.39	8439.97
460.57	8322.94
460.76	8533.59
460.94	8533.59
461.12	8582.74
461.31	8416.57
461.49	8294.86
461.67	8416.57
461.85	8596.79
462.04	8514.87
462.22	9034.47
462.40	8798.07
462.59	8739.56
462.77	8631.90
462.95	8760.63
463.13	8826.16
463.32	8784.03
463.50	8772.33
463.68	8833.18
463.86	8896.38
464.05	8739.56
464.23	8863.61
464.41	8990.00
464.59	8784.03
464.78	8917.44
464.96	8835.52
465.14	8753.60
465.32	9266.18
465.50	9078.94
465.69	9043.83
465.87	9083.62
466.05	9107.02
466.23	9001.70
466.41	9195.96
466.60	9305.97
466.78	9109.36
466.96	9081.28
467.14	9179.58
467.32	9181.92
467.51	9390.23
467.69	9053.19
467.87	9338.74
468.05	9312.99
468.23	9153.84
468.41	9465.13
468.60	9284.91
468.78	9373.85
468.96	9329.38
469.14	9432.36
469.32	9652.37
469.50	9308.31
469.69	9399.59
469.87	9643.01
470.05	9488.53
470.23	9734.29
470.41	9741.31
470.59	9647.69
470.77	9818.55
470.95	9926.21
471.14	10087.71
471.32	9823.23
471.50	10272.61
471.68	10064.30
471.86	10310.06
472.04	10410.70
472.22	10312.40
472.40	9977.70
472.58	10260.91
472.77	10303.04
472.95	10494.96
473.13	10420.06
473.31	10265.59
473.49	10298.36
473.67	10537.09
473.85	10703.27
474.03	10913.92
474.21	10913.92
474.39	10883.49
474.57	10824.98
474.75	10703.27
474.93	10958.39
475.12	11070.73
475.30	11140.95
475.48	10942.00
475.66	10855.40
475.84	11187.76
476.02	11192.44
476.20	11030.94
476.38	11506.07
476.56	11648.85
476.74	11529.48
476.92	11555.22
477.10	11454.58
477.28	11714.38
477.46	11964.82
477.64	12191.85
477.82	12383.77
478.00	12325.26
478.18	12264.41
478.36	12255.04
478.54	12507.82
478.72	12594.42
478.90	12823.80
479.08	12835.50
479.26	13008.70
479.44	13156.15
479.62	13165.51
479.80	13015.72
479.98	13060.19
480.16	13284.88
480.34	13329.35
480.52	13465.10
480.70	13509.57
480.88	13308.29
481.06	13561.06
481.24	13839.59
481.41	13703.84
481.59	14356.85
481.77	14029.17
481.95	14291.31
482.13	14345.14
482.31	14417.70
482.49	14581.54
482.67	14595.58
482.85	14927.94
483.03	14906.87
483.21	15152.63
483.39	15044.96
483.57	15073.05
483.74	15328.17
483.92	15241.57
484.10	15506.05
484.28	15475.62
484.46	15971.82
484.64	16212.89
484.82	15681.59
485.00	16222.25
485.18	16098.20
485.35	16383.75
485.53	16070.12
485.71	16208.21
485.89	16276.09
486.07	16477.37
486.25	16210.55
486.43	16606.10
486.61	16821.43
486.78	17142.08
486.96	17245.07
487.14	17525.93
487.32	17799.77
487.50	17797.43
487.68	17734.24
487.85	18312.35
488.03	18359.16
488.21	18518.32
488.39	18384.91
488.57	18635.35
488.75	18511.30
488.92	18752.37
489.10	18787.48
489.28	19489.64
489.46	19583.26
489.64	19278.99
489.81	19805.61
489.99	19819.66
490.17	20034.99
490.35	20067.75
490.53	19875.83
490.70	20189.46
490.88	20526.50
491.06	20685.65
491.24	20533.52
491.41	20519.48
491.59	20393.09
491.77	20463.30
491.95	20814.38
492.13	21102.27
492.30	21458.03
492.48	21556.33
492.66	21568.04
492.84	21408.88
493.01	21774.00
493.19	21596.12
493.37	22029.12
493.54	22281.90
493.72	22450.42
493.90	22291.26
494.08	22485.53
494.25	22710.22
494.43	22710.22
494.61	22955.97
494.79	23227.48
494.96	23328.12
495.14	23002.78
495.32	23461.53
495.49	23569.19
495.67	23917.93
495.85	23718.99
496.02	23875.80
496.20	23985.81
496.38	24236.25
496.55	24512.43
496.73	24788.61
496.91	24552.22
497.09	24678.61
497.26	24788.61
497.44	24460.94
497.62	25160.76
497.79	25296.51
497.97	24519.45
498.14	25336.30
498.32	25230.98
498.50	25170.12
498.67	25792.70
498.85	25881.64
499.03	25940.16
499.20	25837.17
499.38	26073.57
499.56	25687.38
499.73	26132.08
499.91	26225.70
500.08	26520.61
500.26	26061.87
500.44	26459.76
500.61	26670.40
500.79	26434.01
500.97	26630.62
501.14	26911.48
501.32	27101.06
501.49	26672.74
501.67	27005.10
501.84	27417.04
502.02	26911.48
502.20	27365.54
502.37	27646.41
502.55	27232.13
502.72	27927.27
502.90	28147.28
503.07	27821.95
503.25	27885.14
503.43	27498.95
503.60	27924.93
503.78	28219.84
503.95	28030.26
504.13	28163.67
504.30	28587.30
504.48	28458.57
504.65	28797.95
504.83	28645.82
505.01	28851.78
505.18	29001.58
505.36	28929.02
505.53	28879.87
505.71	29331.59
505.88	29528.20
506.06	29364.36
506.23	29179.46
506.41	29144.35
506.58	29146.69
506.76	29404.15
506.93	29795.02
507.11	29450.96
507.28	29628.84
507.46	29696.72
507.63	29881.62
507.81	30005.67
507.98	29949.50
508.16	30298.23
508.33	30197.59
508.50	30555.69
508.68	30939.54
508.85	31033.16
509.03	30590.80
509.20	30354.41
509.38	30953.58
509.55	30998.06
509.73	31037.84
509.90	30930.18
510.08	31108.06
510.25	31161.89
510.42	31267.22
510.60	31538.72
510.77	31613.62
510.95	31732.98
511.12	31634.68
511.30	31793.84
511.47	32133.21
511.64	32182.37
511.82	31901.50
511.99	31924.91
512.17	32353.23
512.34	31847.67
512.51	32224.50
512.69	32320.46
512.86	32615.37
513.04	32708.99
513.21	32746.44
513.38	32720.69
513.56	32818.99
513.73	32311.10
513.90	32807.29
514.08	32999.21
514.25	32966.45
514.43	33141.99
514.60	33137.30
514.77	33137.30
514.95	33462.64
515.12	33366.68
515.29	33289.44
515.47	33860.53
515.64	33741.16
515.81	33565.62
515.99	33558.60
516.16	33869.89
516.33	33263.69
516.51	33343.27
516.68	33237.95
516.85	33450.94
517.03	33383.06
517.20	33759.89
517.37	33944.79
517.54	34391.83
517.72	34141.39
517.89	33979.90
518.06	33872.23
518.24	34115.65
518.41	34410.56
518.58	34192.89
518.75	34394.17
518.93	34572.05
519.10	34494.82
519.27	35196.98
519.45	35311.66
519.62	35260.17
519.79	35112.72
519.96	35150.17
520.14	35615.93
520.31	35002.71
520.48	35487.20
520.65	35318.68
520.83	35824.24
521.00	36109.78
521.17	35765.73
521.34	35840.62
521.52	36074.68
521.69	36130.85
521.86	36191.70
522.03	36107.44
522.20	36453.84
522.38	36074.68
522.55	36444.48
522.72	35866.37
522.89	36184.68
523.07	36680.88
523.24	36329.80
523.41	36882.16
523.58	36552.15
523.75	37172.39
523.92	36900.89
524.10	37413.46
524.27	36830.67
524.44	37612.41
524.61	37219.20
524.78	37156.00
524.96	37469.64
525.13	37537.51
525.30	37687.31
525.47	37525.81
525.64	37256.65
525.81	37469.64
525.98	37148.98
526.16	37148.98
526.33	36987.49
526.50	37256.65
526.67	37324.52
526.84	37125.58
527.01	37214.52
527.18	37720.07
527.36	37872.21
527.53	38080.52
527.70	38686.71
527.87	38281.80
528.04	38005.62
528.21	38202.22
528.38	38038.39
528.55	38780.34
528.72	38560.33
528.89	39019.07
529.07	38897.36
529.24	38511.17
529.41	38370.74
529.58	38909.07
529.75	38623.52
529.92	38733.53
530.09	39042.48
530.26	38738.21
530.43	38953.54
530.60	39098.65
530.77	39335.04
530.94	39566.76
531.11	39416.96
531.28	39108.01
531.46	39742.30
531.63	39805.49
531.80	39658.04
531.97	39175.89
532.14	39285.89
532.31	39283.55
532.48	39323.34
532.65	39700.17
532.82	39393.56
532.99	39885.07
533.16	39356.11
533.33	39938.90
533.50	40086.36
533.67	39894.43
533.84	39873.37
534.01	39969.33
534.18	40044.23
534.35	40531.06
534.52	40069.97
534.69	40418.71
534.86	40226.79
535.03	40055.93
535.20	40231.47
535.37	40722.98
535.54	40711.28
535.71	40858.73
535.88	40353.18
536.05	40545.10
536.22	40488.93
536.38	40622.34
536.55	40423.39
536.72	40741.71
536.89	40545.10
537.06	40603.61
537.23	40952.35
537.40	40807.24
537.57	40772.13
537.74	41106.83
537.91	41378.33
538.08	41364.29
538.25	40744.05
538.42	41024.91
538.59	41703.67
538.75	40825.96
538.92	41022.57
539.09	41488.34
539.26	41258.96
539.43	41471.95
539.60	41488.34
539.77	41516.42
539.94	41474.29
540.11	41102.15
540.28	41483.66
540.44	41205.13
540.61	41184.07
540.78	41235.56
540.95	41471.95
541.12	41645.15
541.29	41593.66
541.46	41666.22
541.62	41610.04
541.79	41689.62
541.96	41488.34
542.13	41689.62
542.30	42417.53
542.47	41872.18
542.63	41921.34
542.80	41989.21
542.97	42251.35
543.14	42691.37
543.31	42410.51
543.48	42677.33
543.64	43229.69
543.81	42923.08
543.98	42941.81
544.15	42635.20
544.32	42602.43
544.48	43255.44
544.65	42927.77
544.82	42466.68
544.99	42288.80
545.16	42534.56
545.32	42567.32
545.49	43257.78
545.66	42981.60
545.83	43044.79
546.00	43035.43
546.16	43161.82
546.33	43042.45
546.50	42721.80
546.67	43217.99
546.83	43042.45
547.00	43234.38
547.17	42932.45
547.34	43564.39
547.50	43283.53
547.67	43564.39
547.84	43550.35
548.00	43739.93
548.17	43632.27
548.34	43840.57
548.51	43388.85
548.67	43812.49
548.84	43789.08
549.01	43650.99
549.18	43880.36
549.34	43342.04
549.51	44107.40
549.68	44369.54
549.84	44219.74
550.01	43749.29
550.18	43395.87
550.34	43924.83
550.51	44009.09
550.68	43845.26
550.84	43412.26
551.01	44161.23
551.18	44233.78
551.34	44296.98
551.51	44334.43
551.68	44406.98
551.84	44051.22
552.01	44135.48
552.18	44285.28
552.34	43908.45
552.51	44219.74
552.68	44233.78
552.84	44531.03
553.01	44416.35
553.18	44451.45
553.34	44278.25
553.51	44406.98
553.67	44322.72
553.84	45071.70
554.01	44699.55
554.17	44659.76
554.34	44926.58
554.51	44671.46
554.67	44744.02
554.84	44914.88
555.00	44718.28
555.17	44456.14
555.33	44807.22
555.50	44435.07
555.67	45282.34
555.83	45170.00
556.00	45137.23
556.16	45024.89
556.33	45322.13
556.50	44910.20
556.66	45258.94
556.83	44615.29
556.99	45139.57
557.16	45326.81
557.32	45212.13
557.49	44989.78
557.65	44355.49
557.82	44961.69
557.98	44959.35
558.15	45537.46
558.32	45167.66
558.48	45268.30
558.65	45446.18
558.81	45626.40
558.98	44968.71
559.14	45467.25
559.31	44999.14
559.47	45394.69
559.64	45825.35
559.80	45483.63
559.97	45464.91
560.13	45647.47
560.30	45450.86
560.46	45284.68
560.63	45399.37
560.79	45598.32
560.96	45537.46
561.12	45226.17
561.29	45968.12
561.45	45237.87
561.61	45787.90
561.78	46021.95
561.94	45406.39
562.11	45186.38
562.27	45427.46
562.44	45682.58
562.60	45469.59
562.77	45509.38
562.93	45612.36
563.10	45413.41
563.26	45815.99
563.42	45748.11
563.59	45923.65
563.75	45518.74
563.92	45935.35
564.08	45715.34
564.24	46206.86
564.41	45610.02
564.57	45467.25
564.74	45792.58
564.90	45794.92
565.07	45326.81
565.23	45940.04
565.39	45773.86
565.56	46073.45
565.72	45560.87
565.88	45593.64
566.05	45909.61
566.21	45783.22
566.38	45631.08
566.54	45780.88
566.70	45954.08
566.87	46256.01
567.03	45961.10
567.19	46375.37
567.36	45895.56
567.52	45837.05
567.68	46120.26
567.85	45895.56
568.01	45745.77
568.17	45645.13
568.34	45984.51
568.50	46129.62
568.66	45666.19
568.83	45773.86
568.99	45846.41
569.15	46007.91
569.32	45743.43
569.48	45947.06
569.64	46218.56
569.81	46216.22
569.97	45752.79
570.13	46295.80
570.30	46183.45
570.46	45638.11
570.62	45813.65
570.78	46073.45
570.95	45818.33
571.11	46363.67
571.27	46197.49
571.43	45897.91
571.60	46253.67
571.76	45993.87
571.92	46429.21
572.09	46096.85
572.25	45984.51
572.41	45930.67
572.57	46403.46
572.74	46714.75
572.90	46206.86
573.06	45647.47
573.22	46546.23
573.38	45968.12
573.55	45956.42
573.71	46490.06
573.87	46188.13
574.03	46354.31
574.20	46422.19
574.36	46604.75
574.52	46256.01
574.68	46227.92
574.84	46375.37
575.01	46153.02
575.17	46469.00
575.33	46031.32
575.49	46028.98
575.65	46710.07
575.82	46557.94
575.98	45851.09
576.14	46141.32
576.30	46059.40
576.46	45837.05
576.62	46298.14
576.79	46113.23
576.95	45544.48
577.11	46466.66
577.27	46012.59
577.43	46471.34
577.59	46195.15
577.75	46146.00
577.92	45453.20
578.08	46068.76
578.24	45853.44
578.40	46457.29
578.56	46073.45
578.72	46169.41
578.88	46370.69
579.04	46548.57
579.21	46377.72
579.37	46604.75
579.53	46349.63
579.69	46136.64
579.85	46244.30
580.01	46227.92
580.17	46630.49
580.33	46387.08
580.49	46550.91
580.65	46436.23
580.82	46618.79
580.98	46021.95
581.14	46557.94
581.30	46689.01
581.46	46714.75
581.62	46373.03
581.78	46450.27
581.94	46855.18
582.10	46307.50
582.26	46787.31
582.42	46326.22
582.58	47004.98
582.74	46497.08
582.90	46717.09
583.06	46314.52
583.22	46457.29
583.38	46639.86
583.54	46457.29
583.70	46742.84
583.86	46326.22
584.02	46564.96
584.18	46419.84
584.34	46506.44
584.50	46670.28
584.66	46349.63
584.82	46298.14
584.98	46370.69
585.14	46452.61
585.30	46543.89
585.46	46291.12
585.62	46298.14
585.78	46314.52
585.94	45780.88
586.10	46068.76
586.26	46218.56
586.42	46745.18
586.58	46326.22
586.74	46176.43
586.90	46122.60
587.06	46333.24
587.22	46408.14
587.38	46358.99
587.54	46635.17
587.70	46934.76
587.86	46464.32
588.02	46752.20
588.18	46403.46
588.34	46197.49
588.49	46174.09
588.65	45565.55
588.81	45769.18
588.97	46036.00
589.13	46274.73
589.29	45991.53
589.45	46209.20
589.61	46199.83
589.77	46986.25
589.93	46335.59
