SpectraSuite Data File
++++++++++++++++++++++++++++++++++++
Date: Fri Oct 25 10:47:37 EDT 2013
User: price-jones
Dark Spectrum Present: No
Reference Spectrum Present: No
Number of Sampled Component Spectra: 1
Spectrometers: USB2+H05261
Integration Time (usec): 100000 (USB2+H05261)
Spectra Averaged: 1 (USB2+H05261)
Boxcar Smoothing: 0 (USB2+H05261)
Correct for Electrical Dark: No (USB2+H05261)
Strobe/Lamp Enabled: No (USB2+H05261)
Correct for Detector Non-linearity: No (USB2+H05261)
Correct for Stray Light: No (USB2+H05261)
Number of Pixels in Processed Spectrum: 2048
>>>>>Begin Processed Spectral Data<<<<<
365.73	145.11
365.92	145.11
366.12	145.11
366.32	56.17
366.52	18.72
366.72	21.06
366.91	0.00
367.11	28.09
367.31	39.79
367.51	0.00
367.70	46.81
367.90	93.62
368.10	105.32
368.30	51.49
368.49	37.45
368.69	77.24
368.89	72.56
369.09	23.41
369.28	112.35
369.48	25.75
369.68	72.56
369.87	105.32
370.07	126.39
370.27	114.69
370.47	152.13
370.66	411.93
370.86	430.66
371.06	416.62
371.25	444.70
371.45	447.04
371.65	437.68
371.84	573.43
372.04	463.43
372.24	475.13
372.44	479.81
372.63	461.09
372.83	489.17
373.03	498.53
373.22	482.15
373.42	503.22
373.62	587.47
373.81	517.26
374.01	585.13
374.21	472.79
374.40	543.00
374.60	517.26
374.79	610.88
374.99	545.34
375.19	566.41
375.38	627.26
375.58	543.00
375.78	575.77
375.97	543.00
376.17	685.78
376.37	641.31
376.56	613.22
376.76	643.65
376.95	608.54
377.15	709.18
377.35	664.71
377.54	599.18
377.74	557.05
377.93	594.50
378.13	709.18
378.33	568.75
378.52	634.29
378.72	667.05
378.91	624.92
379.11	603.86
379.31	638.97
379.50	706.84
379.70	631.94
379.89	671.73
380.09	660.03
380.28	634.29
380.48	704.50
380.68	631.94
380.87	629.60
381.07	716.20
381.26	739.61
381.46	634.29
381.65	711.52
381.85	624.92
382.04	713.86
382.24	674.07
382.43	741.95
382.63	725.57
382.83	620.24
383.02	730.25
383.22	763.01
383.41	683.44
383.61	667.05
383.80	767.70
384.00	716.20
384.19	755.99
384.39	795.78
384.58	636.63
384.78	788.76
384.97	746.63
385.17	713.86
385.36	737.27
385.56	774.72
385.75	777.06
385.95	800.46
386.14	763.01
386.34	746.63
386.53	842.59
386.72	737.27
386.92	856.64
387.11	842.59
387.31	830.89
387.50	800.46
387.70	821.53
387.89	868.34
388.09	851.96
388.28	873.02
388.48	905.79
388.67	901.11
388.86	861.32
389.06	952.60
389.25	931.53
389.45	922.17
389.64	903.45
389.84	945.58
390.03	959.62
390.22	882.38
390.42	910.47
390.61	964.30
390.81	992.39
391.00	898.77
391.19	1027.50
391.39	961.96
391.58	980.68
391.78	1074.31
391.97	1034.52
392.16	936.21
392.36	1043.88
392.55	943.24
392.75	1074.31
392.94	929.19
393.13	997.07
393.33	957.28
393.52	1013.45
393.71	1050.90
393.91	1071.97
394.10	1041.54
394.29	1025.15
394.49	1123.46
394.68	1210.06
394.88	1062.60
395.07	1107.07
395.26	1125.80
395.46	1107.07
395.65	1203.04
395.84	1153.88
396.04	1242.82
396.23	1090.69
396.42	1053.24
396.62	1207.72
396.81	1167.93
397.00	1198.35
397.19	1062.60
397.39	1153.88
397.58	1263.89
397.77	1235.80
397.97	1364.53
398.16	1219.42
398.35	1294.32
398.55	1247.51
398.74	1301.34
398.93	1406.66
399.12	1259.21
399.32	1387.94
399.51	1287.29
399.70	1432.41
399.90	1404.32
400.09	1409.00
400.28	1371.55
400.47	1455.81
400.67	1465.18
400.86	1383.26
401.05	1514.33
401.24	1600.93
401.44	1519.01
401.63	1558.80
401.82	1526.03
402.01	1565.82
402.21	1577.52
402.40	1600.93
402.59	1507.30
402.78	1537.73
402.97	1582.20
403.17	1650.08
403.36	1680.50
403.55	1694.55
403.74	1699.23
403.93	1710.93
404.13	1774.13
404.32	1734.34
404.51	1542.41
404.70	1795.19
404.89	1699.23
405.09	1741.36
405.28	1771.79
405.47	1743.70
405.66	1741.36
405.85	1739.02
406.05	1823.28
406.24	1687.53
406.43	1888.81
406.62	1919.24
406.81	1952.01
407.00	1834.98
407.20	1750.72
407.39	1912.22
407.58	1940.30
407.77	2029.24
407.96	2012.86
408.15	2008.18
408.34	1970.73
408.54	2045.63
408.73	1966.05
408.92	2125.21
409.11	2108.82
409.30	2104.14
409.49	2059.67
409.68	2003.50
409.87	2181.38
410.07	2120.53
410.26	2076.06
410.45	2099.46
410.64	2183.72
410.83	2275.00
411.02	2172.02
411.21	2286.70
411.40	2260.96
411.59	2375.64
411.78	2459.90
411.98	2410.75
412.17	2321.81
412.36	2352.24
412.55	2499.69
412.74	2480.97
412.93	2361.60
413.12	2436.50
413.31	2621.40
413.50	2429.48
413.69	2530.12
413.88	2574.59
414.07	2602.68
414.26	2569.91
414.45	2635.44
414.64	2703.32
414.83	2691.62
415.02	2616.72
415.22	2757.15
415.41	2813.32
415.60	2708.00
415.79	2782.90
415.98	2977.16
416.17	2965.46
416.36	2904.60
416.55	2956.10
416.74	2883.54
416.93	3019.29
417.12	2916.31
417.31	3094.19
417.50	3082.49
417.69	3255.69
417.88	3176.11
418.07	3112.91
418.26	3194.83
418.45	3117.59
418.64	3272.07
418.83	3208.87
419.02	3241.64
419.21	3265.05
419.39	3213.56
419.58	3192.49
419.77	3199.51
419.96	3227.60
420.15	3365.69
420.34	3424.20
420.53	3468.67
420.72	3492.08
420.91	3433.57
421.10	3548.25
421.29	3517.83
421.48	3510.80
421.67	3545.91
421.86	3398.46
422.05	3463.99
422.24	3410.16
422.43	3609.11
422.61	3609.11
422.80	3499.10
422.99	3534.21
423.18	3623.15
423.37	3578.68
423.56	3435.91
423.75	3625.49
423.94	3571.66
424.13	3190.15
424.32	3447.61
424.50	3534.21
424.69	3688.68
424.88	3761.24
425.07	3468.67
425.26	3578.68
425.45	3658.26
425.64	3627.83
425.83	3613.79
426.01	3625.49
426.20	3674.64
426.39	3592.72
426.58	3534.21
426.77	3695.71
426.96	3578.68
427.15	3557.61
427.33	3709.75
427.52	3728.47
427.71	3838.48
427.90	3843.16
428.09	3845.50
428.28	3662.94
428.46	3854.86
428.65	3847.84
428.84	3906.35
429.03	3915.72
429.22	3833.80
429.40	3796.35
429.59	3791.67
429.78	3709.75
429.97	3754.22
430.16	3805.71
430.34	3908.69
430.53	3992.95
430.72	3887.63
430.91	3934.44
431.10	3992.95
431.28	3995.29
431.47	4161.47
431.66	4215.30
431.85	4290.20
432.03	4278.50
432.22	4472.76
432.41	4227.01
432.60	4252.75
432.79	4341.69
432.97	4315.95
433.16	4351.06
433.35	4285.52
433.54	4301.90
433.72	4351.06
433.91	4140.41
434.10	4447.02
434.28	4395.53
434.47	4463.40
434.66	4458.72
434.85	4421.27
435.03	4498.51
435.22	4423.61
435.41	4550.00
435.59	4608.51
435.78	4599.15
435.97	4674.05
436.16	4629.58
436.34	4517.23
436.53	4629.58
436.72	4699.80
436.90	4720.86
437.09	4732.56
437.28	4631.92
437.46	4788.74
437.65	4634.26
437.84	4826.18
438.02	4762.99
438.21	4854.27
438.40	4873.00
438.58	5057.90
438.77	4952.57
438.96	4798.10
439.14	5069.60
439.33	5121.09
439.52	5181.95
439.70	5193.65
439.89	5259.18
440.08	5305.99
440.26	5160.88
440.45	5238.12
440.63	5324.72
440.82	5423.02
441.01	5336.42
441.19	5476.85
441.38	5682.82
441.57	5575.16
441.75	5612.60
441.94	5650.05
442.12	5750.70
442.31	5675.80
442.50	5760.06
442.68	5696.86
442.87	5844.32
443.05	5703.89
443.24	5926.24
443.43	5994.11
443.61	5846.66
443.80	6059.65
443.98	5867.72
444.17	5694.52
444.35	5746.02
444.54	5951.98
444.73	5872.40
444.91	6052.63
445.10	5764.74
445.28	5954.32
445.47	5762.40
445.65	5785.80
445.84	6045.60
446.02	5956.66
446.21	5907.51
446.39	6122.84
446.58	6050.28
446.77	6010.50
446.95	5942.62
447.14	6003.47
447.32	6289.02
447.51	5954.32
447.69	5977.73
447.88	6120.50
448.06	6221.14
448.25	6157.95
448.43	6260.93
448.62	6157.95
448.80	6265.61
448.99	6249.23
449.17	6253.91
449.36	6136.88
449.54	6331.15
449.73	6431.79
449.91	6452.86
450.10	6516.05
450.28	6403.71
450.46	6499.67
450.65	6485.62
450.83	6520.73
451.02	6399.02
451.20	6413.07
451.39	6555.84
451.57	6396.68
451.76	6509.03
451.94	6518.39
452.13	6619.04
452.31	6700.95
452.49	6576.91
452.68	6780.53
452.86	6597.97
453.05	6633.08
453.23	6679.89
453.42	6612.01
453.60	6764.15
453.78	6761.81
453.97	6682.23
454.15	6640.10
454.34	6778.19
454.52	6773.51
454.70	7061.40
454.89	6832.02
455.07	6956.07
455.26	6981.82
455.44	7056.72
455.62	7145.66
455.81	7073.10
455.99	7101.19
456.17	7091.82
456.36	7243.96
456.54	7150.34
456.73	7524.82
456.91	7265.02
457.09	7442.90
457.28	7323.54
457.46	7391.41
457.64	7323.54
457.83	7307.15
458.01	7258.00
458.19	7637.17
458.38	7410.14
458.56	7698.02
458.74	7506.10
458.93	7627.81
459.11	7433.54
459.29	7548.23
459.48	7779.94
459.66	7588.02
459.84	7730.79
460.03	7779.94
460.21	7698.02
460.39	7630.15
460.57	7880.58
460.76	7850.16
460.94	7927.39
461.12	8056.12
461.31	7967.18
461.49	7918.03
461.67	7726.11
461.85	8028.04
462.04	7962.50
462.22	8238.69
462.40	8159.11
462.59	8131.02
462.77	8294.86
462.95	8437.63
463.13	8093.57
463.32	8114.64
463.50	8416.57
463.68	8156.77
463.86	8332.31
464.05	8121.66
464.23	8248.05
464.41	8259.75
464.59	8205.92
464.78	8479.76
464.96	8428.27
465.14	8271.45
465.32	8454.02
465.50	8592.11
465.69	8458.70
465.87	8603.81
466.05	8386.14
466.23	8395.50
466.41	8238.69
466.60	8320.60
466.78	8491.46
466.96	8669.34
467.14	8521.89
467.32	8585.08
467.51	8587.43
467.69	8369.76
467.87	8730.20
468.05	8905.74
468.23	8674.03
468.41	8571.04
468.60	8571.04
468.78	8578.06
468.96	8592.11
469.14	8753.60
469.32	8826.16
469.50	8779.35
469.69	9022.77
469.87	9186.60
470.05	9006.38
470.23	9167.88
470.41	8999.36
470.59	9224.05
470.77	9186.60
470.95	9074.26
471.14	9465.13
471.32	9015.74
471.50	9469.81
471.68	9320.01
471.86	9444.06
472.04	9600.88
472.22	9626.62
472.40	9418.32
472.58	9364.48
472.77	9502.58
472.95	9474.49
473.13	10078.35
473.31	9533.00
473.49	9596.20
473.67	9802.16
473.85	9825.57
474.03	9902.81
474.21	9998.77
474.39	10394.32
474.57	9998.77
474.75	10312.40
474.93	10291.34
475.12	10291.34
475.30	10263.25
475.48	10401.34
475.66	10551.14
475.84	10399.00
476.02	10501.98
476.20	10551.14
476.38	10916.26
476.56	10934.98
476.74	10820.30
476.92	10803.91
477.10	10881.15
477.28	10939.66
477.46	11213.51
477.64	11187.76
477.82	11286.06
478.00	11454.58
478.18	11428.84
478.36	11623.10
478.54	11618.42
478.72	11634.80
478.90	11875.88
479.08	11896.94
479.26	12042.06
479.44	12042.06
479.62	12002.27
479.80	12299.52
479.98	12437.61
480.16	12613.15
480.34	12248.02
480.52	12547.61
480.70	12746.56
480.88	12634.21
481.06	12800.39
481.24	12945.50
481.41	13022.74
481.59	13226.37
481.77	13284.88
481.95	13036.78
482.13	13319.99
482.31	13352.76
482.49	13926.19
482.67	13696.82
482.85	13905.12
483.03	13909.80
483.21	14225.78
483.39	14118.11
483.57	14361.53
483.74	14284.29
483.92	14492.60
484.10	14340.46
484.28	14649.41
484.46	14843.68
484.64	15438.17
484.82	14874.10
485.00	15037.94
485.18	15250.93
485.35	15220.50
485.53	15180.71
485.71	15440.51
485.89	15712.02
486.07	15126.88
486.25	15573.92
486.43	15786.91
486.61	15756.49
486.78	16343.96
486.96	16079.48
487.14	16294.81
487.32	16648.23
487.50	16690.36
487.68	16800.37
487.85	16833.13
488.03	17046.12
488.21	17331.67
488.39	17317.62
488.57	17795.09
488.75	17486.14
488.92	17682.75
489.10	18085.32
489.28	18038.51
489.46	18368.52
489.64	18342.78
489.81	18845.99
489.99	18712.58
490.17	18689.18
490.35	18890.46
490.53	19108.13
490.70	18827.27
490.88	19129.20
491.06	19152.60
491.24	19344.53
491.41	19435.81
491.59	19241.54
491.77	19449.85
491.95	19737.74
492.13	19770.51
492.30	20039.67
492.48	19992.86
492.66	20198.82
492.84	19864.13
493.01	20372.02
493.19	20489.05
493.37	20563.95
493.54	20900.98
493.72	21076.52
493.90	21231.00
494.08	21383.13
494.25	21158.44
494.43	21296.53
494.61	21717.83
494.79	21998.70
494.96	21673.36
495.14	21884.01
495.32	22113.38
495.49	22174.24
495.67	22211.68
495.85	22244.45
496.02	22300.62
496.20	22794.48
496.38	22782.77
496.55	22820.22
496.73	23363.23
496.91	23222.80
497.09	23337.48
497.26	23550.47
497.44	22904.48
497.62	23578.56
497.79	23906.23
497.97	23587.92
498.14	23737.71
498.32	23800.91
498.50	24002.19
498.67	24533.50
498.85	24395.40
499.03	24479.66
499.20	24360.30
499.38	24624.78
499.56	24648.18
499.73	24528.81
499.91	24587.33
500.08	24856.49
500.26	24734.78
500.44	24870.53
500.61	24947.77
500.79	24690.31
500.97	24903.30
501.14	25010.96
501.32	25572.69
501.49	25387.79
501.67	25366.73
501.84	25635.89
502.02	25708.44
502.20	25947.18
502.37	26192.94
502.55	25986.97
502.72	26288.90
502.90	26352.09
503.07	26232.72
503.25	25930.80
503.43	26195.28
503.60	26354.43
503.78	26897.44
503.95	26462.10
504.13	26806.16
504.30	26483.16
504.48	26724.24
504.65	26883.39
504.83	27243.84
505.01	27197.02
505.18	27395.97
505.36	27693.22
505.53	27229.79
505.71	27676.83
505.88	27978.76
506.06	27271.92
506.23	28140.26
506.41	27538.74
506.58	27782.16
506.76	27985.79
506.93	27983.44
507.11	28065.36
507.28	28222.18
507.46	28568.58
507.63	28151.96
507.81	28599.01
507.98	28280.69
508.16	28774.55
508.33	28638.80
508.50	28786.25
508.68	28650.50
508.85	29071.79
509.03	29046.05
509.20	29404.15
509.38	29359.68
509.55	29465.00
509.73	29450.96
509.90	29586.71
510.08	29565.65
510.25	29766.93
510.42	29511.81
510.60	29680.33
510.77	29785.66
510.95	30223.34
511.12	30204.61
511.30	30190.57
511.47	30125.04
511.64	30501.86
511.82	30136.74
511.99	29893.32
512.17	30551.01
512.34	30352.07
512.51	30773.36
512.69	31159.55
512.86	30672.72
513.04	30902.09
513.21	30871.67
513.38	30937.20
513.56	31136.15
513.73	30691.44
513.90	31281.26
514.08	31260.20
514.25	31604.25
514.43	31182.96
514.60	31461.48
514.77	31620.64
514.95	32205.77
515.12	31534.04
515.29	31318.71
515.47	31779.79
515.64	32285.35
515.81	31955.33
515.99	32086.40
516.16	32301.73
516.33	31782.13
516.51	32046.62
516.68	32002.14
516.85	31538.72
517.03	32130.87
517.20	32339.18
517.37	32570.90
517.54	32063.00
517.72	32727.71
517.89	32060.66
518.06	32472.59
518.24	32140.24
518.41	32734.73
518.58	32673.88
518.75	32833.04
518.93	32903.25
519.10	33097.52
519.27	33111.56
519.45	33055.39
519.62	33237.95
519.79	33256.67
519.96	33261.35
520.14	33820.74
520.31	33467.32
520.48	33488.38
520.65	33483.70
520.83	33827.76
521.00	33982.24
521.17	34026.71
521.34	34103.95
521.52	34459.71
521.69	34459.71
521.86	34164.80
522.03	34473.75
522.20	34265.44
522.38	34843.56
522.55	34562.69
522.72	34658.65
522.89	34338.00
523.07	34918.45
523.24	35068.25
523.41	34431.62
523.58	34911.43
523.75	35604.23
523.92	34955.90
524.10	35246.13
524.27	35475.50
524.44	34972.28
524.61	35454.44
524.78	35299.96
524.96	35772.75
525.13	35271.87
525.30	35611.25
525.47	36023.19
525.64	35529.33
525.81	35784.45
525.98	35828.92
526.16	36060.63
526.33	35585.50
526.50	36093.40
526.67	35894.46
526.84	35777.43
527.01	35768.07
527.18	36086.38
527.36	36231.49
527.53	36175.32
527.70	36311.07
527.87	36353.20
528.04	36519.38
528.21	36690.24
528.38	36690.24
528.55	36861.10
528.72	36961.74
528.89	37193.45
529.07	36889.18
529.24	36605.98
529.41	37020.25
529.58	36807.26
529.75	37069.40
529.92	37202.82
530.09	37294.10
530.26	37338.57
530.43	37532.83
530.60	37156.00
530.77	37282.39
530.94	37205.16
531.11	37476.66
531.28	37741.14
531.46	37570.28
531.63	37858.17
531.80	37511.77
531.97	37537.51
532.14	37567.94
532.31	37921.36
532.48	37249.63
532.65	37722.41
532.82	37699.01
532.99	37687.31
533.16	37748.16
533.33	37991.58
533.50	37965.83
533.67	38396.49
533.84	37563.26
534.01	37977.53
534.18	38010.30
534.35	38787.36
534.52	37844.12
534.69	38429.26
534.86	38651.61
535.03	38316.91
535.20	38508.83
535.37	39416.96
535.54	38918.43
535.71	38667.99
535.88	38796.72
536.05	38380.10
536.22	38920.77
536.38	38696.08
536.55	38852.89
536.72	38565.01
536.89	38433.94
537.06	38660.97
537.23	39250.78
537.40	39168.87
537.57	39262.49
537.74	39405.26
537.91	39892.09
538.08	39433.35
538.25	39077.58
538.42	39262.49
538.59	40020.82
538.75	39086.95
538.92	39655.70
539.09	39885.07
539.26	39791.45
539.43	39482.50
539.60	39615.91
539.77	39292.91
539.94	39894.43
540.11	39590.16
540.28	39711.87
540.44	39906.13
540.61	39435.69
540.78	39693.15
540.95	39978.69
541.12	39789.11
541.29	40069.97
541.46	39950.60
541.62	40161.25
541.79	40273.60
541.96	39842.94
542.13	39885.07
542.30	40126.14
542.47	40271.26
542.63	39974.01
542.80	40238.49
542.97	40781.49
543.14	40961.72
543.31	40797.88
543.48	40865.75
543.64	41434.50
543.81	41265.99
543.98	41268.33
544.15	41242.58
544.32	40715.96
544.48	41799.63
544.65	40758.09
544.82	40793.20
544.99	40514.67
545.16	41120.87
545.32	40959.38
545.49	41411.10
545.66	41060.02
545.83	41319.82
546.00	41687.28
546.16	41305.77
546.33	41296.41
546.50	40940.65
546.67	41294.07
546.83	41036.61
547.00	41528.13
547.17	41347.90
547.34	41345.56
547.50	41062.36
547.67	42178.79
547.84	41530.47
548.00	42265.39
548.17	41911.97
548.34	42019.64
548.51	42239.65
548.67	42043.04
548.84	41911.97
549.01	42080.49
549.18	41918.99
549.34	42155.39
549.51	41909.63
549.68	42085.17
549.84	42389.44
550.01	42131.98
550.18	41883.89
550.34	42335.61
550.51	42445.62
550.68	42021.98
550.84	41860.48
551.01	41926.02
551.18	42487.74
551.34	42380.08
551.51	42206.88
551.68	42302.84
551.84	42887.98
552.01	42195.18
552.18	42398.80
552.34	42466.68
552.51	43014.37
552.68	42574.34
552.84	42703.07
553.01	42997.98
553.18	42698.39
553.34	42794.36
553.51	42394.12
553.67	43000.32
553.84	43215.65
554.01	43423.96
554.17	43365.45
554.34	43093.94
554.51	42937.13
554.67	43358.42
554.84	43290.55
555.00	43203.95
555.17	43278.85
555.33	43201.61
555.50	42789.67
555.67	43302.25
555.83	43550.35
556.00	43044.79
556.16	43515.24
556.33	43482.47
556.50	42955.85
556.66	43466.09
556.83	42946.49
556.99	43466.09
557.16	43487.15
557.32	43468.43
557.49	43716.53
557.65	43075.22
557.82	43236.72
557.98	43342.04
558.15	43636.95
558.32	43426.30
558.48	43646.31
558.65	43613.54
558.81	43430.98
558.98	43690.78
559.14	43761.00
559.31	43936.54
559.47	43751.63
559.64	43957.60
559.80	44062.93
559.97	43927.17
560.13	43688.44
560.30	43236.72
560.46	43569.07
560.63	43782.06
560.79	44072.29
560.96	44388.26
561.12	43704.82
561.29	43945.90
561.45	43997.39
561.61	43599.50
561.78	44240.81
561.94	43976.33
562.11	43969.30
562.27	43966.96
562.44	43945.90
562.60	44023.14
562.77	44243.15
562.93	44112.08
563.10	44107.40
563.26	43971.64
563.42	44161.23
563.59	44034.84
563.75	43906.11
563.92	44486.56
564.08	44205.70
564.24	44346.13
564.41	44397.62
564.57	44299.32
564.74	44442.09
564.90	44442.09
565.07	43957.60
565.23	44215.06
565.39	44023.14
565.56	44215.06
565.72	44074.63
565.88	43889.73
566.05	44144.84
566.21	43983.35
566.38	44402.30
566.54	44037.18
566.70	44460.82
566.87	44538.05
567.03	44435.07
567.19	44720.62
567.36	44395.28
567.52	44343.79
567.68	44591.89
567.85	44261.87
568.01	44985.10
568.17	44198.68
568.34	44554.44
568.50	44329.75
568.66	44254.85
568.83	44369.54
568.99	44425.71
569.15	44367.20
569.32	43915.47
569.48	44458.48
569.64	44559.12
569.81	44861.05
569.97	44257.19
570.13	44678.49
570.30	44112.08
570.46	44189.31
570.62	44058.24
570.78	44191.65
570.95	44371.88
571.11	44428.05
571.27	44435.07
571.43	44137.82
571.60	44893.82
571.76	44451.45
571.92	44439.75
572.09	44748.70
572.25	44652.74
572.41	45212.13
572.57	44582.52
572.74	45132.55
572.90	44865.73
573.06	45085.74
573.22	45090.42
573.38	44580.18
573.55	44133.14
573.71	44626.99
573.87	44685.51
574.03	44694.87
574.20	44779.13
574.36	44744.02
574.52	44910.20
574.68	44444.43
574.84	45212.13
575.01	44762.75
575.17	44332.09
575.33	44507.63
575.49	44406.98
575.65	44617.63
575.82	45249.58
575.98	44870.41
576.14	44924.24
576.30	44737.00
576.46	44589.55
576.62	44713.59
576.79	45078.72
576.95	44245.49
577.11	44863.39
577.27	44854.03
577.43	44832.96
577.59	44964.03
577.75	45034.25
577.92	44259.53
578.08	44708.91
578.24	44680.83
578.40	44533.37
578.56	44631.68
578.72	45303.41
578.88	44655.08
579.04	44861.05
579.21	44673.81
579.37	44491.24
579.53	44526.35
579.69	44650.40
579.85	44542.74
580.01	44835.30
580.17	44811.90
580.33	45125.53
580.49	45205.11
580.65	45256.60
580.82	44753.38
580.98	44882.11
581.14	44477.20
581.30	45188.72
581.46	44556.78
581.62	44800.19
581.78	44514.65
581.94	45427.46
582.10	44917.22
582.26	45387.67
582.42	44886.79
582.58	44926.58
582.74	44786.15
582.90	44701.89
583.06	45092.76
583.22	44898.50
583.38	45099.78
583.54	44968.71
583.70	45050.63
583.86	44470.18
584.02	44797.85
584.18	45029.57
584.34	45270.64
584.50	44912.54
584.66	44921.90
584.82	44697.21
584.98	45469.59
585.14	44851.69
585.30	44882.11
585.46	44924.24
585.62	44732.32
585.78	44790.83
585.94	44428.05
586.10	45034.25
586.26	44989.78
586.42	45155.96
586.58	44725.30
586.74	44533.37
586.90	44938.29
587.06	44917.22
587.22	45099.78
587.38	45118.51
587.54	45434.48
587.70	45268.30
587.86	45326.81
588.02	44980.42
588.18	45181.70
588.34	44612.95
588.49	45184.04
588.65	44825.94
588.81	44788.49
588.97	44863.39
589.13	44341.45
589.29	45001.48
589.45	44542.74
589.61	44931.26
589.77	45202.77
589.93	44935.95
590.08	45422.78
590.24	44978.07
