SpectraSuite Data File
++++++++++++++++++++++++++++++++++++
Date: Fri Oct 25 10:47:43 EDT 2013
User: price-jones
Dark Spectrum Present: No
Reference Spectrum Present: No
Number of Sampled Component Spectra: 1
Spectrometers: USB2+H05261
Integration Time (usec): 100000 (USB2+H05261)
Spectra Averaged: 1 (USB2+H05261)
Boxcar Smoothing: 0 (USB2+H05261)
Correct for Electrical Dark: No (USB2+H05261)
Strobe/Lamp Enabled: No (USB2+H05261)
Correct for Detector Non-linearity: No (USB2+H05261)
Correct for Stray Light: No (USB2+H05261)
Number of Pixels in Processed Spectrum: 2048
>>>>>Begin Processed Spectral Data<<<<<
365.73	105.32
365.92	105.32
366.12	105.32
366.32	138.09
366.52	51.49
366.72	53.83
366.91	0.00
367.11	0.00
367.31	16.38
367.51	102.98
367.70	35.11
367.90	51.49
368.10	30.43
368.30	0.00
368.49	7.02
368.69	72.56
368.89	79.58
369.09	70.22
369.28	119.37
369.48	58.51
369.68	32.77
369.87	100.64
370.07	107.66
370.27	133.41
370.47	250.44
370.66	383.85
370.86	440.02
371.06	397.89
371.25	463.43
371.45	430.66
371.65	512.58
371.84	472.79
372.04	423.64
372.24	468.11
372.44	414.27
372.63	442.36
372.83	535.98
373.03	493.85
373.22	533.64
373.42	503.22
373.62	535.98
373.81	526.62
374.01	470.45
374.21	571.09
374.40	580.45
374.60	613.22
374.79	552.37
374.99	514.92
375.19	435.34
375.38	592.16
375.58	571.09
375.78	482.15
375.97	521.94
376.17	594.50
376.37	648.33
376.56	545.34
376.76	575.77
376.95	627.26
377.15	592.16
377.35	634.29
377.54	674.07
377.74	634.29
377.93	587.47
378.13	601.52
378.33	648.33
378.52	566.41
378.72	695.14
378.91	599.18
379.11	585.13
379.31	617.90
379.50	533.64
379.70	613.22
379.89	690.46
380.09	645.99
380.28	638.97
380.48	631.94
380.68	610.88
380.87	606.20
381.07	681.10
381.26	688.12
381.46	613.22
381.65	699.82
381.85	730.25
382.04	660.03
382.24	624.92
382.43	575.77
382.63	690.46
382.83	683.44
383.02	624.92
383.22	662.37
383.41	685.78
383.61	671.73
383.80	695.14
384.00	669.39
384.19	723.23
384.39	681.10
384.58	763.01
384.78	774.72
384.97	770.04
385.17	709.18
385.36	739.61
385.56	807.48
385.75	676.41
385.95	844.93
386.14	777.06
386.34	674.07
386.53	851.96
386.72	800.46
386.92	868.34
387.11	753.65
387.31	910.47
387.50	758.33
387.70	774.72
387.89	891.74
388.09	842.59
388.28	929.19
388.48	784.08
388.67	875.36
388.86	840.25
389.06	840.25
389.25	926.85
389.45	922.17
389.64	891.74
389.84	915.15
390.03	961.96
390.22	849.61
390.42	777.06
390.61	891.74
390.81	896.43
391.00	905.79
391.19	1018.13
391.39	976.00
391.58	1020.47
391.78	968.98
391.97	1001.75
392.16	896.43
392.36	980.68
392.55	880.04
392.75	954.94
392.94	957.28
393.13	957.28
393.33	924.51
393.52	945.58
393.71	992.39
393.91	980.68
394.10	1006.43
394.29	1015.79
394.49	1139.84
394.68	1109.41
394.88	1032.18
395.07	1074.31
395.26	1179.63
395.46	1104.73
395.65	1217.08
395.84	1151.54
396.04	1149.20
396.23	1067.28
396.42	1109.41
396.62	1170.27
396.81	1174.95
397.00	1172.61
397.19	1226.44
397.39	1263.89
397.58	1238.14
397.77	1214.74
397.97	1275.59
398.16	1217.08
398.35	1245.16
398.55	1261.55
398.74	1294.32
398.93	1287.29
399.12	1277.93
399.32	1362.19
399.51	1308.36
399.70	1331.76
399.90	1322.40
400.09	1380.92
400.28	1345.81
400.47	1355.17
400.67	1511.99
400.86	1371.55
401.05	1451.13
401.24	1493.26
401.44	1549.43
401.63	1495.60
401.82	1514.33
402.01	1455.81
402.21	1519.01
402.40	1476.88
402.59	1481.56
402.78	1462.83
402.97	1563.48
403.17	1575.18
403.36	1654.76
403.55	1600.93
403.74	1504.96
403.93	1540.07
404.13	1596.25
404.32	1757.74
404.51	1593.90
404.70	1715.61
404.89	1729.66
405.09	1706.25
405.28	1619.65
405.47	1708.59
405.66	1645.40
405.85	1720.29
406.05	1811.57
406.24	1867.75
406.43	1790.51
406.62	1788.17
406.81	1853.70
407.00	1881.79
407.20	1790.51
407.39	1757.74
407.58	1895.83
407.77	1802.21
407.96	2031.58
408.15	1881.79
408.34	1944.99
408.54	1956.69
408.73	1865.41
408.92	2015.20
409.11	1975.41
409.30	2059.67
409.49	1874.77
409.68	1916.90
409.87	1996.48
410.07	2157.97
410.26	2113.50
410.45	2064.35
410.64	2071.37
410.83	2186.06
411.02	2200.10
411.21	2150.95
411.40	2148.61
411.59	2141.59
411.78	2221.17
411.98	2265.64
412.17	2279.68
412.36	2214.15
412.55	2349.90
412.74	2321.81
412.93	2368.62
413.12	2516.08
413.31	2511.39
413.50	2417.77
413.69	2431.82
413.88	2600.34
414.07	2537.14
414.26	2619.06
414.45	2689.28
414.64	2565.23
414.83	2623.74
415.02	2712.68
415.22	2719.70
415.41	2736.09
415.60	2630.76
415.79	2750.13
415.98	2696.30
416.17	2745.45
416.36	2813.32
416.55	2916.31
416.74	2775.88
416.93	2960.78
417.12	2904.60
417.31	2942.05
417.50	2855.45
417.69	3098.87
417.88	3033.33
418.07	2897.58
418.26	3002.91
418.45	3038.02
418.64	3199.51
418.83	3145.68
419.02	3066.10
419.21	3103.55
419.39	3211.22
419.58	3192.49
419.77	3126.96
419.96	3234.62
420.15	3290.79
420.34	3178.45
420.53	3400.80
420.72	3407.82
420.91	3358.67
421.10	3466.33
421.29	3328.24
421.48	3344.63
421.67	3344.63
421.86	3318.88
422.05	3386.76
422.24	3234.62
422.43	3489.74
422.61	3356.33
422.80	3459.31
422.99	3541.23
423.18	3463.99
423.37	3508.46
423.56	3513.14
423.75	3419.52
423.94	3283.77
424.13	3260.37
424.32	3365.69
424.50	3421.86
424.69	3597.40
424.88	3597.40
425.07	3330.58
425.26	3538.89
425.45	3646.55
425.64	3552.93
425.83	3508.46
426.01	3630.17
426.20	3522.51
426.39	3632.51
426.58	3595.06
426.77	3557.61
426.96	3702.73
427.15	3604.42
427.33	3695.71
427.52	3646.55
427.71	3669.96
427.90	3574.00
428.09	3660.60
428.28	3705.07
428.46	3775.28
428.65	3756.56
428.84	3824.44
429.03	3765.92
429.22	3770.60
429.40	3794.01
429.59	3854.86
429.78	3602.08
429.97	3590.38
430.16	3815.07
430.34	3728.47
430.53	3754.22
430.72	3796.35
430.91	3845.50
431.10	3936.78
431.28	4067.85
431.47	4109.98
431.66	4112.32
431.85	3995.29
432.03	4166.15
432.22	4236.37
432.41	3999.98
432.60	4184.88
432.79	4177.86
432.97	4290.20
433.16	4189.56
433.35	4126.36
433.54	4121.68
433.72	4168.49
433.91	4142.75
434.10	4262.12
434.28	4163.81
434.47	4322.97
434.66	4383.82
434.85	4348.72
435.03	4517.23
435.22	4493.83
435.41	4503.19
435.59	4564.04
435.78	4442.34
435.97	4540.64
436.16	4685.75
436.34	4432.97
436.53	4566.39
436.72	4765.33
436.90	4456.38
437.09	4674.05
437.28	4596.81
437.46	4594.47
437.65	4578.09
437.84	4720.86
438.02	4706.82
438.21	4851.93
438.40	4568.73
438.58	4723.20
438.77	4896.40
438.96	4830.87
439.14	4936.19
439.33	4910.44
439.52	5050.88
439.70	5050.88
439.89	5046.20
440.08	5053.22
440.26	4973.64
440.45	5153.86
440.63	5195.99
440.82	5404.30
441.01	5186.63
441.19	5467.49
441.38	5392.59
441.57	5343.44
441.75	5387.91
441.94	5451.11
442.12	5411.32
442.31	5626.65
442.50	5509.62
442.68	5640.69
442.87	5568.13
443.05	5778.78
443.24	5804.53
443.43	5563.45
443.61	5738.99
443.80	5818.57
443.98	5661.76
444.17	5504.94
444.35	5853.68
444.54	5877.09
444.73	5799.85
444.91	5888.79
445.10	5818.57
445.28	5834.96
445.47	5731.97
445.65	5746.02
445.84	5919.21
446.02	6052.63
446.21	5874.74
446.39	5898.15
446.58	5856.02
446.77	5968.37
446.95	5769.42
447.14	6031.56
447.32	5949.64
447.51	5879.43
447.69	5895.81
447.88	5942.62
448.06	5729.63
448.25	6026.88
448.43	6026.88
448.62	6148.59
448.80	6019.86
448.99	6026.88
449.17	6071.35
449.36	5994.11
449.54	6167.31
449.73	6148.59
449.91	6249.23
450.10	6469.24
450.28	6296.04
450.46	6307.74
450.65	6279.66
450.83	6317.11
451.02	6303.06
451.20	6345.19
451.39	6427.11
451.57	6326.47
451.76	6368.60
451.94	6396.68
452.13	6551.16
452.31	6499.67
452.49	6420.09
452.68	6483.28
452.86	6469.24
453.05	6513.71
453.23	6562.86
453.42	6462.22
453.60	6417.75
453.78	6586.27
453.97	6562.86
454.15	6478.60
454.34	6619.04
454.52	6778.19
454.70	6719.68
454.89	6736.06
455.07	6700.95
455.26	6857.77
455.44	6808.62
455.62	6806.28
455.81	6752.45
455.99	6888.20
456.17	6885.86
456.36	6771.17
456.54	7080.12
456.73	7143.32
456.91	7222.89
457.09	7068.42
457.28	7300.13
457.46	7012.24
457.64	7208.85
457.83	7005.22
458.01	7201.83
458.19	7339.92
458.38	7087.14
458.56	7370.35
458.74	7431.20
458.93	7276.73
459.11	7365.67
459.29	7503.76
459.48	7613.76
459.66	7363.33
459.84	7489.71
460.03	7618.44
460.21	7463.97
460.39	7620.78
460.57	7510.78
460.76	7583.34
460.94	7721.43
461.12	7880.58
461.31	7737.81
461.49	7775.26
461.67	7845.48
461.85	7719.09
462.04	7768.24
462.22	8269.11
462.40	8065.49
462.59	8004.63
462.77	7826.75
462.95	7866.54
463.13	7878.24
463.32	8023.36
463.50	7974.21
463.68	8147.40
463.86	8065.49
464.05	8086.55
464.23	7918.03
464.41	8025.70
464.59	8030.38
464.78	8255.07
464.96	8004.63
465.14	7953.14
465.32	8145.06
465.50	8131.02
465.69	8374.44
465.87	8339.33
466.05	8336.99
466.23	8196.56
466.41	8255.07
466.60	8428.27
466.78	8320.60
466.96	8159.11
467.14	8395.50
467.32	8542.96
467.51	8648.28
467.69	8360.39
467.87	8465.72
468.05	8636.58
468.23	8638.92
468.41	8479.76
468.60	8559.34
468.78	8318.26
468.96	8622.53
469.14	8727.86
469.32	8812.12
469.50	8535.93
469.69	8877.65
469.87	8690.41
470.05	8938.51
470.23	8940.85
470.41	8858.93
470.59	9167.88
470.77	8779.35
470.95	9062.55
471.14	9048.51
471.32	8922.12
471.50	9193.62
471.68	9261.50
471.86	9303.63
472.04	9317.67
472.22	9399.59
472.40	9235.75
472.58	9455.76
472.77	9451.08
472.95	9551.73
473.13	9921.53
473.31	9312.99
473.49	9451.08
473.67	9217.03
473.85	9666.41
474.03	10017.49
474.21	10008.13
474.39	9764.72
474.57	10094.73
474.75	10012.81
474.93	10157.92
475.12	10026.86
475.30	10160.27
475.48	10127.50
475.66	10057.28
475.84	10162.61
476.02	10167.29
476.20	10237.50
476.38	10647.10
476.56	10668.16
476.74	10719.65
476.92	10485.60
477.10	10471.56
477.28	10909.24
477.46	10871.79
477.64	10754.76
477.82	10965.41
478.00	11112.86
478.18	11178.40
478.36	11328.19
478.54	11461.60
478.72	11623.10
478.90	11632.46
479.08	11929.71
479.26	11824.39
479.44	11580.97
479.62	11878.22
479.80	12035.03
479.98	12056.10
480.16	12332.28
480.34	12142.70
480.52	12245.68
480.70	12444.63
480.88	12236.32
481.06	12674.00
481.24	12306.54
481.41	12884.65
481.59	12727.83
481.77	13114.02
481.95	13174.88
482.13	13301.26
482.31	13081.25
482.49	13453.40
482.67	13380.84
482.85	13809.16
483.03	13792.78
483.21	13621.92
483.39	13853.63
483.57	13888.74
483.74	14059.60
483.92	14080.66
484.10	14202.37
484.28	14380.25
484.46	14583.88
484.64	14588.56
484.82	14597.92
485.00	14771.12
485.18	14988.79
485.35	15159.65
485.53	15119.86
485.71	15021.56
485.89	15269.66
486.07	15227.53
486.25	15461.58
486.43	15367.96
486.61	15637.12
486.78	15513.07
486.96	15915.64
487.14	16191.83
487.32	16163.74
487.50	16287.79
487.68	16500.78
487.85	16711.42
488.03	17041.44
488.21	16910.37
488.39	16891.65
488.57	17231.02
488.75	17280.18
488.92	17479.12
489.10	17544.66
489.28	17563.38
489.46	18010.42
489.64	17710.83
489.81	18099.36
489.99	18387.25
490.17	18380.23
490.35	18583.85
490.53	18752.37
490.70	18815.57
490.88	18647.05
491.06	18714.92
491.24	19026.21
491.41	18745.35
491.59	19243.88
491.77	19257.93
491.95	19028.56
492.13	19438.15
492.30	19744.76
492.48	19962.43
492.66	20011.58
492.84	19735.40
493.01	20119.24
493.19	20159.03
493.37	20343.94
493.54	20505.43
493.72	20599.05
493.90	20334.57
494.08	20931.41
494.25	20917.37
494.43	21022.69
494.61	21223.98
494.79	21535.27
494.96	21275.47
495.14	21268.45
495.32	21631.23
495.49	21879.33
495.67	21633.57
495.85	22221.05
496.02	22089.98
496.20	21825.50
496.38	21881.67
496.55	22492.55
496.73	22689.15
496.91	22831.93
497.09	22661.07
497.26	23023.85
497.44	22899.80
497.62	23332.80
497.79	23447.49
497.97	23215.77
498.14	23463.87
498.32	23222.80
498.50	23496.64
498.67	23695.58
498.85	23747.08
499.03	24072.41
499.20	24224.54
499.38	24175.39
499.56	23983.47
499.73	24327.53
499.91	24189.44
500.08	24538.18
500.26	24294.76
500.44	24603.71
500.61	24540.52
500.79	24594.35
500.97	24381.36
501.14	25333.96
501.32	24950.11
501.49	24889.26
501.67	25348.00
501.84	24989.90
502.02	25462.69
502.20	25668.66
502.37	25340.98
502.55	25333.96
502.72	25614.82
502.90	25671.00
503.07	25949.52
503.25	25893.35
503.43	25773.98
503.60	26251.45
503.78	25968.24
503.95	26307.62
504.13	26270.17
504.30	26579.12
504.48	26279.54
504.65	26843.60
504.83	26703.17
505.01	26920.84
505.18	26771.05
505.36	27157.24
505.53	26827.22
505.71	27410.01
505.88	27332.78
506.06	26969.99
506.23	27225.11
506.41	27459.16
506.58	27204.05
506.76	27452.14
506.93	27810.25
507.11	27669.81
507.28	28006.85
507.46	27662.79
507.63	27793.86
507.81	28102.81
507.98	27831.31
508.16	28084.09
508.33	28226.86
508.50	28627.09
508.68	28500.70
508.85	28437.51
509.03	28336.87
509.20	28800.29
509.38	28772.21
509.55	29296.49
509.73	29170.10
509.90	28982.85
510.08	28669.22
510.25	28961.79
510.42	28847.10
510.60	29200.52
510.77	29362.02
510.95	29661.61
511.12	29535.22
511.30	29333.93
511.47	30033.75
511.64	29919.07
511.82	29460.32
511.99	29998.65
512.17	30129.72
512.34	29710.76
512.51	30108.65
512.69	30382.49
512.86	30443.35
513.04	30183.55
513.21	30167.16
513.38	30600.16
513.56	30396.54
513.73	30419.94
513.90	30789.75
514.08	30775.70
514.25	30866.98
514.43	31117.42
514.60	31222.75
514.77	30808.47
514.95	31234.45
515.12	31044.87
515.29	31342.11
515.47	31185.30
515.64	31674.47
515.81	31510.63
515.99	31311.69
516.16	31646.38
516.33	31599.57
516.51	31545.74
516.68	31246.15
516.85	31168.91
517.03	31723.62
517.20	31367.86
517.37	31690.85
517.54	32123.85
517.72	32086.40
517.89	32254.92
518.06	32053.64
518.24	31372.54
518.41	31938.95
518.58	32091.09
518.75	31608.93
518.93	32488.98
519.10	32393.01
519.27	32706.65
519.45	32521.74
519.62	32748.78
519.79	32989.85
519.96	33134.96
520.14	32945.38
520.31	33193.48
520.48	33071.77
520.65	33434.55
520.83	33249.65
521.00	33521.15
521.17	33509.45
521.34	33610.09
521.52	33088.15
521.69	33982.24
521.86	34092.24
522.03	33670.95
522.20	33748.18
522.38	33989.26
522.55	34513.54
522.72	33883.94
522.89	34249.06
523.07	34326.30
523.24	33970.54
523.41	34089.90
523.58	34602.48
523.75	34480.77
523.92	34749.93
524.10	34506.52
524.27	34644.61
524.44	34759.30
524.61	34927.81
524.78	34806.11
524.96	35072.93
525.13	35468.48
525.30	35756.36
525.47	35292.94
525.64	35494.22
525.81	35452.09
525.98	35449.75
526.16	34932.50
526.33	35285.92
526.50	35419.33
526.67	35318.68
526.84	35405.28
527.01	35021.44
527.18	35288.26
527.36	35700.19
527.53	35948.29
527.70	36336.82
527.87	35831.26
528.04	36278.30
528.21	35959.99
528.38	36004.46
528.55	36254.90
528.72	36343.84
528.89	36226.81
529.07	36280.64
529.24	35702.53
529.41	36374.27
529.58	36325.11
529.75	36299.37
529.92	36528.74
530.09	36659.81
530.26	36772.16
530.43	36751.09
530.60	36514.70
530.77	36715.98
530.94	36762.79
531.11	36935.99
531.28	37200.47
531.46	37242.60
531.63	37106.85
531.80	37109.19
531.97	36964.08
532.14	37141.96
532.31	37076.43
532.48	37298.78
532.65	37289.42
532.82	37546.87
532.99	37425.17
533.16	37469.64
533.33	37266.01
533.50	37612.41
533.67	37801.99
533.84	37596.03
534.01	38026.68
534.18	37415.80
534.35	38127.33
534.52	37858.17
534.69	38473.73
534.86	38583.73
535.03	37991.58
535.20	38160.09
535.37	38389.47
535.54	38384.79
535.71	37874.55
535.88	37970.51
536.05	38174.14
536.22	38543.94
536.38	38176.48
536.55	38373.08
536.72	38117.96
536.89	38485.43
537.06	38590.75
537.23	38799.06
537.40	38375.42
537.57	38909.07
537.74	38576.71
537.91	39042.48
538.08	39178.23
538.25	38667.99
538.42	39061.20
538.59	39014.39
538.75	38745.23
538.92	38904.38
539.09	39541.01
539.26	39693.15
539.43	39157.16
539.60	39086.95
539.77	38794.38
539.94	39208.65
540.11	38866.94
540.28	39655.70
540.44	39285.89
540.61	39585.48
540.78	39482.50
540.95	39229.72
541.12	39473.13
541.29	39402.92
541.46	39400.58
541.62	39533.99
541.79	39758.68
541.96	39306.96
542.13	39751.66
542.30	39426.32
542.47	39849.96
542.63	39651.02
542.80	39629.95
542.97	40566.16
543.14	40271.26
543.31	40271.26
543.48	40268.92
543.64	40598.93
543.81	40706.60
543.98	40559.14
544.15	40238.49
544.32	40697.24
544.48	40718.30
544.65	40526.38
544.82	40540.42
544.99	40210.40
545.16	40463.18
545.32	40648.08
545.49	40868.09
545.66	40751.07
545.83	40980.44
546.00	41118.53
546.16	40587.23
546.33	41067.04
546.50	40278.28
546.67	40868.09
546.83	40519.35
547.00	40811.92
547.17	41202.79
547.34	41186.41
547.50	40868.09
547.67	41273.01
547.84	41146.62
548.00	41277.69
548.17	41249.60
548.34	41364.29
548.51	41818.35
548.67	41687.28
548.84	41652.17
549.01	41067.04
549.18	41338.54
549.34	41752.82
549.51	41378.33
549.68	41902.61
549.84	41890.91
550.01	42136.66
550.18	41759.84
550.34	41584.30
550.51	41797.29
550.68	41993.89
550.84	41223.86
551.01	41874.52
551.18	42007.94
551.34	41837.08
551.51	41904.95
551.68	42284.12
551.84	42405.83
552.01	41546.85
552.18	42192.84
552.34	41839.42
552.51	42260.71
552.68	41902.61
552.84	42447.96
553.01	42300.50
553.18	42066.45
553.34	42330.93
553.51	42265.39
553.67	42185.82
553.84	42597.75
554.01	42822.44
554.17	42958.19
554.34	42740.52
554.51	42541.58
554.67	43096.28
554.84	42890.32
555.00	42574.34
555.17	42485.40
555.33	42583.71
555.50	42476.04
555.67	42628.18
555.83	42590.73
556.00	42808.40
556.16	42799.04
556.33	42876.27
556.50	42887.98
556.66	43222.67
556.83	42696.05
556.99	42864.57
557.16	43026.07
557.32	43091.60
557.49	42871.59
557.65	43274.16
557.82	42628.18
557.98	43255.44
558.15	42880.95
558.32	43480.13
558.48	43051.81
558.65	43175.86
558.81	42799.04
558.98	43016.71
559.14	43206.29
559.31	43189.91
559.47	43115.01
559.64	43278.85
559.80	43583.12
559.97	43770.36
560.13	43381.83
560.30	43269.48
560.46	43367.79
560.63	43419.28
560.79	43353.74
560.96	43826.53
561.12	43337.36
561.29	43576.09
561.45	43501.20
561.61	43594.82
561.78	43658.01
561.94	42960.53
562.11	43220.33
562.27	43583.12
562.44	43452.05
562.60	43557.37
562.77	43512.90
562.93	43608.86
563.10	43526.94
563.26	43461.41
563.42	43557.37
563.59	43959.94
563.75	43779.72
563.92	43913.13
564.08	43856.96
564.24	43889.73
564.41	43311.61
564.57	43899.09
564.74	43543.33
564.90	43746.95
565.07	43849.94
565.23	43929.51
565.39	43449.70
565.56	43791.42
565.72	43468.43
565.88	43812.49
566.05	43835.89
566.21	43590.14
566.38	43569.07
566.54	43847.60
566.70	44278.25
566.87	44271.23
567.03	44170.59
567.19	44406.98
567.36	44311.02
567.52	43927.17
567.68	44189.31
567.85	44250.17
568.01	43688.44
568.17	43566.73
568.34	44151.87
568.50	44364.85
568.66	43976.33
568.83	43997.39
568.99	44004.41
569.15	44105.06
569.32	43590.14
569.48	44240.81
569.64	44378.90
569.81	44018.46
569.97	43835.89
570.13	44266.55
570.30	43915.47
570.46	44083.99
570.62	44112.08
570.78	43772.70
570.95	44069.95
571.11	44144.84
571.27	44395.28
571.43	44016.11
571.60	44329.75
571.76	44184.63
571.92	43936.54
572.09	44217.40
572.25	44421.03
572.41	44142.50
572.57	44196.34
572.74	44360.17
572.90	44416.35
573.06	44311.02
573.22	44404.64
573.38	44332.09
573.55	43978.67
573.71	44467.84
573.87	44273.57
574.03	44032.50
574.20	44154.21
574.36	44165.91
574.52	44486.56
574.68	44451.45
574.84	44704.23
575.01	44205.70
575.17	44388.26
575.33	44313.36
575.49	44243.15
575.65	44364.85
575.82	44678.49
575.98	44903.18
576.14	44334.43
576.30	44357.83
576.46	43999.73
576.62	44210.38
576.79	44055.90
576.95	44383.58
577.11	44172.93
577.27	44622.31
577.43	44540.39
577.59	44105.06
577.75	44446.77
577.92	44058.24
578.08	44229.10
578.24	44343.79
578.40	44304.00
578.56	44589.55
578.72	44229.10
578.88	44402.30
579.04	44610.61
579.21	44348.47
579.37	44315.70
579.53	45144.25
579.69	44224.42
579.85	44226.76
580.01	44406.98
580.17	44374.22
580.33	44823.60
580.49	44690.19
580.65	44851.69
580.82	44526.35
580.98	44734.66
581.14	44634.02
581.30	44514.65
581.46	44392.94
581.62	44638.70
581.78	44774.45
581.94	44404.64
582.10	44807.22
582.26	44421.03
582.42	44807.22
582.58	44385.92
582.74	44210.38
582.90	44772.11
583.06	45205.11
583.22	44886.79
583.38	44851.69
583.54	44959.35
583.70	44587.21
583.86	44758.06
584.02	44484.22
584.18	44334.43
584.34	44570.82
584.50	44491.24
584.66	44676.15
584.82	44825.94
584.98	45092.76
585.14	45027.23
585.30	44493.58
585.46	44437.41
585.62	44406.98
585.78	44477.20
585.94	44622.31
586.10	44491.24
586.26	44423.37
586.42	44769.77
586.58	44928.92
586.74	44648.06
586.90	44685.51
587.06	44589.55
587.22	44905.52
587.38	44315.70
587.54	45015.52
587.70	44512.31
587.86	44795.51
588.02	44783.81
588.18	44729.98
588.34	44484.22
588.49	44465.50
588.65	44767.43
588.81	44135.48
588.97	44559.12
589.13	44399.96
589.29	44547.42
589.45	44751.04
589.61	44982.76
589.77	45305.75
589.93	44776.79
590.08	44842.32
590.24	45380.65
