SpectraSuite Data File
++++++++++++++++++++++++++++++++++++
Date: Fri Oct 25 11:34:15 EDT 2013
User: price-jones
Dark Spectrum Present: No
Reference Spectrum Present: No
Number of Sampled Component Spectra: 1
Spectrometers: USB2+H05261
Integration Time (usec): 100000 (USB2+H05261)
Spectra Averaged: 1 (USB2+H05261)
Boxcar Smoothing: 0 (USB2+H05261)
Correct for Electrical Dark: No (USB2+H05261)
Strobe/Lamp Enabled: No (USB2+H05261)
Correct for Detector Non-linearity: No (USB2+H05261)
Correct for Stray Light: No (USB2+H05261)
Number of Pixels in Processed Spectrum: 2048
>>>>>Begin Processed Spectral Data<<<<<
365.73	278.52
365.92	278.52
366.12	278.52
366.32	191.92
366.52	243.42
366.72	194.26
366.91	191.92
367.11	212.99
367.31	180.22
367.51	191.92
367.70	163.84
367.90	287.89
368.10	173.20
368.30	205.97
368.49	212.99
368.69	215.33
368.89	201.29
369.09	255.12
369.28	238.73
369.48	184.90
369.68	222.35
369.87	285.55
370.07	243.42
370.27	220.01
370.47	348.74
370.66	465.77
370.86	500.87
371.06	575.77
371.25	533.64
371.45	575.77
371.65	554.71
371.84	540.66
372.04	519.60
372.24	587.47
372.44	545.34
372.63	645.99
372.83	634.29
373.03	664.71
373.22	622.58
373.42	601.52
373.62	545.34
373.81	636.63
374.01	676.41
374.21	648.33
374.40	622.58
374.60	685.78
374.79	631.94
374.99	629.60
375.19	667.05
375.38	727.91
375.58	685.78
375.78	636.63
375.97	669.39
376.17	645.99
376.37	615.56
376.56	716.20
376.76	641.31
376.95	603.86
377.15	615.56
377.35	648.33
377.54	711.52
377.74	662.37
377.93	732.59
378.13	730.25
378.33	706.84
378.52	732.59
378.72	709.18
378.91	770.04
379.11	748.97
379.31	718.54
379.50	723.23
379.70	699.82
379.89	716.20
380.09	681.10
380.28	671.73
380.48	695.14
380.68	620.24
380.87	723.23
381.07	767.70
381.26	755.99
381.46	681.10
381.65	795.78
381.85	718.54
382.04	763.01
382.24	800.46
382.43	800.46
382.63	737.27
382.83	751.31
383.02	774.72
383.22	819.19
383.41	739.61
383.61	788.76
383.80	858.98
384.00	842.59
384.19	786.42
384.39	746.63
384.58	837.91
384.78	755.99
384.97	887.06
385.17	814.51
385.36	784.08
385.56	880.04
385.75	779.40
385.95	882.38
386.14	868.34
386.34	887.06
386.53	830.89
386.72	866.00
386.92	793.44
387.11	851.96
387.31	938.55
387.50	823.87
387.70	840.25
387.89	901.11
388.09	926.85
388.28	889.40
388.48	896.43
388.67	926.85
388.86	905.79
389.06	926.85
389.25	931.53
389.45	943.24
389.64	896.43
389.84	971.32
390.03	896.43
390.22	933.87
390.42	891.74
390.61	922.17
390.81	943.24
391.00	1008.77
391.19	1069.62
391.39	978.34
391.58	985.37
391.78	952.60
391.97	1027.50
392.16	992.39
392.36	1071.97
392.55	1029.84
392.75	1018.13
392.94	1074.31
393.13	1034.52
393.33	1006.43
393.52	1121.12
393.71	1062.60
393.91	1090.69
394.10	1018.13
394.29	985.37
394.49	1097.71
394.68	1062.60
394.88	1081.33
395.07	1036.86
395.26	1128.14
395.46	1256.87
395.65	1097.71
395.84	1153.88
396.04	1263.89
396.23	1179.63
396.42	1221.76
396.62	1165.59
396.81	1151.54
397.00	1245.16
397.19	1174.95
397.39	1252.19
397.58	1228.78
397.77	1170.27
397.97	1221.76
398.16	1188.99
398.35	1240.48
398.55	1249.85
398.74	1235.80
398.93	1338.79
399.12	1242.82
399.32	1256.87
399.51	1334.11
399.70	1327.08
399.90	1291.98
400.09	1324.74
400.28	1366.87
400.47	1303.68
400.67	1378.58
400.86	1348.15
401.05	1315.38
401.24	1348.15
401.44	1451.13
401.63	1364.53
401.82	1376.24
402.01	1455.81
402.21	1437.09
402.40	1458.15
402.59	1526.03
402.78	1444.11
402.97	1504.96
403.17	1540.07
403.36	1493.26
403.55	1519.01
403.74	1579.86
403.93	1549.43
404.13	1561.14
404.32	1593.90
404.51	1526.03
404.70	1551.78
404.89	1530.71
405.09	1643.06
405.28	1582.20
405.47	1603.27
405.66	1701.57
405.85	1743.70
406.05	1596.25
406.24	1685.19
406.43	1699.23
406.62	1708.59
406.81	1713.27
407.00	1701.57
407.20	1671.14
407.39	1743.70
407.58	1834.98
407.77	1785.83
407.96	1802.21
408.15	1790.51
408.34	1827.96
408.54	1961.37
408.73	1886.47
408.92	1921.58
409.11	1881.79
409.30	1905.20
409.49	1921.58
409.68	2008.18
409.87	1923.92
410.07	2001.16
410.26	2001.16
410.45	1928.60
410.64	2083.08
410.83	2059.67
411.02	2008.18
411.21	2122.87
411.40	2097.12
411.59	2085.42
411.78	2174.36
411.98	2153.29
412.17	2162.66
412.36	2146.27
412.55	2251.60
412.74	2310.11
412.93	2275.00
413.12	2176.70
413.31	2427.14
413.50	2260.96
413.69	2361.60
413.88	2352.24
414.07	2399.05
414.26	2277.34
414.45	2534.80
414.64	2485.65
414.83	2424.80
415.02	2473.95
415.22	2607.36
415.41	2518.42
415.60	2567.57
415.79	2576.93
415.98	2686.94
416.17	2623.74
416.36	2715.02
416.55	2679.91
416.74	2754.81
416.93	2703.32
417.12	2803.96
417.31	2935.03
417.50	2794.60
417.69	2815.66
417.88	2853.11
418.07	2799.28
418.26	2789.92
418.45	2928.01
418.64	2909.29
418.83	2967.80
419.02	2958.44
419.21	3105.89
419.39	3016.95
419.58	3098.87
419.77	3007.59
419.96	3049.72
420.15	3124.62
420.34	3061.42
420.53	3187.81
420.72	3173.77
420.91	3166.74
421.10	3213.56
421.29	3199.51
421.48	3131.64
421.67	3185.47
421.86	3267.39
422.05	3215.90
422.24	3173.77
422.43	3332.92
422.61	3258.03
422.80	3265.05
422.99	3318.88
423.18	3229.94
423.37	3368.03
423.56	3405.48
423.75	3253.34
423.94	3222.92
424.13	3094.19
424.32	3190.15
424.50	3293.13
424.69	3445.27
424.88	3321.22
425.07	3243.98
425.26	3258.03
425.45	3307.18
425.64	3318.88
425.83	3314.20
426.01	3358.67
426.20	3426.54
426.39	3302.50
426.58	3358.67
426.77	3288.45
426.96	3414.84
427.15	3407.82
427.33	3428.88
427.52	3445.27
427.71	3428.88
427.90	3574.00
428.09	3508.46
428.28	3775.28
428.46	3569.32
428.65	3473.36
428.84	3712.09
429.03	3754.22
429.22	3524.85
429.40	3742.52
429.59	3630.17
429.78	3463.99
429.97	3515.48
430.16	3719.11
430.34	3672.30
430.53	3845.50
430.72	3768.26
430.91	3775.28
431.10	3817.41
431.28	3918.06
431.47	3857.20
431.66	3939.12
431.85	3786.99
432.03	3880.61
432.22	4025.72
432.41	3969.55
432.60	4021.04
432.79	3918.06
432.97	4004.66
433.16	4007.00
433.35	4007.00
433.54	4016.36
433.72	4084.23
433.91	3997.64
434.10	4159.13
434.28	4119.34
434.47	4131.05
434.66	4147.43
434.85	4170.83
435.03	4264.46
435.22	4159.13
435.41	4327.65
435.59	4329.99
435.78	4264.46
435.97	4236.37
436.16	4198.92
436.34	4327.65
436.53	4287.86
436.72	4257.43
436.90	4367.44
437.09	4404.89
437.28	4479.79
437.46	4327.65
437.65	4386.16
437.84	4592.13
438.02	4564.04
438.21	4554.68
438.40	4362.76
438.58	4575.75
438.77	4613.20
438.96	4657.67
439.14	4674.05
439.33	4791.08
439.52	4957.25
439.70	4814.48
439.89	4861.29
440.08	4950.23
440.26	4833.21
440.45	4922.15
440.63	5064.92
440.82	4975.98
441.01	4823.84
441.19	5053.22
441.38	5074.28
441.57	4997.04
441.75	5238.12
441.94	5404.30
442.12	5135.14
442.31	5352.81
442.50	5289.61
442.68	5144.50
442.87	5399.62
443.05	5313.02
443.24	5373.87
443.43	5376.21
443.61	5378.55
443.80	5458.13
443.98	5329.40
444.17	5163.22
444.35	5359.83
444.54	5434.72
444.73	5451.11
444.91	5518.98
445.10	5535.37
445.28	5544.73
445.47	5514.30
445.65	5441.75
445.84	5570.48
446.02	5472.17
446.21	5516.64
446.39	5584.52
446.58	5509.62
446.77	5444.09
446.95	5416.00
447.14	5582.18
447.32	5628.99
447.51	5605.58
447.69	5502.60
447.88	5610.26
448.06	5504.94
448.25	5830.27
448.43	5561.11
448.62	5575.16
448.80	5565.79
448.99	5643.03
449.17	5767.08
449.36	5678.14
449.54	5776.44
449.73	5858.36
449.91	5959.00
450.10	5858.36
450.28	5797.51
450.46	5928.58
450.65	5949.64
450.83	5797.51
451.02	5975.39
451.20	6038.58
451.39	5970.71
451.57	6099.44
451.76	5923.90
451.94	6066.67
452.13	6059.65
452.31	6136.88
452.49	6047.94
452.68	6008.16
452.86	6218.80
453.05	6118.16
453.23	6171.99
453.42	6272.64
453.60	6080.71
453.78	6279.66
453.97	6303.06
454.15	6157.95
454.34	6218.80
454.52	6333.49
454.70	6363.92
454.89	6422.43
455.07	6253.91
455.26	6492.65
455.44	6504.35
455.62	6459.88
455.81	6424.77
455.99	6520.73
456.17	6520.73
456.36	6532.44
456.54	6551.16
456.73	6878.83
456.91	6829.68
457.09	6953.73
457.28	6946.71
457.46	6810.96
457.64	6892.88
457.83	6885.86
458.01	6656.48
458.19	7066.08
458.38	6834.36
458.56	7115.23
458.74	6939.69
458.93	7005.22
459.11	6993.52
459.29	6953.73
459.48	7035.65
459.66	7124.59
459.84	7180.76
460.03	7328.22
460.21	7117.57
460.39	7105.87
460.57	7283.75
460.76	7386.73
460.94	7227.57
461.12	7232.26
461.31	7307.15
461.49	7389.07
461.67	7492.05
461.85	7492.05
462.04	7316.51
462.22	7960.16
462.40	7508.44
462.59	7454.61
462.77	7627.81
462.95	7470.99
463.13	7585.68
463.32	7606.74
463.50	7702.70
463.68	7616.10
463.86	7669.94
464.05	7674.62
464.23	7667.60
464.41	7714.41
464.59	7665.25
464.78	7859.52
464.96	7662.91
465.14	7653.55
465.32	7749.51
465.50	7901.65
465.69	7894.63
465.87	7822.07
466.05	7779.94
466.23	7868.88
466.41	7866.54
466.60	8044.42
466.78	7885.26
466.96	8053.78
467.14	8011.65
467.32	7985.91
467.51	8133.36
467.69	7978.89
467.87	8116.98
468.05	8299.54
468.23	7929.74
468.41	8196.56
468.60	8215.28
468.78	8056.12
468.96	8449.33
469.14	8241.03
469.32	8512.53
469.50	8189.53
469.69	8475.08
469.87	8304.22
470.05	8512.53
470.23	8442.31
470.41	8585.08
470.59	8580.40
470.77	8470.40
470.95	8699.77
471.14	8847.22
471.32	8624.87
471.50	8587.43
471.68	8744.24
471.86	8688.07
472.04	9092.98
472.22	8933.82
472.40	8863.61
472.58	9020.42
472.77	8950.21
472.95	9177.24
473.13	9116.39
473.31	9186.60
473.49	9130.43
473.67	9249.80
473.85	9308.31
474.03	9483.85
474.21	9518.96
474.39	9509.60
474.57	9657.05
474.75	9631.30
474.93	9760.03
475.12	9729.61
475.30	9851.31
475.48	9848.97
475.66	9490.87
475.84	9827.91
476.02	9937.91
476.20	9905.15
476.38	10160.27
476.56	10438.79
476.74	10265.59
476.92	10176.65
477.10	10333.47
477.28	10347.51
477.46	10251.55
477.64	10490.28
477.82	10600.29
478.00	10846.04
478.18	10700.93
478.36	10848.38
478.54	11140.95
478.72	10944.34
478.90	11229.89
479.08	11288.40
479.26	11435.86
479.44	11288.40
479.62	11515.44
479.80	11410.11
479.98	11538.84
480.16	12018.65
480.34	11800.98
480.52	11976.52
480.70	11939.07
480.88	12006.95
481.06	12032.69
481.24	11889.92
481.41	12018.65
481.59	12346.33
481.77	12432.93
481.95	12432.93
482.13	12760.60
482.31	12690.38
482.49	12645.91
482.67	12819.11
482.85	13025.08
483.03	13057.85
483.21	13406.59
483.39	13352.76
483.57	13181.90
483.74	13528.30
483.92	13748.31
484.10	13558.72
484.28	14059.60
484.46	14015.13
484.64	14394.29
484.82	14073.64
485.00	14059.60
485.18	14403.66
485.35	14618.99
485.53	14361.53
485.71	14796.87
485.89	14904.53
486.07	14941.98
486.25	14970.07
486.43	15030.92
486.61	15131.56
486.78	15456.90
486.96	15594.99
487.14	15452.22
487.32	15854.79
487.50	16042.03
487.68	15974.16
487.85	16149.70
488.03	16182.46
488.21	16587.38
488.39	16236.30
488.57	16652.91
488.75	16549.93
488.92	16961.86
489.10	17013.35
489.28	17067.19
489.46	17289.54
489.64	17207.62
489.81	17401.88
489.99	17242.73
490.17	17816.16
490.35	18068.94
490.53	17724.88
490.70	18188.30
490.88	17858.29
491.06	18223.41
491.24	18054.89
491.41	18499.59
491.59	18705.56
491.77	18513.64
491.95	18815.57
492.13	18930.25
492.30	18944.30
492.48	19372.61
492.66	19232.18
492.84	19293.04
493.01	19618.37
493.19	19461.55
493.37	20180.10
493.54	19798.59
493.72	19920.30
493.90	19819.66
494.08	20147.33
494.25	20285.42
494.43	20554.58
494.61	20678.63
494.79	20755.87
494.96	20437.56
495.14	20807.36
495.32	21231.00
495.49	21270.79
495.67	21219.30
495.85	21376.11
496.02	21565.70
496.20	21364.41
496.38	21996.35
496.55	21223.98
496.73	22300.62
496.91	22026.78
497.09	22078.27
497.26	22216.36
497.44	22141.47
497.62	22448.08
497.79	22672.77
497.97	22146.15
498.14	22888.10
498.32	23269.61
498.50	22958.31
498.67	23452.17
498.85	23075.34
499.03	23295.35
499.20	23463.87
499.38	23150.24
499.56	23672.18
499.73	23784.52
499.91	23608.98
500.08	23896.87
500.26	23590.26
500.44	23541.11
500.61	24107.52
500.79	23826.65
500.97	24552.22
501.14	24446.90
501.32	24444.56
501.49	24573.28
501.67	25001.60
501.84	24549.88
502.02	24648.18
502.20	24673.93
502.37	24931.39
502.55	24898.62
502.72	24879.89
502.90	25268.42
503.07	24856.49
503.25	25411.20
503.43	25280.13
503.60	25497.80
503.78	25654.61
503.95	25792.70
504.13	25816.11
504.30	25930.80
504.48	25694.40
504.65	25895.69
504.83	26251.45
505.01	26202.30
505.18	26178.89
505.36	26499.55
505.53	26604.87
505.71	26314.64
505.88	26616.57
506.06	26274.85
506.23	26977.01
506.41	26876.37
506.58	26937.23
506.76	27199.37
506.93	27349.16
507.11	27353.84
507.28	27477.89
507.46	27271.92
507.63	27140.85
507.81	28079.41
507.98	26759.34
508.16	27728.33
508.33	27999.83
508.50	28224.52
508.68	28058.34
508.85	28278.35
509.03	28208.14
509.20	28240.90
509.38	28460.91
509.55	28369.63
509.73	28615.39
509.90	28493.68
510.08	28276.01
510.25	28584.96
510.42	28795.61
510.60	28989.88
510.77	29266.06
510.95	29209.89
511.12	28694.97
511.30	28912.64
511.47	29214.57
511.64	29415.85
511.82	29443.94
511.99	29371.38
512.17	29511.81
512.34	29570.33
512.51	30298.23
512.69	29951.84
512.86	29961.20
513.04	30134.40
513.21	30029.07
513.38	30298.23
513.56	30373.13
513.73	30073.54
513.90	30181.21
514.08	30176.53
514.25	30558.03
514.43	30782.73
514.60	30684.42
514.77	30876.35
514.95	30473.78
515.12	30658.68
515.29	30618.89
515.47	31307.01
515.64	31239.13
515.81	31000.40
515.99	31255.51
516.16	31208.70
516.33	31512.97
516.51	31243.81
516.68	31527.02
516.85	31089.34
517.03	31955.33
517.20	31737.66
517.37	31646.38
517.54	31625.32
517.72	31857.03
517.89	32222.16
518.06	32201.09
518.24	32156.62
518.41	32385.99
518.58	31704.90
518.75	32018.53
518.93	32547.49
519.10	32243.22
519.27	32725.37
519.45	32575.58
519.62	32650.47
519.79	32638.77
519.96	32580.26
520.14	32734.73
520.31	32624.73
520.48	33118.58
520.65	33088.15
520.83	33425.19
521.00	33539.88
521.17	33141.99
521.34	33296.46
521.52	33362.00
521.69	33228.59
521.86	33799.68
522.03	33631.16
522.20	33968.19
522.38	33706.05
522.55	33933.09
522.72	34120.33
522.89	34202.25
523.07	34515.88
523.24	34061.82
523.41	34338.00
523.58	34565.03
523.75	34127.35
523.92	34345.02
524.10	34595.46
524.27	34597.80
524.44	34909.09
524.61	35028.46
524.78	34815.47
524.96	34965.26
525.13	35091.65
525.30	35290.60
525.47	34735.89
525.64	35014.41
525.81	35304.64
525.98	35466.14
526.16	35199.32
526.33	35180.59
526.50	35665.08
526.67	35503.59
526.84	35526.99
527.01	35730.62
527.18	35849.99
527.36	35880.41
527.53	35871.05
527.70	35728.28
527.87	35920.20
528.04	36077.02
528.21	35828.92
528.38	35999.78
528.55	36222.13
528.72	35789.13
528.89	36407.03
529.07	36086.38
529.24	35908.50
529.41	36020.84
529.58	36189.36
529.75	36481.93
529.92	36561.51
530.09	36355.54
530.26	36973.44
530.43	37013.23
530.60	36287.67
530.77	36589.59
530.94	36503.00
531.11	36659.81
531.28	36973.44
531.46	37228.56
531.63	37139.62
531.80	36783.86
531.97	36849.39
532.14	36879.82
532.31	37137.28
532.48	37347.93
532.65	37497.72
532.82	37163.03
532.99	37551.56
533.16	37488.36
533.33	37525.81
533.50	38022.00
533.67	37867.53
533.84	37434.53
534.01	37357.29
534.18	37743.48
534.35	38370.74
534.52	38120.31
534.69	37954.13
534.86	38384.79
535.03	38106.26
535.20	38199.88
535.37	38075.84
535.54	38263.08
535.71	38185.84
535.88	38293.50
536.05	38340.32
536.22	38574.37
536.38	38536.92
536.55	38820.13
536.72	38307.55
536.89	38281.80
537.06	38600.12
537.23	38581.39
537.40	38988.64
537.57	38768.63
537.74	38590.75
537.91	39393.56
538.08	38946.51
538.25	38335.63
538.42	38742.89
538.59	39271.85
538.75	38841.19
538.92	39255.46
539.09	39220.36
539.26	39126.74
539.43	39232.06
539.60	39899.11
539.77	39889.75
539.94	39573.78
540.11	39351.43
540.28	40140.19
540.44	39363.13
540.61	39461.43
540.78	39508.24
540.95	39552.71
541.12	39463.77
541.29	39541.01
541.46	39997.41
541.62	39959.97
541.79	40175.30
541.96	39569.10
542.13	39550.37
542.30	39985.71
542.47	40488.93
542.63	40191.68
542.80	40285.30
542.97	40720.64
543.14	40624.68
543.31	40540.42
543.48	40491.27
543.64	40924.27
543.81	41083.42
543.98	40711.28
544.15	40725.32
544.32	40942.99
544.48	41390.03
544.65	41165.34
544.82	41064.70
544.99	41083.42
545.16	41280.03
545.32	41315.14
545.49	41240.24
545.66	41581.96
545.83	41338.54
546.00	41228.54
546.16	41130.23
546.33	41312.80
546.50	41001.50
546.67	41406.42
546.83	41265.99
547.00	41368.97
547.17	41228.54
547.34	41031.93
547.50	41450.89
547.67	42220.92
547.84	41668.56
548.00	41841.76
548.17	42513.49
548.34	41986.87
548.51	42227.95
548.67	42366.04
548.84	42054.75
549.01	42153.05
549.18	41844.10
549.34	42160.07
549.51	42590.73
549.68	42185.82
549.84	42349.65
550.01	42160.07
550.18	42209.22
550.34	42265.39
550.51	42817.76
550.68	42946.49
550.84	42258.37
551.01	42462.00
551.18	42466.68
551.34	42492.43
551.51	42941.81
551.68	42588.39
551.84	42693.71
552.01	42298.16
552.18	42415.19
552.34	42300.50
552.51	42768.61
552.68	42937.13
552.84	42431.57
553.01	43000.32
553.18	42862.23
553.34	43278.85
553.51	42927.77
553.67	42866.91
553.84	43398.21
554.01	43409.92
554.17	43014.37
554.34	43161.82
554.51	43159.48
554.67	43686.10
554.84	43618.22
555.00	43494.18
555.17	43426.30
555.33	43269.48
555.50	43124.37
555.67	43295.23
555.83	43175.86
556.00	43679.08
556.16	44037.18
556.33	43613.54
556.50	43288.21
556.66	43896.75
556.83	43178.20
556.99	43861.64
557.16	44020.80
557.32	44004.41
557.49	44156.55
557.65	43519.92
557.82	44123.78
557.98	44053.56
558.15	44083.99
558.32	43873.34
558.48	43653.33
558.65	43878.02
558.81	44011.43
558.98	43838.23
559.14	43875.68
559.31	44271.23
559.47	44135.48
559.64	43983.35
559.80	44133.14
559.97	44058.24
560.13	44025.48
560.30	44285.28
560.46	44119.10
560.63	44559.12
560.79	44215.06
560.96	44399.96
561.12	44505.29
561.29	44385.92
561.45	44615.29
561.61	44729.98
561.78	44722.96
561.94	44638.70
562.11	44587.21
562.27	44238.47
562.44	44233.78
562.60	44708.91
562.77	44753.38
562.93	44528.69
563.10	44727.64
563.26	44275.91
563.42	45326.81
563.59	44809.56
563.75	44732.32
563.92	44563.80
564.08	44793.17
564.24	44966.37
564.41	44584.86
564.57	44622.31
564.74	44708.91
564.90	44800.19
565.07	44905.52
565.23	44701.89
565.39	44889.13
565.56	44676.15
565.72	44741.68
565.88	44912.54
566.05	44617.63
566.21	45090.42
566.38	44774.45
566.54	44910.20
566.70	44596.57
566.87	44814.24
567.03	44861.05
567.19	45546.82
567.36	45205.11
567.52	45186.38
567.68	45593.64
567.85	45354.90
568.01	45162.98
568.17	45071.70
568.34	45422.78
568.50	44959.35
568.66	44910.20
568.83	45317.45
568.99	44760.40
569.15	45390.01
569.32	44631.68
569.48	45076.38
569.64	45401.71
569.81	45338.52
569.97	45132.55
570.13	45399.37
570.30	45308.09
570.46	45523.42
570.62	45392.35
570.78	45401.71
570.95	45357.24
571.11	45394.69
571.27	45354.90
571.43	45371.28
571.60	45572.57
571.76	44762.75
571.92	45366.60
572.09	45071.70
572.25	45317.45
572.41	45317.45
572.57	45415.76
572.74	45797.26
572.90	45326.81
573.06	45888.54
573.22	45530.44
573.38	45930.67
573.55	45399.37
573.71	45652.15
573.87	45570.23
574.03	45551.51
574.20	45825.35
574.36	45846.41
574.52	45804.28
574.68	46014.93
574.84	45811.31
575.01	45862.80
575.17	45928.33
575.33	45500.01
575.49	45436.82
575.65	45514.06
575.82	45635.77
575.98	45794.92
576.14	45963.44
576.30	45713.00
576.46	45963.44
576.62	45830.03
576.79	45675.55
576.95	45184.04
577.11	45184.04
577.27	45787.90
577.43	45769.18
577.59	45745.77
577.75	45340.86
577.92	45481.29
578.08	45881.52
578.24	46061.74
578.40	46272.39
578.56	45965.78
578.72	45975.14
578.88	46127.28
579.04	45851.09
579.21	45755.13
579.37	45944.72
579.53	46370.69
579.69	46120.26
579.85	45703.64
580.01	46028.98
580.17	46124.94
580.33	46281.75
580.49	46099.19
580.65	46092.17
580.82	45998.55
580.98	45741.09
581.14	45610.02
581.30	45993.87
581.46	45949.40
581.62	45287.03
581.78	45743.43
581.94	45825.35
582.10	46003.23
582.26	46391.76
582.42	46071.10
582.58	46326.22
582.74	45462.57
582.90	46021.95
583.06	45984.51
583.22	45961.10
583.38	46014.93
583.54	45977.48
583.70	45832.37
583.86	46366.01
584.02	45659.17
584.18	46550.91
584.34	46225.58
584.50	46258.35
584.66	46216.22
584.82	46461.97
584.98	45996.21
585.14	46206.86
585.30	46302.82
585.46	45879.18
585.62	45780.88
585.78	46185.79
585.94	45598.32
586.10	45975.14
586.26	45443.84
586.42	45469.59
586.58	46277.07
586.74	46298.14
586.90	45956.42
587.06	46122.60
587.22	46244.30
587.38	46075.79
587.54	46447.93
587.70	46141.32
587.86	46092.17
588.02	46370.69
588.18	46291.12
588.34	46028.98
588.49	46564.96
588.65	46017.27
588.81	46251.33
588.97	46508.79
589.13	46075.79
589.29	46281.75
589.45	46426.87
589.61	46134.30
589.77	46681.98
589.93	46490.06
590.08	46394.10
