SpectraSuite Data File
++++++++++++++++++++++++++++++++++++
Date: Fri Oct 25 10:44:11 EDT 2013
User: price-jones
Dark Spectrum Present: No
Reference Spectrum Present: No
Number of Sampled Component Spectra: 1
Spectrometers: USB2+H05261
Integration Time (usec): 100000 (USB2+H05261)
Spectra Averaged: 1 (USB2+H05261)
Boxcar Smoothing: 0 (USB2+H05261)
Correct for Electrical Dark: No (USB2+H05261)
Strobe/Lamp Enabled: No (USB2+H05261)
Correct for Detector Non-linearity: No (USB2+H05261)
Correct for Stray Light: No (USB2+H05261)
Number of Pixels in Processed Spectrum: 2048
>>>>>Begin Processed Spectral Data<<<<<
365.73	163.84
365.92	163.84
366.12	163.84
366.32	0.00
366.52	0.00
366.72	9.36
366.91	44.47
367.11	23.41
367.31	7.02
367.51	18.72
367.70	91.28
367.90	0.00
368.10	35.11
368.30	32.77
368.49	11.70
368.69	93.62
368.89	93.62
369.09	86.60
369.28	72.56
369.48	58.51
369.68	56.17
369.87	86.60
370.07	0.00
370.27	126.39
370.47	210.65
370.66	442.36
370.86	325.33
371.06	482.15
371.25	430.66
371.45	430.66
371.65	449.38
371.84	444.70
372.04	454.06
372.24	493.85
372.44	524.28
372.63	500.87
372.83	479.81
373.03	507.90
373.22	496.19
373.42	507.90
373.62	510.24
373.81	641.31
374.01	510.24
374.21	540.66
374.40	543.00
374.60	564.07
374.79	601.52
374.99	634.29
375.19	582.79
375.38	596.84
375.58	688.12
375.78	641.31
375.97	622.58
376.17	695.14
376.37	505.56
376.56	657.69
376.76	608.54
376.95	622.58
377.15	610.88
377.35	547.69
377.54	624.92
377.74	657.69
377.93	674.07
378.13	657.69
378.33	643.65
378.52	620.24
378.72	692.80
378.91	678.76
379.11	620.24
379.31	697.48
379.50	690.46
379.70	709.18
379.89	706.84
380.09	664.71
380.28	699.82
380.48	702.16
380.68	716.20
380.87	692.80
381.07	774.72
381.26	713.86
381.46	610.88
381.65	720.88
381.85	655.35
382.04	645.99
382.24	706.84
382.43	643.65
382.63	678.76
382.83	657.69
383.02	716.20
383.22	741.95
383.41	763.01
383.61	753.65
383.80	791.10
384.00	777.06
384.19	744.29
384.39	830.89
384.58	819.19
384.78	861.32
384.97	875.36
385.17	840.25
385.36	734.93
385.56	779.40
385.75	844.93
385.95	781.74
386.14	842.59
386.34	847.27
386.53	866.00
386.72	786.42
386.92	887.06
387.11	870.68
387.31	896.43
387.50	802.80
387.70	851.96
387.89	763.01
388.09	870.68
388.28	894.08
388.48	798.12
388.67	966.64
388.86	861.32
389.06	924.51
389.25	980.68
389.45	957.28
389.64	854.30
389.84	1029.84
390.03	992.39
390.22	957.28
390.42	976.00
390.61	971.32
390.81	1032.18
391.00	1050.90
391.19	1057.92
391.39	1011.11
391.58	1032.18
391.78	957.28
391.97	1020.47
392.16	1015.79
392.36	987.71
392.55	994.73
392.75	1097.71
392.94	954.94
393.13	1104.73
393.33	1130.48
393.52	1086.01
393.71	1100.05
393.91	1188.99
394.10	1025.15
394.29	1095.37
394.49	1132.82
394.68	1188.99
394.88	1158.57
395.07	1263.89
395.26	1261.55
395.46	1226.44
395.65	1238.14
395.84	1188.99
396.04	1224.10
396.23	1135.16
396.42	1064.94
396.62	1139.84
396.81	1123.46
397.00	1207.72
397.19	1317.72
397.39	1348.15
397.58	1425.39
397.77	1437.09
397.97	1345.81
398.16	1345.81
398.35	1509.65
398.55	1441.77
398.74	1490.92
398.93	1434.75
399.12	1516.67
399.32	1533.05
399.51	1500.28
399.70	1591.56
399.90	1497.94
400.09	1577.52
400.28	1654.76
400.47	1638.38
400.67	1664.12
400.86	1710.93
401.05	1624.33
401.24	1736.68
401.44	1654.76
401.63	1699.23
401.82	1694.55
402.01	1729.66
402.21	1689.87
402.40	1692.21
402.59	1755.40
402.78	1753.06
402.97	1769.44
403.17	1785.83
403.36	1736.68
403.55	1799.87
403.74	1959.03
403.93	1834.98
404.13	1802.21
404.32	1923.92
404.51	1753.06
404.70	1813.92
404.89	1853.70
405.09	1994.14
405.28	1921.58
405.47	1959.03
405.66	1963.71
405.85	1937.96
406.05	1968.39
406.24	1998.82
406.43	2008.18
406.62	2022.22
406.81	2129.89
407.00	1977.75
407.20	1991.80
407.39	2125.21
407.58	2036.27
407.77	2244.57
407.96	2183.72
408.15	2209.47
408.34	2314.79
408.54	2277.34
408.73	2310.11
408.92	2272.66
409.11	2345.22
409.30	2291.38
409.49	2258.62
409.68	2202.44
409.87	2279.68
410.07	2253.94
410.26	2352.24
410.45	2403.73
410.64	2340.54
410.83	2399.05
411.02	2558.21
411.21	2605.02
411.40	2567.57
411.59	2686.94
411.78	2600.34
411.98	2565.23
412.17	2642.46
412.36	2605.02
412.55	2693.96
412.74	2693.96
412.93	2623.74
413.12	2682.25
413.31	2928.01
413.50	2815.66
413.69	2897.58
413.88	2799.28
414.07	2918.65
414.26	2937.37
414.45	2998.23
414.64	3009.93
414.83	3084.83
415.02	2974.82
415.22	3073.12
415.41	3159.72
415.60	3119.93
415.79	3185.47
415.98	3251.00
416.17	3274.41
416.36	3192.49
416.55	3323.56
416.74	3318.88
416.93	3206.53
417.12	3304.84
417.31	3379.73
417.50	3286.11
417.69	3487.40
417.88	3337.60
418.07	3438.25
418.26	3543.57
418.45	3496.76
418.64	3569.32
418.83	3583.36
419.02	3449.95
419.21	3569.32
419.39	3548.25
419.58	3541.23
419.77	3585.70
419.96	3679.32
420.15	3557.61
420.34	3744.86
420.53	3763.58
420.72	3808.05
420.91	3892.31
421.10	3904.01
421.29	3805.71
421.48	3686.34
421.67	3850.18
421.86	3735.50
422.05	3831.46
422.24	3775.28
422.43	3686.34
422.61	3824.44
422.80	3960.19
422.99	3953.16
423.18	3941.46
423.37	3925.08
423.56	3913.38
423.75	4002.32
423.94	3838.48
424.13	3674.64
424.32	3768.26
424.50	3974.23
424.69	4025.72
424.88	4039.76
425.07	3896.99
425.26	3702.73
425.45	3829.12
425.64	3943.80
425.83	3852.52
426.01	3976.57
426.20	3925.08
426.39	3974.23
426.58	3871.25
426.77	3962.53
426.96	4093.60
427.15	3927.42
427.33	3981.25
427.52	3974.23
427.71	4238.71
427.90	4304.25
428.09	4014.02
428.28	4250.41
428.46	4060.83
428.65	4166.15
428.84	4329.99
429.03	4348.72
429.22	4114.66
429.40	4009.34
429.59	4308.93
429.78	4060.83
429.97	3815.07
430.16	3887.63
430.34	4018.70
430.53	4203.60
430.72	4070.19
430.91	4236.37
431.10	4360.42
431.28	4444.68
431.47	4585.11
431.66	4643.62
431.85	4465.74
432.03	4594.47
432.22	4585.11
432.41	4507.87
432.60	4545.32
432.79	4662.35
432.97	4748.95
433.16	4730.22
433.35	4629.58
433.54	4477.44
433.72	4660.01
433.91	4805.12
434.10	4786.40
434.28	4760.65
434.47	4784.06
434.66	4961.94
434.85	5050.88
435.03	4954.91
435.22	4936.19
435.41	5088.32
435.59	5083.64
435.78	5034.49
435.97	5132.79
436.16	5041.51
436.34	5027.47
436.53	5184.29
436.72	5158.54
436.90	5018.11
437.09	5121.09
437.28	5015.77
437.46	5116.41
437.65	5135.14
437.84	4971.30
438.02	5135.14
438.21	5177.26
438.40	5146.84
438.58	5373.87
438.77	5448.77
438.96	5497.92
439.14	5654.73
439.33	5584.52
439.52	5577.50
439.70	5490.90
439.89	5738.99
440.08	5650.05
440.26	5813.89
440.45	5666.44
440.63	5856.02
440.82	6022.20
441.01	5914.53
441.19	6071.35
441.38	6148.59
441.57	6001.13
441.75	6338.17
441.94	6263.27
442.12	6223.48
442.31	6399.02
442.50	6455.20
442.68	6193.06
442.87	6272.64
443.05	6094.76
443.24	6434.13
443.43	6375.62
443.61	6602.65
443.80	6789.89
443.98	6466.90
444.17	6319.45
444.35	6457.54
444.54	6490.31
444.73	6539.46
444.91	6492.65
445.10	6523.07
445.28	6319.45
445.47	6356.90
445.65	6410.73
445.84	6532.44
446.02	6492.65
446.21	6520.73
446.39	6595.63
446.58	6579.25
446.77	6581.59
446.95	6438.81
447.14	6630.74
447.32	6626.06
447.51	6825.00
447.69	6773.51
447.88	6649.46
448.06	6801.60
448.25	6707.98
448.43	6661.16
448.62	6691.59
448.80	6799.26
448.99	6932.67
449.17	6846.07
449.36	6658.82
449.54	6920.96
449.73	6960.75
449.91	7056.72
450.10	7019.27
450.28	7155.02
450.46	7110.55
450.65	7140.97
450.83	7356.30
451.02	7098.84
451.20	7403.11
451.39	7272.04
451.57	7140.97
451.76	7208.85
451.94	7360.98
452.13	7304.81
452.31	7152.68
452.49	7098.84
452.68	7068.42
452.86	7080.12
453.05	7218.21
453.23	7468.65
453.42	7321.20
453.60	7365.67
453.78	7311.83
453.97	7424.18
454.15	7447.58
454.34	7442.90
454.52	7375.03
454.70	7442.90
454.89	7452.27
455.07	7559.93
455.26	7604.40
455.44	7683.98
455.62	7826.75
455.81	7602.06
455.99	7798.66
456.17	7775.26
456.36	7810.37
456.54	7927.39
456.73	7950.80
456.91	7932.08
457.09	8177.83
457.28	8152.09
457.46	7978.89
457.64	8149.75
457.83	8135.70
458.01	7929.74
458.19	8128.68
458.38	8161.45
458.56	8086.55
458.74	8266.77
458.93	8002.29
459.11	8161.45
459.29	8138.04
459.48	8379.12
459.66	8285.50
459.84	8402.52
460.03	8641.26
460.21	8505.51
460.39	8454.02
460.57	8276.13
460.76	8491.46
460.94	8769.99
461.12	8662.32
461.31	8711.47
461.49	8528.91
461.67	8580.40
461.85	8849.57
462.04	8954.89
462.22	8830.84
462.40	8992.34
462.59	8894.04
462.77	8751.26
462.95	8835.52
463.13	8924.46
463.32	8872.97
463.50	9132.77
463.68	8884.67
463.86	9018.08
464.05	8713.81
464.23	8751.26
464.41	9109.36
464.59	8858.93
464.78	9345.76
464.96	9046.17
465.14	9078.94
465.32	9121.07
465.50	9493.21
465.69	9315.33
465.87	9156.18
466.05	9277.88
466.23	9050.85
466.41	9125.75
466.60	9214.69
466.78	9259.16
466.96	9280.22
467.14	9324.69
467.32	9291.93
467.51	9504.92
467.69	9167.88
467.87	9369.16
468.05	9453.42
468.23	9411.29
468.41	9357.46
468.60	9437.04
468.78	9451.08
468.96	9544.70
469.14	9605.56
469.32	9694.50
469.50	9549.39
469.69	9767.06
469.87	9841.95
470.05	10061.96
470.23	9657.05
470.41	9715.56
470.59	9769.40
470.77	9888.76
470.95	9879.40
471.14	10090.05
471.32	9825.57
471.50	10197.71
471.68	10134.52
471.86	10366.23
472.04	10429.43
472.22	10588.58
472.40	10277.29
472.58	10363.89
472.77	10705.61
472.95	10504.32
473.13	10785.19
473.31	10413.04
473.49	10553.48
473.67	10623.69
473.85	10602.63
474.03	11005.20
474.21	10963.07
474.39	10934.98
474.57	11044.99
474.75	11063.71
474.93	11243.93
475.12	11225.21
475.30	11089.46
475.48	11126.91
475.66	11030.94
475.84	11052.01
476.02	11183.08
476.20	11332.87
476.38	11625.44
476.56	11744.81
476.74	11817.36
476.92	11789.28
477.10	11866.52
477.28	11960.14
477.46	11997.59
477.64	12121.63
477.82	12336.96
478.00	12606.13
478.18	12652.94
478.36	12269.09
478.54	12535.91
478.72	12575.70
478.90	12872.95
479.08	12999.34
479.26	13195.94
479.44	12835.50
479.62	13235.73
479.80	13425.31
479.98	13411.27
480.16	13827.88
480.34	13486.17
480.52	13809.16
480.70	13687.45
480.88	13511.91
481.06	13495.53
481.24	13977.68
481.41	14270.25
481.59	14328.76
481.77	14354.51
481.95	14209.39
482.13	14450.47
482.31	14771.12
482.49	14881.13
482.67	14829.63
482.85	14867.08
483.03	14843.68
483.21	15253.27
483.39	15344.55
483.57	15477.96
483.74	15667.55
483.92	15583.29
484.10	15360.94
484.28	15873.51
484.46	16194.17
484.64	16280.77
484.82	16147.36
485.00	16402.47
485.18	16381.41
485.35	16339.28
485.53	16042.03
485.71	16088.84
485.89	16191.83
486.07	16358.00
486.25	16882.28
486.43	16828.45
486.61	17106.98
486.78	17383.16
486.96	17434.65
487.14	17516.57
487.32	17717.86
487.50	17933.18
487.68	18141.49
487.85	18122.77
488.03	18651.73
488.21	18457.46
488.39	18324.05
488.57	18448.10
488.75	18745.35
488.92	19040.26
489.10	19381.98
489.28	19241.54
489.46	19814.98
489.64	19646.46
489.81	20058.39
489.99	20189.46
490.17	20121.59
490.35	20114.56
490.53	20144.99
490.70	20215.21
490.88	20470.33
491.06	20798.00
491.24	20613.10
491.41	20678.63
491.59	20980.56
491.77	20772.25
491.95	20938.43
492.13	21436.97
492.30	21633.57
492.48	21741.24
492.66	21998.70
492.84	21937.84
493.01	22157.85
493.19	21954.22
493.37	22328.71
493.54	22181.26
493.72	22682.13
493.90	22494.89
494.08	22946.61
494.25	23190.03
494.43	23215.77
494.61	22925.55
494.79	23459.19
494.96	23517.70
495.14	23592.60
495.32	23747.08
495.49	24198.80
495.67	24147.31
495.85	23875.80
496.02	24030.28
496.20	24261.99
496.38	24149.65
496.55	24634.14
496.73	24840.11
496.91	24830.74
497.09	24884.58
497.26	24978.20
497.44	24905.64
497.62	25027.35
497.79	25525.88
497.97	25202.89
498.14	25467.37
498.32	25610.14
498.50	25743.55
498.67	25713.13
498.85	25825.47
499.03	26157.83
499.20	26228.04
499.38	26188.25
499.56	26401.24
499.73	26314.64
499.91	26485.50
500.08	26314.64
500.26	26221.02
500.44	26738.28
500.61	26724.24
500.79	26590.83
500.97	27026.17
501.14	26916.16
501.32	27150.21
501.49	27496.61
501.67	27129.15
501.84	27285.97
502.02	27393.63
502.20	27690.88
502.37	27527.04
502.55	27742.37
502.72	27910.89
502.90	28114.52
503.07	28016.21
503.25	28158.99
503.43	28318.14
503.60	28154.30
503.78	28041.96
503.95	28247.93
504.13	28477.30
504.30	28615.39
504.48	28641.14
504.65	29106.90
504.83	29041.37
505.01	29383.09
505.18	29371.38
505.36	29378.40
505.53	29418.19
505.71	29575.01
505.88	29544.58
506.06	29326.91
506.23	29479.05
506.41	29670.97
506.58	29893.32
506.76	29762.25
506.93	29991.62
507.11	29947.15
507.28	30040.78
507.46	30132.06
507.63	29876.94
507.81	30087.59
507.98	30302.92
508.16	30464.41
508.33	30539.31
508.50	30754.64
508.68	30810.81
508.85	31189.98
509.03	31082.31
509.20	31126.78
509.38	31220.41
509.55	31307.01
509.73	31330.41
509.90	31161.89
510.08	31363.18
510.25	31349.14
510.42	31255.51
510.60	32088.74
510.77	31587.87
510.95	32219.81
511.12	31995.12
511.30	32620.05
511.47	32477.27
511.64	31810.22
511.82	32685.58
511.99	32243.22
512.17	32467.91
512.34	31920.23
512.51	32449.19
512.69	32699.62
512.86	32840.06
513.04	33443.91
513.21	32699.62
513.38	32704.31
513.56	32814.31
513.73	32694.94
513.90	33296.46
514.08	32795.59
514.25	33415.83
514.43	33174.75
514.60	33074.11
514.77	33333.91
514.95	33376.04
515.12	33275.40
515.29	33553.92
515.47	34085.22
515.64	34134.37
515.81	33823.08
515.99	34073.52
516.16	33776.27
516.33	33413.49
516.51	33560.94
516.68	33369.02
516.85	32797.93
517.03	33572.64
517.20	34024.37
517.37	34555.67
517.54	34078.20
517.72	33958.83
517.89	34092.24
518.06	33996.28
518.24	33972.88
518.41	34459.71
518.58	34836.53
518.75	34663.33
518.93	35150.17
519.10	34836.53
519.27	34873.98
519.45	35222.72
519.62	35398.26
519.79	35267.19
519.96	35101.01
520.14	35828.92
520.31	35398.26
520.48	35299.96
520.65	35742.32
520.83	36067.66
521.00	36144.89
521.17	36046.59
521.34	36287.67
521.52	35768.07
521.69	35967.01
521.86	36315.75
522.03	36201.07
522.20	35945.95
522.38	36168.30
522.55	36503.00
522.72	36484.27
522.89	36311.07
523.07	36381.29
523.24	36463.21
523.41	37010.89
523.58	37031.96
523.75	37298.78
523.92	37298.78
524.10	37347.93
524.27	37301.12
524.44	37015.57
524.61	37584.32
524.78	37343.25
524.96	37750.50
525.13	37535.17
525.30	37699.01
525.47	37998.60
525.64	37251.97
525.81	38000.94
525.98	37654.54
526.16	37200.47
526.33	37113.87
526.50	37675.60
526.67	37153.66
526.84	37521.13
527.01	37420.48
527.18	37518.79
527.36	37886.25
527.53	38539.26
527.70	38340.32
527.87	38223.29
528.04	38239.67
528.21	38424.57
528.38	38813.10
528.55	38665.65
528.72	38429.26
528.89	38829.49
529.07	38780.34
529.24	38375.42
529.41	38787.36
529.58	38593.09
529.75	38845.87
529.92	39236.74
530.09	38913.75
530.26	39182.91
530.43	39555.05
530.60	39311.64
530.77	39297.59
530.94	39384.19
531.11	39304.62
531.28	39796.13
531.46	39849.96
531.63	39538.67
531.80	39541.01
531.97	39452.07
532.14	39227.38
532.31	39103.33
532.48	39442.71
532.65	39814.85
532.82	39562.08
532.99	39686.12
533.16	39477.82
533.33	40170.61
533.50	40514.67
533.67	40273.60
533.84	39840.60
534.01	39871.03
534.18	39969.33
534.35	40765.11
534.52	40463.18
534.69	40421.05
534.86	40816.60
535.03	40233.81
535.20	40861.07
535.37	40772.13
535.54	41015.55
535.71	40421.05
535.88	40615.32
536.05	40582.55
536.22	41041.29
536.38	40807.24
536.55	41020.23
536.72	40950.01
536.89	40776.81
537.06	40664.47
537.23	41179.39
537.40	41146.62
537.57	41291.73
537.74	40774.47
537.91	41591.32
538.08	41422.80
538.25	40900.86
538.42	41270.67
538.59	41366.63
538.75	41333.86
538.92	41001.50
539.09	41448.55
539.26	41476.63
539.43	41755.16
539.60	41689.62
539.77	41359.61
539.94	41537.49
540.11	41392.37
540.28	41881.55
540.44	41706.01
540.61	41308.11
540.78	41453.23
540.95	41713.03
541.12	41441.53
541.29	41130.23
541.46	41771.54
541.62	41514.08
541.79	42007.94
541.96	41951.76
542.13	41806.65
542.30	41930.70
542.47	42148.37
542.63	42033.68
542.80	42337.95
542.97	42817.76
543.14	42895.00
543.31	42869.25
543.48	42752.23
543.64	43016.71
543.81	43054.15
543.98	43086.92
544.15	42873.93
544.32	43105.65
544.48	43215.65
544.65	43140.75
544.82	42850.53
544.99	43217.99
545.16	42775.63
545.32	42740.52
545.49	42899.68
545.66	43201.61
545.83	43318.64
546.00	43482.47
546.16	43342.04
546.33	43372.47
546.50	42899.68
546.67	43133.73
546.83	43035.43
547.00	43196.93
547.17	43365.45
547.34	43693.12
547.50	43339.70
547.67	43643.97
547.84	43723.55
548.00	43917.81
548.17	43693.12
548.34	43426.30
548.51	43973.98
548.67	43845.26
548.84	43704.82
549.01	43210.97
549.18	43735.25
549.34	43938.88
549.51	43969.30
549.68	43826.53
549.84	44144.84
550.01	44334.43
550.18	43882.70
550.34	44067.61
550.51	43943.56
550.68	43599.50
550.84	43606.52
551.01	44275.91
551.18	43964.62
551.34	43969.30
551.51	44322.72
551.68	44584.86
551.84	44385.92
552.01	44252.51
552.18	44140.16
552.34	43658.01
552.51	44524.01
552.68	44683.17
552.84	44626.99
553.01	44715.93
553.18	44622.31
553.34	44254.85
553.51	44175.27
553.67	44638.70
553.84	44657.42
554.01	44687.85
554.17	45006.16
554.34	45160.64
554.51	44631.68
554.67	44949.99
554.84	44872.75
555.00	44678.49
555.17	44987.44
555.33	45027.23
555.50	45043.61
555.67	44868.07
555.83	44893.82
556.00	44957.01
556.16	45013.18
556.33	44758.06
556.50	44720.62
556.66	45191.06
556.83	44629.34
556.99	45160.64
557.16	45118.51
557.32	45233.19
557.49	45443.84
557.65	45139.57
557.82	44949.99
557.98	45420.44
558.15	45116.17
558.32	44980.42
558.48	45015.52
558.65	45223.83
558.81	45261.28
558.98	44755.72
559.14	45371.28
559.31	44947.65
559.47	45476.61
559.64	45411.07
559.80	45322.13
559.97	45617.04
560.13	45558.53
560.30	45296.39
560.46	45462.57
560.63	45530.44
560.79	45675.55
560.96	45698.96
561.12	45382.99
561.29	45443.84
561.45	45249.58
561.61	45668.53
561.78	45652.15
561.94	45397.03
562.11	45148.93
562.27	45560.87
562.44	45436.82
562.60	45352.56
562.77	45572.57
562.93	45191.06
563.10	46040.68
563.26	45326.81
563.42	45839.39
563.59	45549.17
563.75	45364.26
563.92	45785.56
564.08	45769.18
564.24	46178.77
564.41	45773.86
564.57	45638.11
564.74	46274.73
564.90	45591.30
565.07	45525.76
565.23	45806.62
565.39	45827.69
565.56	46031.32
565.72	45652.15
565.88	45530.44
566.05	45535.12
566.21	45698.96
566.38	45371.28
566.54	45584.27
566.70	45708.32
566.87	45862.80
567.03	45745.77
567.19	46349.63
567.36	46089.83
567.52	45535.12
567.68	45867.48
567.85	45607.68
568.01	45965.78
568.17	46190.47
568.34	46174.09
568.50	46019.61
568.66	45846.41
568.83	46082.81
568.99	45792.58
569.15	45820.67
569.32	45755.13
569.48	45628.74
569.64	46398.78
569.81	45925.99
569.97	45628.74
570.13	45933.01
570.30	45647.47
570.46	45703.64
570.62	45649.81
570.78	45617.04
570.95	45837.05
571.11	45837.05
571.27	46106.21
571.43	45925.99
571.60	45727.05
571.76	46131.96
571.92	46047.70
572.09	46220.90
572.25	46052.38
572.41	45769.18
572.57	46178.77
572.74	46288.77
572.90	45612.36
573.06	46244.30
573.22	45975.14
573.38	46213.88
573.55	46391.76
573.71	46520.49
573.87	45865.14
574.03	46412.82
574.20	46153.02
574.36	46171.75
574.52	46211.54
574.68	46241.96
574.84	46309.84
575.01	45986.85
575.17	46410.48
575.33	46024.29
575.49	45815.99
575.65	46408.14
575.82	46052.38
575.98	46349.63
576.14	46358.99
576.30	46370.69
576.46	46213.88
576.62	45923.65
576.79	46160.05
576.95	46043.02
577.11	45928.33
577.27	46387.08
577.43	46160.05
577.59	46017.27
577.75	46199.83
577.92	45776.20
578.08	45930.67
578.24	45771.52
578.40	45874.50
578.56	46412.82
578.72	46101.53
578.88	46232.60
579.04	46124.94
579.21	46492.40
579.37	46298.14
579.53	46349.63
579.69	46134.30
579.85	46057.06
580.01	46246.65
580.17	46141.32
580.33	46560.28
580.49	46405.80
580.65	46478.36
580.82	46408.14
580.98	46101.53
581.14	46190.47
581.30	46485.38
581.46	46438.57
581.62	46518.15
581.78	46366.01
581.94	46312.18
582.10	46106.21
582.26	46391.76
582.42	46087.49
582.58	46461.97
582.74	46337.93
582.90	46293.46
583.06	46167.07
583.22	46740.50
583.38	46314.52
583.54	46529.85
583.70	46504.10
583.86	45933.01
584.02	46232.60
584.18	46220.90
584.34	45865.14
584.50	46202.18
584.66	46267.71
584.82	45762.15
584.98	46756.88
585.14	46340.27
585.30	46433.89
585.46	46286.43
585.62	45808.96
585.78	46522.83
585.94	45848.75
586.10	46040.68
586.26	46391.76
586.42	46267.71
586.58	46066.42
586.74	46597.73
586.90	46635.17
587.06	46312.18
587.22	46239.62
587.38	46211.54
587.54	46377.72
587.70	46534.53
587.86	46368.35
588.02	46192.81
588.18	46649.22
588.34	46075.79
588.49	45956.42
588.65	45806.62
588.81	45603.00
588.97	45888.54
589.13	45883.86
589.29	46253.67
589.45	46195.15
589.61	45858.12
589.77	46295.80
589.93	46417.50
590.08	46237.28
