SpectraSuite Data File
++++++++++++++++++++++++++++++++++++
Date: Fri Oct 25 11:34:06 EDT 2013
User: price-jones
Dark Spectrum Present: No
Reference Spectrum Present: No
Number of Sampled Component Spectra: 1
Spectrometers: USB2+H05261
Integration Time (usec): 100000 (USB2+H05261)
Spectra Averaged: 1 (USB2+H05261)
Boxcar Smoothing: 0 (USB2+H05261)
Correct for Electrical Dark: No (USB2+H05261)
Strobe/Lamp Enabled: No (USB2+H05261)
Correct for Detector Non-linearity: No (USB2+H05261)
Correct for Stray Light: No (USB2+H05261)
Number of Pixels in Processed Spectrum: 2048
>>>>>Begin Processed Spectral Data<<<<<
365.73	308.95
365.92	308.95
366.12	308.95
366.32	201.29
366.52	168.52
366.72	187.24
366.91	112.35
367.11	184.90
367.31	147.45
367.51	182.56
367.70	215.33
367.90	119.37
368.10	180.22
368.30	166.18
368.49	107.66
368.69	241.08
368.89	152.13
369.09	161.50
369.28	119.37
369.48	205.97
369.68	212.99
369.87	259.80
370.07	301.93
370.27	297.25
370.47	341.72
370.66	388.53
370.86	524.28
371.06	538.32
371.25	557.05
371.45	557.05
371.65	528.96
371.84	517.26
372.04	517.26
372.24	524.28
372.44	603.86
372.63	582.79
372.83	601.52
373.03	582.79
373.22	599.18
373.42	620.24
373.62	594.50
373.81	585.13
374.01	613.22
374.21	587.47
374.40	650.67
374.60	655.35
374.79	596.84
374.99	629.60
375.19	638.97
375.38	662.37
375.58	592.16
375.78	650.67
375.97	657.69
376.17	767.70
376.37	664.71
376.56	664.71
376.76	585.13
376.95	585.13
377.15	716.20
377.35	655.35
377.54	631.94
377.74	681.10
377.93	681.10
378.13	744.29
378.33	676.41
378.52	620.24
378.72	727.91
378.91	753.65
379.11	657.69
379.31	695.14
379.50	716.20
379.70	748.97
379.89	709.18
380.09	725.57
380.28	716.20
380.48	732.59
380.68	763.01
380.87	770.04
381.07	791.10
381.26	767.70
381.46	767.70
381.65	772.38
381.85	763.01
382.04	739.61
382.24	795.78
382.43	814.51
382.63	774.72
382.83	767.70
383.02	805.14
383.22	814.51
383.41	770.04
383.61	713.86
383.80	751.31
384.00	819.19
384.19	844.93
384.39	807.48
384.58	877.70
384.78	816.85
384.97	816.85
385.17	851.96
385.36	779.40
385.56	842.59
385.75	786.42
385.95	917.49
386.14	826.21
386.34	833.23
386.53	809.83
386.72	851.96
386.92	966.64
387.11	805.14
387.31	816.85
387.50	903.45
387.70	781.74
387.89	922.17
388.09	908.13
388.28	891.74
388.48	863.66
388.67	940.90
388.86	854.30
389.06	908.13
389.25	964.30
389.45	875.36
389.64	961.96
389.84	1001.75
390.03	903.45
390.22	929.19
390.42	992.39
390.61	933.87
390.81	926.85
391.00	950.26
391.19	976.00
391.39	961.96
391.58	1001.75
391.78	1011.11
391.97	1029.84
392.16	1025.15
392.36	976.00
392.55	1078.99
392.75	987.71
392.94	976.00
393.13	1050.90
393.33	1050.90
393.52	1057.92
393.71	1116.44
393.91	1053.24
394.10	1081.33
394.29	1057.92
394.49	1064.94
394.68	1132.82
394.88	1167.93
395.07	1217.08
395.26	1125.80
395.46	1093.03
395.65	1214.74
395.84	1128.14
396.04	1228.78
396.23	1221.76
396.42	1132.82
396.62	1256.87
396.81	1191.33
397.00	1252.19
397.19	1174.95
397.39	1156.22
397.58	1210.06
397.77	1210.06
397.97	1247.51
398.16	1217.08
398.35	1294.32
398.55	1247.51
398.74	1273.25
398.93	1329.42
399.12	1280.27
399.32	1270.91
399.51	1324.74
399.70	1401.98
399.90	1352.83
400.09	1296.66
400.28	1350.49
400.47	1357.51
400.67	1355.17
400.86	1324.74
401.05	1345.81
401.24	1362.19
401.44	1453.47
401.63	1448.79
401.82	1418.36
402.01	1425.39
402.21	1474.54
402.40	1495.60
402.59	1462.83
402.78	1507.30
402.97	1544.75
403.17	1416.02
403.36	1502.62
403.55	1533.05
403.74	1519.01
403.93	1521.35
404.13	1514.33
404.32	1493.26
404.51	1610.29
404.70	1554.12
404.89	1554.12
405.09	1736.68
405.28	1607.95
405.47	1640.72
405.66	1631.35
405.85	1631.35
406.05	1722.63
406.24	1713.27
406.43	1638.38
406.62	1788.17
406.81	1741.36
407.00	1682.85
407.20	1678.16
407.39	1743.70
407.58	1820.94
407.77	1769.44
407.96	1827.96
408.15	1846.68
408.34	1846.68
408.54	1863.07
408.73	2003.50
408.92	1905.20
409.11	1966.05
409.30	1973.07
409.49	1963.71
409.68	1947.33
409.87	1905.20
410.07	2094.78
410.26	1888.81
410.45	1984.77
410.64	1959.03
410.83	2115.84
411.02	2097.12
411.21	2050.31
411.40	2115.84
411.59	2146.27
411.78	2101.80
411.98	2139.25
412.17	2190.74
412.36	2293.72
412.55	2174.36
412.74	2296.07
412.93	2293.72
413.12	2310.11
413.31	2420.11
413.50	2363.94
413.69	2387.35
413.88	2431.82
414.07	2349.90
414.26	2487.99
414.45	2504.37
414.64	2478.63
414.83	2555.86
415.02	2576.93
415.22	2565.23
415.41	2633.10
415.60	2619.06
415.79	2677.57
415.98	2642.46
416.17	2623.74
416.36	2675.23
416.55	2656.51
416.74	2782.90
416.93	2775.88
417.12	2724.38
417.31	2832.05
417.50	2862.48
417.69	3028.65
417.88	2906.95
418.07	2892.90
418.26	2860.13
418.45	2892.90
418.64	2960.78
418.83	2869.50
419.02	2963.12
419.21	2972.48
419.39	3089.51
419.58	3052.06
419.77	3030.99
419.96	3059.08
420.15	3098.87
420.34	3007.59
420.53	3194.83
420.72	3241.64
420.91	3180.79
421.10	3145.68
421.29	3208.87
421.48	3173.77
421.67	3272.07
421.86	3279.09
422.05	3232.28
422.24	3328.24
422.43	3396.12
422.61	3262.71
422.80	3428.88
422.99	3428.88
423.18	3440.59
423.37	3330.58
423.56	3332.92
423.75	3382.07
423.94	3243.98
424.13	3159.72
424.32	3234.62
424.50	3471.01
424.69	3403.14
424.88	3487.40
425.07	3304.84
425.26	3412.50
425.45	3353.99
425.64	3377.39
425.83	3330.58
426.01	3424.20
426.20	3485.06
426.39	3412.50
426.58	3501.44
426.77	3494.42
426.96	3419.52
427.15	3536.55
427.33	3557.61
427.52	3618.47
427.71	3552.93
427.90	3473.36
428.09	3482.72
428.28	3758.90
428.46	3688.68
428.65	3662.94
428.84	3588.04
429.03	3604.42
429.22	3618.47
429.40	3653.58
429.59	3728.47
429.78	3644.21
429.97	3620.81
430.16	3730.81
430.34	3662.94
430.53	3775.28
430.72	3728.47
430.91	3875.93
431.10	3768.26
431.28	3983.59
431.47	3852.52
431.66	3817.41
431.85	3962.53
432.03	3894.65
432.22	4112.32
432.41	4056.15
432.60	4109.98
432.79	4049.13
432.97	4046.79
433.16	4086.58
433.35	4060.83
433.54	4198.92
433.72	4175.52
433.91	4091.26
434.10	4203.60
434.28	4182.54
434.47	4245.73
434.66	4065.51
434.85	4250.41
435.03	4224.67
435.22	4196.58
435.41	4411.91
435.59	4404.89
435.78	4266.80
435.97	4320.63
436.16	4369.78
436.34	4301.90
436.53	4414.25
436.72	4606.17
436.90	4339.35
437.09	4322.97
437.28	4365.10
437.46	4432.97
437.65	4587.45
437.84	4470.42
438.02	4636.60
438.21	4510.21
438.40	4517.23
438.58	4610.86
438.77	4643.62
438.96	4767.67
439.14	4744.27
439.33	4809.80
439.52	4858.95
439.70	4835.55
439.89	4959.60
440.08	4858.95
440.26	4732.56
440.45	4901.08
440.63	5104.71
440.82	5097.69
441.01	5013.43
441.19	5135.14
441.38	5085.98
441.57	5104.71
441.75	5121.09
441.94	5313.02
442.12	5357.49
442.31	5273.23
442.50	5322.38
442.68	5144.50
442.87	5280.25
443.05	5378.55
443.24	5261.52
443.43	5504.94
443.61	5441.75
443.80	5717.93
443.98	5352.81
444.17	5282.59
444.35	5284.93
444.54	5462.81
444.73	5521.32
444.91	5514.30
445.10	5338.76
445.28	5554.09
445.47	5537.71
445.65	5537.71
445.84	5575.16
446.02	5785.80
446.21	5446.43
446.39	5427.70
446.58	5596.22
446.77	5717.93
446.95	5511.96
447.14	5640.69
447.32	5638.35
447.51	5626.65
447.69	5760.06
447.88	5540.05
448.06	5509.62
448.25	5755.38
448.43	5558.77
448.62	5640.69
448.80	5907.51
448.99	5750.70
449.17	5774.10
449.36	5626.65
449.54	5994.11
449.73	5781.12
449.91	5984.75
450.10	5977.73
450.28	6092.41
450.46	5853.68
450.65	6253.91
450.83	5966.03
451.02	6078.37
451.20	6069.01
451.39	5984.75
451.57	5987.09
451.76	5909.85
451.94	6022.20
452.13	6207.10
452.31	6015.18
452.49	5951.98
452.68	6230.51
452.86	6143.91
453.05	6188.38
453.23	6221.14
453.42	6286.68
453.60	6246.89
453.78	6387.32
453.97	6333.49
454.15	6176.67
454.34	6307.74
454.52	6518.39
454.70	6300.72
454.89	6282.00
455.07	6422.43
455.26	6619.04
455.44	6626.06
455.62	6523.07
455.81	6612.01
455.99	6614.35
456.17	6609.67
456.36	6675.21
456.54	6665.85
456.73	6794.58
456.91	6918.62
457.09	6869.47
457.28	7035.65
457.46	6862.45
457.64	6869.47
457.83	6906.92
458.01	6923.30
458.19	7143.32
458.38	6956.07
458.56	6932.67
458.74	7133.95
458.93	6939.69
459.11	7073.10
459.29	6911.60
459.48	7098.84
459.66	7185.44
459.84	7183.10
460.03	7489.71
460.21	7185.44
460.39	7033.31
460.57	7239.28
460.76	7183.10
460.94	7353.96
461.12	7201.83
461.31	7424.18
461.49	7393.75
461.67	7417.16
461.85	7346.94
462.04	7494.40
462.22	8074.85
462.40	7791.64
462.59	7541.21
462.77	7658.23
462.95	7646.53
463.13	7634.83
463.32	7702.70
463.50	7896.97
463.68	7620.78
463.86	7683.98
464.05	7728.45
464.23	7559.93
464.41	7817.39
464.59	7744.83
464.78	7817.39
464.96	7737.81
465.14	7819.73
465.32	7845.48
465.50	8018.68
465.69	7887.61
465.87	7936.76
466.05	8063.15
466.23	8032.72
466.41	8262.09
466.60	8187.19
466.78	7983.57
466.96	8013.99
467.14	7988.25
467.32	8156.77
467.51	8163.79
467.69	7894.63
467.87	8147.40
468.05	8318.26
468.23	8116.98
468.41	8241.03
468.60	8189.53
468.78	8414.23
468.96	8353.37
469.14	8528.91
469.32	8493.80
469.50	8393.16
469.69	8503.17
469.87	8517.21
470.05	8465.72
470.23	8634.24
470.41	8629.56
470.59	8894.04
470.77	8430.61
470.95	8475.08
471.14	8805.10
471.32	8706.79
471.50	8809.78
471.68	8812.12
471.86	8929.14
472.04	8896.38
472.22	9186.60
472.40	9067.24
472.58	9130.43
472.77	9240.44
472.95	9111.71
473.13	9404.27
473.31	9282.56
473.49	9142.13
473.67	9252.14
473.85	9277.88
474.03	9596.20
474.21	9579.81
474.39	9678.12
474.57	9533.00
474.75	9778.76
474.93	9713.22
475.12	9820.89
475.30	9916.85
475.48	9767.06
475.66	9760.03
475.84	9916.85
476.02	10038.56
476.20	10125.16
476.38	10340.49
476.56	10492.62
476.74	10298.36
476.92	10555.82
477.10	10038.56
477.28	10464.54
477.46	10450.49
477.64	10380.28
477.82	10822.64
478.00	11119.89
478.18	10789.87
478.36	10853.06
478.54	10988.82
478.72	10895.19
478.90	11131.59
479.08	11339.90
479.26	11454.58
479.44	11356.28
479.62	11660.55
479.80	11431.18
479.98	11665.23
480.16	11761.19
480.34	11761.19
480.52	11873.54
480.70	12049.08
480.88	11910.99
481.06	11983.54
481.24	12304.20
481.41	12381.43
481.59	12374.41
481.77	12634.21
481.95	12636.55
482.13	12631.87
482.31	12795.71
482.49	13352.76
482.67	12952.52
482.85	12938.48
483.03	13046.15
483.21	13284.88
483.39	13605.53
483.57	13336.37
483.74	13596.17
483.92	13647.66
484.10	13413.61
484.28	14270.25
484.46	14225.78
484.64	14106.41
484.82	14146.20
485.00	14464.51
485.18	14654.09
485.35	14895.17
485.53	14684.52
485.71	15066.03
485.89	15143.27
486.07	15044.96
486.25	15222.84
486.43	15236.89
486.61	15323.49
486.78	15499.03
486.96	15550.52
487.14	16002.24
487.32	15660.52
487.50	16142.67
487.68	16056.08
487.85	16388.43
488.03	16446.94
488.21	16430.56
488.39	16772.28
488.57	16791.00
488.75	16826.11
488.92	17240.39
489.10	17319.96
489.28	17294.22
489.46	17504.87
489.64	17020.38
489.81	17902.76
489.99	17799.77
490.17	18003.40
490.35	18125.11
490.53	18087.66
490.70	18314.69
490.88	18239.79
491.06	18558.11
491.24	18455.12
491.41	18436.40
491.59	18808.54
491.77	18890.46
491.95	18951.32
492.13	19044.94
492.30	19204.10
492.48	19482.62
492.66	19363.25
492.84	19573.90
493.01	19655.82
493.19	19538.79
493.37	19941.36
493.54	19812.63
493.72	20070.09
493.90	20147.33
494.08	20313.51
494.25	20673.95
494.43	20456.28
494.61	20589.69
494.79	20870.56
494.96	20753.53
495.14	21125.68
495.32	21202.91
495.49	21348.03
495.67	21076.52
495.85	21488.46
496.02	21579.74
496.20	21834.86
496.38	21867.63
496.55	22178.92
496.73	22499.57
496.91	22181.26
497.09	22434.03
497.26	22663.41
497.44	22169.55
497.62	22775.75
497.79	22998.10
497.97	22815.54
498.14	23124.49
498.32	23236.84
498.50	23316.42
498.67	23494.30
498.85	23632.39
499.03	23730.69
499.20	23772.82
499.38	23594.94
499.56	24009.22
499.73	23810.27
499.91	24025.60
500.08	24046.66
500.26	24156.67
500.44	24208.16
500.61	24383.70
500.79	24566.26
500.97	24662.22
501.14	24900.96
501.32	24807.34
501.49	24758.19
501.67	24959.47
501.84	24957.13
502.02	24795.64
502.20	25020.33
502.37	25270.76
502.55	25369.07
502.72	25401.83
502.90	25298.85
503.07	24922.02
503.25	25605.46
503.43	25577.37
503.60	25862.92
503.78	25818.45
503.95	25481.41
504.13	25701.42
504.30	26398.90
504.48	26031.44
504.65	26082.93
504.83	26295.92
505.01	26270.17
505.18	26436.35
505.36	26717.22
505.53	27028.51
505.71	26768.71
505.88	26855.31
506.06	26946.59
506.23	26953.61
506.41	26792.11
506.58	27168.94
506.76	27175.96
506.93	27124.47
507.11	27454.48
507.28	27477.89
507.46	27477.89
507.63	27445.12
507.81	27850.03
507.98	27854.72
508.16	27721.30
508.33	28222.18
508.50	27924.93
508.68	28063.02
508.85	28348.57
509.03	28278.35
509.20	28006.85
509.38	28587.30
509.55	28704.33
509.73	28662.20
509.90	28416.44
510.08	28800.29
510.25	28847.10
510.42	29020.30
510.60	29202.86
510.77	29153.71
510.95	29453.30
511.12	29156.05
511.30	29460.32
511.47	29418.19
511.64	29397.13
511.82	29638.20
511.99	29921.41
512.17	29809.06
512.34	29876.94
512.51	30235.04
512.69	30209.29
512.86	30082.91
513.04	30543.99
513.21	30506.54
513.38	30181.21
513.56	30405.90
513.73	30487.82
513.90	30462.07
514.08	30794.43
514.25	30932.52
514.43	30836.56
514.60	31040.18
514.77	30855.28
514.95	30984.01
515.12	31019.12
515.29	31019.12
515.47	31328.07
515.64	31424.03
515.81	31295.30
515.99	31143.17
516.16	31674.47
516.33	31367.86
516.51	31791.50
516.68	31454.46
516.85	31868.73
517.03	31868.73
517.20	31566.81
517.37	32224.50
517.54	31779.79
517.72	32158.96
517.89	32215.13
518.06	32343.86
518.24	32629.41
518.41	32175.34
518.58	32151.94
518.75	32610.68
518.93	32524.08
519.10	32641.11
519.27	32835.38
519.45	32982.83
519.62	33008.58
519.79	32739.41
519.96	33029.64
520.14	32992.19
520.31	32940.70
520.48	33195.82
520.65	32921.98
520.83	33752.87
521.00	33851.17
521.17	33486.04
521.34	33443.91
521.52	33823.08
521.69	33233.27
521.86	33809.04
522.03	33745.84
522.20	34026.71
522.38	34415.24
522.55	34405.88
522.72	34543.97
522.89	34256.08
523.07	34740.57
523.24	34541.63
523.41	34284.17
523.58	34405.88
523.75	34923.13
523.92	34501.84
524.10	35126.76
524.27	34677.38
524.44	35086.97
524.61	35145.48
524.78	34944.20
524.96	35431.03
525.13	35646.36
525.30	35747.00
525.47	35543.38
525.64	35431.03
525.81	35318.68
525.98	35536.35
526.16	35548.06
526.33	35765.73
526.50	36121.49
526.67	35426.35
526.84	36006.80
527.01	35644.02
527.18	35983.40
527.36	35950.63
527.53	35812.54
527.70	36383.63
527.87	36093.40
528.04	36219.79
528.21	35810.20
528.38	36498.31
528.55	36165.96
528.72	36112.13
528.89	36636.41
529.07	36669.17
529.24	36023.19
529.41	36807.26
529.58	36495.97
529.75	36591.94
529.92	36776.84
530.09	37090.47
530.26	36788.54
530.43	37156.00
530.60	36765.14
530.77	36851.73
530.94	37053.02
531.11	37031.96
531.28	37120.90
531.46	37029.62
531.63	37277.71
531.80	37076.43
531.97	37186.43
532.14	37387.72
532.31	37060.04
532.48	37565.60
532.65	38068.81
532.82	37579.64
532.99	38036.05
533.16	37888.59
533.33	37832.42
533.50	38033.71
533.67	37722.41
533.84	37977.53
534.01	38120.31
534.18	38096.90
534.35	38213.93
534.52	38319.25
534.69	38698.42
534.86	38770.97
535.03	38628.20
535.20	38450.32
535.37	38799.06
535.54	38370.74
535.71	38642.24
535.88	38864.60
536.05	38955.88
536.22	39009.71
536.38	38801.40
536.55	39131.42
536.72	38834.17
536.89	38873.96
537.06	38927.79
537.23	39402.92
537.40	39035.45
537.57	39150.14
537.74	38976.94
537.91	39529.31
538.08	39391.22
538.25	38902.04
538.42	39203.97
538.59	39578.46
538.75	39063.54
538.92	39580.80
539.09	39934.22
539.26	39622.93
539.43	39498.88
539.60	39906.13
539.77	39482.50
539.94	39789.11
540.11	39875.71
540.28	40217.43
540.44	39995.07
540.61	39831.24
540.78	40098.06
540.95	40383.60
541.12	39882.73
541.29	40023.16
541.46	40102.74
541.62	40137.85
541.79	40395.31
541.96	39910.82
542.13	40278.28
542.30	40416.37
542.47	40041.88
542.63	40439.78
542.80	40737.02
542.97	40898.52
543.14	40985.12
543.31	40746.39
543.48	41228.54
543.64	41682.60
543.81	41137.26
543.98	40964.06
544.15	41581.96
544.32	40971.08
544.48	41900.27
544.65	41022.57
544.82	41830.05
544.99	41078.74
545.16	41387.69
545.32	40926.61
545.49	42010.28
545.66	42066.45
545.83	41832.39
546.00	41703.67
546.16	41296.41
546.33	41560.89
546.50	41455.57
546.67	41956.44
546.83	41387.69
547.00	41509.40
547.17	41556.21
547.34	41851.12
547.50	42146.03
547.67	42745.20
547.84	41881.55
548.00	41635.79
548.17	42424.55
548.34	42146.03
548.51	42101.56
548.67	42330.93
548.84	42019.64
549.01	42110.92
549.18	42139.00
549.34	42562.64
549.51	42527.53
549.68	42663.28
549.84	42796.70
550.01	42522.85
550.18	42171.77
550.34	42600.09
550.51	43234.38
550.68	42728.82
550.84	42412.85
551.01	43061.18
551.18	42749.88
551.34	42464.34
551.51	42698.39
551.68	43246.08
551.84	42646.90
552.01	42768.61
552.18	42501.79
552.34	42899.68
552.51	43313.95
552.68	42925.42
552.84	43126.71
553.01	43206.29
553.18	43199.27
553.34	43601.84
553.51	42965.21
553.67	43522.26
553.84	43154.80
554.01	43758.66
554.17	43456.73
554.34	43150.12
554.51	43384.17
554.67	43882.70
554.84	43693.12
555.00	43512.90
555.17	43690.78
555.33	44184.63
555.50	43416.94
555.67	43482.47
555.83	43459.07
556.00	43613.54
556.16	44502.95
556.33	44215.06
556.50	43805.47
556.66	43863.98
556.83	43648.65
556.99	43847.60
557.16	44472.52
557.32	43945.90
557.49	44617.63
557.65	43969.30
557.82	44184.63
557.98	44432.73
558.15	44570.82
558.32	44460.82
558.48	44219.74
558.65	44098.03
558.81	44446.77
558.98	44362.51
559.14	44477.20
559.31	44247.83
559.47	44385.92
559.64	44514.65
559.80	44383.58
559.97	44849.35
560.13	44198.68
560.30	44779.13
560.46	44999.14
560.63	44921.90
560.79	45057.65
560.96	44889.13
561.12	45043.61
561.29	44687.85
561.45	44849.35
561.61	44339.11
561.78	44751.04
561.94	44762.75
562.11	44608.27
562.27	44870.41
562.44	44786.15
562.60	44907.86
562.77	45207.45
562.93	44638.70
563.10	45034.25
563.26	45078.72
563.42	45050.63
563.59	45001.48
563.75	45244.90
563.92	45209.79
564.08	44954.67
564.24	45034.25
564.41	44783.81
564.57	45216.81
564.74	44875.09
564.90	44783.81
565.07	45345.54
565.23	45055.31
565.39	45347.88
565.56	45270.64
565.72	45177.02
565.88	45146.59
566.05	45333.84
566.21	45607.68
566.38	45588.95
566.54	45261.28
566.70	45439.16
566.87	45186.38
567.03	45626.40
567.19	45469.59
567.36	44968.71
567.52	45394.69
567.68	45258.94
567.85	45291.71
568.01	45439.16
568.17	45120.85
568.34	45462.57
568.50	45624.06
568.66	44830.62
568.83	45727.05
568.99	45326.81
569.15	45495.33
569.32	45801.94
569.48	45256.60
569.64	46099.19
569.81	46183.45
569.97	45715.34
570.13	46122.60
570.30	45368.94
570.46	45642.79
570.62	45935.35
570.78	45750.45
570.95	45776.20
571.11	45944.72
571.27	45813.65
571.43	45825.35
571.60	45911.95
571.76	45525.76
571.92	45659.17
572.09	45588.95
572.25	45682.58
572.41	45675.55
572.57	46174.09
572.74	45944.72
572.90	45984.51
573.06	45921.31
573.22	45862.80
573.38	46000.89
573.55	46148.34
573.71	46248.99
573.87	46110.89
574.03	45935.35
574.20	45872.16
574.36	45977.48
574.52	46330.90
574.68	45783.22
574.84	46169.41
575.01	46305.16
575.17	46190.47
575.33	45998.55
575.49	45708.32
575.65	46300.48
575.82	46293.46
575.98	45869.82
576.14	46138.98
576.30	46380.06
576.46	46050.04
576.62	46050.04
576.79	46279.41
576.95	46064.08
577.11	45942.38
577.27	46057.06
577.43	45848.75
577.59	46024.29
577.75	45911.95
577.92	45886.20
578.08	46209.20
578.24	46026.63
578.40	46281.75
578.56	46141.32
578.72	46176.43
578.88	46674.96
579.04	46541.55
579.21	46309.84
579.37	46476.02
579.53	46162.39
579.69	46162.39
579.85	45734.07
580.01	46045.36
580.17	45773.86
580.33	47084.56
580.49	46464.32
580.65	46026.63
580.82	46066.42
580.98	46223.24
581.14	45993.87
581.30	46078.13
581.46	46424.53
581.62	46478.36
581.78	46398.78
581.94	46232.60
582.10	46199.83
582.26	46508.79
582.42	46316.86
582.58	46036.00
582.74	46160.05
582.90	46047.70
583.06	46520.49
583.22	46176.43
583.38	46344.95
583.54	46642.20
583.70	46218.56
583.86	46248.99
584.02	46426.87
584.18	46597.73
584.34	46504.10
584.50	46429.21
584.66	46639.86
584.82	46609.43
584.98	46635.17
585.14	46579.00
585.30	46312.18
585.46	46485.38
585.62	46543.89
585.78	46541.55
585.94	46082.81
586.10	46508.79
586.26	46483.04
586.42	46396.44
586.58	46536.87
586.74	46197.49
586.90	46277.07
587.06	46412.82
587.22	46590.70
587.38	46499.42
587.54	46602.41
587.70	46885.61
587.86	46672.62
588.02	46302.82
588.18	46871.57
588.34	46731.14
588.49	46656.24
588.65	46522.83
588.81	46309.84
588.97	46497.08
589.13	46721.77
589.29	46349.63
589.45	46719.43
589.61	46614.11
589.77	46820.08
589.93	47171.16
590.08	46768.58
