SpectraSuite Data File
++++++++++++++++++++++++++++++++++++
Date: Fri Oct 25 11:34:25 EDT 2013
User: price-jones
Dark Spectrum Present: No
Reference Spectrum Present: No
Number of Sampled Component Spectra: 1
Spectrometers: USB2+H05261
Integration Time (usec): 100000 (USB2+H05261)
Spectra Averaged: 1 (USB2+H05261)
Boxcar Smoothing: 0 (USB2+H05261)
Correct for Electrical Dark: No (USB2+H05261)
Strobe/Lamp Enabled: No (USB2+H05261)
Correct for Detector Non-linearity: No (USB2+H05261)
Correct for Stray Light: No (USB2+H05261)
Number of Pixels in Processed Spectrum: 2048
>>>>>Begin Processed Spectral Data<<<<<
365.73	313.63
365.92	313.63
366.12	313.63
366.32	177.88
366.52	138.09
366.72	180.22
366.91	205.97
367.11	154.48
367.31	180.22
367.51	126.39
367.70	180.22
367.90	198.95
368.10	222.35
368.30	229.37
368.49	203.63
368.69	201.29
368.89	231.71
369.09	145.11
369.28	245.76
369.48	227.03
369.68	259.80
369.87	220.01
370.07	220.01
370.27	285.55
370.47	322.99
370.66	526.62
370.86	514.92
371.06	543.00
371.25	601.52
371.45	585.13
371.65	594.50
371.84	568.75
372.04	543.00
372.24	538.32
372.44	554.71
372.63	561.73
372.83	571.09
373.03	660.03
373.22	613.22
373.42	638.97
373.62	641.31
373.81	585.13
374.01	662.37
374.21	617.90
374.40	629.60
374.60	650.67
374.79	711.52
374.99	683.44
375.19	692.80
375.38	631.94
375.58	608.54
375.78	704.50
375.97	648.33
376.17	688.12
376.37	660.03
376.56	702.16
376.76	599.18
376.95	613.22
377.15	739.61
377.35	674.07
377.54	704.50
377.74	620.24
377.93	657.69
378.13	664.71
378.33	697.48
378.52	730.25
378.72	683.44
378.91	716.20
379.11	657.69
379.31	638.97
379.50	720.88
379.70	643.65
379.89	678.76
380.09	704.50
380.28	725.57
380.48	706.84
380.68	664.71
380.87	777.06
381.07	741.95
381.26	730.25
381.46	779.40
381.65	662.37
381.85	753.65
382.04	854.30
382.24	880.04
382.43	791.10
382.63	709.18
382.83	858.98
383.02	777.06
383.22	753.65
383.41	765.36
383.61	734.93
383.80	823.87
384.00	828.55
384.19	812.17
384.39	821.53
384.58	821.53
384.78	854.30
384.97	795.78
385.17	737.27
385.36	837.91
385.56	894.08
385.75	837.91
385.95	812.17
386.14	854.30
386.34	809.83
386.53	875.36
386.72	882.38
386.92	812.17
387.11	842.59
387.31	837.91
387.50	814.51
387.70	821.53
387.89	894.08
388.09	938.55
388.28	898.77
388.48	910.47
388.67	957.28
388.86	873.02
389.06	931.53
389.25	992.39
389.45	940.90
389.64	936.21
389.84	894.08
390.03	901.11
390.22	936.21
390.42	1032.18
390.61	957.28
390.81	961.96
391.00	1027.50
391.19	1050.90
391.39	1107.07
391.58	1013.45
391.78	983.02
391.97	1086.01
392.16	978.34
392.36	1090.69
392.55	1076.65
392.75	1086.01
392.94	1116.44
393.13	997.07
393.33	1034.52
393.52	985.37
393.71	1057.92
393.91	1097.71
394.10	1193.67
394.29	1067.28
394.49	1086.01
394.68	1144.52
394.88	1050.90
395.07	1128.14
395.26	1097.71
395.46	1121.12
395.65	1165.59
395.84	1144.52
396.04	1193.67
396.23	1132.82
396.42	1149.20
396.62	1179.63
396.81	1132.82
397.00	1135.16
397.19	1217.08
397.39	1125.80
397.58	1179.63
397.77	1149.20
397.97	1179.63
398.16	1254.53
398.35	1277.93
398.55	1266.23
398.74	1282.61
398.93	1376.24
399.12	1224.10
399.32	1249.85
399.51	1245.16
399.70	1238.14
399.90	1273.25
400.09	1369.21
400.28	1376.24
400.47	1362.19
400.67	1425.39
400.86	1341.13
401.05	1296.66
401.24	1401.98
401.44	1390.28
401.63	1434.75
401.82	1390.28
402.01	1364.53
402.21	1439.43
402.40	1444.11
402.59	1458.15
402.78	1455.81
402.97	1502.62
403.17	1458.15
403.36	1472.20
403.55	1526.03
403.74	1636.03
403.93	1614.97
404.13	1631.35
404.32	1516.67
404.51	1586.88
404.70	1722.63
404.89	1584.54
405.09	1661.78
405.28	1629.01
405.47	1647.74
405.66	1671.14
405.85	1734.34
406.05	1542.41
406.24	1680.50
406.43	1624.33
406.62	1748.38
406.81	1813.92
407.00	1678.16
407.20	1762.42
407.39	1811.57
407.58	1713.27
407.77	1781.15
407.96	1715.61
408.15	1851.36
408.34	1703.91
408.54	1914.56
408.73	1769.44
408.92	1916.90
409.11	1914.56
409.30	1905.20
409.49	1952.01
409.68	1966.05
409.87	1872.43
410.07	2015.20
410.26	1982.43
410.45	2031.58
410.64	2010.52
410.83	1994.14
411.02	2085.42
411.21	2165.00
411.40	2092.44
411.59	2101.80
411.78	2136.91
411.98	2122.87
412.17	2221.17
412.36	2225.85
412.55	2300.75
412.74	2186.06
412.93	2204.78
413.12	2195.42
413.31	2326.49
413.50	2375.64
413.69	2263.30
413.88	2415.43
414.07	2375.64
414.26	2352.24
414.45	2382.67
414.64	2401.39
414.83	2424.80
415.02	2504.37
415.22	2574.59
415.41	2480.97
415.60	2679.91
415.79	2438.84
415.98	2656.51
416.17	2700.98
416.36	2553.52
416.55	2661.19
416.74	2675.23
416.93	2668.21
417.12	2719.70
417.31	2808.64
417.50	2626.08
417.69	2909.29
417.88	2825.03
418.07	2899.92
418.26	2939.71
418.45	2855.45
418.64	2892.90
418.83	2963.12
419.02	2937.37
419.21	2956.10
419.39	3087.17
419.58	2937.37
419.77	2839.07
419.96	3049.72
420.15	3105.89
420.34	3016.95
420.53	2995.89
420.72	3124.62
420.91	3169.09
421.10	3080.14
421.29	3091.85
421.48	3075.46
421.67	3124.62
421.86	3206.53
422.05	3243.98
422.24	3075.46
422.43	3229.94
422.61	3197.17
422.80	3363.35
422.99	3229.94
423.18	3288.45
423.37	3265.05
423.56	3370.37
423.75	3370.37
423.94	3253.34
424.13	3070.78
424.32	3028.65
424.50	3314.20
424.69	3403.14
424.88	3361.01
425.07	3307.18
425.26	3260.37
425.45	3314.20
425.64	3337.60
425.83	3253.34
426.01	3318.88
426.20	3255.69
426.39	3356.33
426.58	3286.11
426.77	3346.97
426.96	3311.86
427.15	3438.25
427.33	3407.82
427.52	3393.78
427.71	3431.23
427.90	3414.84
428.09	3503.78
428.28	3620.81
428.46	3452.29
428.65	3571.66
428.84	3655.92
429.03	3618.47
429.22	3566.98
429.40	3623.15
429.59	3641.87
429.78	3604.42
429.97	3496.76
430.16	3609.11
430.34	3723.79
430.53	3815.07
430.72	3669.96
430.91	3805.71
431.10	3779.97
431.28	3892.31
431.47	3761.24
431.66	3847.84
431.85	3749.54
432.03	3852.52
432.22	4018.70
432.41	4046.79
432.60	3950.82
432.79	3922.74
432.97	4004.66
433.16	3831.46
433.35	3974.23
433.54	4051.47
433.72	4098.28
433.91	4004.66
434.10	4039.76
434.28	3967.21
434.47	4182.54
434.66	4184.88
434.85	4091.26
435.03	4154.45
435.22	4234.03
435.41	4238.71
435.59	4252.75
435.78	4173.18
435.97	4210.62
436.16	4229.35
436.34	4243.39
436.53	4315.95
436.72	4341.69
436.90	4205.94
437.09	4397.87
437.28	4189.56
437.46	4344.03
437.65	4287.86
437.84	4599.15
438.02	4484.47
438.21	4400.21
438.40	4493.83
438.58	4428.29
438.77	4519.57
438.96	4477.44
439.14	4568.73
439.33	4734.90
439.52	4800.44
439.70	4657.67
439.89	4784.06
440.08	4800.44
440.26	4922.15
440.45	4880.02
440.63	4826.18
440.82	4947.89
441.01	4840.23
441.19	5025.13
441.38	5104.71
441.57	5050.88
441.75	5132.79
441.94	5214.71
442.12	5121.09
442.31	5291.95
442.50	5163.22
442.68	5067.26
442.87	5231.10
443.05	5324.72
443.24	5373.87
443.43	5277.91
443.61	5238.12
443.80	5476.85
443.98	5210.03
444.17	5125.77
444.35	5420.68
444.54	5504.94
444.73	5284.93
444.91	5439.40
445.10	5408.98
445.28	5474.51
445.47	5355.15
445.65	5432.38
445.84	5490.90
446.02	5486.22
446.21	5526.00
446.39	5453.45
446.58	5563.45
446.77	5575.16
446.95	5420.68
447.14	5481.53
447.32	5507.28
447.51	5542.39
447.69	5376.21
447.88	5575.16
448.06	5554.09
448.25	5603.24
448.43	5631.33
448.62	5628.99
448.80	5540.05
448.99	5816.23
449.17	5699.20
449.36	5416.00
449.54	5888.79
449.73	5886.45
449.91	5851.34
450.10	5708.57
450.28	5951.98
450.46	5928.58
450.65	5820.91
450.83	5954.32
451.02	5701.54
451.20	5982.41
451.39	5909.85
451.57	5928.58
451.76	5722.61
451.94	5937.94
452.13	5980.07
452.31	5928.58
452.49	5823.25
452.68	6122.84
452.86	6071.35
453.05	5879.43
453.23	6155.61
453.42	6111.14
453.60	6228.17
453.78	6094.76
453.97	6118.16
454.15	6078.37
454.34	6214.12
454.52	6361.58
454.70	6445.84
454.89	6366.26
455.07	6485.62
455.26	6239.87
455.44	6497.33
455.62	6651.80
455.81	6438.81
455.99	6436.47
456.17	6534.78
456.36	6534.78
456.54	6499.67
456.73	6597.97
456.91	6757.13
457.09	6696.27
457.28	6853.09
457.46	6750.10
457.64	6747.76
457.83	6867.13
458.01	6658.82
458.19	6970.12
458.38	6810.96
458.56	6967.77
458.74	6743.08
458.93	6923.30
459.11	6944.37
459.29	7002.88
459.48	7084.80
459.66	7173.74
459.84	7148.00
460.03	7101.19
460.21	7096.50
460.39	7075.44
460.57	7042.67
460.76	7253.32
460.94	7260.34
461.12	7243.96
461.31	7194.81
461.49	7145.66
461.67	7250.98
461.85	7283.75
462.04	7384.39
462.22	7847.82
462.40	7620.78
462.59	7485.03
462.77	7328.22
462.95	7487.37
463.13	7655.89
463.32	7501.42
463.50	7454.61
463.68	7648.87
463.86	7667.60
464.05	7431.20
464.23	7508.44
464.41	7674.62
464.59	7426.52
464.78	7789.30
464.96	7911.01
465.14	7592.70
465.32	7852.50
465.50	7833.77
465.69	7967.18
465.87	7906.33
466.05	7740.15
466.23	7765.90
466.41	7864.20
466.60	8002.29
466.78	7934.42
466.96	7908.67
467.14	8009.31
467.32	8170.81
467.51	8079.53
467.69	7957.82
467.87	8025.70
468.05	8124.00
468.23	7983.57
468.41	7896.97
468.60	8119.32
468.78	8060.80
468.96	8109.96
469.14	8159.11
469.32	8269.11
469.50	8250.39
469.69	8264.43
469.87	8510.19
470.05	8353.37
470.23	8411.89
470.41	8510.19
470.59	8458.70
470.77	8571.04
470.95	8442.31
471.14	8681.05
471.32	8407.20
471.50	8884.67
471.68	8526.57
471.86	8608.49
472.04	8858.93
472.22	8915.10
472.40	8812.12
472.58	8774.67
472.77	8865.95
472.95	9006.38
473.13	9376.19
473.31	9128.09
473.49	9050.85
473.67	8992.34
473.85	9090.64
474.03	9341.08
474.21	9366.82
474.39	9343.42
474.57	9488.53
474.75	9605.56
474.93	9453.42
475.12	9586.83
475.30	9643.01
475.48	9729.61
475.66	9755.35
475.84	9734.29
476.02	9839.61
476.20	9804.50
476.38	9886.42
476.56	10073.67
476.74	10218.78
476.92	10228.14
477.10	10188.35
477.28	10164.95
477.46	10181.33
477.64	10499.64
477.82	10429.43
478.00	11087.12
478.18	10759.44
478.36	10766.46
478.54	10808.59
478.72	10942.00
478.90	11131.59
479.08	11190.10
479.26	11255.64
479.44	11260.32
479.62	11426.50
479.80	11531.82
479.98	11667.57
480.16	11798.64
480.34	11454.58
480.52	11688.64
480.70	11995.25
480.88	11573.95
481.06	11868.86
481.24	12114.61
481.41	11875.88
481.59	12233.98
481.77	12395.48
481.95	12580.38
482.13	12526.55
482.31	12414.20
482.49	12877.63
482.67	12769.96
482.85	12947.84
483.03	12982.95
483.21	13174.88
483.39	13186.58
483.57	13219.35
483.74	13198.28
483.92	13397.23
484.10	13465.10
484.28	13762.35
484.46	14099.39
484.64	14080.66
484.82	14008.11
485.00	14005.77
485.18	14438.76
485.35	14483.24
485.53	14600.26
485.71	14707.93
485.89	14736.01
486.07	14792.19
486.25	14841.34
486.43	14956.02
486.61	15042.62
486.78	15414.77
486.96	15157.31
487.14	15468.60
487.32	15646.48
487.50	15641.80
487.68	15665.21
487.85	15807.98
488.03	15971.82
488.21	16292.47
488.39	16336.94
488.57	16514.82
488.75	16601.42
488.92	16538.23
489.10	16746.53
489.28	17156.13
489.46	17184.21
489.64	17121.02
489.81	17284.86
489.99	17474.44
490.17	17518.91
490.35	17680.41
490.53	17579.76
490.70	17940.21
490.88	17869.99
491.06	18092.34
491.24	18328.74
491.41	18090.00
491.59	18443.42
491.77	18562.79
491.95	18546.40
492.13	18558.11
492.30	18771.10
492.48	18696.20
492.66	18991.11
492.84	18916.21
493.01	19517.73
493.19	19421.77
493.37	19529.43
493.54	19730.72
493.72	19740.08
493.90	19723.69
494.08	19805.61
494.25	20121.59
494.43	20365.00
494.61	20311.17
494.79	20369.68
494.96	20365.00
495.14	20517.14
495.32	20758.21
495.49	20854.17
495.67	21018.01
495.85	20947.79
496.02	21254.40
496.20	21394.84
496.38	21645.27
496.55	21378.45
496.73	22045.51
496.91	21972.95
497.09	22012.74
497.26	22155.51
497.44	21832.52
497.62	22024.44
497.79	22576.81
497.97	22094.66
498.14	22497.23
498.32	22665.75
498.50	22155.51
498.67	22827.24
498.85	22761.71
499.03	22977.04
499.20	23152.58
499.38	23201.73
499.56	23213.43
499.73	23707.29
499.91	23555.15
500.08	23690.90
500.26	23566.85
500.44	23726.01
500.61	23543.45
500.79	23871.12
500.97	24081.77
501.14	24240.93
501.32	24236.25
501.49	24390.72
501.67	24655.20
501.84	25027.35
502.02	24425.83
502.20	24334.55
502.37	24423.49
502.55	24657.54
502.72	24727.76
502.90	24898.62
503.07	24950.11
503.25	24905.64
503.43	24720.74
503.60	25135.01
503.78	25387.79
503.95	25462.69
504.13	25486.09
504.30	25776.32
504.48	25385.45
504.65	25699.08
504.83	25802.07
505.01	25816.11
505.18	25809.09
505.36	26162.51
505.53	25806.75
505.71	26258.47
505.88	26497.20
506.06	26277.19
506.23	26497.20
506.41	26263.15
506.58	26497.20
506.76	26831.90
506.93	26499.55
507.11	26677.43
507.28	27213.41
507.46	27002.76
507.63	27087.02
507.81	27381.93
507.98	27318.73
508.16	27166.60
508.33	27267.24
508.50	27704.92
508.68	27747.05
508.85	27646.41
509.03	27992.81
509.20	28002.17
509.38	27765.78
509.55	28030.26
509.73	28065.36
509.90	27737.69
510.08	28229.20
510.25	28498.36
510.42	28587.30
510.60	28594.32
510.77	28727.74
510.95	29102.22
511.12	28790.93
511.30	28989.88
511.47	29132.65
511.64	28966.47
511.82	29394.79
511.99	28926.68
512.17	29509.47
512.34	28957.11
512.51	29598.41
512.69	29736.51
512.86	29703.74
513.04	29549.26
513.21	29465.00
513.38	29607.78
513.56	29989.28
513.73	30045.46
513.90	29659.27
514.08	30022.05
514.25	30492.50
514.43	30490.16
514.60	30281.85
514.77	30323.98
514.95	30366.11
515.12	30717.19
515.29	30183.55
515.47	30789.75
515.64	31061.25
515.81	30796.77
515.99	30845.92
516.16	30984.01
516.33	30829.54
516.51	31515.31
516.68	30625.91
516.85	30632.93
517.03	31227.43
517.20	31147.85
517.37	31140.83
517.54	31571.49
517.72	31529.36
517.89	31473.18
518.06	31725.96
518.24	31828.95
518.41	31651.06
518.58	31772.77
518.75	31873.42
518.93	32044.27
519.10	32091.09
519.27	32065.34
519.45	32177.68
519.62	32212.79
519.79	32388.33
519.96	32549.83
520.14	32657.49
520.31	32252.58
520.48	32507.70
520.65	32868.14
520.83	32896.23
521.00	32992.19
521.17	32795.59
521.34	32898.57
521.52	33034.32
521.69	33216.88
521.86	33022.62
522.03	33446.26
522.20	33453.28
522.38	33195.82
522.55	34022.03
522.72	33603.07
522.89	33933.09
523.07	33928.41
523.24	33954.15
523.41	34050.11
523.58	33790.31
523.75	33600.73
523.92	33984.58
524.10	34120.33
524.27	33738.82
524.44	34188.21
524.61	34117.99
524.78	34251.40
524.96	34492.47
525.13	34845.90
525.30	34660.99
525.47	34623.54
525.64	34122.67
525.81	34581.42
525.98	34838.87
526.16	34932.50
526.33	34684.40
526.50	34962.92
526.67	34785.04
526.84	35070.59
527.01	35225.06
527.18	35260.17
527.36	34911.43
527.53	34983.99
527.70	35646.36
527.87	35351.45
528.04	35620.61
528.21	35559.76
528.38	35690.83
528.55	35739.98
528.72	35833.60
528.89	36161.28
529.07	35707.21
529.24	35857.01
529.41	36261.92
529.58	35777.43
529.75	36168.30
529.92	36137.87
530.09	36070.00
530.26	36107.44
530.43	35826.58
530.60	36205.75
530.77	36030.21
530.94	36268.94
531.11	36018.50
531.28	36180.00
531.46	36357.88
531.63	36538.10
531.80	36573.21
531.97	36439.80
532.14	36517.04
532.31	36385.97
532.48	36982.80
532.65	37141.96
532.82	36966.42
532.99	37244.94
533.16	36840.03
533.33	36968.76
533.50	37347.93
533.67	36842.37
533.84	36582.57
534.01	37184.09
534.18	37368.99
534.35	37832.42
534.52	37455.59
534.69	37961.15
534.86	37258.99
535.03	37397.08
535.20	37762.20
535.37	37853.48
535.54	37886.25
535.71	37734.12
535.88	37897.95
536.05	37691.99
536.22	38146.05
536.38	38162.43
536.55	38101.58
536.72	37773.91
536.89	38078.18
537.06	38106.26
537.23	38675.01
537.40	37944.76
537.57	38155.41
537.74	38103.92
537.91	38244.35
538.08	38925.45
538.25	38265.42
538.42	38569.69
538.59	38911.41
538.75	38543.94
538.92	38857.57
539.09	39016.73
539.26	38574.37
539.43	38775.66
539.60	38862.26
539.77	38955.88
539.94	38983.96
540.11	38965.24
540.28	38948.85
540.44	39220.36
540.61	39051.84
540.78	39117.37
540.95	39608.89
541.12	39337.38
541.29	39433.35
541.46	39161.84
541.62	38948.85
541.79	39449.73
541.96	38944.17
542.13	40044.23
542.30	39665.06
542.47	39346.75
542.63	39803.15
542.80	39749.32
542.97	40547.44
543.14	40196.36
543.31	40201.04
543.48	39889.75
543.64	41167.68
543.81	40261.90
543.98	40179.98
544.15	40254.87
544.32	40369.56
544.48	40678.51
544.65	40488.93
544.82	40844.69
544.99	40294.66
545.16	40722.98
545.32	40278.28
545.49	40816.60
545.66	40769.79
545.83	40596.59
546.00	40809.58
546.16	41312.80
546.33	40526.38
546.50	40978.10
546.67	41181.73
546.83	40524.04
547.00	41076.40
547.17	41015.55
547.34	40882.14
547.50	41427.48
547.67	41542.17
547.84	40807.24
548.00	41518.76
548.17	41537.49
548.34	41762.18
548.51	41574.94
548.67	41607.70
548.84	41048.32
549.01	41715.37
549.18	41897.93
549.34	41717.71
549.51	41865.16
549.68	41696.64
549.84	41596.00
550.01	41893.25
550.18	41289.39
550.34	41324.50
550.51	41804.31
550.68	41521.10
550.84	41556.21
551.01	42373.06
551.18	41794.95
551.34	41523.44
551.51	42300.50
551.68	41769.20
551.84	42307.52
552.01	41888.57
552.18	42260.71
552.34	41876.86
552.51	42298.16
552.68	42260.71
552.84	42197.52
553.01	42494.77
553.18	42136.66
553.34	42344.97
553.51	42356.67
553.67	42550.94
553.84	43098.62
554.01	42630.52
554.17	42618.81
554.34	42925.42
554.51	42880.95
554.67	43030.75
554.84	42799.04
555.00	42719.46
555.17	42492.43
555.33	42803.72
555.50	42714.78
555.67	42923.08
555.83	43346.72
556.00	43103.31
556.16	43540.99
556.33	43084.58
556.50	42986.28
556.66	42941.81
556.83	42930.11
556.99	43133.73
557.16	43714.19
557.32	43178.20
557.49	43517.58
557.65	43217.99
557.82	43852.28
557.98	43353.74
558.15	43435.66
558.32	43627.59
558.48	43239.06
558.65	43349.06
558.81	43533.96
558.98	43449.70
559.14	43416.94
559.31	43566.73
559.47	43571.41
559.64	43739.93
559.80	43934.20
559.97	44034.84
560.13	43847.60
560.30	43590.14
560.46	43835.89
560.63	43714.19
560.79	44170.59
560.96	44027.82
561.12	44273.57
561.29	43849.94
561.45	44034.84
561.61	44282.94
561.78	44332.09
561.94	44243.15
562.11	43772.70
562.27	43775.04
562.44	43941.22
562.60	44229.10
562.77	44144.84
562.93	44133.14
563.10	44781.47
563.26	44023.14
563.42	44423.37
563.59	44406.98
563.75	43990.37
563.92	43896.75
564.08	43428.64
564.24	44240.81
564.41	44308.68
564.57	44289.96
564.74	44151.87
564.90	44495.92
565.07	44439.75
565.23	43948.24
565.39	44514.65
565.56	44472.52
565.72	44626.99
565.88	44498.26
566.05	44385.92
566.21	44477.20
566.38	44275.91
566.54	44240.81
566.70	44385.92
566.87	44762.75
567.03	44238.47
567.19	44135.48
567.36	44416.35
567.52	44552.10
567.68	44758.06
567.85	44570.82
568.01	45043.61
568.17	44591.89
568.34	44856.37
568.50	44484.22
568.66	44542.74
568.83	44603.59
568.99	44418.69
569.15	44814.24
569.32	44325.07
569.48	44687.85
569.64	44818.92
569.81	45081.06
569.97	45062.33
570.13	44732.32
570.30	44645.72
570.46	44825.94
570.62	44949.99
570.78	44421.03
570.95	45081.06
571.11	45003.82
571.27	44832.96
571.43	44847.00
571.60	44996.80
571.76	44910.20
571.92	44718.28
572.09	45024.89
572.25	45097.44
572.41	44692.53
572.57	44989.78
572.74	45336.18
572.90	44818.92
573.06	45139.57
573.22	45010.84
573.38	44980.42
573.55	45017.86
573.71	45331.50
573.87	45116.17
574.03	45155.96
574.20	45455.54
574.36	45088.08
574.52	45209.79
574.68	45251.92
574.84	45109.14
575.01	45490.65
575.17	44893.82
575.33	45102.12
575.49	44982.76
575.65	44949.99
575.82	45076.38
575.98	45055.31
576.14	45532.78
576.30	45310.43
576.46	45113.83
576.62	45031.91
576.79	44999.14
576.95	44884.45
577.11	45165.32
577.27	45223.83
577.43	44844.66
577.59	45137.23
577.75	44898.50
577.92	44891.48
578.08	45184.04
578.24	45324.47
578.40	45425.12
578.56	45621.72
578.72	45090.42
578.88	45371.28
579.04	45254.26
579.21	45160.64
579.37	45277.66
579.53	45474.27
579.69	45160.64
579.85	45350.22
580.01	45184.04
580.17	45406.39
580.33	45373.63
580.49	45319.79
580.65	45275.32
580.82	45361.92
580.98	45411.07
581.14	45146.59
581.30	45373.63
581.46	44875.09
581.62	45331.50
581.78	45027.23
581.94	45532.78
582.10	45757.47
582.26	45804.28
582.42	45317.45
582.58	45698.96
582.74	45478.95
582.90	45319.79
583.06	45570.23
583.22	45500.01
583.38	45354.90
583.54	45626.40
583.70	45287.03
583.86	45427.46
584.02	45258.94
584.18	46300.48
584.34	45565.55
584.50	45886.20
584.66	46073.45
584.82	45642.79
584.98	45832.37
585.14	45635.77
585.30	45455.54
585.46	45607.68
585.62	45633.42
585.78	45792.58
585.94	45647.47
586.10	45462.57
586.26	45151.27
586.42	45783.22
586.58	45911.95
586.74	45570.23
586.90	45677.90
587.06	45322.13
587.22	45715.34
587.38	45420.44
587.54	45792.58
587.70	45853.44
587.86	45350.22
588.02	45418.10
588.18	45436.82
588.34	45600.66
588.49	45453.20
588.65	45415.76
588.81	45586.61
588.97	46211.54
589.13	45556.19
589.29	45897.91
589.45	45998.55
589.61	45844.07
589.77	46045.36
589.93	45724.71
590.08	45801.94
