SpectraSuite Data File
++++++++++++++++++++++++++++++++++++
Date: Fri Oct 25 10:48:06 EDT 2013
User: price-jones
Dark Spectrum Present: No
Reference Spectrum Present: No
Number of Sampled Component Spectra: 1
Spectrometers: USB2+H05261
Integration Time (usec): 100000 (USB2+H05261)
Spectra Averaged: 1 (USB2+H05261)
Boxcar Smoothing: 0 (USB2+H05261)
Correct for Electrical Dark: No (USB2+H05261)
Strobe/Lamp Enabled: No (USB2+H05261)
Correct for Detector Non-linearity: No (USB2+H05261)
Correct for Stray Light: No (USB2+H05261)
Number of Pixels in Processed Spectrum: 2048
>>>>>Begin Processed Spectral Data<<<<<
365.73	156.82
365.92	156.82
366.12	156.82
366.32	128.73
366.52	0.00
366.72	72.56
366.91	98.30
367.11	14.04
367.31	0.00
367.51	37.45
367.70	67.88
367.90	74.90
368.10	63.19
368.30	0.00
368.49	60.85
368.69	0.00
368.89	70.22
369.09	161.50
369.28	35.11
369.48	72.56
369.68	93.62
369.87	100.64
370.07	95.96
370.27	124.05
370.47	163.84
370.66	395.55
370.86	411.93
371.06	461.09
371.25	465.77
371.45	423.64
371.65	465.77
371.84	463.43
372.04	425.98
372.24	482.15
372.44	430.66
372.63	479.81
372.83	449.38
373.03	561.73
373.22	486.83
373.42	498.53
373.62	510.24
373.81	524.28
374.01	638.97
374.21	573.43
374.40	524.28
374.60	603.86
374.79	482.15
374.99	571.09
375.19	629.60
375.38	608.54
375.58	561.73
375.78	676.41
375.97	482.15
376.17	535.98
376.37	603.86
376.56	615.56
376.76	575.77
376.95	517.26
377.15	627.26
377.35	578.11
377.54	615.56
377.74	636.63
377.93	601.52
378.13	653.01
378.33	592.16
378.52	678.76
378.72	648.33
378.91	627.26
379.11	564.07
379.31	653.01
379.50	624.92
379.70	613.22
379.89	643.65
380.09	674.07
380.28	606.20
380.48	653.01
380.68	631.94
380.87	674.07
381.07	669.39
381.26	620.24
381.46	650.67
381.65	683.44
381.85	695.14
382.04	638.97
382.24	655.35
382.43	662.37
382.63	699.82
382.83	678.76
383.02	711.52
383.22	685.78
383.41	676.41
383.61	662.37
383.80	798.12
384.00	734.93
384.19	702.16
384.39	767.70
384.58	706.84
384.78	688.12
384.97	765.36
385.17	793.44
385.36	713.86
385.56	779.40
385.75	746.63
385.95	760.67
386.14	819.19
386.34	802.80
386.53	650.67
386.72	814.51
386.92	847.27
387.11	805.14
387.31	835.57
387.50	702.16
387.70	711.52
387.89	837.91
388.09	791.10
388.28	844.93
388.48	851.96
388.67	908.13
388.86	847.27
389.06	880.04
389.25	980.68
389.45	917.49
389.64	882.38
389.84	896.43
390.03	863.66
390.22	931.53
390.42	875.36
390.61	873.02
390.81	849.61
391.00	931.53
391.19	973.66
391.39	957.28
391.58	992.39
391.78	985.37
391.97	1029.84
392.16	919.83
392.36	961.96
392.55	973.66
392.75	952.60
392.94	837.91
393.13	1004.09
393.33	938.55
393.52	908.13
393.71	1071.97
393.91	1022.81
394.10	1022.81
394.29	1034.52
394.49	987.71
394.68	1109.41
394.88	1125.80
395.07	1039.20
395.26	1086.01
395.46	1100.05
395.65	1200.69
395.84	1086.01
396.04	1179.63
396.23	1083.67
396.42	1048.56
396.62	1158.57
396.81	1078.99
397.00	1125.80
397.19	1142.18
397.39	1144.52
397.58	1191.33
397.77	1153.88
397.97	1158.57
398.16	1221.76
398.35	1193.67
398.55	1210.06
398.74	1226.44
398.93	1373.89
399.12	1322.40
399.32	1341.13
399.51	1306.02
399.70	1406.66
399.90	1306.02
400.09	1420.71
400.28	1331.76
400.47	1406.66
400.67	1366.87
400.86	1427.73
401.05	1392.62
401.24	1453.47
401.44	1549.43
401.63	1472.20
401.82	1495.60
402.01	1446.45
402.21	1530.71
402.40	1430.07
402.59	1453.47
402.78	1643.06
402.97	1462.83
403.17	1558.80
403.36	1579.86
403.55	1593.90
403.74	1556.46
403.93	1657.10
404.13	1586.88
404.32	1540.07
404.51	1640.72
404.70	1591.56
404.89	1626.67
405.09	1736.68
405.28	1741.36
405.47	1563.48
405.66	1636.03
405.85	1771.79
406.05	1652.42
406.24	1736.68
406.43	1610.29
406.62	1799.87
406.81	1717.95
407.00	1818.60
407.20	1753.06
407.39	1874.77
407.58	1767.10
407.77	1930.94
407.96	1783.49
408.15	1856.04
408.34	1877.11
408.54	1956.69
408.73	1973.07
408.92	1991.80
409.11	1923.92
409.30	1933.28
409.49	1928.60
409.68	2033.93
409.87	1874.77
410.07	2010.52
410.26	2040.95
410.45	2078.40
410.64	2064.35
410.83	2143.93
411.02	2228.19
411.21	2200.10
411.40	2232.87
411.59	2172.02
411.78	2167.34
411.98	2244.57
412.17	2298.41
412.36	2195.42
412.55	2359.26
412.74	2333.51
412.93	2394.37
413.12	2377.98
413.31	2502.03
413.50	2473.95
413.69	2415.43
413.88	2338.20
414.07	2466.92
414.26	2485.65
414.45	2553.52
414.64	2597.99
414.83	2630.76
415.02	2569.91
415.22	2682.25
415.41	2605.02
415.60	2808.64
415.79	2675.23
415.98	2942.05
416.17	2743.11
416.36	2733.75
416.55	2871.84
416.74	2932.69
416.93	2935.03
417.12	2832.05
417.31	2885.88
417.50	3101.21
417.69	3084.83
417.88	2993.55
418.07	2895.24
418.26	2991.20
418.45	3052.06
418.64	3162.06
418.83	3133.98
419.02	3133.98
419.21	3112.91
419.39	3119.93
419.58	3110.57
419.77	3035.67
419.96	3185.47
420.15	3344.63
420.34	3133.98
420.53	3183.13
420.72	3323.56
420.91	3335.26
421.10	3290.79
421.29	3405.48
421.48	3283.77
421.67	3365.69
421.86	3304.84
422.05	3353.99
422.24	3246.32
422.43	3279.09
422.61	3414.84
422.80	3527.19
422.99	3461.65
423.18	3431.23
423.37	3377.39
423.56	3424.20
423.75	3426.54
423.94	3363.35
424.13	3314.20
424.32	3332.92
424.50	3442.93
424.69	3407.82
424.88	3503.78
425.07	3419.52
425.26	3410.16
425.45	3396.12
425.64	3454.63
425.83	3503.78
426.01	3602.08
426.20	3426.54
426.39	3550.59
426.58	3311.86
426.77	3508.46
426.96	3578.68
427.15	3578.68
427.33	3686.34
427.52	3627.83
427.71	3620.81
427.90	3686.34
428.09	3559.95
428.28	3646.55
428.46	3831.46
428.65	3604.42
428.84	3808.05
429.03	3794.01
429.22	3775.28
429.40	3840.82
429.59	3735.50
429.78	3613.79
429.97	3613.79
430.16	3634.85
430.34	3775.28
430.53	3871.25
430.72	3833.80
430.91	3716.77
431.10	3908.69
431.28	3904.01
431.47	3878.27
431.66	4145.09
431.85	3950.82
432.03	4161.47
432.22	4234.03
432.41	4212.96
432.60	4168.49
432.79	3967.21
432.97	4194.24
433.16	4238.71
433.35	4140.41
433.54	4135.73
433.72	4229.35
433.91	4145.09
434.10	4222.33
434.28	4149.77
434.47	4402.55
434.66	4379.14
434.85	4334.67
435.03	4440.00
435.22	4332.33
435.41	4437.66
435.59	4458.72
435.78	4404.89
435.97	4568.73
436.16	4482.13
436.34	4505.53
436.53	4510.21
436.72	4610.86
436.90	4486.81
437.09	4678.73
437.28	4458.72
437.46	4526.60
437.65	4564.04
437.84	4667.03
438.02	4566.39
438.21	4744.27
438.40	4568.73
438.58	4704.48
438.77	4952.57
438.96	4851.93
439.14	4842.57
439.33	4910.44
439.52	4968.96
439.70	5013.43
439.89	5069.60
440.08	5139.82
440.26	5118.75
440.45	5149.18
440.63	5085.98
440.82	5146.84
441.01	5186.63
441.19	5296.63
441.38	5191.31
441.57	5334.08
441.75	5359.83
441.94	5406.64
442.12	5563.45
442.31	5507.28
442.50	5589.20
442.68	5591.54
442.87	5593.88
443.05	5633.67
443.24	5619.63
443.43	5460.47
443.61	5568.13
443.80	5710.91
443.98	5488.56
444.17	5509.62
444.35	5640.69
444.54	5596.22
444.73	5582.18
444.91	5746.02
445.10	5731.97
445.28	5647.71
445.47	5549.41
445.65	5572.82
445.84	5774.10
446.02	5802.19
446.21	5846.66
446.39	5785.80
446.58	5811.55
446.77	5830.27
446.95	5746.02
447.14	5799.85
447.32	6019.86
447.51	5802.19
447.69	5795.17
447.88	5900.49
448.06	6010.50
448.25	5968.37
448.43	6017.52
448.62	5865.38
448.80	5951.98
448.99	5930.92
449.17	6052.63
449.36	6003.47
449.54	5942.62
449.73	6078.37
449.91	6265.61
450.10	6251.57
450.28	6434.13
450.46	6181.35
450.65	6312.42
450.83	6408.39
451.02	6237.53
451.20	6377.96
451.39	6274.98
451.57	6204.76
451.76	6317.11
451.94	6293.70
452.13	6459.88
452.31	6289.02
452.49	6270.30
452.68	6450.52
452.86	6361.58
453.05	6457.54
453.23	6438.81
453.42	6450.52
453.60	6469.24
453.78	6396.68
453.97	6408.39
454.15	6595.63
454.34	6480.94
454.52	6733.72
454.70	6764.15
454.89	6731.38
455.07	6726.70
455.26	6581.59
455.44	6904.58
455.62	6759.47
455.81	6715.00
455.99	6906.92
456.17	6841.39
456.36	6956.07
456.54	6841.39
456.73	7047.35
456.91	7162.04
457.09	7047.35
457.28	7162.04
457.46	7042.67
457.64	7283.75
457.83	7204.17
458.01	7187.79
458.19	7250.98
458.38	7332.90
458.56	7419.50
458.74	7131.61
458.93	7201.83
459.11	7456.95
459.29	7286.09
459.48	7485.03
459.66	7520.14
459.84	7344.60
460.03	7417.16
460.21	7370.35
460.39	7456.95
460.57	7541.21
460.76	7564.61
460.94	7599.72
461.12	7513.12
461.31	7768.24
461.49	7606.74
461.67	7620.78
461.85	7616.10
462.04	7859.52
462.22	8198.90
462.40	7932.08
462.59	7721.43
462.77	7838.45
462.95	7847.82
463.13	7716.75
463.32	7892.29
463.50	8044.42
463.68	7932.08
463.86	8037.40
464.05	7932.08
464.23	7936.76
464.41	8112.30
464.59	7999.95
464.78	7992.93
464.96	7922.71
465.14	7918.03
465.32	8203.58
465.50	8102.93
465.69	8226.98
465.87	8257.41
466.05	8128.68
466.23	8187.19
466.41	8259.75
466.60	8383.80
466.78	8102.93
466.96	8332.31
467.14	8184.85
467.32	8269.11
467.51	8407.20
467.69	8074.85
467.87	8575.72
468.05	8376.78
468.23	8540.61
468.41	8294.86
468.60	8339.33
468.78	8454.02
468.96	8332.31
469.14	8674.03
469.32	8856.59
469.50	8339.33
469.69	8842.54
469.87	8798.07
470.05	8788.71
470.23	8744.24
470.41	8641.26
470.59	8863.61
470.77	8931.48
470.95	8922.12
471.14	9312.99
471.32	8964.25
471.50	9177.24
471.68	9125.75
471.86	9053.19
472.04	9156.18
472.22	9533.00
472.40	9090.64
472.58	9144.47
472.77	9343.42
472.95	9259.16
473.13	9844.29
473.31	9364.48
473.49	9348.10
473.67	9659.39
473.85	9591.52
474.03	9741.31
474.21	9572.79
474.39	9895.78
474.57	9778.76
474.75	9839.61
474.93	10127.50
475.12	9856.00
475.30	10195.37
475.48	9893.44
475.66	10249.21
475.84	9984.73
476.02	10186.01
476.20	10132.18
476.38	10670.50
476.56	10712.63
476.74	10441.13
476.92	10249.21
477.10	10375.59
477.28	10574.54
477.46	10764.12
477.64	10916.26
477.82	10977.11
478.00	11145.63
478.18	11384.37
478.36	11403.09
478.54	11239.25
478.72	11391.39
478.90	11412.45
479.08	11452.24
479.26	11768.21
479.44	11726.08
479.62	11889.92
479.80	11726.08
479.98	12175.47
480.16	12203.55
480.34	12060.78
480.52	12320.58
480.70	12336.96
480.88	12074.82
481.06	12294.83
481.24	12512.50
481.41	12746.56
481.59	12809.75
481.77	12798.05
481.95	12896.35
482.13	13104.66
482.31	12929.12
482.49	13446.38
482.67	13287.22
482.85	13097.64
483.03	13504.89
483.21	13624.26
483.39	13710.86
483.57	13750.65
483.74	13809.16
483.92	13806.82
484.10	14265.57
484.28	14101.73
484.46	14413.02
484.64	14654.09
484.82	14616.65
485.00	14516.00
485.18	14848.36
485.35	14941.98
485.53	14562.81
485.71	14766.44
485.89	15089.43
486.07	15009.86
486.25	15410.09
486.43	15250.93
486.61	15332.85
486.78	15580.95
486.96	15852.45
487.14	15892.24
487.32	15754.15
487.50	16336.94
487.68	16290.13
487.85	16671.64
488.03	16727.81
488.21	17064.85
488.39	16872.92
488.57	16720.79
488.75	16835.47
488.92	17387.84
489.10	17252.09
489.28	17518.91
489.46	17666.36
489.64	17530.61
489.81	18010.42
489.99	17972.97
490.17	18204.69
490.35	18148.51
490.53	18272.56
490.70	18293.63
490.88	18471.51
491.06	18670.45
491.24	18778.12
491.41	18743.01
491.59	18806.20
491.77	19000.47
491.95	19159.63
492.13	19473.26
492.30	19751.78
492.48	19569.22
492.66	19484.96
492.84	19744.76
493.01	19854.76
493.19	19716.67
493.37	20243.29
493.54	20329.89
493.72	20678.63
493.90	20835.45
494.08	20713.74
494.25	21062.48
494.43	20863.54
494.61	21184.19
494.79	20947.79
494.96	20875.24
495.14	21418.24
495.32	21507.18
495.49	21778.68
495.67	21605.49
495.85	21497.82
496.02	21631.23
496.20	21986.99
496.38	22274.88
496.55	22164.87
496.73	22642.34
496.91	22178.92
497.09	22256.15
497.26	22878.74
497.44	22827.24
497.62	22682.13
497.79	22841.29
497.97	22707.88
498.14	23054.28
498.32	23466.21
498.50	23393.65
498.67	23466.21
498.85	23552.81
499.03	23489.62
499.20	23634.73
499.38	23817.29
499.56	23934.32
499.73	24325.19
499.91	24077.09
500.08	24336.89
500.26	23885.17
500.44	24208.16
500.61	24720.74
500.79	24432.85
500.97	24472.64
501.14	24865.85
501.32	24762.87
501.49	24812.02
501.67	24952.45
501.84	25081.18
502.02	25160.76
502.20	25315.23
502.37	25301.19
502.55	25270.76
502.72	25532.90
502.90	25558.65
503.07	25582.06
503.25	25556.31
503.43	25722.49
503.60	25893.35
503.78	25930.80
503.95	26089.95
504.13	26494.86
504.30	26096.97
504.48	26452.73
504.65	26651.68
504.83	26279.54
505.01	26670.40
505.18	26742.96
505.36	27239.15
505.53	26710.19
505.71	26714.87
505.88	27157.24
506.06	26981.70
506.23	27454.48
506.41	27243.84
506.58	27105.74
506.76	27218.09
506.93	27487.25
507.11	27384.27
507.28	27365.54
507.46	27363.20
507.63	27662.79
507.81	28236.22
507.98	27524.70
508.16	27454.48
508.33	27880.46
508.50	27714.28
508.68	27882.80
508.85	28421.13
509.03	28273.67
509.20	28507.72
509.38	28594.32
509.55	28840.08
509.73	28950.09
509.90	28744.12
510.08	28601.35
510.25	28727.74
510.42	29039.03
510.60	28943.06
510.77	29282.44
510.95	29345.64
511.12	29406.49
511.30	29645.23
511.47	29401.81
511.64	29898.00
511.82	29921.41
511.99	29476.71
512.17	29776.30
512.34	29898.00
512.51	30012.69
512.69	29940.13
512.86	30066.52
513.04	30443.35
513.21	30373.13
513.38	30574.42
513.56	30518.25
513.73	29752.89
513.90	30382.49
514.08	30497.18
514.25	30761.66
514.43	30696.13
514.60	30600.16
514.77	30562.72
514.95	31079.97
515.12	30946.56
515.29	31257.85
515.47	31072.95
515.64	31463.82
515.81	31133.81
515.99	31377.22
516.16	31395.95
516.33	30967.63
516.51	31697.88
516.68	31260.20
516.85	31309.35
517.03	31454.46
517.20	31550.42
517.37	31564.46
517.54	32023.21
517.72	31971.72
517.89	31704.90
518.06	31611.28
518.24	31693.19
518.41	32123.85
518.58	32306.41
518.75	32346.20
518.93	32479.61
519.10	32486.64
519.27	32456.21
519.45	32355.57
519.62	32828.35
519.79	32606.00
519.96	32720.69
520.14	32966.45
520.31	32802.61
520.48	32699.62
520.65	32512.38
520.83	33631.16
521.00	33249.65
521.17	33453.28
521.34	33577.33
521.52	33596.05
521.69	33816.06
521.86	33799.68
522.03	34045.43
522.20	33343.27
522.38	34068.84
522.55	33961.17
522.72	33645.20
522.89	33907.34
523.07	33846.49
523.24	33935.43
523.41	34038.41
523.58	34092.24
523.75	34274.80
523.92	34445.66
524.10	34600.14
524.27	34572.05
524.44	34256.08
524.61	34857.60
524.78	34717.17
524.96	34714.83
525.13	34974.63
525.30	35016.75
525.47	34820.15
525.64	35002.71
525.81	34981.65
525.98	35093.99
526.16	35054.20
526.33	34787.38
526.50	35402.94
526.67	35026.12
526.84	35147.82
527.01	34925.47
527.18	35274.21
527.36	35409.96
527.53	35751.68
527.70	35768.07
527.87	35700.19
528.04	35770.41
528.21	35810.20
528.38	35510.61
528.55	35873.39
528.72	36079.36
528.89	36400.01
529.07	35831.26
529.24	35732.96
529.41	35812.54
529.58	36355.54
529.75	36596.62
529.92	36669.17
530.09	36601.30
530.26	36690.24
530.43	36856.42
530.60	36210.43
530.77	36428.10
530.94	36783.86
531.11	36491.29
531.28	36495.97
531.46	37071.75
531.63	36664.49
531.80	36825.99
531.97	36723.01
532.14	36926.63
532.31	36683.22
532.48	37223.88
532.65	37060.04
532.82	37104.51
532.99	37038.98
533.16	36811.95
533.33	37703.69
533.50	37624.11
533.67	37280.05
533.84	37354.95
534.01	37591.34
534.18	37663.90
534.35	37954.13
534.52	37792.63
534.69	38007.96
534.86	37467.30
535.03	37586.66
535.20	37624.11
535.37	38220.95
535.54	38466.70
535.71	37888.59
535.88	38036.05
536.05	37921.36
536.22	38164.78
536.38	38003.28
536.55	38216.27
536.72	38443.30
536.89	38330.95
537.06	38452.66
537.23	38445.64
537.40	38265.42
537.57	38373.08
537.74	38321.59
537.91	38642.24
538.08	38717.14
538.25	38614.16
538.42	38684.37
538.59	38883.32
538.75	38576.71
538.92	38586.07
539.09	38508.83
539.26	39187.59
539.43	39283.55
539.60	39358.45
539.77	38803.74
539.94	38763.95
540.11	39061.20
540.28	39215.68
540.44	39079.92
540.61	39126.74
540.78	38969.92
540.95	39103.33
541.12	38651.61
541.29	39016.73
541.46	39117.37
541.62	39704.85
541.79	39339.72
541.96	39133.76
542.13	39768.04
542.30	39744.64
542.47	39704.85
542.63	39735.27
542.80	40126.14
542.97	40095.72
543.14	40275.94
543.31	40481.91
543.48	40137.85
543.64	40762.77
543.81	40140.19
543.98	40669.15
544.15	40135.51
544.32	40793.20
544.48	40954.69
544.65	40795.54
544.82	40381.26
544.99	40245.51
545.16	40657.45
545.32	40751.07
545.49	40933.63
545.66	40627.02
545.83	40603.61
546.00	40978.10
546.16	40886.82
546.33	40617.66
546.50	40364.88
546.67	40928.95
546.83	40357.86
547.00	40643.40
547.17	40643.40
547.34	40942.99
547.50	41228.54
547.67	41165.34
547.84	41214.49
548.00	41308.11
548.17	41090.44
548.34	41177.04
548.51	41425.14
548.67	41820.69
548.84	41486.00
549.01	41631.11
549.18	41401.74
549.34	41144.28
549.51	41689.62
549.68	41303.43
549.84	41647.49
550.01	42054.75
550.18	41415.78
550.34	41191.09
550.51	41361.95
550.68	41078.74
550.84	41706.01
551.01	41729.41
551.18	41827.71
551.34	41858.14
551.51	41900.27
551.68	41900.27
551.84	41989.21
552.01	41766.86
552.18	42000.91
552.34	41649.83
552.51	42321.57
552.68	42239.65
552.84	42241.99
553.01	42433.91
553.18	41635.79
553.34	42480.72
553.51	41633.45
553.67	42366.04
553.84	42674.99
554.01	42389.44
554.17	42497.11
554.34	42405.83
554.51	42597.75
554.67	42871.59
554.84	42260.71
555.00	42333.27
555.17	42497.11
555.33	42351.99
555.50	42646.90
555.67	42239.65
555.83	42356.67
556.00	42635.20
556.16	42857.55
556.33	42813.08
556.50	42738.18
556.66	43157.14
556.83	42253.69
556.99	42883.30
557.16	42770.95
557.32	42813.08
557.49	42848.19
557.65	42719.46
557.82	42962.87
557.98	42813.08
558.15	43019.05
558.32	43335.02
558.48	42665.63
558.65	42761.59
558.81	42988.62
558.98	42794.36
559.14	42937.13
559.31	43449.70
559.47	43461.41
559.64	43283.53
559.80	43372.47
559.97	43438.00
560.13	43072.88
560.30	42937.13
560.46	43480.13
560.63	42696.05
560.79	42775.63
560.96	42892.66
561.12	43122.03
561.29	43278.85
561.45	43152.46
561.61	43070.54
561.78	43452.05
561.94	43304.59
562.11	43468.43
562.27	43491.83
562.44	43217.99
562.60	43744.61
562.77	43695.46
562.93	43428.64
563.10	43978.67
563.26	43281.19
563.42	43613.54
563.59	43592.48
563.75	43571.41
563.92	43585.46
564.08	43648.65
564.24	43564.39
564.41	43620.56
564.57	43222.67
564.74	43620.56
564.90	43882.70
565.07	43545.67
565.23	43763.34
565.39	44072.29
565.56	44098.03
565.72	43695.46
565.88	43510.56
566.05	43866.32
566.21	43913.13
566.38	43978.67
566.54	43784.40
566.70	44032.50
566.87	44414.01
567.03	44006.75
567.19	44444.43
567.36	43648.65
567.52	43599.50
567.68	44006.75
567.85	43845.26
568.01	43583.12
568.17	44093.35
568.34	43885.04
568.50	43894.41
568.66	44341.45
568.83	44114.42
568.99	43646.31
569.15	43646.31
569.32	44044.20
569.48	43550.35
569.64	44334.43
569.81	44388.26
569.97	43934.20
570.13	43854.62
570.30	43782.06
570.46	43789.08
570.62	43679.08
570.78	43971.64
570.95	44135.48
571.11	44280.60
571.27	43899.09
571.43	43709.50
571.60	44175.27
571.76	44116.76
571.92	43805.47
572.09	43763.34
572.25	44165.91
572.41	44348.47
572.57	44289.96
572.74	44737.00
572.90	44360.17
573.06	44121.44
573.22	44165.91
573.38	44170.59
573.55	44133.14
573.71	44215.06
573.87	44257.19
574.03	43966.96
574.20	44009.09
574.36	44105.06
574.52	44392.94
574.68	44058.24
574.84	44488.90
575.01	44112.08
575.17	44257.19
575.33	44205.70
575.49	44158.89
575.65	44526.35
575.82	44332.09
575.98	44318.04
576.14	44701.89
576.30	44570.82
576.46	44006.75
576.62	44179.95
576.79	44296.98
576.95	44170.59
577.11	44395.28
577.27	44463.16
577.43	44451.45
577.59	44353.15
577.75	44390.60
577.92	43922.49
578.08	43763.34
578.24	44025.48
578.40	44299.32
578.56	44201.02
578.72	43962.28
578.88	44704.23
579.04	44364.85
579.21	44086.33
579.37	44053.56
579.53	44294.64
579.69	44257.19
579.85	44184.63
580.01	44737.00
580.17	44346.13
580.33	44474.86
580.49	44524.01
580.65	44509.97
580.82	44048.88
580.98	44610.61
581.14	44268.89
581.30	44528.69
581.46	44334.43
581.62	44493.58
581.78	44018.46
581.94	44612.95
582.10	44423.37
582.26	44659.76
582.42	44828.28
582.58	44210.38
582.74	44439.75
582.90	44596.57
583.06	44704.23
583.22	44903.18
583.38	44575.50
583.54	44779.13
583.70	44491.24
583.86	44304.00
584.02	44355.49
584.18	44304.00
584.34	44360.17
584.50	44491.24
584.66	44383.58
584.82	44198.68
584.98	44509.97
585.14	44708.91
585.30	44371.88
585.46	44676.15
585.62	44397.62
585.78	44643.38
585.94	44006.75
586.10	44542.74
586.26	44229.10
586.42	44926.58
586.58	44360.17
586.74	44589.55
586.90	44229.10
587.06	44343.79
587.22	44355.49
587.38	43992.71
587.54	44802.53
587.70	44842.32
587.86	44907.86
588.02	44797.85
588.18	44418.69
588.34	44299.32
588.49	44004.41
588.65	44116.76
588.81	44339.11
588.97	44327.41
589.13	44161.23
589.29	44156.55
589.45	44905.52
589.61	44577.84
589.77	44753.38
589.93	45015.52
590.08	44460.82
590.24	45111.49
590.40	44531.03
