SpectraSuite Data File
++++++++++++++++++++++++++++++++++++
Date: Fri Oct 25 10:43:53 EDT 2013
User: price-jones
Dark Spectrum Present: No
Reference Spectrum Present: No
Number of Sampled Component Spectra: 1
Spectrometers: USB2+H05261
Integration Time (usec): 100000 (USB2+H05261)
Spectra Averaged: 1 (USB2+H05261)
Boxcar Smoothing: 0 (USB2+H05261)
Correct for Electrical Dark: No (USB2+H05261)
Strobe/Lamp Enabled: No (USB2+H05261)
Correct for Detector Non-linearity: No (USB2+H05261)
Correct for Stray Light: No (USB2+H05261)
Number of Pixels in Processed Spectrum: 2048
>>>>>Begin Processed Spectral Data<<<<<
365.73	152.13
365.92	152.13
366.12	152.13
366.32	42.13
366.52	67.88
366.72	110.01
366.91	0.00
367.11	9.36
367.31	11.70
367.51	72.56
367.70	39.79
367.90	0.00
368.10	9.36
368.30	37.45
368.49	30.43
368.69	32.77
368.89	67.88
369.09	58.51
369.28	114.69
369.48	0.00
369.68	28.09
369.87	140.43
370.07	166.18
370.27	126.39
370.47	234.05
370.66	379.17
370.86	479.81
371.06	554.71
371.25	580.45
371.45	500.87
371.65	543.00
371.84	470.45
372.04	465.77
372.24	456.40
372.44	470.45
372.63	554.71
372.83	479.81
373.03	503.22
373.22	559.39
373.42	526.62
373.62	545.34
373.81	571.09
374.01	603.86
374.21	643.65
374.40	573.43
374.60	592.16
374.79	528.96
374.99	512.58
375.19	592.16
375.38	636.63
375.58	578.11
375.78	578.11
375.97	671.73
376.17	727.91
376.37	585.13
376.56	615.56
376.76	667.05
376.95	559.39
377.15	627.26
377.35	667.05
377.54	744.29
377.74	641.31
377.93	622.58
378.13	702.16
378.33	732.59
378.52	699.82
378.72	627.26
378.91	676.41
379.11	596.84
379.31	582.79
379.50	620.24
379.70	725.57
379.89	805.14
380.09	709.18
380.28	713.86
380.48	692.80
380.68	774.72
380.87	777.06
381.07	727.91
381.26	791.10
381.46	713.86
381.65	730.25
381.85	690.46
382.04	730.25
382.24	723.23
382.43	777.06
382.63	678.76
382.83	695.14
383.02	777.06
383.22	793.44
383.41	748.97
383.61	704.50
383.80	814.51
384.00	765.36
384.19	823.87
384.39	915.15
384.58	842.59
384.78	851.96
384.97	763.01
385.17	809.83
385.36	784.08
385.56	795.78
385.75	842.59
385.95	908.13
386.14	861.32
386.34	837.91
386.53	854.30
386.72	844.93
386.92	931.53
387.11	842.59
387.31	964.30
387.50	917.49
387.70	873.02
387.89	819.19
388.09	908.13
388.28	830.89
388.48	950.26
388.67	1015.79
388.86	973.66
389.06	961.96
389.25	1034.52
389.45	1025.15
389.64	980.68
389.84	978.34
390.03	976.00
390.22	1020.47
390.42	1004.09
390.61	1064.94
390.81	1074.31
391.00	1135.16
391.19	1076.65
391.39	1104.73
391.58	1041.54
391.78	1144.52
391.97	1090.69
392.16	1062.60
392.36	1107.07
392.55	997.07
392.75	1076.65
392.94	961.96
393.13	1020.47
393.33	959.62
393.52	1125.80
393.71	1163.25
393.91	1137.50
394.10	1196.01
394.29	1186.65
394.49	1170.27
394.68	1214.74
394.88	1179.63
395.07	1266.23
395.26	1235.80
395.46	1249.85
395.65	1299.00
395.84	1299.00
396.04	1277.93
396.23	1254.53
396.42	1233.46
396.62	1231.12
396.81	1263.89
397.00	1254.53
397.19	1277.93
397.39	1362.19
397.58	1472.20
397.77	1507.30
397.97	1479.22
398.16	1488.58
398.35	1638.38
398.55	1540.07
398.74	1455.81
398.93	1558.80
399.12	1558.80
399.32	1603.27
399.51	1586.88
399.70	1591.56
399.90	1701.57
400.09	1603.27
400.28	1657.10
400.47	1687.53
400.67	1818.60
400.86	1781.15
401.05	1823.28
401.24	1746.04
401.44	1757.74
401.63	1790.51
401.82	1771.79
402.01	1799.87
402.21	1792.85
402.40	1736.68
402.59	1830.30
402.78	1799.87
402.97	1783.49
403.17	1905.20
403.36	1853.70
403.55	1905.20
403.74	2003.50
403.93	1844.34
404.13	1989.46
404.32	1952.01
404.51	1980.09
404.70	2087.76
404.89	2010.52
405.09	2022.22
405.28	2040.95
405.47	1980.09
405.66	1905.20
405.85	2005.84
406.05	2073.71
406.24	2101.80
406.43	2162.66
406.62	2122.87
406.81	2188.40
407.00	2132.23
407.20	2146.27
407.39	2218.83
407.58	2202.44
407.77	2099.46
407.96	2214.15
408.15	2207.13
408.34	2284.36
408.54	2312.45
408.73	2356.92
408.92	2310.11
409.11	2399.05
409.30	2314.79
409.49	2377.98
409.68	2370.96
409.87	2340.54
410.07	2363.94
410.26	2558.21
410.45	2530.12
410.64	2523.10
410.83	2548.84
411.02	2525.44
411.21	2658.85
411.40	2654.17
411.59	2754.81
411.78	2675.23
411.98	2724.38
412.17	2902.26
412.36	2787.58
412.55	2885.88
412.74	2752.47
412.93	2918.65
413.12	2942.05
413.31	2888.22
413.50	2918.65
413.69	2949.08
413.88	2843.75
414.07	3038.02
414.26	3096.53
414.45	3073.12
414.64	3173.77
414.83	3117.59
415.02	3173.77
415.22	3185.47
415.41	3159.72
415.60	3227.60
415.79	3293.13
415.98	3276.75
416.17	3384.41
416.36	3286.11
416.55	3288.45
416.74	3286.11
416.93	3321.22
417.12	3211.22
417.31	3396.12
417.50	3637.19
417.69	3456.97
417.88	3641.87
418.07	3454.63
418.26	3475.70
418.45	3665.28
418.64	3756.56
418.83	3719.11
419.02	3604.42
419.21	3595.06
419.39	3545.91
419.58	3625.49
419.77	3597.40
419.96	3721.45
420.15	3801.03
420.34	3749.54
420.53	3826.78
420.72	4004.66
420.91	3899.33
421.10	4032.74
421.29	3927.42
421.48	3967.21
421.67	4107.64
421.86	3822.09
422.05	3913.38
422.24	3936.78
422.43	3953.16
422.61	3866.56
422.80	4053.81
422.99	4035.08
423.18	4086.58
423.37	4051.47
423.56	4163.81
423.75	4004.66
423.94	3985.93
424.13	3808.05
424.32	3815.07
424.50	4098.28
424.69	4138.07
424.88	4243.39
425.07	4042.11
425.26	4095.94
425.45	4138.07
425.64	4035.08
425.83	4051.47
426.01	4058.49
426.20	4161.47
426.39	4161.47
426.58	4119.34
426.77	3943.80
426.96	4142.75
427.15	4140.41
427.33	4182.54
427.52	4189.56
427.71	4259.78
427.90	4266.80
428.09	4294.88
428.28	4360.42
428.46	4337.01
428.65	4372.12
428.84	4444.68
429.03	4442.34
429.22	4301.90
429.40	4332.33
429.59	4212.96
429.78	3943.80
429.97	4037.42
430.16	4292.54
430.34	4404.89
430.53	4313.61
430.72	4332.33
430.91	4423.61
431.10	4496.17
431.28	4788.74
431.47	4830.87
431.66	4683.41
431.85	4667.03
432.03	4608.51
432.22	4954.91
432.41	4784.06
432.60	4875.34
432.79	4847.25
432.97	4842.57
433.16	5039.17
433.35	4777.03
433.54	4884.70
433.72	4912.78
433.91	4793.42
434.10	4791.08
434.28	4922.15
434.47	5015.77
434.66	4985.34
434.85	5057.90
435.03	5156.20
435.22	5195.99
435.41	5427.70
435.59	5275.57
435.78	5324.72
435.97	5310.68
436.16	5434.72
436.34	5394.93
436.53	5352.81
436.72	5327.06
436.90	5224.08
437.09	5392.59
437.28	5364.51
437.46	5242.80
437.65	5343.44
437.84	5418.34
438.02	5249.82
438.21	5310.68
438.40	5270.89
438.58	5488.56
438.77	5671.12
438.96	5619.63
439.14	5811.55
439.33	5741.33
439.52	5804.53
439.70	5959.00
439.89	5729.63
440.08	5720.27
440.26	5951.98
440.45	5839.64
440.63	6083.05
440.82	6214.12
441.01	5935.60
441.19	6228.17
441.38	6291.36
441.57	6527.75
441.75	6321.79
441.94	6394.34
442.12	6429.45
442.31	6480.94
442.50	6558.18
442.68	6705.63
442.87	6441.15
443.05	6729.04
443.24	6661.16
443.43	6590.95
443.61	6780.53
443.80	6813.30
443.98	6530.09
444.17	6534.78
444.35	6619.04
444.54	6832.02
444.73	6719.68
444.91	6733.72
445.10	6736.06
445.28	6705.63
445.47	6541.80
445.65	6579.25
445.84	6633.08
446.02	6958.41
446.21	6817.98
446.39	6644.78
446.58	6981.82
446.77	6834.36
446.95	6846.07
447.14	7002.88
447.32	6960.75
447.51	6832.02
447.69	6726.70
447.88	6902.24
448.06	6841.39
448.25	6874.15
448.43	6871.81
448.62	7103.53
448.80	6906.92
448.99	7328.22
449.17	7052.03
449.36	7131.61
449.54	7236.94
449.73	7370.35
449.91	7239.28
450.10	7255.66
450.28	7447.58
450.46	7389.07
450.65	7438.22
450.83	7606.74
451.02	7494.40
451.20	7541.21
451.39	7501.42
451.57	7372.69
451.76	7545.89
451.94	7288.43
452.13	7466.31
452.31	7499.08
452.49	7365.67
452.68	7564.61
452.86	7522.48
453.05	7482.69
453.23	7620.78
453.42	7578.65
453.60	7431.20
453.78	7775.26
453.97	7557.59
454.15	7709.72
454.34	7618.44
454.52	7751.85
454.70	7545.89
454.89	7857.18
455.07	7698.02
455.26	7983.57
455.44	8114.64
455.62	8042.08
455.81	8070.17
455.99	8184.85
456.17	8212.94
456.36	7946.12
456.54	8140.38
456.73	8255.07
456.91	8308.90
457.09	8318.26
457.28	8617.85
457.46	8308.90
457.64	8400.18
457.83	8393.16
458.01	8231.66
458.19	8489.12
458.38	8559.34
458.56	8617.85
458.74	8655.30
458.93	8741.90
459.11	8629.56
459.29	8535.93
459.48	8559.34
459.66	8540.61
459.84	8791.05
460.03	8531.25
460.21	8851.91
460.39	8840.20
460.57	8805.10
460.76	9004.04
460.94	8917.44
461.12	8964.25
461.31	8767.65
461.49	9121.07
461.67	8901.06
461.85	9020.42
462.04	9242.78
462.22	9092.98
462.40	9284.91
462.59	9191.28
462.77	9097.66
462.95	9212.35
463.13	9078.94
463.32	9186.60
463.50	9348.10
463.68	9535.34
463.86	9261.50
464.05	9275.54
464.23	9233.41
464.41	9713.22
464.59	9100.00
464.78	9570.45
464.96	9369.16
465.14	9355.12
465.32	9586.83
465.50	9535.34
465.69	9685.14
465.87	9420.66
466.05	9741.31
466.23	9533.00
466.41	9589.17
466.60	9666.41
466.78	9320.01
466.96	9563.43
467.14	9598.54
467.32	9668.75
467.51	9659.39
467.69	9654.71
467.87	9610.24
468.05	9933.23
468.23	9507.26
468.41	9830.25
468.60	9551.73
468.78	10045.58
468.96	9760.03
469.14	10094.73
469.32	9982.38
469.50	9858.34
469.69	9902.81
469.87	9991.75
470.05	10174.31
470.23	10017.49
470.41	10024.51
470.59	10167.29
470.77	10001.11
470.95	10111.11
471.14	10700.93
471.32	10293.68
471.50	10377.94
471.68	10513.69
471.86	10686.89
472.04	10565.18
472.22	10895.19
472.40	10878.81
472.58	10967.75
472.77	10752.42
472.95	10806.25
473.13	11236.91
473.31	10956.05
473.49	10949.03
473.67	11077.76
473.85	10995.84
474.03	11351.60
474.21	11126.91
474.39	11501.39
474.57	11482.67
474.75	11578.63
474.93	11651.19
475.12	11541.18
475.30	11632.46
475.48	11433.52
475.66	11943.75
475.84	11761.19
476.02	11609.06
476.20	11775.24
476.38	11861.84
476.56	12280.79
476.74	12308.88
476.92	12287.81
477.10	12161.42
477.28	12512.50
477.46	12414.20
477.64	12685.70
477.82	12741.88
478.00	13032.10
478.18	12940.82
478.36	12957.21
478.54	13006.36
478.72	13324.67
478.90	13462.76
479.08	13357.44
479.26	13806.82
479.44	13504.89
479.62	13540.00
479.80	13720.22
479.98	13806.82
480.16	13947.25
480.34	13764.69
480.52	14190.67
480.70	14366.21
480.88	14260.88
481.06	14431.74
481.24	14504.30
481.41	14707.93
481.59	14523.02
481.77	14792.19
481.95	14953.68
482.13	15199.44
482.31	15021.56
482.49	15218.16
482.67	15232.21
482.85	15398.38
483.03	15651.16
483.21	15704.99
483.39	15971.82
483.57	15969.48
483.74	15934.37
483.92	15953.09
484.10	15939.05
484.28	16404.81
484.46	16802.71
484.64	16786.32
484.82	16578.01
485.00	16622.48
485.18	17057.82
485.35	16753.55
485.53	16549.93
485.71	16805.05
485.89	16898.67
486.07	16903.35
486.25	16898.67
486.43	17413.59
486.61	17467.42
486.78	18078.30
486.96	17781.05
487.14	18181.28
487.32	18302.99
487.50	18569.81
487.68	18707.90
487.85	18689.18
488.03	19278.99
488.21	19016.85
488.39	19094.09
488.57	19154.94
488.75	19225.16
488.92	19594.96
489.10	19950.73
489.28	19889.87
489.46	20350.96
489.64	20304.15
489.81	20868.22
489.99	20919.71
490.17	20772.25
490.35	20959.50
490.53	20837.79
490.70	21174.83
490.88	21331.64
491.06	21649.96
491.24	21184.19
491.41	21418.24
491.59	21390.16
491.77	21319.94
491.95	21640.59
492.13	21759.96
492.30	22471.48
492.48	22272.54
492.66	22307.65
492.84	22583.83
493.01	22766.39
493.19	22649.36
493.37	22829.59
493.54	22848.31
493.72	22967.68
493.90	23414.72
494.08	23733.03
494.25	23676.86
494.43	23679.20
494.61	24095.82
494.79	24266.67
494.96	24065.39
495.14	24077.09
495.32	24615.41
495.49	24329.87
495.67	24376.68
495.85	24474.98
496.02	25062.46
496.20	24968.84
496.38	25151.40
496.55	25296.51
496.73	25406.52
496.91	25729.51
497.09	25530.56
497.26	25612.48
497.44	25582.06
497.62	26249.11
497.79	26305.28
497.97	25937.82
498.14	26302.94
498.32	26354.43
498.50	26405.92
498.67	26738.28
498.85	26689.13
499.03	27007.44
499.20	27063.61
499.38	27342.14
499.56	26955.95
499.73	27337.46
499.91	27527.04
500.08	27508.32
500.26	27047.23
500.44	27119.79
500.61	27513.00
500.79	27192.34
500.97	27557.47
501.14	27864.08
501.32	27751.73
501.49	27498.95
501.67	27866.42
501.84	28030.26
502.02	28304.10
502.20	28212.82
502.37	28821.36
502.55	28425.81
502.72	29050.73
502.90	28584.96
503.07	28566.24
503.25	28999.24
503.43	28666.88
503.60	28470.28
503.78	28912.64
503.95	28716.03
504.13	29465.00
504.30	29446.28
504.48	29427.56
504.65	29635.86
504.83	29710.76
505.01	29717.78
505.18	30246.74
505.36	30092.27
505.53	30197.59
505.71	30323.98
505.88	30515.90
506.06	30281.85
506.23	30476.12
506.41	30469.09
506.58	30579.10
506.76	30602.50
506.93	30780.39
507.11	30646.97
507.28	30710.17
507.46	31061.25
507.63	30845.92
507.81	31229.77
507.98	30852.94
508.16	30993.37
508.33	31302.32
508.50	31360.84
508.68	31686.17
508.85	32039.59
509.03	31758.73
509.20	31969.38
509.38	32257.26
509.55	32102.79
509.73	32070.02
509.90	32215.13
510.08	32224.50
510.25	32292.37
510.42	32606.00
510.60	32666.86
510.77	32606.00
510.95	32704.31
511.12	32313.44
511.30	32931.34
511.47	33369.02
511.64	32837.72
511.82	33336.25
511.99	32921.98
512.17	32945.38
512.34	32919.63
512.51	33539.88
512.69	33460.30
512.86	33472.00
513.04	33827.76
513.21	33474.34
513.38	33530.51
513.56	33528.17
513.73	33310.50
513.90	33692.01
514.08	33539.88
514.25	34176.50
514.43	34078.20
514.60	34256.08
514.77	34232.68
514.95	34670.36
515.12	34167.14
515.29	34366.09
515.47	34902.07
515.64	34822.49
515.81	34890.37
515.99	34630.57
516.16	34703.12
516.33	34518.22
516.51	34522.90
516.68	33928.41
516.85	33844.15
517.03	34415.24
517.20	34646.95
517.37	35449.75
517.54	34848.24
517.72	35082.29
517.89	34508.86
518.06	34609.50
518.24	34829.51
518.41	34550.99
518.58	35501.25
518.75	35433.37
518.93	35627.63
519.10	35503.59
519.27	35938.93
519.45	36009.14
519.62	36058.29
519.79	35934.24
519.96	36510.02
520.14	36329.80
520.31	36077.02
520.48	36463.21
520.65	36273.62
520.83	36973.44
521.00	36870.46
521.17	36746.41
521.34	36809.61
521.52	36643.43
521.69	37174.73
521.86	37406.44
522.03	37008.55
522.20	37137.28
522.38	37223.88
522.55	37439.21
522.72	37120.90
522.89	37233.24
523.07	38082.86
523.24	37495.38
523.41	37797.31
523.58	37542.19
523.75	38075.84
523.92	37855.82
524.10	38106.26
524.27	37872.21
524.44	38108.60
524.61	38417.55
524.78	38225.63
524.96	38066.47
525.13	38445.64
525.30	38464.36
525.47	38843.53
525.64	38541.60
525.81	38244.35
525.98	38256.06
526.16	38033.71
526.33	37935.40
526.50	38366.06
526.67	38089.88
526.84	38239.67
527.01	37724.75
527.18	38455.00
527.36	39159.50
527.53	38986.30
527.70	39091.63
527.87	38876.30
528.04	39218.02
528.21	39583.14
528.38	39512.92
528.55	40245.51
528.72	39662.72
528.89	40198.70
529.07	39686.12
529.24	39791.45
529.41	39700.17
529.58	39538.67
529.75	39321.00
529.92	40329.77
530.09	39861.66
530.26	39849.96
530.43	40020.82
530.60	39625.27
530.77	39636.97
530.94	40437.44
531.11	40311.05
531.28	40605.95
531.46	40287.64
531.63	40425.73
531.80	40474.88
531.97	40411.69
532.14	40208.06
532.31	40011.46
532.48	40280.62
532.65	40608.29
532.82	40165.93
532.99	40725.32
533.16	40411.69
533.33	40847.03
533.50	41055.34
533.67	40739.36
533.84	40751.07
534.01	40711.28
534.18	41324.50
534.35	40926.61
534.52	41226.20
534.69	41319.82
534.86	41521.10
535.03	41390.03
535.20	41696.64
535.37	41689.62
535.54	41993.89
535.71	41724.73
535.88	41551.53
536.05	41481.31
536.22	41703.67
536.38	41408.76
536.55	41610.04
536.72	41706.01
536.89	41265.99
537.06	41291.73
537.23	41886.23
537.40	41745.80
537.57	42029.00
537.74	42115.60
537.91	42454.98
538.08	41949.42
538.25	41940.06
538.42	42150.71
538.59	42277.10
538.75	41720.05
538.92	42412.85
539.09	42284.12
539.26	42403.49
539.43	42117.94
539.60	41902.61
539.77	42094.53
539.94	42014.96
540.11	42354.33
540.28	42267.73
540.44	42082.83
540.61	42426.89
540.78	42309.86
540.95	42110.92
541.12	42588.39
541.29	42597.75
541.46	42543.92
541.62	42883.30
541.79	43234.38
541.96	42359.02
542.13	42600.09
542.30	42808.40
542.47	42955.85
542.63	43171.18
542.80	42965.21
542.97	43360.76
543.14	43030.75
543.31	43299.91
543.48	43643.97
543.64	44079.31
543.81	44219.74
543.98	44039.52
544.15	43590.14
544.32	43927.17
544.48	44247.83
544.65	43627.59
544.82	43812.49
544.99	43325.66
545.16	43863.98
545.32	43639.29
545.49	44254.85
545.66	43915.47
545.83	43992.71
546.00	43901.43
546.16	44062.93
546.33	43838.23
546.50	43863.98
546.67	44203.36
546.83	43896.75
547.00	43959.94
547.17	44156.55
547.34	44222.08
547.50	43931.86
547.67	44144.84
547.84	44250.17
548.00	44481.88
548.17	44844.66
548.34	44814.24
548.51	44772.11
548.67	44554.44
548.84	44524.01
549.01	44847.00
549.18	44179.95
549.34	44755.72
549.51	44603.59
549.68	44942.97
549.84	44755.72
550.01	44802.53
550.18	44804.88
550.34	44865.73
550.51	44507.63
550.68	44875.09
550.84	44144.84
551.01	44914.88
551.18	44622.31
551.34	44570.82
551.51	45261.28
551.68	44992.12
551.84	45216.81
552.01	45083.40
552.18	45151.27
552.34	44783.81
552.51	44671.46
552.68	45308.09
552.84	45235.53
553.01	45151.27
553.18	45265.96
553.34	45457.88
553.51	45261.28
553.67	45338.52
553.84	45382.99
554.01	45729.39
554.17	46007.91
554.34	45448.52
554.51	45787.90
554.67	45614.70
554.84	45689.60
555.00	45581.93
555.17	45521.08
555.33	45542.14
555.50	45837.05
555.67	45317.45
555.83	45542.14
556.00	45530.44
556.16	46068.76
556.33	45764.49
556.50	45390.01
556.66	45492.99
556.83	45457.88
556.99	45626.40
557.16	45614.70
557.32	45820.67
557.49	46368.35
557.65	46073.45
557.82	45918.97
557.98	45855.78
558.15	45551.51
558.32	45872.16
558.48	45387.67
558.65	45792.58
558.81	45708.32
558.98	45998.55
559.14	45729.39
559.31	45504.70
559.47	45865.14
559.64	46131.96
559.80	46216.22
559.97	45993.87
560.13	46115.58
560.30	45881.52
560.46	46164.73
560.63	46298.14
560.79	46740.50
560.96	46412.82
561.12	46164.73
561.29	46445.59
561.45	45993.87
561.61	45687.26
561.78	46068.76
561.94	45834.71
562.11	46131.96
562.27	46623.47
562.44	46068.76
562.60	46885.61
562.77	46401.12
562.93	46298.14
563.10	46672.62
563.26	46476.02
563.42	45837.05
563.59	46876.25
563.75	46225.58
563.92	46361.33
564.08	46302.82
564.24	46499.42
564.41	46307.50
564.57	46295.80
564.74	46579.00
564.90	46363.67
565.07	46316.86
565.23	46536.87
565.39	46232.60
565.56	46307.50
565.72	45844.07
565.88	46635.17
566.05	46651.56
566.21	45996.21
566.38	46256.01
566.54	46265.37
566.70	46368.35
566.87	46527.51
567.03	46679.64
567.19	47297.55
567.36	46745.18
567.52	46314.52
567.68	46752.20
567.85	46564.96
568.01	46382.40
568.17	46447.93
568.34	46358.99
568.50	46625.81
568.66	46576.66
568.83	46616.45
568.99	46412.82
569.15	46466.66
569.32	46162.39
569.48	46506.44
569.64	46923.06
569.81	46646.88
569.97	46712.41
570.13	46571.98
570.30	46307.50
570.46	46183.45
570.62	46248.99
570.78	46415.16
570.95	46429.21
571.11	46698.37
571.27	46181.11
571.43	46607.09
571.60	46902.00
571.76	46506.44
571.92	46532.19
572.09	46562.62
572.25	46916.04
572.41	46483.04
572.57	46983.91
572.74	47196.90
572.90	46855.18
573.06	46997.96
573.22	46791.99
573.38	46817.74
573.55	46532.19
573.71	46953.49
573.87	46932.42
574.03	46705.39
574.20	47145.41
574.36	46461.97
574.52	46391.76
574.68	46791.99
574.84	46328.56
575.01	46478.36
575.17	46527.51
575.33	46691.35
575.49	46548.57
575.65	47033.07
575.82	46848.16
575.98	46621.13
576.14	47126.69
576.30	46906.68
576.46	46174.09
576.62	46646.88
576.79	46520.49
576.95	46534.53
577.11	47194.56
577.27	46960.51
577.43	46124.94
577.59	46440.91
577.75	46609.43
577.92	46295.80
578.08	46171.75
578.24	46546.23
578.40	46653.90
578.56	46822.42
578.72	46791.99
578.88	46981.57
579.04	46855.18
579.21	46761.56
579.37	46885.61
579.53	46883.27
579.69	46452.61
579.85	46822.42
580.01	46962.85
580.17	46347.29
580.33	46178.77
580.49	47044.77
580.65	46834.12
580.82	46827.10
580.98	46588.36
581.14	46586.02
581.30	47288.18
581.46	46841.14
581.62	46965.19
581.78	46663.26
581.94	46859.87
582.10	46939.44
582.26	46831.78
582.42	46719.43
582.58	47334.99
582.74	47243.71
582.90	46885.61
583.06	46955.83
583.22	47154.77
583.38	47271.80
583.54	47168.82
583.70	47058.81
583.86	47019.02
584.02	46869.23
584.18	46791.99
584.34	47213.29
584.50	47047.11
584.66	46930.08
584.82	46948.81
584.98	47217.97
585.14	47189.88
585.30	46681.98
585.46	46911.36
585.62	46600.07
585.78	46588.36
585.94	46953.49
586.10	46834.12
586.26	46728.80
586.42	46986.25
586.58	47295.21
586.74	47147.75
586.90	46567.30
587.06	46925.40
587.22	46983.91
587.38	46630.49
587.54	46916.04
587.70	47271.80
587.86	46691.35
588.02	46923.06
588.18	47091.58
588.34	46321.54
588.49	46108.55
588.65	45886.20
588.81	46375.37
588.97	46518.15
589.13	46300.48
589.29	46604.75
589.45	46890.29
589.61	46658.58
589.77	46946.47
589.93	47051.79
