SpectraSuite Data File
++++++++++++++++++++++++++++++++++++
Date: Fri Oct 25 10:48:09 EDT 2013
User: price-jones
Dark Spectrum Present: No
Reference Spectrum Present: No
Number of Sampled Component Spectra: 1
Spectrometers: USB2+H05261
Integration Time (usec): 100000 (USB2+H05261)
Spectra Averaged: 1 (USB2+H05261)
Boxcar Smoothing: 0 (USB2+H05261)
Correct for Electrical Dark: No (USB2+H05261)
Strobe/Lamp Enabled: No (USB2+H05261)
Correct for Detector Non-linearity: No (USB2+H05261)
Correct for Stray Light: No (USB2+H05261)
Number of Pixels in Processed Spectrum: 2048
>>>>>Begin Processed Spectral Data<<<<<
365.73	191.92
365.92	191.92
366.12	191.92
366.32	112.35
366.52	60.85
366.72	98.30
366.91	88.94
367.11	35.11
367.31	16.38
367.51	21.06
367.70	93.62
367.90	93.62
368.10	18.72
368.30	0.00
368.49	28.09
368.69	112.35
368.89	42.13
369.09	23.41
369.28	77.24
369.48	86.60
369.68	98.30
369.87	84.26
370.07	191.92
370.27	210.65
370.47	227.03
370.66	393.21
370.86	461.09
371.06	463.43
371.25	421.30
371.45	360.44
371.65	507.90
371.84	503.22
372.04	440.02
372.24	421.30
372.44	388.53
372.63	425.98
372.83	496.19
373.03	592.16
373.22	538.32
373.42	564.07
373.62	524.28
373.81	521.94
374.01	540.66
374.21	564.07
374.40	538.32
374.60	585.13
374.79	526.62
374.99	519.60
375.19	557.05
375.38	557.05
375.58	568.75
375.78	559.39
375.97	643.65
376.17	543.00
376.37	528.96
376.56	599.18
376.76	557.05
376.95	650.67
377.15	620.24
377.35	690.46
377.54	528.96
377.74	519.60
377.93	568.75
378.13	641.31
378.33	678.76
378.52	627.26
378.72	683.44
378.91	657.69
379.11	589.82
379.31	592.16
379.50	681.10
379.70	662.37
379.89	657.69
380.09	615.56
380.28	641.31
380.48	655.35
380.68	697.48
380.87	636.63
381.07	751.31
381.26	610.88
381.46	543.00
381.65	643.65
381.85	643.65
382.04	617.90
382.24	648.33
382.43	650.67
382.63	704.50
382.83	681.10
383.02	739.61
383.22	648.33
383.41	702.16
383.61	674.07
383.80	823.87
384.00	674.07
384.19	706.84
384.39	784.08
384.58	772.38
384.78	777.06
384.97	821.53
385.17	706.84
385.36	739.61
385.56	795.78
385.75	723.23
385.95	767.70
386.14	711.52
386.34	706.84
386.53	807.48
386.72	842.59
386.92	851.96
387.11	837.91
387.31	814.51
387.50	821.53
387.70	835.57
387.89	858.98
388.09	805.14
388.28	793.44
388.48	718.54
388.67	887.06
388.86	912.81
389.06	858.98
389.25	947.92
389.45	830.89
389.64	891.74
389.84	889.40
390.03	856.64
390.22	924.51
390.42	957.28
390.61	823.87
390.81	940.90
391.00	894.08
391.19	1020.47
391.39	990.05
391.58	926.85
391.78	968.98
391.97	978.34
392.16	933.87
392.36	945.58
392.55	1008.77
392.75	971.32
392.94	915.15
393.13	980.68
393.33	884.72
393.52	957.28
393.71	1057.92
393.91	936.21
394.10	938.55
394.29	1069.62
394.49	1069.62
394.68	1153.88
394.88	1097.71
395.07	1006.43
395.26	1116.44
395.46	1086.01
395.65	1139.84
395.84	1114.10
396.04	1186.65
396.23	1074.31
396.42	1036.86
396.62	1165.59
396.81	1151.54
397.00	1067.28
397.19	1107.07
397.39	1184.31
397.58	1266.23
397.77	1291.98
397.97	1212.40
398.16	1228.78
398.35	1238.14
398.55	1210.06
398.74	1247.51
398.93	1366.87
399.12	1249.85
399.32	1228.78
399.51	1327.08
399.70	1287.29
399.90	1287.29
400.09	1406.66
400.28	1455.81
400.47	1401.98
400.67	1458.15
400.86	1490.92
401.05	1507.30
401.24	1378.58
401.44	1444.11
401.63	1540.07
401.82	1479.22
402.01	1362.19
402.21	1481.56
402.40	1446.45
402.59	1528.37
402.78	1483.90
402.97	1607.95
403.17	1540.07
403.36	1549.43
403.55	1596.25
403.74	1589.22
403.93	1584.54
404.13	1636.03
404.32	1577.52
404.51	1640.72
404.70	1713.27
404.89	1612.63
405.09	1689.87
405.28	1701.57
405.47	1603.27
405.66	1734.34
405.85	1685.19
406.05	1671.14
406.24	1811.57
406.43	1853.70
406.62	1827.96
406.81	1856.04
407.00	1811.57
407.20	1757.74
407.39	1797.53
407.58	1832.64
407.77	1916.90
407.96	1900.52
408.15	1912.22
408.34	1928.60
408.54	1790.51
408.73	1928.60
408.92	1867.75
409.11	1998.82
409.30	2019.88
409.49	1966.05
409.68	2047.97
409.87	2054.99
410.07	2101.80
410.26	2101.80
410.45	2097.12
410.64	2125.21
410.83	2143.93
411.02	2083.08
411.21	2174.36
411.40	2223.51
411.59	2256.28
411.78	2146.27
411.98	2286.70
412.17	2286.70
412.36	2293.72
412.55	2324.15
412.74	2396.71
412.93	2441.18
413.12	2312.45
413.31	2424.80
413.50	2450.54
413.69	2450.54
413.88	2532.46
414.07	2490.33
414.26	2595.65
414.45	2509.05
414.64	2614.38
414.83	2626.08
415.02	2619.06
415.22	2689.28
415.41	2712.68
415.60	2722.04
415.79	2782.90
415.98	2719.70
416.17	2923.33
416.36	2778.22
416.55	2869.50
416.74	2902.26
416.93	2897.58
417.12	2904.60
417.31	2928.01
417.50	2871.84
417.69	3023.97
417.88	3045.04
418.07	3162.06
418.26	3030.99
418.45	3007.59
418.64	3126.96
418.83	3162.06
419.02	3059.08
419.21	3251.00
419.39	3152.70
419.58	3201.85
419.77	3091.85
419.96	3133.98
420.15	3204.19
420.34	3206.53
420.53	3382.07
420.72	3318.88
420.91	3309.52
421.10	3386.76
421.29	3471.01
421.48	3269.73
421.67	3522.51
421.86	3391.44
422.05	3433.57
422.24	3398.46
422.43	3265.05
422.61	3302.50
422.80	3384.41
422.99	3393.78
423.18	3485.06
423.37	3543.57
423.56	3421.86
423.75	3431.23
423.94	3487.40
424.13	3384.41
424.32	3321.22
424.50	3517.83
424.69	3576.34
424.88	3611.45
425.07	3407.82
425.26	3506.12
425.45	3527.19
425.64	3515.48
425.83	3421.86
426.01	3447.61
426.20	3611.45
426.39	3552.93
426.58	3557.61
426.77	3611.45
426.96	3574.00
427.15	3421.86
427.33	3667.62
427.52	3599.74
427.71	3662.94
427.90	3688.68
428.09	3728.47
428.28	3658.26
428.46	3653.58
428.65	3632.51
428.84	3735.50
429.03	3627.83
429.22	3702.73
429.40	3662.94
429.59	3777.62
429.78	3691.02
429.97	3581.02
430.16	3742.52
430.34	3789.33
430.53	3852.52
430.72	3859.54
430.91	3819.75
431.10	3904.01
431.28	4060.83
431.47	4058.49
431.66	4166.15
431.85	3988.27
432.03	4215.30
432.22	4163.81
432.41	4114.66
432.60	4159.13
432.79	4098.28
432.97	4203.60
433.16	4196.58
433.35	4058.49
433.54	4243.39
433.72	4159.13
433.91	4138.07
434.10	4266.80
434.28	4252.75
434.47	4388.50
434.66	4379.14
434.85	4318.29
435.03	4465.74
435.22	4407.23
435.41	4374.46
435.59	4437.66
435.78	4365.10
435.97	4535.96
436.16	4416.59
436.34	4540.64
436.53	4524.26
436.72	4667.03
436.90	4538.30
437.09	4702.14
437.28	4585.11
437.46	4559.36
437.65	4496.17
437.84	4716.18
438.02	4744.27
438.21	4627.24
438.40	4542.98
438.58	4730.22
438.77	4844.91
438.96	4915.12
439.14	4762.99
439.33	4950.23
439.52	4980.66
439.70	4987.68
439.89	5011.09
440.08	4873.00
440.26	4978.32
440.45	5109.39
440.63	5111.73
440.82	5238.12
441.01	5289.61
441.19	5458.13
441.38	5277.91
441.57	5350.46
441.75	5430.04
441.94	5584.52
442.12	5549.41
442.31	5507.28
442.50	5547.07
442.68	5493.24
442.87	5511.96
443.05	5530.69
443.24	5671.12
443.43	5713.25
443.61	5771.76
443.80	5860.70
443.98	5605.58
444.17	5439.40
444.35	5696.86
444.54	5741.33
444.73	5792.83
444.91	5596.22
445.10	5767.08
445.28	5767.08
445.47	5570.48
445.65	5722.61
445.84	5898.15
446.02	5926.24
446.21	5959.00
446.39	5827.93
446.58	5867.72
446.77	5820.91
446.95	5767.08
447.14	5980.07
447.32	6136.88
447.51	5813.89
447.69	5771.76
447.88	5813.89
448.06	5928.58
448.25	5900.49
448.43	5844.32
448.62	5935.60
448.80	5724.95
448.99	5947.30
449.17	5900.49
449.36	6059.65
449.54	6059.65
449.73	6155.61
449.91	6300.72
450.10	6314.77
450.28	6282.00
450.46	6305.40
450.65	6202.42
450.83	6160.29
451.02	6368.60
451.20	6340.51
451.39	6363.92
451.57	6256.25
451.76	6317.11
451.94	6373.28
452.13	6429.45
452.31	6256.25
452.49	6321.79
452.68	6361.58
452.86	6380.30
453.05	6558.18
453.23	6483.28
453.42	6363.92
453.60	6441.15
453.78	6424.77
453.97	6445.84
454.15	6441.15
454.34	6408.39
454.52	6768.83
454.70	6431.79
454.89	6640.10
455.07	6909.26
455.26	6668.19
455.44	6883.52
455.62	6761.81
455.81	6679.89
455.99	6759.47
456.17	7087.14
456.36	6993.52
456.54	7075.44
456.73	7045.01
456.91	7091.82
457.09	6960.75
457.28	7222.89
457.46	6946.71
457.64	7187.79
457.83	7225.23
458.01	7042.67
458.19	7119.91
458.38	7183.10
458.56	7342.26
458.74	7339.92
458.93	7304.81
459.11	7428.86
459.29	7297.79
459.48	7480.35
459.66	7356.30
459.84	7433.54
460.03	7564.61
460.21	7637.17
460.39	7573.97
460.57	7583.34
460.76	7562.27
460.94	7583.34
461.12	7676.96
461.31	7606.74
461.49	7845.48
461.67	7597.38
461.85	7791.64
462.04	7777.60
462.22	8222.30
462.40	7812.71
462.59	7775.26
462.77	7824.41
462.95	7847.82
463.13	7805.69
463.32	7810.37
463.50	7861.86
463.68	8053.78
463.86	7988.25
464.05	7786.96
464.23	8145.06
464.41	8016.33
464.59	7840.79
464.78	8138.04
464.96	8004.63
465.14	8093.57
465.32	8058.46
465.50	8131.02
465.69	8042.08
465.87	8322.94
466.05	8219.96
466.23	8234.00
466.41	8294.86
466.60	8540.61
466.78	8446.99
466.96	8269.11
467.14	8234.00
467.32	8428.27
467.51	8486.78
467.69	8203.58
467.87	8325.29
468.05	8475.08
468.23	8212.94
468.41	8400.18
468.60	8610.83
468.78	8425.93
468.96	8620.19
469.14	8596.79
469.32	8826.16
469.50	8538.27
469.69	8805.10
469.87	8791.05
470.05	8699.77
470.23	9015.74
470.41	8730.20
470.59	8961.91
470.77	8917.44
470.95	8943.19
471.14	9036.81
471.32	8901.06
471.50	9287.25
471.68	9329.38
471.86	9015.74
472.04	9158.52
472.22	9282.56
472.40	9130.43
472.58	9291.93
472.77	9401.93
472.95	9462.79
473.13	9860.68
473.31	9287.25
473.49	9439.38
473.67	9268.52
473.85	9392.57
474.03	9809.19
474.21	9834.93
474.39	9727.27
474.57	9867.70
474.75	9937.91
474.93	10059.62
475.12	10031.54
475.30	10029.20
475.48	10064.30
475.66	10090.05
475.84	9928.55
476.02	10293.68
476.20	10214.10
476.38	10630.71
476.56	10583.90
476.74	10689.23
476.92	10576.88
477.10	10640.08
477.28	10707.95
477.46	10621.35
477.64	11110.52
477.82	11150.31
478.00	11070.73
478.18	11176.06
478.36	11236.91
478.54	11506.07
478.72	11229.89
478.90	11386.71
479.08	11674.59
479.26	11864.18
479.44	11688.64
479.62	11880.56
479.80	11857.15
479.98	11983.54
480.16	12301.86
480.34	12184.83
480.52	12294.83
480.70	12056.10
480.88	12091.21
481.06	12418.88
481.24	12503.14
481.41	12409.52
481.59	12872.95
481.77	12809.75
481.95	12889.33
482.13	13200.62
482.31	13118.70
482.49	13401.91
482.67	13266.16
482.85	13327.01
483.03	13598.51
483.21	13668.73
483.39	13757.67
483.57	13792.78
483.74	13949.59
483.92	14052.58
484.10	13984.70
484.28	14265.57
484.46	14511.32
484.64	14600.26
484.82	14651.75
485.00	14796.87
485.18	14993.47
485.35	15005.17
485.53	15026.24
485.71	15117.52
485.89	15070.71
486.07	15367.96
486.25	15274.34
486.43	15194.76
486.61	15669.89
486.78	15793.94
486.96	15815.00
487.14	16315.87
487.32	16250.34
487.50	16262.04
487.68	16451.63
487.85	16671.64
488.03	16613.12
488.21	16872.92
488.39	16734.83
488.57	17048.46
488.75	17090.59
488.92	17177.19
489.10	17652.32
489.28	17380.82
489.46	17570.40
489.64	17380.82
489.81	17989.36
489.99	18466.83
490.17	18565.13
490.35	18455.12
490.53	18515.98
490.70	18614.28
490.88	18544.06
491.06	19115.16
491.24	18948.98
491.41	18771.10
491.59	18757.05
491.77	19337.51
491.95	19208.78
492.13	19304.74
492.30	19459.21
492.48	19543.47
492.66	19896.89
492.84	19587.94
493.01	20016.26
493.19	19964.77
493.37	19915.62
493.54	20236.27
493.72	20367.34
493.90	20648.21
494.08	20856.51
494.25	21099.93
494.43	21151.42
494.61	20779.28
494.79	21413.56
494.96	21167.80
495.14	21261.43
495.32	21525.91
495.49	21790.39
495.67	21497.82
495.85	21879.33
496.02	21687.40
496.20	22188.28
496.38	22040.82
496.55	22244.45
496.73	22696.17
496.91	22153.17
497.09	22312.33
497.26	22696.17
497.44	22335.73
497.62	23023.85
497.79	23075.34
497.97	23281.31
498.14	23159.60
498.32	23276.63
498.50	23152.58
498.67	23445.15
498.85	23672.18
499.03	23974.11
499.20	24013.90
499.38	24056.03
499.56	23901.55
499.73	24147.31
499.91	24079.43
500.08	24343.91
500.26	24102.84
500.44	24400.08
500.61	24259.65
500.79	24266.67
500.97	24786.27
501.14	25046.07
501.32	24982.88
501.49	24915.00
501.67	25017.99
501.84	25104.59
502.02	25259.06
502.20	25359.70
502.37	25497.80
502.55	25340.98
502.72	25605.46
502.90	25715.47
503.07	25259.06
503.25	25633.55
503.43	25942.50
503.60	26008.03
503.78	26033.78
503.95	26001.01
504.13	25905.05
504.30	26235.06
504.48	26075.91
504.65	26450.39
504.83	26651.68
505.01	26686.79
505.18	26506.57
505.36	26747.64
505.53	26981.70
505.71	26766.37
505.88	27309.37
506.06	26820.20
506.23	27030.85
506.41	27234.47
506.58	27267.24
506.76	27498.95
506.93	27475.55
507.11	27510.66
507.28	27791.52
507.46	27653.43
507.63	27407.67
507.81	27803.22
507.98	27971.74
508.16	27503.64
508.33	28364.95
508.50	27789.18
508.68	28130.90
508.85	28194.09
509.03	28505.38
509.20	28334.53
509.38	29085.84
509.55	28795.61
509.73	28844.76
509.90	28765.18
510.08	28821.36
510.25	28699.65
510.42	28987.53
510.60	29537.56
510.77	29205.20
510.95	29071.79
511.12	29125.63
511.30	29160.73
511.47	29809.06
511.64	29670.97
511.82	29638.20
511.99	29521.18
512.17	30349.73
512.34	29851.19
512.51	29961.20
512.69	30689.10
512.86	29865.24
513.04	30431.65
513.21	30415.26
513.38	30333.34
513.56	30696.13
513.73	30267.81
513.90	30630.59
514.08	30312.28
514.25	30448.03
514.43	30719.53
514.60	30541.65
514.77	30738.26
514.95	30946.56
515.12	30909.11
515.29	30988.69
515.47	31552.76
515.64	31456.80
515.81	31014.44
515.99	31164.23
516.16	31491.91
516.33	31442.76
516.51	31576.17
516.68	31491.91
516.85	31496.59
517.03	31424.03
517.20	31796.18
517.37	31651.06
517.54	31927.25
517.72	31702.56
517.89	31962.36
518.06	31988.10
518.24	32381.31
518.41	32016.19
518.58	31763.41
518.75	32011.51
518.93	32280.67
519.10	32470.25
519.27	32690.26
519.45	32540.47
519.62	32893.89
519.79	32872.82
519.96	32856.44
520.14	33017.94
520.31	33268.37
520.48	33104.54
520.65	32959.42
520.83	33340.93
521.00	33441.57
521.17	33247.31
521.34	33364.34
521.52	33635.84
521.69	33722.44
521.86	33635.84
522.03	33839.47
522.20	33827.76
522.38	33956.49
522.55	33780.95
522.72	33818.40
522.89	33823.08
523.07	33677.97
523.24	33605.41
523.41	34103.95
523.58	34246.72
523.75	34438.64
523.92	34948.88
524.10	34653.97
524.27	34630.57
524.44	34710.14
524.61	34803.77
524.78	35079.95
524.96	34693.76
525.13	34934.84
525.30	35328.05
525.47	35377.20
525.64	35182.93
525.81	35220.38
525.98	35051.86
526.16	34955.90
526.33	35335.07
526.50	35285.92
526.67	35248.47
526.84	35054.20
527.01	35166.55
527.18	35695.51
527.36	35700.19
527.53	35538.69
527.70	35969.35
527.87	35931.90
528.04	35983.40
528.21	35892.12
528.38	35730.62
528.55	35842.96
528.72	36002.12
528.89	36285.33
529.07	36332.14
529.24	35711.89
529.41	36449.16
529.58	36048.93
529.75	36187.02
529.92	36126.17
530.09	36250.22
530.26	36598.96
530.43	36400.01
530.60	35999.78
530.77	36374.27
530.94	36552.15
531.11	36395.33
531.28	36781.52
531.46	37001.53
531.63	36989.83
531.80	37167.71
531.97	37244.94
532.14	37361.97
532.31	36601.30
532.48	36767.48
532.65	37038.98
532.82	37228.56
532.99	36943.02
533.16	37008.55
533.33	37577.30
533.50	37663.90
533.67	37596.03
533.84	37488.36
534.01	37818.38
534.18	37598.37
534.35	38012.64
534.52	37266.01
534.69	37315.16
534.86	37729.44
535.03	37635.81
535.20	38003.28
535.37	38167.12
535.54	38211.59
535.71	38459.68
535.88	38141.37
536.05	37778.59
536.22	38136.69
536.38	38518.20
536.55	38305.21
536.72	38113.28
536.89	38209.25
537.06	38447.98
537.23	38635.22
537.40	38366.06
537.57	38513.52
537.74	38583.73
537.91	39147.80
538.08	38707.78
538.25	39108.01
538.42	38937.15
538.59	38663.31
538.75	38614.16
538.92	39065.88
539.09	38998.01
539.26	38976.94
539.43	39051.84
539.60	38934.81
539.77	38965.24
539.94	39393.56
540.11	39077.58
540.28	38967.58
540.44	39489.52
540.61	38920.77
540.78	39035.45
540.95	39009.71
541.12	39227.38
541.29	39332.70
541.46	39414.62
541.62	39480.16
541.79	39435.69
541.96	39573.78
542.13	39260.15
542.30	40137.85
542.47	39819.53
542.63	39594.84
542.80	39679.10
542.97	39943.58
543.14	40540.42
543.31	40257.21
543.48	40395.31
543.64	40460.84
543.81	40748.73
543.98	40116.78
544.15	40271.26
544.32	40671.49
544.48	40650.42
544.65	40491.27
544.82	40341.47
544.99	40051.25
545.16	40676.17
545.32	40556.80
545.49	40683.19
545.66	40631.70
545.83	41202.79
546.00	41153.64
546.16	40779.15
546.33	40971.08
546.50	40318.07
546.67	40765.11
546.83	40477.22
547.00	40580.21
547.17	40982.78
547.34	40999.16
547.50	41029.59
547.67	40861.07
547.84	41020.23
548.00	41640.47
548.17	41137.26
548.34	41406.42
548.51	41366.63
548.67	41469.61
548.84	41053.00
549.01	41411.10
549.18	41390.03
549.34	41895.59
549.51	41542.17
549.68	41937.72
549.84	41455.57
550.01	41867.50
550.18	41333.86
550.34	41443.87
550.51	41434.50
550.68	41617.07
550.84	41380.67
551.01	41240.24
551.18	41773.88
551.34	41556.21
551.51	41570.25
551.68	41752.82
551.84	42190.50
552.01	41471.95
552.18	42092.19
552.34	41759.84
552.51	42089.85
552.68	42110.92
552.84	42155.39
553.01	42628.18
553.18	42377.74
553.34	42218.58
553.51	41720.05
553.67	42005.59
553.84	42518.17
554.01	41965.81
554.17	42953.51
554.34	42419.87
554.51	42651.58
554.67	42506.47
554.84	42351.99
555.00	42387.10
555.17	42089.85
555.33	42787.33
555.50	42621.16
555.67	42529.87
555.83	42918.40
556.00	43033.09
556.16	43288.21
556.33	42586.05
556.50	42829.46
556.66	43037.77
556.83	42525.19
556.99	42902.02
557.16	43086.92
557.32	42450.30
557.49	43566.73
557.65	43016.71
557.82	42876.27
557.98	43002.66
558.15	42405.83
558.32	43320.98
558.48	42735.84
558.65	42939.47
558.81	42864.57
558.98	43133.73
559.14	43072.88
559.31	42937.13
559.47	43166.50
559.64	43620.56
559.80	43447.36
559.97	43285.87
560.13	42986.28
560.30	43374.81
560.46	43239.06
560.63	43098.62
560.79	43463.75
560.96	43866.32
561.12	43342.04
561.29	43196.93
561.45	43103.31
561.61	43442.68
561.78	43594.82
561.94	43166.50
562.11	43356.08
562.27	43243.74
562.44	43814.83
562.60	43545.67
562.77	43955.26
562.93	43463.75
563.10	43599.50
563.26	43199.27
563.42	43824.19
563.59	43459.07
563.75	43887.39
563.92	43285.87
564.08	43613.54
564.24	43650.99
564.41	43557.37
564.57	43243.74
564.74	43817.17
564.90	44093.35
565.07	43583.12
565.23	43973.98
565.39	43718.87
565.56	43503.54
565.72	43643.97
565.88	43828.87
566.05	43636.95
566.21	43669.72
566.38	43585.46
566.54	43821.85
566.70	44062.93
566.87	44114.42
567.03	44006.75
567.19	44385.92
567.36	44287.62
567.52	43852.28
567.68	44362.51
567.85	44016.11
568.01	43856.96
568.17	43894.41
568.34	43803.13
568.50	43889.73
568.66	43728.23
568.83	43814.83
568.99	43765.68
569.15	43824.19
569.32	43566.73
569.48	43365.45
569.64	44020.80
569.81	44030.16
569.97	43622.90
570.13	43894.41
570.30	43746.95
570.46	44161.23
570.62	43800.79
570.78	44037.18
570.95	43833.55
571.11	44062.93
571.27	43812.49
571.43	44086.33
571.60	44442.09
571.76	44371.88
571.92	43557.37
572.09	44098.03
572.25	43896.75
572.41	43669.72
572.57	44083.99
572.74	44809.56
572.90	44044.20
573.06	44186.97
573.22	44278.25
573.38	44336.77
573.55	43885.04
573.71	44959.35
573.87	44140.16
574.03	44091.01
574.20	44261.87
574.36	44194.00
574.52	44683.17
574.68	44495.92
574.84	44238.47
575.01	44416.35
575.17	44203.36
575.33	43948.24
575.49	44098.03
575.65	44189.31
575.82	44435.07
575.98	44388.26
576.14	44725.30
576.30	44414.01
576.46	44116.76
576.62	44397.62
576.79	43955.26
576.95	43672.06
577.11	44406.98
577.27	44275.91
577.43	44671.46
577.59	44369.54
577.75	44430.39
577.92	44184.63
578.08	44053.56
578.24	43910.79
578.40	44081.65
578.56	44573.16
578.72	44360.17
578.88	44030.16
579.04	44327.41
579.21	44360.17
579.37	44076.97
579.53	43950.58
579.69	43938.88
579.85	44369.54
580.01	44428.05
580.17	44285.28
580.33	44666.78
580.49	44570.82
580.65	44320.38
580.82	44435.07
580.98	44004.41
581.14	44858.71
581.30	44245.49
581.46	44570.82
581.62	44336.77
581.78	44449.11
581.94	44856.37
582.10	44247.83
582.26	44772.11
582.42	44563.80
582.58	44624.65
582.74	44217.40
582.90	44432.73
583.06	44612.95
583.22	44680.83
583.38	44907.86
583.54	44425.71
583.70	44755.72
583.86	44142.50
584.02	44439.75
584.18	44729.98
584.34	44435.07
584.50	44299.32
584.66	44179.95
584.82	44179.95
584.98	44786.15
585.14	44694.87
585.30	44107.40
585.46	44334.43
585.62	44423.37
585.78	44292.30
585.94	44102.71
586.10	44011.43
586.26	44402.30
586.42	44760.40
586.58	44423.37
586.74	44509.97
586.90	44395.28
587.06	44624.65
587.22	44769.77
587.38	44147.18
587.54	44999.14
587.70	44559.12
587.86	44479.54
588.02	44453.79
588.18	44821.26
588.34	44594.23
588.49	44645.72
588.65	44395.28
588.81	44217.40
588.97	44348.47
589.13	44402.30
589.29	44547.42
589.45	44275.91
589.61	44992.12
589.77	45062.33
589.93	44919.56
590.08	44772.11
590.24	45057.65
