SpectraSuite Data File
++++++++++++++++++++++++++++++++++++
Date: Fri Oct 25 10:48:06 EDT 2013
User: price-jones
Dark Spectrum Present: No
Reference Spectrum Present: No
Number of Sampled Component Spectra: 1
Spectrometers: USB2+H05261
Integration Time (usec): 100000 (USB2+H05261)
Spectra Averaged: 1 (USB2+H05261)
Boxcar Smoothing: 0 (USB2+H05261)
Correct for Electrical Dark: No (USB2+H05261)
Strobe/Lamp Enabled: No (USB2+H05261)
Correct for Detector Non-linearity: No (USB2+H05261)
Correct for Stray Light: No (USB2+H05261)
Number of Pixels in Processed Spectrum: 2048
>>>>>Begin Processed Spectral Data<<<<<
365.73	159.16
365.92	159.16
366.12	159.16
366.32	81.92
366.52	46.81
366.72	25.75
366.91	86.60
367.11	32.77
367.31	14.04
367.51	39.79
367.70	35.11
367.90	77.24
368.10	35.11
368.30	42.13
368.49	42.13
368.69	30.43
368.89	74.90
369.09	53.83
369.28	128.73
369.48	86.60
369.68	138.09
369.87	138.09
370.07	102.98
370.27	187.24
370.47	220.01
370.66	365.12
370.86	351.08
371.06	421.30
371.25	461.09
371.45	423.64
371.65	437.68
371.84	425.98
372.04	477.47
372.24	528.96
372.44	475.13
372.63	528.96
372.83	351.08
373.03	418.96
373.22	526.62
373.42	526.62
373.62	505.56
373.81	528.96
374.01	587.47
374.21	566.41
374.40	582.79
374.60	629.60
374.79	425.98
374.99	496.19
375.19	500.87
375.38	606.20
375.58	578.11
375.78	547.69
375.97	540.66
376.17	669.39
376.37	547.69
376.56	512.58
376.76	578.11
376.95	629.60
377.15	561.73
377.35	578.11
377.54	571.09
377.74	528.96
377.93	709.18
378.13	580.45
378.33	650.67
378.52	587.47
378.72	685.78
378.91	559.39
379.11	557.05
379.31	662.37
379.50	636.63
379.70	681.10
379.89	561.73
380.09	613.22
380.28	585.13
380.48	610.88
380.68	627.26
380.87	671.73
381.07	674.07
381.26	678.76
381.46	718.54
381.65	702.16
381.85	671.73
382.04	615.56
382.24	690.46
382.43	671.73
382.63	716.20
382.83	622.58
383.02	737.27
383.22	732.59
383.41	627.26
383.61	732.59
383.80	763.01
384.00	709.18
384.19	685.78
384.39	795.78
384.58	699.82
384.78	847.27
384.97	777.06
385.17	772.38
385.36	706.84
385.56	716.20
385.75	800.46
385.95	753.65
386.14	770.04
386.34	819.19
386.53	884.72
386.72	704.50
386.92	816.85
387.11	849.61
387.31	758.33
387.50	760.67
387.70	753.65
387.89	814.51
388.09	748.97
388.28	861.32
388.48	828.55
388.67	933.87
388.86	938.55
389.06	880.04
389.25	901.11
389.45	901.11
389.64	858.98
389.84	875.36
390.03	1004.09
390.22	891.74
390.42	880.04
390.61	959.62
390.81	873.02
391.00	908.13
391.19	905.79
391.39	821.53
391.58	964.30
391.78	912.81
391.97	1027.50
392.16	952.60
392.36	987.71
392.55	1008.77
392.75	940.90
392.94	990.05
393.13	940.90
393.33	992.39
393.52	908.13
393.71	1039.20
393.91	896.43
394.10	964.30
394.29	1121.12
394.49	1036.86
394.68	1123.46
394.88	1050.90
395.07	1137.50
395.26	1123.46
395.46	1071.97
395.65	1078.99
395.84	1078.99
396.04	1095.37
396.23	1069.62
396.42	1116.44
396.62	1121.12
396.81	1135.16
397.00	1188.99
397.19	1170.27
397.39	1165.59
397.58	1151.54
397.77	1205.38
397.97	1329.42
398.16	1221.76
398.35	1273.25
398.55	1252.19
398.74	1224.10
398.93	1310.70
399.12	1336.45
399.32	1334.11
399.51	1306.02
399.70	1404.32
399.90	1303.68
400.09	1364.53
400.28	1378.58
400.47	1299.00
400.67	1390.28
400.86	1432.41
401.05	1359.85
401.24	1432.41
401.44	1514.33
401.63	1453.47
401.82	1528.37
402.01	1507.30
402.21	1423.05
402.40	1514.33
402.59	1540.07
402.78	1535.39
402.97	1497.94
403.17	1577.52
403.36	1495.60
403.55	1563.48
403.74	1605.61
403.93	1598.59
404.13	1614.97
404.32	1640.72
404.51	1568.16
404.70	1640.72
404.89	1661.78
405.09	1645.40
405.28	1584.54
405.47	1657.10
405.66	1584.54
405.85	1708.59
406.05	1696.89
406.24	1741.36
406.43	1795.19
406.62	1851.36
406.81	1879.45
407.00	1762.42
407.20	1706.25
407.39	1846.68
407.58	1905.20
407.77	1930.94
407.96	1884.13
408.15	1874.77
408.34	1947.33
408.54	1930.94
408.73	1930.94
408.92	1905.20
409.11	1975.41
409.30	1982.43
409.49	1916.90
409.68	1923.92
409.87	2071.37
410.07	2005.84
410.26	2015.20
410.45	2064.35
410.64	2031.58
410.83	2069.03
411.02	2139.25
411.21	2237.55
411.40	2172.02
411.59	2321.81
411.78	2214.15
411.98	2256.28
412.17	2260.96
412.36	2326.49
412.55	2270.32
412.74	2459.90
412.93	2368.62
413.12	2305.43
413.31	2534.80
413.50	2410.75
413.69	2487.99
413.88	2537.14
414.07	2619.06
414.26	2572.25
414.45	2602.68
414.64	2696.30
414.83	2595.65
415.02	2635.44
415.22	2607.36
415.41	2616.72
415.60	2766.51
415.79	2733.75
415.98	2766.51
416.17	2736.09
416.36	2874.18
416.55	2731.41
416.74	2839.07
416.93	2832.05
417.12	2883.54
417.31	2799.28
417.50	2956.10
417.69	3042.70
417.88	2977.16
418.07	2937.37
418.26	2876.52
418.45	3061.42
418.64	3124.62
418.83	3222.92
419.02	3059.08
419.21	3133.98
419.39	3204.19
419.58	3068.44
419.77	3066.10
419.96	3183.13
420.15	3255.69
420.34	3215.90
420.53	3155.04
420.72	3304.84
420.91	3274.41
421.10	3370.37
421.29	3412.50
421.48	3201.85
421.67	3307.18
421.86	3288.45
422.05	3405.48
422.24	3325.90
422.43	3440.59
422.61	3353.99
422.80	3562.30
422.99	3494.42
423.18	3482.72
423.37	3581.02
423.56	3328.24
423.75	3459.31
423.94	3508.46
424.13	3204.19
424.32	3276.75
424.50	3456.97
424.69	3543.57
424.88	3506.12
425.07	3569.32
425.26	3379.73
425.45	3548.25
425.64	3543.57
425.83	3541.23
426.01	3480.38
426.20	3581.02
426.39	3440.59
426.58	3480.38
426.77	3440.59
426.96	3595.06
427.15	3482.72
427.33	3644.21
427.52	3641.87
427.71	3597.40
427.90	3684.00
428.09	3768.26
428.28	3714.43
428.46	3585.70
428.65	3676.98
428.84	3826.78
429.03	3812.73
429.22	3765.92
429.40	3625.49
429.59	3728.47
429.78	3660.60
429.97	3538.89
430.16	3768.26
430.34	3754.22
430.53	3798.69
430.72	3815.07
430.91	3775.28
431.10	3913.38
431.28	4056.15
431.47	4063.17
431.66	4114.66
431.85	3904.01
432.03	3974.23
432.22	4259.78
432.41	4030.40
432.60	4081.89
432.79	4147.43
432.97	4154.45
433.16	4098.28
433.35	4063.17
433.54	4121.68
433.72	4119.34
433.91	4238.71
434.10	4191.90
434.28	4276.16
434.47	4269.14
434.66	4449.36
434.85	4337.01
435.03	4482.13
435.22	4259.78
435.41	4507.87
435.59	4442.34
435.78	4484.47
435.97	4510.21
436.16	4440.00
436.34	4442.34
436.53	4395.53
436.72	4711.50
436.90	4475.10
437.09	4547.66
437.28	4500.85
437.46	4540.64
437.65	4550.00
437.84	4660.01
438.02	4578.09
438.21	4613.20
438.40	4468.08
438.58	4706.82
438.77	4664.69
438.96	4833.21
439.14	4772.35
439.33	4938.53
439.52	4905.76
439.70	4786.40
439.89	5025.13
440.08	4933.85
440.26	5032.15
440.45	5097.69
440.63	5193.65
440.82	5238.12
441.01	5233.44
441.19	5217.05
441.38	5284.93
441.57	5280.25
441.75	5509.62
441.94	5675.80
442.12	5380.89
442.31	5502.60
442.50	5511.96
442.68	5507.28
442.87	5666.44
443.05	5636.01
443.24	5666.44
443.43	5542.39
443.61	5586.86
443.80	5729.63
443.98	5666.44
444.17	5462.81
444.35	5771.76
444.54	5874.74
444.73	5839.64
444.91	5827.93
445.10	5685.16
445.28	5783.46
445.47	5748.36
445.65	5568.13
445.84	5785.80
446.02	5675.80
446.21	5781.12
446.39	5577.50
446.58	5888.79
446.77	5968.37
446.95	5708.57
447.14	5813.89
447.32	5820.91
447.51	5699.20
447.69	5863.04
447.88	5863.04
448.06	6045.60
448.25	5856.02
448.43	6008.16
448.62	6015.18
448.80	6029.22
448.99	5823.25
449.17	5881.77
449.36	5895.81
449.54	6061.99
449.73	6195.40
449.91	6111.14
450.10	6354.55
450.28	6349.87
450.46	6303.06
450.65	6242.21
450.83	6164.97
451.02	6239.87
451.20	6406.05
451.39	6230.51
451.57	6380.30
451.76	6342.85
451.94	6289.02
452.13	6305.40
452.31	6244.55
452.49	6047.94
452.68	6497.33
452.86	6399.02
453.05	6492.65
453.23	6380.30
453.42	6300.72
453.60	6583.93
453.78	6541.80
453.97	6551.16
454.15	6576.91
454.34	6537.12
454.52	6663.51
454.70	6757.13
454.89	6628.40
455.07	6719.68
455.26	6745.42
455.44	6794.58
455.62	6635.42
455.81	6841.39
455.99	6834.36
456.17	6864.79
456.36	6810.96
456.54	6913.94
456.73	6965.43
456.91	7012.24
457.09	7105.87
457.28	7220.55
457.46	7033.31
457.64	7258.00
457.83	7201.83
458.01	7136.29
458.19	7419.50
458.38	7173.74
458.56	7239.28
458.74	7356.30
458.93	7393.75
459.11	7386.73
459.29	7363.33
459.48	7459.29
459.66	7241.62
459.84	7178.42
460.03	7480.35
460.21	7293.11
460.39	7442.90
460.57	7419.50
460.76	7665.25
460.94	7726.11
461.12	7463.97
461.31	7676.96
461.49	7616.10
461.67	7618.44
461.85	7772.92
462.04	7698.02
462.22	8212.94
462.40	7789.30
462.59	7798.66
462.77	7651.21
462.95	7747.17
463.13	7859.52
463.32	8042.08
463.50	7992.93
463.68	8051.44
463.86	7927.39
464.05	7899.31
464.23	7749.51
464.41	8100.59
464.59	7829.09
464.78	8109.96
464.96	8037.40
465.14	8196.56
465.32	8234.00
465.50	8175.49
465.69	8210.60
465.87	8264.43
466.05	8250.39
466.23	8107.62
466.41	8191.88
466.60	8248.05
466.78	8049.10
466.96	8217.62
467.14	8166.13
467.32	8451.67
467.51	8468.06
467.69	8203.58
467.87	8355.71
468.05	8491.46
468.23	8360.39
468.41	8395.50
468.60	8472.74
468.78	8592.11
468.96	8538.27
469.14	8685.73
469.32	8847.22
469.50	8528.91
469.69	8610.83
469.87	8805.10
470.05	8645.94
470.23	8816.80
470.41	8664.66
470.59	8842.54
470.77	8774.67
470.95	8898.72
471.14	8982.98
471.32	8840.20
471.50	9177.24
471.68	9259.16
471.86	9210.01
472.04	9401.93
472.22	9392.57
472.40	9057.87
472.58	9191.28
472.77	9357.46
472.95	9488.53
473.13	9481.51
473.31	9383.21
473.49	9357.46
473.67	9563.43
473.85	9500.23
474.03	9710.88
474.21	9764.72
474.39	9818.55
474.57	9811.53
474.75	9844.29
474.93	9912.17
475.12	10047.92
475.30	10167.29
475.48	10073.67
475.66	10197.71
475.84	9848.97
476.02	10483.26
476.20	10326.44
476.38	10436.45
476.56	10808.59
476.74	10640.08
476.92	10478.58
477.10	10611.99
477.28	10607.31
477.46	10888.17
477.64	10911.58
477.82	10974.77
478.00	11229.89
478.18	11073.07
478.36	11417.13
478.54	11337.56
478.72	11267.34
478.90	11452.24
479.08	11674.59
479.26	11665.23
479.44	11653.53
479.62	11686.29
479.80	11742.47
479.98	12046.74
480.16	12046.74
480.34	11829.07
480.52	12269.09
480.70	12159.08
480.88	12128.66
481.06	12416.54
481.24	12517.18
481.41	12655.28
481.59	12688.04
481.77	13053.17
481.95	12802.73
482.13	13022.74
482.31	12957.21
482.49	13441.70
482.67	13345.73
482.85	13081.25
483.03	13619.58
483.21	13603.19
483.39	13832.57
483.57	13760.01
483.74	13755.33
483.92	14134.50
484.10	13809.16
484.28	14279.61
484.46	14310.04
484.64	14642.39
484.82	14410.68
485.00	14626.01
485.18	14700.90
485.35	14733.67
485.53	14775.80
485.71	14764.10
485.89	15393.70
486.07	14817.93
486.25	15204.12
486.43	15372.64
486.61	15625.42
486.78	15641.80
486.96	15747.12
487.14	15985.86
487.32	16177.78
487.50	16229.27
487.68	16262.04
487.85	16779.30
488.03	16552.27
488.21	16821.43
488.39	16854.20
488.57	16863.56
488.75	17078.89
488.92	17301.24
489.10	17465.08
489.28	17448.69
489.46	17708.49
489.64	17378.48
489.81	18068.94
489.99	17984.68
490.17	18017.44
490.35	18319.37
490.53	18106.38
490.70	18448.10
490.88	18565.13
491.06	19002.81
491.24	18551.09
491.41	18981.74
491.59	19091.75
491.77	18792.16
491.95	18958.34
492.13	19489.64
492.30	19782.21
492.48	19667.52
492.66	19587.94
492.84	19922.64
493.01	19587.94
493.19	20006.90
493.37	20374.36
493.54	20269.04
493.72	20608.42
493.90	20372.02
494.08	20706.72
494.25	20669.27
494.43	20589.69
494.61	21268.45
494.79	21247.38
494.96	21043.76
495.14	21036.74
495.32	21500.16
495.49	21528.25
495.67	21488.46
495.85	22010.40
496.02	21820.81
496.20	22108.70
496.38	21687.40
496.55	21869.97
496.73	22810.86
496.91	22515.95
497.09	22345.09
497.26	22635.32
497.44	22530.00
497.62	22998.10
497.79	22855.33
497.97	22754.69
498.14	23112.79
498.32	23171.30
498.50	23009.81
498.67	23506.00
498.85	23576.22
499.03	23887.51
499.20	23749.42
499.38	24086.45
499.56	23896.87
499.73	23990.49
499.91	24187.10
500.08	24531.15
500.26	23934.32
500.44	24430.51
500.61	24531.15
500.79	24159.01
500.97	24301.78
501.14	25013.31
501.32	24760.53
501.49	24706.70
501.67	24992.24
501.84	24795.64
502.02	24835.42
502.20	25357.36
502.37	25364.39
502.55	25350.34
502.72	25671.00
502.90	25553.97
503.07	25790.36
503.25	25750.57
503.43	25919.09
503.60	25841.85
503.78	25596.10
503.95	26057.18
504.13	26008.03
504.30	26272.51
504.48	26136.76
504.65	26415.29
504.83	26602.53
505.01	26644.66
505.18	26541.68
505.36	27103.40
505.53	26764.03
505.71	26712.53
505.88	27054.25
506.06	26473.80
506.23	27138.51
506.41	26885.73
506.58	27318.73
506.76	27491.93
506.93	27190.00
507.11	27372.57
507.28	27597.26
507.46	27751.73
507.63	27648.75
507.81	27440.44
507.98	27892.16
508.16	28116.86
508.33	27971.74
508.50	27803.22
508.68	27892.16
508.85	28271.33
509.03	28329.84
509.20	28402.40
509.38	28800.29
509.55	28659.86
509.73	28933.70
509.90	28694.97
510.08	28919.66
510.25	28788.59
510.42	28992.22
510.60	29261.38
510.77	29055.41
510.95	29338.62
511.12	29230.95
511.30	29172.44
511.47	29635.86
511.64	29530.54
511.82	29926.09
511.99	29652.25
512.17	29542.24
512.34	29336.27
512.51	29862.90
512.69	30464.41
512.86	30382.49
513.04	30352.07
513.21	30010.35
513.38	30209.29
513.56	30464.41
513.73	30099.29
513.90	30452.71
514.08	30682.08
514.25	30637.61
514.43	30590.80
514.60	30485.48
514.77	30593.14
514.95	30726.55
515.12	30766.34
515.29	31049.55
515.47	31630.00
515.64	31337.43
515.81	31349.14
515.99	31065.93
516.16	30948.90
516.33	31807.88
516.51	31201.68
516.68	31222.75
516.85	31171.25
517.03	31417.01
517.20	31550.42
517.37	31793.84
517.54	31899.16
517.72	31964.70
517.89	31901.50
518.06	31688.51
518.24	31824.26
518.41	31894.48
518.58	32098.11
518.75	32308.76
518.93	32385.99
519.10	32217.47
519.27	32402.38
519.45	32439.82
519.62	32753.46
519.79	32268.97
519.96	32847.08
520.14	32982.83
520.31	32587.28
520.48	32917.29
520.65	32903.25
520.83	33280.08
521.00	33549.24
521.17	33558.60
521.34	33366.68
521.52	33474.34
521.69	33813.72
521.86	33514.13
522.03	33518.81
522.20	34120.33
522.38	33846.49
522.55	34265.44
522.72	33586.69
522.89	34052.45
523.07	34094.58
523.24	34092.24
523.41	34080.54
523.58	34272.46
523.75	34719.51
523.92	34064.16
524.10	34440.98
524.27	34871.64
524.44	34918.45
524.61	34836.53
524.78	34630.57
524.96	34534.60
525.13	34602.48
525.30	34663.33
525.47	35377.20
525.64	34745.25
525.81	34834.19
525.98	35192.30
526.16	35089.31
526.33	35269.53
526.50	35182.93
526.67	35196.98
526.84	34920.79
527.01	35178.25
527.18	35302.30
527.36	35761.05
527.53	35702.53
527.70	35360.81
527.87	36079.36
528.04	35620.61
528.21	35625.29
528.38	35644.02
528.55	35981.06
528.72	35541.03
528.89	36079.36
529.07	36060.63
529.24	35669.76
529.41	36315.75
529.58	36072.34
529.75	35899.14
529.92	36077.02
530.09	36767.48
530.26	36383.63
530.43	36414.05
530.60	36362.56
530.77	36381.29
530.94	36744.07
531.11	36687.90
531.28	36746.41
531.46	36711.30
531.63	37111.53
531.80	36549.81
531.97	36851.73
532.14	36795.56
532.31	36776.84
532.48	37368.99
532.65	37434.53
532.82	36884.50
532.99	37046.00
533.16	36877.48
533.33	37163.03
533.50	37687.31
533.67	37256.65
533.84	37244.94
534.01	37551.56
534.18	37638.15
534.35	37146.64
534.52	37404.10
534.69	37558.58
534.86	37837.10
535.03	37558.58
535.20	37947.11
535.37	37771.57
535.54	38110.94
535.71	37495.38
535.88	38017.32
536.05	37846.46
536.22	38424.57
536.38	38251.38
536.55	38124.99
536.72	38253.72
536.89	37741.14
537.06	38450.32
537.23	38433.94
537.40	38281.80
537.57	38520.54
537.74	38401.17
537.91	38827.15
538.08	38857.57
538.25	38178.82
538.42	38550.96
538.59	39028.43
538.75	38024.34
538.92	38689.06
539.09	39105.67
539.26	39098.65
539.43	38892.68
539.60	38667.99
539.77	38911.41
539.94	38637.56
540.11	38639.90
540.28	38960.56
540.44	39110.35
540.61	38834.17
540.78	39108.01
540.95	39316.32
541.12	38939.49
541.29	39241.42
541.46	38946.51
541.62	39243.76
541.79	39391.22
541.96	39454.41
542.13	39194.61
542.30	39585.48
542.47	39758.68
542.63	39683.78
542.80	39679.10
542.97	39999.76
543.14	40107.42
543.31	39948.26
543.48	39943.58
543.64	40198.70
543.81	40112.10
543.98	40257.21
544.15	40238.49
544.32	40446.80
544.48	40535.74
544.65	40203.38
544.82	40301.68
544.99	39922.52
545.16	40526.38
545.32	40149.55
545.49	40701.92
545.66	40858.73
545.83	40863.41
546.00	40507.65
546.16	40706.60
546.33	40840.01
546.50	40645.74
546.67	40758.09
546.83	40095.72
547.00	40713.62
547.17	40313.39
547.34	40875.12
547.50	40854.05
547.67	41205.13
547.84	41200.45
548.00	41301.09
548.17	41111.51
548.34	40795.54
548.51	41600.68
548.67	41387.69
548.84	41448.55
549.01	41422.80
549.18	41507.06
549.34	41511.74
549.51	41614.72
549.68	41687.28
549.84	41242.58
550.01	41687.28
550.18	41425.14
550.34	41553.87
550.51	41703.67
550.68	41507.06
550.84	41181.73
551.01	41418.12
551.18	41596.00
551.34	41397.06
551.51	41895.59
551.68	41832.39
551.84	41687.28
552.01	41755.16
552.18	41717.71
552.34	41951.76
552.51	41949.42
552.68	41949.42
552.84	42696.05
553.01	42267.73
553.18	42220.92
553.34	42330.93
553.51	41993.89
553.67	42068.79
553.84	42344.97
554.01	42281.78
554.17	42586.05
554.34	42462.00
554.51	42405.83
554.67	42784.99
554.84	42340.29
555.00	42211.56
555.17	42122.62
555.33	42464.34
555.50	42398.80
555.67	42314.55
555.83	42691.37
556.00	42632.86
556.16	43068.20
556.33	43028.41
556.50	42693.71
556.66	43103.31
556.83	42314.55
556.99	43077.56
557.16	43150.12
557.32	42852.87
557.49	42909.04
557.65	43058.84
557.82	42410.51
557.98	42794.36
558.15	43208.63
558.32	42899.68
558.48	42939.47
558.65	42918.40
558.81	42408.17
558.98	43175.86
559.14	42895.00
559.31	43035.43
559.47	43494.18
559.64	43557.37
559.80	43391.19
559.97	43445.02
560.13	43082.24
560.30	43168.84
560.46	43173.52
560.63	43115.01
560.79	43482.47
560.96	43683.76
561.12	43271.82
561.29	42988.62
561.45	43306.93
561.61	43267.14
561.78	43105.65
561.94	42878.61
562.11	43536.30
562.27	43236.72
562.44	43122.03
562.60	43559.71
562.77	43597.16
562.93	43430.98
563.10	44039.52
563.26	43309.27
563.42	44095.69
563.59	43325.66
563.75	43449.70
563.92	43550.35
564.08	43805.47
564.24	43707.16
564.41	43655.67
564.57	43449.70
564.74	43550.35
564.90	43510.56
565.07	43854.62
565.23	43648.65
565.39	43636.95
565.56	43814.83
565.72	43814.83
565.88	43405.23
566.05	43936.54
566.21	43840.57
566.38	43557.37
566.54	43536.30
566.70	43770.36
566.87	43838.23
567.03	43796.10
567.19	44039.52
567.36	43718.87
567.52	43515.24
567.68	44065.27
567.85	43679.08
568.01	43784.40
568.17	43826.53
568.34	44133.14
568.50	43908.45
568.66	43669.72
568.83	44144.84
568.99	43414.60
569.15	43988.03
569.32	43812.49
569.48	44004.41
569.64	43969.30
569.81	44116.76
569.97	44002.07
570.13	44109.74
570.30	43882.70
570.46	43564.39
570.62	43856.96
570.78	43983.35
570.95	43983.35
571.11	44378.90
571.27	44421.03
571.43	43789.08
571.60	44128.46
571.76	43772.70
571.92	43880.36
572.09	44130.80
572.25	43695.46
572.41	44067.61
572.57	44266.55
572.74	44615.29
572.90	43728.23
573.06	44137.82
573.22	44690.19
573.38	44149.53
573.55	43950.58
573.71	44304.00
573.87	44477.20
574.03	44133.14
574.20	44465.50
574.36	44030.16
574.52	44163.57
574.68	44292.30
574.84	44128.46
575.01	44570.82
575.17	44086.33
575.33	44006.75
575.49	44205.70
575.65	44360.17
575.82	44456.14
575.98	44233.78
576.14	44535.71
576.30	44357.83
576.46	43922.49
576.62	44243.15
576.79	44123.78
576.95	43791.42
577.11	43922.49
577.27	44346.13
577.43	44451.45
577.59	44079.31
577.75	43901.43
577.92	43931.86
578.08	44002.07
578.24	44006.75
578.40	44409.32
578.56	43938.88
578.72	44034.84
578.88	44254.85
579.04	44774.45
579.21	43828.87
579.37	44083.99
579.53	44058.24
579.69	44327.41
579.85	44479.54
580.01	44116.76
580.17	44353.15
580.33	44580.18
580.49	45017.86
580.65	44566.14
580.82	44339.11
580.98	44196.34
581.14	44191.65
581.30	44275.91
581.46	44467.84
581.62	44161.23
581.78	44219.74
581.94	44772.11
582.10	44210.38
582.26	44535.71
582.42	44254.85
582.58	44194.00
582.74	44058.24
582.90	44402.30
583.06	44512.31
583.22	44879.77
583.38	44900.84
583.54	44191.65
583.70	44690.19
583.86	44500.61
584.02	44079.31
584.18	44154.21
584.34	44580.18
584.50	44514.65
584.66	44121.44
584.82	44596.57
584.98	44727.64
585.14	44198.68
585.30	44467.84
585.46	44346.13
585.62	44313.36
585.78	44432.73
585.94	44343.79
586.10	44229.10
586.26	44296.98
586.42	44582.52
586.58	44346.13
586.74	44240.81
586.90	44313.36
587.06	44566.14
587.22	44357.83
587.38	44402.30
587.54	44652.74
587.70	44804.88
587.86	44336.77
588.02	44526.35
588.18	44453.79
588.34	44416.35
588.49	44233.78
588.65	44304.00
588.81	44353.15
588.97	44266.55
589.13	44779.13
589.29	44678.49
589.45	44273.57
589.61	44751.04
589.77	44687.85
589.93	44645.72
590.08	44697.21
590.24	44697.21
