SpectraSuite Data File
++++++++++++++++++++++++++++++++++++
Date: Fri Oct 25 11:23:03 EDT 2013
User: price-jones
Dark Spectrum Present: No
Reference Spectrum Present: No
Number of Sampled Component Spectra: 1
Spectrometers: USB2+H05261
Integration Time (usec): 100000 (USB2+H05261)
Spectra Averaged: 1 (USB2+H05261)
Boxcar Smoothing: 0 (USB2+H05261)
Correct for Electrical Dark: No (USB2+H05261)
Strobe/Lamp Enabled: No (USB2+H05261)
Correct for Detector Non-linearity: No (USB2+H05261)
Correct for Stray Light: No (USB2+H05261)
Number of Pixels in Processed Spectrum: 2048
>>>>>Begin Processed Spectral Data<<<<<
365.73	203.63
365.92	203.63
366.12	203.63
366.32	152.13
366.52	53.83
366.72	110.01
366.91	112.35
367.11	196.60
367.31	121.71
367.51	152.13
367.70	110.01
367.90	191.92
368.10	135.75
368.30	110.01
368.49	93.62
368.69	70.22
368.89	102.98
369.09	142.77
369.28	110.01
369.48	184.90
369.68	196.60
369.87	145.11
370.07	180.22
370.27	168.52
370.47	283.20
370.66	592.16
370.86	624.92
371.06	613.22
371.25	683.44
371.45	683.44
371.65	641.31
371.84	760.67
372.04	669.39
372.24	671.73
372.44	706.84
372.63	669.39
372.83	774.72
373.03	695.14
373.22	671.73
373.42	734.93
373.62	781.74
373.81	812.17
374.01	847.27
374.21	842.59
374.40	807.48
374.60	751.31
374.79	844.93
374.99	802.80
375.19	819.19
375.38	788.76
375.58	889.40
375.78	922.17
375.97	861.32
376.17	870.68
376.37	880.04
376.56	933.87
376.76	807.48
376.95	847.27
377.15	854.30
377.35	908.13
377.54	910.47
377.74	901.11
377.93	894.08
378.13	943.24
378.33	943.24
378.52	905.79
378.72	950.26
378.91	917.49
379.11	999.41
379.31	1001.75
379.50	917.49
379.70	915.15
379.89	947.92
380.09	938.55
380.28	1011.11
380.48	990.05
380.68	924.51
380.87	994.73
381.07	1062.60
381.26	1018.13
381.46	990.05
381.65	959.62
381.85	1022.81
382.04	1043.88
382.24	1090.69
382.43	1060.26
382.63	1104.73
382.83	1107.07
383.02	1139.84
383.22	1109.41
383.41	1128.14
383.61	1104.73
383.80	1076.65
384.00	1116.44
384.19	1174.95
384.39	1188.99
384.58	1081.33
384.78	1057.92
384.97	1146.86
385.17	1160.91
385.36	1179.63
385.56	1193.67
385.75	1221.76
385.95	1118.78
386.14	1200.69
386.34	1252.19
386.53	1130.48
386.72	1240.48
386.92	1287.29
387.11	1273.25
387.31	1235.80
387.50	1249.85
387.70	1196.01
387.89	1252.19
388.09	1268.57
388.28	1275.59
388.48	1280.27
388.67	1355.17
388.86	1289.64
389.06	1322.40
389.25	1306.02
389.45	1423.05
389.64	1329.42
389.84	1338.79
390.03	1327.08
390.22	1364.53
390.42	1430.07
390.61	1411.34
390.81	1331.76
391.00	1348.15
391.19	1392.62
391.39	1427.73
391.58	1514.33
391.78	1451.13
391.97	1451.13
392.16	1570.50
392.36	1568.16
392.55	1598.59
392.75	1465.18
392.94	1448.79
393.13	1519.01
393.33	1500.28
393.52	1636.03
393.71	1645.40
393.91	1626.67
394.10	1533.05
394.29	1647.74
394.49	1558.80
394.68	1603.27
394.88	1661.78
395.07	1661.78
395.26	1643.06
395.46	1631.35
395.65	1659.44
395.84	1802.21
396.04	1792.85
396.23	1734.34
396.42	1741.36
396.62	1783.49
396.81	1797.53
397.00	1769.44
397.19	1799.87
397.39	1830.30
397.58	1839.66
397.77	1902.86
397.97	1844.34
398.16	1818.60
398.35	1853.70
398.55	1865.41
398.74	1846.68
398.93	1879.45
399.12	1902.86
399.32	1926.26
399.51	1942.64
399.70	1968.39
399.90	1926.26
400.09	1966.05
400.28	1980.09
400.47	2054.99
400.67	2094.78
400.86	2169.68
401.05	2087.76
401.24	2204.78
401.44	2120.53
401.63	2181.38
401.82	2174.36
402.01	2153.29
402.21	2275.00
402.40	2279.68
402.59	2223.51
402.78	2209.47
402.97	2237.55
403.17	2347.56
403.36	2216.49
403.55	2279.68
403.74	2356.92
403.93	2434.16
404.13	2368.62
404.32	2415.43
404.51	2342.88
404.70	2394.37
404.89	2279.68
405.09	2534.80
405.28	2469.27
405.47	2485.65
405.66	2562.89
405.85	2396.71
406.05	2443.52
406.24	2609.70
406.43	2677.57
406.62	2605.02
406.81	2612.04
407.00	2616.72
407.20	2516.08
407.39	2586.29
407.58	2754.81
407.77	2731.41
407.96	2754.81
408.15	2832.05
408.34	2715.02
408.54	2806.30
408.73	2829.71
408.92	2897.58
409.11	2808.64
409.30	2885.88
409.49	2965.46
409.68	2986.52
409.87	2960.78
410.07	3005.25
410.26	3026.31
410.45	3033.33
410.64	3122.27
410.83	3169.09
411.02	3101.21
411.21	3206.53
411.40	3248.66
411.59	3386.76
411.78	3368.03
411.98	3300.16
412.17	3145.68
412.36	3363.35
412.55	3330.58
412.74	3391.44
412.93	3375.05
413.12	3424.20
413.31	3578.68
413.50	3506.12
413.69	3599.74
413.88	3688.68
414.07	3588.04
414.26	3646.55
414.45	3749.54
414.64	3796.35
414.83	3861.88
415.02	3763.58
415.22	3911.04
415.41	3950.82
415.60	3831.46
415.79	3939.12
415.98	3852.52
416.17	3999.98
416.36	4011.68
416.55	3950.82
416.74	4234.03
416.93	4138.07
417.12	4126.36
417.31	4184.88
417.50	4194.24
417.69	4372.12
417.88	4414.25
418.07	4219.99
418.26	4264.46
418.45	4383.82
418.64	4489.15
418.83	4484.47
419.02	4545.32
419.21	4512.55
419.39	4564.04
419.58	4540.64
419.77	4674.05
419.96	4716.18
420.15	4718.52
420.34	4688.09
420.53	4545.32
420.72	4720.86
420.91	4730.22
421.10	4770.01
421.29	4887.04
421.48	4737.24
421.67	4802.78
421.86	4814.48
422.05	4821.50
422.24	4858.95
422.43	4837.89
422.61	4912.78
422.80	4898.74
422.99	5055.56
423.18	4973.64
423.37	5146.84
423.56	4992.36
423.75	5053.22
423.94	4947.89
424.13	4732.56
424.32	4856.61
424.50	5006.41
424.69	5151.52
424.88	5095.35
425.07	4926.83
425.26	4929.17
425.45	4992.36
425.64	4943.21
425.83	5053.22
426.01	5090.67
426.20	5153.86
426.39	5095.35
426.58	4999.38
426.77	4870.65
426.96	5111.73
427.15	5177.26
427.33	5231.10
427.52	5203.01
427.71	5420.68
427.90	5369.19
428.09	5394.93
428.28	5460.47
428.46	5327.06
428.65	5399.62
428.84	5514.30
429.03	5586.86
429.22	5383.23
429.40	5600.90
429.59	5509.62
429.78	5327.06
429.97	5432.38
430.16	5467.49
430.34	5675.80
430.53	5818.57
430.72	5600.90
430.91	5701.54
431.10	5645.37
431.28	5905.17
431.47	5963.68
431.66	5984.75
431.85	5769.42
432.03	5977.73
432.22	6111.14
432.41	6059.65
432.60	6069.01
432.79	5970.71
432.97	6029.22
433.16	6113.48
433.35	6120.50
433.54	6106.46
433.72	6071.35
433.91	6099.44
434.10	6174.33
434.28	6071.35
434.47	6122.84
434.66	6237.53
434.85	6389.66
435.03	6305.40
435.22	6387.32
435.41	6434.13
435.59	6452.86
435.78	6406.05
435.97	6527.75
436.16	6492.65
436.34	6490.31
436.53	6583.93
436.72	6841.39
436.90	6511.37
437.09	6647.12
437.28	6633.08
437.46	6637.76
437.65	6827.34
437.84	6862.45
438.02	6848.41
438.21	6848.41
438.40	6881.18
438.58	6979.48
438.77	7138.63
438.96	7084.80
439.14	7096.50
439.33	7218.21
439.52	7410.14
439.70	7403.11
439.89	7482.69
440.08	7445.24
440.26	7405.46
440.45	7459.29
440.63	7728.45
440.82	7700.36
441.01	7475.67
441.19	7758.88
441.38	7688.66
441.57	7756.54
441.75	7920.37
441.94	7981.23
442.12	8067.83
442.31	8205.92
442.50	8126.34
442.68	7995.27
442.87	8166.13
443.05	8051.44
443.24	8367.42
443.43	8180.17
443.61	8278.47
443.80	8568.70
443.98	8074.85
444.17	7925.05
444.35	8322.94
444.54	8519.55
444.73	8358.05
444.91	8292.52
445.10	8442.31
445.28	8404.86
445.47	8414.23
445.65	8561.68
445.84	8491.46
446.02	8599.13
446.21	8470.40
446.39	8458.70
446.58	8475.08
446.77	8444.65
446.95	8358.05
447.14	8568.70
447.32	8503.17
447.51	8601.47
447.69	8791.05
447.88	8638.92
448.06	8634.24
448.25	8657.64
448.43	8659.98
448.62	8650.62
448.80	8414.23
448.99	8709.13
449.17	8821.48
449.36	8681.05
449.54	8772.33
449.73	9158.52
449.91	9207.67
450.10	8971.27
450.28	9289.59
450.46	9291.93
450.65	9268.52
450.83	9102.34
451.02	9095.32
451.20	9202.99
451.39	9146.81
451.57	9151.49
451.76	8973.61
451.94	9352.78
452.13	9497.89
452.31	9596.20
452.49	9329.38
452.68	9460.45
452.86	9596.20
453.05	9425.34
453.23	9713.22
453.42	9401.93
453.60	9425.34
453.78	9509.60
453.97	9617.26
454.15	9589.17
454.34	9525.98
454.52	10012.81
454.70	10001.11
454.89	9767.06
455.07	9984.73
455.26	10132.18
455.44	10015.15
455.62	10146.22
455.81	9961.32
455.99	9905.15
456.17	10057.28
456.36	10083.03
456.54	10169.63
456.73	10293.68
456.91	10523.05
457.09	10588.58
457.28	10579.22
457.46	10223.46
457.64	10630.71
457.83	10953.71
458.01	10555.82
458.19	11052.01
458.38	10511.35
458.56	10700.93
458.74	10822.64
458.93	10726.68
459.11	10927.96
459.29	10766.46
459.48	10923.28
459.66	10766.46
459.84	11042.65
460.03	11138.61
460.21	11000.52
460.39	11042.65
460.57	11272.02
460.76	11208.83
460.94	11323.51
461.12	11337.56
461.31	11400.75
461.49	11281.38
461.67	10942.00
461.85	11487.35
462.04	11302.45
462.22	11644.17
462.40	11896.94
462.59	11496.71
462.77	11690.98
462.95	11929.71
463.13	11803.32
463.32	11679.27
463.50	11742.47
463.68	11885.24
463.86	12049.08
464.05	11709.70
464.23	11772.89
464.41	11957.80
464.59	11852.47
464.78	12198.87
464.96	12042.06
465.14	11749.49
465.32	12166.10
465.50	12327.60
465.69	12458.67
465.87	12573.36
466.05	12339.30
466.23	12299.52
466.41	12177.81
466.60	12526.55
466.78	12414.20
466.96	12456.33
467.14	12456.33
467.32	12603.78
467.51	12631.87
467.69	12322.92
467.87	12723.15
468.05	12823.80
468.23	12617.83
468.41	12589.74
468.60	12699.75
468.78	12725.49
468.96	12800.39
469.14	12952.52
469.32	13212.32
469.50	12631.87
469.69	13137.43
469.87	13242.75
470.05	13270.84
470.23	13270.84
470.41	13186.58
470.59	13240.41
470.77	13355.10
470.95	13666.39
471.14	13584.47
471.32	13158.49
471.50	13994.06
471.68	13645.32
471.86	13851.29
472.04	13881.72
472.22	14127.47
472.40	13933.21
472.58	13928.53
472.77	14305.35
472.95	14265.57
473.13	14731.33
473.31	14434.08
473.49	14223.44
473.67	14221.10
473.85	14574.52
474.03	14801.55
474.21	14768.78
474.39	14925.60
474.57	14977.09
474.75	15035.60
474.93	15154.97
475.12	15051.99
475.30	15330.51
475.48	15115.18
475.66	15405.41
475.84	15211.14
476.02	15709.68
476.20	15730.74
476.38	15793.94
476.56	16044.37
476.74	15925.00
476.92	16135.65
477.10	15946.07
477.28	16524.18
477.46	16224.59
477.64	16273.74
477.82	16758.24
478.00	17053.14
478.18	16966.54
478.36	17167.83
478.54	17294.22
478.72	17359.75
478.90	17701.47
479.08	17806.80
479.26	17692.11
479.44	17909.78
479.62	17970.63
479.80	18314.69
479.98	18466.83
480.16	18663.43
480.34	18342.78
480.52	18691.52
480.70	18817.91
480.88	18462.15
481.06	18759.39
481.24	18972.38
481.41	19323.46
481.59	19360.91
481.77	19871.15
481.95	19344.53
482.13	20208.19
482.31	19873.49
482.49	20416.49
482.67	20545.22
482.85	20435.22
483.03	21010.99
483.21	21174.83
483.39	21076.52
483.57	20945.45
483.74	21092.91
483.92	21427.60
484.10	21415.90
484.28	21909.75
484.46	22309.99
484.64	22408.29
484.82	22588.51
485.00	22539.36
485.18	23241.52
485.35	23138.54
485.53	23023.85
485.71	23227.48
485.89	23583.24
486.07	23716.65
486.25	23690.90
486.43	24112.20
486.61	24341.57
486.78	24252.63
486.96	24814.36
487.14	24732.44
487.32	24900.96
487.50	25308.21
487.68	25247.36
487.85	25724.83
488.03	25816.11
488.21	26230.38
488.39	26424.65
488.57	26487.84
488.75	26803.82
488.92	26581.46
489.10	26752.32
489.28	26948.93
489.46	27850.03
489.64	27222.77
489.81	28034.94
489.99	28072.39
490.17	28215.16
490.35	28676.24
490.53	28126.22
490.70	29109.24
490.88	28510.07
491.06	28870.51
491.24	29301.17
491.41	29406.49
491.59	29600.76
491.77	29846.51
491.95	29713.10
492.13	30146.10
492.30	30536.97
492.48	30279.51
492.66	30569.74
492.84	31047.21
493.01	31079.97
493.19	31000.40
493.37	31620.64
493.54	31779.79
493.72	31971.72
493.90	32079.38
494.08	32046.62
494.25	32718.35
494.43	32367.27
494.61	32861.12
494.79	32631.75
494.96	32957.08
495.14	33013.26
495.32	33188.80
495.49	33357.32
495.67	33818.40
495.85	33741.16
496.02	34101.61
496.20	34281.83
496.38	34251.40
496.55	34703.12
496.73	35278.89
496.91	35035.48
497.09	35175.91
497.26	35428.69
497.44	35613.59
497.62	35913.18
497.79	36226.81
497.97	35447.41
498.14	36318.09
498.32	36603.64
498.50	36573.21
498.67	36863.44
498.85	36486.61
499.03	36818.97
499.20	37385.38
499.38	37469.64
499.56	37263.67
499.73	37869.87
499.91	37750.50
500.08	38394.15
500.26	37710.71
500.44	37942.42
500.61	38520.54
500.79	38543.94
500.97	38675.01
501.14	39051.84
501.32	39414.62
501.49	38869.28
501.67	38911.41
501.84	39367.81
502.02	39037.80
502.20	39363.13
502.37	39695.49
502.55	39725.91
502.72	39971.67
502.90	40156.57
503.07	40084.01
503.25	40018.48
503.43	40268.92
503.60	40818.94
503.78	40725.32
503.95	41055.34
504.13	40891.50
504.30	41141.94
504.48	41013.21
504.65	41404.08
504.83	41181.73
505.01	42036.02
505.18	41621.75
505.36	42230.29
505.53	41614.72
505.71	42342.63
505.88	42550.94
506.06	41942.40
506.23	42674.99
506.41	42244.33
506.58	42756.91
506.76	42700.73
506.93	43136.07
507.11	43000.32
507.28	42869.25
507.46	43253.10
507.63	43192.25
507.81	43405.23
507.98	43058.84
508.16	43786.74
508.33	44025.48
508.50	44196.34
508.68	43962.28
508.85	44411.67
509.03	44083.99
509.20	44547.42
509.38	44650.40
509.55	44816.58
509.73	44816.58
509.90	44952.33
510.08	44678.49
510.25	45132.55
510.42	45502.35
510.60	45514.06
510.77	45368.94
510.95	45385.33
511.12	45670.87
511.30	45523.42
511.47	45743.43
511.64	46274.73
511.82	46382.40
511.99	46038.34
512.17	46426.87
512.34	46005.57
512.51	46593.04
512.69	46684.33
512.86	46871.57
513.04	47023.70
513.21	47105.62
513.38	47147.75
513.56	47459.04
513.73	47175.84
513.90	47377.12
514.08	47763.31
514.25	47988.00
514.43	48123.75
514.60	48090.99
514.77	47580.75
514.95	48102.69
515.12	47924.81
515.29	47856.93
515.47	48280.57
515.64	48554.41
515.81	48156.52
515.99	48734.63
516.16	48882.09
516.33	48809.53
516.51	49123.16
516.68	48594.20
516.85	48699.53
517.03	49139.55
517.20	49371.26
517.37	49436.80
517.54	49209.76
517.72	49242.53
517.89	49663.83
518.06	49799.58
518.24	49930.65
518.41	49977.46
518.58	49935.33
518.75	49841.71
518.93	50181.09
519.10	49989.16
519.27	49830.01
519.45	50265.34
519.62	50347.26
519.79	50274.71
519.96	50485.36
520.14	50658.56
520.31	50726.43
520.48	50827.07
520.65	50471.31
520.83	51136.02
521.00	51318.59
521.17	50838.78
521.34	51004.95
521.52	50873.88
521.69	51646.26
521.86	51084.53
522.03	51501.15
522.20	51634.56
522.38	51789.03
522.55	52034.79
522.72	51763.29
522.89	51831.16
523.07	51959.89
523.24	51714.14
523.41	51976.28
523.58	51959.89
523.75	52172.88
523.92	52257.14
524.10	52303.95
524.27	52409.28
524.44	52442.04
524.61	52727.59
524.78	52636.31
524.96	52563.75
525.13	52748.65
525.30	53048.24
525.47	52886.74
525.64	52800.15
525.81	52776.74
525.98	52933.56
526.16	52935.90
526.33	53073.99
526.50	53546.78
526.67	53294.00
526.84	53137.18
527.01	53081.01
527.18	52926.53
527.36	53223.78
527.53	53162.93
527.70	53668.48
527.87	53595.93
528.04	53322.08
528.21	53738.70
528.38	53577.20
528.55	54054.67
528.72	53890.83
528.89	53661.46
529.07	53811.26
529.24	54019.56
529.41	54087.44
529.58	54049.99
529.75	53682.53
529.92	54431.50
530.09	54075.74
530.26	54529.80
530.43	54583.63
530.60	54396.39
530.77	54195.10
530.94	54298.09
531.11	54433.84
531.28	54492.35
531.46	54719.38
531.63	54574.27
531.80	54681.94
531.97	54855.14
532.14	54927.69
532.31	55007.27
532.48	54944.08
532.65	55236.64
532.82	54988.55
532.99	54930.03
533.16	55040.04
533.33	55164.09
533.50	55084.51
533.67	55243.66
533.84	54883.22
534.01	55267.07
534.18	55229.62
534.35	55435.59
534.52	55433.25
534.69	55543.25
534.86	55634.53
535.03	55388.78
535.20	55667.30
535.37	55547.93
535.54	55807.73
535.71	55604.11
535.88	55732.84
536.05	55686.03
536.22	56119.02
536.38	55941.14
536.55	55767.94
536.72	55884.97
536.89	55826.46
537.06	56261.80
537.23	56329.67
537.40	56004.34
537.57	56147.11
537.74	56147.11
537.91	56446.70
538.08	55992.64
538.25	55983.27
538.42	56268.82
538.59	56432.66
538.75	56306.27
538.92	56404.57
539.09	56219.67
539.26	56238.39
539.43	56308.61
539.60	56467.76
539.77	56673.73
539.94	56652.67
540.11	56631.60
540.28	56711.18
540.44	56783.74
540.61	56757.99
540.78	56645.65
540.95	56624.58
541.12	56472.45
541.29	56802.46
541.46	56942.89
541.62	56912.47
541.79	57088.01
541.96	56657.35
542.13	56872.68
542.30	57078.64
542.47	57055.24
542.63	57048.22
542.80	57043.54
542.97	57403.98
543.14	57319.72
543.31	57382.91
543.48	57563.14
543.64	57986.77
543.81	57591.22
543.98	57521.01
544.15	57605.26
544.32	57696.55
544.48	58031.24
544.65	57879.11
544.82	57689.52
544.99	57616.97
545.16	57741.02
545.32	57745.70
545.49	58178.70
545.66	58031.24
545.83	58085.07
546.00	57951.66
546.16	57829.96
546.33	57872.09
546.50	57984.43
546.67	58085.07
546.83	57883.79
547.00	58227.85
547.17	57977.41
547.34	58089.76
547.50	58291.04
547.67	58475.94
547.84	58143.59
548.00	58403.39
548.17	58592.97
548.34	58527.44
548.51	58548.50
548.67	58305.09
548.84	58447.86
549.01	58349.56
549.18	58314.45
549.34	58628.08
549.51	58712.34
549.68	58717.02
549.84	58803.62
550.01	58614.04
550.18	58522.76
550.34	58464.24
550.51	58614.04
550.68	58845.75
550.84	58424.45
551.01	58686.59
551.18	58796.60
551.34	59025.97
551.51	58852.77
551.68	58894.90
551.84	58745.11
552.01	58763.83
552.18	58953.41
552.34	58911.28
552.51	59093.85
552.68	58740.42
552.84	58927.67
553.01	59164.06
553.18	59016.61
553.34	59093.85
553.51	59260.02
553.67	59161.72
553.84	59131.29
554.01	59248.32
554.17	59325.56
554.34	59185.13
554.51	59194.49
554.67	59318.54
554.84	59363.01
555.00	59325.56
555.17	58969.80
555.33	59367.69
555.50	59257.68
555.67	59260.02
555.83	59091.51
556.00	59374.71
556.16	59767.92
556.33	59590.04
556.50	59365.35
556.66	59561.95
556.83	59391.09
556.99	59746.86
557.16	59756.22
557.32	59742.17
557.49	59854.52
557.65	59725.79
557.82	59880.27
557.98	59742.17
558.15	59686.00
558.32	59803.03
558.48	59655.57
558.65	59784.30
558.81	59894.31
558.98	59786.64
559.14	59683.66
559.31	59814.73
559.47	59906.01
559.64	60083.89
559.80	59980.91
559.97	59908.35
560.13	59927.08
560.30	59791.33
560.46	60051.12
560.63	60254.75
560.79	60104.96
560.96	60226.66
561.12	60055.81
561.29	60023.04
561.45	60095.60
561.61	60046.44
561.78	59945.80
561.94	60001.97
562.11	60016.02
562.27	60126.02
562.44	60341.35
562.60	60371.78
562.77	60441.99
562.93	60130.70
563.10	60163.47
563.26	60203.26
563.42	60559.02
563.59	60193.90
563.75	60355.39
563.92	60219.64
564.08	60214.96
564.24	60390.50
564.41	60339.01
564.57	60413.91
564.74	60324.97
564.90	60369.44
565.07	60563.70
565.23	60434.97
565.39	60371.78
565.56	60509.87
565.72	60280.50
565.88	60427.95
566.05	60383.48
566.21	60411.57
566.38	60519.23
566.54	60554.34
566.70	60514.55
566.87	60683.07
567.03	60343.69
567.19	60795.42
567.36	60512.21
567.52	60617.53
567.68	60788.39
567.85	60615.19
568.01	60872.65
568.17	60495.83
568.34	60704.13
568.50	60706.47
568.66	60582.43
568.83	60488.80
568.99	60662.00
569.15	60598.81
569.32	60671.37
569.48	60507.53
569.64	60750.94
569.81	60657.32
569.97	60748.60
570.13	60622.22
570.30	60647.96
570.46	60699.45
570.62	60926.49
570.78	60748.60
570.95	60734.56
571.11	60989.68
571.27	60743.92
571.43	60680.73
571.60	60846.91
571.76	60769.67
571.92	60947.55
572.09	60949.89
572.25	60739.24
572.41	60907.76
572.57	60807.12
572.74	61073.94
572.90	60872.65
573.06	60853.93
573.22	60797.76
573.38	60898.40
573.55	60921.80
573.71	61125.43
573.87	60977.98
574.03	60725.20
574.20	60858.61
574.36	60893.72
574.52	60884.36
574.68	60793.07
574.84	61041.17
575.01	60977.98
575.17	60982.66
575.33	60872.65
575.49	60956.91
575.65	60928.83
575.82	61186.28
575.98	61148.84
576.14	61193.31
576.30	61092.66
576.46	60910.10
576.62	60954.57
576.79	61293.95
576.95	60830.52
577.11	61080.96
577.27	61106.71
577.43	60849.25
577.59	60865.63
577.75	61139.47
577.92	60898.40
578.08	61006.06
578.24	61209.69
578.40	61186.28
578.56	61078.62
578.72	61193.31
578.88	61113.73
579.04	61137.13
579.21	61216.71
579.37	61347.78
579.53	61546.73
579.69	60989.68
579.85	61022.45
580.01	60917.12
580.17	60802.44
580.33	61389.91
580.49	61144.16
580.65	61111.39
580.82	61043.51
580.98	61104.37
581.14	61338.42
581.30	61289.27
581.46	61258.84
581.62	61153.52
581.78	61080.96
581.94	61291.61
582.10	61080.96
582.26	61300.97
582.42	60910.10
582.58	61233.10
582.74	61153.52
582.90	61228.41
583.06	61350.12
583.22	60970.96
583.38	61263.52
583.54	61223.73
583.70	61258.84
583.86	61172.24
584.02	61284.59
584.18	61469.49
584.34	61223.73
584.50	61172.24
584.66	61291.61
584.82	61038.83
584.98	61446.08
585.14	61324.38
585.30	61148.84
585.46	61048.19
585.62	61031.81
585.78	61546.73
585.94	61237.78
586.10	61219.05
586.26	61258.84
586.42	61228.41
586.58	61233.10
586.74	61226.07
586.90	61244.80
587.06	61387.57
587.22	61319.70
587.38	61193.31
587.54	61366.51
587.70	61401.61
587.86	61104.37
588.02	61315.01
588.18	61340.76
588.34	61455.45
588.49	61371.19
