SpectraSuite Data File
++++++++++++++++++++++++++++++++++++
Date: Fri Oct 25 10:44:34 EDT 2013
User: price-jones
Dark Spectrum Present: No
Reference Spectrum Present: No
Number of Sampled Component Spectra: 1
Spectrometers: USB2+H05261
Integration Time (usec): 100000 (USB2+H05261)
Spectra Averaged: 1 (USB2+H05261)
Boxcar Smoothing: 0 (USB2+H05261)
Correct for Electrical Dark: No (USB2+H05261)
Strobe/Lamp Enabled: No (USB2+H05261)
Correct for Detector Non-linearity: No (USB2+H05261)
Correct for Stray Light: No (USB2+H05261)
Number of Pixels in Processed Spectrum: 2048
>>>>>Begin Processed Spectral Data<<<<<
365.73	131.07
365.92	131.07
366.12	131.07
366.32	0.00
366.52	0.00
366.72	46.81
366.91	39.79
367.11	28.09
367.31	0.00
367.51	11.70
367.70	25.75
367.90	107.66
368.10	23.41
368.30	44.47
368.49	0.00
368.69	39.79
368.89	35.11
369.09	63.19
369.28	30.43
369.48	46.81
369.68	114.69
369.87	79.58
370.07	138.09
370.27	124.05
370.47	114.69
370.66	308.95
370.86	482.15
371.06	468.11
371.25	477.47
371.45	433.00
371.65	507.90
371.84	411.93
372.04	360.44
372.24	498.53
372.44	433.00
372.63	475.13
372.83	489.17
373.03	526.62
373.22	454.06
373.42	498.53
373.62	547.69
373.81	566.41
374.01	592.16
374.21	496.19
374.40	575.77
374.60	610.88
374.79	550.03
374.99	493.85
375.19	554.71
375.38	545.34
375.58	592.16
375.78	571.09
375.97	521.94
376.17	606.20
376.37	571.09
376.56	557.05
376.76	568.75
376.95	589.82
377.15	566.41
377.35	575.77
377.54	650.67
377.74	622.58
377.93	599.18
378.13	585.13
378.33	580.45
378.52	601.52
378.72	615.56
378.91	606.20
379.11	587.47
379.31	627.26
379.50	608.54
379.70	634.29
379.89	730.25
380.09	606.20
380.28	655.35
380.48	613.22
380.68	615.56
380.87	667.05
381.07	692.80
381.26	683.44
381.46	695.14
381.65	662.37
381.85	678.76
382.04	727.91
382.24	725.57
382.43	681.10
382.63	751.31
382.83	709.18
383.02	723.23
383.22	711.52
383.41	741.95
383.61	713.86
383.80	706.84
384.00	711.52
384.19	720.88
384.39	702.16
384.58	709.18
384.78	791.10
384.97	737.27
385.17	774.72
385.36	758.33
385.56	805.14
385.75	674.07
385.95	854.30
386.14	851.96
386.34	844.93
386.53	788.76
386.72	732.59
386.92	758.33
387.11	798.12
387.31	873.02
387.50	800.46
387.70	877.70
387.89	826.21
388.09	856.64
388.28	842.59
388.48	866.00
388.67	882.38
388.86	833.23
389.06	849.61
389.25	809.83
389.45	997.07
389.64	924.51
389.84	837.91
390.03	940.90
390.22	847.27
390.42	887.06
390.61	875.36
390.81	973.66
391.00	1034.52
391.19	947.92
391.39	999.41
391.58	1029.84
391.78	945.58
391.97	997.07
392.16	851.96
392.36	985.37
392.55	992.39
392.75	990.05
392.94	891.74
393.13	968.98
393.33	919.83
393.52	957.28
393.71	987.71
393.91	999.41
394.10	1086.01
394.29	1046.22
394.49	983.02
394.68	1130.48
394.88	1153.88
395.07	1109.41
395.26	1109.41
395.46	1184.31
395.65	1212.40
395.84	1130.48
396.04	1158.57
396.23	1029.84
396.42	1156.22
396.62	1205.38
396.81	1057.92
397.00	1170.27
397.19	1160.91
397.39	1128.14
397.58	1280.27
397.77	1238.14
397.97	1268.57
398.16	1254.53
398.35	1320.06
398.55	1287.29
398.74	1282.61
398.93	1329.42
399.12	1280.27
399.32	1376.24
399.51	1306.02
399.70	1336.45
399.90	1406.66
400.09	1467.52
400.28	1530.71
400.47	1474.54
400.67	1589.22
400.86	1474.54
401.05	1439.43
401.24	1551.78
401.44	1626.67
401.63	1591.56
401.82	1511.99
402.01	1458.15
402.21	1523.69
402.40	1586.88
402.59	1586.88
402.78	1605.61
402.97	1598.59
403.17	1572.84
403.36	1584.54
403.55	1668.80
403.74	1640.72
403.93	1577.52
404.13	1621.99
404.32	1643.06
404.51	1593.90
404.70	1682.85
404.89	1685.19
405.09	1781.15
405.28	1748.38
405.47	1734.34
405.66	1715.61
405.85	1715.61
406.05	1713.27
406.24	1830.30
406.43	1856.04
406.62	1827.96
406.81	1980.09
407.00	1788.17
407.20	1771.79
407.39	1891.15
407.58	1900.52
407.77	1975.41
407.96	1935.62
408.15	1980.09
408.34	2001.16
408.54	1991.80
408.73	2019.88
408.92	2087.76
409.11	2129.89
409.30	2118.18
409.49	2157.97
409.68	2017.54
409.87	2104.14
410.07	2040.95
410.26	2146.27
410.45	2190.74
410.64	2186.06
410.83	2207.13
411.02	2235.21
411.21	2232.87
411.40	2275.00
411.59	2338.20
411.78	2331.17
411.98	2328.83
412.17	2485.65
412.36	2473.95
412.55	2422.45
412.74	2509.05
412.93	2452.88
413.12	2520.76
413.31	2586.29
413.50	2480.97
413.69	2516.08
413.88	2581.61
414.07	2551.18
414.26	2572.25
414.45	2808.64
414.64	2642.46
414.83	2726.72
415.02	2815.66
415.22	2743.11
415.41	2871.84
415.60	2906.95
415.79	2902.26
415.98	2949.08
416.17	2864.82
416.36	2960.78
416.55	2806.30
416.74	2979.50
416.93	3028.65
417.12	2937.37
417.31	2953.76
417.50	3009.93
417.69	3087.17
417.88	3241.64
418.07	3087.17
418.26	3183.13
418.45	3136.32
418.64	3213.56
418.83	3218.24
419.02	3080.14
419.21	3178.45
419.39	3176.11
419.58	3262.71
419.77	3232.28
419.96	3328.24
420.15	3412.50
420.34	3358.67
420.53	3391.44
420.72	3492.08
420.91	3325.90
421.10	3492.08
421.29	3421.86
421.48	3421.86
421.67	3520.17
421.86	3454.63
422.05	3527.19
422.24	3398.46
422.43	3449.95
422.61	3517.83
422.80	3513.14
422.99	3566.98
423.18	3574.00
423.37	3669.96
423.56	3566.98
423.75	3473.36
423.94	3410.16
424.13	3400.80
424.32	3300.16
424.50	3583.36
424.69	3669.96
424.88	3581.02
425.07	3581.02
425.26	3447.61
425.45	3529.53
425.64	3534.21
425.83	3625.49
426.01	3620.81
426.20	3669.96
426.39	3641.87
426.58	3779.97
426.77	3693.37
426.96	3698.05
427.15	3637.19
427.33	3609.11
427.52	3719.11
427.71	3754.22
427.90	3620.81
428.09	3730.81
428.28	3815.07
428.46	3782.31
428.65	3749.54
428.84	3946.14
429.03	4007.00
429.22	3747.20
429.40	3770.60
429.59	3826.78
429.78	3653.58
429.97	3758.90
430.16	3815.07
430.34	3801.03
430.53	3990.61
430.72	4063.17
430.91	3911.04
431.10	4084.23
431.28	4056.15
431.47	4140.41
431.66	4264.46
431.85	4149.77
432.03	4128.70
432.22	4135.73
432.41	4182.54
432.60	4367.44
432.79	4170.83
432.97	4365.10
433.16	4173.18
433.35	4362.76
433.54	4191.90
433.72	4205.94
433.91	4245.73
434.10	4517.23
434.28	4374.46
434.47	4273.82
434.66	4381.48
434.85	4503.19
435.03	4514.89
435.22	4425.95
435.41	4781.71
435.59	4587.45
435.78	4524.26
435.97	4608.51
436.16	4652.98
436.34	4652.98
436.53	4582.77
436.72	4791.08
436.90	4650.64
437.09	4840.23
437.28	4594.47
437.46	4711.50
437.65	4772.35
437.84	4669.37
438.02	4784.06
438.21	4725.54
438.40	4613.20
438.58	4915.12
438.77	5053.22
438.96	4938.53
439.14	5036.83
439.33	5088.32
439.52	5109.39
439.70	5013.43
439.89	5200.67
440.08	5184.29
440.26	5256.84
440.45	5298.97
440.63	5341.10
440.82	5535.37
441.01	5341.10
441.19	5610.26
441.38	5617.29
441.57	5511.96
441.75	5621.97
441.94	5621.97
442.12	5767.08
442.31	5760.06
442.50	5804.53
442.68	5762.40
442.87	5600.90
443.05	5799.85
443.24	5769.42
443.43	5820.91
443.61	5774.10
443.80	6026.88
443.98	5813.89
444.17	5738.99
444.35	5844.32
444.54	6003.47
444.73	5891.13
444.91	5767.08
445.10	5860.70
445.28	5851.34
445.47	5856.02
445.65	5942.62
445.84	5951.98
446.02	6047.94
446.21	5905.17
446.39	6078.37
446.58	6012.84
446.77	6143.91
446.95	5949.64
447.14	6209.44
447.32	6101.78
447.51	6069.01
447.69	5996.45
447.88	6207.10
448.06	6073.69
448.25	5959.00
448.43	6190.72
448.62	6164.97
448.80	6176.67
448.99	6094.76
449.17	6307.74
449.36	6190.72
449.54	6141.57
449.73	6331.15
449.91	6347.53
450.10	6546.48
450.28	6408.39
450.46	6452.86
450.65	6520.73
450.83	6392.00
451.02	6553.50
451.20	6609.67
451.39	6740.74
451.57	6614.35
451.76	6602.65
451.94	6642.44
452.13	6621.38
452.31	6675.21
452.49	6654.14
452.68	6576.91
452.86	6436.47
453.05	6787.55
453.23	6799.26
453.42	6518.39
453.60	6715.00
453.78	6834.36
453.97	6726.70
454.15	6733.72
454.34	6548.82
454.52	6846.07
454.70	6806.28
454.89	6850.75
455.07	6986.50
455.26	6965.43
455.44	7054.37
455.62	7105.87
455.81	7119.91
455.99	7190.13
456.17	7080.12
456.36	7070.76
456.54	7283.75
456.73	7236.94
456.91	7499.08
457.09	7548.23
457.28	7461.63
457.46	7194.81
457.64	7473.33
457.83	7400.77
458.01	7211.19
458.19	7515.46
458.38	7433.54
458.56	7634.83
458.74	7487.37
458.93	7389.07
459.11	7693.34
459.29	7499.08
459.48	7538.87
459.66	7674.62
459.84	7595.04
460.03	7667.60
460.21	7775.26
460.39	7908.67
460.57	7831.43
460.76	7747.17
460.94	7868.88
461.12	7971.86
461.31	7831.43
461.49	7754.19
461.67	7742.49
461.85	8084.21
462.04	7871.22
462.22	8079.53
462.40	7943.78
462.59	8205.92
462.77	7999.95
462.95	8142.72
463.13	8187.19
463.32	8065.49
463.50	8248.05
463.68	8287.84
463.86	8194.22
464.05	8182.51
464.23	8196.56
464.41	8259.75
464.59	7971.86
464.78	8552.32
464.96	8411.89
465.14	8383.80
465.32	8585.08
465.50	8449.33
465.69	8533.59
465.87	8210.60
466.05	8390.82
466.23	8435.29
466.41	8446.99
466.60	8688.07
466.78	8374.44
466.96	8641.26
467.14	8547.64
467.32	8608.49
467.51	8734.88
467.69	8437.63
467.87	8683.39
468.05	8671.68
468.23	8802.75
468.41	8734.88
468.60	8713.81
468.78	8816.80
468.96	8786.37
469.14	8992.34
469.32	9025.11
469.50	8821.48
469.69	9011.06
469.87	9088.30
470.05	9043.83
470.23	9160.86
470.41	8924.46
470.59	8936.17
470.77	9013.40
470.95	9261.50
471.14	9270.86
471.32	9240.44
471.50	9504.92
471.68	9298.95
471.86	9465.13
472.04	9570.45
472.22	9757.69
472.40	9235.75
472.58	9446.40
472.77	9832.59
472.95	9682.80
473.13	10129.84
473.31	9624.28
473.49	9710.88
473.67	9734.29
473.85	9816.21
474.03	10113.45
474.21	10136.86
474.39	10017.49
474.57	10314.74
474.75	10464.54
474.93	10384.96
475.12	10221.12
475.30	10455.17
475.48	10129.84
475.66	10586.24
475.84	10455.17
476.02	10684.55
476.20	10501.98
476.38	10714.97
476.56	10721.99
476.74	10747.74
476.92	10862.43
477.10	10827.32
477.28	11220.53
477.46	11023.92
477.64	11339.90
477.82	11295.43
478.00	11494.37
478.18	11555.22
478.36	11627.78
478.54	11566.93
478.72	11658.21
478.90	11934.39
479.08	11941.41
479.26	12299.52
479.44	12006.95
479.62	12159.08
479.80	12351.01
479.98	12407.18
480.16	12652.94
480.34	12362.71
480.52	12723.15
480.70	12791.03
480.88	12641.23
481.06	12847.20
481.24	12622.51
481.41	13013.38
481.59	13348.08
481.77	13165.51
481.95	13364.46
482.13	13502.55
482.31	13390.20
482.49	13839.59
482.67	13509.57
482.85	13977.68
483.03	14083.00
483.21	14239.82
483.39	14090.02
483.57	14136.84
483.74	14340.46
483.92	14576.86
484.10	14174.28
484.28	14361.53
484.46	14787.50
484.64	15061.35
484.82	14998.15
485.00	14881.13
485.18	15267.31
485.35	15337.53
485.53	15131.56
485.71	15194.76
485.89	15515.41
486.07	15309.44
486.25	15829.04
486.43	15749.46
486.61	15910.96
486.78	16147.36
486.96	16105.23
487.14	16175.44
487.32	16203.53
487.50	16451.63
487.68	16791.00
487.85	16816.75
488.03	17099.95
488.21	17287.20
488.39	17317.62
488.57	17289.54
488.75	17422.95
488.92	17614.87
489.10	17909.78
489.28	17900.42
489.46	18410.65
489.64	17944.89
489.81	18513.64
489.99	18803.86
490.17	18471.51
490.35	18944.30
490.53	18750.03
490.70	19023.87
490.88	19080.05
491.06	19250.91
491.24	19379.64
491.41	19051.96
491.59	19496.66
491.77	19482.62
491.95	19534.11
492.13	19850.08
492.30	20039.67
492.48	20006.90
492.66	20063.07
492.84	20198.82
493.01	20245.63
493.19	20547.56
493.37	20627.14
493.54	20563.95
493.72	20636.50
493.90	21179.51
494.08	20919.71
494.25	21502.50
494.43	21312.92
494.61	21600.80
494.79	21841.88
494.96	21774.00
495.14	21446.33
495.32	22043.17
495.49	22005.72
495.67	21895.71
495.85	22148.49
496.02	22197.64
496.20	22515.95
496.38	22820.22
496.55	22548.72
496.73	23206.41
496.91	22995.76
497.09	23459.19
497.26	23358.55
497.44	23218.11
497.62	23154.92
497.79	23428.76
497.97	23339.82
498.14	23814.95
498.32	23943.68
498.50	24224.54
498.67	24166.03
498.85	24130.92
499.03	24474.98
499.20	24311.14
499.38	24402.43
499.56	24477.32
499.73	24386.04
499.91	24690.31
500.08	24645.84
500.26	24772.23
500.44	24936.07
500.61	25029.69
500.79	24896.28
500.97	25118.63
501.14	25266.08
501.32	25617.16
501.49	25638.23
501.67	25689.72
501.84	25703.76
502.02	25919.09
502.20	25930.80
502.37	25802.07
502.55	26246.77
502.72	25872.28
502.90	26197.62
503.07	26150.81
503.25	26181.23
503.43	25930.80
503.60	26164.85
503.78	26569.76
503.95	26139.10
504.13	26810.84
504.30	27091.70
504.48	26621.25
504.65	27232.13
504.83	27269.58
505.01	27285.97
505.18	27087.02
505.36	27779.82
505.53	27410.01
505.71	27920.25
505.88	27716.62
506.06	27372.57
506.23	27875.78
506.41	27756.41
506.58	27821.95
506.76	27681.52
506.93	28416.44
507.11	28271.33
507.28	28039.62
507.46	27690.88
507.63	28442.19
507.81	28517.09
507.98	28280.69
508.16	28381.34
508.33	28528.79
508.50	28716.03
508.68	28694.97
508.85	29127.97
509.03	28800.29
509.20	29102.22
509.38	29364.36
509.55	29181.80
509.73	29603.10
509.90	29345.64
510.08	29366.70
510.25	29322.23
510.42	29514.16
510.60	29933.11
510.77	29696.72
510.95	30029.07
511.12	29996.31
511.30	30164.82
511.47	30529.95
511.64	30419.94
511.82	30293.55
511.99	29771.61
512.17	30621.23
512.34	30623.57
512.51	30534.63
512.69	30668.04
512.86	30838.90
513.04	30756.98
513.21	30822.51
513.38	30965.29
513.56	30529.95
513.73	30969.97
513.90	31061.25
514.08	31005.08
514.25	31054.23
514.43	31475.52
514.60	31335.09
514.77	31566.81
514.95	31447.44
515.12	31571.49
515.29	31847.67
515.47	32275.99
515.64	31873.42
515.81	31768.09
515.99	31917.89
516.16	31903.84
516.33	32023.21
516.51	31988.10
516.68	31555.10
516.85	31742.35
517.03	31740.00
517.20	32175.34
517.37	32339.18
517.54	32409.40
517.72	32048.96
517.89	32063.00
518.06	32364.93
518.24	32549.83
518.41	32634.09
518.58	32659.84
518.75	32573.24
518.93	33350.29
519.10	32886.87
519.27	32872.82
519.45	33149.01
519.62	33401.79
519.79	33305.82
519.96	33486.04
520.14	33675.63
520.31	33041.34
520.48	33717.76
520.65	33242.63
520.83	34026.71
521.00	34169.48
521.17	33429.87
521.34	34136.71
521.52	33621.80
521.69	33811.38
521.86	34642.27
522.03	34377.79
522.20	34370.77
522.38	34321.62
522.55	34541.63
522.72	34204.59
522.89	34494.82
523.07	34726.53
523.24	34682.06
523.41	34902.07
523.58	34506.52
523.75	35302.30
523.92	34782.70
524.10	35426.35
524.27	35351.45
524.44	35349.11
524.61	35199.32
524.78	35732.96
524.96	35150.17
525.13	35791.47
525.30	35824.24
525.47	35679.13
525.64	35613.59
525.81	35608.91
525.98	35377.20
526.16	35419.33
526.33	35257.83
526.50	35868.71
526.67	35042.50
526.84	35496.56
527.01	35328.05
527.18	36041.91
527.36	35929.56
527.53	36126.17
527.70	36580.23
527.87	36673.85
528.04	36400.01
528.21	36580.23
528.38	36533.42
528.55	36821.31
528.72	36692.58
528.89	37038.98
529.07	36622.36
529.24	36481.93
529.41	36381.29
529.58	36666.83
529.75	36479.59
529.92	37029.62
530.09	37392.40
530.26	37172.39
530.43	36938.33
530.60	37268.35
530.77	36982.80
530.94	37476.66
531.11	37214.52
531.28	37542.19
531.46	37523.47
531.63	37581.98
531.80	37350.27
531.97	37675.60
532.14	37556.24
532.31	37256.65
532.48	37661.56
532.65	37654.54
532.82	37528.15
532.99	38043.07
533.16	37731.78
533.33	38401.17
533.50	38234.99
533.67	38019.66
533.84	38071.15
534.01	38307.55
534.18	38265.42
534.35	38646.93
534.52	38391.81
534.69	38305.21
534.86	38565.01
535.03	38455.00
535.20	38520.54
535.37	38904.38
535.54	38902.04
535.71	38609.48
535.88	38988.64
536.05	38422.23
536.22	38820.13
536.38	38529.90
536.55	38682.03
536.72	38941.83
536.89	38635.22
537.06	38714.80
537.23	39037.80
537.40	38920.77
537.57	38852.89
537.74	39295.25
537.91	39290.57
538.08	39618.25
538.25	38866.94
538.42	39313.98
538.59	39299.94
538.75	39260.15
538.92	39608.89
539.09	39388.88
539.26	39344.41
539.43	39487.18
539.60	39388.88
539.77	39168.87
539.94	39578.46
540.11	39414.62
540.28	39634.63
540.44	39491.86
540.61	39428.66
540.78	39260.15
540.95	39784.43
541.12	39566.76
541.29	39381.85
541.46	39651.02
541.62	39622.93
541.79	40254.87
541.96	39803.15
542.13	39477.82
542.30	39840.60
542.47	40215.08
542.63	40355.52
542.80	39910.82
542.97	40568.51
543.14	40540.42
543.31	41062.36
543.48	40847.03
543.64	41074.06
543.81	40818.94
543.98	40849.37
544.15	40545.10
544.32	40900.86
544.48	40790.86
544.65	41067.04
544.82	41441.53
544.99	40905.54
545.16	41053.00
545.32	41184.07
545.49	41308.11
545.66	41621.75
545.83	41027.25
546.00	41436.84
546.16	41179.39
546.33	41617.07
546.50	41020.23
546.67	41338.54
546.83	41001.50
547.00	41177.04
547.17	41570.25
547.34	41415.78
547.50	41462.59
547.67	41577.28
547.84	41799.63
548.00	41537.49
548.17	42012.62
548.34	41596.00
548.51	42153.05
548.67	41860.48
548.84	42012.62
549.01	41989.21
549.18	41490.68
549.34	41998.57
549.51	41734.09
549.68	42176.45
549.84	41493.02
550.01	42019.64
550.18	42169.43
550.34	42209.22
550.51	42050.06
550.68	41745.80
550.84	41698.98
551.01	42581.37
551.18	41827.71
551.34	41972.83
551.51	42251.35
551.68	42153.05
551.84	42234.97
552.01	42029.00
552.18	42490.09
552.34	41832.39
552.51	42679.67
552.68	42096.88
552.84	42635.20
553.01	42962.87
553.18	42527.53
553.34	42988.62
553.51	42351.99
553.67	42546.26
553.84	42637.54
554.01	42934.79
554.17	42911.38
554.34	42906.70
554.51	42890.32
554.67	43028.41
554.84	43105.65
555.00	43122.03
555.17	43122.03
555.33	42763.93
555.50	43140.75
555.67	43112.67
555.83	42684.35
556.00	42822.44
556.16	43653.33
556.33	42941.81
556.50	42866.91
556.66	43154.80
556.83	42777.97
556.99	43189.91
557.16	43353.74
557.32	42972.24
557.49	43552.69
557.65	43203.95
557.82	43459.07
557.98	43402.89
558.15	43426.30
558.32	43440.34
558.48	43274.16
558.65	43295.23
558.81	43393.53
558.98	43583.12
559.14	43475.45
559.31	43248.42
559.47	43473.11
559.64	43871.00
559.80	43793.76
559.97	43978.67
560.13	43372.47
560.30	43475.45
560.46	43604.18
560.63	43498.86
560.79	43871.00
560.96	44074.63
561.12	44062.93
561.29	43634.61
561.45	43442.68
561.61	43473.11
561.78	43505.88
561.94	43185.22
562.11	43779.72
562.27	43667.37
562.44	44140.16
562.60	43997.39
562.77	43735.25
562.93	44226.76
563.10	43704.82
563.26	43611.20
563.42	44521.67
563.59	44231.44
563.75	43711.84
563.92	43515.24
564.08	43765.68
564.24	44083.99
564.41	44154.21
564.57	44203.36
564.74	43768.02
564.90	43480.13
565.07	43777.38
565.23	44114.42
565.39	44091.01
565.56	44189.31
565.72	43929.51
565.88	43861.64
566.05	44634.02
566.21	43814.83
566.38	43959.94
566.54	43964.62
566.70	44261.87
566.87	44364.85
567.03	44189.31
567.19	44907.86
567.36	44493.58
567.52	43906.11
567.68	44219.74
567.85	43878.02
568.01	44037.18
568.17	44037.18
568.34	44109.74
568.50	44516.99
568.66	44479.54
568.83	44191.65
568.99	43739.93
569.15	44435.07
569.32	44343.79
569.48	43770.36
569.64	44280.60
569.81	44247.83
569.97	44266.55
570.13	44086.33
570.30	43742.27
570.46	43756.32
570.62	44091.01
570.78	44037.18
570.95	44154.21
571.11	44121.44
571.27	44060.58
571.43	44320.38
571.60	44598.91
571.76	44411.67
571.92	44404.64
572.09	44205.70
572.25	44165.91
572.41	44521.67
572.57	44477.20
572.74	44402.30
572.90	44404.64
573.06	44669.12
573.22	44425.71
573.38	44498.26
573.55	44282.94
573.71	44971.05
573.87	44519.33
574.03	44531.03
574.20	44416.35
574.36	44432.73
574.52	44341.45
574.68	44467.84
574.84	44376.56
575.01	44744.02
575.17	45097.44
575.33	44144.84
575.49	44414.01
575.65	44818.92
575.82	44722.96
575.98	44811.90
576.14	44692.53
576.30	44385.92
576.46	44121.44
576.62	44516.99
576.79	44201.02
576.95	44421.03
577.11	44505.29
577.27	44519.33
577.43	44706.57
577.59	44566.14
577.75	44886.79
577.92	44561.46
578.08	43852.28
578.24	44542.74
578.40	44531.03
578.56	44467.84
578.72	44341.45
578.88	44821.26
579.04	44535.71
579.21	44507.63
579.37	44706.57
579.53	44528.69
579.69	44336.77
579.85	44477.20
580.01	44306.34
580.17	44486.56
580.33	45083.40
580.49	44643.38
580.65	44643.38
580.82	44769.77
580.98	44067.61
581.14	44163.57
581.30	44989.78
581.46	44954.67
581.62	44673.81
581.78	44863.39
581.94	44816.58
582.10	44509.97
582.26	44877.43
582.42	44334.43
582.58	44304.00
582.74	44645.72
582.90	44835.30
583.06	44524.01
583.22	44949.99
583.38	44893.82
583.54	45104.46
583.70	44296.98
583.86	45001.48
584.02	44409.32
584.18	44811.90
584.34	44549.76
584.50	44809.56
584.66	44694.87
584.82	44533.37
584.98	44608.27
585.14	44741.68
585.30	44692.53
585.46	44968.71
585.62	45059.99
585.78	44547.42
585.94	44512.31
586.10	44849.35
586.26	44390.60
586.42	44996.80
586.58	44753.38
586.74	45010.84
586.90	44577.84
587.06	44481.88
587.22	44575.50
587.38	44453.79
587.54	44481.88
587.70	44708.91
587.86	44711.25
588.02	44982.76
588.18	45113.83
588.34	44973.39
588.49	44112.08
588.65	44039.52
588.81	44554.44
588.97	44641.04
589.13	44500.61
589.29	44280.60
589.45	44561.46
589.61	44369.54
589.77	44783.81
589.93	44713.59
590.08	44877.43
590.24	44917.22
