SpectraSuite Data File
++++++++++++++++++++++++++++++++++++
Date: Fri Oct 25 10:48:22 EDT 2013
User: price-jones
Dark Spectrum Present: No
Reference Spectrum Present: No
Number of Sampled Component Spectra: 1
Spectrometers: USB2+H05261
Integration Time (usec): 100000 (USB2+H05261)
Spectra Averaged: 1 (USB2+H05261)
Boxcar Smoothing: 0 (USB2+H05261)
Correct for Electrical Dark: No (USB2+H05261)
Strobe/Lamp Enabled: No (USB2+H05261)
Correct for Detector Non-linearity: No (USB2+H05261)
Correct for Stray Light: No (USB2+H05261)
Number of Pixels in Processed Spectrum: 2048
>>>>>Begin Processed Spectral Data<<<<<
365.73	149.79
365.92	149.79
366.12	149.79
366.32	95.96
366.52	49.15
366.72	35.11
366.91	65.54
367.11	53.83
367.31	25.75
367.51	100.64
367.70	60.85
367.90	49.15
368.10	0.00
368.30	0.00
368.49	58.51
368.69	91.28
368.89	49.15
369.09	147.45
369.28	65.54
369.48	156.82
369.68	124.05
369.87	100.64
370.07	81.92
370.27	149.79
370.47	217.67
370.66	372.15
370.86	472.79
371.06	468.11
371.25	477.47
371.45	489.17
371.65	468.11
371.84	498.53
372.04	458.74
372.24	489.17
372.44	470.45
372.63	528.96
372.83	533.64
373.03	500.87
373.22	545.34
373.42	564.07
373.62	463.43
373.81	458.74
374.01	641.31
374.21	582.79
374.40	465.77
374.60	631.94
374.79	552.37
374.99	622.58
375.19	641.31
375.38	636.63
375.58	594.50
375.78	667.05
375.97	660.03
376.17	601.52
376.37	575.77
376.56	589.82
376.76	643.65
376.95	564.07
377.15	692.80
377.35	690.46
377.54	660.03
377.74	711.52
377.93	662.37
378.13	685.78
378.33	660.03
378.52	669.39
378.72	631.94
378.91	741.95
379.11	557.05
379.31	617.90
379.50	636.63
379.70	720.88
379.89	746.63
380.09	725.57
380.28	653.01
380.48	734.93
380.68	734.93
380.87	674.07
381.07	669.39
381.26	760.67
381.46	734.93
381.65	641.31
381.85	671.73
382.04	667.05
382.24	788.76
382.43	727.91
382.63	746.63
382.83	737.27
383.02	737.27
383.22	716.20
383.41	767.70
383.61	807.48
383.80	755.99
384.00	772.38
384.19	784.08
384.39	861.32
384.58	847.27
384.78	767.70
384.97	858.98
385.17	844.93
385.36	807.48
385.56	830.89
385.75	800.46
385.95	746.63
386.14	840.25
386.34	830.89
386.53	882.38
386.72	898.77
386.92	922.17
387.11	919.83
387.31	884.72
387.50	805.14
387.70	814.51
387.89	903.45
388.09	940.90
388.28	912.81
388.48	919.83
388.67	915.15
388.86	966.64
389.06	947.92
389.25	1008.77
389.45	999.41
389.64	1034.52
389.84	1081.33
390.03	1029.84
390.22	1149.20
390.42	1015.79
390.61	983.02
390.81	1083.67
391.00	1064.94
391.19	1064.94
391.39	1050.90
391.58	1039.20
391.78	1050.90
391.97	1076.65
392.16	1116.44
392.36	1090.69
392.55	992.39
392.75	990.05
392.94	1060.26
393.13	1060.26
393.33	1069.62
393.52	1062.60
393.71	1121.12
393.91	1163.25
394.10	1081.33
394.29	1282.61
394.49	1228.78
394.68	1268.57
394.88	1275.59
395.07	1263.89
395.26	1289.64
395.46	1137.50
395.65	1338.79
395.84	1224.10
396.04	1256.87
396.23	1233.46
396.42	1160.91
396.62	1196.01
396.81	1284.95
397.00	1282.61
397.19	1275.59
397.39	1294.32
397.58	1369.21
397.77	1392.62
397.97	1488.58
398.16	1373.89
398.35	1458.15
398.55	1540.07
398.74	1488.58
398.93	1420.71
399.12	1516.67
399.32	1462.83
399.51	1486.24
399.70	1650.08
399.90	1547.09
400.09	1537.73
400.28	1675.82
400.47	1563.48
400.67	1540.07
400.86	1643.06
401.05	1673.48
401.24	1732.00
401.44	1605.61
401.63	1715.61
401.82	1673.48
402.01	1659.44
402.21	1811.57
402.40	1809.23
402.59	1708.59
402.78	1720.29
402.97	1732.00
403.17	1755.40
403.36	1823.28
403.55	1832.64
403.74	1940.30
403.93	2017.54
404.13	1856.04
404.32	1762.42
404.51	1933.28
404.70	1961.37
404.89	1769.44
405.09	2064.35
405.28	2001.16
405.47	1842.00
405.66	1956.69
405.85	2001.16
406.05	1935.62
406.24	1942.64
406.43	2008.18
406.62	2083.08
406.81	2188.40
407.00	2033.93
407.20	2003.50
407.39	2031.58
407.58	2150.95
407.77	2148.61
407.96	2279.68
408.15	2225.85
408.34	2300.75
408.54	2260.96
408.73	2392.03
408.92	2359.26
409.11	2218.83
409.30	2204.78
409.49	2253.94
409.68	2300.75
409.87	2356.92
410.07	2272.66
410.26	2422.45
410.45	2443.52
410.64	2427.14
410.83	2539.48
411.02	2487.99
411.21	2490.33
411.40	2490.33
411.59	2445.86
411.78	2544.16
411.98	2558.21
412.17	2579.27
412.36	2579.27
412.55	2607.36
412.74	2574.59
412.93	2806.30
413.12	2700.98
413.31	2689.28
413.50	2724.38
413.69	2871.84
413.88	2928.01
414.07	2942.05
414.26	2820.35
414.45	3005.25
414.64	2981.84
414.83	3054.40
415.02	2977.16
415.22	2977.16
415.41	3016.95
415.60	3164.40
415.79	3131.64
415.98	3155.04
416.17	3218.24
416.36	3316.54
416.55	3187.81
416.74	3290.79
416.93	3321.22
417.12	3372.71
417.31	3405.48
417.50	3265.05
417.69	3499.10
417.88	3513.14
418.07	3309.52
418.26	3428.88
418.45	3307.18
418.64	3581.02
418.83	3485.06
419.02	3627.83
419.21	3604.42
419.39	3578.68
419.58	3543.57
419.77	3520.17
419.96	3646.55
420.15	3772.94
420.34	3653.58
420.53	3770.60
420.72	3812.73
420.91	3723.79
421.10	3801.03
421.29	3770.60
421.48	3662.94
421.67	3824.44
421.86	3892.31
422.05	3728.47
422.24	3646.55
422.43	3840.82
422.61	3854.86
422.80	3953.16
422.99	3892.31
423.18	4065.51
423.37	3927.42
423.56	3976.57
423.75	3845.50
423.94	4009.34
424.13	3641.87
424.32	3873.59
424.50	3988.27
424.69	4021.04
424.88	3971.89
425.07	3978.91
425.26	3779.97
425.45	3969.55
425.64	3852.52
425.83	3861.88
426.01	4049.13
426.20	3971.89
426.39	3962.53
426.58	4016.36
426.77	3969.55
426.96	3901.67
427.15	3925.08
427.33	4058.49
427.52	4067.85
427.71	4105.30
427.90	3995.29
428.09	4124.02
428.28	4102.96
428.46	4208.28
428.65	4259.78
428.84	4198.92
429.03	4255.09
429.22	4135.73
429.40	4191.90
429.59	4180.20
429.78	4030.40
429.97	3831.46
430.16	3894.65
430.34	4095.94
430.53	4278.50
430.72	4142.75
430.91	4245.73
431.10	4306.59
431.28	4463.40
431.47	4622.56
431.66	4573.41
431.85	4493.83
432.03	4603.83
432.22	4648.30
432.41	4620.22
432.60	4620.22
432.79	4798.10
432.97	4664.69
433.16	4697.46
433.35	4538.30
433.54	4587.45
433.72	4624.90
433.91	4596.81
434.10	4697.46
434.28	4765.33
434.47	4835.55
434.66	4919.81
434.85	4971.30
435.03	4898.74
435.22	4910.44
435.41	5104.71
435.59	5095.35
435.78	5107.05
435.97	5235.78
436.16	5151.52
436.34	5048.54
436.53	5153.86
436.72	5226.42
436.90	5135.14
437.09	5158.54
437.28	5025.13
437.46	5210.03
437.65	5107.05
437.84	5174.92
438.02	5305.99
438.21	5184.29
438.40	5158.54
438.58	5469.83
438.77	5427.70
438.96	5406.64
439.14	5486.22
439.33	5537.71
439.52	5638.35
439.70	5671.12
439.89	5722.61
440.08	5544.73
440.26	5706.23
440.45	5659.42
440.63	5849.00
440.82	5895.81
441.01	5738.99
441.19	6031.56
441.38	6078.37
441.57	6099.44
441.75	6026.88
441.94	6291.36
442.12	6239.87
442.31	6307.74
442.50	6274.98
442.68	6258.59
442.87	6209.44
443.05	6300.72
443.24	6441.15
443.43	6326.47
443.61	6532.44
443.80	6698.61
443.98	6415.41
444.17	6202.42
444.35	6349.87
444.54	6637.76
444.73	6527.75
444.91	6375.62
445.10	6403.71
445.28	6459.88
445.47	6267.95
445.65	6406.05
445.84	6282.00
446.02	6630.74
446.21	6476.26
446.39	6483.28
446.58	6534.78
446.77	6499.67
446.95	6509.03
447.14	6682.23
447.32	6595.63
447.51	6731.38
447.69	6633.08
447.88	6574.56
448.06	6651.80
448.25	6780.53
448.43	6801.60
448.62	6778.19
448.80	6670.53
448.99	6813.30
449.17	6724.36
449.36	6768.83
449.54	6925.65
449.73	7098.84
449.91	7103.53
450.10	6986.50
450.28	7140.97
450.46	7159.70
450.65	7204.17
450.83	7243.96
451.02	7197.15
451.20	7311.83
451.39	7243.96
451.57	7178.42
451.76	7215.87
451.94	7187.79
452.13	7321.20
452.31	7129.27
452.49	7206.51
452.68	7110.55
452.86	7201.83
453.05	7222.89
453.23	7419.50
453.42	7468.65
453.60	7349.28
453.78	7501.42
453.97	7314.17
454.15	7246.30
454.34	7386.73
454.52	7557.59
454.70	7510.78
454.89	7651.21
455.07	7548.23
455.26	7597.38
455.44	7861.86
455.62	7623.12
455.81	7777.60
455.99	7705.04
456.17	7826.75
456.36	7880.58
456.54	7969.52
456.73	7873.56
456.91	8074.85
457.09	8053.78
457.28	8280.82
457.46	7899.31
457.64	8243.37
457.83	8088.89
458.01	8049.10
458.19	8336.99
458.38	8145.06
458.56	8241.03
458.74	8112.30
458.93	8255.07
459.11	8180.17
459.29	8138.04
459.48	8327.63
459.66	8334.65
459.84	8278.47
460.03	8360.39
460.21	8322.94
460.39	8439.97
460.57	8472.74
460.76	8531.25
460.94	8486.78
461.12	8489.12
461.31	8587.43
461.49	8585.08
461.67	8475.08
461.85	8823.82
462.04	8507.85
462.22	9219.37
462.40	8961.91
462.59	8905.74
462.77	9027.45
462.95	8891.70
463.13	8854.25
463.32	8823.82
463.50	9046.17
463.68	8915.10
463.86	8985.32
464.05	8933.82
464.23	8884.67
464.41	9170.22
464.59	8793.39
464.78	9121.07
464.96	9055.53
465.14	9121.07
465.32	9118.73
465.50	9334.06
465.69	9317.67
465.87	9268.52
466.05	9064.89
466.23	9298.95
466.41	9401.93
466.60	9469.81
466.78	9259.16
466.96	9289.59
467.14	9261.50
467.32	9186.60
467.51	9544.70
467.69	9184.26
467.87	9441.72
468.05	9352.78
468.23	9170.22
468.41	9366.82
468.60	9544.70
468.78	9617.26
468.96	9507.26
469.14	9689.82
469.32	9755.35
469.50	9493.21
469.69	9596.20
469.87	9743.65
470.05	9659.39
470.23	9820.89
470.41	9753.01
470.59	10061.96
470.77	9966.00
470.95	10104.09
471.14	10167.29
471.32	9989.41
471.50	10169.63
471.68	10211.76
471.86	10195.37
472.04	10483.26
472.22	10497.30
472.40	10300.70
472.58	10338.15
472.77	10312.40
472.95	10562.84
473.13	10771.15
473.31	10459.85
473.49	10518.37
473.67	10689.23
473.85	10473.90
474.03	10939.66
474.21	10733.70
474.39	10995.84
474.57	10874.13
474.75	11007.54
474.93	11152.65
475.12	11129.25
475.30	11225.21
475.48	11101.16
475.66	11274.36
475.84	11393.73
476.02	11468.62
476.20	11377.34
476.38	11562.25
476.56	11803.32
476.74	12067.80
476.92	11662.89
477.10	11754.17
477.28	12013.97
477.46	11735.45
477.64	12187.17
477.82	12341.64
478.00	12564.00
478.18	12421.22
478.36	12470.37
478.54	12641.23
478.72	12910.40
478.90	12823.80
479.08	13062.53
479.26	13029.76
479.44	13245.09
479.62	13163.17
479.80	13291.90
479.98	13577.45
480.16	13467.44
480.34	13263.82
480.52	13881.72
480.70	13781.07
480.88	13696.82
481.06	13816.18
481.24	14111.09
481.41	14279.61
481.59	14277.27
481.77	14618.99
481.95	14083.00
482.13	14611.96
482.31	14546.43
482.49	14839.00
482.67	14827.29
482.85	14956.02
483.03	15262.63
483.21	15096.46
483.39	15374.98
483.57	15550.52
483.74	15407.75
483.92	15728.40
484.10	15618.39
484.28	15927.35
484.46	16109.91
484.64	16205.87
484.82	16231.62
485.00	16271.40
485.18	16556.95
485.35	16542.91
485.53	15967.13
485.71	16229.27
485.89	16517.16
486.07	16320.56
486.25	16613.12
486.43	17050.80
486.61	17109.32
486.78	17067.19
486.96	17329.33
487.14	17635.94
487.32	17422.95
487.50	17996.38
487.68	18284.26
487.85	18480.87
488.03	18281.92
488.21	18569.81
488.39	18326.39
488.57	18862.38
488.75	19225.16
488.92	19389.00
489.10	19157.28
489.28	19136.22
489.46	19419.42
489.64	19484.96
489.81	20407.13
489.99	20180.10
490.17	19871.15
490.35	20360.32
490.53	20149.67
490.70	20397.77
490.88	20713.74
491.06	21048.44
491.24	20723.10
491.41	20688.00
491.59	20957.16
491.77	20835.45
491.95	21214.62
492.13	21165.46
492.30	21348.03
492.48	21596.12
492.66	21769.32
492.84	21671.02
493.01	21977.63
493.19	22008.06
493.37	22412.97
493.54	22242.11
493.72	22541.70
493.90	22714.90
494.08	22909.16
494.25	23150.24
494.43	23232.16
494.61	23470.89
494.79	23412.38
494.96	23204.07
495.14	23246.20
495.32	23784.52
495.49	23714.31
495.67	24254.97
495.85	23892.19
496.02	24023.26
496.20	24276.04
496.38	24290.08
496.55	24734.78
496.73	25125.65
496.91	24713.72
497.09	25015.65
497.26	25214.59
497.44	25191.19
497.62	24847.13
497.79	25575.03
497.97	25214.59
498.14	25778.66
498.32	25771.64
498.50	25678.02
498.67	26061.87
498.85	25942.50
499.03	26300.60
499.20	26164.85
499.38	26342.73
499.56	26361.45
499.73	26209.32
499.91	26487.84
500.08	26951.27
500.26	26178.89
500.44	26768.71
500.61	26658.70
500.79	26625.93
500.97	27606.62
501.14	27419.38
501.32	27262.56
501.49	27246.18
501.67	27182.98
501.84	27318.73
502.02	27702.58
502.20	28034.94
502.37	28173.03
502.55	27606.62
502.72	28442.19
502.90	27934.29
503.07	27648.75
503.25	28238.56
503.43	27878.12
503.60	28133.24
503.78	28154.30
503.95	28334.53
504.13	28416.44
504.30	28802.63
504.48	28727.74
504.65	28802.63
504.83	29032.00
505.01	29537.56
505.18	29097.54
505.36	29546.92
505.53	29392.45
505.71	29701.40
505.88	29708.42
506.06	29446.28
506.23	29474.37
506.41	29345.64
506.58	29741.19
506.76	29680.33
506.93	30462.07
507.11	30314.62
507.28	30522.93
507.46	30022.05
507.63	30176.53
507.81	30539.31
507.98	30125.04
508.16	30628.25
508.33	30604.84
508.50	30998.06
508.68	31012.10
508.85	31124.44
509.03	31030.82
509.20	31213.38
509.38	31360.84
509.55	31578.51
509.73	31356.16
509.90	31763.41
510.08	31241.47
510.25	31543.40
510.42	31269.56
510.60	32048.96
510.77	31929.59
510.95	31765.75
511.12	31934.27
511.30	32189.39
511.47	32465.57
511.64	32664.52
511.82	32514.72
511.99	32465.57
512.17	32474.93
512.34	32304.07
512.51	32744.09
512.69	32662.18
512.86	32907.93
513.04	32961.76
513.21	33163.05
513.38	32737.07
513.56	33263.69
513.73	32828.35
513.90	33141.99
514.08	33200.50
514.25	32940.70
514.43	33275.40
514.60	33226.24
514.77	33481.36
514.95	33853.51
515.12	33195.82
515.29	33757.55
515.47	34160.12
515.64	34251.40
515.81	34024.37
515.99	34015.01
516.16	34078.20
516.33	33605.41
516.51	33567.96
516.68	33497.75
516.85	33816.06
517.03	33745.84
517.20	34059.48
517.37	34204.59
517.54	34644.61
517.72	34349.70
517.89	34141.39
518.06	34288.85
518.24	34129.69
518.41	34349.70
518.58	34834.19
518.75	34852.92
518.93	34829.51
519.10	35051.86
519.27	35136.12
519.45	35044.84
519.62	35454.44
519.79	35658.06
519.96	35543.38
520.14	35452.09
520.31	35564.44
520.48	35704.87
520.65	35828.92
520.83	35452.09
521.00	36091.06
521.17	36212.77
521.34	35964.67
521.52	36456.18
521.69	36538.10
521.86	36123.83
522.03	36210.43
522.20	36416.40
522.38	36510.02
522.55	36816.63
522.72	36486.61
522.89	36814.29
523.07	36577.89
523.24	36453.84
523.41	36610.66
523.58	36753.43
523.75	37614.75
523.92	37127.92
524.10	37797.31
524.27	37600.71
524.44	37083.45
524.61	37708.37
524.78	37317.50
524.96	37633.47
525.13	38234.99
525.30	38263.08
525.47	38415.21
525.64	37558.58
525.81	37996.26
525.98	37523.47
526.16	37476.66
526.33	37649.86
526.50	37862.85
526.67	37675.60
526.84	37600.71
527.01	37455.59
527.18	37979.87
527.36	38043.07
527.53	38508.83
527.70	38848.21
527.87	38712.46
528.04	38878.64
528.21	38747.57
528.38	38698.42
528.55	39239.08
528.72	38876.30
528.89	39309.30
529.07	38721.82
529.24	38677.35
529.41	38871.62
529.58	38918.43
529.75	39110.35
529.92	39407.60
530.09	39100.99
530.26	39423.98
530.43	39435.69
530.60	39295.25
530.77	39470.79
530.94	39730.59
531.11	39475.48
531.28	39618.25
531.46	39854.64
531.63	39552.71
531.80	39463.77
531.97	39985.71
532.14	39838.26
532.31	39426.32
532.48	39693.15
532.65	40020.82
532.82	39945.92
532.99	40095.72
533.16	39700.17
533.33	40224.45
533.50	40378.92
533.67	40208.06
533.84	40203.38
534.01	40388.28
534.18	40203.38
534.35	40355.52
534.52	40421.05
534.69	40620.00
534.86	40617.66
535.03	40526.38
535.20	40935.97
535.37	40968.74
535.54	41167.68
535.71	40837.67
535.88	40804.90
536.05	40704.26
536.22	41050.66
536.38	41036.61
536.55	40722.98
536.72	40697.24
536.89	40411.69
537.06	40823.62
537.23	41558.55
537.40	40891.50
537.57	41151.30
537.74	41228.54
537.91	41773.88
538.08	41900.27
538.25	41317.48
538.42	41497.70
538.59	41942.40
538.75	41610.04
538.92	41132.57
539.09	41610.04
539.26	41336.20
539.43	41383.01
539.60	41532.81
539.77	41521.10
539.94	41904.95
540.11	41617.07
540.28	41235.56
540.44	42005.59
540.61	42082.83
540.78	41511.74
540.95	41851.12
541.12	41427.48
541.29	41825.37
541.46	41991.55
541.62	42071.13
541.79	42899.68
541.96	42120.28
542.13	42356.67
542.30	42431.57
542.47	42284.12
542.63	42440.93
542.80	42185.82
542.97	42511.15
543.14	42815.42
543.31	42813.08
543.48	42983.94
543.64	42981.60
543.81	43040.11
543.98	42878.61
544.15	42955.85
544.32	43189.91
544.48	43548.01
544.65	43496.52
544.82	43194.59
544.99	42817.76
545.16	43044.79
545.32	42625.84
545.49	43423.96
545.66	43842.92
545.83	43742.27
546.00	43606.52
546.16	43629.93
546.33	43119.69
546.50	43276.51
546.67	43250.76
546.83	42766.27
547.00	43744.61
547.17	43349.06
547.34	43512.90
547.50	43681.42
547.67	43922.49
547.84	44168.25
548.00	43779.72
548.17	44381.24
548.34	43868.66
548.51	44011.43
548.67	43648.65
548.84	44079.31
549.01	43906.11
549.18	43945.90
549.34	44119.10
549.51	44076.97
549.68	44194.00
549.84	44114.42
550.01	44687.85
550.18	44076.97
550.34	43765.68
550.51	43948.24
550.68	44044.20
550.84	44259.53
551.01	44912.54
551.18	44584.86
551.34	44561.46
551.51	44582.52
551.68	44638.70
551.84	44786.15
552.01	44264.21
552.18	44414.01
552.34	44067.61
552.51	44737.00
552.68	44238.47
552.84	44940.63
553.01	45113.83
553.18	44725.30
553.34	44425.71
553.51	44645.72
553.67	44809.56
553.84	45151.27
554.01	44811.90
554.17	45303.41
554.34	45621.72
554.51	45415.76
554.67	45137.23
554.84	45251.92
555.00	44952.33
555.17	44994.46
555.33	45343.20
555.50	45123.19
555.67	44973.39
555.83	45235.53
556.00	45291.71
556.16	45523.42
556.33	45523.42
556.50	45195.74
556.66	45172.34
556.83	44964.03
556.99	45357.24
557.16	45287.03
557.32	45284.68
557.49	45631.08
557.65	45202.77
557.82	45785.56
557.98	45127.87
558.15	45158.30
558.32	45588.95
558.48	45724.71
558.65	45832.37
558.81	45151.27
558.98	45298.73
559.14	45605.34
559.31	45776.20
559.47	45062.33
559.64	45483.63
559.80	46108.55
559.97	45956.42
560.13	45261.28
560.30	45500.01
560.46	45968.12
560.63	45492.99
560.79	45820.67
560.96	46230.26
561.12	45469.59
561.29	45591.30
561.45	45897.91
561.61	45811.31
561.78	46080.47
561.94	45780.88
562.11	45586.61
562.27	46007.91
562.44	46328.56
562.60	46223.24
562.77	45759.81
562.93	45979.82
563.10	45933.01
563.26	45865.14
563.42	46085.15
563.59	45970.46
563.75	46171.75
563.92	46560.28
564.08	46188.13
564.24	46300.48
564.41	46183.45
564.57	45949.40
564.74	46174.09
564.90	46087.49
565.07	45750.45
565.23	46237.28
565.39	45902.59
565.56	45965.78
565.72	45890.88
565.88	46272.39
566.05	45886.20
566.21	46143.66
566.38	45808.96
566.54	46415.16
566.70	46134.30
566.87	46461.97
567.03	46096.85
567.19	46483.04
567.36	46347.29
567.52	46415.16
567.68	46281.75
567.85	46141.32
568.01	46403.46
568.17	46181.11
568.34	46131.96
568.50	46326.22
568.66	45942.38
568.83	46674.96
568.99	46220.90
569.15	46522.83
569.32	46073.45
569.48	45977.48
569.64	46490.06
569.81	46167.07
569.97	46312.18
570.13	46127.28
570.30	46045.36
570.46	45930.67
570.62	45895.56
570.78	46281.75
570.95	45949.40
571.11	46913.70
571.27	45998.55
571.43	46028.98
571.60	46454.95
571.76	46361.33
571.92	46384.74
572.09	46176.43
572.25	46522.83
572.41	46295.80
572.57	46735.82
572.74	46576.66
572.90	46586.02
573.06	46373.03
573.22	46658.58
573.38	46656.24
573.55	46279.41
573.71	46770.93
573.87	46454.95
574.03	46043.02
574.20	46508.79
574.36	46555.60
574.52	46817.74
574.68	46494.74
574.84	46667.94
575.01	46686.67
575.17	46555.60
575.33	46614.11
575.49	46302.82
575.65	46412.82
575.82	46745.18
575.98	46571.98
576.14	46693.69
576.30	46663.26
576.46	46117.92
576.62	46515.81
576.79	46328.56
576.95	46164.73
577.11	45933.01
577.27	46710.07
577.43	46607.09
577.59	46651.56
577.75	46581.34
577.92	46178.77
578.08	46136.64
578.24	46141.32
578.40	46703.05
578.56	46408.14
578.72	46520.49
578.88	46724.11
579.04	46639.86
579.21	46492.40
579.37	46492.40
579.53	46344.95
579.69	46789.65
579.85	46417.50
580.01	46756.88
580.17	46431.55
580.33	46820.08
580.49	46735.82
580.65	46799.01
580.82	46735.82
580.98	46808.37
581.14	45916.63
581.30	46546.23
581.46	46513.47
581.62	46574.32
581.78	46511.13
581.94	47047.11
582.10	46426.87
582.26	46625.81
582.42	46501.76
582.58	47028.38
582.74	46525.17
582.90	46485.38
583.06	47164.14
583.22	46813.05
583.38	46691.35
583.54	46789.65
583.70	46707.73
583.86	46637.51
584.02	46099.19
584.18	46639.86
584.34	47037.75
584.50	46829.44
584.66	46410.48
584.82	46316.86
584.98	46932.42
585.14	46653.90
585.30	46361.33
585.46	46791.99
585.62	46443.25
585.78	46689.01
585.94	46543.89
586.10	46740.50
586.26	46396.44
586.42	46305.16
586.58	46635.17
586.74	47140.73
586.90	46461.97
587.06	46227.92
587.22	47260.10
587.38	46478.36
587.54	46855.18
587.70	46831.78
587.86	46586.02
588.02	46653.90
588.18	46494.74
588.34	46384.74
588.49	46211.54
588.65	46127.28
588.81	46057.06
588.97	46248.99
589.13	46031.32
589.29	46202.18
589.45	46373.03
589.61	46696.03
589.77	46848.16
589.93	46653.90
