SpectraSuite Data File
++++++++++++++++++++++++++++++++++++
Date: Fri Oct 25 11:26:19 EDT 2013
User: price-jones
Dark Spectrum Present: No
Reference Spectrum Present: No
Number of Sampled Component Spectra: 1
Spectrometers: USB2+H05261
Integration Time (usec): 100000 (USB2+H05261)
Spectra Averaged: 1 (USB2+H05261)
Boxcar Smoothing: 0 (USB2+H05261)
Correct for Electrical Dark: No (USB2+H05261)
Strobe/Lamp Enabled: No (USB2+H05261)
Correct for Detector Non-linearity: No (USB2+H05261)
Correct for Stray Light: No (USB2+H05261)
Number of Pixels in Processed Spectrum: 2048
>>>>>Begin Processed Spectral Data<<<<<
365.73	227.03
365.92	227.03
366.12	227.03
366.32	212.99
366.52	175.54
366.72	191.92
366.91	147.45
367.11	147.45
367.31	168.52
367.51	166.18
367.70	110.01
367.90	191.92
368.10	77.24
368.30	196.60
368.49	198.95
368.69	198.95
368.89	135.75
369.09	278.52
369.28	255.12
369.48	220.01
369.68	231.71
369.87	161.50
370.07	161.50
370.27	224.69
370.47	332.36
370.66	557.05
370.86	638.97
371.06	660.03
371.25	739.61
371.45	615.56
371.65	765.36
371.84	636.63
372.04	704.50
372.24	667.05
372.44	748.97
372.63	727.91
372.83	664.71
373.03	702.16
373.22	688.12
373.42	814.51
373.62	763.01
373.81	765.36
374.01	884.72
374.21	791.10
374.40	847.27
374.60	868.34
374.79	905.79
374.99	828.55
375.19	835.57
375.38	847.27
375.58	858.98
375.78	997.07
375.97	908.13
376.17	868.34
376.37	807.48
376.56	814.51
376.76	884.72
376.95	826.21
377.15	830.89
377.35	990.05
377.54	858.98
377.74	912.81
377.93	791.10
378.13	947.92
378.33	875.36
378.52	999.41
378.72	968.98
378.91	1013.45
379.11	990.05
379.31	1060.26
379.50	922.17
379.70	1039.20
379.89	1006.43
380.09	947.92
380.28	997.07
380.48	1008.77
380.68	1008.77
380.87	896.43
381.07	933.87
381.26	1081.33
381.46	1015.79
381.65	1008.77
381.85	1036.86
382.04	1090.69
382.24	1064.94
382.43	1046.22
382.63	997.07
382.83	1125.80
383.02	1137.50
383.22	1095.37
383.41	1100.05
383.61	1043.88
383.80	1109.41
384.00	1107.07
384.19	1167.93
384.39	1132.82
384.58	1067.28
384.78	1116.44
384.97	1165.59
385.17	1139.84
385.36	1165.59
385.56	1139.84
385.75	1043.88
385.95	1259.21
386.14	1205.38
386.34	1198.35
386.53	1247.51
386.72	1256.87
386.92	1387.94
387.11	1235.80
387.31	1238.14
387.50	1259.21
387.70	1219.42
387.89	1256.87
388.09	1320.06
388.28	1350.49
388.48	1235.80
388.67	1263.89
388.86	1338.79
389.06	1310.70
389.25	1313.04
389.45	1308.36
389.64	1254.53
389.84	1366.87
390.03	1418.36
390.22	1364.53
390.42	1303.68
390.61	1406.66
390.81	1401.98
391.00	1385.60
391.19	1472.20
391.39	1404.32
391.58	1495.60
391.78	1528.37
391.97	1427.73
392.16	1432.41
392.36	1504.96
392.55	1418.36
392.75	1528.37
392.94	1530.71
393.13	1523.69
393.33	1467.52
393.52	1556.46
393.71	1582.20
393.91	1652.42
394.10	1572.84
394.29	1598.59
394.49	1610.29
394.68	1596.25
394.88	1570.50
395.07	1685.19
395.26	1636.03
395.46	1732.00
395.65	1760.08
395.84	1739.02
396.04	1696.89
396.23	1715.61
396.42	1724.97
396.62	1818.60
396.81	1771.79
397.00	1802.21
397.19	1802.21
397.39	1834.98
397.58	1853.70
397.77	1734.34
397.97	1832.64
398.16	1914.56
398.35	1898.17
398.55	1860.73
398.74	1900.52
398.93	2057.33
399.12	1825.62
399.32	1860.73
399.51	1856.04
399.70	1949.67
399.90	1959.03
400.09	1940.30
400.28	2045.63
400.47	1944.99
400.67	2150.95
400.86	2165.00
401.05	2038.61
401.24	2038.61
401.44	2101.80
401.63	2073.71
401.82	2193.08
402.01	2169.68
402.21	2197.76
402.40	2157.97
402.59	2307.77
402.78	2223.51
402.97	2296.07
403.17	2141.59
403.36	2331.17
403.55	2221.17
403.74	2387.35
403.93	2410.75
404.13	2438.84
404.32	2328.83
404.51	2246.91
404.70	2389.69
404.89	2459.90
405.09	2506.71
405.28	2443.52
405.47	2504.37
405.66	2485.65
405.85	2539.48
406.05	2513.74
406.24	2476.29
406.43	2656.51
406.62	2700.98
406.81	2579.27
407.00	2576.93
407.20	2509.05
407.39	2605.02
407.58	2785.24
407.77	2663.53
407.96	2612.04
408.15	2782.90
408.34	2661.19
408.54	2785.24
408.73	2822.69
408.92	2876.52
409.11	2911.63
409.30	2855.45
409.49	2902.26
409.68	2953.76
409.87	2939.71
410.07	3026.31
410.26	3005.25
410.45	3056.74
410.64	2993.55
410.83	3002.91
411.02	3145.68
411.21	3115.25
411.40	3056.74
411.59	3122.27
411.78	3206.53
411.98	3232.28
412.17	3185.47
412.36	3384.41
412.55	3295.47
412.74	3372.71
412.93	3410.16
413.12	3410.16
413.31	3478.04
413.50	3459.31
413.69	3566.98
413.88	3531.87
414.07	3712.09
414.26	3782.31
414.45	3620.81
414.64	3618.47
414.83	3770.60
415.02	3754.22
415.22	3861.88
415.41	3831.46
415.60	3922.74
415.79	3882.95
415.98	3836.14
416.17	4032.74
416.36	3941.46
416.55	3901.67
416.74	4023.38
416.93	4023.38
417.12	4112.32
417.31	4180.20
417.50	4332.33
417.69	4266.80
417.88	4241.05
418.07	4367.44
418.26	4351.06
418.45	4435.32
418.64	4517.23
418.83	4402.55
419.02	4437.66
419.21	4533.62
419.39	4301.90
419.58	4489.15
419.77	4498.51
419.96	4414.25
420.15	4517.23
420.34	4636.60
420.53	4559.36
420.72	4706.82
420.91	4681.07
421.10	4793.42
421.29	4610.86
421.48	4770.01
421.67	4713.84
421.86	4830.87
422.05	4795.76
422.24	4767.67
422.43	4880.02
422.61	4741.93
422.80	4851.93
422.99	4865.97
423.18	4896.40
423.37	5100.03
423.56	4966.62
423.75	4917.47
423.94	4854.27
424.13	4594.47
424.32	4683.41
424.50	4999.38
424.69	5057.90
424.88	4947.89
425.07	4961.94
425.26	4854.27
425.45	4847.25
425.64	4840.23
425.83	4987.68
426.01	4994.70
426.20	5085.98
426.39	5043.85
426.58	5109.39
426.77	5116.41
426.96	5107.05
427.15	5174.92
427.33	5184.29
427.52	5109.39
427.71	5144.50
427.90	5249.82
428.09	5270.89
428.28	5383.23
428.46	5413.66
428.65	5488.56
428.84	5547.07
429.03	5547.07
429.22	5238.12
429.40	5469.83
429.59	5401.96
429.78	5226.42
429.97	5313.02
430.16	5528.35
430.34	5582.18
430.53	5488.56
430.72	5708.57
430.91	5755.38
431.10	5607.92
431.28	5760.06
431.47	5729.63
431.66	5853.68
431.85	5713.25
432.03	5893.47
432.22	5830.27
432.41	5839.64
432.60	5741.33
432.79	5973.05
432.97	6008.16
433.16	5912.19
433.35	6040.92
433.54	5947.30
433.72	6293.70
433.91	6045.60
434.10	6221.14
434.28	5998.79
434.47	6085.39
434.66	6328.81
434.85	6380.30
435.03	6174.33
435.22	6317.11
435.41	6438.81
435.59	6310.08
435.78	6502.01
435.97	6422.43
436.16	6307.74
436.34	6314.77
436.53	6457.54
436.72	6476.26
436.90	6399.02
437.09	6637.76
437.28	6532.44
437.46	6490.31
437.65	6656.48
437.84	6588.61
438.02	6541.80
438.21	6722.02
438.40	6918.62
438.58	6942.03
438.77	7005.22
438.96	7021.61
439.14	7080.12
439.33	7124.59
439.52	7279.07
439.70	7199.49
439.89	7351.62
440.08	7300.13
440.26	7524.82
440.45	7307.15
440.63	7410.14
440.82	7428.86
441.01	7543.55
441.19	7719.09
441.38	7693.34
441.57	7590.36
441.75	7728.45
441.94	7955.48
442.12	7824.41
442.31	8030.38
442.50	8077.19
442.68	7957.82
442.87	8086.55
443.05	8030.38
443.24	8313.58
443.43	8028.04
443.61	8077.19
443.80	8418.91
443.98	8191.88
444.17	7730.79
444.35	8222.30
444.54	8304.22
444.73	8217.62
444.91	8287.84
445.10	8444.65
445.28	8280.82
445.47	8152.09
445.65	8224.64
445.84	8339.33
446.02	8648.28
446.21	8641.26
446.39	8423.59
446.58	8575.72
446.77	8716.16
446.95	8517.21
447.14	8428.27
447.32	8557.00
447.51	8369.76
447.69	8482.10
447.88	8589.77
448.06	8510.19
448.25	8334.65
448.43	8557.00
448.62	8564.02
448.80	8365.07
448.99	8753.60
449.17	8690.41
449.36	8573.38
449.54	8706.79
449.73	8901.06
449.91	9027.45
450.10	8863.61
450.28	9090.64
450.46	9027.45
450.65	8961.91
450.83	8954.89
451.02	8968.93
451.20	9284.91
451.39	9121.07
451.57	8980.64
451.76	8990.00
451.94	9158.52
452.13	9165.54
452.31	9392.57
452.49	9050.85
452.68	9298.95
452.86	9146.81
453.05	9362.14
453.23	9661.73
453.42	9322.35
453.60	9242.78
453.78	9610.24
453.97	9305.97
454.15	9444.06
454.34	9558.75
454.52	9511.94
454.70	9607.90
454.89	9827.91
455.07	9666.41
455.26	9729.61
455.44	10015.15
455.62	9879.40
455.81	10003.45
455.99	9851.31
456.17	9881.74
456.36	10251.55
456.54	10078.35
456.73	10171.97
456.91	10384.96
457.09	10373.25
457.28	10733.70
457.46	10441.13
457.64	10595.61
457.83	10471.56
458.01	10176.65
458.19	10740.72
458.38	10651.78
458.56	10630.71
458.74	10527.73
458.93	10572.20
459.11	10677.52
459.29	10661.14
459.48	10693.91
459.66	10888.17
459.84	10782.85
460.03	10958.39
460.21	10864.77
460.39	10754.76
460.57	10981.79
460.76	10965.41
460.94	11157.33
461.12	11140.95
461.31	11066.05
461.49	11211.17
461.67	11077.76
461.85	11281.38
462.04	11417.13
462.22	11768.21
462.40	11676.93
462.59	11365.64
462.77	11557.57
462.95	11644.17
463.13	11641.82
463.32	11276.70
463.50	11646.51
463.68	11698.00
463.86	11843.11
464.05	11791.62
464.23	11627.78
464.41	11854.81
464.59	11623.10
464.78	12020.99
464.96	11901.62
465.14	11871.20
465.32	11819.71
465.50	12245.68
465.69	12205.89
465.87	11974.18
466.05	12194.19
466.23	12093.55
466.41	12233.98
466.60	12566.34
466.78	12084.19
466.96	12285.47
467.14	12191.85
467.32	12388.46
467.51	12594.42
467.69	12163.76
467.87	12175.47
468.05	12437.61
468.23	12259.73
468.41	12444.63
468.60	12542.93
468.78	12814.43
468.96	12425.90
469.14	12863.58
469.32	13046.15
469.50	12465.69
469.69	13137.43
469.87	12882.31
470.05	13139.77
470.23	13193.60
470.41	13193.60
470.59	13352.76
470.77	13282.54
470.95	13125.72
471.14	13633.62
471.32	13261.48
471.50	13722.56
471.68	13305.95
471.86	13570.43
472.04	13631.28
472.22	13944.91
472.40	13628.94
472.58	13832.57
472.77	14080.66
472.95	14010.45
473.13	14604.94
473.31	14122.79
473.49	14223.44
473.67	14253.86
473.85	14223.44
474.03	14335.78
474.21	14314.72
474.39	14803.89
474.57	14623.67
474.75	14642.39
474.93	14965.39
475.12	14993.47
475.30	15035.60
475.48	15021.56
475.66	14970.07
475.84	14981.77
476.02	15468.60
476.20	15211.14
476.38	15461.58
476.56	15967.13
476.74	15894.58
476.92	15592.65
477.10	15782.23
477.28	15927.35
477.46	16126.29
477.64	16299.49
477.82	16383.75
478.00	17001.65
478.18	16840.15
478.36	16673.98
478.54	17118.68
478.72	17298.90
478.90	17380.82
479.08	17603.17
479.26	17455.72
479.44	17612.53
479.62	17699.13
479.80	17956.59
479.98	18003.40
480.16	18300.65
480.34	18366.18
480.52	18682.16
480.70	18181.28
480.88	18410.65
481.06	18782.80
481.24	18637.69
481.41	19007.49
481.59	19566.88
481.77	19246.23
481.95	19070.68
482.13	19510.71
482.31	19693.27
482.49	20126.27
482.67	20049.03
482.85	20470.33
483.03	20475.01
483.21	20278.40
483.39	20783.96
483.57	21097.59
483.74	20978.22
483.92	21219.30
484.10	20872.90
484.28	21610.17
484.46	21846.56
484.64	22279.56
484.82	21771.66
485.00	22307.65
485.18	22721.92
485.35	22714.90
485.53	22787.46
485.71	22937.25
485.89	23351.52
486.07	23077.68
486.25	23379.61
486.43	23559.83
486.61	23747.08
486.78	23957.72
486.96	24390.72
487.14	24269.01
487.32	24283.06
487.50	24472.64
487.68	24849.47
487.85	24912.66
488.03	25394.81
488.21	25729.51
488.39	25750.57
488.57	25453.33
488.75	26148.46
488.92	26466.78
489.10	26738.28
489.28	26726.58
489.46	26857.65
489.64	27026.17
489.81	27309.37
489.99	27550.45
490.17	27751.73
490.35	27648.75
490.53	27941.32
490.70	28140.26
490.88	28301.76
491.06	29158.39
491.24	28407.08
491.41	28914.98
491.59	29184.14
491.77	28788.59
491.95	29769.27
492.13	29802.04
492.30	29699.06
492.48	29649.91
492.66	29982.26
492.84	30260.79
493.01	30539.31
493.19	30555.69
493.37	30965.29
493.54	31143.17
493.72	31227.43
493.90	31583.19
494.08	32140.24
494.25	31732.98
494.43	31941.29
494.61	32006.83
494.79	32563.87
494.96	32430.46
495.14	32627.07
495.32	33039.00
495.49	33076.45
495.67	33116.24
495.85	33174.75
496.02	33699.03
496.20	33993.94
496.38	33881.60
496.55	33858.19
496.73	34726.53
496.91	34242.04
497.09	34476.09
497.26	34806.11
497.44	34511.20
497.62	35314.00
497.79	35910.84
497.97	35384.22
498.14	35374.86
498.32	36308.73
498.50	35955.31
498.67	36444.48
498.85	36329.80
499.03	36484.27
499.20	36346.18
499.38	36760.45
499.56	37024.93
499.73	37038.98
499.91	37090.47
500.08	37413.46
500.26	37619.43
500.44	37542.19
500.61	37546.87
500.79	37677.94
500.97	37783.27
501.14	38646.93
501.32	38368.40
501.49	38139.03
501.67	38471.39
501.84	39014.39
502.02	38780.34
502.20	38848.21
502.37	38770.97
502.55	39061.20
502.72	39498.88
502.90	39239.08
503.07	39269.51
503.25	39667.40
503.43	39213.34
503.60	40112.10
503.78	40151.89
503.95	40210.40
504.13	40254.87
504.30	40582.55
504.48	40465.52
504.65	40311.05
504.83	40720.64
505.01	40985.12
505.18	40823.62
505.36	41205.13
505.53	41022.57
505.71	41851.12
505.88	41963.46
506.06	41429.82
506.23	41588.98
506.41	41558.55
506.58	42291.14
506.76	42216.24
506.93	42220.92
507.11	42272.42
507.28	42134.32
507.46	42611.79
507.63	42546.26
507.81	43147.78
507.98	43213.31
508.16	42981.60
508.33	43047.13
508.50	43072.88
508.68	43639.29
508.85	43945.90
509.03	43438.00
509.20	43667.37
509.38	43992.71
509.55	44037.18
509.73	44219.74
509.90	43931.86
510.08	44362.51
510.25	44428.05
510.42	44823.60
510.60	44762.75
510.77	44971.05
510.95	45188.72
511.12	44917.22
511.30	45031.91
511.47	45099.78
511.64	44989.78
511.82	45687.26
511.99	45406.39
512.17	45633.42
512.34	45544.48
512.51	46188.13
512.69	45958.76
512.86	45947.06
513.04	46471.34
513.21	46635.17
513.38	46232.60
513.56	46658.58
513.73	46539.21
513.90	46829.44
514.08	46618.79
514.25	46866.89
514.43	47091.58
514.60	47730.54
514.77	46656.24
514.95	47398.19
515.12	47093.92
515.29	47047.11
515.47	47709.48
515.64	47915.45
515.81	48116.73
515.99	48076.94
516.16	48163.54
516.33	48074.60
516.51	48388.24
516.68	48341.42
516.85	47978.64
517.03	48570.80
517.20	48942.94
517.37	48793.15
517.54	48451.43
517.72	48821.23
517.89	48816.55
518.06	48975.71
518.24	48959.33
518.41	49020.18
518.58	48947.62
518.75	49380.62
518.93	49287.00
519.10	49432.11
519.27	49581.91
519.45	49448.50
519.62	49614.68
519.79	49748.09
519.96	50068.74
520.14	50071.08
520.31	49911.92
520.48	50237.26
520.65	50047.68
520.83	50288.75
521.00	50333.22
521.17	50302.79
521.34	50384.71
521.52	50553.23
521.69	50597.70
521.86	50820.05
522.03	50630.47
522.20	51480.08
522.38	51262.41
522.55	51178.15
522.72	50878.57
522.89	51054.11
523.07	51524.55
523.24	51199.22
523.41	51597.11
523.58	51484.76
523.75	51636.90
523.92	51732.86
524.10	52065.22
524.27	52083.94
524.44	51831.16
524.61	51789.03
524.78	51861.59
524.96	51688.39
525.13	52062.88
525.30	52416.30
525.47	52217.35
525.64	52432.68
525.81	52619.92
525.98	52467.79
526.16	52545.03
526.33	52364.81
526.50	52823.55
526.67	52428.00
526.84	52863.34
527.01	53010.79
527.18	52980.37
527.36	52573.11
527.53	52570.77
527.70	53322.08
527.87	53223.78
528.04	53015.47
528.21	53240.17
528.38	53249.53
528.55	53530.39
528.72	53284.64
528.89	53329.11
529.07	53144.20
529.24	53055.26
529.41	53734.02
529.58	53382.94
529.75	53464.86
529.92	53710.61
530.09	53869.77
530.26	53717.64
530.43	53766.79
530.60	53712.95
530.77	53748.06
530.94	53844.02
531.11	53923.60
531.28	54176.38
531.46	54150.63
531.63	54255.96
531.80	53921.26
531.97	54279.36
532.14	54447.88
532.31	54087.44
532.48	54389.37
532.65	54628.10
532.82	54445.54
532.99	54564.91
533.16	54518.10
533.33	54693.64
533.50	55025.99
533.67	54482.99
533.84	54649.17
534.01	54740.45
534.18	55002.59
534.35	55250.69
534.52	54855.14
534.69	55047.06
534.86	55407.50
535.03	55086.85
535.20	55173.45
535.37	55292.82
535.54	55302.18
535.71	55117.28
535.88	55358.35
536.05	55199.19
536.22	55564.32
536.38	55435.59
536.55	55473.04
536.72	55330.26
536.89	55449.63
537.06	55414.52
537.23	55664.96
537.40	55625.17
537.57	55545.59
537.74	55505.80
537.91	55987.95
538.08	55887.31
538.25	55704.75
538.42	55859.23
538.59	56236.05
538.75	55868.59
538.92	56154.13
539.09	56222.01
539.26	56067.53
539.43	56076.90
539.60	55990.30
539.77	56048.81
539.94	56324.99
540.11	56222.01
540.28	56086.26
540.44	56039.45
540.61	56547.34
540.78	56444.36
540.95	56385.85
541.12	56397.55
541.29	56196.26
541.46	56219.67
541.62	56418.61
541.79	56554.36
541.96	56587.13
542.13	56437.34
542.30	56743.95
542.47	56708.84
542.63	56945.23
542.80	56823.53
542.97	57031.83
543.14	57013.11
543.31	57310.36
543.48	56985.02
543.64	57396.96
543.81	57462.49
543.98	57345.47
544.15	57132.48
544.32	57308.02
544.48	57715.27
544.65	57350.15
544.82	57326.74
544.99	57165.24
545.16	57392.28
545.32	57329.08
545.49	57584.20
545.66	57726.97
545.83	57448.45
546.00	57403.98
546.16	57462.49
546.33	57340.78
546.50	57460.15
546.67	57764.42
546.83	57389.94
547.00	57464.83
547.17	57773.78
547.34	57659.10
547.50	57939.96
547.67	58178.70
547.84	57773.78
548.00	58120.18
548.17	58269.98
548.34	57986.77
548.51	58131.89
548.67	58230.19
548.84	57776.12
549.01	57829.96
549.18	58127.20
549.34	57977.41
549.51	57968.05
549.68	58239.55
549.84	58253.59
550.01	58202.10
550.18	58014.86
550.34	58417.43
550.51	58398.71
550.68	58485.31
550.84	58197.42
551.01	58464.24
551.18	58408.07
551.34	58417.43
551.51	58497.01
551.68	58337.85
551.84	58244.23
552.01	58298.06
552.18	58398.71
552.34	58487.65
552.51	58745.11
552.68	58375.30
552.84	58431.47
553.01	58766.17
553.18	58796.60
553.34	58855.11
553.51	58508.71
553.67	58798.94
553.84	58794.26
554.01	58759.15
554.17	58890.22
554.34	59117.25
554.51	58939.37
554.67	58812.98
554.84	58993.20
555.00	58820.00
555.17	58890.22
555.33	59032.99
555.50	58768.51
555.67	58908.94
555.83	58745.11
556.00	58948.73
556.16	59311.52
556.33	59175.76
556.50	59168.74
556.66	59257.68
556.83	59213.21
556.99	59292.79
557.16	59257.68
557.32	59316.20
557.49	59444.93
557.65	59180.45
557.82	59384.07
557.98	59313.86
558.15	59206.19
558.32	59461.31
558.48	59250.66
558.65	59458.97
558.81	59367.69
558.98	59440.24
559.14	59587.70
559.31	59554.93
559.47	59587.70
559.64	59533.87
559.80	59426.20
559.97	59683.66
560.13	59402.80
560.30	59547.91
560.46	59861.54
560.63	59765.58
560.79	59655.57
560.96	59772.60
561.12	59709.41
561.29	59824.09
561.45	59852.18
561.61	59664.94
561.78	59730.47
561.94	59442.59
562.11	59662.60
562.27	59611.10
562.44	59821.75
562.60	59894.31
562.77	59957.50
562.93	59749.20
563.10	60130.70
563.26	59866.22
563.42	59992.61
563.59	59845.16
563.75	59845.16
563.92	59884.95
564.08	59948.14
564.24	60046.44
564.41	59959.84
564.57	60046.44
564.74	60032.40
564.90	59915.37
565.07	60051.12
565.23	60126.02
565.39	59952.82
565.56	60119.00
565.72	59976.23
565.88	60111.98
566.05	60013.68
566.21	60009.00
566.38	60046.44
566.54	60165.81
566.70	60355.39
566.87	60310.92
567.03	60009.00
567.19	60341.35
567.36	60268.79
567.52	60081.55
567.68	60587.11
567.85	60275.82
568.01	60324.97
568.17	60285.18
568.34	60376.46
568.50	60257.09
568.66	60177.51
568.83	60376.46
568.99	60093.25
569.15	60189.22
569.32	60427.95
569.48	60193.90
569.64	60383.48
569.81	60374.12
569.97	60243.05
570.13	60392.84
570.30	60207.94
570.46	60549.66
570.62	60250.07
570.78	60250.07
570.95	60331.99
571.11	60584.77
571.27	60186.88
571.43	60322.63
571.60	60350.71
571.76	60530.93
571.92	60498.17
572.09	60617.53
572.25	60432.63
572.41	60390.50
572.57	60390.50
572.74	60898.40
572.90	60240.71
573.06	60624.56
573.22	60369.44
573.38	60514.55
573.55	60399.86
573.71	60715.84
573.87	60535.62
574.03	60542.64
574.20	60465.40
574.36	60479.44
574.52	60577.75
574.68	60872.65
574.84	60741.58
575.01	60711.16
575.17	60523.91
575.33	60547.32
575.49	60486.46
575.65	60882.02
575.82	60865.63
575.98	60598.81
576.14	60938.19
576.30	60678.39
576.46	60516.89
576.62	60846.91
576.79	60715.84
576.95	60573.06
577.11	60863.29
577.27	60505.19
577.43	60764.99
577.59	60711.16
577.75	60697.11
577.92	60542.64
578.08	60762.65
578.24	60657.32
578.40	60722.86
578.56	60956.91
578.72	60685.41
578.88	60896.06
579.04	60975.64
579.21	60629.24
579.37	60732.22
579.53	60629.24
579.69	60690.09
579.85	60537.96
580.01	60582.43
580.17	60453.70
580.33	60757.97
580.49	60795.42
580.65	60804.78
580.82	60626.90
580.98	60732.22
581.14	60542.64
581.30	61055.21
581.46	60657.32
581.62	60582.43
581.78	61073.94
581.94	60725.20
582.10	60760.31
582.26	60828.18
582.42	60800.10
582.58	60722.86
582.74	60851.59
582.90	60903.08
583.06	60711.16
583.22	60725.20
583.38	60776.69
583.54	60825.84
583.70	60685.41
583.86	60865.63
584.02	60842.23
584.18	60926.49
584.34	60865.63
584.50	61055.21
584.66	60863.29
584.82	60828.18
584.98	60970.96
585.14	61172.24
585.30	60772.01
585.46	60954.57
585.62	61022.45
585.78	60961.59
585.94	60699.45
586.10	60851.59
586.26	60853.93
586.42	60849.25
586.58	61155.86
586.74	60912.44
586.90	61027.13
587.06	60739.24
587.22	61085.64
587.38	60973.30
587.54	60884.36
587.70	61148.84
587.86	60863.29
588.02	61001.38
588.18	61165.22
588.34	60788.39
