SpectraSuite Data File
++++++++++++++++++++++++++++++++++++
Date: Fri Oct 25 11:22:54 EDT 2013
User: price-jones
Dark Spectrum Present: No
Reference Spectrum Present: No
Number of Sampled Component Spectra: 1
Spectrometers: USB2+H05261
Integration Time (usec): 100000 (USB2+H05261)
Spectra Averaged: 1 (USB2+H05261)
Boxcar Smoothing: 0 (USB2+H05261)
Correct for Electrical Dark: No (USB2+H05261)
Strobe/Lamp Enabled: No (USB2+H05261)
Correct for Detector Non-linearity: No (USB2+H05261)
Correct for Stray Light: No (USB2+H05261)
Number of Pixels in Processed Spectrum: 2048
>>>>>Begin Processed Spectral Data<<<<<
365.73	196.60
365.92	196.60
366.12	196.60
366.32	170.86
366.52	102.98
366.72	154.48
366.91	117.03
367.11	117.03
367.31	128.73
367.51	154.48
367.70	152.13
367.90	133.41
368.10	145.11
368.30	72.56
368.49	91.28
368.69	110.01
368.89	91.28
369.09	166.18
369.28	152.13
369.48	140.43
369.68	189.58
369.87	119.37
370.07	107.66
370.27	220.01
370.47	318.31
370.66	578.11
370.86	547.69
371.06	706.84
371.25	711.52
371.45	667.05
371.65	601.52
371.84	596.84
372.04	674.07
372.24	755.99
372.44	711.52
372.63	744.29
372.83	709.18
373.03	774.72
373.22	685.78
373.42	779.40
373.62	718.54
373.81	793.44
374.01	844.93
374.21	821.53
374.40	763.01
374.60	898.77
374.79	828.55
374.99	833.23
375.19	887.06
375.38	805.14
375.58	898.77
375.78	896.43
375.97	877.70
376.17	821.53
376.37	814.51
376.56	807.48
376.76	851.96
376.95	931.53
377.15	870.68
377.35	887.06
377.54	891.74
377.74	847.27
377.93	870.68
378.13	880.04
378.33	922.17
378.52	924.51
378.72	1034.52
378.91	990.05
379.11	915.15
379.31	940.90
379.50	987.71
379.70	945.58
379.89	1015.79
380.09	922.17
380.28	957.28
380.48	1001.75
380.68	950.26
380.87	976.00
381.07	952.60
381.26	983.02
381.46	1018.13
381.65	952.60
381.85	1018.13
382.04	973.66
382.24	1086.01
382.43	999.41
382.63	1036.86
382.83	1041.54
383.02	1156.22
383.22	1118.78
383.41	1015.79
383.61	1083.67
383.80	1095.37
384.00	1022.81
384.19	1123.46
384.39	1074.31
384.58	1132.82
384.78	1149.20
384.97	1146.86
385.17	1139.84
385.36	1050.90
385.56	1170.27
385.75	1179.63
385.95	1196.01
386.14	1163.25
386.34	1198.35
386.53	1203.04
386.72	1228.78
386.92	1242.82
387.11	1254.53
387.31	1233.46
387.50	1238.14
387.70	1196.01
387.89	1249.85
388.09	1219.42
388.28	1270.91
388.48	1261.55
388.67	1355.17
388.86	1277.93
389.06	1322.40
389.25	1336.45
389.45	1432.41
389.64	1322.40
389.84	1390.28
390.03	1362.19
390.22	1507.30
390.42	1345.81
390.61	1373.89
390.81	1376.24
391.00	1373.89
391.19	1383.26
391.39	1416.02
391.58	1394.96
391.78	1446.45
391.97	1394.96
392.16	1413.68
392.36	1495.60
392.55	1547.09
392.75	1558.80
392.94	1451.13
393.13	1488.58
393.33	1493.26
393.52	1561.14
393.71	1565.82
393.91	1572.84
394.10	1577.52
394.29	1633.69
394.49	1596.25
394.68	1647.74
394.88	1654.76
395.07	1586.88
395.26	1629.01
395.46	1605.61
395.65	1790.51
395.84	1769.44
396.04	1755.40
396.23	1743.70
396.42	1827.96
396.62	1806.89
396.81	1717.95
397.00	1757.74
397.19	1652.42
397.39	1715.61
397.58	1816.26
397.77	1830.30
397.97	1977.75
398.16	1870.09
398.35	1893.49
398.55	1891.15
398.74	1914.56
398.93	1914.56
399.12	1837.32
399.32	1900.52
399.51	1914.56
399.70	2019.88
399.90	1928.60
400.09	1970.73
400.28	2001.16
400.47	2069.03
400.67	1994.14
400.86	2008.18
401.05	2036.27
401.24	2115.84
401.44	2083.08
401.63	2153.29
401.82	2162.66
402.01	2263.30
402.21	2150.95
402.40	2157.97
402.59	2183.72
402.78	2251.60
402.97	2218.83
403.17	2279.68
403.36	2218.83
403.55	2347.56
403.74	2377.98
403.93	2401.39
404.13	2462.24
404.32	2370.96
404.51	2354.58
404.70	2406.07
404.89	2408.41
405.09	2415.43
405.28	2511.39
405.47	2560.55
405.66	2464.58
405.85	2471.61
406.05	2560.55
406.24	2586.29
406.43	2593.31
406.62	2654.17
406.81	2836.73
407.00	2642.46
407.20	2581.61
407.39	2745.45
407.58	2766.51
407.77	2700.98
407.96	2715.02
408.15	2738.43
408.34	2640.12
408.54	2705.66
408.73	2761.83
408.92	2775.88
409.11	2909.29
409.30	2925.67
409.49	2958.44
409.68	2890.56
409.87	2876.52
410.07	2986.52
410.26	3112.91
410.45	3033.33
410.64	3112.91
410.83	3077.80
411.02	3084.83
411.21	3084.83
411.40	3087.17
411.59	3262.71
411.78	3220.58
411.98	3290.79
412.17	3272.07
412.36	3281.43
412.55	3330.58
412.74	3531.87
412.93	3379.73
413.12	3328.24
413.31	3534.21
413.50	3456.97
413.69	3461.65
413.88	3719.11
414.07	3648.90
414.26	3653.58
414.45	3735.50
414.64	3688.68
414.83	3665.28
415.02	3709.75
415.22	3960.19
415.41	3901.67
415.60	3887.63
415.79	3981.25
415.98	3960.19
416.17	4124.02
416.36	4049.13
416.55	4023.38
416.74	3990.61
416.93	4051.47
417.12	4133.39
417.31	4161.47
417.50	4266.80
417.69	4262.12
417.88	4231.69
418.07	4341.69
418.26	4365.10
418.45	4362.76
418.64	4440.00
418.83	4545.32
419.02	4519.57
419.21	4451.70
419.39	4692.77
419.58	4447.02
419.77	4477.44
419.96	4568.73
420.15	4575.75
420.34	4638.94
420.53	4585.11
420.72	4664.69
420.91	4737.24
421.10	4945.55
421.29	4798.10
421.48	4662.35
421.67	4865.97
421.86	4887.04
422.05	4739.58
422.24	4889.38
422.43	4868.31
422.61	4800.44
422.80	4908.10
422.99	4959.60
423.18	5022.79
423.37	5011.09
423.56	5060.24
423.75	4954.91
423.94	5060.24
424.13	4793.42
424.32	4854.27
424.50	4891.72
424.69	5100.03
424.88	5186.63
425.07	4908.10
425.26	4968.96
425.45	5029.81
425.64	5025.13
425.83	5093.01
426.01	4990.02
426.20	5011.09
426.39	5060.24
426.58	5006.41
426.77	4870.65
426.96	5210.03
427.15	5107.05
427.33	5270.89
427.52	5324.72
427.71	5338.76
427.90	5050.88
428.09	5308.34
428.28	5401.96
428.46	5334.08
428.65	5380.89
428.84	5518.98
429.03	5664.10
429.22	5390.25
429.40	5530.69
429.59	5570.48
429.78	5289.61
429.97	5364.51
430.16	5502.60
430.34	5540.05
430.53	5701.54
430.72	5605.58
430.91	5664.10
431.10	5556.43
431.28	5757.72
431.47	5694.52
431.66	5961.34
431.85	5858.36
432.03	5774.10
432.22	6054.97
432.41	5998.79
432.60	5834.96
432.79	6012.84
432.97	6031.56
433.16	6148.59
433.35	5926.24
433.54	6099.44
433.72	6101.78
433.91	6073.69
434.10	6122.84
434.28	6155.61
434.47	6277.32
434.66	6300.72
434.85	6389.66
435.03	6504.35
435.22	6298.38
435.41	6562.86
435.59	6408.39
435.78	6452.86
435.97	6478.60
436.16	6523.07
436.34	6462.22
436.53	6565.20
436.72	6686.91
436.90	6574.56
437.09	6555.84
437.28	6656.48
437.46	6597.97
437.65	6747.76
437.84	6942.03
438.02	6813.30
438.21	6855.43
438.40	6588.61
438.58	7035.65
438.77	6988.84
438.96	6953.73
439.14	7171.40
439.33	7330.56
439.52	7180.76
439.70	7265.02
439.89	7407.80
440.08	7372.69
440.26	7466.31
440.45	7442.90
440.63	7499.08
440.82	7716.75
441.01	7555.25
441.19	7648.87
441.38	7765.90
441.57	7768.24
441.75	7875.90
441.94	7934.42
442.12	8095.91
442.31	8065.49
442.50	8077.19
442.68	7934.42
442.87	8079.53
443.05	8257.41
443.24	8334.65
443.43	8365.07
443.61	8262.09
443.80	8297.20
443.98	7983.57
444.17	7798.66
444.35	8255.07
444.54	8479.76
444.73	8339.33
444.91	8229.32
445.10	8414.23
445.28	8355.71
445.47	8418.91
445.65	8468.06
445.84	8432.95
446.02	8482.10
446.21	8430.61
446.39	8468.06
446.58	8589.77
446.77	8753.60
446.95	8222.30
447.14	8454.02
447.32	8631.90
447.51	8528.91
447.69	8470.40
447.88	8451.67
448.06	8491.46
448.25	8463.38
448.43	8669.34
448.62	8683.39
448.80	8514.87
448.99	8706.79
449.17	8762.97
449.36	8617.85
449.54	8877.65
449.73	9001.70
449.91	8872.97
450.10	9102.34
450.28	9233.41
450.46	9160.86
450.65	8990.00
450.83	9207.67
451.02	9298.95
451.20	9111.71
451.39	9186.60
451.57	9310.65
451.76	9240.44
451.94	9352.78
452.13	9415.98
452.31	9315.33
452.49	9233.41
452.68	9341.08
452.86	9277.88
453.05	9565.77
453.23	9593.86
453.42	9483.85
453.60	9411.29
453.78	9689.82
453.97	9235.75
454.15	9460.45
454.34	9500.23
454.52	9914.51
454.70	9745.99
454.89	9778.76
455.07	9886.42
455.26	9905.15
455.44	9881.74
455.62	9912.17
455.81	9975.36
455.99	9935.57
456.17	10066.64
456.36	10083.03
456.54	10094.73
456.73	10281.97
456.91	10441.13
457.09	10265.59
457.28	10663.48
457.46	10258.57
457.64	10429.43
457.83	10698.59
458.01	10583.90
458.19	10518.37
458.38	10731.36
458.56	10740.72
458.74	10649.44
458.93	10766.46
459.11	10984.13
459.29	10871.79
459.48	10991.16
459.66	10853.06
459.84	11021.58
460.03	11077.76
460.21	10913.92
460.39	11122.23
460.57	10960.73
460.76	11487.35
460.94	11241.59
461.12	11246.27
461.31	11414.79
461.49	11187.76
461.67	11302.45
461.85	11637.14
462.04	11613.74
462.22	11655.87
462.40	11571.61
462.59	11566.93
462.77	11412.45
462.95	11730.76
463.13	11702.68
463.32	11854.81
463.50	11784.60
463.68	11971.84
463.86	11878.22
464.05	11770.55
464.23	11967.16
464.41	11932.05
464.59	11913.33
464.78	12159.08
464.96	12187.17
465.14	11992.90
465.32	12063.12
465.50	12210.57
465.69	12299.52
465.87	12334.62
466.05	12285.47
466.23	12257.39
466.41	12589.74
466.60	12542.93
466.78	12168.45
466.96	12320.58
467.14	12351.01
467.32	12739.54
467.51	12620.17
467.69	12407.18
467.87	12711.45
468.05	12636.55
468.23	12528.89
468.41	12578.04
468.60	12833.16
468.78	12807.41
468.96	12947.84
469.14	13095.30
469.32	12961.89
469.50	12781.67
469.69	12978.27
469.87	13212.32
470.05	13219.35
470.23	13383.18
470.41	13273.18
470.59	13434.68
470.77	13537.66
470.95	13481.49
471.14	13532.98
471.32	13231.05
471.50	13729.58
471.68	13762.35
471.86	13916.83
472.04	13940.23
472.22	14141.52
472.40	14068.96
472.58	14066.62
472.77	13888.74
472.95	14064.28
473.13	14626.01
473.31	14349.82
473.49	14310.04
473.67	14417.70
473.85	14537.07
474.03	14773.46
474.21	14668.14
474.39	14785.16
474.57	14963.04
474.75	14846.02
474.93	14918.57
475.12	15344.55
475.30	15358.60
475.48	15321.15
475.66	15267.31
475.84	15527.11
476.02	15435.83
476.20	15648.82
476.38	15733.08
476.56	16191.83
476.74	16229.27
476.92	16009.26
477.10	15800.96
477.28	16280.77
477.46	16425.88
477.64	16236.30
477.82	16517.16
478.00	17224.00
478.18	16676.32
478.36	17095.27
478.54	17144.42
478.72	17245.07
478.90	17198.26
479.08	17659.34
479.26	17750.62
479.44	17956.59
479.62	18085.32
479.80	18188.30
479.98	18452.78
480.16	18771.10
480.34	18265.54
480.52	18665.77
480.70	18490.23
480.88	18504.28
481.06	18974.72
481.24	19178.35
481.41	19470.92
481.59	19697.95
481.77	19751.78
481.95	19880.51
482.13	19609.01
482.31	20280.74
482.49	20432.88
482.67	20278.40
482.85	20390.75
483.03	20671.61
483.21	21050.78
483.39	20945.45
483.57	21219.30
483.74	21338.66
483.92	21862.94
484.10	21319.94
484.28	21951.88
484.46	22223.39
484.64	22450.42
484.82	22544.04
485.00	22408.29
485.18	23019.17
485.35	23122.15
485.53	23005.13
485.71	23192.37
485.89	23634.73
486.07	23587.92
486.25	24107.52
486.43	23875.80
486.61	23850.06
486.78	24446.90
486.96	24400.08
487.14	24793.29
487.32	25083.52
487.50	24725.42
487.68	24989.90
487.85	25418.22
488.03	25792.70
488.21	26223.36
488.39	26174.21
488.57	26441.03
488.75	26485.50
488.92	26848.29
489.10	27377.25
489.28	26792.11
489.46	27185.32
489.64	27407.67
489.81	28088.77
489.99	27791.52
490.17	27889.82
490.35	28074.73
490.53	28257.29
490.70	28917.32
490.88	28407.08
491.06	29144.35
491.24	29198.18
491.41	29207.55
491.59	29516.50
491.77	29596.07
491.95	29813.74
492.13	30085.25
492.30	30178.87
492.48	30129.72
492.66	30265.47
492.84	30672.72
493.01	30962.95
493.19	30932.52
493.37	31199.34
493.54	31587.87
493.72	31824.26
493.90	31913.20
494.08	32058.32
494.25	32397.70
494.43	32187.05
494.61	32297.05
494.79	32758.14
494.96	32444.51
495.14	33364.34
495.32	33586.69
495.49	34075.86
495.67	33593.71
495.85	33923.72
496.02	34120.33
496.20	34251.40
496.38	33919.04
496.55	34988.67
496.73	35021.44
496.91	34738.23
497.09	35075.27
497.26	35484.86
497.44	35622.95
497.62	35496.56
497.79	36102.76
497.97	35889.77
498.14	36247.88
498.32	36304.05
498.50	36275.96
498.67	36737.05
498.85	36442.14
499.03	37493.04
499.20	37289.42
499.38	36549.81
499.56	37420.48
499.73	37474.32
499.91	37979.87
500.08	38089.88
500.26	37703.69
500.44	37855.82
500.61	38019.66
500.79	37825.40
500.97	38649.27
501.14	38698.42
501.32	38602.46
501.49	38770.97
501.67	39143.12
501.84	39751.66
502.02	39019.07
502.20	38995.67
502.37	39391.22
502.55	39510.58
502.72	39716.55
502.90	39922.52
503.07	39725.91
503.25	40472.54
503.43	40018.48
503.60	40425.73
503.78	40903.20
503.95	40350.84
504.13	40964.06
504.30	41102.15
504.48	40865.75
504.65	40942.99
504.83	41265.99
505.01	41837.08
505.18	41703.67
505.36	41977.51
505.53	41523.44
505.71	42256.03
505.88	42263.05
506.06	41745.80
506.23	42204.54
506.41	42333.27
506.58	42401.14
506.76	42309.86
506.93	42686.69
507.11	42588.39
507.28	43054.15
507.46	43117.35
507.63	42918.40
507.81	43592.48
507.98	43906.11
508.16	43641.63
508.33	43765.68
508.50	43749.29
508.68	43861.64
508.85	44596.57
509.03	44109.74
509.20	44273.57
509.38	44694.87
509.55	44502.95
509.73	45111.49
509.90	44910.20
510.08	45071.70
510.25	45137.23
510.42	45294.05
510.60	45099.78
510.77	44999.14
510.95	45736.41
511.12	45546.82
511.30	45436.82
511.47	45743.43
511.64	45958.76
511.82	46426.87
511.99	46127.28
512.17	46387.08
512.34	46417.50
512.51	46515.81
512.69	46602.41
512.86	46909.02
513.04	46862.21
513.21	46913.70
513.38	47203.92
513.56	47395.85
513.73	47042.43
513.90	47285.84
514.08	47274.14
514.25	47648.63
514.43	47669.69
514.60	48062.90
514.77	47721.18
514.95	48311.00
515.12	47887.36
515.29	47922.47
515.47	48006.73
515.64	48598.88
515.81	48374.19
515.99	48467.81
516.16	48978.05
516.33	48781.45
516.51	48886.77
516.68	48928.90
516.85	48545.05
517.03	49347.86
517.20	49511.69
517.37	49277.64
517.54	49177.00
517.72	49453.18
517.89	49574.89
518.06	49904.90
518.24	49918.95
518.41	49427.43
518.58	49923.63
518.75	49633.40
518.93	50124.91
519.10	49808.94
519.27	50169.38
519.45	50115.55
519.62	50373.01
519.79	50057.04
519.96	50361.31
520.14	50820.05
520.31	50625.79
520.48	50773.24
520.65	50932.40
520.83	51021.34
521.00	50911.33
521.17	51075.17
521.34	50932.40
521.52	51250.71
521.69	51124.32
521.86	51206.24
522.03	51833.50
522.20	51416.89
522.38	52142.45
522.55	51810.10
522.72	51351.35
522.89	51796.06
523.07	52207.99
523.24	51800.74
523.41	52058.20
523.58	51693.07
523.75	52402.25
523.92	52126.07
524.10	52168.20
524.27	52161.18
524.44	52165.86
524.61	52105.01
524.78	52533.32
524.96	52708.86
525.13	52535.66
525.30	52910.15
525.47	52928.87
525.64	52868.02
525.81	52767.38
525.98	52804.83
526.16	53017.82
526.33	52884.40
526.50	53411.02
526.67	53073.99
526.84	53109.10
527.01	53109.10
527.18	53167.61
527.36	53406.34
527.53	53476.56
527.70	53684.87
527.87	53741.04
528.04	53509.33
528.21	53820.62
528.38	53446.13
528.55	53783.17
528.72	53794.87
528.89	53916.58
529.07	53556.14
529.24	53628.69
529.41	54047.65
529.58	54141.27
529.75	53799.55
529.92	53982.12
530.09	54141.27
530.26	54277.02
530.43	54204.47
530.60	53963.39
530.77	54108.50
530.94	54279.36
531.11	54267.66
531.28	54607.04
531.46	54522.78
531.63	54693.64
531.80	54768.54
531.97	54581.29
532.14	54618.74
532.31	54829.39
532.48	54862.16
532.65	55047.06
532.82	54663.21
532.99	55035.36
533.16	54728.75
533.33	54911.31
533.50	55164.09
533.67	55220.26
533.84	55042.38
534.01	55164.09
534.18	55182.81
534.35	55430.91
534.52	55564.32
534.69	55325.58
534.86	55323.24
535.03	55285.79
535.20	55466.02
535.37	55643.90
535.54	55760.92
535.71	55370.05
535.88	55615.81
536.05	55702.41
536.22	55774.97
536.38	55522.19
536.55	55856.88
536.72	56023.06
536.89	55442.61
537.06	55847.52
537.23	56149.45
537.40	55758.58
537.57	56032.42
537.74	56163.50
537.91	56231.37
538.08	55983.27
538.25	55973.91
538.42	56102.64
538.59	56507.55
538.75	56200.94
538.92	56217.33
539.09	56219.67
539.26	56427.98
539.43	56364.78
539.60	56514.58
539.77	56474.79
539.94	56631.60
540.11	56846.93
540.28	56587.13
540.44	56662.03
540.61	56701.82
540.78	56713.52
540.95	56729.90
541.12	56734.59
541.29	56690.12
541.46	56811.82
541.62	56872.68
541.79	56779.06
541.96	56750.97
542.13	56919.49
542.30	56893.74
542.47	57139.50
542.63	56928.85
542.80	57291.63
542.97	57235.46
543.14	57368.87
543.31	57324.40
543.48	57586.54
543.64	57661.44
543.81	57759.74
543.98	57593.56
544.15	57464.83
544.32	57783.15
544.48	57766.76
544.65	57628.67
544.82	57673.14
544.99	57670.80
545.16	57733.99
545.32	57874.43
545.49	57909.53
545.66	57801.87
545.83	57808.89
546.00	58213.80
546.16	57904.85
546.33	57944.64
546.50	57806.55
546.67	58066.35
546.83	57579.52
547.00	57764.42
547.17	58166.99
547.34	58066.35
547.50	58197.42
547.67	58398.71
547.84	58279.34
548.00	58403.39
548.17	58349.56
548.34	58244.23
548.51	58534.46
548.67	58630.42
548.84	58220.83
549.01	58443.18
549.18	58211.46
549.34	58553.18
549.51	58534.46
549.68	58651.48
549.84	58590.63
550.01	58614.04
550.18	58604.67
550.34	58794.26
550.51	58951.07
550.68	58728.72
550.84	58454.88
551.01	58707.66
551.18	58452.54
551.34	58787.24
551.51	58951.07
551.68	58838.73
551.84	58777.87
552.01	58700.64
552.18	58965.12
552.34	58946.39
552.51	59159.38
552.68	58873.84
552.84	59018.95
553.01	59428.54
553.18	59180.45
553.34	59126.61
553.51	58885.54
553.67	59035.33
553.84	59009.59
554.01	59114.91
554.17	59054.06
554.34	59360.67
554.51	59309.18
554.67	59337.26
554.84	59316.20
555.00	59262.36
555.17	59271.73
555.33	59278.75
555.50	59110.23
555.67	59192.15
555.83	59213.21
556.00	59419.18
556.16	59505.78
556.33	59533.87
556.50	59545.57
556.66	59430.88
556.83	59271.73
556.99	59583.02
557.16	59561.95
557.32	59428.54
557.49	59824.09
557.65	59760.90
557.82	59477.69
557.98	59583.02
558.15	59554.93
558.32	59840.48
558.48	59852.18
558.65	59576.00
558.81	59945.80
558.98	59760.90
559.14	59964.52
559.31	59922.40
559.47	59941.12
559.64	59969.21
559.80	59842.82
559.97	60142.41
560.13	60006.65
560.30	59891.97
560.46	60114.32
560.63	60032.40
560.79	59929.42
560.96	60217.30
561.12	60041.76
561.29	59987.93
561.45	59992.61
561.61	60060.49
561.78	59971.55
561.94	60116.66
562.11	59894.31
562.27	60055.81
562.44	60308.58
562.60	60252.41
562.77	60231.35
562.93	60069.85
563.10	60329.65
563.26	60299.22
563.42	60336.67
563.59	60334.33
563.75	60451.36
563.92	60247.73
564.08	60236.03
564.24	60582.43
564.41	60247.73
564.57	60477.10
564.74	60378.80
564.90	60530.93
565.07	60477.10
565.23	60200.92
565.39	60315.61
565.56	60357.74
565.72	60390.50
565.88	60322.63
566.05	60296.88
566.21	60446.68
566.38	60453.70
566.54	60493.49
566.70	60563.70
566.87	60589.45
567.03	60285.18
567.19	60615.19
567.36	60430.29
567.52	60587.11
567.68	60816.48
567.85	60720.52
568.01	60748.60
568.17	60245.39
568.34	60561.36
568.50	60580.09
568.66	60502.85
568.83	60706.47
568.99	60353.05
569.15	60493.49
569.32	60669.03
569.48	60521.57
569.64	60814.14
569.81	60858.61
569.97	60509.87
570.13	60720.52
570.30	60594.13
570.46	60718.18
570.62	60741.58
570.78	60692.43
570.95	60650.30
571.11	60846.91
571.27	60701.79
571.43	60870.31
571.60	60910.10
571.76	60713.50
571.92	60816.48
572.09	60715.84
572.25	60830.52
572.41	60987.34
572.57	60828.18
572.74	60879.67
572.90	60818.82
573.06	60849.25
573.22	60631.58
573.38	60853.93
573.55	60800.10
573.71	61001.38
573.87	61041.17
574.03	60795.42
574.20	60966.27
574.36	60966.27
574.52	61029.47
574.68	60938.19
574.84	61109.05
575.01	60973.30
575.17	60846.91
575.33	60987.34
575.49	60659.66
575.65	60952.23
575.82	61237.78
575.98	60942.87
576.14	61055.21
576.30	61268.20
576.46	61050.53
576.62	60706.47
576.79	60940.53
576.95	60912.44
577.11	60954.57
577.27	61062.24
577.43	61132.45
577.59	60863.29
577.75	60772.01
577.92	60996.70
578.08	61020.11
578.24	61017.77
578.40	61031.81
578.56	61190.97
578.72	61092.66
578.88	61130.11
579.04	61216.71
579.21	60959.25
579.37	61247.14
579.53	61123.09
579.69	61008.40
579.85	61153.52
580.01	61120.75
580.17	61059.90
580.33	61197.99
580.49	61315.01
580.65	61160.54
580.82	61090.32
580.98	60999.04
581.14	60980.32
581.30	61357.14
581.46	61034.15
581.62	61176.92
581.78	61069.26
581.94	61373.53
582.10	61102.03
582.26	61193.31
582.42	61036.49
582.58	61085.64
582.74	61073.94
582.90	61193.31
583.06	61095.00
583.22	61029.47
583.38	61291.61
583.54	61120.75
583.70	61144.16
583.86	61265.86
584.02	61160.54
584.18	61291.61
584.34	61247.14
584.50	61410.98
584.66	61162.88
584.82	61071.60
584.98	61277.57
585.14	61380.55
585.30	60999.04
585.46	61242.46
585.62	61205.01
585.78	61279.91
585.94	61015.43
586.10	61151.18
586.26	61202.67
586.42	61350.12
586.58	61359.48
586.74	61254.16
586.90	61158.20
587.06	61375.87
587.22	61572.47
587.38	61209.69
587.54	61516.30
587.70	61516.30
587.86	61565.45
588.02	61340.76
588.18	61352.46
588.34	61256.50
588.49	61240.12
