SpectraSuite Data File
++++++++++++++++++++++++++++++++++++
Date: Fri Oct 25 10:44:51 EDT 2013
User: price-jones
Dark Spectrum Present: No
Reference Spectrum Present: No
Number of Sampled Component Spectra: 1
Spectrometers: USB2+H05261
Integration Time (usec): 100000 (USB2+H05261)
Spectra Averaged: 1 (USB2+H05261)
Boxcar Smoothing: 0 (USB2+H05261)
Correct for Electrical Dark: No (USB2+H05261)
Strobe/Lamp Enabled: No (USB2+H05261)
Correct for Detector Non-linearity: No (USB2+H05261)
Correct for Stray Light: No (USB2+H05261)
Number of Pixels in Processed Spectrum: 2048
>>>>>Begin Processed Spectral Data<<<<<
365.73	149.79
365.92	149.79
366.12	149.79
366.32	25.75
366.52	32.77
366.72	51.49
366.91	0.00
367.11	0.00
367.31	56.17
367.51	0.00
367.70	35.11
367.90	0.00
368.10	0.00
368.30	2.34
368.49	25.75
368.69	32.77
368.89	65.54
369.09	58.51
369.28	51.49
369.48	93.62
369.68	32.77
369.87	81.92
370.07	25.75
370.27	170.86
370.47	156.82
370.66	393.21
370.86	388.53
371.06	409.59
371.25	458.74
371.45	489.17
371.65	360.44
371.84	468.11
372.04	400.23
372.24	500.87
372.44	472.79
372.63	479.81
372.83	507.90
373.03	390.87
373.22	493.85
373.42	475.13
373.62	507.90
373.81	458.74
374.01	552.37
374.21	578.11
374.40	608.54
374.60	519.60
374.79	519.60
374.99	496.19
375.19	559.39
375.38	517.26
375.58	545.34
375.78	610.88
375.97	596.84
376.17	559.39
376.37	575.77
376.56	540.66
376.76	507.90
376.95	671.73
377.15	645.99
377.35	727.91
377.54	592.16
377.74	589.82
377.93	655.35
378.13	641.31
378.33	685.78
378.52	603.86
378.72	589.82
378.91	622.58
379.11	676.41
379.31	533.64
379.50	568.75
379.70	697.48
379.89	716.20
380.09	578.11
380.28	627.26
380.48	664.71
380.68	657.69
380.87	685.78
381.07	676.41
381.26	629.60
381.46	636.63
381.65	648.33
381.85	645.99
382.04	578.11
382.24	725.57
382.43	615.56
382.63	692.80
382.83	746.63
383.02	695.14
383.22	814.51
383.41	716.20
383.61	681.10
383.80	795.78
384.00	725.57
384.19	697.48
384.39	868.34
384.58	713.86
384.78	702.16
384.97	805.14
385.17	690.46
385.36	767.70
385.56	723.23
385.75	725.57
385.95	779.40
386.14	760.67
386.34	763.01
386.53	669.39
386.72	866.00
386.92	748.97
387.11	730.25
387.31	784.08
387.50	737.27
387.70	819.19
387.89	847.27
388.09	786.42
388.28	847.27
388.48	805.14
388.67	781.74
388.86	882.38
389.06	915.15
389.25	929.19
389.45	873.02
389.64	875.36
389.84	903.45
390.03	926.85
390.22	926.85
390.42	894.08
390.61	877.70
390.81	957.28
391.00	898.77
391.19	1046.22
391.39	1027.50
391.58	866.00
391.78	1067.28
391.97	943.24
392.16	971.32
392.36	1022.81
392.55	999.41
392.75	983.02
392.94	926.85
393.13	943.24
393.33	887.06
393.52	1034.52
393.71	1107.07
393.91	1048.56
394.10	1004.09
394.29	1149.20
394.49	987.71
394.68	1067.28
394.88	1135.16
395.07	1142.18
395.26	1097.71
395.46	1090.69
395.65	1097.71
395.84	1121.12
396.04	1153.88
396.23	1062.60
396.42	1064.94
396.62	1242.82
396.81	1100.05
397.00	1083.67
397.19	1210.06
397.39	1254.53
397.58	1256.87
397.77	1172.61
397.97	1228.78
398.16	1273.25
398.35	1261.55
398.55	1212.40
398.74	1282.61
398.93	1310.70
399.12	1432.41
399.32	1315.38
399.51	1266.23
399.70	1315.38
399.90	1343.47
400.09	1294.32
400.28	1320.06
400.47	1455.81
400.67	1427.73
400.86	1446.45
401.05	1425.39
401.24	1446.45
401.44	1439.43
401.63	1561.14
401.82	1479.22
402.01	1439.43
402.21	1563.48
402.40	1633.69
402.59	1619.65
402.78	1472.20
402.97	1554.12
403.17	1516.67
403.36	1593.90
403.55	1652.42
403.74	1675.82
403.93	1664.12
404.13	1596.25
404.32	1626.67
404.51	1713.27
404.70	1785.83
404.89	1694.55
405.09	1694.55
405.28	1748.38
405.47	1767.10
405.66	1781.15
405.85	1640.72
406.05	1785.83
406.24	1865.41
406.43	1797.53
406.62	1837.32
406.81	1905.20
407.00	1785.83
407.20	1823.28
407.39	1907.54
407.58	1816.26
407.77	1884.13
407.96	1923.92
408.15	2012.86
408.34	1975.41
408.54	1956.69
408.73	2043.29
408.92	2012.86
409.11	1989.46
409.30	1963.71
409.49	2132.23
409.68	1998.82
409.87	2085.42
410.07	2125.21
410.26	2141.59
410.45	2120.53
410.64	2113.50
410.83	2225.85
411.02	2267.98
411.21	2342.88
411.40	2218.83
411.59	2256.28
411.78	2396.71
411.98	2345.22
412.17	2340.54
412.36	2429.48
412.55	2396.71
412.74	2450.54
412.93	2495.01
413.12	2352.24
413.31	2541.82
413.50	2478.63
413.69	2513.74
413.88	2459.90
414.07	2560.55
414.26	2628.42
414.45	2719.70
414.64	2544.16
414.83	2654.17
415.02	2789.92
415.22	2761.83
415.41	2722.04
415.60	2768.85
415.79	2815.66
415.98	2956.10
416.17	2998.23
416.36	2899.92
416.55	2942.05
416.74	2958.44
416.93	2785.24
417.12	3066.10
417.31	3052.06
417.50	3084.83
417.69	2995.89
417.88	3105.89
418.07	3089.51
418.26	3169.09
418.45	3094.19
418.64	3180.79
418.83	3094.19
419.02	3208.87
419.21	3368.03
419.39	3311.86
419.58	3185.47
419.77	3155.04
419.96	3162.06
420.15	3314.20
420.34	3243.98
420.53	3311.86
420.72	3398.46
420.91	3440.59
421.10	3377.39
421.29	3286.11
421.48	3349.31
421.67	3517.83
421.86	3438.25
422.05	3630.17
422.24	3353.99
422.43	3557.61
422.61	3386.76
422.80	3431.23
422.99	3431.23
423.18	3552.93
423.37	3667.62
423.56	3541.23
423.75	3463.99
423.94	3496.76
424.13	3351.65
424.32	3351.65
424.50	3630.17
424.69	3602.08
424.88	3550.59
425.07	3510.80
425.26	3620.81
425.45	3438.25
425.64	3651.24
425.83	3569.32
426.01	3574.00
426.20	3550.59
426.39	3648.90
426.58	3496.76
426.77	3662.94
426.96	3555.27
427.15	3569.32
427.33	3583.36
427.52	3735.50
427.71	3588.04
427.90	3833.80
428.09	3676.98
428.28	3784.65
428.46	3847.84
428.65	3878.27
428.84	3922.74
429.03	3927.42
429.22	3737.84
429.40	3606.77
429.59	3964.87
429.78	3789.33
429.97	3562.30
430.16	3786.99
430.34	3824.44
430.53	3847.84
430.72	3911.04
430.91	3927.42
431.10	3918.06
431.28	4194.24
431.47	4095.94
431.66	4372.12
431.85	4119.34
432.03	4046.79
432.22	4252.75
432.41	4109.98
432.60	4170.83
432.79	4301.90
432.97	4397.87
433.16	4285.52
433.35	4280.84
433.54	4173.18
433.72	4250.41
433.91	4243.39
434.10	4308.93
434.28	4463.40
434.47	4491.49
434.66	4442.34
434.85	4447.02
435.03	4540.64
435.22	4479.79
435.41	4732.56
435.59	4533.62
435.78	4727.88
435.97	4613.20
436.16	4550.00
436.34	4631.92
436.53	4613.20
436.72	4645.96
436.90	4660.01
437.09	4830.87
437.28	4674.05
437.46	4795.76
437.65	4622.56
437.84	4617.88
438.02	4671.71
438.21	4697.46
438.40	4730.22
438.58	4882.36
438.77	4903.42
438.96	4896.40
439.14	4985.34
439.33	5067.26
439.52	4891.72
439.70	5137.48
439.89	5174.92
440.08	5111.73
440.26	5320.04
440.45	5116.41
440.63	5432.38
440.82	5355.15
441.01	5291.95
441.19	5380.89
441.38	5570.48
441.57	5556.43
441.75	5437.06
441.94	5675.80
442.12	5579.84
442.31	5865.38
442.50	5795.17
442.68	5603.24
442.87	5652.39
443.05	5647.71
443.24	5687.50
443.43	5741.33
443.61	5694.52
443.80	5900.49
443.98	5633.67
444.17	5497.92
444.35	5806.87
444.54	5942.62
444.73	5858.36
444.91	5790.49
445.10	6066.67
445.28	5785.80
445.47	5600.90
445.65	5584.52
445.84	5933.26
446.02	5949.64
446.21	5832.62
446.39	5935.60
446.58	5933.26
446.77	6015.18
446.95	5937.94
447.14	5914.53
447.32	6047.94
447.51	5987.09
447.69	6127.52
447.88	6085.39
448.06	6162.63
448.25	5973.05
448.43	6069.01
448.62	5912.19
448.80	6043.26
448.99	6125.18
449.17	6204.76
449.36	6120.50
449.54	6291.36
449.73	6277.32
449.91	6324.13
450.10	6434.13
450.28	6422.43
450.46	6384.98
450.65	6558.18
450.83	6492.65
451.02	6497.33
451.20	6476.26
451.39	6492.65
451.57	6506.69
451.76	6415.41
451.94	6387.32
452.13	6534.78
452.31	6480.94
452.49	6370.94
452.68	6609.67
452.86	6530.09
453.05	6745.42
453.23	6665.85
453.42	6593.29
453.60	6553.50
453.78	6700.95
453.97	6565.20
454.15	6487.96
454.34	6581.59
454.52	6782.87
454.70	6801.60
454.89	6775.85
455.07	6733.72
455.26	7052.03
455.44	6977.14
455.62	6909.26
455.81	6923.30
455.99	6834.36
456.17	7037.99
456.36	6993.52
456.54	7157.36
456.73	7000.54
456.91	7342.26
457.09	7150.34
457.28	7485.03
457.46	7218.21
457.64	7531.84
457.83	7414.82
458.01	7080.12
458.19	7449.93
458.38	7456.95
458.56	7620.78
458.74	7597.38
458.93	7421.84
459.11	7466.31
459.29	7520.14
459.48	7616.10
459.66	7332.90
459.84	7634.83
460.03	7681.64
460.21	7665.25
460.39	7602.06
460.57	7726.11
460.76	7786.96
460.94	7861.86
461.12	7857.18
461.31	7808.03
461.49	7719.09
461.67	7719.09
461.85	7920.37
462.04	7981.23
462.22	8116.98
462.40	7955.48
462.59	7997.61
462.77	8060.80
462.95	8133.36
463.13	8046.76
463.32	8184.85
463.50	8145.06
463.68	8416.57
463.86	8028.04
464.05	8266.77
464.23	8224.64
464.41	8208.26
464.59	8166.13
464.78	8353.37
464.96	8161.45
465.14	8255.07
465.32	8379.12
465.50	8332.31
465.69	8507.85
465.87	8248.05
466.05	8283.16
466.23	8456.36
466.41	8479.76
466.60	8533.59
466.78	8439.97
466.96	8540.61
467.14	8416.57
467.32	8470.40
467.51	8767.65
467.69	8484.44
467.87	8564.02
468.05	8589.77
468.23	8547.64
468.41	8678.71
468.60	8744.24
468.78	8645.94
468.96	8685.73
469.14	8887.01
469.32	8887.01
469.50	8865.95
469.69	8807.44
469.87	8966.59
470.05	8868.29
470.23	8847.22
470.41	8847.22
470.59	8903.40
470.77	9142.13
470.95	9064.89
471.14	9083.62
471.32	9233.41
471.50	9387.89
471.68	9383.21
471.86	9502.58
472.04	9427.68
472.22	9724.93
472.40	9572.79
472.58	9383.21
472.77	9689.82
472.95	9657.05
473.13	9785.78
473.31	9373.85
473.49	9434.70
473.67	9907.49
473.85	9823.23
474.03	9813.87
474.21	9870.04
474.39	10061.96
474.57	10174.31
474.75	10024.51
474.93	10139.20
475.12	10010.47
475.30	10113.45
475.48	10216.44
475.66	10186.01
475.84	10157.92
476.02	10406.02
476.20	10513.69
476.38	10754.76
476.56	10731.36
476.74	10803.91
476.92	10874.13
477.10	10855.40
477.28	10747.74
477.46	11037.97
477.64	11342.24
477.82	11185.42
478.00	11548.20
478.18	11379.68
478.36	11253.30
478.54	11492.03
478.72	11616.08
478.90	11754.17
479.08	11967.16
479.26	11950.78
479.44	12053.76
479.62	12138.02
479.80	12149.72
479.98	12238.66
480.16	12685.70
480.34	12561.66
480.52	12374.41
480.70	12421.22
480.88	12451.65
481.06	12650.60
481.24	12767.62
481.41	12936.14
481.59	13383.18
481.77	13069.55
481.95	13284.88
482.13	13387.86
482.31	13252.11
482.49	13490.85
482.67	13692.13
482.85	13628.94
483.03	13722.56
483.21	13980.02
483.39	14125.13
483.57	14134.50
483.74	14223.44
483.92	14349.82
484.10	14090.02
484.28	14588.56
484.46	14853.04
484.64	14981.77
484.82	14738.35
485.00	14888.15
485.18	14974.75
485.35	15276.68
485.53	15164.33
485.71	15309.44
485.89	15412.43
486.07	15524.77
486.25	15487.32
486.43	15594.99
486.61	15878.19
486.78	16262.04
486.96	16102.89
487.14	16460.99
487.32	16250.34
487.50	16791.00
487.68	16893.99
487.85	16919.73
488.03	16915.05
488.21	16950.16
488.39	17263.79
488.57	17233.36
488.75	17261.45
488.92	17579.76
489.10	17619.55
489.28	17916.80
489.46	17743.60
489.64	18176.60
489.81	18684.50
489.99	18548.75
490.17	18401.29
490.35	18948.98
490.53	18616.62
490.70	19016.85
490.88	18766.42
491.06	18998.13
491.24	18881.10
491.41	19129.20
491.59	19377.30
491.77	19384.32
491.95	19688.59
492.13	19803.27
492.30	19672.20
492.48	19889.87
492.66	20072.43
492.84	20168.40
493.01	20280.74
493.19	20444.58
493.37	20592.03
493.54	20566.29
493.72	20744.17
493.90	20802.68
494.08	20807.36
494.25	21263.77
494.43	21479.10
494.61	21298.88
494.79	21544.63
494.96	21422.92
495.14	21556.33
495.32	21703.79
495.49	21940.18
495.67	22075.93
495.85	22162.53
496.02	22417.65
496.20	22689.15
496.38	22443.40
496.55	22630.64
496.73	22998.10
496.91	23035.55
497.09	23159.60
497.26	23094.07
497.44	23243.86
497.62	22995.76
497.79	23576.22
497.97	23601.96
498.14	23627.71
498.32	23606.64
498.50	23971.77
498.67	23934.32
498.85	24135.60
499.03	23908.57
499.20	24318.17
499.38	24524.13
499.56	24400.08
499.73	24610.73
499.91	24610.73
500.08	24805.00
500.26	24692.65
500.44	24769.89
500.61	24931.39
500.79	24622.44
500.97	25209.91
501.14	25415.88
501.32	25102.25
501.49	25280.13
501.67	25153.74
501.84	25436.94
502.02	25687.38
502.20	25551.63
502.37	25916.75
502.55	25844.20
502.72	26195.28
502.90	26221.02
503.07	26047.82
503.25	26476.14
503.43	25986.97
503.60	26214.00
503.78	26209.32
503.95	26057.18
504.13	26588.49
504.30	26279.54
504.48	26647.00
504.65	26939.57
504.83	26904.46
505.01	27105.74
505.18	26958.29
505.36	27332.78
505.53	27328.10
505.71	27138.51
505.88	27552.79
506.06	27505.98
506.23	27515.34
506.41	27667.47
506.58	27658.11
506.76	27812.59
506.93	27924.93
507.11	27803.22
507.28	27597.26
507.46	27873.44
507.63	27861.74
507.81	28409.42
507.98	28163.67
508.16	28285.37
508.33	28573.26
508.50	28388.36
508.68	28809.65
508.85	28884.55
509.03	28800.29
509.20	28577.94
509.38	29142.01
509.55	29214.57
509.73	29055.41
509.90	29472.03
510.08	29156.05
510.25	29209.89
510.42	29429.90
510.60	29383.09
510.77	29853.53
510.95	29921.41
511.12	29549.26
511.30	29982.26
511.47	29809.06
511.64	30218.66
511.82	30752.30
511.99	30120.35
512.17	30321.64
512.34	30047.80
512.51	30553.35
512.69	30628.25
512.86	30738.26
513.04	30923.16
513.21	30986.35
513.38	30684.42
513.56	30431.65
513.73	30611.87
513.90	30698.47
514.08	31119.76
514.25	30911.46
514.43	31096.36
514.60	31119.76
514.77	31143.17
514.95	31854.69
515.12	31192.32
515.29	31639.36
515.47	31702.56
515.64	31903.84
515.81	31725.96
515.99	31564.46
516.16	31735.32
516.33	31426.37
516.51	31854.69
516.68	31740.00
516.85	31634.68
517.03	32180.03
517.20	31971.72
517.37	32217.47
517.54	32322.80
517.72	32481.95
517.89	32116.83
518.06	32079.38
518.24	32378.97
518.41	32460.89
518.58	32416.42
518.75	32690.26
518.93	32924.32
519.10	32779.20
519.27	33153.69
519.45	32807.29
519.62	33399.44
519.79	33099.86
519.96	33722.44
520.14	33247.31
520.31	33053.05
520.48	33785.63
520.65	33596.05
520.83	33556.26
521.00	34012.66
521.17	33741.16
521.34	33912.02
521.52	33661.58
521.69	34162.46
521.86	33996.28
522.03	34080.54
522.20	34209.27
522.38	34190.55
522.55	34359.06
522.72	34251.40
522.89	34658.65
523.07	34497.16
523.24	34251.40
523.41	34539.29
523.58	34490.13
523.75	35063.57
523.92	35082.29
524.10	35072.93
524.27	35215.70
524.44	35236.77
524.61	34932.50
524.78	35234.42
524.96	35119.74
525.13	35587.85
525.30	35857.01
525.47	35496.56
525.64	35367.84
525.81	35473.16
525.98	35405.28
526.16	35161.87
526.33	35393.58
526.50	35360.81
526.67	35484.86
526.84	35606.57
527.01	35405.28
527.18	36058.29
527.36	36275.96
527.53	36055.95
527.70	36493.63
527.87	36453.84
528.04	35992.76
528.21	36224.47
528.38	36325.11
528.55	36559.17
528.72	36135.53
528.89	36818.97
529.07	36451.50
529.24	36170.64
529.41	36814.29
529.58	36559.17
529.75	36636.41
529.92	37209.84
530.09	37095.15
530.26	36900.89
530.43	36940.68
530.60	36737.05
530.77	36526.40
530.94	37244.94
531.11	37141.96
531.28	37333.89
531.46	36938.33
531.63	37591.34
531.80	37415.80
531.97	37174.73
532.14	37773.91
532.31	36921.95
532.48	37483.68
532.65	37441.55
532.82	37710.71
532.99	37521.13
533.16	37577.30
533.33	37626.45
533.50	38054.77
533.67	37853.48
533.84	38316.91
534.01	37717.73
534.18	37949.45
534.35	38237.33
534.52	37558.58
534.69	38155.41
534.86	38855.23
535.03	37937.74
535.20	38469.04
535.37	38747.57
535.54	38873.96
535.71	38565.01
535.88	38635.22
536.05	38574.37
536.22	38679.69
536.38	39208.65
536.55	38785.02
536.72	38770.97
536.89	38630.54
537.06	38450.32
537.23	39044.82
537.40	38792.04
537.57	38848.21
537.74	39161.84
537.91	39117.37
538.08	38986.30
538.25	38492.45
538.42	38724.16
538.59	39384.19
538.75	38787.36
538.92	39379.51
539.09	39505.90
539.26	39201.63
539.43	39054.18
539.60	39402.92
539.77	39651.02
539.94	39541.01
540.11	39290.57
540.28	39676.76
540.44	39414.62
540.61	39679.10
540.78	39405.26
540.95	39718.89
541.12	39643.99
541.29	39697.83
541.46	39608.89
541.62	39906.13
541.79	39915.50
541.96	39632.29
542.13	39805.49
542.30	40161.25
542.47	40538.08
542.63	40226.79
542.80	40065.29
542.97	40212.74
543.14	40708.94
543.31	40751.07
543.48	40554.46
543.64	41280.03
543.81	41219.17
543.98	40851.71
544.15	40783.83
544.32	40409.35
544.48	41060.02
544.65	41024.91
544.82	40797.88
544.99	40725.32
545.16	40957.03
545.32	40559.14
545.49	41317.48
545.66	41102.15
545.83	41102.15
546.00	41792.61
546.16	41212.15
546.33	40821.28
546.50	41013.21
546.67	41132.57
546.83	41064.70
547.00	41024.91
547.17	41160.66
547.34	41326.84
547.50	41469.61
547.67	41390.03
547.84	41804.31
548.00	41738.77
548.17	41935.38
548.34	41549.19
548.51	42089.85
548.67	41771.54
548.84	41989.21
549.01	41708.35
549.18	42003.25
549.34	41539.83
549.51	41998.57
549.68	41816.01
549.84	42078.15
550.01	42600.09
550.18	42096.88
550.34	41982.19
550.51	41738.77
550.68	42117.94
550.84	41542.17
551.01	42115.60
551.18	41872.18
551.34	41722.39
551.51	42366.04
551.68	42401.14
551.84	42190.50
552.01	42038.36
552.18	42195.18
552.34	42237.31
552.51	42480.72
552.68	42040.70
552.84	42780.31
553.01	42557.96
553.18	42216.24
553.34	42548.60
553.51	42356.67
553.67	42677.33
553.84	43086.92
554.01	42593.07
554.17	42806.06
554.34	42801.38
554.51	42663.28
554.67	42796.70
554.84	43072.88
555.00	42632.86
555.17	42616.47
555.33	42710.10
555.50	42792.01
555.67	42799.04
555.83	42838.83
556.00	43117.35
556.16	43395.87
556.33	43009.68
556.50	43075.22
556.66	43391.19
556.83	42705.41
556.99	43433.32
557.16	43620.56
557.32	43185.22
557.49	43194.59
557.65	43012.02
557.82	43194.59
557.98	43019.05
558.15	43033.09
558.32	43306.93
558.48	43540.99
558.65	43192.25
558.81	43313.95
558.98	43110.33
559.14	43246.08
559.31	43452.05
559.47	43466.09
559.64	43278.85
559.80	43929.51
559.97	44030.16
560.13	43421.62
560.30	43143.09
560.46	43351.40
560.63	44002.07
560.79	43475.45
560.96	43878.02
561.12	43627.59
561.29	43908.45
561.45	43484.81
561.61	43768.02
561.78	43711.84
561.94	43435.66
562.11	43800.79
562.27	43828.87
562.44	43833.55
562.60	43936.54
562.77	43732.91
562.93	43377.15
563.10	43945.90
563.26	43213.31
563.42	43807.81
563.59	43739.93
563.75	43840.57
563.92	44250.17
564.08	44065.27
564.24	44088.67
564.41	43962.28
564.57	43948.24
564.74	43730.57
564.90	44025.48
565.07	43756.32
565.23	44088.67
565.39	43941.22
565.56	43915.47
565.72	43952.92
565.88	44285.28
566.05	43749.29
566.21	43938.88
566.38	43966.96
566.54	44039.52
566.70	44175.27
566.87	44332.09
567.03	44402.30
567.19	44671.46
567.36	44069.95
567.52	43852.28
567.68	44519.33
567.85	43852.28
568.01	44158.89
568.17	43969.30
568.34	43718.87
568.50	44573.16
568.66	44306.34
568.83	44453.79
568.99	43735.25
569.15	43620.56
569.32	43861.64
569.48	44058.24
569.64	44311.02
569.81	44027.82
569.97	44339.11
570.13	44329.75
570.30	44093.35
570.46	43810.15
570.62	43973.98
570.78	43810.15
570.95	44065.27
571.11	44355.49
571.27	44325.07
571.43	44076.97
571.60	44212.72
571.76	44161.23
571.92	44369.54
572.09	44289.96
572.25	43927.17
572.41	44205.70
572.57	44390.60
572.74	44896.16
572.90	44332.09
573.06	44598.91
573.22	44069.95
573.38	44371.88
573.55	44233.78
573.71	44332.09
573.87	44533.37
574.03	44282.94
574.20	44107.40
574.36	44451.45
574.52	44186.97
574.68	44414.01
574.84	44601.25
575.01	44411.67
575.17	44212.72
575.33	44669.12
575.49	43959.94
575.65	44737.00
575.82	44868.07
575.98	44208.04
576.14	44704.23
576.30	44790.83
576.46	44013.77
576.62	44713.59
576.79	44179.95
576.95	44304.00
577.11	44004.41
577.27	44587.21
577.43	44687.85
577.59	44390.60
577.75	44666.78
577.92	44388.26
578.08	44076.97
578.24	44591.89
578.40	44282.94
578.56	44519.33
578.72	44409.32
578.88	44889.13
579.04	44823.60
579.21	44526.35
579.37	44809.56
579.53	44858.71
579.69	44217.40
579.85	44381.24
580.01	44575.50
580.17	44341.45
580.33	44545.08
580.49	44933.60
580.65	44811.90
580.82	44760.40
580.98	44109.74
581.14	44325.07
581.30	44828.28
581.46	44383.58
581.62	44865.73
581.78	44694.87
581.94	44732.32
582.10	44229.10
582.26	44341.45
582.42	44542.74
582.58	44580.18
582.74	44526.35
582.90	44568.48
583.06	44615.29
583.22	44582.52
583.38	44830.62
583.54	44594.23
583.70	44865.73
583.86	44657.42
584.02	44074.63
584.18	44596.57
584.34	44767.43
584.50	44903.18
584.66	44512.31
584.82	44741.68
584.98	44416.35
585.14	45109.14
585.30	44612.95
585.46	44514.65
585.62	44858.71
585.78	44528.69
585.94	44456.14
586.10	44498.26
586.26	44650.40
586.42	44641.04
586.58	44624.65
586.74	44655.08
586.90	44776.79
587.06	44360.17
587.22	44699.55
587.38	44542.74
587.54	45118.51
587.70	44692.53
587.86	44844.66
588.02	44629.34
588.18	44622.31
588.34	44863.39
588.49	44418.69
588.65	44610.61
588.81	44261.87
588.97	44624.65
589.13	44069.95
589.29	45064.67
589.45	44463.16
589.61	44369.54
589.77	44811.90
589.93	44762.75
590.08	45031.91
590.24	45244.90
