SpectraSuite Data File
++++++++++++++++++++++++++++++++++++
Date: Fri Oct 25 10:44:08 EDT 2013
User: price-jones
Dark Spectrum Present: No
Reference Spectrum Present: No
Number of Sampled Component Spectra: 1
Spectrometers: USB2+H05261
Integration Time (usec): 100000 (USB2+H05261)
Spectra Averaged: 1 (USB2+H05261)
Boxcar Smoothing: 0 (USB2+H05261)
Correct for Electrical Dark: No (USB2+H05261)
Strobe/Lamp Enabled: No (USB2+H05261)
Correct for Detector Non-linearity: No (USB2+H05261)
Correct for Stray Light: No (USB2+H05261)
Number of Pixels in Processed Spectrum: 2048
>>>>>Begin Processed Spectral Data<<<<<
365.73	173.20
365.92	173.20
366.12	173.20
366.32	35.11
366.52	16.38
366.72	49.15
366.91	11.70
367.11	60.85
367.31	18.72
367.51	0.00
367.70	0.00
367.90	39.79
368.10	44.47
368.30	25.75
368.49	86.60
368.69	105.32
368.89	67.88
369.09	0.00
369.28	53.83
369.48	30.43
369.68	42.13
369.87	86.60
370.07	187.24
370.27	175.54
370.47	168.52
370.66	353.42
370.86	414.27
371.06	442.36
371.25	486.83
371.45	402.57
371.65	433.00
371.84	465.77
372.04	484.49
372.24	475.13
372.44	479.81
372.63	498.53
372.83	472.79
373.03	493.85
373.22	505.56
373.42	479.81
373.62	531.30
373.81	538.32
374.01	587.47
374.21	594.50
374.40	526.62
374.60	559.39
374.79	524.28
374.99	578.11
375.19	634.29
375.38	669.39
375.58	603.86
375.78	596.84
375.97	608.54
376.17	648.33
376.37	526.62
376.56	603.86
376.76	550.03
376.95	624.92
377.15	610.88
377.35	617.90
377.54	667.05
377.74	648.33
377.93	669.39
378.13	669.39
378.33	695.14
378.52	657.69
378.72	695.14
378.91	748.97
379.11	641.31
379.31	671.73
379.50	603.86
379.70	692.80
379.89	683.44
380.09	667.05
380.28	676.41
380.48	676.41
380.68	748.97
380.87	671.73
381.07	716.20
381.26	702.16
381.46	770.04
381.65	709.18
381.85	664.71
382.04	741.95
382.24	669.39
382.43	720.88
382.63	608.54
382.83	683.44
383.02	755.99
383.22	746.63
383.41	636.63
383.61	645.99
383.80	795.78
384.00	741.95
384.19	765.36
384.39	830.89
384.58	821.53
384.78	866.00
384.97	758.33
385.17	826.21
385.36	641.31
385.56	861.32
385.75	868.34
385.95	847.27
386.14	784.08
386.34	840.25
386.53	844.93
386.72	814.51
386.92	851.96
387.11	858.98
387.31	856.64
387.50	837.91
387.70	795.78
387.89	896.43
388.09	898.77
388.28	830.89
388.48	894.08
388.67	931.53
388.86	877.70
389.06	945.58
389.25	950.26
389.45	915.15
389.64	1095.37
389.84	1048.56
390.03	1008.77
390.22	961.96
390.42	994.73
390.61	994.73
390.81	1006.43
391.00	1128.14
391.19	1041.54
391.39	1071.97
391.58	1041.54
391.78	1034.52
391.97	1090.69
392.16	1071.97
392.36	1062.60
392.55	1020.47
392.75	1022.81
392.94	978.34
393.13	931.53
393.33	997.07
393.52	1053.24
393.71	1177.29
393.91	1167.93
394.10	1184.31
394.29	1163.25
394.49	1200.69
394.68	1191.33
394.88	1259.21
395.07	1254.53
395.26	1132.82
395.46	1207.72
395.65	1273.25
395.84	1287.29
396.04	1345.81
396.23	1135.16
396.42	1142.18
396.62	1160.91
396.81	1151.54
397.00	1214.74
397.19	1273.25
397.39	1224.10
397.58	1397.30
397.77	1366.87
397.97	1509.65
398.16	1383.26
398.35	1469.86
398.55	1394.96
398.74	1413.68
398.93	1561.14
399.12	1469.86
399.32	1427.73
399.51	1556.46
399.70	1561.14
399.90	1563.48
400.09	1701.57
400.28	1600.93
400.47	1493.26
400.67	1694.55
400.86	1570.50
401.05	1671.14
401.24	1717.95
401.44	1692.21
401.63	1790.51
401.82	1724.97
402.01	1589.22
402.21	1732.00
402.40	1769.44
402.59	1837.32
402.78	1650.08
402.97	1724.97
403.17	1757.74
403.36	1858.39
403.55	1870.09
403.74	1888.81
403.93	1832.64
404.13	1886.47
404.32	1900.52
404.51	1827.96
404.70	1895.83
404.89	1849.02
405.09	1966.05
405.28	1968.39
405.47	1856.04
405.66	1930.94
405.85	1916.90
406.05	1919.24
406.24	2015.20
406.43	1973.07
406.62	2038.61
406.81	2113.50
407.00	1987.11
407.20	2017.54
407.39	2101.80
407.58	2160.31
407.77	2101.80
407.96	2260.96
408.15	2267.98
408.34	2118.18
408.54	2223.51
408.73	2300.75
408.92	2296.07
409.11	2190.74
409.30	2265.64
409.49	2293.72
409.68	2263.30
409.87	2211.81
410.07	2314.79
410.26	2396.71
410.45	2296.07
410.64	2422.45
410.83	2300.75
411.02	2544.16
411.21	2464.58
411.40	2583.95
411.59	2668.21
411.78	2469.27
411.98	2539.48
412.17	2677.57
412.36	2602.68
412.55	2675.23
412.74	2628.42
412.93	2705.66
413.12	2658.85
413.31	2862.48
413.50	2881.20
413.69	2944.39
413.88	3026.31
414.07	2850.77
414.26	3016.95
414.45	2928.01
414.64	2892.90
414.83	3129.30
415.02	3105.89
415.22	3016.95
415.41	3126.96
415.60	3035.67
415.79	3211.22
415.98	3220.58
416.17	3061.42
416.36	3229.94
416.55	3155.04
416.74	3236.96
416.93	3269.73
417.12	3382.07
417.31	3190.15
417.50	3143.34
417.69	3353.99
417.88	3361.01
418.07	3531.87
418.26	3482.72
418.45	3456.97
418.64	3651.24
418.83	3592.72
419.02	3461.65
419.21	3494.42
419.39	3599.74
419.58	3545.91
419.77	3632.51
419.96	3646.55
420.15	3581.02
420.34	3676.98
420.53	3667.62
420.72	3817.41
420.91	3871.25
421.10	3920.40
421.29	3777.62
421.48	3641.87
421.67	3758.90
421.86	3751.88
422.05	3655.92
422.24	3775.28
422.43	3728.47
422.61	3857.20
422.80	3894.65
422.99	3953.16
423.18	3847.84
423.37	3899.33
423.56	3941.46
423.75	4025.72
423.94	4021.04
424.13	3559.95
424.32	3758.90
424.50	3925.08
424.69	4086.58
424.88	3981.25
425.07	3873.59
425.26	3882.95
425.45	3882.95
425.64	3906.35
425.83	3887.63
426.01	4037.42
426.20	4112.32
426.39	4093.60
426.58	3978.91
426.77	3932.10
426.96	3964.87
427.15	3934.44
427.33	3955.51
427.52	4081.89
427.71	4056.15
427.90	4149.77
428.09	4124.02
428.28	4105.30
428.46	4081.89
428.65	4217.65
428.84	4318.29
429.03	4175.52
429.22	3971.89
429.40	4063.17
429.59	4215.30
429.78	3943.80
429.97	3936.78
430.16	3943.80
430.34	4140.41
430.53	4095.94
430.72	4259.78
430.91	4091.26
431.10	4351.06
431.28	4416.59
431.47	4545.32
431.66	4613.20
431.85	4493.83
432.03	4622.56
432.22	4622.56
432.41	4688.09
432.60	4791.08
432.79	4599.15
432.97	4725.54
433.16	4699.80
433.35	4554.68
433.54	4531.28
433.72	4755.97
433.91	4568.73
434.10	4798.10
434.28	4821.50
434.47	4774.69
434.66	4821.50
434.85	4983.00
435.03	5015.77
435.22	4910.44
435.41	5095.35
435.59	5069.60
435.78	5179.61
435.97	5107.05
436.16	5102.37
436.34	4959.60
436.53	5050.88
436.72	5268.55
436.90	5034.49
437.09	5291.95
437.28	5041.51
437.46	5008.75
437.65	5303.65
437.84	5242.80
438.02	4961.94
438.21	5144.50
438.40	5137.48
438.58	5420.68
438.77	5357.49
438.96	5376.21
439.14	5561.11
439.33	5570.48
439.52	5558.77
439.70	5678.14
439.89	5748.36
440.08	5547.07
440.26	5734.31
440.45	5724.95
440.63	5867.72
440.82	5902.83
441.01	5888.79
441.19	6038.58
441.38	6024.54
441.57	6003.47
441.75	6272.64
441.94	6253.91
442.12	6265.61
442.31	6202.42
442.50	6221.14
442.68	6232.85
442.87	6270.30
443.05	6438.81
443.24	6464.56
443.43	6406.05
443.61	6487.96
443.80	6677.55
443.98	6328.81
444.17	6050.28
444.35	6445.84
444.54	6473.92
444.73	6497.33
444.91	6466.90
445.10	6494.99
445.28	6384.98
445.47	6513.71
445.65	6494.99
445.84	6424.77
446.02	6612.01
446.21	6452.86
446.39	6562.86
446.58	6607.33
446.77	6715.00
446.95	6686.91
447.14	6560.52
447.32	6672.87
447.51	6700.95
447.69	6612.01
447.88	6492.65
448.06	6644.78
448.25	6619.04
448.43	6693.93
448.62	6820.32
448.80	6576.91
448.99	6913.94
449.17	6995.86
449.36	6768.83
449.54	6963.09
449.73	7037.99
449.91	7183.10
450.10	7059.06
450.28	7112.89
450.46	7213.53
450.65	7009.90
450.83	6949.05
451.02	7148.00
451.20	7295.45
451.39	7232.26
451.57	7068.42
451.76	7206.51
451.94	7070.76
452.13	7162.04
452.31	7143.32
452.49	7091.82
452.68	7082.46
452.86	6927.99
453.05	7066.08
453.23	7536.52
453.42	7267.36
453.60	7300.13
453.78	7513.12
453.97	7138.63
454.15	7316.51
454.34	7243.96
454.52	7592.70
454.70	7370.35
454.89	7548.23
455.07	7396.09
455.26	7440.56
455.44	7503.76
455.62	7744.83
455.81	7854.84
455.99	7756.54
456.17	7810.37
456.36	7485.03
456.54	7836.11
456.73	7735.47
456.91	8159.11
457.09	8095.91
457.28	8025.70
457.46	8042.08
457.64	8098.25
457.83	8084.21
458.01	8077.19
458.19	8212.94
458.38	7861.86
458.56	8217.62
458.74	8402.52
458.93	8093.57
459.11	8201.24
459.29	8065.49
459.48	8102.93
459.66	8222.30
459.84	8315.92
460.03	8500.83
460.21	8388.48
460.39	8491.46
460.57	8755.94
460.76	8568.70
460.94	8645.94
461.12	8486.78
461.31	8386.14
461.49	8491.46
461.67	8578.06
461.85	8695.09
462.04	8627.21
462.22	9303.63
462.40	8945.53
462.59	8737.22
462.77	8802.75
462.95	8994.68
463.13	8802.75
463.32	8877.65
463.50	8865.95
463.68	8903.40
463.86	9181.92
464.05	9004.04
464.23	8833.18
464.41	9013.40
464.59	8926.80
464.78	9221.71
464.96	9095.32
465.14	9095.32
465.32	9177.24
465.50	9116.39
465.69	9219.37
465.87	9172.56
466.05	9116.39
466.23	9055.53
466.41	9193.62
466.60	9371.50
466.78	9097.66
466.96	9027.45
467.14	9041.49
467.32	9390.23
467.51	9444.06
467.69	9256.82
467.87	9268.52
468.05	9362.14
468.23	9495.55
468.41	9355.12
468.60	9329.38
468.78	9610.24
468.96	9635.99
469.14	9607.90
469.32	9788.12
469.50	9226.39
469.69	9694.50
469.87	9753.01
470.05	9727.27
470.23	9942.60
470.41	9764.72
470.59	10019.83
470.77	9820.89
470.95	9984.73
471.14	9984.73
471.32	9886.42
471.50	10246.87
471.68	10118.14
471.86	10038.56
472.04	10401.34
472.22	10450.49
472.40	10122.82
472.58	10319.42
472.77	10410.70
472.95	10480.92
473.13	10883.49
473.31	10516.03
473.49	10399.00
473.67	10436.45
473.85	10780.51
474.03	10736.04
474.21	10806.25
474.39	10970.09
474.57	10970.09
474.75	10920.94
474.93	11115.20
475.12	11110.52
475.30	11241.59
475.48	11197.12
475.66	11215.85
475.84	11236.91
476.02	11463.94
476.20	11417.13
476.38	11744.81
476.56	11616.08
476.74	11838.43
476.92	11707.36
477.10	11709.70
477.28	12053.76
477.46	12095.89
477.64	12500.80
477.82	12306.54
478.00	12762.94
478.18	12486.76
478.36	12709.11
478.54	12521.87
478.72	12425.90
478.90	12791.03
479.08	13022.74
479.26	13146.79
479.44	13062.53
479.62	13046.15
479.80	13221.69
479.98	13584.47
480.16	13408.93
480.34	13444.04
480.52	13671.07
480.70	13717.88
480.88	13628.94
481.06	13806.82
481.24	13884.06
481.41	14068.96
481.59	14445.79
481.77	14207.05
481.95	14494.94
482.13	14345.14
482.31	14661.12
482.49	14923.26
482.67	14752.40
482.85	15194.76
483.03	15110.50
483.21	15407.75
483.39	15304.76
483.57	15311.78
483.74	15602.01
483.92	15838.41
484.10	15522.43
484.28	15653.50
484.46	16156.72
484.64	16119.27
484.82	16058.42
485.00	16063.10
485.18	16587.38
485.35	16650.57
485.53	16219.91
485.71	16276.09
485.89	16360.34
486.07	16318.22
486.25	16404.81
486.43	16465.67
486.61	16929.09
486.78	17109.32
486.96	17331.67
487.14	17645.30
487.32	17481.46
487.50	17844.24
487.68	18181.28
487.85	18111.07
488.03	18181.28
488.21	18824.93
488.39	18340.44
488.57	18799.18
488.75	18787.48
488.92	19058.98
489.10	19318.78
489.28	19316.44
489.46	19646.46
489.64	19590.28
489.81	19817.32
489.99	20009.24
490.17	20168.40
490.35	20355.64
490.53	20184.78
490.70	20613.10
490.88	20372.02
491.06	20636.50
491.24	20727.78
491.41	20582.67
491.59	20767.57
491.77	20608.42
491.95	20947.79
492.13	21357.39
492.30	21586.76
492.48	21783.37
492.66	21502.50
492.84	21467.39
493.01	21874.65
493.19	21717.83
493.37	22207.00
493.54	22204.66
493.72	22363.82
493.90	23019.17
494.08	22740.64
494.25	23105.77
494.43	22892.78
494.61	23417.06
494.79	23035.55
494.96	23295.35
495.14	23365.57
495.32	23534.09
495.49	23548.13
495.67	23861.76
495.85	23714.31
496.02	23931.98
496.20	24390.72
496.38	23960.06
496.55	24301.78
496.73	25116.29
496.91	24950.11
497.09	25198.21
497.26	24863.51
497.44	25254.38
497.62	25385.45
497.79	25322.26
497.97	25191.19
498.14	25113.95
498.32	25525.88
498.50	25741.21
498.67	25797.38
498.85	25891.01
499.03	26216.34
499.20	26061.87
499.38	26288.90
499.56	26356.77
499.73	26508.91
499.91	26024.42
500.08	26387.20
500.26	26031.44
500.44	26253.79
500.61	26651.68
500.79	26637.64
500.97	27012.12
501.14	26834.24
501.32	26848.29
501.49	27133.83
501.67	27131.49
501.84	27414.69
502.02	27501.29
502.20	27728.33
502.37	27641.73
502.55	28088.77
502.72	27597.26
502.90	27763.43
503.07	27974.08
503.25	28074.73
503.43	27653.43
503.60	28100.47
503.78	28056.00
503.95	28063.02
504.13	28496.02
504.30	28561.56
504.48	28547.51
504.65	29146.69
504.83	28835.40
505.01	29235.63
505.18	28807.31
505.36	29233.29
505.53	29347.98
505.71	29670.97
505.88	29558.63
506.06	29570.33
506.23	29656.93
506.41	29603.10
506.58	29656.93
506.76	29989.28
506.93	30506.54
507.11	29598.41
507.28	29867.58
507.46	29631.18
507.63	30015.03
507.81	29921.41
507.98	30405.90
508.16	30113.33
508.33	30520.59
508.50	30731.23
508.68	30850.60
508.85	30988.69
509.03	31164.23
509.20	30834.22
509.38	30855.28
509.55	30888.05
509.73	31065.93
509.90	31061.25
510.08	31199.34
510.25	31124.44
510.42	31964.70
510.60	31646.38
510.77	31440.42
510.95	31758.73
511.12	31630.00
511.30	31880.44
511.47	32208.11
511.64	31882.78
511.82	32329.82
511.99	32205.77
512.17	31957.67
512.34	32154.28
512.51	32493.66
512.69	32868.14
512.86	32467.91
513.04	32907.93
513.21	32811.97
513.38	32708.99
513.56	32847.08
513.73	32334.50
513.90	32645.79
514.08	32989.85
514.25	32999.21
514.43	33090.49
514.60	33198.16
514.77	33062.41
514.95	33336.25
515.12	33336.25
515.29	33380.72
515.47	33989.26
515.64	33809.04
515.81	33684.99
515.99	33989.26
516.16	33603.07
516.33	33139.65
516.51	33591.37
516.68	33472.00
516.85	33406.47
517.03	33532.86
517.20	33280.08
517.37	34010.32
517.54	34586.10
517.72	34087.56
517.89	34092.24
518.06	33916.70
518.24	34087.56
518.41	33963.51
518.58	34291.19
518.75	34220.97
518.93	34602.48
519.10	34646.95
519.27	35065.91
519.45	35105.70
519.62	35000.37
519.79	35372.52
519.96	35143.14
520.14	35211.02
520.31	35178.25
520.48	35754.02
520.65	35267.19
520.83	35674.45
521.00	35875.73
521.17	35990.42
521.34	36037.23
521.52	36130.85
521.69	36048.93
521.86	36350.86
522.03	36095.74
522.20	36016.16
522.38	36203.41
522.55	36187.02
522.72	36109.78
522.89	36390.65
523.07	36701.94
523.24	36285.33
523.41	37008.55
523.58	36517.04
523.75	37116.22
523.92	36790.88
524.10	37591.34
524.27	37656.88
524.44	37198.13
524.61	37455.59
524.78	37457.93
524.96	37553.90
525.13	37776.25
525.30	37794.97
525.47	37933.06
525.64	37483.68
525.81	37500.06
525.98	37333.89
526.16	37340.91
526.33	37139.62
526.50	37738.80
526.67	37193.45
526.84	37230.90
527.01	37418.14
527.18	37663.90
527.36	38232.65
527.53	38436.28
527.70	38309.89
527.87	38192.86
528.04	38359.04
528.21	38548.62
528.38	38279.46
528.55	38930.13
528.72	38375.42
528.89	39138.44
529.07	38625.86
529.24	38562.67
529.41	38557.99
529.58	38766.29
529.75	38384.79
529.92	38803.74
530.09	38988.64
530.26	39016.73
530.43	39276.53
530.60	38721.82
530.77	38923.11
530.94	39098.65
531.11	39054.18
531.28	39210.99
531.46	39686.12
531.63	39524.63
531.80	39421.64
531.97	38972.26
532.14	39159.50
532.31	39274.19
532.48	39449.73
532.65	39503.56
532.82	39564.42
532.99	39742.30
533.16	39859.32
533.33	40023.16
533.50	40144.87
533.67	40224.45
533.84	39576.12
534.01	40182.32
534.18	40020.82
534.35	40250.19
534.52	39906.13
534.69	40418.71
534.86	40781.49
535.03	40212.74
535.20	40762.77
535.37	40739.36
535.54	41120.87
535.71	40690.21
535.88	40521.69
536.05	40701.92
536.22	40769.79
536.38	40444.46
536.55	40491.27
536.72	40708.94
536.89	40608.29
537.06	40699.58
537.23	40701.92
537.40	41085.76
537.57	41216.83
537.74	41448.55
537.91	41144.28
538.08	40919.59
538.25	40889.16
538.42	41186.41
538.59	40940.65
538.75	40889.16
538.92	41375.99
539.09	41645.15
539.26	41083.42
539.43	41256.62
539.60	41397.06
539.77	41053.00
539.94	41893.25
540.11	40884.48
540.28	41277.69
540.44	41464.93
540.61	41476.63
540.78	41645.15
540.95	41095.13
541.12	41324.50
541.29	41647.49
541.46	41743.45
541.62	41769.20
541.79	42171.77
541.96	41549.19
542.13	41890.91
542.30	42265.39
542.47	41481.31
542.63	41956.44
542.80	41872.18
542.97	42529.87
543.14	42892.66
543.31	42504.13
543.48	42246.67
543.64	42792.01
543.81	42967.55
543.98	42789.67
544.15	42543.92
544.32	42415.19
544.48	43264.80
544.65	42836.48
544.82	43171.18
544.99	42810.74
545.16	42883.30
545.32	43019.05
545.49	43302.25
545.66	43515.24
545.83	43082.24
546.00	43358.42
546.16	43129.05
546.33	43082.24
546.50	42686.69
546.67	43285.87
546.83	42628.18
547.00	43077.56
547.17	43047.13
547.34	42976.92
547.50	42976.92
547.67	43608.86
547.84	43536.30
548.00	43342.04
548.17	43728.23
548.34	43236.72
548.51	44215.06
548.67	43606.52
548.84	44109.74
549.01	43594.82
549.18	43751.63
549.34	43995.05
549.51	43868.66
549.68	43782.06
549.84	43704.82
550.01	44198.68
550.18	43653.33
550.34	44119.10
550.51	43880.36
550.68	43473.11
550.84	43599.50
551.01	43842.92
551.18	44421.03
551.34	44402.30
551.51	44432.73
551.68	44130.80
551.84	44825.94
552.01	43929.51
552.18	44046.54
552.34	43756.32
552.51	44296.98
552.68	44076.97
552.84	44535.71
553.01	44797.85
553.18	44563.80
553.34	44409.32
553.51	44215.06
553.67	44631.68
553.84	44788.49
554.01	44847.00
554.17	44816.58
554.34	44989.78
554.51	44655.08
554.67	44514.65
554.84	44580.18
555.00	44430.39
555.17	44589.55
555.33	44729.98
555.50	44601.25
555.67	44580.18
555.83	44432.73
556.00	45010.84
556.16	44994.46
556.33	44744.02
556.50	44699.55
556.66	44807.22
556.83	44062.93
556.99	45038.93
557.16	45387.67
557.32	45167.66
557.49	44893.82
557.65	44762.75
557.82	45088.08
557.98	45301.07
558.15	45230.85
558.32	44835.30
558.48	44802.53
558.65	44861.05
558.81	45013.18
558.98	44753.38
559.14	45153.62
559.31	45148.93
559.47	45202.77
559.64	45448.52
559.80	45130.21
559.97	45338.52
560.13	44832.96
560.30	45415.76
560.46	45921.31
560.63	45188.72
560.79	45612.36
560.96	45724.71
561.12	45378.31
561.29	45172.34
561.45	45078.72
561.61	45191.06
561.78	45099.78
561.94	44870.41
562.11	45020.20
562.27	45099.78
562.44	45649.81
562.60	45900.25
562.77	45839.39
562.93	45549.17
563.10	45808.96
563.26	45305.75
563.42	45591.30
563.59	45375.97
563.75	45284.68
563.92	45736.41
564.08	45624.06
564.24	46021.95
564.41	45434.48
564.57	45762.15
564.74	45659.17
564.90	45488.31
565.07	45963.44
565.23	45600.66
565.39	45645.13
565.56	45918.97
565.72	45542.14
565.88	45556.19
566.05	45397.03
566.21	45553.85
566.38	45923.65
566.54	45612.36
566.70	46146.00
566.87	46300.48
567.03	45621.72
567.19	45951.74
567.36	45544.48
567.52	45848.75
567.68	45855.78
567.85	45787.90
568.01	45921.31
568.17	45710.66
568.34	45897.91
568.50	45535.12
568.66	45649.81
568.83	45701.30
568.99	45443.84
569.15	45553.85
569.32	45755.13
569.48	45530.44
569.64	46082.81
569.81	45982.16
569.97	45890.88
570.13	45893.22
570.30	45181.70
570.46	45584.27
570.62	45867.48
570.78	45516.40
570.95	45593.64
571.11	46103.87
571.27	45467.25
571.43	45605.34
571.60	45986.85
571.76	45748.11
571.92	45731.73
572.09	45640.45
572.25	45771.52
572.41	45902.59
572.57	46028.98
572.74	46387.08
572.90	46066.42
573.06	45879.18
573.22	45979.82
573.38	46232.60
573.55	45738.75
573.71	45893.22
573.87	46454.95
574.03	46150.68
574.20	46033.66
574.36	45982.16
574.52	45752.79
574.68	45968.12
574.84	45970.46
575.01	45818.33
575.17	45886.20
575.33	45476.61
575.49	45853.44
575.65	46244.30
575.82	45673.21
575.98	45907.27
576.14	46658.58
576.30	46073.45
576.46	45841.73
576.62	45846.41
576.79	45748.11
576.95	46176.43
577.11	45439.16
577.27	46471.34
577.43	46054.72
577.59	46281.75
577.75	46028.98
577.92	45888.54
578.08	46014.93
578.24	45649.81
578.40	45858.12
578.56	46115.58
578.72	46113.23
578.88	45925.99
579.04	46223.24
579.21	45586.61
579.37	46146.00
579.53	46436.23
579.69	46014.93
579.85	45841.73
580.01	45902.59
580.17	46377.72
580.33	46607.09
580.49	46068.76
580.65	46408.14
580.82	46197.49
580.98	45691.94
581.14	45902.59
581.30	46464.32
581.46	45769.18
581.62	46108.55
581.78	46497.08
581.94	46305.16
582.10	46010.25
582.26	46333.24
582.42	46419.84
582.58	46403.46
582.74	46120.26
582.90	46260.69
583.06	46457.29
583.22	46471.34
583.38	46148.34
583.54	46625.81
583.70	46265.37
583.86	46138.98
584.02	45872.16
584.18	46344.95
584.34	46157.70
584.50	46045.36
584.66	46000.89
584.82	45481.29
584.98	46520.49
585.14	46167.07
585.30	46073.45
585.46	46513.47
585.62	45799.60
585.78	46234.94
585.94	45560.87
586.10	45799.60
586.26	45748.11
586.42	46548.57
586.58	46461.97
586.74	46220.90
586.90	46040.68
587.06	46277.07
587.22	46237.28
587.38	45914.29
587.54	46321.54
587.70	46623.47
587.86	46127.28
588.02	46230.26
588.18	46300.48
588.34	45834.71
588.49	45638.11
588.65	45698.96
588.81	45509.38
588.97	45965.78
589.13	45977.48
589.29	45907.27
589.45	46036.00
589.61	46057.06
589.77	46373.03
589.93	46040.68
