SpectraSuite Data File
++++++++++++++++++++++++++++++++++++
Date: Fri Oct 25 10:47:03 EDT 2013
User: price-jones
Dark Spectrum Present: No
Reference Spectrum Present: No
Number of Sampled Component Spectra: 1
Spectrometers: USB2+H05261
Integration Time (usec): 100000 (USB2+H05261)
Spectra Averaged: 1 (USB2+H05261)
Boxcar Smoothing: 0 (USB2+H05261)
Correct for Electrical Dark: No (USB2+H05261)
Strobe/Lamp Enabled: No (USB2+H05261)
Correct for Detector Non-linearity: No (USB2+H05261)
Correct for Stray Light: No (USB2+H05261)
Number of Pixels in Processed Spectrum: 2048
>>>>>Begin Processed Spectral Data<<<<<
365.73	135.75
365.92	135.75
366.12	135.75
366.32	49.15
366.52	79.58
366.72	79.58
366.91	51.49
367.11	35.11
367.31	72.56
367.51	84.26
367.70	51.49
367.90	53.83
368.10	49.15
368.30	65.54
368.49	9.36
368.69	0.00
368.89	58.51
369.09	72.56
369.28	102.98
369.48	58.51
369.68	105.32
369.87	67.88
370.07	72.56
370.27	72.56
370.47	184.90
370.66	367.46
370.86	397.89
371.06	404.91
371.25	451.72
371.45	423.64
371.65	465.77
371.84	444.70
372.04	416.62
372.24	451.72
372.44	491.51
372.63	451.72
372.83	596.84
373.03	538.32
373.22	528.96
373.42	531.30
373.62	500.87
373.81	545.34
374.01	514.92
374.21	521.94
374.40	554.71
374.60	599.18
374.79	519.60
374.99	594.50
375.19	622.58
375.38	468.11
375.58	545.34
375.78	571.09
375.97	538.32
376.17	615.56
376.37	622.58
376.56	561.73
376.76	681.10
376.95	594.50
377.15	634.29
377.35	575.77
377.54	564.07
377.74	734.93
377.93	667.05
378.13	674.07
378.33	629.60
378.52	613.22
378.72	655.35
378.91	664.71
379.11	638.97
379.31	681.10
379.50	627.26
379.70	660.03
379.89	688.12
380.09	739.61
380.28	643.65
380.48	681.10
380.68	676.41
380.87	573.43
381.07	610.88
381.26	683.44
381.46	664.71
381.65	763.01
381.85	676.41
382.04	617.90
382.24	662.37
382.43	669.39
382.63	655.35
382.83	669.39
383.02	645.99
383.22	704.50
383.41	667.05
383.61	685.78
383.80	770.04
384.00	774.72
384.19	718.54
384.39	681.10
384.58	690.46
384.78	777.06
384.97	758.33
385.17	837.91
385.36	727.91
385.56	755.99
385.75	748.97
385.95	795.78
386.14	774.72
386.34	772.38
386.53	716.20
386.72	774.72
386.92	837.91
387.11	786.42
387.31	844.93
387.50	823.87
387.70	807.48
387.89	805.14
388.09	842.59
388.28	858.98
388.48	901.11
388.67	856.64
388.86	901.11
389.06	849.61
389.25	798.12
389.45	976.00
389.64	877.70
389.84	887.06
390.03	1036.86
390.22	933.87
390.42	997.07
390.61	882.38
390.81	884.72
391.00	1032.18
391.19	997.07
391.39	1057.92
391.58	915.15
391.78	985.37
391.97	1011.11
392.16	978.34
392.36	1011.11
392.55	978.34
392.75	931.53
392.94	976.00
393.13	1018.13
393.33	997.07
393.52	983.02
393.71	1060.26
393.91	1043.88
394.10	997.07
394.29	1036.86
394.49	1156.22
394.68	1022.81
394.88	1165.59
395.07	1191.33
395.26	1137.50
395.46	1123.46
395.65	1156.22
395.84	1198.35
396.04	1219.42
396.23	1235.80
396.42	1188.99
396.62	1144.52
396.81	1107.07
397.00	1181.97
397.19	1226.44
397.39	1100.05
397.58	1329.42
397.77	1341.13
397.97	1284.95
398.16	1259.21
398.35	1268.57
398.55	1303.68
398.74	1376.24
398.93	1362.19
399.12	1371.55
399.32	1315.38
399.51	1327.08
399.70	1357.51
399.90	1355.17
400.09	1476.88
400.28	1451.13
400.47	1516.67
400.67	1439.43
400.86	1490.92
401.05	1504.96
401.24	1465.18
401.44	1563.48
401.63	1495.60
401.82	1542.41
402.01	1516.67
402.21	1533.05
402.40	1568.16
402.59	1689.87
402.78	1612.63
402.97	1710.93
403.17	1629.01
403.36	1652.42
403.55	1741.36
403.74	1727.32
403.93	1748.38
404.13	1727.32
404.32	1680.50
404.51	1809.23
404.70	1792.85
404.89	1743.70
405.09	1757.74
405.28	1844.34
405.47	1806.89
405.66	1771.79
405.85	1750.72
406.05	1774.13
406.24	1673.48
406.43	1937.96
406.62	1834.98
406.81	1973.07
407.00	1914.56
407.20	1839.66
407.39	1966.05
407.58	1877.11
407.77	1919.24
407.96	1975.41
408.15	2069.03
408.34	1961.37
408.54	2050.31
408.73	2153.29
408.92	2045.63
409.11	2087.76
409.30	2083.08
409.49	2054.99
409.68	2033.93
409.87	2001.16
410.07	2073.71
410.26	2136.91
410.45	2232.87
410.64	2239.89
410.83	2155.63
411.02	2286.70
411.21	2277.34
411.40	2307.77
411.59	2377.98
411.78	2242.23
411.98	2345.22
412.17	2368.62
412.36	2443.52
412.55	2462.24
412.74	2441.18
412.93	2509.05
413.12	2506.71
413.31	2497.35
413.50	2511.39
413.69	2640.12
413.88	2640.12
414.07	2593.31
414.26	2576.93
414.45	2719.70
414.64	2693.96
414.83	2677.57
415.02	2796.94
415.22	2801.62
415.41	2895.24
415.60	2853.11
415.79	2738.43
415.98	3157.38
416.17	3007.59
416.36	2932.69
416.55	2995.89
416.74	3049.72
416.93	2963.12
417.12	2981.84
417.31	3094.19
417.50	3185.47
417.69	3183.13
417.88	3126.96
418.07	3117.59
418.26	3178.45
418.45	3309.52
418.64	3349.31
418.83	3323.56
419.02	3267.39
419.21	3281.43
419.39	3260.37
419.58	3276.75
419.77	3288.45
419.96	3337.60
420.15	3433.57
420.34	3503.78
420.53	3435.91
420.72	3613.79
420.91	3541.23
421.10	3543.57
421.29	3632.51
421.48	3559.95
421.67	3545.91
421.86	3552.93
422.05	3534.21
422.24	3574.00
422.43	3531.87
422.61	3590.38
422.80	3686.34
422.99	3660.60
423.18	3529.53
423.37	3747.20
423.56	3702.73
423.75	3569.32
423.94	3599.74
424.13	3426.54
424.32	3398.46
424.50	3674.64
424.69	3623.15
424.88	3707.41
425.07	3623.15
425.26	3543.57
425.45	3723.79
425.64	3578.68
425.83	3674.64
426.01	3761.24
426.20	3808.05
426.39	3772.94
426.58	3723.79
426.77	3641.87
426.96	3721.45
427.15	3597.40
427.33	3845.50
427.52	3660.60
427.71	3805.71
427.90	3730.81
428.09	3896.99
428.28	3880.61
428.46	3964.87
428.65	3744.86
428.84	3904.01
429.03	4028.06
429.22	3962.53
429.40	3852.52
429.59	3957.85
429.78	3751.88
429.97	3775.28
430.16	3847.84
430.34	3735.50
430.53	3812.73
430.72	3922.74
430.91	4032.74
431.10	3978.91
431.28	4184.88
431.47	4196.58
431.66	4447.02
431.85	4217.65
432.03	4156.79
432.22	4440.00
432.41	4297.22
432.60	4229.35
432.79	4304.25
432.97	4479.79
433.16	4308.93
433.35	4414.25
433.54	4290.20
433.72	4280.84
433.91	4341.69
434.10	4367.44
434.28	4498.51
434.47	4514.89
434.66	4491.49
434.85	4468.08
435.03	4535.96
435.22	4496.17
435.41	4650.64
435.59	4622.56
435.78	4760.65
435.97	4706.82
436.16	4725.54
436.34	4664.69
436.53	4865.97
436.72	4943.21
436.90	4704.48
437.09	4924.49
437.28	4744.27
437.46	4805.12
437.65	4887.04
437.84	4774.69
438.02	4795.76
438.21	4917.47
438.40	4884.70
438.58	4947.89
438.77	4978.32
438.96	4945.55
439.14	5242.80
439.33	5060.24
439.52	5165.56
439.70	5359.83
439.89	5111.73
440.08	5083.64
440.26	5416.00
440.45	5287.27
440.63	5514.30
440.82	5420.68
441.01	5493.24
441.19	5394.93
441.38	5544.73
441.57	5647.71
441.75	5579.84
441.94	5717.93
442.12	5738.99
442.31	5900.49
442.50	5982.41
442.68	5806.87
442.87	5750.70
443.05	5849.00
443.24	5874.74
443.43	5973.05
443.61	5937.94
443.80	6090.07
443.98	5806.87
444.17	5825.59
444.35	5989.43
444.54	6047.94
444.73	6008.16
444.91	6031.56
445.10	5963.68
445.28	5874.74
445.47	6087.73
445.65	5987.09
445.84	6094.76
446.02	6289.02
446.21	6073.69
446.39	6235.19
446.58	6352.21
446.77	6104.12
446.95	5947.30
447.14	6162.63
447.32	6202.42
447.51	6129.86
447.69	6040.92
447.88	6230.51
448.06	6080.71
448.25	6099.44
448.43	6244.55
448.62	6256.25
448.80	6061.99
448.99	6176.67
449.17	6246.89
449.36	6310.08
449.54	6396.68
449.73	6361.58
449.91	6492.65
450.10	6375.62
450.28	6558.18
450.46	6670.53
450.65	6586.27
450.83	6553.50
451.02	6700.95
451.20	6656.48
451.39	6628.40
451.57	6586.27
451.76	6469.24
451.94	6794.58
452.13	6626.06
452.31	6565.20
452.49	6635.42
452.68	6630.74
452.86	6775.85
453.05	6616.69
453.23	6885.86
453.42	6696.27
453.60	6621.38
453.78	6995.86
453.97	6848.41
454.15	6946.71
454.34	6794.58
454.52	7152.68
454.70	7026.29
454.89	6796.92
455.07	6920.96
455.26	6986.50
455.44	7166.72
455.62	7290.77
455.81	7014.59
455.99	6991.18
456.17	7133.95
456.36	7129.27
456.54	7426.52
456.73	7279.07
456.91	7438.22
457.09	7428.86
457.28	7489.71
457.46	7400.77
457.64	7599.72
457.83	7372.69
458.01	7625.47
458.19	7606.74
458.38	7522.48
458.56	7627.81
458.74	7489.71
458.93	7611.42
459.11	7786.96
459.29	7810.37
459.48	7606.74
459.66	7426.52
459.84	7639.51
460.03	8037.40
460.21	7943.78
460.39	7791.64
460.57	7801.01
460.76	7761.22
460.94	7824.41
461.12	7899.31
461.31	7779.94
461.49	8121.66
461.67	8009.31
461.85	8243.37
462.04	8004.63
462.22	8683.39
462.40	8325.29
462.59	8112.30
462.77	8290.18
462.95	8133.36
463.13	8124.00
463.32	8287.84
463.50	8280.82
463.68	8353.37
463.86	8360.39
464.05	8304.22
464.23	8332.31
464.41	8507.85
464.59	8278.47
464.78	8491.46
464.96	8238.69
465.14	8283.16
465.32	8493.80
465.50	8648.28
465.69	8400.18
465.87	8456.36
466.05	8599.13
466.23	8533.59
466.41	8592.11
466.60	8849.57
466.78	8461.04
466.96	8648.28
467.14	8772.33
467.32	8730.20
467.51	8765.31
467.69	8606.15
467.87	8865.95
468.05	8739.56
468.23	8697.43
468.41	8514.87
468.60	8835.52
468.78	8872.97
468.96	8798.07
469.14	9092.98
469.32	9025.11
469.50	8835.52
469.69	9137.45
469.87	9378.53
470.05	9144.47
470.23	9202.99
470.41	9130.43
470.59	9177.24
470.77	9238.09
470.95	9165.54
471.14	9434.70
471.32	9287.25
471.50	9724.93
471.68	9624.28
471.86	9577.47
472.04	9666.41
472.22	9788.12
472.40	9528.32
472.58	9678.12
472.77	9802.16
472.95	9717.90
473.13	10087.71
473.31	9778.76
473.49	9942.60
473.67	9893.44
473.85	10038.56
474.03	10200.05
474.21	10155.58
474.39	10272.61
474.57	10211.76
474.75	10558.16
474.93	10354.53
475.12	10436.45
475.30	10506.66
475.48	10427.09
475.66	10513.69
475.84	10387.30
476.02	10516.03
476.20	10740.72
476.38	10885.83
476.56	11028.60
476.74	11063.71
476.92	10836.68
477.10	10960.73
477.28	11157.33
477.46	11281.38
477.64	11250.96
477.82	11489.69
478.00	11705.02
478.18	11693.32
478.36	11758.85
478.54	11838.43
478.72	11721.40
478.90	11976.52
479.08	12004.61
479.26	12369.73
479.44	12086.53
479.62	12006.95
479.80	12610.81
479.98	12793.37
480.16	12739.54
480.34	12568.68
480.52	12807.41
480.70	12872.95
480.88	12898.69
481.06	12882.31
481.24	13092.96
481.41	13310.63
481.59	13369.14
481.77	13453.40
481.95	13411.27
482.13	13415.95
482.31	13385.52
482.49	14033.85
482.67	13954.27
482.85	13827.88
483.03	14190.67
483.21	14310.04
483.39	14171.94
483.57	14291.31
483.74	14499.62
483.92	14611.96
484.10	14518.34
484.28	14904.53
484.46	14885.81
484.64	15140.93
484.82	15000.49
485.00	15056.67
485.18	15318.81
485.35	15611.37
485.53	15461.58
485.71	15279.02
485.89	15522.43
486.07	15566.90
486.25	15857.13
486.43	15704.99
486.61	16074.80
486.78	16215.23
486.96	16540.57
487.14	16472.69
487.32	16269.06
487.50	16510.14
487.68	17032.08
487.85	17249.75
488.03	17088.25
488.21	17240.39
488.39	17319.96
488.57	17486.14
488.75	17558.70
488.92	18108.72
489.10	18314.69
489.28	17987.02
489.46	18328.74
489.64	18459.81
489.81	18801.52
489.99	18813.23
490.17	18998.13
490.35	18813.23
490.53	19168.99
490.70	19136.22
490.88	19351.55
491.06	19531.77
491.24	19573.90
491.41	19431.13
491.59	19796.25
491.77	19810.29
491.95	19953.07
492.13	20154.35
492.30	20128.61
492.48	20496.07
492.66	20671.61
492.84	20615.44
493.01	20793.32
493.19	20498.41
493.37	21254.40
493.54	21350.37
493.72	20999.29
493.90	21102.27
494.08	21366.75
494.25	22061.89
494.43	21678.04
494.61	21818.47
494.79	22099.34
494.96	21659.32
495.14	21855.92
495.32	22146.15
495.49	22064.23
495.67	22347.44
495.85	22499.57
496.02	22742.99
496.20	22780.43
496.38	22661.07
496.55	22965.34
496.73	23536.43
496.91	23129.17
497.09	23608.98
497.26	23707.29
497.44	23630.05
497.62	23578.56
497.79	23782.18
497.97	23555.15
498.14	24065.39
498.32	24074.75
498.50	24252.63
498.67	24517.11
498.85	24393.06
499.03	24758.19
499.20	24439.87
499.38	24741.80
499.56	24877.55
499.73	25455.67
499.91	25120.97
500.08	25111.61
500.26	24741.80
500.44	24980.54
500.61	24978.20
500.79	25242.68
500.97	25729.51
501.14	25879.30
501.32	25490.77
501.49	25975.27
501.67	26113.36
501.84	26113.36
502.02	25958.88
502.20	26122.72
502.37	26181.23
502.55	26651.68
502.72	26331.03
502.90	26757.00
503.07	26553.38
503.25	26827.22
503.43	26562.74
503.60	26672.74
503.78	26632.96
503.95	26778.07
504.13	26859.99
504.30	27225.11
504.48	26902.12
504.65	27419.38
504.83	27777.48
505.01	27828.97
505.18	27522.36
505.36	27903.87
505.53	27676.83
505.71	27985.79
505.88	27920.25
506.06	27857.06
506.23	28086.43
506.41	27988.13
506.58	28268.99
506.76	28032.60
506.93	28423.47
507.11	28257.29
507.28	28692.63
507.46	28355.59
507.63	28596.67
507.81	28545.17
507.98	28348.57
508.16	28683.27
508.33	29106.90
508.50	29322.23
508.68	29179.46
508.85	29900.34
509.03	29427.56
509.20	29443.94
509.38	29472.03
509.55	29982.26
509.73	29394.79
509.90	29610.12
510.08	29776.30
510.25	29778.64
510.42	29998.65
510.60	30071.20
510.77	30024.39
510.95	30363.77
511.12	30008.01
511.30	30539.31
511.47	30473.78
511.64	30731.23
511.82	30679.74
511.99	30682.08
512.17	30295.89
512.34	30764.00
512.51	31243.81
512.69	31211.04
512.86	31065.93
513.04	31393.61
513.21	31028.48
513.38	30923.16
513.56	31730.64
513.73	30944.22
513.90	31730.64
514.08	31234.45
514.25	31892.14
514.43	31512.97
514.60	31882.78
514.77	31608.93
514.95	31414.67
515.12	31793.84
515.29	31899.16
515.47	32261.94
515.64	32332.16
515.81	32442.17
515.99	32243.22
516.16	32119.17
516.33	32231.52
516.51	32348.54
516.68	32224.50
516.85	32378.97
517.03	32463.23
517.20	32198.75
517.37	32563.87
517.54	32659.84
517.72	32786.22
517.89	33130.28
518.06	32428.12
518.24	33017.94
518.41	32465.57
518.58	33027.30
518.75	32903.25
518.93	33216.88
519.10	33186.46
519.27	33495.41
519.45	33839.47
519.62	33811.38
519.79	33586.69
519.96	33745.84
520.14	33961.17
520.31	33591.37
520.48	33944.79
520.65	33811.38
520.83	34677.38
521.00	34169.48
521.17	34132.03
521.34	34380.13
521.52	34555.67
521.69	34682.06
521.86	34433.96
522.03	34834.19
522.20	34873.98
522.38	34740.57
522.55	35358.47
522.72	34719.51
522.89	34838.87
523.07	34892.71
523.24	34763.98
523.41	34951.22
523.58	35325.71
523.75	35342.09
523.92	35599.55
524.10	36013.82
524.27	35690.83
524.44	35840.62
524.61	35552.74
524.78	35985.74
524.96	36271.28
525.13	36142.55
525.30	36149.57
525.47	36044.25
525.64	35997.44
525.81	35924.88
525.98	36044.25
526.16	35945.95
526.33	35878.07
526.50	36353.20
526.67	35931.90
526.84	35882.75
527.01	36275.96
527.18	36685.56
527.36	36627.04
527.53	36971.10
527.70	36968.76
527.87	36985.15
528.04	36486.61
528.21	36891.52
528.38	36601.30
528.55	36964.08
528.72	37050.68
528.89	36900.89
529.07	36868.12
529.24	36999.19
529.41	37118.56
529.58	36690.24
529.75	37235.58
529.92	37235.58
530.09	37282.39
530.26	37490.70
530.43	37556.24
530.60	37060.04
530.77	37141.96
530.94	37916.68
531.11	37240.26
531.28	37830.08
531.46	38342.66
531.63	37563.26
531.80	37942.42
531.97	38040.73
532.14	37806.67
532.31	37933.06
532.48	37897.95
532.65	38141.37
532.82	38108.60
532.99	38071.15
533.16	38164.78
533.33	38422.23
533.50	38717.14
533.67	38242.01
533.84	38333.29
534.01	38347.34
534.18	38515.86
534.35	38876.30
534.52	38829.49
534.69	38555.64
534.86	39082.27
535.03	38581.39
535.20	39115.03
535.37	39227.38
535.54	39299.94
535.71	38801.40
535.88	38897.36
536.05	38902.04
536.22	39180.57
536.38	39517.60
536.55	39065.88
536.72	39545.69
536.89	39388.88
537.06	39236.74
537.23	39358.45
537.40	39431.01
537.57	39388.88
537.74	39494.20
537.91	40149.55
538.08	39487.18
538.25	39739.96
538.42	39749.32
538.59	40156.57
538.75	39381.85
538.92	39976.35
539.09	39819.53
539.26	40107.42
539.43	39983.37
539.60	39730.59
539.77	39662.72
539.94	39929.54
540.11	40154.23
540.28	40107.42
540.44	40224.45
540.61	39721.23
540.78	40126.14
540.95	40411.69
541.12	40058.27
541.29	40194.02
541.46	40428.07
541.62	40392.97
541.79	40570.85
541.96	39875.71
542.13	40369.56
542.30	40552.12
542.47	40556.80
542.63	40355.52
542.80	40559.14
542.97	41390.03
543.14	41734.09
543.31	40858.73
543.48	41170.02
543.64	41752.82
543.81	41008.53
543.98	41364.29
544.15	41488.34
544.32	41628.77
544.48	41256.62
544.65	41783.24
544.82	41703.67
544.99	41371.31
545.16	41675.58
545.32	41511.74
545.49	41331.52
545.66	41708.35
545.83	41729.41
546.00	42117.94
546.16	41958.78
546.33	41525.78
546.50	41062.36
546.67	41827.71
546.83	41490.68
547.00	42050.06
547.17	41872.18
547.34	41851.12
547.50	42089.85
547.67	42036.02
547.84	42190.50
548.00	42312.20
548.17	42394.12
548.34	42328.59
548.51	42391.78
548.67	42075.81
548.84	42337.95
549.01	42759.25
549.18	41904.95
549.34	42108.58
549.51	42745.20
549.68	42623.50
549.84	42590.73
550.01	43021.39
550.18	42375.40
550.34	42047.72
550.51	42302.84
550.68	42693.71
550.84	42232.63
551.01	42483.06
551.18	42543.92
551.34	42543.92
551.51	42703.07
551.68	43196.93
551.84	42864.57
552.01	42581.37
552.18	43299.91
552.34	42754.57
552.51	43033.09
552.68	42763.93
552.84	43196.93
553.01	43533.96
553.18	42780.31
553.34	43023.73
553.51	42574.34
553.67	43194.59
553.84	43435.66
554.01	43342.04
554.17	43704.82
554.34	44002.07
554.51	43536.30
554.67	43711.84
554.84	43620.56
555.00	43550.35
555.17	43297.57
555.33	43412.26
555.50	43524.60
555.67	43178.20
555.83	42997.98
556.00	43714.19
556.16	43847.60
556.33	43880.36
556.50	43540.99
556.66	43800.79
556.83	43620.56
556.99	43889.73
557.16	43924.83
557.32	43798.44
557.49	44257.19
557.65	43538.65
557.82	43796.10
557.98	43988.03
558.15	43929.51
558.32	44041.86
558.48	43702.48
558.65	43861.64
558.81	43943.56
558.98	44184.63
559.14	44156.55
559.31	43683.76
559.47	43929.51
559.64	44252.51
559.80	44079.31
559.97	44264.21
560.13	44013.77
560.30	44039.52
560.46	44231.44
560.63	44500.61
560.79	44467.84
560.96	44119.10
561.12	44198.68
561.29	43906.11
561.45	44512.31
561.61	44622.31
561.78	44238.47
561.94	43999.73
562.11	44123.78
562.27	44395.28
562.44	44458.48
562.60	44460.82
562.77	44849.35
562.93	44128.46
563.10	44463.16
563.26	44168.25
563.42	43981.01
563.59	44301.66
563.75	44484.22
563.92	44584.86
564.08	44631.68
564.24	44470.18
564.41	44687.85
564.57	44444.43
564.74	44641.04
564.90	44376.56
565.07	44559.12
565.23	44617.63
565.39	43896.75
565.56	44863.39
565.72	44392.94
565.88	44676.15
566.05	44608.27
566.21	44690.19
566.38	44458.48
566.54	44769.77
566.70	44795.51
566.87	45041.27
567.03	44533.37
567.19	44910.20
567.36	44917.22
567.52	44198.68
567.68	44800.19
567.85	44247.83
568.01	44336.77
568.17	44886.79
568.34	44844.66
568.50	45036.59
568.66	44467.84
568.83	44706.57
568.99	44753.38
569.15	44371.88
569.32	44704.23
569.48	44755.72
569.64	44989.78
569.81	44821.26
569.97	44863.39
570.13	44858.71
570.30	44699.55
570.46	44687.85
570.62	44605.93
570.78	44622.31
570.95	44842.32
571.11	45085.74
571.27	44545.08
571.43	44748.70
571.60	45261.28
571.76	44676.15
571.92	44690.19
572.09	44680.83
572.25	45081.06
572.41	44423.37
572.57	45298.73
572.74	45338.52
572.90	45188.72
573.06	44470.18
573.22	45067.02
573.38	44645.72
573.55	44800.19
573.71	45006.16
573.87	44928.92
574.03	45209.79
574.20	44804.88
574.36	45109.14
574.52	44973.39
574.68	45247.24
574.84	45120.85
575.01	44863.39
575.17	45200.43
575.33	45067.02
575.49	45006.16
575.65	45645.13
575.82	45448.52
575.98	45172.34
576.14	45525.76
576.30	45226.17
576.46	44945.31
576.62	44837.64
576.79	45420.44
576.95	45052.97
577.11	45055.31
577.27	45265.96
577.43	45441.50
577.59	45170.00
577.75	44910.20
577.92	44580.18
578.08	44947.65
578.24	45200.43
578.40	44741.68
578.56	45162.98
578.72	45511.72
578.88	44570.82
579.04	45598.32
579.21	45151.27
579.37	45118.51
579.53	45099.78
579.69	44889.13
579.85	45010.84
580.01	45102.12
580.17	45333.84
580.33	45141.91
580.49	45382.99
580.65	45556.19
580.82	45368.94
580.98	45057.65
581.14	44861.05
581.30	45366.60
581.46	45251.92
581.62	45352.56
581.78	45572.57
581.94	45434.48
582.10	45387.67
582.26	45525.76
582.42	45270.64
582.58	45027.23
582.74	44978.07
582.90	45312.77
583.06	45230.85
583.22	45511.72
583.38	45549.17
583.54	45528.10
583.70	45034.25
583.86	44783.81
584.02	45340.86
584.18	45530.44
584.34	45315.11
584.50	45280.00
584.66	45193.40
584.82	44924.24
584.98	45642.79
585.14	45528.10
585.30	45406.39
585.46	44781.47
585.62	45280.00
585.78	45352.56
585.94	44961.69
586.10	45485.97
586.26	45312.77
586.42	45125.53
586.58	45179.36
586.74	45471.93
586.90	45017.86
587.06	44985.10
587.22	45200.43
587.38	45415.76
587.54	45373.63
587.70	45390.01
587.86	45556.19
588.02	45956.42
588.18	45429.80
588.34	45162.98
588.49	44832.96
588.65	44615.29
588.81	45443.84
588.97	45092.76
589.13	45322.13
589.29	45345.54
589.45	45041.27
589.61	45308.09
589.77	45762.15
589.93	45495.33
590.08	45429.80
590.24	45422.78
