SpectraSuite Data File
++++++++++++++++++++++++++++++++++++
Date: Fri Oct 25 11:26:04 EDT 2013
User: price-jones
Dark Spectrum Present: No
Reference Spectrum Present: No
Number of Sampled Component Spectra: 1
Spectrometers: USB2+H05261
Integration Time (usec): 100000 (USB2+H05261)
Spectra Averaged: 1 (USB2+H05261)
Boxcar Smoothing: 0 (USB2+H05261)
Correct for Electrical Dark: No (USB2+H05261)
Strobe/Lamp Enabled: No (USB2+H05261)
Correct for Detector Non-linearity: No (USB2+H05261)
Correct for Stray Light: No (USB2+H05261)
Number of Pixels in Processed Spectrum: 2048
>>>>>Begin Processed Spectral Data<<<<<
365.73	280.86
365.92	280.86
366.12	280.86
366.32	74.90
366.52	114.69
366.72	119.37
366.91	107.66
367.11	184.90
367.31	126.39
367.51	131.07
367.70	189.58
367.90	121.71
368.10	117.03
368.30	184.90
368.49	145.11
368.69	154.48
368.89	173.20
369.09	170.86
369.28	163.84
369.48	156.82
369.68	243.42
369.87	205.97
370.07	189.58
370.27	210.65
370.47	372.15
370.66	573.43
370.86	695.14
371.06	655.35
371.25	676.41
371.45	676.41
371.65	727.91
371.84	734.93
372.04	641.31
372.24	711.52
372.44	713.86
372.63	711.52
372.83	725.57
373.03	723.23
373.22	770.04
373.42	753.65
373.62	718.54
373.81	809.83
374.01	816.85
374.21	866.00
374.40	823.87
374.60	823.87
374.79	741.95
374.99	870.68
375.19	856.64
375.38	863.66
375.58	816.85
375.78	870.68
375.97	891.74
376.17	826.21
376.37	866.00
376.56	809.83
376.76	823.87
376.95	777.06
377.15	898.77
377.35	901.11
377.54	835.57
377.74	912.81
377.93	992.39
378.13	940.90
378.33	931.53
378.52	903.45
378.72	957.28
378.91	915.15
379.11	880.04
379.31	898.77
379.50	901.11
379.70	952.60
379.89	1034.52
380.09	961.96
380.28	978.34
380.48	919.83
380.68	1008.77
380.87	957.28
381.07	1081.33
381.26	1036.86
381.46	959.62
381.65	1050.90
381.85	1022.81
382.04	1039.20
382.24	1032.18
382.43	1025.15
382.63	1109.41
382.83	1025.15
383.02	1132.82
383.22	1071.97
383.41	1128.14
383.61	1151.54
383.80	1235.80
384.00	1100.05
384.19	1116.44
384.39	1165.59
384.58	1149.20
384.78	1137.50
384.97	1153.88
385.17	1212.40
385.36	1165.59
385.56	1212.40
385.75	1130.48
385.95	1114.10
386.14	1207.72
386.34	1156.22
386.53	1203.04
386.72	1249.85
386.92	1336.45
387.11	1327.08
387.31	1212.40
387.50	1214.74
387.70	1329.42
387.89	1362.19
388.09	1270.91
388.28	1317.72
388.48	1263.89
388.67	1355.17
388.86	1362.19
389.06	1301.34
389.25	1380.92
389.45	1308.36
389.64	1261.55
389.84	1294.32
390.03	1373.89
390.22	1352.83
390.42	1406.66
390.61	1397.30
390.81	1352.83
391.00	1385.60
391.19	1416.02
391.39	1504.96
391.58	1378.58
391.78	1411.34
391.97	1504.96
392.16	1507.30
392.36	1528.37
392.55	1465.18
392.75	1537.73
392.94	1465.18
393.13	1572.84
393.33	1448.79
393.52	1596.25
393.71	1603.27
393.91	1497.94
394.10	1636.03
394.29	1636.03
394.49	1614.97
394.68	1645.40
394.88	1621.99
395.07	1668.80
395.26	1603.27
395.46	1659.44
395.65	1741.36
395.84	1722.63
396.04	1734.34
396.23	1804.55
396.42	1661.78
396.62	1750.72
396.81	1816.26
397.00	1804.55
397.19	1802.21
397.39	1813.92
397.58	1748.38
397.77	1806.89
397.97	1844.34
398.16	1785.83
398.35	1865.41
398.55	1928.60
398.74	1937.96
398.93	2003.50
399.12	1898.17
399.32	1907.54
399.51	1874.77
399.70	2057.33
399.90	1989.46
400.09	1935.62
400.28	2059.67
400.47	1984.77
400.67	2090.10
400.86	2118.18
401.05	2080.74
401.24	2073.71
401.44	2150.95
401.63	2204.78
401.82	2136.91
402.01	2113.50
402.21	2157.97
402.40	2172.02
402.59	2139.25
402.78	2232.87
402.97	2349.90
403.17	2260.96
403.36	2282.02
403.55	2272.66
403.74	2277.34
403.93	2286.70
404.13	2450.54
404.32	2359.26
404.51	2438.84
404.70	2333.51
404.89	2368.62
405.09	2424.80
405.28	2478.63
405.47	2469.27
405.66	2487.99
405.85	2436.50
406.05	2511.39
406.24	2511.39
406.43	2502.03
406.62	2668.21
406.81	2705.66
407.00	2684.59
407.20	2628.42
407.39	2555.86
407.58	2656.51
407.77	2696.30
407.96	2686.94
408.15	2773.53
408.34	2782.90
408.54	2839.07
408.73	2796.94
408.92	2759.49
409.11	2853.11
409.30	2752.47
409.49	2928.01
409.68	2839.07
409.87	2895.24
410.07	2956.10
410.26	2965.46
410.45	2981.84
410.64	3141.00
410.83	2981.84
411.02	3056.74
411.21	3152.70
411.40	3138.66
411.59	3241.64
411.78	3286.11
411.98	3213.56
412.17	3208.87
412.36	3314.20
412.55	3363.35
412.74	3351.65
412.93	3417.18
413.12	3339.94
413.31	3520.17
413.50	3428.88
413.69	3536.55
413.88	3698.05
414.07	3604.42
414.26	3613.79
414.45	3709.75
414.64	3571.66
414.83	3679.32
415.02	3740.18
415.22	3765.92
415.41	3882.95
415.60	3815.07
415.79	3742.52
415.98	3892.31
416.17	3967.21
416.36	3941.46
416.55	3992.95
416.74	3983.59
416.93	3896.99
417.12	4187.22
417.31	4072.53
417.50	4152.11
417.69	4264.46
417.88	4166.15
418.07	4414.25
418.26	4217.65
418.45	4292.54
418.64	4432.97
418.83	4339.35
419.02	4395.53
419.21	4351.06
419.39	4601.49
419.58	4477.44
419.77	4421.27
419.96	4512.55
420.15	4475.10
420.34	4681.07
420.53	4575.75
420.72	4540.64
420.91	4765.33
421.10	4585.11
421.29	4760.65
421.48	4685.75
421.67	4765.33
421.86	4798.10
422.05	4793.42
422.24	4821.50
422.43	4720.86
422.61	4835.55
422.80	4966.62
422.99	4999.38
423.18	4924.49
423.37	4929.17
423.56	5032.15
423.75	4842.57
423.94	4816.82
424.13	4695.11
424.32	4678.73
424.50	5025.13
424.69	5064.92
424.88	5067.26
425.07	4997.04
425.26	4938.53
425.45	5046.20
425.64	5039.17
425.83	4966.62
426.01	5114.07
426.20	4952.57
426.39	5078.96
426.58	5032.15
426.77	5114.07
426.96	5167.90
427.15	5123.43
427.33	5165.56
427.52	5186.63
427.71	5294.29
427.90	5249.82
428.09	5245.14
428.28	5270.89
428.46	5406.64
428.65	5497.92
428.84	5575.16
429.03	5661.76
429.22	5455.79
429.40	5399.62
429.59	5495.58
429.78	5373.87
429.97	5261.52
430.16	5444.09
430.34	5509.62
430.53	5511.96
430.72	5724.95
430.91	5650.05
431.10	5610.26
431.28	5753.04
431.47	5628.99
431.66	5916.87
431.85	5640.69
432.03	5900.49
432.22	6080.71
432.41	5963.68
432.60	5959.00
432.79	5928.58
432.97	5975.39
433.16	5961.34
433.35	6015.18
433.54	6019.86
433.72	5994.11
433.91	6146.25
434.10	6104.12
434.28	6150.93
434.47	6087.73
434.66	6155.61
434.85	6228.17
435.03	6399.02
435.22	6387.32
435.41	6473.92
435.59	6384.98
435.78	6497.33
435.97	6473.92
436.16	6349.87
436.34	6530.09
436.53	6583.93
436.72	6675.21
436.90	6345.19
437.09	6593.29
437.28	6361.58
437.46	6602.65
437.65	6604.99
437.84	6766.49
438.02	6759.47
438.21	6705.63
438.40	6560.52
438.58	6920.96
438.77	6939.69
438.96	7000.54
439.14	7000.54
439.33	7157.36
439.52	7176.08
439.70	7232.26
439.89	7440.56
440.08	7300.13
440.26	7295.45
440.45	7365.67
440.63	7620.78
440.82	7691.00
441.01	7538.87
441.19	7646.53
441.38	7609.08
441.57	7669.94
441.75	7803.35
441.94	8021.02
442.12	7763.56
442.31	7857.18
442.50	7805.69
442.68	7868.88
442.87	7868.88
443.05	8154.43
443.24	8201.24
443.43	8191.88
443.61	8168.47
443.80	8486.78
443.98	8077.19
444.17	7894.63
444.35	8189.53
444.54	8505.51
444.73	8308.90
444.91	8252.73
445.10	8353.37
445.28	8304.22
445.47	8461.04
445.65	8271.45
445.84	8512.53
446.02	8482.10
446.21	8278.47
446.39	8376.78
446.58	8444.65
446.77	8379.12
446.95	8301.88
447.14	8369.76
447.32	8510.19
447.51	8376.78
447.69	8266.77
447.88	8627.21
448.06	8524.23
448.25	8479.76
448.43	8854.25
448.62	8540.61
448.80	8304.22
448.99	8552.32
449.17	8573.38
449.36	8695.09
449.54	8802.75
449.73	8891.70
449.91	9013.40
450.10	9102.34
450.28	9048.51
450.46	9092.98
450.65	8971.27
450.83	9270.86
451.02	9158.52
451.20	8964.25
451.39	9275.54
451.57	9270.86
451.76	9081.28
451.94	9027.45
452.13	9469.81
452.31	9455.76
452.49	8999.36
452.68	9430.02
452.86	9434.70
453.05	9240.44
453.23	9563.43
453.42	9362.14
453.60	9451.08
453.78	9537.68
453.97	9511.94
454.15	9530.66
454.34	9167.88
454.52	9750.67
454.70	9640.67
454.89	9923.87
455.07	9858.34
455.26	9806.84
455.44	10019.83
455.62	9914.51
455.81	9851.31
455.99	9879.40
456.17	10024.51
456.36	10010.47
456.54	10150.90
456.73	10244.52
456.91	10471.56
457.09	10197.71
457.28	10148.56
457.46	10256.23
457.64	10436.45
457.83	10590.92
458.01	10223.46
458.19	10726.68
458.38	10609.65
458.56	10668.16
458.74	10586.24
458.93	10658.80
459.11	10576.88
459.29	10623.69
459.48	10796.89
459.66	10951.37
459.84	10817.96
460.03	11035.63
460.21	10951.37
460.39	10754.76
460.57	10949.03
460.76	11152.65
460.94	11169.04
461.12	11070.73
461.31	10911.58
461.49	11047.33
461.67	11239.25
461.85	11407.77
462.04	11290.74
462.22	11805.66
462.40	11405.43
462.59	11377.34
462.77	11396.07
462.95	11660.55
463.13	11543.52
463.32	11627.78
463.50	11770.55
463.68	11747.15
463.86	11819.71
464.05	11630.12
464.23	11555.22
464.41	11894.60
464.59	11847.79
464.78	11997.59
464.96	11775.24
465.14	11775.24
465.32	12020.99
465.50	12023.33
465.69	12070.14
465.87	11927.37
466.05	12245.68
466.23	12217.60
466.41	12126.32
466.60	12327.60
466.78	12189.51
466.96	12126.32
467.14	12149.72
467.32	12313.56
467.51	12383.77
467.69	12336.96
467.87	12404.84
468.05	12655.28
468.23	12332.28
468.41	12446.97
468.60	12514.84
468.78	12776.98
468.96	12372.07
469.14	12755.92
469.32	12898.69
469.50	12531.23
469.69	12854.22
469.87	12999.34
470.05	13027.42
470.23	13233.39
470.41	13039.12
470.59	13408.93
470.77	13121.04
470.95	13355.10
471.14	13523.62
471.32	13137.43
471.50	13582.13
471.68	13458.08
471.86	13535.32
472.04	13598.51
472.22	13923.85
472.40	13659.37
472.58	13614.90
472.77	13790.44
472.95	13951.93
473.13	14544.09
473.31	14108.75
473.49	13998.74
473.67	14216.41
473.85	14118.11
474.03	14396.64
474.21	14626.01
474.39	14644.73
474.57	14431.74
474.75	14829.63
474.93	15016.88
475.12	14850.70
475.30	15112.84
475.48	14736.01
475.66	15101.14
475.84	15012.20
476.02	15433.49
476.20	15407.75
476.38	15545.84
476.56	16107.57
476.74	16023.31
476.92	15728.40
477.10	15714.36
477.28	16182.46
477.46	16248.00
477.64	16259.70
477.82	16489.07
478.00	16865.90
478.18	16828.45
478.36	16950.16
478.54	17104.64
478.72	17118.68
478.90	17322.30
479.08	17404.22
479.26	17621.89
479.44	17752.96
479.62	17759.98
479.80	17942.55
479.98	18176.60
480.16	18537.04
480.34	18284.26
480.52	18623.64
480.70	18469.17
480.88	18370.86
481.06	18684.50
481.24	18651.73
481.41	18998.13
481.59	19161.97
481.77	19480.28
481.95	19585.60
482.13	19587.94
482.31	19463.90
482.49	19878.17
482.67	20217.55
482.85	20255.00
483.03	20608.42
483.21	20545.22
483.39	20788.64
483.57	20851.83
483.74	21015.67
483.92	21149.08
484.10	21394.84
484.28	21752.94
484.46	21933.16
484.64	22174.24
484.82	22150.83
485.00	22132.11
485.18	22855.33
485.35	22792.14
485.53	22459.78
485.71	22656.39
485.89	23550.47
486.07	23222.80
486.25	23454.51
486.43	23431.10
486.61	24051.34
486.78	24144.97
486.96	24133.26
487.14	24570.94
487.32	24547.54
487.50	24694.99
487.68	24772.23
487.85	25174.80
488.03	25530.56
488.21	25436.94
488.39	25598.44
488.57	25647.59
488.75	26080.59
488.92	26160.17
489.10	26518.27
489.28	26693.81
489.46	27091.70
489.64	26909.14
489.81	27630.02
489.99	27679.18
490.17	27625.34
490.35	28011.53
490.53	27985.79
490.70	28458.57
490.88	28327.50
491.06	28835.40
491.24	28690.29
491.41	29071.79
491.59	29116.26
491.77	29003.92
491.95	29315.21
492.13	29900.34
492.30	29888.64
492.48	30033.75
492.66	29846.51
492.84	30101.63
493.01	30742.94
493.19	30476.12
493.37	30944.22
493.54	31096.36
493.72	31248.49
493.90	31133.81
494.08	31590.21
494.25	31662.77
494.43	31658.09
494.61	32245.56
494.79	32456.21
494.96	32243.22
495.14	32760.48
495.32	33015.60
495.49	32996.87
495.67	33326.89
495.85	33649.88
496.02	33542.22
496.20	33736.48
496.38	34047.77
496.55	34401.19
496.73	34733.55
496.91	34845.90
497.09	34698.44
497.26	34593.12
497.44	34923.13
497.62	34864.62
497.79	35747.00
497.97	35374.86
498.14	35821.90
498.32	35938.93
498.50	36158.94
498.67	36498.31
498.85	36933.65
499.03	36790.88
499.20	36596.62
499.38	37076.43
499.56	36961.74
499.73	36474.91
499.91	37308.14
500.08	37902.64
500.26	37748.16
500.44	37366.65
500.61	37610.07
500.79	37406.44
500.97	37935.40
501.14	38483.09
501.32	38356.70
501.49	38433.94
501.67	38415.21
501.84	38536.92
502.02	38689.06
502.20	39044.82
502.37	39131.42
502.55	38962.90
502.72	39775.06
502.90	39679.10
503.07	39077.58
503.25	39440.37
503.43	40074.65
503.60	40318.07
503.78	40137.85
503.95	40224.45
504.13	40697.24
504.30	40517.01
504.48	40369.56
504.65	40671.49
504.83	40280.62
505.01	41144.28
505.18	40940.65
505.36	41088.10
505.53	40985.12
505.71	41326.84
505.88	41425.14
506.06	41202.79
506.23	41787.92
506.41	41787.92
506.58	41862.82
506.76	41911.97
506.93	42225.60
507.11	42382.42
507.28	42490.09
507.46	42506.47
507.63	42665.63
507.81	43096.28
507.98	42649.24
508.16	42890.32
508.33	43517.58
508.50	43650.99
508.68	43393.53
508.85	43784.40
509.03	43540.99
509.20	43725.89
509.38	43777.38
509.55	44662.10
509.73	44486.56
509.90	44542.74
510.08	44573.16
510.25	44509.97
510.42	44507.63
510.60	44980.42
510.77	45305.75
510.95	45525.76
511.12	44900.84
511.30	45031.91
511.47	45382.99
511.64	44978.07
511.82	45284.68
511.99	45642.79
512.17	45574.91
512.34	45808.96
512.51	46209.20
512.69	46068.76
512.86	45701.30
513.04	46677.30
513.21	46272.39
513.38	46609.43
513.56	46852.84
513.73	46981.57
513.90	46632.83
514.08	46590.70
514.25	47166.48
514.43	47665.01
514.60	47194.56
514.77	47154.77
514.95	47533.94
515.12	47082.22
515.29	47618.20
515.47	47737.57
515.64	47969.28
515.81	47873.32
515.99	47800.76
516.16	48116.73
516.33	48484.20
516.51	48444.41
516.68	48353.13
516.85	48158.86
517.03	48643.35
517.20	48643.35
517.37	48453.77
517.54	48865.70
517.72	48846.98
517.89	48823.58
518.06	49214.44
518.24	49066.99
518.41	49195.72
518.58	49659.15
518.75	48870.39
518.93	49291.68
519.10	48818.89
519.27	49940.01
519.45	49666.17
519.62	49738.72
519.79	49876.82
519.96	49471.90
520.14	50344.92
520.31	50061.72
520.48	50305.13
520.65	50232.58
520.83	50518.12
521.00	50162.36
521.17	50288.75
521.34	51033.04
521.52	50756.86
521.69	50983.89
521.86	50789.62
522.03	50923.04
522.20	51585.41
522.38	51009.64
522.55	51426.25
522.72	51304.54
522.89	51121.98
523.07	51529.23
523.24	51559.66
523.41	51709.46
523.58	51428.59
523.75	51922.44
523.92	51536.26
524.10	51934.15
524.27	51749.24
524.44	51908.40
524.61	51711.80
524.78	52086.28
524.96	51990.32
525.13	51980.96
525.30	52130.75
525.47	52439.70
525.64	52294.59
525.81	52762.70
525.98	52594.18
526.16	52645.67
526.33	52495.88
526.50	53059.94
526.67	52846.96
526.84	52886.74
527.01	53076.33
527.18	52589.50
527.36	52755.68
527.53	52587.16
527.70	53460.18
527.87	52942.92
528.04	53272.93
528.21	53305.70
528.38	53207.40
528.55	53499.97
528.72	53382.94
528.89	53525.71
529.07	53490.60
529.24	53303.36
529.41	53382.94
529.58	53745.72
529.75	53649.76
529.92	53673.16
530.09	53694.23
530.26	53785.51
530.43	53930.62
530.60	53811.26
530.77	53900.20
530.94	53918.92
531.11	53680.19
531.28	54028.93
531.46	54220.85
531.63	54195.10
531.80	54197.44
531.97	54035.95
532.14	54576.61
532.31	54426.82
532.48	54358.94
532.65	54506.40
532.82	54300.43
532.99	54766.20
533.16	54436.18
533.33	54738.11
533.50	54789.60
533.67	54700.66
533.84	54759.17
534.01	54904.29
534.18	54873.86
534.35	54997.91
534.52	54923.01
534.69	55276.43
534.86	54831.73
535.03	54930.03
535.20	55187.49
535.37	55323.24
535.54	55379.42
535.71	55365.37
535.88	55253.03
536.05	55196.85
536.22	55468.36
536.38	55641.56
536.55	55557.30
536.72	55475.38
536.89	55381.76
537.06	55594.74
537.23	55704.75
537.40	55636.87
537.57	55711.77
537.74	55693.05
537.91	56018.38
538.08	55789.01
538.25	55758.58
538.42	55629.85
538.59	56156.47
538.75	55934.12
538.92	55922.42
539.09	56273.50
539.26	56186.90
539.43	56009.02
539.60	55994.98
539.77	56093.28
539.94	56484.15
540.11	56413.93
540.28	56484.15
540.44	56142.43
540.61	56301.59
540.78	56149.45
540.95	56245.41
541.12	56493.51
541.29	56577.77
541.46	56643.30
541.62	56353.08
541.79	56671.39
541.96	56479.47
542.13	56374.14
542.30	56809.48
542.47	56938.21
542.63	56797.78
542.80	56839.91
542.97	57088.01
543.14	57022.47
543.31	57003.75
543.48	57272.91
543.64	57123.11
543.81	57212.06
543.98	57256.53
544.15	57226.10
544.32	57303.34
544.48	57528.03
544.65	57322.06
544.82	57336.10
544.99	57322.06
545.16	57609.95
545.32	57352.49
545.49	57457.81
545.66	57380.57
545.83	57403.98
546.00	57663.78
546.16	57708.25
546.33	57495.26
546.50	57270.57
546.67	57710.59
546.83	57338.44
547.00	57511.64
547.17	57577.18
547.34	57591.22
547.50	57923.58
547.67	58000.82
547.84	57923.58
548.00	57986.77
548.17	58085.07
548.34	57970.39
548.51	58239.55
548.67	58028.90
548.84	57963.37
549.01	58010.18
549.18	58258.27
549.34	58024.22
549.51	58300.40
549.68	57841.66
549.84	58087.42
550.01	58288.70
550.18	58225.51
550.34	58539.14
550.51	58410.41
550.68	58295.72
550.84	58174.02
551.01	58457.22
551.18	58501.69
551.34	58213.80
551.51	58291.04
551.68	58735.74
551.84	58562.54
552.01	58459.56
552.18	58562.54
552.34	58663.19
552.51	58482.97
552.68	58576.59
552.84	58471.26
553.01	58768.51
553.18	58747.45
553.34	58820.00
553.51	58770.85
553.67	58892.56
553.84	58894.90
554.01	58899.58
554.17	58824.68
554.34	58927.67
554.51	58885.54
554.67	58990.86
554.84	58859.79
555.00	58857.45
555.17	58784.90
555.33	58927.67
555.50	58890.22
555.67	58969.80
555.83	58890.22
556.00	59213.21
556.16	59100.87
556.33	59278.75
556.50	59150.02
556.66	59208.53
556.83	59035.33
556.99	59285.77
557.16	59290.45
557.32	59496.42
557.49	59716.43
557.65	59318.54
557.82	59215.55
557.98	59332.58
558.15	59437.90
558.32	59627.49
558.48	59395.77
558.65	59473.01
558.81	59330.24
558.98	59463.65
559.14	59648.55
559.31	59437.90
559.47	59494.08
559.64	59536.21
559.80	59538.55
559.97	59641.53
560.13	59594.72
560.30	59519.82
560.46	59721.11
560.63	59580.68
560.79	59840.48
560.96	59835.80
561.12	59592.38
561.29	59641.53
561.45	59686.00
561.61	59828.77
561.78	59702.38
561.94	59704.73
562.11	59781.96
562.27	59772.60
562.44	60065.17
562.60	59891.97
562.77	59973.89
562.93	59838.14
563.10	60093.25
563.26	59601.74
563.42	60083.89
563.59	60034.74
563.75	59765.58
563.92	59781.96
564.08	59976.23
564.24	60053.47
564.41	59997.29
564.57	59964.52
564.74	59901.33
564.90	60083.89
565.07	60076.87
565.23	59952.82
565.39	59990.27
565.56	60327.31
565.72	59990.27
565.88	60072.19
566.05	60116.66
566.21	60023.04
566.38	60009.00
566.54	59952.82
566.70	60390.50
566.87	60104.96
567.03	60067.51
567.19	60327.31
567.36	60285.18
567.52	60154.11
567.68	60427.95
567.85	60339.01
568.01	60360.08
568.17	60378.80
568.34	60444.33
568.50	60416.25
568.66	60395.18
568.83	60385.82
568.99	60177.51
569.15	60243.05
569.32	60390.50
569.48	60254.75
569.64	60285.18
569.81	60449.02
569.97	60339.01
570.13	60331.99
570.30	60266.45
570.46	60444.33
570.62	60470.08
570.78	60243.05
570.95	60460.72
571.11	60561.36
571.27	60299.22
571.43	60418.59
571.60	60474.76
571.76	60418.59
571.92	60533.28
572.09	60711.16
572.25	60470.08
572.41	60336.67
572.57	60530.93
572.74	60535.62
572.90	60568.38
573.06	60587.11
573.22	60680.73
573.38	60547.32
573.55	60460.72
573.71	60767.33
573.87	60694.77
574.03	60346.03
574.20	60626.90
574.36	60308.58
574.52	60687.75
574.68	60647.96
574.84	60580.09
575.01	60711.16
575.17	60556.68
575.33	60460.72
575.49	60566.04
575.65	60624.56
575.82	60647.96
575.98	60725.20
576.14	60783.71
576.30	60636.26
576.46	60636.26
576.62	60526.25
576.79	60685.41
576.95	60617.53
577.11	60739.24
577.27	60739.24
577.43	60781.37
577.59	60736.90
577.75	60561.36
577.92	60465.40
578.08	60844.57
578.24	60669.03
578.40	60631.58
578.56	60919.46
578.72	60699.45
578.88	61003.72
579.04	60898.40
579.21	60563.70
579.37	60804.78
579.53	60790.73
579.69	60816.48
579.85	60764.99
580.01	60605.83
580.17	60561.36
580.33	60818.82
580.49	61038.83
580.65	60804.78
580.82	60652.64
580.98	60654.98
581.14	60591.79
581.30	60935.85
581.46	60872.65
581.62	60949.89
581.78	60699.45
581.94	60783.71
582.10	60846.91
582.26	60760.31
582.42	60940.53
582.58	60914.78
582.74	60715.84
582.90	60699.45
583.06	60795.42
583.22	60669.03
583.38	60654.98
583.54	61141.81
583.70	60996.70
583.86	61038.83
584.02	60938.19
584.18	60914.78
584.34	60924.14
584.50	60807.12
584.66	60652.64
584.82	60802.44
584.98	61076.28
585.14	61223.73
585.30	60793.07
585.46	61097.34
585.62	60872.65
585.78	60954.57
585.94	60631.58
586.10	60842.23
586.26	61099.68
586.42	60858.61
586.58	61228.41
586.74	60912.44
586.90	61034.15
587.06	60842.23
587.22	60963.93
587.38	60825.84
587.54	61015.43
587.70	61174.58
587.86	61043.51
588.02	60985.00
588.18	61183.94
588.34	61022.45
588.49	61024.79
