SpectraSuite Data File
++++++++++++++++++++++++++++++++++++
Date: Fri Oct 25 11:25:47 EDT 2013
User: price-jones
Dark Spectrum Present: No
Reference Spectrum Present: No
Number of Sampled Component Spectra: 1
Spectrometers: USB2+H05261
Integration Time (usec): 100000 (USB2+H05261)
Spectra Averaged: 1 (USB2+H05261)
Boxcar Smoothing: 0 (USB2+H05261)
Correct for Electrical Dark: No (USB2+H05261)
Strobe/Lamp Enabled: No (USB2+H05261)
Correct for Detector Non-linearity: No (USB2+H05261)
Correct for Stray Light: No (USB2+H05261)
Number of Pixels in Processed Spectrum: 2048
>>>>>Begin Processed Spectral Data<<<<<
365.73	287.89
365.92	287.89
366.12	287.89
366.32	201.29
366.52	159.16
366.72	180.22
366.91	128.73
367.11	128.73
367.31	222.35
367.51	163.84
367.70	161.50
367.90	147.45
368.10	140.43
368.30	124.05
368.49	110.01
368.69	170.86
368.89	147.45
369.09	175.54
369.28	173.20
369.48	168.52
369.68	177.88
369.87	271.50
370.07	187.24
370.27	259.80
370.47	360.44
370.66	606.20
370.86	617.90
371.06	702.16
371.25	620.24
371.45	697.48
371.65	690.46
371.84	706.84
372.04	718.54
372.24	779.40
372.44	653.01
372.63	744.29
372.83	725.57
373.03	690.46
373.22	777.06
373.42	730.25
373.62	755.99
373.81	725.57
374.01	772.38
374.21	833.23
374.40	805.14
374.60	812.17
374.79	837.91
374.99	833.23
375.19	814.51
375.38	840.25
375.58	819.19
375.78	898.77
375.97	896.43
376.17	973.66
376.37	887.06
376.56	856.64
376.76	854.30
376.95	884.72
377.15	896.43
377.35	922.17
377.54	926.85
377.74	805.14
377.93	875.36
378.13	936.21
378.33	929.19
378.52	943.24
378.72	983.02
378.91	1060.26
379.11	966.64
379.31	922.17
379.50	894.08
379.70	929.19
379.89	1022.81
380.09	985.37
380.28	1006.43
380.48	973.66
380.68	1011.11
380.87	987.71
381.07	1114.10
381.26	1146.86
381.46	1036.86
381.65	1036.86
381.85	1015.79
382.04	1015.79
382.24	1074.31
382.43	1107.07
382.63	1013.45
382.83	1069.62
383.02	1053.24
383.22	1043.88
383.41	1104.73
383.61	1121.12
383.80	1081.33
384.00	1151.54
384.19	1071.97
384.39	1167.93
384.58	1088.35
384.78	1170.27
384.97	1186.65
385.17	1217.08
385.36	1172.61
385.56	1219.42
385.75	1181.97
385.95	1160.91
386.14	1249.85
386.34	1196.01
386.53	1210.06
386.72	1181.97
386.92	1259.21
387.11	1247.51
387.31	1191.33
387.50	1212.40
387.70	1226.44
387.89	1277.93
388.09	1270.91
388.28	1245.16
388.48	1277.93
388.67	1184.31
388.86	1277.93
389.06	1301.34
389.25	1359.85
389.45	1345.81
389.64	1348.15
389.84	1313.04
390.03	1376.24
390.22	1359.85
390.42	1448.79
390.61	1254.53
390.81	1331.76
391.00	1446.45
391.19	1430.07
391.39	1427.73
391.58	1401.98
391.78	1465.18
391.97	1476.88
392.16	1453.47
392.36	1509.65
392.55	1432.41
392.75	1561.14
392.94	1530.71
393.13	1488.58
393.33	1493.26
393.52	1458.15
393.71	1533.05
393.91	1593.90
394.10	1568.16
394.29	1558.80
394.49	1572.84
394.68	1607.95
394.88	1629.01
395.07	1682.85
395.26	1722.63
395.46	1767.10
395.65	1748.38
395.84	1795.19
396.04	1699.23
396.23	1748.38
396.42	1694.55
396.62	1870.09
396.81	1802.21
397.00	1732.00
397.19	1863.07
397.39	1799.87
397.58	1825.62
397.77	1795.19
397.97	1825.62
398.16	1923.92
398.35	1844.34
398.55	1837.32
398.74	1865.41
398.93	1937.96
399.12	1926.26
399.32	1919.24
399.51	1879.45
399.70	2071.37
399.90	1909.88
400.09	1928.60
400.28	2176.70
400.47	2045.63
400.67	1970.73
400.86	1935.62
401.05	2062.01
401.24	2073.71
401.44	2069.03
401.63	2146.27
401.82	2169.68
402.01	2038.61
402.21	2157.97
402.40	2265.64
402.59	2106.48
402.78	2225.85
402.97	2150.95
403.17	2209.47
403.36	2242.23
403.55	2366.28
403.74	2340.54
403.93	2380.32
404.13	2289.04
404.32	2221.17
404.51	2314.79
404.70	2436.50
404.89	2443.52
405.09	2530.12
405.28	2455.22
405.47	2429.48
405.66	2429.48
405.85	2597.99
406.05	2497.35
406.24	2551.18
406.43	2480.97
406.62	2647.15
406.81	2626.08
407.00	2548.84
407.20	2633.10
407.39	2612.04
407.58	2630.76
407.77	2644.81
407.96	2768.85
408.15	2768.85
408.34	2747.79
408.54	2841.41
408.73	2703.32
408.92	2757.15
409.11	2937.37
409.30	2836.73
409.49	2902.26
409.68	3009.93
409.87	3002.91
410.07	3019.29
410.26	2918.65
410.45	3070.78
410.64	3000.57
410.83	3002.91
411.02	3026.31
411.21	3122.27
411.40	3061.42
411.59	3222.92
411.78	3150.36
411.98	3157.38
412.17	3171.43
412.36	3246.32
412.55	3361.01
412.74	3274.41
412.93	3520.17
413.12	3332.92
413.31	3578.68
413.50	3438.25
413.69	3466.33
413.88	3487.40
414.07	3583.36
414.26	3627.83
414.45	3653.58
414.64	3712.09
414.83	3639.53
415.02	3768.26
415.22	3904.01
415.41	3777.62
415.60	3758.90
415.79	3885.29
415.98	4004.66
416.17	3981.25
416.36	3999.98
416.55	3971.89
416.74	3946.14
416.93	3948.48
417.12	4046.79
417.31	4030.40
417.50	4131.05
417.69	4334.67
417.88	4301.90
418.07	4234.03
418.26	4337.01
418.45	4381.48
418.64	4360.42
418.83	4397.87
419.02	4311.27
419.21	4498.51
419.39	4388.50
419.58	4505.53
419.77	4559.36
419.96	4521.92
420.15	4568.73
420.34	4594.47
420.53	4669.37
420.72	4638.94
420.91	4648.30
421.10	4758.31
421.29	4807.46
421.48	4601.49
421.67	4730.22
421.86	4765.33
422.05	4826.18
422.24	4650.64
422.43	4931.51
422.61	4940.87
422.80	4957.25
422.99	4980.66
423.18	5032.15
423.37	4971.30
423.56	4812.14
423.75	4966.62
423.94	4744.27
424.13	4622.56
424.32	4685.75
424.50	4905.76
424.69	5057.90
424.88	4917.47
425.07	4863.63
425.26	4905.76
425.45	4774.69
425.64	4910.44
425.83	4992.36
426.01	5006.41
426.20	4990.02
426.39	5011.09
426.58	5013.43
426.77	4975.98
426.96	5224.08
427.15	5245.14
427.33	5233.44
427.52	4980.66
427.71	5249.82
427.90	5167.90
428.09	5296.63
428.28	5371.53
428.46	5582.18
428.65	5399.62
428.84	5383.23
429.03	5502.60
429.22	5327.06
429.40	5533.03
429.59	5631.33
429.78	5275.57
429.97	5135.14
430.16	5404.30
430.34	5577.50
430.53	5596.22
430.72	5556.43
430.91	5507.28
431.10	5462.81
431.28	5659.42
431.47	5757.72
431.66	5860.70
431.85	5834.96
432.03	5881.77
432.22	5956.66
432.41	5788.14
432.60	5961.34
432.79	6019.86
432.97	5996.45
433.16	6267.95
433.35	6038.58
433.54	6043.26
433.72	5944.96
433.91	5956.66
434.10	6195.40
434.28	5989.43
434.47	6064.33
434.66	6122.84
434.85	6164.97
435.03	6139.23
435.22	6237.53
435.41	6551.16
435.59	6525.41
435.78	6389.66
435.97	6499.67
436.16	6394.34
436.34	6368.60
436.53	6490.31
436.72	6588.61
436.90	6392.00
437.09	6520.73
437.28	6277.32
437.46	6511.37
437.65	6628.40
437.84	6604.99
438.02	6700.95
438.21	6782.87
438.40	6710.32
438.58	7140.97
438.77	7033.31
438.96	6862.45
439.14	7119.91
439.33	7096.50
439.52	7283.75
439.70	7183.10
439.89	7283.75
440.08	7431.20
440.26	7417.16
440.45	7470.99
440.63	7403.11
440.82	7531.84
441.01	7534.18
441.19	7503.76
441.38	7815.05
441.57	7815.05
441.75	7772.92
441.94	8042.08
442.12	7953.14
442.31	7896.97
442.50	8037.40
442.68	8042.08
442.87	8011.65
443.05	8032.72
443.24	8149.75
443.43	7985.91
443.61	8070.17
443.80	8271.45
443.98	8147.40
444.17	7957.82
444.35	8156.77
444.54	8311.24
444.73	8212.94
444.91	8400.18
445.10	8224.64
445.28	8222.30
445.47	8189.53
445.65	8379.12
445.84	8334.65
446.02	8526.57
446.21	8493.80
446.39	8299.54
446.58	8552.32
446.77	8585.08
446.95	8278.47
447.14	8259.75
447.32	8573.38
447.51	8421.25
447.69	8437.63
447.88	8561.68
448.06	8709.13
448.25	8517.21
448.43	8451.67
448.62	8592.11
448.80	8414.23
448.99	8596.79
449.17	8685.73
449.36	8645.94
449.54	8704.45
449.73	8919.78
449.91	8788.71
450.10	8870.63
450.28	8821.48
450.46	8952.55
450.65	9217.03
450.83	8833.18
451.02	8924.46
451.20	9277.88
451.39	9160.86
451.57	8968.93
451.76	9151.49
451.94	9064.89
452.13	9334.06
452.31	9275.54
452.49	9174.90
452.68	9317.67
452.86	9254.48
453.05	9446.40
453.23	9362.14
453.42	9153.84
453.60	9301.29
453.78	9444.06
453.97	9441.72
454.15	9469.81
454.34	9430.02
454.52	9619.60
454.70	9614.92
454.89	9678.12
455.07	9586.83
455.26	9879.40
455.44	9914.51
455.62	9832.59
455.81	9837.27
455.99	9839.61
456.17	9970.68
456.36	9916.85
456.54	9811.53
456.73	10090.05
456.91	10443.47
457.09	10324.10
457.28	10354.53
457.46	10391.98
457.64	10588.58
457.83	10436.45
458.01	10548.79
458.19	10539.43
458.38	10368.57
458.56	10501.98
458.74	10714.97
458.93	10623.69
459.11	10740.72
459.29	10834.34
459.48	10736.04
459.66	10717.31
459.84	10839.02
460.03	10848.38
460.21	10981.79
460.39	11061.37
460.57	11075.42
460.76	11037.97
460.94	11197.12
461.12	11309.47
461.31	11131.59
461.49	10958.39
461.67	11110.52
461.85	11527.14
462.04	11281.38
462.22	11627.78
462.40	11499.05
462.59	11475.65
462.77	11470.97
462.95	11733.11
463.13	11555.22
463.32	11463.94
463.50	11690.98
463.68	11754.17
463.86	11667.57
464.05	11538.84
464.23	11557.57
464.41	11950.78
464.59	11510.75
464.78	12131.00
464.96	11962.48
465.14	11815.02
465.32	11922.69
465.50	12168.45
465.69	11913.33
465.87	12140.36
466.05	12072.48
466.23	12098.23
466.41	12123.98
466.60	12465.69
466.78	12020.99
466.96	12065.46
467.14	12219.94
467.32	12285.47
467.51	12622.51
467.69	12285.47
467.87	12486.76
468.05	12533.57
468.23	12498.46
468.41	12259.73
468.60	12592.08
468.78	12655.28
468.96	12610.81
469.14	12807.41
469.32	13006.36
469.50	12395.48
469.69	13109.34
469.87	13158.49
470.05	13151.47
470.23	13109.34
470.41	13207.64
470.59	13240.41
470.77	13156.15
470.95	13170.19
471.14	13455.74
471.32	13315.31
471.50	13509.57
471.68	13561.06
471.86	13769.37
472.04	13776.39
472.22	13909.80
472.40	13734.26
472.58	13518.93
472.77	14197.69
472.95	14061.94
473.13	14581.54
473.31	14108.75
473.49	13998.74
473.67	14101.73
473.85	14267.91
474.03	14546.43
474.21	14745.38
474.39	14684.52
474.57	14707.93
474.75	14738.35
474.93	15028.58
475.12	14754.74
475.30	15215.82
475.48	14906.87
475.66	14869.42
475.84	15094.11
476.02	15365.62
476.20	15215.82
476.38	15779.89
476.56	15955.43
476.74	15826.70
476.92	15620.74
477.10	15632.44
477.28	16114.59
477.46	16042.03
477.64	16065.44
477.82	16449.28
478.00	16915.05
478.18	16816.75
478.36	16931.44
478.54	17055.48
478.72	17146.76
478.90	17294.22
479.08	17511.89
479.26	17706.15
479.44	17549.34
479.62	18012.76
479.80	17914.46
479.98	17902.76
480.16	18408.31
480.34	18223.41
480.52	18537.04
480.70	18471.51
480.88	18616.62
481.06	18803.86
481.24	18764.07
481.41	19183.03
481.59	19276.65
481.77	19716.67
481.95	19639.44
482.13	19653.48
482.31	19648.80
482.49	20018.60
482.67	20004.56
482.85	19847.74
483.03	20318.19
483.21	20592.03
483.39	20889.28
483.57	20381.38
483.74	21039.08
483.92	21383.13
484.10	20957.16
484.28	21656.98
484.46	21694.43
484.64	22106.36
484.82	21982.31
485.00	22279.56
485.18	22530.00
485.35	22977.04
485.53	22663.41
485.71	22539.36
485.89	23510.68
486.07	23552.81
486.25	23253.22
486.43	23496.64
486.61	23513.02
486.78	24130.92
486.96	24388.38
487.14	24446.90
487.32	24432.85
487.50	24486.68
487.68	24772.23
487.85	25163.10
488.03	25127.99
488.21	25865.26
488.39	25296.51
488.57	26010.37
488.75	26115.70
488.92	26160.17
489.10	26834.24
489.28	26490.18
489.46	27147.87
489.64	26668.06
489.81	27267.24
489.99	27421.72
490.17	27545.76
490.35	27962.38
490.53	27779.82
490.70	28315.80
490.88	28198.77
491.06	28760.50
491.24	28643.48
491.41	29284.78
491.59	29013.28
491.77	28980.51
491.95	29511.81
492.13	29727.14
492.30	29764.59
492.48	30115.67
492.66	30139.08
492.84	30239.72
493.01	30686.76
493.19	30560.37
493.37	31021.46
493.54	30981.67
493.72	31239.13
493.90	31220.41
494.08	31531.70
494.25	31910.86
494.43	31693.19
494.61	31690.85
494.79	32245.56
494.96	32350.88
495.14	32332.16
495.32	32917.29
495.49	33036.66
495.67	32847.08
495.85	33614.77
496.02	33766.91
496.20	33675.63
496.38	33942.45
496.55	33942.45
496.73	34904.41
496.91	34338.00
497.09	34267.78
497.26	34745.25
497.44	34766.32
497.62	35243.79
497.79	35372.52
497.97	35168.89
498.14	35810.20
498.32	36273.62
498.50	36060.63
498.67	36376.61
498.85	36566.19
499.03	36893.86
499.20	36297.03
499.38	36919.61
499.56	36896.20
499.73	36893.86
499.91	37240.26
500.08	37558.58
500.26	37048.34
500.44	37148.98
500.61	37912.00
500.79	37411.12
500.97	38017.32
501.14	37886.25
501.32	38438.62
501.49	38382.45
501.67	38953.54
501.84	38836.51
502.02	38873.96
502.20	38820.13
502.37	39051.84
502.55	38967.58
502.72	39175.89
502.90	39470.79
503.07	39648.68
503.25	40254.87
503.43	39398.24
503.60	39880.39
503.78	40128.48
503.95	39906.13
504.13	40196.36
504.30	40273.60
504.48	40645.74
504.65	40264.24
504.83	40814.26
505.01	40989.80
505.18	41177.04
505.36	41254.28
505.53	41158.32
505.71	41523.44
505.88	41317.48
506.06	41233.22
506.23	41610.04
506.41	41504.72
506.58	41497.70
506.76	41811.33
506.93	42532.22
507.11	41991.55
507.28	42267.73
507.46	42305.18
507.63	42490.09
507.81	43150.12
507.98	42684.35
508.16	42873.93
508.33	43353.74
508.50	43192.25
508.68	43220.33
508.85	43688.44
509.03	43178.20
509.20	43749.29
509.38	44058.24
509.55	44458.48
509.73	44392.94
509.90	44509.97
510.08	44076.97
510.25	44266.55
510.42	44289.96
510.60	44842.32
510.77	44884.45
510.95	45251.92
511.12	45076.38
511.30	44626.99
511.47	45017.86
511.64	45294.05
511.82	45500.01
511.99	45352.56
512.17	45752.79
512.34	45743.43
512.51	46110.89
512.69	46391.76
512.86	46408.14
513.04	46387.08
513.21	46370.69
513.38	46321.54
513.56	46918.38
513.73	46487.72
513.90	46616.45
514.08	46576.66
514.25	47070.51
514.43	47276.48
514.60	46969.87
514.77	46995.62
514.95	47611.18
515.12	47075.19
515.29	47250.74
515.47	47845.23
515.64	47821.83
515.81	47751.61
515.99	48135.46
516.16	48002.05
516.33	48088.65
516.51	48631.65
516.68	48470.15
516.85	47887.36
517.03	48725.27
517.20	48846.98
517.37	48868.05
517.54	48582.50
517.72	48746.34
517.89	48938.26
518.06	48921.88
518.24	49221.47
518.41	49139.55
518.58	49289.34
518.75	48931.24
518.93	49357.22
519.10	49116.14
519.27	49738.72
519.45	49663.83
519.62	49996.18
519.79	50068.74
519.96	50005.55
520.14	50270.03
520.31	50087.46
520.48	50136.62
520.65	50061.72
520.83	50384.71
521.00	50630.47
521.17	50309.82
521.34	50337.90
521.52	50918.35
521.69	50696.00
521.86	50646.85
522.03	50925.38
522.20	50948.78
522.38	51056.45
522.55	51138.36
522.72	51203.90
522.89	51145.39
523.07	51152.41
523.24	51508.17
523.41	51545.62
523.58	51030.70
523.75	51765.63
523.92	51711.80
524.10	51941.17
524.27	52053.51
524.44	51899.04
524.61	52011.38
524.78	52119.05
524.96	52116.71
525.13	52048.83
525.30	52109.69
525.47	52273.52
525.64	52610.56
525.81	52505.24
525.98	52388.21
526.16	52371.83
526.33	52530.98
526.50	52807.17
526.67	52577.79
526.84	53247.19
527.01	52729.93
527.18	53102.07
527.36	52907.81
527.53	52687.80
527.70	53324.43
527.87	53366.55
528.04	53279.96
528.21	53120.80
528.38	53069.31
528.55	53301.02
528.72	53368.90
528.89	53329.11
529.07	53340.81
529.24	52999.09
529.41	53521.03
529.58	53539.75
529.75	53523.37
529.92	53275.27
530.09	53729.34
530.26	53799.55
530.43	54045.31
530.60	53624.01
530.77	53872.11
530.94	53722.32
531.11	53820.62
531.28	53914.24
531.46	54164.68
531.63	54160.00
531.80	54017.22
531.97	54220.85
532.14	54232.55
532.31	54239.57
532.48	54475.97
532.65	54468.95
532.82	54485.33
532.99	54593.00
533.16	54183.40
533.33	54885.56
533.50	54733.43
533.67	54773.22
533.84	54405.75
534.01	54707.68
534.18	54930.03
534.35	54714.70
534.52	55056.42
534.69	55128.98
534.86	55257.71
535.03	54925.35
535.20	55140.68
535.37	55370.05
535.54	55126.64
535.71	55283.45
535.88	55145.36
536.05	55262.39
536.22	55601.77
536.38	55433.25
536.55	55470.70
536.72	55405.16
536.89	55222.60
537.06	55512.83
537.23	55587.72
537.40	55426.23
537.57	55526.87
537.74	55522.19
537.91	55770.28
538.08	56044.13
538.25	55760.92
538.42	55807.73
538.59	55987.95
538.75	55812.41
538.92	56177.54
539.09	56088.60
539.26	55957.53
539.43	56158.81
539.60	56186.90
539.77	56285.20
539.94	56404.57
540.11	56196.26
540.28	56060.51
540.44	56507.55
540.61	56378.82
540.78	56002.00
540.95	56289.88
541.12	56186.90
541.29	56322.65
541.46	56409.25
541.62	56495.85
541.79	56601.18
541.96	56128.39
542.13	56509.89
542.30	56772.03
542.47	56699.48
542.63	56690.12
542.80	56643.30
542.97	56987.36
543.14	57059.92
543.31	57205.03
543.48	56994.39
543.64	57298.65
543.81	57368.87
543.98	57186.31
544.15	57181.63
544.32	57406.32
544.48	57324.40
544.65	57153.54
544.82	57326.74
544.99	57062.26
545.16	57205.03
545.32	57132.48
545.49	57586.54
545.66	57420.36
545.83	57291.63
546.00	57546.75
546.16	57333.76
546.33	57567.82
546.50	57293.97
546.67	57738.68
546.83	57408.66
547.00	57450.79
547.17	57513.98
547.34	57712.93
547.50	57867.40
547.67	57811.23
547.84	57907.19
548.00	57949.32
548.17	58141.25
548.34	57839.32
548.51	58234.87
548.67	58000.82
548.84	57946.98
549.01	57764.42
549.18	57958.69
549.34	58101.46
549.51	58171.67
549.68	58152.95
549.84	58309.77
550.01	58377.64
550.18	58047.63
550.34	58326.15
550.51	58206.78
550.68	58419.77
550.84	58113.16
551.01	58337.85
551.18	58319.13
551.34	58358.92
551.51	58480.63
551.68	58522.76
551.84	58454.88
552.01	58258.27
552.18	58548.50
552.34	58272.32
552.51	58688.93
552.68	58504.03
552.84	58527.44
553.01	58649.14
553.18	58597.65
553.34	58731.06
553.51	58639.78
553.67	58585.95
553.84	58780.21
554.01	58740.42
554.17	58766.17
554.34	58866.81
554.51	58831.71
554.67	58976.82
554.84	58885.54
555.00	58885.54
555.17	58979.16
555.33	59016.61
555.50	58677.23
555.67	58749.79
555.83	58855.11
556.00	58862.13
556.16	59421.52
556.33	59213.21
556.50	59110.23
556.66	59278.75
556.83	59021.29
556.99	59203.85
557.16	59393.43
557.32	59208.53
557.49	59550.25
557.65	59220.23
557.82	59185.13
557.98	59194.49
558.15	59463.65
558.32	59358.33
558.48	59323.22
558.65	59360.67
558.81	59257.68
558.98	59458.97
559.14	59358.33
559.31	59604.08
559.47	59449.61
559.64	59545.57
559.80	59370.03
559.97	59950.48
560.13	59412.16
560.30	59442.59
560.46	59641.53
560.63	59538.55
560.79	59592.38
560.96	59978.57
561.12	59695.36
561.29	59803.03
561.45	59625.15
561.61	59648.55
561.78	59744.51
561.94	59664.94
562.11	59725.79
562.27	59739.83
562.44	59866.22
562.60	59999.63
562.77	60079.21
562.93	59723.45
563.10	60116.66
563.26	59695.36
563.42	60067.51
563.59	59971.55
563.75	59908.35
563.92	59896.65
564.08	60083.89
564.24	59985.59
564.41	60114.32
564.57	60074.53
564.74	59739.83
564.90	59976.23
565.07	60004.31
565.23	59868.56
565.39	60119.00
565.56	60273.48
565.72	59985.59
565.88	59978.57
566.05	60104.96
566.21	60034.74
566.38	60067.51
566.54	60170.49
566.70	60142.41
566.87	60210.28
567.03	60149.43
567.19	60392.84
567.36	60280.50
567.52	60119.00
567.68	60371.78
567.85	60327.31
568.01	60385.82
568.17	60313.26
568.34	60327.31
568.50	60282.84
568.66	60341.35
568.83	60250.07
568.99	60310.92
569.15	60317.95
569.32	60196.24
569.48	60168.15
569.64	60507.53
569.81	60432.63
569.97	60271.14
570.13	60250.07
570.30	60184.54
570.46	60289.86
570.62	60210.28
570.78	60395.18
570.95	60313.26
571.11	60706.47
571.27	60350.71
571.43	60355.39
571.60	60479.44
571.76	60339.01
571.92	60444.33
572.09	60561.36
572.25	60444.33
572.41	60207.94
572.57	60397.52
572.74	60584.77
572.90	60591.79
573.06	60390.50
573.22	60378.80
573.38	60617.53
573.55	60580.09
573.71	60779.03
573.87	60530.93
574.03	60282.84
574.20	60458.38
574.36	60420.93
574.52	60523.91
574.68	60664.35
574.84	60662.00
575.01	60617.53
575.17	60601.15
575.33	60495.83
575.49	60650.30
575.65	60676.05
575.82	60697.11
575.98	60559.02
576.14	60776.69
576.30	60617.53
576.46	60732.22
576.62	60605.83
576.79	60622.22
576.95	60575.40
577.11	60470.08
577.27	60650.30
577.43	60645.62
577.59	60540.30
577.75	60720.52
577.92	60608.17
578.08	60919.46
578.24	60584.77
578.40	60804.78
578.56	60877.33
578.72	60580.09
578.88	60793.07
579.04	60914.78
579.21	60725.20
579.37	60921.80
579.53	60720.52
579.69	60729.88
579.85	60638.60
580.01	60626.90
580.17	60629.24
580.33	60832.86
580.49	60748.60
580.65	60692.43
580.82	60542.64
580.98	60664.35
581.14	60669.03
581.30	61036.49
581.46	60814.14
581.62	60736.90
581.78	60622.22
581.94	60865.63
582.10	60788.39
582.26	60828.18
582.42	60889.04
582.58	60804.78
582.74	60734.56
582.90	60896.06
583.06	60746.26
583.22	60746.26
583.38	60701.79
583.54	60739.24
583.70	60889.04
583.86	61022.45
584.02	60690.09
584.18	60662.00
584.34	60914.78
584.50	60945.21
584.66	60896.06
584.82	60715.84
584.98	60924.14
585.14	60999.04
585.30	60659.66
585.46	60910.10
585.62	60917.12
585.78	60931.17
585.94	60610.51
586.10	60729.88
586.26	60818.82
586.42	60985.00
586.58	60977.98
586.74	61029.47
586.90	60872.65
587.06	60938.19
587.22	61083.30
587.38	60884.36
587.54	60952.23
587.70	61111.39
587.86	61141.81
588.02	60811.80
588.18	61113.73
588.34	60985.00
588.49	60954.57
