SpectraSuite Data File
++++++++++++++++++++++++++++++++++++
Date: Fri Oct 25 11:33:09 EDT 2013
User: price-jones
Dark Spectrum Present: No
Reference Spectrum Present: No
Number of Sampled Component Spectra: 1
Spectrometers: USB2+H05261
Integration Time (usec): 100000 (USB2+H05261)
Spectra Averaged: 1 (USB2+H05261)
Boxcar Smoothing: 0 (USB2+H05261)
Correct for Electrical Dark: No (USB2+H05261)
Strobe/Lamp Enabled: No (USB2+H05261)
Correct for Detector Non-linearity: No (USB2+H05261)
Correct for Stray Light: No (USB2+H05261)
Number of Pixels in Processed Spectrum: 2048
>>>>>Begin Processed Spectral Data<<<<<
365.73	257.46
365.92	257.46
366.12	257.46
366.32	194.26
366.52	168.52
366.72	126.39
366.91	184.90
367.11	238.73
367.31	163.84
367.51	147.45
367.70	117.03
367.90	154.48
368.10	168.52
368.30	149.79
368.49	154.48
368.69	124.05
368.89	245.76
369.09	189.58
369.28	198.95
369.48	220.01
369.68	297.25
369.87	280.86
370.07	255.12
370.27	255.12
370.47	330.02
370.66	482.15
370.86	496.19
371.06	468.11
371.25	517.26
371.45	596.84
371.65	557.05
371.84	573.43
372.04	463.43
372.24	557.05
372.44	571.09
372.63	589.82
372.83	528.96
373.03	603.86
373.22	571.09
373.42	594.50
373.62	770.04
373.81	629.60
374.01	704.50
374.21	613.22
374.40	660.03
374.60	631.94
374.79	667.05
374.99	610.88
375.19	671.73
375.38	622.58
375.58	617.90
375.78	667.05
375.97	622.58
376.17	702.16
376.37	653.01
376.56	730.25
376.76	631.94
376.95	671.73
377.15	688.12
377.35	725.57
377.54	741.95
377.74	706.84
377.93	716.20
378.13	631.94
378.33	702.16
378.52	582.79
378.72	842.59
378.91	683.44
379.11	664.71
379.31	669.39
379.50	645.99
379.70	711.52
379.89	678.76
380.09	704.50
380.28	748.97
380.48	767.70
380.68	786.42
380.87	758.33
381.07	748.97
381.26	800.46
381.46	777.06
381.65	791.10
381.85	798.12
382.04	835.57
382.24	763.01
382.43	837.91
382.63	770.04
382.83	741.95
383.02	779.40
383.22	866.00
383.41	809.83
383.61	863.66
383.80	840.25
384.00	786.42
384.19	851.96
384.39	791.10
384.58	849.61
384.78	823.87
384.97	772.38
385.17	854.30
385.36	784.08
385.56	844.93
385.75	854.30
385.95	779.40
386.14	837.91
386.34	821.53
386.53	851.96
386.72	856.64
386.92	901.11
387.11	950.26
387.31	901.11
387.50	840.25
387.70	802.80
387.89	950.26
388.09	875.36
388.28	908.13
388.48	915.15
388.67	926.85
388.86	919.83
389.06	961.96
389.25	868.34
389.45	950.26
389.64	973.66
389.84	1071.97
390.03	997.07
390.22	950.26
390.42	1027.50
390.61	985.37
390.81	1027.50
391.00	985.37
391.19	1039.20
391.39	947.92
391.58	1034.52
391.78	1036.86
391.97	1027.50
392.16	1039.20
392.36	987.71
392.55	1086.01
392.75	1067.28
392.94	1069.62
393.13	1006.43
393.33	1039.20
393.52	1071.97
393.71	1144.52
393.91	1011.11
394.10	1081.33
394.29	1062.60
394.49	1114.10
394.68	1165.59
394.88	1167.93
395.07	1104.73
395.26	1146.86
395.46	1097.71
395.65	1184.31
395.84	1104.73
396.04	1233.46
396.23	1146.86
396.42	1207.72
396.62	1224.10
396.81	1149.20
397.00	1172.61
397.19	1252.19
397.39	1174.95
397.58	1242.82
397.77	1249.85
397.97	1212.40
398.16	1277.93
398.35	1291.98
398.55	1235.80
398.74	1291.98
398.93	1327.08
399.12	1291.98
399.32	1399.64
399.51	1355.17
399.70	1334.11
399.90	1313.04
400.09	1413.68
400.28	1387.94
400.47	1394.96
400.67	1451.13
400.86	1401.98
401.05	1455.81
401.24	1486.24
401.44	1418.36
401.63	1465.18
401.82	1511.99
402.01	1399.64
402.21	1497.94
402.40	1479.22
402.59	1481.56
402.78	1472.20
402.97	1514.33
403.17	1535.39
403.36	1556.46
403.55	1619.65
403.74	1570.50
403.93	1575.18
404.13	1631.35
404.32	1577.52
404.51	1645.40
404.70	1680.50
404.89	1633.69
405.09	1739.02
405.28	1647.74
405.47	1631.35
405.66	1657.10
405.85	1748.38
406.05	1720.29
406.24	1626.67
406.43	1675.82
406.62	1818.60
406.81	1888.81
407.00	1734.34
407.20	1804.55
407.39	1846.68
407.58	1827.96
407.77	1863.07
407.96	1837.32
408.15	1954.35
408.34	1921.58
408.54	1963.71
408.73	1935.62
408.92	1942.64
409.11	1921.58
409.30	1991.80
409.49	1907.54
409.68	2010.52
409.87	2045.63
410.07	2012.86
410.26	2218.83
410.45	1984.77
410.64	2054.99
410.83	2179.04
411.02	2136.91
411.21	2237.55
411.40	2181.38
411.59	2242.23
411.78	2040.95
411.98	2169.68
412.17	2223.51
412.36	2363.94
412.55	2377.98
412.74	2256.28
412.93	2291.38
413.12	2415.43
413.31	2471.61
413.50	2452.88
413.69	2469.27
413.88	2457.56
414.07	2661.19
414.26	2450.54
414.45	2633.10
414.64	2408.41
414.83	2602.68
415.02	2483.31
415.22	2651.83
415.41	2644.81
415.60	2665.87
415.79	2703.32
415.98	2689.28
416.17	2700.98
416.36	2677.57
416.55	2766.51
416.74	2825.03
416.93	2855.45
417.12	2869.50
417.31	2773.53
417.50	3012.27
417.69	3061.42
417.88	3016.95
418.07	2928.01
418.26	2991.20
418.45	3005.25
418.64	3016.95
418.83	3012.27
419.02	3143.34
419.21	3155.04
419.39	3026.31
419.58	3077.80
419.77	3185.47
419.96	3110.57
420.15	3033.33
420.34	3164.40
420.53	3194.83
420.72	3227.60
420.91	3201.85
421.10	3276.75
421.29	3344.63
421.48	3119.93
421.67	3304.84
421.86	3260.37
422.05	3173.77
422.24	3215.90
422.43	3412.50
422.61	3346.97
422.80	3344.63
422.99	3361.01
423.18	3389.10
423.37	3482.72
423.56	3377.39
423.75	3445.27
423.94	3391.44
424.13	3239.30
424.32	3318.88
424.50	3351.65
424.69	3475.70
424.88	3534.21
425.07	3417.18
425.26	3407.82
425.45	3393.78
425.64	3445.27
425.83	3520.17
426.01	3403.14
426.20	3417.18
426.39	3564.64
426.58	3597.40
426.77	3515.48
426.96	3630.17
427.15	3461.65
427.33	3691.02
427.52	3531.87
427.71	3660.60
427.90	3548.25
428.09	3651.24
428.28	3836.14
428.46	3674.64
428.65	3634.85
428.84	3880.61
429.03	3859.54
429.22	3784.65
429.40	3798.69
429.59	3843.16
429.78	3691.02
429.97	3602.08
430.16	3786.99
430.34	3878.27
430.53	3796.35
430.72	3981.25
430.91	3882.95
431.10	3861.88
431.28	3868.91
431.47	4011.68
431.66	4014.02
431.85	3906.35
432.03	4042.11
432.22	4102.96
432.41	3962.53
432.60	3918.06
432.79	4088.92
432.97	4084.23
433.16	4170.83
433.35	4018.70
433.54	4390.84
433.72	4229.35
433.91	4234.03
434.10	4086.58
434.28	4156.79
434.47	4259.78
434.66	4358.08
434.85	4304.25
435.03	4273.82
435.22	4294.88
435.41	4489.15
435.59	4484.47
435.78	4472.76
435.97	4381.48
436.16	4435.32
436.34	4479.79
436.53	4390.84
436.72	4568.73
436.90	4472.76
437.09	4458.72
437.28	4500.85
437.46	4290.20
437.65	4643.62
437.84	4557.02
438.02	4538.30
438.21	4819.16
438.40	4779.37
438.58	4751.29
438.77	4652.98
438.96	4755.97
439.14	4891.72
439.33	4861.29
439.52	4997.04
439.70	4957.25
439.89	4926.83
440.08	4929.17
440.26	5081.30
440.45	5036.83
440.63	5093.01
440.82	5217.05
441.01	5303.65
441.19	5303.65
441.38	5434.72
441.57	5242.80
441.75	5186.63
441.94	5406.64
442.12	5486.22
442.31	5462.81
442.50	5528.35
442.68	5575.16
442.87	5476.85
443.05	5376.21
443.24	5675.80
443.43	5390.25
443.61	5483.88
443.80	5715.59
443.98	5584.52
444.17	5453.45
444.35	5535.37
444.54	5720.27
444.73	5706.23
444.91	5645.37
445.10	5806.87
445.28	5626.65
445.47	5715.59
445.65	5753.04
445.84	5741.33
446.02	5755.38
446.21	5696.86
446.39	5685.16
446.58	5870.06
446.77	5764.74
446.95	5593.88
447.14	5706.23
447.32	5729.63
447.51	5710.91
447.69	5685.16
447.88	5781.12
448.06	5893.47
448.25	5937.94
448.43	5767.08
448.62	5708.57
448.80	5851.34
448.99	5771.76
449.17	6045.60
449.36	5933.26
449.54	5872.40
449.73	5980.07
449.91	6059.65
450.10	6148.59
450.28	6223.48
450.46	6015.18
450.65	6033.90
450.83	6108.80
451.02	6253.91
451.20	6134.54
451.39	6202.42
451.57	6188.38
451.76	6263.27
451.94	6080.71
452.13	6487.96
452.31	6349.87
452.49	6272.64
452.68	6338.17
452.86	6445.84
453.05	6272.64
453.23	6572.22
453.42	6352.21
453.60	6331.15
453.78	6312.42
453.97	6483.28
454.15	6389.66
454.34	6462.22
454.52	6525.41
454.70	6579.25
454.89	6710.32
455.07	6607.33
455.26	6703.29
455.44	6705.63
455.62	6710.32
455.81	6860.11
455.99	6850.75
456.17	6757.13
456.36	6862.45
456.54	6942.03
456.73	6946.71
456.91	7045.01
457.09	6909.26
457.28	7157.36
457.46	6909.26
457.64	7250.98
457.83	6935.01
458.01	7138.63
458.19	7344.60
458.38	7248.64
458.56	7267.36
458.74	7091.82
458.93	7190.13
459.11	7358.64
459.29	7124.59
459.48	7337.58
459.66	7403.11
459.84	7321.20
460.03	7478.01
460.21	7433.54
460.39	7194.81
460.57	7414.82
460.76	7463.97
460.94	7651.21
461.12	7653.55
461.31	7606.74
461.49	7440.56
461.67	7508.44
461.85	7789.30
462.04	7599.72
462.22	7943.78
462.40	7880.58
462.59	7864.20
462.77	7831.43
462.95	7882.92
463.13	7920.37
463.32	7765.90
463.50	7990.59
463.68	8159.11
463.86	8021.02
464.05	7892.29
464.23	8032.72
464.41	7932.08
464.59	7868.88
464.78	8056.12
464.96	7936.76
465.14	7903.99
465.32	8191.88
465.50	8074.85
465.69	8299.54
465.87	8336.99
466.05	8154.43
466.23	8166.13
466.41	8219.96
466.60	8428.27
466.78	8215.28
466.96	8301.88
467.14	8198.90
467.32	8299.54
467.51	8404.86
467.69	8168.47
467.87	8304.22
468.05	8662.32
468.23	8292.52
468.41	8454.02
468.60	8491.46
468.78	8662.32
468.96	8545.30
469.14	8484.44
469.32	8610.83
469.50	8704.45
469.69	8849.57
469.87	8748.92
470.05	8870.63
470.23	8826.16
470.41	8805.10
470.59	8910.42
470.77	8784.03
470.95	8858.93
471.14	8851.91
471.32	8877.65
471.50	8992.34
471.68	9114.05
471.86	9160.86
472.04	9394.91
472.22	9448.74
472.40	9085.96
472.58	9322.35
472.77	9434.70
472.95	9469.81
473.13	9699.18
473.31	9540.02
473.49	9575.13
473.67	9476.83
473.85	9563.43
474.03	9827.91
474.21	9755.35
474.39	9923.87
474.57	9839.61
474.75	9762.37
474.93	10003.45
475.12	9893.44
475.30	10305.38
475.48	10099.41
475.66	10359.21
475.84	10183.67
476.02	10417.72
476.20	10314.74
476.38	10480.92
476.56	10757.10
476.74	10864.77
476.92	10628.37
477.10	10509.01
477.28	10789.87
477.46	10939.66
477.64	10944.34
477.82	11108.18
478.00	11382.03
478.18	11042.65
478.36	11159.67
478.54	11241.59
478.72	11487.35
478.90	11515.44
479.08	11747.15
479.26	11688.64
479.44	11805.66
479.62	11847.79
479.80	11721.40
479.98	12072.48
480.16	12250.36
480.34	12252.70
480.52	12313.56
480.70	12322.92
480.88	12109.93
481.06	12468.03
481.24	12535.91
481.41	12631.87
481.59	12662.30
481.77	12688.04
481.95	13050.83
482.13	13198.28
482.31	13186.58
482.49	13153.81
482.67	13252.11
482.85	13760.01
483.03	13511.91
483.21	13790.44
483.39	13954.27
483.57	13799.80
483.74	14005.77
483.92	14394.29
484.10	14113.43
484.28	14618.99
484.46	14583.88
484.64	14597.92
484.82	14487.92
485.00	14754.74
485.18	15000.49
485.35	15346.89
485.53	15096.46
485.71	15372.64
485.89	15573.92
486.07	15407.75
486.25	15433.49
486.43	15744.78
486.61	16072.46
486.78	15943.73
486.96	16243.32
487.14	16114.59
487.32	16421.20
487.50	16570.99
487.68	16362.69
487.85	16566.31
488.03	16994.63
488.21	17057.82
488.39	17003.99
488.57	17408.90
488.75	17287.20
488.92	17582.10
489.10	17401.88
489.28	17762.33
489.46	17879.35
489.64	18010.42
489.81	18256.18
489.99	18373.21
490.17	18352.14
490.35	18525.34
490.53	18515.98
490.70	18773.44
490.88	18775.78
491.06	19033.24
491.24	19239.20
491.41	19026.21
491.59	19243.88
491.77	19417.08
491.95	19365.59
492.13	19740.08
492.30	19894.55
492.48	19906.26
492.66	19901.58
492.84	20067.75
493.01	20402.45
493.19	20416.49
493.37	20404.79
493.54	20343.94
493.72	20737.15
493.90	20662.25
494.08	21050.78
494.25	20851.83
494.43	21378.45
494.61	21575.06
494.79	21308.24
494.96	21448.67
495.14	21369.09
495.32	21507.18
495.49	21972.95
495.67	22050.19
495.85	22176.58
496.02	22286.58
496.20	22719.58
496.38	22541.70
496.55	22331.05
496.73	23243.86
496.91	22904.48
497.09	22843.63
497.26	23054.28
497.44	23094.07
497.62	23339.82
497.79	23838.36
497.97	23367.91
498.14	23601.96
498.32	23803.25
498.50	24041.98
498.67	24077.09
498.85	24219.86
499.03	24046.66
499.20	24322.85
499.38	24460.94
499.56	24259.65
499.73	24816.70
499.91	24830.74
500.08	25046.07
500.26	24599.03
500.44	25132.67
500.61	24868.19
500.79	24912.66
500.97	25436.94
501.14	25401.83
501.32	25467.37
501.49	25156.08
501.67	25458.01
501.84	25853.56
502.02	25713.13
502.20	25865.26
502.37	26075.91
502.55	25909.73
502.72	26195.28
502.90	26214.00
503.07	25895.69
503.25	26085.27
503.43	26223.36
503.60	26611.89
503.78	26759.34
503.95	26445.71
504.13	26888.07
504.30	27042.55
504.48	26981.70
504.65	26955.95
504.83	27274.26
505.01	27407.67
505.18	27009.78
505.36	27639.39
505.53	27594.92
505.71	27957.70
505.88	27845.35
506.06	27555.13
506.23	27889.82
506.41	27707.26
506.58	27807.90
506.76	28215.16
506.93	28318.14
507.11	27955.36
507.28	28491.34
507.46	28273.67
507.63	28779.23
507.81	28758.16
507.98	28339.21
508.16	28437.51
508.33	28753.48
508.50	28779.23
508.68	29228.61
508.85	29205.20
509.03	29008.60
509.20	29347.98
509.38	29474.37
509.55	29846.51
509.73	29422.87
509.90	29912.05
510.08	29832.47
510.25	29509.47
510.42	29589.05
510.60	29898.00
510.77	30223.34
510.95	30501.86
511.12	29926.09
511.30	30103.97
511.47	30125.04
511.64	30089.93
511.82	30899.75
511.99	30541.65
512.17	30796.77
512.34	30742.94
512.51	31138.49
512.69	31000.40
512.86	30965.29
513.04	31044.87
513.21	31208.70
513.38	30969.97
513.56	31672.13
513.73	31105.72
513.90	31302.32
514.08	31627.66
514.25	31669.79
514.43	31948.31
514.60	32219.81
514.77	32163.64
514.95	32280.67
515.12	31491.91
515.29	31798.52
515.47	32079.38
515.64	32556.85
515.81	32175.34
515.99	32404.72
516.16	32685.58
516.33	32638.77
516.51	32451.53
516.68	32931.34
516.85	32666.86
517.03	33106.88
517.20	33149.01
517.37	32816.65
517.54	32914.95
517.72	32788.56
517.89	33226.24
518.06	33460.30
518.24	33563.28
518.41	33472.00
518.58	33378.38
518.75	33163.05
518.93	33879.25
519.10	33294.12
519.27	33895.64
519.45	34029.05
519.62	33659.24
519.79	33876.91
519.96	33916.70
520.14	34183.52
520.31	34096.92
520.48	34115.65
520.65	33947.13
520.83	34506.52
521.00	34859.94
521.17	34801.43
521.34	34693.76
521.52	34827.17
521.69	34600.14
521.86	35117.40
522.03	34803.77
522.20	35098.67
522.38	35496.56
522.55	35239.11
522.72	35229.74
522.89	35438.05
523.07	35775.09
523.24	35704.87
523.41	35887.43
523.58	35480.18
523.75	35700.19
523.92	35508.27
524.10	35548.06
524.27	35594.87
524.44	35639.34
524.61	36196.38
524.78	35959.99
524.96	36730.03
525.13	36510.02
525.30	36254.90
525.47	36472.57
525.64	36292.35
525.81	36772.16
525.98	36935.99
526.16	36390.65
526.33	36776.84
526.50	36737.05
526.67	36240.86
526.84	36601.30
527.01	37106.85
527.18	37146.64
527.36	37326.86
527.53	37242.60
527.70	37455.59
527.87	37483.68
528.04	36952.38
528.21	37188.77
528.38	37523.47
528.55	37701.35
528.72	37118.56
528.89	37544.53
529.07	37486.02
529.24	37036.64
529.41	37778.59
529.58	37706.03
529.75	37706.03
529.92	38085.20
530.09	38150.73
530.26	37584.32
530.43	37909.66
530.60	37862.85
530.77	37982.21
530.94	38078.18
531.11	38136.69
531.28	38251.38
531.46	38335.63
531.63	38588.41
531.80	38089.88
531.97	38684.37
532.14	38431.60
532.31	38431.60
532.48	38682.03
532.65	38820.13
532.82	38752.25
532.99	38623.52
533.16	38527.56
533.33	38932.47
533.50	38967.58
533.67	39168.87
533.84	39079.92
534.01	39150.14
534.18	39438.03
534.35	39344.41
534.52	39536.33
534.69	39777.40
534.86	39810.17
535.03	39950.60
535.20	39585.48
535.37	39966.99
535.54	39707.19
535.71	39697.83
535.88	39931.88
536.05	39875.71
536.22	39777.40
536.38	40329.77
536.55	40074.65
536.72	39519.95
536.89	39683.78
537.06	39824.22
537.23	40306.37
537.40	39859.32
537.57	40044.23
537.74	40027.84
537.91	40620.00
538.08	40545.10
538.25	40086.36
538.42	40385.94
538.59	40732.34
538.75	40385.94
538.92	40598.93
539.09	40968.74
539.26	41184.07
539.43	40697.24
539.60	40973.42
539.77	41020.23
539.94	41207.47
540.11	41148.96
540.28	41015.55
540.44	41092.79
540.61	41123.21
540.78	41181.73
540.95	40982.78
541.12	41371.31
541.29	40940.65
541.46	41212.15
541.62	41659.20
541.79	41446.21
541.96	41352.58
542.13	41158.32
542.30	41226.20
542.47	41474.29
542.63	41687.28
542.80	41759.84
542.97	41846.44
543.14	42188.16
543.31	42012.62
543.48	41954.10
543.64	42366.04
543.81	42440.93
543.98	42209.22
544.15	42190.50
544.32	42326.25
544.48	42890.32
544.65	42567.32
544.82	42623.50
544.99	42665.63
545.16	42883.30
545.32	42782.65
545.49	42562.64
545.66	42651.58
545.83	42632.86
546.00	42684.35
546.16	43133.73
546.33	42906.70
546.50	42862.23
546.67	43124.37
546.83	42225.60
547.00	42967.55
547.17	42927.77
547.34	42990.96
547.50	43590.14
547.67	43775.04
547.84	43206.29
548.00	43585.46
548.17	43632.27
548.34	43634.61
548.51	43871.00
548.67	44088.67
548.84	43384.17
549.01	43115.01
549.18	43189.91
549.34	43674.40
549.51	43835.89
549.68	43585.46
549.84	43454.39
550.01	44135.48
550.18	43356.08
550.34	43983.35
550.51	44332.09
550.68	44343.79
550.84	43751.63
551.01	44233.78
551.18	43955.26
551.34	43978.67
551.51	44130.80
551.68	44215.06
551.84	43997.39
552.01	44261.87
552.18	44238.47
552.34	44271.23
552.51	44556.78
552.68	44126.12
552.84	44446.77
553.01	44467.84
553.18	44280.60
553.34	45102.12
553.51	44247.83
553.67	44870.41
553.84	45074.04
554.01	44814.24
554.17	44783.81
554.34	45099.78
554.51	45258.94
554.67	44912.54
554.84	44938.29
555.00	45015.52
555.17	44554.44
555.33	45106.80
555.50	45368.94
555.67	45109.14
555.83	44924.24
556.00	45031.91
556.16	45235.53
556.33	45324.47
556.50	45003.82
556.66	45207.45
556.83	44849.35
556.99	45556.19
557.16	45785.56
557.32	45654.49
557.49	45624.06
557.65	45551.51
557.82	45268.30
557.98	45766.84
558.15	45443.84
558.32	45481.29
558.48	45605.34
558.65	45549.17
558.81	45605.34
558.98	45415.76
559.14	45677.90
559.31	45586.61
559.47	45595.98
559.64	45340.86
559.80	45682.58
559.97	45881.52
560.13	45478.95
560.30	46094.51
560.46	45914.29
560.63	46094.51
560.79	45724.71
560.96	46394.10
561.12	45771.52
561.29	46267.71
561.45	45815.99
561.61	45785.56
561.78	45961.10
561.94	45780.88
562.11	46162.39
562.27	45729.39
562.44	45904.93
562.60	46270.05
562.77	45928.33
562.93	46148.34
563.10	46323.88
563.26	46206.86
563.42	46504.10
563.59	46192.81
563.75	46094.51
563.92	46073.45
564.08	46361.33
564.24	46494.74
564.41	46457.29
564.57	45787.90
564.74	46150.68
564.90	46293.46
565.07	46497.08
565.23	46256.01
565.39	46370.69
565.56	46681.98
565.72	46651.56
565.88	46506.44
566.05	46438.57
566.21	46410.48
566.38	46834.12
566.54	46873.91
566.70	46274.73
566.87	46644.54
567.03	46141.32
567.19	46508.79
567.36	46829.44
567.52	46405.80
567.68	46817.74
567.85	46880.93
568.01	46955.83
568.17	46469.00
568.34	47103.28
568.50	46600.07
568.66	46824.76
568.83	46897.31
568.99	46703.05
569.15	46904.34
569.32	46644.54
569.48	46890.29
569.64	47309.25
569.81	47035.41
569.97	46770.93
570.13	47075.19
570.30	47063.49
570.46	47009.66
570.62	46906.68
570.78	46450.27
570.95	47215.63
571.11	46866.89
571.27	47068.17
571.43	46677.30
571.60	47093.92
571.76	46791.99
571.92	46962.85
572.09	46995.62
572.25	46941.78
572.41	46869.23
572.57	47093.92
572.74	47805.44
572.90	47505.85
573.06	46801.35
573.22	47367.76
573.38	46962.85
573.55	47208.61
573.71	47466.06
573.87	47660.33
574.03	47311.59
574.20	47473.09
574.36	47019.02
574.52	47260.10
574.68	47332.65
574.84	47739.91
575.01	47416.91
575.17	47501.17
575.33	46974.55
575.49	46775.61
575.65	47203.92
575.82	47229.67
575.98	47180.52
576.14	47477.77
576.30	47646.29
576.46	47178.18
576.62	47051.79
576.79	47033.07
576.95	47152.43
577.11	47058.81
577.27	47332.65
577.43	47519.90
577.59	47419.25
577.75	47091.58
577.92	47318.61
578.08	47435.64
578.24	47646.29
578.40	47737.57
578.56	47412.23
578.72	47185.20
578.88	47545.64
579.04	47653.31
579.21	47517.56
579.37	47239.03
579.53	47590.11
579.69	47618.20
579.85	47639.26
580.01	47353.72
580.17	47533.94
580.33	47786.72
580.49	47519.90
580.65	47915.45
580.82	47515.22
580.98	47620.54
581.14	47388.83
581.30	47885.02
581.46	47363.08
581.62	47573.73
581.78	46864.55
581.94	47742.25
582.10	47524.58
582.26	47735.23
582.42	47559.69
582.58	47845.23
582.74	47976.30
582.90	47901.40
583.06	47767.99
583.22	48133.12
583.38	47339.68
583.54	47613.52
583.70	47585.43
583.86	47700.12
584.02	48013.75
584.18	47695.44
584.34	47763.31
584.50	47739.91
584.66	47980.98
584.82	47660.33
584.98	48140.14
585.14	48259.51
585.30	47447.34
585.46	47973.96
585.62	47882.68
585.78	47775.02
585.94	47889.70
586.10	47662.67
586.26	47681.39
586.42	47885.02
586.58	47430.96
586.74	47892.04
586.90	47770.33
587.06	47573.73
587.22	47910.77
587.38	47547.98
587.54	47854.59
587.70	47941.19
587.86	47934.17
588.02	47849.91
588.18	48229.08
588.34	47758.63
588.49	48217.38
588.65	47800.76
588.81	47643.94
588.97	47997.37
589.13	47777.36
589.29	47746.93
589.45	48144.82
589.61	48009.07
589.77	48271.21
589.93	47704.80
