SpectraSuite Data File
++++++++++++++++++++++++++++++++++++
Date: Fri Oct 25 11:34:45 EDT 2013
User: price-jones
Dark Spectrum Present: No
Reference Spectrum Present: No
Number of Sampled Component Spectra: 1
Spectrometers: USB2+H05261
Integration Time (usec): 100000 (USB2+H05261)
Spectra Averaged: 1 (USB2+H05261)
Boxcar Smoothing: 0 (USB2+H05261)
Correct for Electrical Dark: No (USB2+H05261)
Strobe/Lamp Enabled: No (USB2+H05261)
Correct for Detector Non-linearity: No (USB2+H05261)
Correct for Stray Light: No (USB2+H05261)
Number of Pixels in Processed Spectrum: 2048
>>>>>Begin Processed Spectral Data<<<<<
365.73	222.35
365.92	222.35
366.12	222.35
366.32	215.33
366.52	203.63
366.72	217.67
366.91	156.82
367.11	114.69
367.31	163.84
367.51	133.41
367.70	170.86
367.90	236.39
368.10	133.41
368.30	252.78
368.49	241.08
368.69	184.90
368.89	238.73
369.09	210.65
369.28	208.31
369.48	187.24
369.68	198.95
369.87	294.91
370.07	243.42
370.27	339.38
370.47	290.23
370.66	440.02
370.86	472.79
371.06	510.24
371.25	559.39
371.45	433.00
371.65	517.26
371.84	491.51
372.04	496.19
372.24	493.85
372.44	561.73
372.63	592.16
372.83	580.45
373.03	615.56
373.22	653.01
373.42	622.58
373.62	545.34
373.81	585.13
374.01	641.31
374.21	629.60
374.40	535.98
374.60	720.88
374.79	610.88
374.99	648.33
375.19	575.77
375.38	664.71
375.58	627.26
375.78	601.52
375.97	554.71
376.17	737.27
376.37	566.41
376.56	613.22
376.76	657.69
376.95	521.94
377.15	550.03
377.35	664.71
377.54	720.88
377.74	587.47
377.93	683.44
378.13	819.19
378.33	716.20
378.52	737.27
378.72	683.44
378.91	685.78
379.11	723.23
379.31	770.04
379.50	800.46
379.70	683.44
379.89	772.38
380.09	603.86
380.28	671.73
380.48	723.23
380.68	734.93
380.87	727.91
381.07	760.67
381.26	777.06
381.46	758.33
381.65	704.50
381.85	826.21
382.04	737.27
382.24	648.33
382.43	809.83
382.63	800.46
382.83	788.76
383.02	807.48
383.22	877.70
383.41	772.38
383.61	823.87
383.80	779.40
384.00	746.63
384.19	770.04
384.39	741.95
384.58	751.31
384.78	734.93
384.97	758.33
385.17	812.17
385.36	723.23
385.56	880.04
385.75	821.53
385.95	819.19
386.14	765.36
386.34	840.25
386.53	826.21
386.72	889.40
386.92	837.91
387.11	889.40
387.31	877.70
387.50	896.43
387.70	814.51
387.89	781.74
388.09	809.83
388.28	807.48
388.48	880.04
388.67	891.74
388.86	875.36
389.06	910.47
389.25	987.71
389.45	950.26
389.64	964.30
389.84	901.11
390.03	947.92
390.22	952.60
390.42	915.15
390.61	901.11
390.81	884.72
391.00	945.58
391.19	894.08
391.39	919.83
391.58	912.81
391.78	919.83
391.97	1001.75
392.16	978.34
392.36	1036.86
392.55	1008.77
392.75	947.92
392.94	1064.94
393.13	1067.28
393.33	994.73
393.52	1034.52
393.71	1004.09
393.91	1004.09
394.10	994.73
394.29	1067.28
394.49	1111.75
394.68	1025.15
394.88	1137.50
395.07	1055.58
395.26	1121.12
395.46	1170.27
395.65	1214.74
395.84	1100.05
396.04	1086.01
396.23	1088.35
396.42	1142.18
396.62	1128.14
396.81	1123.46
397.00	1153.88
397.19	1174.95
397.39	1083.67
397.58	1128.14
397.77	1174.95
397.97	1273.25
398.16	1135.16
398.35	1196.01
398.55	1228.78
398.74	1184.31
398.93	1266.23
399.12	1240.48
399.32	1308.36
399.51	1259.21
399.70	1287.29
399.90	1245.16
400.09	1263.89
400.28	1301.34
400.47	1366.87
400.67	1287.29
400.86	1324.74
401.05	1376.24
401.24	1338.79
401.44	1308.36
401.63	1432.41
401.82	1437.09
402.01	1357.51
402.21	1418.36
402.40	1383.26
402.59	1425.39
402.78	1376.24
402.97	1413.68
403.17	1409.00
403.36	1451.13
403.55	1488.58
403.74	1490.92
403.93	1458.15
404.13	1565.82
404.32	1446.45
404.51	1507.30
404.70	1549.43
404.89	1519.01
405.09	1497.94
405.28	1537.73
405.47	1577.52
405.66	1572.84
405.85	1680.50
406.05	1689.87
406.24	1647.74
406.43	1680.50
406.62	1755.40
406.81	1689.87
407.00	1699.23
407.20	1741.36
407.39	1617.31
407.58	1722.63
407.77	1839.66
407.96	1781.15
408.15	1788.17
408.34	1790.51
408.54	1916.90
408.73	1769.44
408.92	1788.17
409.11	1811.57
409.30	1884.13
409.49	1989.46
409.68	1909.88
409.87	1895.83
410.07	2003.50
410.26	1961.37
410.45	2010.52
410.64	1973.07
410.83	2010.52
411.02	2008.18
411.21	2139.25
411.40	2143.93
411.59	2050.31
411.78	2031.58
411.98	2038.61
412.17	2139.25
412.36	2101.80
412.55	2211.81
412.74	2225.85
412.93	2230.53
413.12	2069.03
413.31	2347.56
413.50	2296.07
413.69	2328.83
413.88	2373.30
414.07	2200.10
414.26	2434.16
414.45	2424.80
414.64	2457.56
414.83	2464.58
415.02	2516.08
415.22	2548.84
415.41	2548.84
415.60	2560.55
415.79	2457.56
415.98	2595.65
416.17	2637.78
416.36	2525.44
416.55	2602.68
416.74	2703.32
416.93	2642.46
417.12	2670.55
417.31	2754.81
417.50	2651.83
417.69	2782.90
417.88	2822.69
418.07	2843.75
418.26	2834.39
418.45	2787.58
418.64	2911.63
418.83	2909.29
419.02	2946.73
419.21	3021.63
419.39	2986.52
419.58	2911.63
419.77	3012.27
419.96	3045.04
420.15	2946.73
420.34	3007.59
420.53	3133.98
420.72	3152.70
420.91	3122.27
421.10	3108.23
421.29	3080.14
421.48	3026.31
421.67	3176.11
421.86	3178.45
422.05	3208.87
422.24	3133.98
422.43	3101.21
422.61	3136.32
422.80	3150.36
422.99	3283.77
423.18	3218.24
423.37	3279.09
423.56	3286.11
423.75	3117.59
423.94	3094.19
424.13	3030.99
424.32	3159.72
424.50	3220.58
424.69	3370.37
424.88	3330.58
425.07	3213.56
425.26	3290.79
425.45	3204.19
425.64	3236.96
425.83	3309.52
426.01	3297.81
426.20	3407.82
426.39	3318.88
426.58	3300.16
426.77	3407.82
426.96	3410.16
427.15	3323.56
427.33	3372.71
427.52	3389.10
427.71	3522.51
427.90	3391.44
428.09	3513.14
428.28	3435.91
428.46	3407.82
428.65	3426.54
428.84	3627.83
429.03	3641.87
429.22	3412.50
429.40	3590.38
429.59	3562.30
429.78	3417.18
429.97	3335.26
430.16	3618.47
430.34	3602.08
430.53	3618.47
430.72	3798.69
430.91	3648.90
431.10	3667.62
431.28	3641.87
431.47	3763.58
431.66	3768.26
431.85	3684.00
432.03	3871.25
432.22	3932.10
432.41	3857.20
432.60	3887.63
432.79	3775.28
432.97	3918.06
433.16	3824.44
433.35	3941.46
433.54	3864.22
433.72	3992.95
433.91	3988.27
434.10	3990.61
434.28	3878.27
434.47	4032.74
434.66	4007.00
434.85	4201.26
435.03	4079.55
435.22	4058.49
435.41	4140.41
435.59	4219.99
435.78	4217.65
435.97	4182.54
436.16	4086.58
436.34	4245.73
436.53	4100.62
436.72	4283.18
436.90	4095.94
437.09	4451.70
437.28	4383.82
437.46	4322.97
437.65	4250.41
437.84	4423.61
438.02	4208.28
438.21	4542.98
438.40	4346.37
438.58	4571.07
438.77	4528.94
438.96	4432.97
439.14	4599.15
439.33	4526.60
439.52	4681.07
439.70	4695.11
439.89	4795.76
440.08	4798.10
440.26	4814.48
440.45	4924.49
440.63	4784.06
440.82	5020.45
441.01	4863.63
441.19	4980.66
441.38	4943.21
441.57	4961.94
441.75	5069.60
441.94	5128.11
442.12	5125.77
442.31	5188.97
442.50	5324.72
442.68	5046.20
442.87	5116.41
443.05	5275.57
443.24	5284.93
443.43	5242.80
443.61	5320.04
443.80	5406.64
443.98	5132.79
444.17	4997.04
444.35	5287.27
444.54	5350.46
444.73	5355.15
444.91	5357.49
445.10	5394.93
445.28	5301.31
445.47	5329.40
445.65	5233.44
445.84	5359.83
446.02	5497.92
446.21	5284.93
446.39	5380.89
446.58	5448.77
446.77	5516.64
446.95	5380.89
447.14	5385.57
447.32	5640.69
447.51	5378.55
447.69	5235.78
447.88	5490.90
448.06	5298.97
448.25	5530.69
448.43	5727.29
448.62	5507.28
448.80	5570.48
448.99	5720.27
449.17	5715.59
449.36	5598.56
449.54	5785.80
449.73	5696.86
449.91	5659.42
450.10	5657.07
450.28	5722.61
450.46	5844.32
450.65	5785.80
450.83	5797.51
451.02	5694.52
451.20	5788.14
451.39	5935.60
451.57	5919.21
451.76	5785.80
451.94	5832.62
452.13	5951.98
452.31	6136.88
452.49	5858.36
452.68	5984.75
452.86	5902.83
453.05	6040.92
453.23	6228.17
453.42	6069.01
453.60	5994.11
453.78	6148.59
453.97	5982.41
454.15	5970.71
454.34	5996.45
454.52	6101.78
454.70	6289.02
454.89	6317.11
455.07	6263.27
455.26	6335.83
455.44	6347.53
455.62	6230.51
455.81	6246.89
455.99	6431.79
456.17	6406.05
456.36	6450.52
456.54	6427.11
456.73	6562.86
456.91	6541.80
457.09	6679.89
457.28	6626.06
457.46	6487.96
457.64	6623.72
457.83	6743.08
458.01	6670.53
458.19	6832.02
458.38	6677.55
458.56	6906.92
458.74	6820.32
458.93	6850.75
459.11	6750.10
459.29	6817.98
459.48	6871.81
459.66	7037.99
459.84	7155.02
460.03	7098.84
460.21	7061.40
460.39	6918.62
460.57	6974.80
460.76	7009.90
460.94	7166.72
461.12	7131.61
461.31	7126.93
461.49	7009.90
461.67	7096.50
461.85	7295.45
462.04	7248.64
462.22	7255.66
462.40	7323.54
462.59	7494.40
462.77	7358.64
462.95	7368.01
463.13	7389.07
463.32	7304.81
463.50	7581.00
463.68	7545.89
463.86	7485.03
464.05	7304.81
464.23	7403.11
464.41	7531.84
464.59	7260.34
464.78	7805.69
464.96	7588.02
465.14	7524.82
465.32	7733.13
465.50	7714.41
465.69	7611.42
465.87	7737.81
466.05	7613.76
466.23	7716.75
466.41	7754.19
466.60	7892.29
466.78	7747.17
466.96	7786.96
467.14	7768.24
467.32	7857.18
467.51	8147.40
467.69	7639.51
467.87	7824.41
468.05	8028.04
468.23	7927.39
468.41	7915.69
468.60	7943.78
468.78	8219.96
468.96	7962.50
469.14	8245.71
469.32	8133.36
469.50	8046.76
469.69	8133.36
469.87	8287.84
470.05	8329.97
470.23	8397.84
470.41	8418.91
470.59	8395.50
470.77	8067.83
470.95	8271.45
471.14	8610.83
471.32	8421.25
471.50	8339.33
471.68	8503.17
471.86	8840.20
472.04	8533.59
472.22	8870.63
472.40	8629.56
472.58	8582.74
472.77	8856.59
472.95	9050.85
473.13	8994.68
473.31	8690.41
473.49	8994.68
473.67	8978.30
473.85	8973.61
474.03	9163.20
474.21	9198.31
474.39	9320.01
474.57	9212.35
474.75	9345.76
474.93	9514.28
475.12	9338.74
475.30	9460.45
475.48	9474.49
475.66	9645.35
475.84	9521.30
476.02	9563.43
476.20	9767.06
476.38	9748.33
476.56	9977.70
476.74	10017.49
476.92	10164.95
477.10	9858.34
477.28	10169.63
477.46	10080.69
477.64	10281.97
477.82	10190.69
478.00	10480.92
478.18	10537.09
478.36	10637.73
478.54	10740.72
478.72	10642.42
478.90	10759.44
479.08	10995.84
479.26	10965.41
479.44	11021.58
479.62	11087.12
479.80	11143.29
479.98	11269.68
480.16	11508.41
480.34	11274.36
480.52	11632.46
480.70	11578.63
480.88	11555.22
481.06	11653.53
481.24	11751.83
481.41	11829.07
481.59	12383.77
481.77	11943.75
481.95	12070.14
482.13	12259.73
482.31	12072.48
482.49	12556.97
482.67	12486.76
482.85	12697.41
483.03	12954.87
483.21	13032.10
483.39	12905.71
483.57	12910.40
483.74	13198.28
483.92	13369.14
484.10	13184.24
484.28	13514.25
484.46	13600.85
484.64	13823.20
484.82	13783.41
485.00	13741.29
485.18	13900.44
485.35	14087.68
485.53	14108.75
485.71	14288.97
485.89	14546.43
486.07	14253.86
486.25	14476.21
486.43	14574.52
486.61	14499.62
486.78	15173.69
486.96	15105.82
487.14	15056.67
487.32	15342.21
487.50	15164.33
487.68	15377.32
487.85	15571.58
488.03	15840.75
488.21	16009.26
488.39	16044.37
488.57	16196.51
488.75	16119.27
488.92	16325.24
489.10	16627.17
489.28	16545.25
489.46	16702.06
489.64	16669.30
489.81	16901.01
489.99	17254.43
490.17	17146.76
490.35	17420.61
490.53	17469.76
490.70	17413.59
490.88	17202.94
491.06	17736.58
491.24	17867.65
491.41	17774.03
491.59	18092.34
491.77	18267.88
491.95	18101.70
492.13	18515.98
492.30	18782.80
492.48	18705.56
492.66	18724.29
492.84	18719.60
493.01	19030.90
493.19	18761.73
493.37	19037.92
493.54	19344.53
493.72	19054.30
493.90	19625.39
494.08	19346.87
494.25	20100.52
494.43	19730.72
494.61	19894.55
494.79	20053.71
494.96	20004.56
495.14	20255.00
495.32	20484.37
495.49	20554.58
495.67	20446.92
495.85	20886.94
496.02	20905.66
496.20	20964.18
496.38	21404.20
496.55	20947.79
496.73	21649.96
496.91	21280.15
497.09	21500.16
497.26	21869.97
497.44	21813.79
497.62	21589.10
497.79	22202.32
497.97	22195.30
498.14	21858.26
498.32	22328.71
498.50	22281.90
498.67	22485.53
498.85	22462.12
499.03	22607.23
499.20	22974.70
499.38	22719.58
499.56	22794.48
499.73	22984.06
499.91	22829.59
500.08	23550.47
500.26	23239.18
500.44	23285.99
500.61	23178.33
500.79	23215.77
500.97	23278.97
501.14	23618.35
501.32	23660.48
501.49	23882.83
501.67	24091.13
501.84	24013.90
502.02	23763.46
502.20	24065.39
502.37	24088.79
502.55	24100.50
502.72	24224.54
502.90	24196.46
503.07	24362.64
503.25	24758.19
503.43	24535.84
503.60	24797.98
503.78	24823.72
503.95	24697.33
504.13	24989.90
504.30	24882.24
504.48	24982.88
504.65	25273.10
504.83	25404.17
505.01	25565.67
505.18	25418.22
505.36	26036.12
505.53	25645.25
505.71	25640.57
505.88	25781.00
506.06	25696.74
506.23	25956.54
506.41	26127.40
506.58	25986.97
506.76	26321.66
506.93	26352.09
507.11	26204.64
507.28	26103.99
507.46	26401.24
507.63	26384.86
507.81	27117.45
507.98	26705.51
508.16	26764.03
508.33	26841.26
508.50	26998.08
508.68	27342.14
508.85	27115.11
509.03	27161.92
509.20	27358.52
509.38	27484.91
509.55	27613.64
509.73	27899.19
509.90	27733.01
510.08	27618.32
510.25	27669.81
510.42	27770.46
510.60	27917.91
510.77	28173.03
510.95	28357.93
511.12	27960.04
511.30	28018.55
511.47	28315.80
511.64	28566.24
511.82	28926.68
511.99	28453.89
512.17	28510.07
512.34	28524.11
512.51	28811.99
512.69	29413.51
512.86	29022.64
513.04	29677.99
513.21	29167.76
513.38	29139.67
513.56	29291.80
513.73	29106.90
513.90	29654.59
514.08	29422.87
514.25	29586.71
514.43	29537.56
514.60	29680.33
514.77	29780.98
514.95	29785.66
515.12	30024.39
515.29	29818.42
515.47	30307.60
515.64	30345.05
515.81	30134.40
515.99	30331.00
516.16	30466.75
516.33	30731.23
516.51	30384.83
516.68	30593.14
516.85	30443.35
517.03	30742.94
517.20	30866.98
517.37	30829.54
517.54	30567.40
517.72	30490.16
517.89	30745.28
518.06	30955.93
518.24	30998.06
518.41	31206.36
518.58	31164.23
518.75	31159.55
518.93	31442.76
519.10	31274.24
519.27	31484.89
519.45	32011.51
519.62	32006.83
519.79	31562.12
519.96	31999.80
520.14	31770.43
520.31	31913.20
520.48	32016.19
520.65	32116.83
520.83	32325.14
521.00	32343.86
521.17	32290.03
521.34	32561.53
521.52	32034.91
521.69	32446.85
521.86	32563.87
522.03	32383.65
522.20	33027.30
522.38	32870.48
522.55	32982.83
522.72	33240.29
522.89	32896.23
523.07	33352.63
523.24	33219.22
523.41	33450.94
523.58	33081.13
523.75	33598.39
523.92	33443.91
524.10	33366.68
524.27	33457.96
524.44	33500.09
524.61	33584.35
524.78	33584.35
524.96	34000.96
525.13	34195.23
525.30	33956.49
525.47	33874.57
525.64	34197.57
525.81	34218.63
525.98	34384.81
526.16	34415.24
526.33	34284.17
526.50	34555.67
526.67	34176.50
526.84	34340.34
527.01	34487.79
527.18	34520.56
527.36	34506.52
527.53	34876.32
527.70	34998.03
527.87	34808.45
528.04	34665.67
528.21	35122.08
528.38	34752.27
528.55	35047.18
528.72	35091.65
528.89	35051.86
529.07	35054.20
529.24	35051.86
529.41	35365.49
529.58	35653.38
529.75	35398.26
529.92	35171.23
530.09	35089.31
530.26	35681.47
530.43	35269.53
530.60	35124.42
530.77	35250.81
530.94	35784.45
531.11	35908.50
531.28	35695.51
531.46	35775.09
531.63	36011.48
531.80	35756.36
531.97	36271.28
532.14	36215.11
532.31	36016.16
532.48	36027.87
532.65	36407.03
532.82	36140.21
532.99	35981.06
533.16	35859.35
533.33	36542.78
533.50	36301.71
533.67	36615.34
533.84	36198.73
534.01	36652.79
534.18	36573.21
534.35	36732.37
534.52	37106.85
534.69	37167.71
534.86	36685.56
535.03	36999.19
535.20	36952.38
535.37	37003.87
535.54	37038.98
535.71	37364.31
535.88	37188.77
536.05	37525.81
536.22	37404.10
536.38	37441.55
536.55	36999.19
536.72	37462.61
536.89	37221.54
537.06	37579.64
537.23	37886.25
537.40	37387.72
537.57	37343.25
537.74	37350.27
537.91	38000.94
538.08	37680.28
538.25	37521.13
538.42	37656.88
538.59	38122.65
538.75	37895.61
538.92	37848.80
539.09	37935.40
539.26	37785.61
539.43	38155.41
539.60	38115.62
539.77	38057.11
539.94	38611.82
540.11	38403.51
540.28	38373.08
540.44	38239.67
540.61	38146.05
540.78	38417.55
540.95	38216.27
541.12	38546.28
541.29	38557.99
541.46	38740.55
541.62	38307.55
541.79	38787.36
541.96	38242.01
542.13	38405.85
542.30	38721.82
542.47	38785.02
542.63	38976.94
542.80	39079.92
542.97	39374.83
543.14	39873.37
543.31	39545.69
543.48	39264.83
543.64	39658.04
543.81	39833.58
543.98	39622.93
544.15	39297.59
544.32	39203.97
544.48	39901.45
544.65	39782.09
544.82	39901.45
544.99	39922.52
545.16	40205.72
545.32	39915.50
545.49	40582.55
545.66	40327.43
545.83	40053.59
546.00	40231.47
546.16	40287.64
546.33	40062.95
546.50	39833.58
546.67	40329.77
546.83	40046.57
547.00	40123.80
547.17	40144.87
547.34	40198.70
547.50	40467.86
547.67	40765.11
547.84	40545.10
548.00	40959.38
548.17	41057.68
548.34	40950.01
548.51	41198.11
548.67	41001.50
548.84	40942.99
549.01	40994.48
549.18	40617.66
549.34	41184.07
549.51	41155.98
549.68	41249.60
549.84	40870.43
550.01	41120.87
550.18	40591.91
550.34	41120.87
550.51	41343.22
550.68	41207.47
550.84	41034.27
551.01	40802.56
551.18	41317.48
551.34	41378.33
551.51	41481.31
551.68	41387.69
551.84	41333.86
552.01	41024.91
552.18	41359.61
552.34	41652.17
552.51	41380.67
552.68	41378.33
552.84	41497.70
553.01	41820.69
553.18	41605.36
553.34	41811.33
553.51	41326.84
553.67	41808.99
553.84	41827.71
554.01	42113.26
554.17	42103.90
554.34	41642.81
554.51	42192.84
554.67	42422.21
554.84	42405.83
555.00	41820.69
555.17	42010.28
555.33	42181.13
555.50	42342.63
555.67	42045.38
555.83	41991.55
556.00	42431.57
556.16	43077.56
556.33	42518.17
556.50	42291.14
556.66	42197.52
556.83	42003.25
556.99	43019.05
557.16	42735.84
557.32	42520.51
557.49	42927.77
557.65	42263.05
557.82	42499.45
557.98	42574.34
558.15	42469.02
558.32	42665.63
558.48	41968.15
558.65	42366.04
558.81	42721.80
558.98	42518.17
559.14	42803.72
559.31	42689.03
559.47	42674.99
559.64	42639.88
559.80	42958.19
559.97	42693.71
560.13	42878.61
560.30	42958.19
560.46	43112.67
560.63	43110.33
560.79	43349.06
560.96	43452.05
561.12	43304.59
561.29	43056.50
561.45	43590.14
561.61	42604.77
561.78	43140.75
561.94	43178.20
562.11	42965.21
562.27	43243.74
562.44	42902.02
562.60	43344.38
562.77	43349.06
562.93	42768.61
563.10	43770.36
563.26	43304.59
563.42	43470.77
563.59	43093.94
563.75	43290.55
563.92	43477.79
564.08	43260.12
564.24	43756.32
564.41	43402.89
564.57	43454.39
564.74	43658.01
564.90	43580.78
565.07	43283.53
565.23	43559.71
565.39	43290.55
565.56	43856.96
565.72	43576.09
565.88	43526.94
566.05	43761.00
566.21	43634.61
566.38	43629.93
566.54	43557.37
566.70	43564.39
566.87	43639.29
567.03	43475.45
567.19	44030.16
567.36	43620.56
567.52	43452.05
567.68	44334.43
567.85	44088.67
568.01	43749.29
568.17	43737.59
568.34	44362.51
568.50	43824.19
568.66	43552.69
568.83	43824.19
568.99	43655.67
569.15	44009.09
569.32	43889.73
569.48	43981.01
569.64	44545.08
569.81	43903.77
569.97	44058.24
570.13	44135.48
570.30	43871.00
570.46	43807.81
570.62	44093.35
570.78	43948.24
570.95	44498.26
571.11	44318.04
571.27	44011.43
571.43	44119.10
571.60	43976.33
571.76	43908.45
571.92	43880.36
572.09	43938.88
572.25	43983.35
572.41	44189.31
572.57	43812.49
572.74	44327.41
572.90	44292.30
573.06	44498.26
573.22	44133.14
573.38	44694.87
573.55	43966.96
573.71	44306.34
573.87	44367.20
574.03	44217.40
574.20	44306.34
574.36	44313.36
574.52	44589.55
574.68	44437.41
574.84	44201.02
575.01	44650.40
575.17	44790.83
575.33	44477.20
575.49	43997.39
575.65	44540.39
575.82	44238.47
575.98	44184.63
576.14	45050.63
576.30	44568.48
576.46	44355.49
576.62	44170.59
576.79	44680.83
576.95	44065.27
577.11	44549.76
577.27	44481.88
577.43	44741.68
577.59	44816.58
577.75	44463.16
577.92	44067.61
578.08	44559.12
578.24	44603.59
578.40	44821.26
578.56	44612.95
578.72	44437.41
578.88	44942.97
579.04	44727.64
579.21	44629.34
579.37	44851.69
579.53	44765.09
579.69	44346.13
579.85	44493.58
580.01	44842.32
580.17	44472.52
580.33	44549.76
580.49	44701.89
580.65	44610.61
580.82	44194.00
580.98	44406.98
581.14	44355.49
581.30	45036.59
581.46	44516.99
581.62	44767.43
581.78	44451.45
581.94	44734.66
582.10	44456.14
582.26	44814.24
582.42	44825.94
582.58	44779.13
582.74	44921.90
582.90	44608.27
583.06	45085.74
583.22	44676.15
583.38	44346.13
583.54	44636.36
583.70	44722.96
583.86	44985.10
584.02	44755.72
584.18	45015.52
584.34	44800.19
584.50	44772.11
584.66	44779.13
584.82	45085.74
584.98	45001.48
585.14	44664.44
585.30	44641.04
585.46	44701.89
585.62	44559.12
585.78	45123.19
585.94	44540.39
586.10	44399.96
586.26	44203.36
586.42	44734.66
586.58	44896.16
586.74	44875.09
586.90	44481.88
587.06	44692.53
587.22	45111.49
587.38	44622.31
587.54	44964.03
587.70	45528.10
587.86	45251.92
588.02	44898.50
588.18	44652.74
588.34	44793.17
588.49	45027.23
588.65	44645.72
588.81	45202.77
588.97	45303.41
589.13	44959.35
589.29	45017.86
589.45	44823.60
589.61	45312.77
589.77	45146.59
589.93	45485.97
590.08	45537.46
590.24	45010.84
