SpectraSuite Data File
++++++++++++++++++++++++++++++++++++
Date: Fri Oct 25 11:34:33 EDT 2013
User: price-jones
Dark Spectrum Present: No
Reference Spectrum Present: No
Number of Sampled Component Spectra: 1
Spectrometers: USB2+H05261
Integration Time (usec): 100000 (USB2+H05261)
Spectra Averaged: 1 (USB2+H05261)
Boxcar Smoothing: 0 (USB2+H05261)
Correct for Electrical Dark: No (USB2+H05261)
Strobe/Lamp Enabled: No (USB2+H05261)
Correct for Detector Non-linearity: No (USB2+H05261)
Correct for Stray Light: No (USB2+H05261)
Number of Pixels in Processed Spectrum: 2048
>>>>>Begin Processed Spectral Data<<<<<
365.73	341.72
365.92	341.72
366.12	341.72
366.32	234.05
366.52	220.01
366.72	224.69
366.91	168.52
367.11	152.13
367.31	107.66
367.51	170.86
367.70	149.79
367.90	100.64
368.10	138.09
368.30	168.52
368.49	189.58
368.69	175.54
368.89	196.60
369.09	170.86
369.28	262.14
369.48	252.78
369.68	250.44
369.87	196.60
370.07	294.91
370.27	297.25
370.47	325.33
370.66	416.62
370.86	500.87
371.06	514.92
371.25	547.69
371.45	559.39
371.65	547.69
371.84	594.50
372.04	557.05
372.24	557.05
372.44	524.28
372.63	571.09
372.83	552.37
373.03	603.86
373.22	596.84
373.42	524.28
373.62	634.29
373.81	660.03
374.01	669.39
374.21	620.24
374.40	692.80
374.60	641.31
374.79	615.56
374.99	613.22
375.19	730.25
375.38	655.35
375.58	622.58
375.78	599.18
375.97	718.54
376.17	669.39
376.37	699.82
376.56	650.67
376.76	669.39
376.95	631.94
377.15	704.50
377.35	732.59
377.54	662.37
377.74	643.65
377.93	622.58
378.13	699.82
378.33	664.71
378.52	734.93
378.72	737.27
378.91	704.50
379.11	678.76
379.31	755.99
379.50	763.01
379.70	753.65
379.89	676.41
380.09	739.61
380.28	683.44
380.48	763.01
380.68	765.36
380.87	767.70
381.07	734.93
381.26	732.59
381.46	791.10
381.65	755.99
381.85	741.95
382.04	816.85
382.24	704.50
382.43	755.99
382.63	725.57
382.83	741.95
383.02	809.83
383.22	765.36
383.41	784.08
383.61	779.40
383.80	793.44
384.00	725.57
384.19	711.52
384.39	753.65
384.58	786.42
384.78	854.30
384.97	821.53
385.17	802.80
385.36	800.46
385.56	772.38
385.75	828.55
385.95	856.64
386.14	887.06
386.34	819.19
386.53	849.61
386.72	882.38
386.92	908.13
387.11	875.36
387.31	835.57
387.50	866.00
387.70	870.68
387.89	912.81
388.09	933.87
388.28	849.61
388.48	800.46
388.67	884.72
388.86	931.53
389.06	978.34
389.25	968.98
389.45	940.90
389.64	898.77
389.84	894.08
390.03	922.17
390.22	966.64
390.42	940.90
390.61	931.53
390.81	938.55
391.00	901.11
391.19	961.96
391.39	1029.84
391.58	966.64
391.78	985.37
391.97	868.34
392.16	931.53
392.36	1107.07
392.55	1088.35
392.75	1046.22
392.94	1013.45
393.13	1043.88
393.33	950.26
393.52	1029.84
393.71	1050.90
393.91	999.41
394.10	1015.79
394.29	1135.16
394.49	1083.67
394.68	1132.82
394.88	1053.24
395.07	1177.29
395.26	1130.48
395.46	1132.82
395.65	1177.29
395.84	1153.88
396.04	1226.44
396.23	1191.33
396.42	1186.65
396.62	1174.95
396.81	1224.10
397.00	1160.91
397.19	1191.33
397.39	1242.82
397.58	1149.20
397.77	1224.10
397.97	1242.82
398.16	1210.06
398.35	1287.29
398.55	1191.33
398.74	1247.51
398.93	1242.82
399.12	1212.40
399.32	1226.44
399.51	1334.11
399.70	1284.95
399.90	1336.45
400.09	1350.49
400.28	1448.79
400.47	1322.40
400.67	1401.98
400.86	1366.87
401.05	1441.77
401.24	1366.87
401.44	1327.08
401.63	1355.17
401.82	1437.09
402.01	1385.60
402.21	1369.21
402.40	1523.69
402.59	1432.41
402.78	1348.15
402.97	1530.71
403.17	1502.62
403.36	1519.01
403.55	1465.18
403.74	1537.73
403.93	1589.22
404.13	1535.39
404.32	1493.26
404.51	1596.25
404.70	1551.78
404.89	1593.90
405.09	1638.38
405.28	1582.20
405.47	1638.38
405.66	1687.53
405.85	1781.15
406.05	1591.56
406.24	1724.97
406.43	1605.61
406.62	1720.29
406.81	1830.30
407.00	1596.25
407.20	1703.91
407.39	1689.87
407.58	1764.76
407.77	1797.53
407.96	1827.96
408.15	1748.38
408.34	1863.07
408.54	1811.57
408.73	1907.54
408.92	1907.54
409.11	1783.49
409.30	1912.22
409.49	1923.92
409.68	1907.54
409.87	1926.26
410.07	1937.96
410.26	1947.33
410.45	1879.45
410.64	2111.16
410.83	2031.58
411.02	2040.95
411.21	2139.25
411.40	2148.61
411.59	2071.37
411.78	2141.59
411.98	2078.40
412.17	2150.95
412.36	2207.13
412.55	2260.96
412.74	2202.44
412.93	2169.68
413.12	2183.72
413.31	2319.47
413.50	2342.88
413.69	2340.54
413.88	2392.03
414.07	2399.05
414.26	2429.48
414.45	2363.94
414.64	2349.90
414.83	2401.39
415.02	2607.36
415.22	2595.65
415.41	2551.18
415.60	2588.63
415.79	2628.42
415.98	2691.62
416.17	2642.46
416.36	2722.04
416.55	2612.04
416.74	2651.83
416.93	2715.02
417.12	2771.19
417.31	2761.83
417.50	2747.79
417.69	2871.84
417.88	2752.47
418.07	2637.78
418.26	2869.50
418.45	2836.73
418.64	2923.33
418.83	2916.31
419.02	2951.42
419.21	2909.29
419.39	2850.77
419.58	3066.10
419.77	2956.10
419.96	2958.44
420.15	3110.57
420.34	3033.33
420.53	2963.12
420.72	3206.53
420.91	3103.55
421.10	3166.74
421.29	3122.27
421.48	2960.78
421.67	3033.33
421.86	3225.26
422.05	3288.45
422.24	3105.89
422.43	3169.09
422.61	3162.06
422.80	3218.24
422.99	3239.30
423.18	3356.33
423.37	3316.54
423.56	3260.37
423.75	3288.45
423.94	3229.94
424.13	2993.55
424.32	3180.79
424.50	3260.37
424.69	3386.76
424.88	3311.86
425.07	3248.66
425.26	3225.26
425.45	3251.00
425.64	3281.43
425.83	3192.49
426.01	3274.41
426.20	3325.90
426.39	3386.76
426.58	3318.88
426.77	3262.71
426.96	3393.78
427.15	3396.12
427.33	3466.33
427.52	3391.44
427.71	3384.41
427.90	3454.63
428.09	3485.06
428.28	3620.81
428.46	3552.93
428.65	3529.53
428.84	3620.81
429.03	3574.00
429.22	3672.30
429.40	3655.92
429.59	3637.19
429.78	3433.57
429.97	3503.78
430.16	3728.47
430.34	3651.24
430.53	3751.88
430.72	3693.37
430.91	3779.97
431.10	3728.47
431.28	3805.71
431.47	3794.01
431.66	3889.97
431.85	3791.67
432.03	3805.71
432.22	3960.19
432.41	3936.78
432.60	4044.45
432.79	3915.72
432.97	3859.54
433.16	3915.72
433.35	3969.55
433.54	4002.32
433.72	4067.85
433.91	4091.26
434.10	4173.18
434.28	4039.76
434.47	4072.53
434.66	4121.68
434.85	4149.77
435.03	4028.06
435.22	4056.15
435.41	4194.24
435.59	4208.28
435.78	4250.41
435.97	4161.47
436.16	4212.96
436.34	4140.41
436.53	4327.65
436.72	4266.80
436.90	4250.41
437.09	4231.69
437.28	4189.56
437.46	4409.57
437.65	4306.59
437.84	4442.34
438.02	4491.49
438.21	4393.19
438.40	4367.44
438.58	4603.83
438.77	4631.92
438.96	4606.17
439.14	4720.86
439.33	4667.03
439.52	4667.03
439.70	4681.07
439.89	4896.40
440.08	4741.93
440.26	4964.28
440.45	4814.48
440.63	4840.23
440.82	5008.75
441.01	4800.44
441.19	4905.76
441.38	5025.13
441.57	5109.39
441.75	5022.79
441.94	5179.61
442.12	5184.29
442.31	5245.14
442.50	5174.92
442.68	5226.42
442.87	5149.18
443.05	5207.69
443.24	5263.86
443.43	5514.30
443.61	5289.61
443.80	5430.04
443.98	5287.27
444.17	5104.71
444.35	5341.10
444.54	5418.34
444.73	5364.51
444.91	5350.46
445.10	5378.55
445.28	5439.40
445.47	5383.23
445.65	5418.34
445.84	5607.92
446.02	5516.64
446.21	5303.65
446.39	5537.71
446.58	5565.79
446.77	5437.06
446.95	5437.06
447.14	5504.94
447.32	5565.79
447.51	5579.84
447.69	5298.97
447.88	5624.31
448.06	5650.05
448.25	5584.52
448.43	5530.69
448.62	5591.54
448.80	5621.97
448.99	5603.24
449.17	5680.48
449.36	5607.92
449.54	5879.43
449.73	5802.19
449.91	6008.16
450.10	5823.25
450.28	5994.11
450.46	5956.66
450.65	5905.17
450.83	5867.72
451.02	5893.47
451.20	5860.70
451.39	5846.66
451.57	5926.24
451.76	5930.92
451.94	5886.45
452.13	5961.34
452.31	6050.28
452.49	5877.09
452.68	6090.07
452.86	6193.06
453.05	6134.54
453.23	6012.84
453.42	6101.78
453.60	6113.48
453.78	6235.19
453.97	6134.54
454.15	5982.41
454.34	6136.88
454.52	6190.72
454.70	6324.13
454.89	6209.44
455.07	6349.87
455.26	6211.78
455.44	6289.02
455.62	6473.92
455.81	6370.94
455.99	6539.46
456.17	6480.94
456.36	6389.66
456.54	6583.93
456.73	6574.56
456.91	6628.40
457.09	6722.02
457.28	6775.85
457.46	6647.12
457.64	6679.89
457.83	6717.34
458.01	6794.58
458.19	6850.75
458.38	6850.75
458.56	6832.02
458.74	6857.77
458.93	6869.47
459.11	7122.25
459.29	6834.36
459.48	6853.09
459.66	7019.27
459.84	6927.99
460.03	7105.87
460.21	7227.57
460.39	6902.24
460.57	6993.52
460.76	7222.89
460.94	7126.93
461.12	7122.25
461.31	7178.42
461.49	7145.66
461.67	7073.10
461.85	7227.57
462.04	7239.28
462.22	7906.33
462.40	7255.66
462.59	7377.37
462.77	7398.43
462.95	7363.33
463.13	7578.65
463.32	7468.65
463.50	7330.56
463.68	7489.71
463.86	7604.40
464.05	7435.88
464.23	7564.61
464.41	7555.25
464.59	7470.99
464.78	7648.87
464.96	7728.45
465.14	7763.56
465.32	7747.17
465.50	7756.54
465.69	7831.43
465.87	7789.30
466.05	7831.43
466.23	7784.62
466.41	7894.63
466.60	7934.42
466.78	7744.83
466.96	7660.57
467.14	7733.13
467.32	8184.85
467.51	8107.62
467.69	7646.53
467.87	7988.25
468.05	8128.68
468.23	7887.61
468.41	7868.88
468.60	8086.55
468.78	8002.29
468.96	8119.32
469.14	8128.68
469.32	8376.78
469.50	8154.43
469.69	8280.82
469.87	8301.88
470.05	8351.03
470.23	8521.89
470.41	8322.94
470.59	8341.67
470.77	8395.50
470.95	8503.17
471.14	8624.87
471.32	8257.41
471.50	8575.72
471.68	8812.12
471.86	8685.73
472.04	8755.94
472.22	8940.85
472.40	8840.20
472.58	8905.74
472.77	8772.33
472.95	8788.71
473.13	9104.68
473.31	8978.30
473.49	8992.34
473.67	9069.58
473.85	9137.45
474.03	9172.56
474.21	9315.33
474.39	9467.47
474.57	9338.74
474.75	9324.69
474.93	9619.60
475.12	9434.70
475.30	9715.56
475.48	9441.72
475.66	9631.30
475.84	9708.54
476.02	9713.22
476.20	9848.97
476.38	9933.23
476.56	10038.56
476.74	10228.14
476.92	10141.54
477.10	10005.79
477.28	10214.10
477.46	10050.26
477.64	10417.72
477.82	10572.20
478.00	10700.93
478.18	10562.84
478.36	10499.64
478.54	10920.94
478.72	11073.07
478.90	10911.58
479.08	11089.46
479.26	11206.48
479.44	11325.85
479.62	11211.17
479.80	11506.07
479.98	11379.68
480.16	11756.51
480.34	11599.70
480.52	11880.56
480.70	11800.98
480.88	11751.83
481.06	11681.61
481.24	11960.14
481.41	11953.12
481.59	12145.04
481.77	12285.47
481.95	12280.79
482.13	12334.62
482.31	12348.67
482.49	12512.50
482.67	12966.57
482.85	12795.71
483.03	13034.44
483.21	12877.63
483.39	13074.23
483.57	13252.11
483.74	13226.37
483.92	13411.27
484.10	13467.44
484.28	13729.58
484.46	13776.39
484.64	13825.54
484.82	13823.20
485.00	13642.98
485.18	14295.99
485.35	14417.70
485.53	14441.11
485.71	14595.58
485.89	14677.50
486.07	14754.74
486.25	14750.06
486.43	14766.44
486.61	15082.41
486.78	15054.33
486.96	15112.84
487.14	15452.22
487.32	15066.03
487.50	15442.85
487.68	15599.67
487.85	15805.64
488.03	16053.73
488.21	16276.09
488.39	16318.22
488.57	16425.88
488.75	16360.34
488.92	16769.94
489.10	16673.98
489.28	16730.15
489.46	17135.06
489.64	16746.53
489.81	17338.69
489.99	17289.54
490.17	17308.26
490.35	17657.00
490.53	17610.19
490.70	17387.84
490.88	17848.93
491.06	18047.87
491.24	17935.53
491.41	18045.53
491.59	17933.18
491.77	18398.95
491.95	18398.95
492.13	18703.22
492.30	18672.79
492.48	18773.44
492.66	18719.60
492.84	19232.18
493.01	19133.88
493.19	19412.40
493.37	19545.81
493.54	19625.39
493.72	19667.52
493.90	19679.22
494.08	19866.47
494.25	19941.36
494.43	20023.28
494.61	20404.79
494.79	20194.14
494.96	20437.56
495.14	20561.61
495.32	20683.31
495.49	20624.80
495.67	20702.04
495.85	20776.94
496.02	21308.24
496.20	20957.16
496.38	21355.05
496.55	21071.84
496.73	22047.85
496.91	21500.16
497.09	21614.85
497.26	21933.16
497.44	22036.14
497.62	22148.49
497.79	22434.03
497.97	22139.13
498.14	22682.13
498.32	22782.77
498.50	22586.17
498.67	22920.87
498.85	23005.13
499.03	23065.98
499.20	22981.72
499.38	23243.86
499.56	23318.76
499.73	23288.33
499.91	23307.05
500.08	23498.98
500.26	23276.63
500.44	23632.39
500.61	23744.73
500.79	23796.23
500.97	23651.11
501.14	24210.50
501.32	24196.46
501.49	24142.63
501.67	24292.42
501.84	24329.87
502.02	24458.60
502.20	24364.98
502.37	24444.56
502.55	24716.06
502.72	24748.82
502.90	24517.11
503.07	24538.18
503.25	24929.05
503.43	24819.04
503.60	25153.74
503.78	25406.52
503.95	25366.73
504.13	25357.36
504.30	25488.43
504.48	25261.40
504.65	25752.91
504.83	25876.96
505.01	25788.02
505.18	25729.51
505.36	26370.82
505.53	26005.69
505.71	26040.80
505.88	25883.98
506.06	25848.88
506.23	26335.71
506.41	26061.87
506.58	26270.17
506.76	26520.61
506.93	26412.95
507.11	26831.90
507.28	26651.68
507.46	26696.15
507.63	26916.16
507.81	27342.14
507.98	26932.54
508.16	26857.65
508.33	27292.99
508.50	27402.99
508.68	27545.76
508.85	27723.65
509.03	27241.50
509.20	27456.82
509.38	28226.86
509.55	27800.88
509.73	27695.56
509.90	28027.92
510.08	28247.93
510.25	28254.95
510.42	28072.39
510.60	28240.90
510.77	28538.15
510.95	28821.36
511.12	28402.40
511.30	28650.50
511.47	28774.55
511.64	28694.97
511.82	28814.34
511.99	28903.28
512.17	29118.60
512.34	28816.68
512.51	29462.66
512.69	29556.28
512.86	29401.81
513.04	29495.43
513.21	29139.67
513.38	29926.09
513.56	29689.70
513.73	29741.19
513.90	29914.39
514.08	29443.94
514.25	29998.65
514.43	30068.86
514.60	30361.43
514.77	30134.40
514.95	30429.30
515.12	30082.91
515.29	30141.42
515.47	30834.22
515.64	30553.35
515.81	30256.11
515.99	30719.53
516.16	30937.20
516.33	30965.29
516.51	31164.23
516.68	31115.08
516.85	30888.05
517.03	31079.97
517.20	31288.28
517.37	31002.74
517.54	31241.47
517.72	31173.60
517.89	31613.62
518.06	31686.17
518.24	31342.11
518.41	31615.96
518.58	31215.72
518.75	31608.93
518.93	32173.00
519.10	31936.61
519.27	32116.83
519.45	32051.30
519.62	32285.35
519.79	32065.34
519.96	31960.02
520.14	32187.05
520.31	32224.50
520.48	32311.10
520.65	32573.24
520.83	33081.13
521.00	32601.32
521.17	32687.92
521.34	32615.37
521.52	32875.16
521.69	32772.18
521.86	32687.92
522.03	33088.15
522.20	33310.50
522.38	33450.94
522.55	33495.41
522.72	33539.88
522.89	33481.36
523.07	33610.09
523.24	33446.26
523.41	34251.40
523.58	33715.42
523.75	34202.25
523.92	33666.27
524.10	33933.09
524.27	33743.50
524.44	33677.97
524.61	34277.15
524.78	34333.32
524.96	34478.43
525.13	34450.35
525.30	34499.50
525.47	34155.44
525.64	34448.00
525.81	34675.04
525.98	34590.78
526.16	34714.83
526.33	34665.67
526.50	34904.41
526.67	34817.81
526.84	35187.61
527.01	34925.47
527.18	34909.09
527.36	35407.62
527.53	34988.67
527.70	35299.96
527.87	35550.40
528.04	35239.11
528.21	35091.65
528.38	35035.48
528.55	35754.02
528.72	35611.25
528.89	35665.08
529.07	35353.79
529.24	35274.21
529.41	36053.61
529.58	35842.96
529.75	35833.60
529.92	35721.26
530.09	35676.79
530.26	35768.07
530.43	36020.84
530.60	35908.50
530.77	35945.95
530.94	36336.82
531.11	35845.30
531.28	35714.23
531.46	36222.13
531.63	36421.08
531.80	36617.68
531.97	36514.70
532.14	36229.15
532.31	35992.76
532.48	36741.73
532.65	36858.76
532.82	36739.39
532.99	36350.86
533.16	36697.26
533.33	37497.72
533.50	36910.25
533.67	36889.18
533.84	36879.82
534.01	36968.76
534.18	36818.97
534.35	37062.38
534.52	37230.90
534.69	37493.04
534.86	37228.56
535.03	37462.61
535.20	37851.14
535.37	37315.16
535.54	37598.37
535.71	37408.78
535.88	37670.92
536.05	37832.42
536.22	37844.12
536.38	38007.96
536.55	38375.42
536.72	37801.99
536.89	37645.18
537.06	37923.70
537.23	37904.98
537.40	37965.83
537.57	37996.26
537.74	38129.67
537.91	38321.59
538.08	38234.99
538.25	38141.37
538.42	38550.96
538.59	38291.16
538.75	38150.73
538.92	38506.49
539.09	38813.10
539.26	38555.64
539.43	38597.77
539.60	39026.09
539.77	38653.95
539.94	38827.15
540.11	38663.31
540.28	39009.71
540.44	38969.92
540.61	38902.04
540.78	38710.12
540.95	38527.56
541.12	38553.30
541.29	38871.62
541.46	39295.25
541.62	39203.97
541.79	39124.40
541.96	38862.26
542.13	38948.85
542.30	39182.91
542.47	39246.10
542.63	39325.68
542.80	39435.69
542.97	39999.76
543.14	40184.66
543.31	39700.17
543.48	40041.88
543.64	40189.34
543.81	40203.38
543.98	39807.83
544.15	39936.56
544.32	40247.85
544.48	40559.14
544.65	40385.94
544.82	40589.57
544.99	40088.70
545.16	40238.49
545.32	40472.54
545.49	40741.71
545.66	40589.57
545.83	40760.43
546.00	40561.48
546.16	40355.52
546.33	40437.44
546.50	40615.32
546.67	40891.50
546.83	40329.77
547.00	40425.73
547.17	40774.47
547.34	40500.63
547.50	41125.55
547.67	40903.20
547.84	40795.54
548.00	41221.52
548.17	41551.53
548.34	41228.54
548.51	41425.14
548.67	41242.58
548.84	41340.88
549.01	41191.09
549.18	40858.73
549.34	41280.03
549.51	41577.28
549.68	41366.63
549.84	41324.50
550.01	41436.84
550.18	41085.76
550.34	41846.44
550.51	42017.30
550.68	41734.09
550.84	41333.86
551.01	41816.01
551.18	41303.43
551.34	41738.77
551.51	41872.18
551.68	41640.47
551.84	42085.17
552.01	42211.56
552.18	41844.10
552.34	41820.69
552.51	42218.58
552.68	41661.54
552.84	42295.82
553.01	42155.39
553.18	41982.19
553.34	41947.08
553.51	42394.12
553.67	42087.51
553.84	42183.48
554.01	42609.45
554.17	42600.09
554.34	42234.97
554.51	42251.35
554.67	42443.27
554.84	42483.06
555.00	42644.56
555.17	42632.86
555.33	42543.92
555.50	42557.96
555.67	42726.48
555.83	42405.83
556.00	42930.11
556.16	43316.29
556.33	42976.92
556.50	42628.18
556.66	42770.95
556.83	42628.18
556.99	43325.66
557.16	43100.97
557.32	43044.79
557.49	43306.93
557.65	43023.73
557.82	43339.70
557.98	43026.07
558.15	42829.46
558.32	43271.82
558.48	43063.52
558.65	43075.22
558.81	43405.23
558.98	43103.31
559.14	42850.53
559.31	43173.52
559.47	43100.97
559.64	43468.43
559.80	43573.75
559.97	43217.99
560.13	43360.76
560.30	43365.45
560.46	43419.28
560.63	44027.82
560.79	43608.86
560.96	43435.66
561.12	43962.28
561.29	43646.31
561.45	43585.46
561.61	43613.54
561.78	43629.93
561.94	43278.85
562.11	43562.05
562.27	43789.08
562.44	43529.28
562.60	44027.82
562.77	44072.29
562.93	43421.62
563.10	43866.32
563.26	43789.08
563.42	44201.02
563.59	43981.01
563.75	43683.76
563.92	43761.00
564.08	44165.91
564.24	43995.05
564.41	44224.42
564.57	44299.32
564.74	44222.08
564.90	44065.27
565.07	43927.17
565.23	44121.44
565.39	44135.48
565.56	44161.23
565.72	44051.22
565.88	44226.76
566.05	44273.57
566.21	44650.40
566.38	44048.88
566.54	44165.91
566.70	44495.92
566.87	44425.71
567.03	43772.70
567.19	44217.40
567.36	44385.92
567.52	44404.64
567.68	44879.77
567.85	44505.29
568.01	44570.82
568.17	44053.56
568.34	44624.65
568.50	44715.93
568.66	44107.40
568.83	44732.32
568.99	44189.31
569.15	44645.72
569.32	44313.36
569.48	44589.55
569.64	44961.69
569.81	44734.66
569.97	45074.04
570.13	44872.75
570.30	44575.50
570.46	44313.36
570.62	44638.70
570.78	44385.92
570.95	44807.22
571.11	44926.58
571.27	44186.97
571.43	44748.70
571.60	44847.00
571.76	44591.89
571.92	44568.48
572.09	44516.99
572.25	44755.72
572.41	44626.99
572.57	44191.65
572.74	44842.32
572.90	45427.46
573.06	44720.62
573.22	44732.32
573.38	44575.50
573.55	44999.14
573.71	45034.25
573.87	45006.16
574.03	44652.74
574.20	44659.76
574.36	45373.63
574.52	45050.63
574.68	45198.09
574.84	45088.08
575.01	45153.62
575.17	45387.67
575.33	44751.04
575.49	44900.84
575.65	45214.47
575.82	45024.89
575.98	44788.49
576.14	45228.51
576.30	45511.72
576.46	45130.21
576.62	44912.54
576.79	45027.23
576.95	44568.48
577.11	44751.04
577.27	45125.53
577.43	44795.51
577.59	45076.38
577.75	44603.59
577.92	44715.93
578.08	45036.59
578.24	45556.19
578.40	44903.18
578.56	44985.10
578.72	44978.07
578.88	45116.17
579.04	44865.73
579.21	45301.07
579.37	45081.06
579.53	45207.45
579.69	44898.50
579.85	44680.83
580.01	44914.88
580.17	45024.89
580.33	45212.13
580.49	44832.96
580.65	45090.42
580.82	45312.77
580.98	44868.07
581.14	44919.56
581.30	45008.50
581.46	45184.04
581.62	45106.80
581.78	44811.90
581.94	45298.73
582.10	44971.05
582.26	44847.00
582.42	44889.13
582.58	45450.86
582.74	45254.26
582.90	45401.71
583.06	45488.31
583.22	45179.36
583.38	44947.65
583.54	45439.16
583.70	45184.04
583.86	44957.01
584.02	45055.31
584.18	45485.97
584.34	45727.05
584.50	45839.39
584.66	45303.41
584.82	45191.06
584.98	45322.13
585.14	45251.92
585.30	45385.33
585.46	45272.98
585.62	45319.79
585.78	45633.42
585.94	45043.61
586.10	45457.88
586.26	45008.50
586.42	45247.24
586.58	45057.65
586.74	45003.82
586.90	45258.94
587.06	45083.40
587.22	45441.50
587.38	45441.50
587.54	45366.60
587.70	45598.32
587.86	45776.20
588.02	45291.71
588.18	45347.88
588.34	45633.42
588.49	45418.10
588.65	44912.54
588.81	45170.00
588.97	45411.07
589.13	45368.94
589.29	45368.94
589.45	45495.33
589.61	45624.06
589.77	45523.42
589.93	45483.63
590.08	45720.02
