SpectraSuite Data File
++++++++++++++++++++++++++++++++++++
Date: Fri Oct 25 11:33:26 EDT 2013
User: price-jones
Dark Spectrum Present: No
Reference Spectrum Present: No
Number of Sampled Component Spectra: 1
Spectrometers: USB2+H05261
Integration Time (usec): 100000 (USB2+H05261)
Spectra Averaged: 1 (USB2+H05261)
Boxcar Smoothing: 0 (USB2+H05261)
Correct for Electrical Dark: No (USB2+H05261)
Strobe/Lamp Enabled: No (USB2+H05261)
Correct for Detector Non-linearity: No (USB2+H05261)
Correct for Stray Light: No (USB2+H05261)
Number of Pixels in Processed Spectrum: 2048
>>>>>Begin Processed Spectral Data<<<<<
365.73	306.61
365.92	306.61
366.12	306.61
366.32	173.20
366.52	234.05
366.72	238.73
366.91	208.31
367.11	180.22
367.31	182.56
367.51	149.79
367.70	187.24
367.90	175.54
368.10	154.48
368.30	173.20
368.49	149.79
368.69	222.35
368.89	145.11
369.09	189.58
369.28	182.56
369.48	196.60
369.68	332.36
369.87	262.14
370.07	243.42
370.27	180.22
370.47	285.55
370.66	428.32
370.86	550.03
371.06	603.86
371.25	627.26
371.45	540.66
371.65	554.71
371.84	519.60
372.04	547.69
372.24	601.52
372.44	599.18
372.63	552.37
372.83	543.00
373.03	592.16
373.22	578.11
373.42	613.22
373.62	587.47
373.81	636.63
374.01	578.11
374.21	648.33
374.40	606.20
374.60	671.73
374.79	613.22
374.99	660.03
375.19	662.37
375.38	732.59
375.58	669.39
375.78	662.37
375.97	624.92
376.17	727.91
376.37	737.27
376.56	739.61
376.76	641.31
376.95	664.71
377.15	730.25
377.35	695.14
377.54	720.88
377.74	688.12
377.93	744.29
378.13	713.86
378.33	781.74
378.52	744.29
378.72	767.70
378.91	805.14
379.11	681.10
379.31	730.25
379.50	638.97
379.70	784.08
379.89	763.01
380.09	636.63
380.28	723.23
380.48	751.31
380.68	802.80
380.87	791.10
381.07	748.97
381.26	723.23
381.46	802.80
381.65	777.06
381.85	748.97
382.04	765.36
382.24	814.51
382.43	837.91
382.63	807.48
382.83	814.51
383.02	812.17
383.22	844.93
383.41	779.40
383.61	784.08
383.80	929.19
384.00	802.80
384.19	833.23
384.39	863.66
384.58	833.23
384.78	809.83
384.97	774.72
385.17	887.06
385.36	812.17
385.56	851.96
385.75	795.78
385.95	889.40
386.14	851.96
386.34	877.70
386.53	894.08
386.72	868.34
386.92	842.59
387.11	814.51
387.31	915.15
387.50	915.15
387.70	915.15
387.89	929.19
388.09	945.58
388.28	863.66
388.48	847.27
388.67	1041.54
388.86	990.05
389.06	922.17
389.25	905.79
389.45	1006.43
389.64	950.26
389.84	992.39
390.03	978.34
390.22	976.00
390.42	1022.81
390.61	1039.20
390.81	936.21
391.00	922.17
391.19	1025.15
391.39	1004.09
391.58	1053.24
391.78	992.39
391.97	968.98
392.16	1001.75
392.36	1039.20
392.55	1083.67
392.75	1076.65
392.94	938.55
393.13	1025.15
393.33	1032.18
393.52	1032.18
393.71	1174.95
393.91	1090.69
394.10	1069.62
394.29	1102.39
394.49	1219.42
394.68	1170.27
394.88	1144.52
395.07	1186.65
395.26	1158.57
395.46	1210.06
395.65	1196.01
395.84	1163.25
396.04	1221.76
396.23	1273.25
396.42	1184.31
396.62	1191.33
396.81	1191.33
397.00	1224.10
397.19	1196.01
397.39	1184.31
397.58	1355.17
397.77	1245.16
397.97	1273.25
398.16	1193.67
398.35	1308.36
398.55	1359.85
398.74	1275.59
398.93	1317.72
399.12	1380.92
399.32	1387.94
399.51	1315.38
399.70	1291.98
399.90	1315.38
400.09	1362.19
400.28	1329.42
400.47	1355.17
400.67	1313.04
400.86	1404.32
401.05	1444.11
401.24	1404.32
401.44	1493.26
401.63	1387.94
401.82	1511.99
402.01	1451.13
402.21	1409.00
402.40	1661.78
402.59	1509.65
402.78	1481.56
402.97	1490.92
403.17	1547.09
403.36	1544.75
403.55	1563.48
403.74	1596.25
403.93	1589.22
404.13	1568.16
404.32	1586.88
404.51	1589.22
404.70	1668.80
404.89	1659.44
405.09	1792.85
405.28	1643.06
405.47	1748.38
405.66	1650.08
405.85	1760.08
406.05	1797.53
406.24	1774.13
406.43	1727.32
406.62	1820.94
406.81	1806.89
407.00	1774.13
407.20	1832.64
407.39	1797.53
407.58	1872.43
407.77	1865.41
407.96	1842.00
408.15	2005.84
408.34	1867.75
408.54	1895.83
408.73	1984.77
408.92	1961.37
409.11	1930.94
409.30	2019.88
409.49	2005.84
409.68	1980.09
409.87	2031.58
410.07	1933.28
410.26	2106.48
410.45	1994.14
410.64	1996.48
410.83	2097.12
411.02	2083.08
411.21	2073.71
411.40	2087.76
411.59	2286.70
411.78	2270.32
411.98	2246.91
412.17	2223.51
412.36	2244.57
412.55	2258.62
412.74	2307.77
412.93	2321.81
413.12	2204.78
413.31	2499.69
413.50	2406.07
413.69	2401.39
413.88	2403.73
414.07	2469.27
414.26	2459.90
414.45	2492.67
414.64	2628.42
414.83	2555.86
415.02	2665.87
415.22	2647.15
415.41	2649.49
415.60	2729.06
415.79	2684.59
415.98	2820.35
416.17	2785.24
416.36	2752.47
416.55	2789.92
416.74	2932.69
416.93	2780.56
417.12	2785.24
417.31	2883.54
417.50	2963.12
417.69	2949.08
417.88	2829.71
418.07	2953.76
418.26	3028.65
418.45	2995.89
418.64	3061.42
418.83	3052.06
419.02	3033.33
419.21	3145.68
419.39	3089.51
419.58	3028.65
419.77	3052.06
419.96	3185.47
420.15	3229.94
420.34	3122.27
420.53	3269.73
420.72	3295.47
420.91	3276.75
421.10	3229.94
421.29	3332.92
421.48	3295.47
421.67	3220.58
421.86	3098.87
422.05	3569.32
422.24	3246.32
422.43	3307.18
422.61	3328.24
422.80	3501.44
422.99	3435.91
423.18	3391.44
423.37	3529.53
423.56	3613.79
423.75	3398.46
423.94	3248.66
424.13	3311.86
424.32	3283.77
424.50	3515.48
424.69	3478.04
424.88	3566.98
425.07	3475.70
425.26	3485.06
425.45	3658.26
425.64	3358.67
425.83	3482.72
426.01	3550.59
426.20	3463.99
426.39	3454.63
426.58	3471.01
426.77	3571.66
426.96	3676.98
427.15	3585.70
427.33	3646.55
427.52	3452.29
427.71	3581.02
427.90	3449.95
428.09	3574.00
428.28	3695.71
428.46	3681.66
428.65	3632.51
428.84	3810.39
429.03	3812.73
429.22	3655.92
429.40	3733.15
429.59	3763.58
429.78	3726.13
429.97	3716.77
430.16	3854.86
430.34	3808.05
430.53	3882.95
430.72	3943.80
430.91	3840.82
431.10	3817.41
431.28	3892.31
431.47	3939.12
431.66	3983.59
431.85	4021.04
432.03	3997.64
432.22	4102.96
432.41	4149.77
432.60	3964.87
432.79	4067.85
432.97	3999.98
433.16	4114.66
433.35	4081.89
433.54	4241.05
433.72	4189.56
433.91	4191.90
434.10	4114.66
434.28	4217.65
434.47	4112.32
434.66	4334.67
434.85	4271.48
435.03	4435.32
435.22	4236.37
435.41	4489.15
435.59	4362.76
435.78	4456.38
435.97	4327.65
436.16	4327.65
436.34	4622.56
436.53	4538.30
436.72	4557.02
436.90	4348.72
437.09	4557.02
437.28	4454.04
437.46	4629.58
437.65	4559.36
437.84	4690.43
438.02	4737.24
438.21	4568.73
438.40	4634.26
438.58	4697.46
438.77	4882.36
438.96	4716.18
439.14	4966.62
439.33	4851.93
439.52	4861.29
439.70	4929.17
439.89	5085.98
440.08	4975.98
440.26	5135.14
440.45	5039.17
440.63	5025.13
440.82	5064.92
441.01	5167.90
441.19	5327.06
441.38	5195.99
441.57	5383.23
441.75	5444.09
441.94	5364.51
442.12	5401.96
442.31	5392.59
442.50	5462.81
442.68	5514.30
442.87	5542.39
443.05	5509.62
443.24	5781.12
443.43	5479.19
443.61	5488.56
443.80	5795.17
443.98	5631.33
444.17	5465.15
444.35	5528.35
444.54	5783.46
444.73	5827.93
444.91	5844.32
445.10	5778.78
445.28	5584.52
445.47	5589.20
445.65	5769.42
445.84	5909.85
446.02	5823.25
446.21	5846.66
446.39	5743.67
446.58	5785.80
446.77	5760.06
446.95	5533.03
447.14	5802.19
447.32	5706.23
447.51	5668.78
447.69	5729.63
447.88	5928.58
448.06	5762.40
448.25	5710.91
448.43	5797.51
448.62	5727.29
448.80	6001.13
448.99	5935.60
449.17	6066.67
449.36	5893.47
449.54	5928.58
449.73	6043.26
449.91	6139.23
450.10	6174.33
450.28	6237.53
450.46	6235.19
450.65	6162.63
450.83	6031.56
451.02	6097.10
451.20	6338.17
451.39	6345.19
451.57	6193.06
451.76	6129.86
451.94	6368.60
452.13	6363.92
452.31	6279.66
452.49	6167.31
452.68	6228.17
452.86	6333.49
453.05	6511.37
453.23	6607.33
453.42	6303.06
453.60	6368.60
453.78	6513.71
453.97	6424.77
454.15	6588.61
454.34	6544.14
454.52	6541.80
454.70	6370.94
454.89	6675.21
455.07	6691.59
455.26	6527.75
455.44	6541.80
455.62	6663.51
455.81	6588.61
455.99	6935.01
456.17	6768.83
456.36	6853.09
456.54	6923.30
456.73	7035.65
456.91	7255.66
457.09	7007.56
457.28	7159.70
457.46	7059.06
457.64	6970.12
457.83	7190.13
458.01	7047.35
458.19	7323.54
458.38	7286.09
458.56	7335.24
458.74	7157.36
458.93	7265.02
459.11	7379.71
459.29	7190.13
459.48	7297.79
459.66	7227.57
459.84	7363.33
460.03	7475.67
460.21	7522.48
460.39	7389.07
460.57	7290.77
460.76	7588.02
460.94	7524.82
461.12	7480.35
461.31	7583.34
461.49	7576.31
461.67	7419.50
461.85	7702.70
462.04	7770.58
462.22	8159.11
462.40	7901.65
462.59	7838.45
462.77	7953.14
462.95	7698.02
463.13	7974.21
463.32	7798.66
463.50	7925.05
463.68	7915.69
463.86	8067.83
464.05	7922.71
464.23	7971.86
464.41	7976.55
464.59	7779.94
464.78	8009.31
464.96	8119.32
465.14	8004.63
465.32	8112.30
465.50	8100.59
465.69	8133.36
465.87	8004.63
466.05	8107.62
466.23	7974.21
466.41	8315.92
466.60	8418.91
466.78	8290.18
466.96	8290.18
467.14	8250.39
467.32	8416.57
467.51	8369.76
467.69	8173.15
467.87	8325.29
468.05	8397.84
468.23	8479.76
468.41	8472.74
468.60	8540.61
468.78	8688.07
468.96	8521.89
469.14	8718.50
469.32	8725.52
469.50	8519.55
469.69	8709.13
469.87	8762.97
470.05	8992.34
470.23	8978.30
470.41	8840.20
470.59	8966.59
470.77	8812.12
470.95	8912.76
471.14	9207.67
471.32	8973.61
471.50	9074.26
471.68	9050.85
471.86	9083.62
472.04	9476.83
472.22	9327.03
472.40	9036.81
472.58	9413.63
472.77	9406.61
472.95	9341.08
473.13	9657.05
473.31	9458.10
473.49	9490.87
473.67	9640.67
473.85	9556.41
474.03	9954.30
474.21	9933.23
474.39	9919.19
474.57	9764.72
474.75	9827.91
474.93	10148.56
475.12	9951.96
475.30	10017.49
475.48	9935.57
475.66	10052.60
475.84	10328.78
476.02	10347.51
476.20	10286.65
476.38	10326.44
476.56	10698.59
476.74	10644.76
476.92	10525.39
477.10	10754.76
477.28	10796.89
477.46	10934.98
477.64	10850.72
477.82	11002.86
478.00	11220.53
478.18	11208.83
478.36	11150.31
478.54	11564.59
478.72	11529.48
478.90	11520.12
479.08	11630.12
479.26	11772.89
479.44	11836.09
479.62	11850.13
479.80	11857.15
479.98	12332.28
480.16	12304.20
480.34	12154.40
480.52	12351.01
480.70	12556.97
480.88	12322.92
481.06	12486.76
481.24	12306.54
481.41	12606.13
481.59	12926.78
481.77	12851.88
481.95	12868.27
482.13	13064.87
482.31	12833.16
482.49	13359.78
482.67	13556.38
482.85	13509.57
483.03	13879.38
483.21	13600.85
483.39	13825.54
483.57	13680.43
483.74	14026.83
483.92	14139.18
484.10	14106.41
484.28	14368.55
484.46	14459.83
484.64	14892.83
484.82	14490.26
485.00	14925.60
485.18	15166.67
485.35	15213.48
485.53	15096.46
485.71	15267.31
485.89	15417.11
486.07	15382.00
486.25	15548.18
486.43	15819.68
486.61	15625.42
486.78	15826.70
486.96	15981.18
487.14	16142.67
487.32	16395.45
487.50	16437.58
487.68	16561.63
487.85	16805.05
488.03	16826.11
488.21	17104.64
488.39	17163.15
488.57	17247.41
488.75	17343.37
488.92	17291.88
489.10	17561.04
489.28	17867.65
489.46	18118.09
489.64	17919.14
489.81	18057.23
489.99	18284.26
490.17	18698.54
490.35	18487.89
490.53	18754.71
490.70	18757.05
490.88	18860.04
491.06	18813.23
491.24	19030.90
491.41	19431.13
491.59	19194.73
491.77	19304.74
491.95	19569.22
492.13	19676.88
492.30	19908.60
492.48	19960.09
492.66	19992.86
492.84	20079.46
493.01	20341.60
493.19	20353.30
493.37	20795.66
493.54	20444.58
493.72	20861.19
493.90	20847.15
494.08	21221.64
494.25	20837.79
494.43	20936.09
494.61	21355.05
494.79	21177.17
494.96	21514.20
495.14	21792.73
495.32	21975.29
495.49	22148.49
495.67	21851.24
495.85	22038.48
496.02	22260.84
496.20	22530.00
496.38	22558.08
496.55	22192.96
496.73	23089.38
496.91	22691.49
497.09	23175.98
497.26	23098.75
497.44	23075.34
497.62	23145.56
497.79	23468.55
497.97	23613.66
498.14	23946.02
498.32	24154.33
498.50	24184.76
498.67	24144.97
498.85	23957.72
499.03	24100.50
499.20	24627.12
499.38	24526.47
499.56	24489.03
499.73	24737.12
499.91	24823.72
500.08	24779.25
500.26	24685.63
500.44	24952.45
500.61	24950.11
500.79	25010.96
500.97	24872.87
501.14	25406.52
501.32	25593.76
501.49	25415.88
501.67	25560.99
501.84	25551.63
502.02	25809.09
502.20	26038.46
502.37	25778.66
502.55	25788.02
502.72	26185.91
502.90	26125.06
503.07	25954.20
503.25	26214.00
503.43	26108.68
503.60	26623.59
503.78	26450.39
503.95	26459.76
504.13	26471.46
504.30	27033.19
504.48	26590.83
504.65	27005.10
504.83	27480.23
505.01	27730.67
505.18	27688.54
505.36	27662.79
505.53	27346.82
505.71	27503.64
505.88	27585.55
506.06	27489.59
506.23	27725.99
506.41	27417.04
506.58	27985.79
506.76	27903.87
506.93	28383.68
507.11	27950.68
507.28	28163.67
507.46	28233.88
507.63	28610.71
507.81	28580.28
507.98	28617.73
508.16	28636.45
508.33	28858.81
508.50	28697.31
508.68	28730.08
508.85	28875.19
509.03	29240.31
509.20	29476.71
509.38	29844.17
509.55	29500.11
509.73	29394.79
509.90	29633.52
510.08	29771.61
510.25	29958.86
510.42	30185.89
510.60	29689.70
510.77	29977.58
510.95	30501.86
511.12	30237.38
511.30	30433.99
511.47	30534.63
511.64	30239.72
511.82	30515.90
511.99	30326.32
512.17	30581.44
512.34	30728.89
512.51	31239.13
512.69	31108.06
512.86	30820.17
513.04	31206.36
513.21	31182.96
513.38	31206.36
513.56	31433.39
513.73	31222.75
513.90	31744.69
514.08	31800.86
514.25	31597.23
514.43	32165.98
514.60	31936.61
514.77	31859.37
514.95	31840.65
515.12	31985.76
515.29	32236.20
515.47	32107.47
515.64	32032.57
515.81	32634.09
515.99	32086.40
516.16	32793.25
516.33	32589.62
516.51	32755.80
516.68	32751.12
516.85	32615.37
517.03	32833.04
517.20	33046.02
517.37	32783.88
517.54	32835.38
517.72	33184.12
517.89	33340.93
518.06	33235.61
518.24	33303.48
518.41	33476.68
518.58	33308.16
518.75	33343.27
518.93	33738.82
519.10	33818.40
519.27	33734.14
519.45	33699.03
519.62	33776.27
519.79	33886.28
519.96	34099.26
520.14	34635.25
520.31	34139.05
520.48	34078.20
520.65	34113.31
520.83	34433.96
521.00	34710.14
521.17	34649.29
521.34	34595.46
521.52	34815.47
521.69	34590.78
521.86	34937.18
522.03	35503.59
522.20	34850.58
522.38	35655.72
522.55	35281.24
522.72	35732.96
522.89	35325.71
523.07	35772.75
523.24	35241.45
523.41	35555.08
523.58	35440.39
523.75	35679.13
523.92	35463.80
524.10	35629.98
524.27	35924.88
524.44	36004.46
524.61	36055.95
524.78	35737.64
524.96	36306.39
525.13	35758.70
525.30	36301.71
525.47	36568.53
525.64	36282.98
525.81	36327.45
525.98	36996.85
526.16	36343.84
526.33	36439.80
526.50	36725.35
526.67	36371.92
526.84	36467.89
527.01	37060.04
527.18	37015.57
527.36	37148.98
527.53	36776.84
527.70	37069.40
527.87	37865.19
528.04	36917.27
528.21	37507.08
528.38	37223.88
528.55	37507.08
528.72	37376.01
528.89	37411.12
529.07	37780.93
529.24	37041.32
529.41	37897.95
529.58	37642.84
529.75	37710.71
529.92	37993.92
530.09	38153.07
530.26	37696.67
530.43	38162.43
530.60	37785.61
530.77	38183.50
530.94	38565.01
531.11	38401.17
531.28	38052.43
531.46	38333.29
531.63	38595.43
531.80	38361.38
531.97	38455.00
532.14	38630.54
532.31	38466.70
532.48	38990.98
532.65	38873.96
532.82	38770.97
532.99	38616.50
533.16	38911.41
533.33	38953.54
533.50	38965.24
533.67	39028.43
533.84	38450.32
534.01	39063.54
534.18	39182.91
534.35	39426.32
534.52	39779.74
534.69	39480.16
534.86	39686.12
535.03	39442.71
535.20	39714.21
535.37	39440.37
535.54	39856.98
535.71	39824.22
535.88	40053.59
536.05	40023.16
536.22	40109.76
536.38	40006.78
536.55	39847.62
536.72	39814.85
536.89	39559.73
537.06	39805.49
537.23	40346.15
537.40	39585.48
537.57	40048.91
537.74	40051.25
537.91	40299.34
538.08	40907.88
538.25	39971.67
538.42	40547.44
538.59	40832.99
538.75	40767.45
538.92	40786.18
539.09	40753.41
539.26	40687.87
539.43	40706.60
539.60	41106.83
539.77	40832.99
539.94	40926.61
540.11	41261.30
540.28	40701.92
540.44	40870.43
540.61	41106.83
540.78	41422.80
540.95	41060.02
541.12	40795.54
541.29	41160.66
541.46	41401.74
541.62	41443.87
541.79	41366.63
541.96	41287.05
542.13	41148.96
542.30	41123.21
542.47	41600.68
542.63	41794.95
542.80	42131.98
542.97	41895.59
543.14	42286.46
543.31	42356.67
543.48	41808.99
543.64	42438.59
543.81	42473.70
543.98	42394.12
544.15	42197.52
544.32	42473.70
544.48	42337.95
544.65	42747.54
544.82	42649.24
544.99	42515.83
545.16	42492.43
545.32	42454.98
545.49	43381.83
545.66	43035.43
545.83	42792.01
546.00	42855.21
546.16	43051.81
546.33	42682.01
546.50	42330.93
546.67	42735.84
546.83	42665.63
547.00	42892.66
547.17	42794.36
547.34	43269.48
547.50	43466.09
547.67	44002.07
547.84	43573.75
548.00	43604.18
548.17	43536.30
548.34	43653.33
548.51	43711.84
548.67	43540.99
548.84	43592.48
549.01	43503.54
549.18	43702.48
549.34	43463.75
549.51	43789.08
549.68	43812.49
549.84	43550.35
550.01	44179.95
550.18	43686.10
550.34	43840.57
550.51	43908.45
550.68	44301.66
550.84	44044.20
551.01	44296.98
551.18	43765.68
551.34	43999.73
551.51	44088.67
551.68	43835.89
551.84	43800.79
552.01	43629.93
552.18	44266.55
552.34	44467.84
552.51	44250.17
552.68	44062.93
552.84	44521.67
553.01	44442.09
553.18	44402.30
553.34	44973.39
553.51	44406.98
553.67	44734.66
553.84	44828.28
554.01	44755.72
554.17	44760.40
554.34	45333.84
554.51	44865.73
554.67	44957.01
554.84	45113.83
555.00	44910.20
555.17	45036.59
555.33	44807.22
555.50	44701.89
555.67	45265.96
555.83	45158.30
556.00	45158.30
556.16	45624.06
556.33	45186.38
556.50	45188.72
556.66	45186.38
556.83	44935.95
556.99	45610.02
557.16	46040.68
557.32	45504.70
557.49	45661.51
557.65	44940.63
557.82	45848.75
557.98	45237.87
558.15	45624.06
558.32	45455.54
558.48	45357.24
558.65	45724.71
558.81	45394.69
558.98	45502.35
559.14	45832.37
559.31	45717.68
559.47	45579.59
559.64	45422.78
559.80	45640.45
559.97	46068.76
560.13	45715.34
560.30	45567.89
560.46	46286.43
560.63	46450.27
560.79	46534.53
560.96	45916.63
561.12	46298.14
561.29	46410.48
561.45	46157.70
561.61	45895.56
561.78	46012.59
561.94	45918.97
562.11	45715.34
562.27	46094.51
562.44	46134.30
562.60	46127.28
562.77	45888.54
562.93	46117.92
563.10	45977.48
563.26	46223.24
563.42	46036.00
563.59	46129.62
563.75	46529.85
563.92	46330.90
564.08	46415.16
564.24	46539.21
564.41	46312.18
564.57	46356.65
564.74	46742.84
564.90	46471.34
565.07	46323.88
565.23	46628.15
565.39	46403.46
565.56	46672.62
565.72	46248.99
565.88	46642.20
566.05	46256.01
566.21	46239.62
566.38	46267.71
566.54	46258.35
566.70	46623.47
566.87	46574.32
567.03	46539.21
567.19	46852.84
567.36	46302.82
567.52	46604.75
567.68	46866.89
567.85	46899.65
568.01	47182.86
568.17	46759.22
568.34	46885.61
568.50	46756.88
568.66	47054.13
568.83	46440.91
568.99	46534.53
569.15	47012.00
569.32	46754.54
569.48	46770.93
569.64	47187.54
569.81	47070.51
569.97	46890.29
570.13	46766.24
570.30	46773.27
570.46	46850.50
570.62	47161.79
570.78	47026.04
570.95	46410.48
571.11	47426.28
571.27	47026.04
571.43	46880.93
571.60	47220.31
571.76	46930.08
571.92	47201.58
572.09	46803.69
572.25	46953.49
572.41	46974.55
572.57	47122.01
572.74	47166.48
572.90	47217.97
573.06	47030.72
573.22	47519.90
573.38	47288.18
573.55	47215.63
573.71	47344.36
573.87	47337.33
574.03	47129.03
574.20	47377.12
574.36	47278.82
574.52	47222.65
574.68	47227.33
574.84	47210.95
575.01	47365.42
575.17	47477.77
575.33	47213.29
575.49	47187.54
575.65	47199.24
575.82	47562.03
575.98	46630.49
576.14	47489.47
576.30	47929.49
576.46	47082.22
576.62	47253.08
576.79	47400.53
576.95	47047.11
577.11	46880.93
577.27	47344.36
577.43	47442.66
577.59	47594.79
577.75	47370.10
577.92	46993.28
578.08	46920.72
578.24	46981.57
578.40	47526.92
578.56	47770.33
578.72	47232.01
578.88	47416.91
579.04	47580.75
579.21	47229.67
579.37	47508.19
579.53	47463.72
579.69	47271.80
579.85	47224.99
580.01	47047.11
580.17	47210.95
580.33	47526.92
580.49	47442.66
580.65	47260.10
580.82	47040.09
580.98	47290.52
581.14	47126.69
581.30	47531.60
581.46	47122.01
581.62	47325.63
581.78	47145.41
581.94	47501.17
582.10	47524.58
582.26	47814.80
582.42	47454.36
582.58	47379.46
582.74	47810.12
582.90	47665.01
583.06	47592.45
583.22	47679.05
583.38	47498.83
583.54	47728.20
583.70	47990.34
583.86	47756.29
584.02	47339.68
584.18	47566.71
584.34	47800.76
584.50	47863.96
584.66	47634.58
584.82	47533.94
584.98	47789.06
585.14	47976.30
585.30	47419.25
585.46	47423.93
585.62	47445.00
585.78	47763.31
585.94	47613.52
586.10	47379.46
586.26	47524.58
586.42	47421.59
586.58	47648.63
586.74	47576.07
586.90	47445.00
587.06	47714.16
587.22	47639.26
587.38	47599.47
587.54	48252.48
587.70	48355.47
587.86	48053.54
588.02	47615.86
588.18	47746.93
588.34	47657.99
588.49	47653.31
588.65	47604.16
588.81	47803.10
588.97	48186.95
589.13	47702.46
589.29	47760.97
589.45	48009.07
589.61	47718.84
589.77	47653.31
589.93	47831.19
