SpectraSuite Data File
++++++++++++++++++++++++++++++++++++
Date: Fri Oct 25 10:48:01 EDT 2013
User: price-jones
Dark Spectrum Present: No
Reference Spectrum Present: No
Number of Sampled Component Spectra: 1
Spectrometers: USB2+H05261
Integration Time (usec): 100000 (USB2+H05261)
Spectra Averaged: 1 (USB2+H05261)
Boxcar Smoothing: 0 (USB2+H05261)
Correct for Electrical Dark: No (USB2+H05261)
Strobe/Lamp Enabled: No (USB2+H05261)
Correct for Detector Non-linearity: No (USB2+H05261)
Correct for Stray Light: No (USB2+H05261)
Number of Pixels in Processed Spectrum: 2048
>>>>>Begin Processed Spectral Data<<<<<
365.73	119.37
365.92	119.37
366.12	119.37
366.32	70.22
366.52	65.54
366.72	63.19
366.91	25.75
367.11	18.72
367.31	11.70
367.51	18.72
367.70	39.79
367.90	86.60
368.10	95.96
368.30	74.90
368.49	0.00
368.69	67.88
368.89	152.13
369.09	53.83
369.28	84.26
369.48	4.68
369.68	112.35
369.87	152.13
370.07	126.39
370.27	147.45
370.47	217.67
370.66	320.65
370.86	440.02
371.06	454.06
371.25	505.56
371.45	390.87
371.65	540.66
371.84	484.49
372.04	451.72
372.24	503.22
372.44	484.49
372.63	510.24
372.83	465.77
373.03	458.74
373.22	510.24
373.42	493.85
373.62	507.90
373.81	538.32
374.01	528.96
374.21	564.07
374.40	566.41
374.60	589.82
374.79	624.92
374.99	491.51
375.19	531.30
375.38	535.98
375.58	568.75
375.78	568.75
375.97	580.45
376.17	615.56
376.37	592.16
376.56	615.56
376.76	578.11
376.95	589.82
377.15	587.47
377.35	685.78
377.54	608.54
377.74	613.22
377.93	524.28
378.13	587.47
378.33	631.94
378.52	631.94
378.72	617.90
378.91	655.35
379.11	627.26
379.31	636.63
379.50	650.67
379.70	585.13
379.89	627.26
380.09	662.37
380.28	638.97
380.48	580.45
380.68	617.90
380.87	667.05
381.07	669.39
381.26	667.05
381.46	655.35
381.65	730.25
381.85	695.14
382.04	660.03
382.24	732.59
382.43	690.46
382.63	744.29
382.83	746.63
383.02	746.63
383.22	657.69
383.41	634.29
383.61	711.52
383.80	732.59
384.00	823.87
384.19	744.29
384.39	755.99
384.58	765.36
384.78	793.44
384.97	854.30
385.17	711.52
385.36	732.59
385.56	695.14
385.75	788.76
385.95	727.91
386.14	753.65
386.34	840.25
386.53	793.44
386.72	709.18
386.92	770.04
387.11	805.14
387.31	784.08
387.50	739.61
387.70	795.78
387.89	798.12
388.09	868.34
388.28	828.55
388.48	809.83
388.67	866.00
388.86	933.87
389.06	830.89
389.25	961.96
389.45	898.77
389.64	940.90
389.84	961.96
390.03	861.32
390.22	1001.75
390.42	931.53
390.61	957.28
390.81	936.21
391.00	912.81
391.19	924.51
391.39	870.68
391.58	933.87
391.78	983.02
391.97	915.15
392.16	861.32
392.36	1022.81
392.55	903.45
392.75	926.85
392.94	973.66
393.13	919.83
393.33	947.92
393.52	978.34
393.71	1032.18
393.91	936.21
394.10	983.02
394.29	1020.47
394.49	1100.05
394.68	1046.22
394.88	1142.18
395.07	1146.86
395.26	1041.54
395.46	1090.69
395.65	1135.16
395.84	1118.78
396.04	1156.22
396.23	1135.16
396.42	1055.58
396.62	1142.18
396.81	1100.05
397.00	1078.99
397.19	1219.42
397.39	1128.14
397.58	1242.82
397.77	1317.72
397.97	1303.68
398.16	1249.85
398.35	1186.65
398.55	1385.60
398.74	1284.95
398.93	1301.34
399.12	1322.40
399.32	1252.19
399.51	1294.32
399.70	1369.21
399.90	1291.98
400.09	1416.02
400.28	1390.28
400.47	1331.76
400.67	1343.47
400.86	1399.64
401.05	1383.26
401.24	1479.22
401.44	1476.88
401.63	1409.00
401.82	1469.86
402.01	1526.03
402.21	1486.24
402.40	1460.49
402.59	1544.75
402.78	1509.65
402.97	1437.09
403.17	1600.93
403.36	1495.60
403.55	1605.61
403.74	1570.50
403.93	1668.80
404.13	1659.44
404.32	1612.63
404.51	1633.69
404.70	1682.85
404.89	1675.82
405.09	1776.47
405.28	1666.46
405.47	1706.25
405.66	1790.51
405.85	1633.69
406.05	1743.70
406.24	1633.69
406.43	1640.72
406.62	1832.64
406.81	1849.02
407.00	1837.32
407.20	1762.42
407.39	1874.77
407.58	1825.62
407.77	1898.17
407.96	1858.39
408.15	1942.64
408.34	1968.39
408.54	1994.14
408.73	1975.41
408.92	1933.28
409.11	1994.14
409.30	1989.46
409.49	2038.61
409.68	1956.69
409.87	1998.82
410.07	2087.76
410.26	2043.29
410.45	2054.99
410.64	2066.69
410.83	2190.74
411.02	2190.74
411.21	2275.00
411.40	2385.01
411.59	2165.00
411.78	2204.78
411.98	2305.43
412.17	2354.58
412.36	2326.49
412.55	2258.62
412.74	2466.92
412.93	2431.82
413.12	2335.85
413.31	2504.37
413.50	2282.02
413.69	2473.95
413.88	2567.57
414.07	2464.58
414.26	2555.86
414.45	2679.91
414.64	2551.18
414.83	2731.41
415.02	2663.53
415.22	2708.00
415.41	2663.53
415.60	2722.04
415.79	2981.84
415.98	2855.45
416.17	2810.98
416.36	2899.92
416.55	2853.11
416.74	2778.22
416.93	2815.66
417.12	2808.64
417.31	2862.48
417.50	3009.93
417.69	2949.08
417.88	2998.23
418.07	3052.06
418.26	3199.51
418.45	3016.95
418.64	3176.11
418.83	3117.59
419.02	3066.10
419.21	3009.93
419.39	3225.26
419.58	3082.49
419.77	3213.56
419.96	3248.66
420.15	3449.95
420.34	3166.74
420.53	3332.92
420.72	3274.41
420.91	3255.69
421.10	3461.65
421.29	3468.67
421.48	3314.20
421.67	3400.80
421.86	3531.87
422.05	3297.81
422.24	3389.10
422.43	3321.22
422.61	3346.97
422.80	3480.38
422.99	3461.65
423.18	3492.08
423.37	3419.52
423.56	3424.20
423.75	3529.53
423.94	3466.33
424.13	3274.41
424.32	3295.47
424.50	3578.68
424.69	3550.59
424.88	3524.85
425.07	3403.14
425.26	3473.36
425.45	3494.42
425.64	3442.93
425.83	3597.40
426.01	3545.91
426.20	3463.99
426.39	3548.25
426.58	3510.80
426.77	3442.93
426.96	3625.49
427.15	3522.51
427.33	3681.66
427.52	3524.85
427.71	3524.85
427.90	3772.94
428.09	3637.19
428.28	3726.13
428.46	3688.68
428.65	3714.43
428.84	3962.53
429.03	3859.54
429.22	3627.83
429.40	3796.35
429.59	3857.20
429.78	3595.06
429.97	3566.98
430.16	3761.24
430.34	3812.73
430.53	3852.52
430.72	3798.69
430.91	3838.48
431.10	3864.22
431.28	3995.29
431.47	3997.64
431.66	4126.36
431.85	3969.55
432.03	4278.50
432.22	4124.02
432.41	4152.11
432.60	4201.26
432.79	4140.41
432.97	4236.37
433.16	4252.75
433.35	4180.20
433.54	4147.43
433.72	4414.25
433.91	4189.56
434.10	4194.24
434.28	4318.29
434.47	4344.03
434.66	4395.53
434.85	4299.56
435.03	4379.14
435.22	4388.50
435.41	4638.94
435.59	4486.81
435.78	4554.68
435.97	4517.23
436.16	4510.21
436.34	4557.02
436.53	4489.15
436.72	4526.60
436.90	4383.82
437.09	4564.04
437.28	4533.62
437.46	4564.04
437.65	4746.61
437.84	4533.62
438.02	4594.47
438.21	4798.10
438.40	4695.11
438.58	4786.40
438.77	4697.46
438.96	4786.40
439.14	4830.87
439.33	5090.67
439.52	4915.12
439.70	5022.79
439.89	5048.54
440.08	5191.31
440.26	5088.32
440.45	5041.51
440.63	5104.71
440.82	5392.59
441.01	5263.86
441.19	5397.28
441.38	5439.40
441.57	5369.19
441.75	5490.90
441.94	5528.35
442.12	5502.60
442.31	5696.86
442.50	5568.13
442.68	5509.62
442.87	5451.11
443.05	5537.71
443.24	5722.61
443.43	5657.07
443.61	5762.40
443.80	5860.70
443.98	5750.70
444.17	5474.51
444.35	5643.03
444.54	5865.38
444.73	5806.87
444.91	5720.27
445.10	5694.52
445.28	5778.78
445.47	5605.58
445.65	5722.61
445.84	5790.49
446.02	5926.24
446.21	5783.46
446.39	5832.62
446.58	5951.98
446.77	5738.99
446.95	5860.70
447.14	5806.87
447.32	6043.26
447.51	6001.13
447.69	5982.41
447.88	5928.58
448.06	5928.58
448.25	5966.03
448.43	5951.98
448.62	5844.32
448.80	5975.39
448.99	6094.76
449.17	6076.03
449.36	6108.80
449.54	6064.33
449.73	6274.98
449.91	6282.00
450.10	6368.60
450.28	6317.11
450.46	6162.63
450.65	6125.18
450.83	6190.72
451.02	6326.47
451.20	6303.06
451.39	6282.00
451.57	6368.60
451.76	6417.75
451.94	6356.90
452.13	6324.13
452.31	6375.62
452.49	6258.59
452.68	6307.74
452.86	6342.85
453.05	6520.73
453.23	6553.50
453.42	6413.07
453.60	6434.13
453.78	6459.88
453.97	6609.67
454.15	6494.99
454.34	6565.20
454.52	6682.23
454.70	6548.82
454.89	6691.59
455.07	6689.25
455.26	6649.46
455.44	6801.60
455.62	6864.79
455.81	6787.55
455.99	6752.45
456.17	7026.29
456.36	6815.64
456.54	7000.54
456.73	7108.21
456.91	7180.76
457.09	7087.14
457.28	7162.04
457.46	6988.84
457.64	7145.66
457.83	7307.15
458.01	7073.10
458.19	7407.80
458.38	7307.15
458.56	7204.17
458.74	7208.85
458.93	7272.04
459.11	7335.24
459.29	7515.46
459.48	7304.81
459.66	7283.75
459.84	7527.16
460.03	7616.10
460.21	7555.25
460.39	7456.95
460.57	7384.39
460.76	7559.93
460.94	7772.92
461.12	7557.59
461.31	7695.68
461.49	7639.51
461.67	7691.00
461.85	7836.11
462.04	7683.98
462.22	8212.94
462.40	7882.92
462.59	7850.16
462.77	8011.65
462.95	7929.74
463.13	7939.10
463.32	7847.82
463.50	8084.21
463.68	8149.75
463.86	8058.46
464.05	7971.86
464.23	8091.23
464.41	8138.04
464.59	8016.33
464.78	8283.16
464.96	8093.57
465.14	7957.82
465.32	8163.79
465.50	8184.85
465.69	8119.32
465.87	8091.23
466.05	8215.28
466.23	8072.51
466.41	8135.70
466.60	8472.74
466.78	8313.58
466.96	8243.37
467.14	8145.06
467.32	8468.06
467.51	8575.72
467.69	8212.94
467.87	8500.83
468.05	8503.17
468.23	8376.78
468.41	8327.63
468.60	8416.57
468.78	8594.45
468.96	8524.23
469.14	8652.96
469.32	8606.15
469.50	8573.38
469.69	8772.33
469.87	8807.44
470.05	8887.01
470.23	8891.70
470.41	8779.35
470.59	8922.12
470.77	8833.18
470.95	8875.31
471.14	9202.99
471.32	8847.22
471.50	9350.44
471.68	9263.84
471.86	9186.60
472.04	9055.53
472.22	9413.63
472.40	9282.56
472.58	9305.97
472.77	9600.88
472.95	9397.25
473.13	9699.18
473.31	9296.61
473.49	9500.23
473.67	9572.79
473.85	9720.24
474.03	9701.52
474.21	9724.93
474.39	9923.87
474.57	9909.83
474.75	10050.26
474.93	10094.73
475.12	9935.57
475.30	10174.31
475.48	10270.27
475.66	10104.09
475.84	10087.71
476.02	10396.66
476.20	10214.10
476.38	10504.32
476.56	10551.14
476.74	10574.54
476.92	10581.56
477.10	10677.52
477.28	10920.94
477.46	10925.62
477.64	10927.96
477.82	10867.11
478.00	11279.04
478.18	11115.20
478.36	11108.18
478.54	11538.84
478.72	11597.35
478.90	11562.25
479.08	11800.98
479.26	11887.58
479.44	11524.80
479.62	11796.30
479.80	12070.14
479.98	12009.29
480.16	12032.69
480.34	12229.30
480.52	12287.81
480.70	12348.67
480.88	12184.83
481.06	12442.29
481.24	12379.09
481.41	12657.62
481.59	12992.31
481.77	13060.19
481.95	12863.58
482.13	13266.16
482.31	13186.58
482.49	13359.78
482.67	13303.60
482.85	13322.33
483.03	13652.34
483.21	13825.54
483.39	13933.21
483.57	13956.61
483.74	14064.28
483.92	13788.10
484.10	13961.30
484.28	14118.11
484.46	14513.66
484.64	14668.14
484.82	14307.69
485.00	14766.44
485.18	14885.81
485.35	14831.97
485.53	14846.02
485.71	14888.15
485.89	15066.03
486.07	15353.91
486.25	15410.09
486.43	15286.04
486.61	15583.29
486.78	15777.55
486.96	15583.29
487.14	16173.10
487.32	16013.95
487.50	16393.11
487.68	16414.18
487.85	16489.07
488.03	16549.93
488.21	16702.06
488.39	16741.85
488.57	16835.47
488.75	17413.59
488.92	17186.55
489.10	17713.17
489.28	17479.12
489.46	17624.23
489.64	17710.83
489.81	18150.85
489.99	18317.03
490.17	17965.95
490.35	18501.93
490.53	18405.97
490.70	18841.31
490.88	18445.76
491.06	18883.44
491.24	18696.20
491.41	18871.74
491.59	19089.41
491.77	19098.77
491.95	19068.34
492.13	19513.05
492.30	19410.06
492.48	19557.52
492.66	19501.34
492.84	19548.15
493.01	20201.16
493.19	20049.03
493.37	20240.95
493.54	20460.96
493.72	20688.00
493.90	20582.67
494.08	20524.16
494.25	21116.31
494.43	20795.66
494.61	21132.70
494.79	21149.08
494.96	21043.76
495.14	21032.05
495.32	21647.61
495.49	21500.16
495.67	21240.36
495.85	21743.58
496.02	22040.82
496.20	22118.06
496.38	22249.13
496.55	22253.81
496.73	22649.36
496.91	22494.89
497.09	22934.91
497.26	22735.96
497.44	22654.05
497.62	22670.43
497.79	23075.34
497.97	22869.37
498.14	23267.27
498.32	23262.58
498.50	23522.38
498.67	23363.23
498.85	23569.19
499.03	23796.23
499.20	23868.78
499.38	23796.23
499.56	24159.01
499.73	23946.02
499.91	24315.83
500.08	24325.19
500.26	24112.20
500.44	24343.91
500.61	24528.81
500.79	24425.83
500.97	24692.65
501.14	25406.52
501.32	25090.54
501.49	24732.44
501.67	25156.08
501.84	24687.97
502.02	25032.03
502.20	25453.33
502.37	25455.67
502.55	25160.76
502.72	25738.87
502.90	25797.38
503.07	25855.90
503.25	25895.69
503.43	25579.71
503.60	26005.69
503.78	26125.06
503.95	25883.98
504.13	26230.38
504.30	26398.90
504.48	26237.41
504.65	26478.48
504.83	26499.55
505.01	26782.75
505.18	26338.05
505.36	26864.67
505.53	26923.18
505.71	27030.85
505.88	27037.87
506.06	26766.37
506.23	27021.48
506.41	26960.63
506.58	27292.99
506.76	27271.92
506.93	27515.34
507.11	27646.41
507.28	27552.79
507.46	27484.91
507.63	27667.47
507.81	27992.81
507.98	27737.69
508.16	27931.95
508.33	27894.50
508.50	28123.88
508.68	28238.56
508.85	28498.36
509.03	28414.10
509.20	28835.40
509.38	28620.07
509.55	28631.77
509.73	28861.15
509.90	29048.39
510.08	28842.42
510.25	28982.85
510.42	29137.33
510.60	28912.64
510.77	29202.86
510.95	29472.03
511.12	29579.69
511.30	29223.93
511.47	29933.11
511.64	29675.65
511.82	30160.14
511.99	29649.91
512.17	29799.70
512.34	29769.27
512.51	30199.93
512.69	30103.97
512.86	30050.14
513.04	30487.82
513.21	30265.47
513.38	30464.41
513.56	30185.89
513.73	30235.04
513.90	30356.75
514.08	30536.97
514.25	30384.83
514.43	30579.10
514.60	30801.45
514.77	30614.21
514.95	30782.73
515.12	30525.27
515.29	31110.40
515.47	31068.27
515.64	31641.70
515.81	31204.02
515.99	31412.33
516.16	31501.27
516.33	31440.42
516.51	31351.48
516.68	31349.14
516.85	31016.78
517.03	31728.30
517.20	31796.18
517.37	31653.40
517.54	32074.70
517.72	31725.96
517.89	31693.19
518.06	31627.66
518.24	31676.81
518.41	31988.10
518.58	31845.33
518.75	32318.12
518.93	32189.39
519.10	32329.82
519.27	32627.07
519.45	32741.75
519.62	32865.80
519.79	32369.61
519.96	32996.87
520.14	33104.54
520.31	32933.68
520.48	33251.99
520.65	33125.60
520.83	33294.12
521.00	33577.33
521.17	33235.61
521.34	33457.96
521.52	33610.09
521.69	33567.96
521.86	33336.25
522.03	33504.77
522.20	34106.29
522.38	34022.03
522.55	34197.57
522.72	34096.92
522.89	34199.91
523.07	34103.95
523.24	33757.55
523.41	34263.10
523.58	33874.57
523.75	34656.31
523.92	34483.11
524.10	34941.86
524.27	34504.18
524.44	34754.61
524.61	35171.23
524.78	34857.60
524.96	35021.44
525.13	34850.58
525.30	35501.25
525.47	35407.62
525.64	34806.11
525.81	35108.04
525.98	34726.53
526.16	35290.60
526.33	35063.57
526.50	35648.70
526.67	35084.63
526.84	35318.68
527.01	35199.32
527.18	35178.25
527.36	35318.68
527.53	35639.34
527.70	36259.58
527.87	35725.94
528.04	35826.58
528.21	35857.01
528.38	35922.54
528.55	35983.40
528.72	36004.46
528.89	36320.43
529.07	36261.92
529.24	36102.76
529.41	36463.21
529.58	35786.79
529.75	36421.08
529.92	36404.69
530.09	36301.71
530.26	36421.08
530.43	37095.15
530.60	36350.86
530.77	36603.64
530.94	37202.82
531.11	36807.26
531.28	36856.42
531.46	37237.92
531.63	37038.98
531.80	36870.46
531.97	37352.61
532.14	36893.86
532.31	37029.62
532.48	37195.79
532.65	37282.39
532.82	37322.18
532.99	37479.00
533.16	36996.85
533.33	37965.83
533.50	37523.47
533.67	37322.18
533.84	37462.61
534.01	37495.38
534.18	37298.78
534.35	37713.05
534.52	38031.36
534.69	37570.28
534.86	38204.56
535.03	37464.96
535.20	38333.29
535.37	38263.08
535.54	37958.81
535.71	37979.87
535.88	38204.56
536.05	38450.32
536.22	38031.36
536.38	38440.96
536.55	38345.00
536.72	38522.88
536.89	37989.24
537.06	38078.18
537.23	38700.76
537.40	38368.40
537.57	38565.01
537.74	38246.69
537.91	38813.10
538.08	39145.46
538.25	38356.70
538.42	38623.52
538.59	38672.67
538.75	38604.80
538.92	38927.79
539.09	38782.68
539.26	38890.34
539.43	38864.60
539.60	38878.64
539.77	38946.51
539.94	39655.70
540.11	39180.57
540.28	39356.11
540.44	38873.96
540.61	39150.14
540.78	39164.18
540.95	39388.88
541.12	39423.98
541.29	39227.38
541.46	39620.59
541.62	39416.96
541.79	39662.72
541.96	39222.70
542.13	39772.72
542.30	39496.54
542.47	39814.85
542.63	39793.79
542.80	39906.13
542.97	40259.55
543.14	40479.57
543.31	40308.71
543.48	39992.73
543.64	40456.16
543.81	40425.73
543.98	40114.44
544.15	40446.80
544.32	40573.19
544.48	40762.77
544.65	40477.22
544.82	40500.63
544.99	39861.66
545.16	40425.73
545.32	40458.50
545.49	40889.16
545.66	40814.26
545.83	41036.61
546.00	41228.54
546.16	40790.86
546.33	40414.03
546.50	40430.41
546.67	40816.60
546.83	40783.83
547.00	40701.92
547.17	40947.67
547.34	41324.50
547.50	41280.03
547.67	41324.50
547.84	40964.06
548.00	41015.55
548.17	41120.87
548.34	41446.21
548.51	41834.74
548.67	41497.70
548.84	41338.54
549.01	41251.94
549.18	41432.16
549.34	41696.64
549.51	41741.11
549.68	41380.67
549.84	42204.54
550.01	41970.49
550.18	41710.69
550.34	41401.74
550.51	41736.43
550.68	41626.43
550.84	41268.33
551.01	41619.41
551.18	41727.07
551.34	41825.37
551.51	41977.51
551.68	42021.98
551.84	42043.04
552.01	42099.22
552.18	41867.50
552.34	41865.16
552.51	42572.00
552.68	42445.62
552.84	42326.25
553.01	42312.20
553.18	42295.82
553.34	42129.64
553.51	41991.55
553.67	42305.18
553.84	42508.81
554.01	43007.34
554.17	42518.17
554.34	42710.10
554.51	42866.91
554.67	42677.33
554.84	42534.56
555.00	42181.13
555.17	42218.58
555.33	42564.98
555.50	42721.80
555.67	42653.92
555.83	42892.66
556.00	42637.54
556.16	43044.79
556.33	42852.87
556.50	43070.54
556.66	42932.45
556.83	42878.61
556.99	43112.67
557.16	43154.80
557.32	42766.27
557.49	42941.81
557.65	42815.42
557.82	42621.16
557.98	43119.69
558.15	43194.59
558.32	43297.57
558.48	43000.32
558.65	42829.46
558.81	42801.38
558.98	43175.86
559.14	42878.61
559.31	42967.55
559.47	43749.29
559.64	43426.30
559.80	43625.25
559.97	43391.19
560.13	42995.64
560.30	43543.33
560.46	43192.25
560.63	43358.42
560.79	43950.58
560.96	43454.39
561.12	43498.86
561.29	43463.75
561.45	43367.79
561.61	43419.28
561.78	43519.92
561.94	43339.70
562.11	43423.96
562.27	43461.41
562.44	43522.26
562.60	43887.39
562.77	43648.65
562.93	43107.99
563.10	43414.60
563.26	43550.35
563.42	43639.29
563.59	43086.92
563.75	43552.69
563.92	43917.81
564.08	43498.86
564.24	43976.33
564.41	43985.69
564.57	43866.32
564.74	44135.48
564.90	43831.21
565.07	43297.57
565.23	43718.87
565.39	43480.13
565.56	44130.80
565.72	43786.74
565.88	43856.96
566.05	43824.19
566.21	44135.48
566.38	43611.20
566.54	43709.50
566.70	43903.77
566.87	44608.27
567.03	44051.22
567.19	44767.43
567.36	44067.61
567.52	43470.77
567.68	43863.98
567.85	43814.83
568.01	43683.76
568.17	44292.30
568.34	43833.55
568.50	43817.17
568.66	43997.39
568.83	43927.17
568.99	44142.50
569.15	43899.09
569.32	43952.92
569.48	44020.80
569.64	44549.76
569.81	44355.49
569.97	44041.86
570.13	44194.00
570.30	43702.48
570.46	43627.59
570.62	43831.21
570.78	44273.57
570.95	43828.87
571.11	44149.53
571.27	44392.94
571.43	44023.14
571.60	44390.60
571.76	43943.56
571.92	43828.87
572.09	44191.65
572.25	43885.04
572.41	44034.84
572.57	44474.86
572.74	44669.12
572.90	44423.37
573.06	44261.87
573.22	44360.17
573.38	44287.62
573.55	43866.32
573.71	44406.98
573.87	44114.42
574.03	44208.04
574.20	44343.79
574.36	44299.32
574.52	44360.17
574.68	44329.75
574.84	44605.93
575.01	44549.76
575.17	44374.22
575.33	43718.87
575.49	43985.69
575.65	44271.23
575.82	44315.70
575.98	44215.06
576.14	44697.21
576.30	44130.80
576.46	44041.86
576.62	44577.84
576.79	43938.88
576.95	44083.99
577.11	44247.83
577.27	44388.26
577.43	44048.88
577.59	44708.91
577.75	44137.82
577.92	44016.11
578.08	44186.97
578.24	44009.09
578.40	44409.32
578.56	44341.45
578.72	44535.71
578.88	44875.09
579.04	44678.49
579.21	44453.79
579.37	44271.23
579.53	44156.55
579.69	44233.78
579.85	44655.08
580.01	44720.62
580.17	44531.03
580.33	44809.56
580.49	44573.16
580.65	44818.92
580.82	44629.34
580.98	44217.40
581.14	44259.53
581.30	44390.60
581.46	44280.60
581.62	44236.12
581.78	44598.91
581.94	44851.69
582.10	44147.18
582.26	44842.32
582.42	44460.82
582.58	44411.67
582.74	44500.61
582.90	44378.90
583.06	44414.01
583.22	44683.17
583.38	44718.28
583.54	44704.23
583.70	44301.66
583.86	44247.83
584.02	44367.20
584.18	44760.40
584.34	44886.79
584.50	44650.40
584.66	44236.12
584.82	44383.58
584.98	44481.88
585.14	44144.84
585.30	44762.75
585.46	44615.29
585.62	44507.63
585.78	44556.78
585.94	44219.74
586.10	44158.89
586.26	44194.00
586.42	44406.98
586.58	44357.83
586.74	44732.32
586.90	44339.11
587.06	44308.68
587.22	44519.33
587.38	44699.55
587.54	44580.18
587.70	44942.97
587.86	44163.57
588.02	44430.39
588.18	44893.82
588.34	44329.75
588.49	44423.37
588.65	44009.09
588.81	44304.00
588.97	44500.61
589.13	44245.49
589.29	44491.24
589.45	44528.69
589.61	44451.45
589.77	44933.60
589.93	44516.99
590.08	44453.79
590.24	44947.65
