SpectraSuite Data File
++++++++++++++++++++++++++++++++++++
Date: Fri Oct 25 10:47:18 EDT 2013
User: price-jones
Dark Spectrum Present: No
Reference Spectrum Present: No
Number of Sampled Component Spectra: 1
Spectrometers: USB2+H05261
Integration Time (usec): 100000 (USB2+H05261)
Spectra Averaged: 1 (USB2+H05261)
Boxcar Smoothing: 0 (USB2+H05261)
Correct for Electrical Dark: No (USB2+H05261)
Strobe/Lamp Enabled: No (USB2+H05261)
Correct for Detector Non-linearity: No (USB2+H05261)
Correct for Stray Light: No (USB2+H05261)
Number of Pixels in Processed Spectrum: 2048
>>>>>Begin Processed Spectral Data<<<<<
365.73	112.35
365.92	112.35
366.12	112.35
366.32	0.00
366.52	23.41
366.72	30.43
366.91	7.02
367.11	23.41
367.31	74.90
367.51	0.00
367.70	95.96
367.90	39.79
368.10	95.96
368.30	44.47
368.49	14.04
368.69	72.56
368.89	70.22
369.09	84.26
369.28	81.92
369.48	60.85
369.68	46.81
369.87	131.07
370.07	110.01
370.27	93.62
370.47	212.99
370.66	433.00
370.86	376.83
371.06	388.53
371.25	454.06
371.45	470.45
371.65	402.57
371.84	400.23
372.04	519.60
372.24	463.43
372.44	486.83
372.63	472.79
372.83	533.64
373.03	423.64
373.22	512.58
373.42	468.11
373.62	545.34
373.81	580.45
374.01	535.98
374.21	559.39
374.40	503.22
374.60	589.82
374.79	465.77
374.99	543.00
375.19	571.09
375.38	575.77
375.58	575.77
375.78	629.60
375.97	573.43
376.17	610.88
376.37	477.47
376.56	601.52
376.76	554.71
376.95	538.32
377.15	533.64
377.35	613.22
377.54	624.92
377.74	557.05
377.93	657.69
378.13	645.99
378.33	660.03
378.52	573.43
378.72	571.09
378.91	620.24
379.11	519.60
379.31	580.45
379.50	585.13
379.70	645.99
379.89	617.90
380.09	645.99
380.28	695.14
380.48	601.52
380.68	608.54
380.87	653.01
381.07	603.86
381.26	676.41
381.46	610.88
381.65	655.35
381.85	676.41
382.04	615.56
382.24	660.03
382.43	669.39
382.63	685.78
382.83	592.16
383.02	697.48
383.22	706.84
383.41	681.10
383.61	791.10
383.80	833.23
384.00	702.16
384.19	648.33
384.39	720.88
384.58	739.61
384.78	746.63
384.97	748.97
385.17	741.95
385.36	730.25
385.56	725.57
385.75	737.27
385.95	692.80
386.14	800.46
386.34	667.05
386.53	814.51
386.72	770.04
386.92	725.57
387.11	821.53
387.31	809.83
387.50	795.78
387.70	765.36
387.89	784.08
388.09	753.65
388.28	821.53
388.48	798.12
388.67	840.25
388.86	816.85
389.06	854.30
389.25	891.74
389.45	840.25
389.64	802.80
389.84	887.06
390.03	863.66
390.22	858.98
390.42	833.23
390.61	819.19
390.81	917.49
391.00	849.61
391.19	945.58
391.39	940.90
391.58	917.49
391.78	924.51
391.97	952.60
392.16	877.70
392.36	959.62
392.55	945.58
392.75	866.00
392.94	945.58
393.13	957.28
393.33	875.36
393.52	933.87
393.71	992.39
393.91	1001.75
394.10	943.24
394.29	990.05
394.49	990.05
394.68	1090.69
394.88	1006.43
395.07	1071.97
395.26	1090.69
395.46	1053.24
395.65	1088.35
395.84	1149.20
396.04	1107.07
396.23	1034.52
396.42	978.34
396.62	1116.44
396.81	1069.62
397.00	1144.52
397.19	1125.80
397.39	1149.20
397.58	1149.20
397.77	1221.76
397.97	1214.74
398.16	1125.80
398.35	1196.01
398.55	1259.21
398.74	1193.67
398.93	1200.69
399.12	1334.11
399.32	1287.29
399.51	1254.53
399.70	1320.06
399.90	1320.06
400.09	1266.23
400.28	1380.92
400.47	1289.64
400.67	1385.60
400.86	1327.08
401.05	1413.68
401.24	1261.55
401.44	1336.45
401.63	1413.68
401.82	1366.87
402.01	1380.92
402.21	1460.49
402.40	1409.00
402.59	1448.79
402.78	1397.30
402.97	1455.81
403.17	1488.58
403.36	1474.54
403.55	1596.25
403.74	1591.56
403.93	1490.92
404.13	1607.95
404.32	1465.18
404.51	1544.75
404.70	1500.28
404.89	1530.71
405.09	1654.76
405.28	1647.74
405.47	1540.07
405.66	1554.12
405.85	1589.22
406.05	1696.89
406.24	1675.82
406.43	1638.38
406.62	1788.17
406.81	1806.89
407.00	1710.93
407.20	1732.00
407.39	1678.16
407.58	1832.64
407.77	1813.92
407.96	1865.41
408.15	1771.79
408.34	1804.55
408.54	1914.56
408.73	1877.11
408.92	1942.64
409.11	1891.15
409.30	2029.24
409.49	1874.77
409.68	1893.49
409.87	1916.90
410.07	1923.92
410.26	2012.86
410.45	2045.63
410.64	2099.46
410.83	2036.27
411.02	2118.18
411.21	2113.50
411.40	2106.48
411.59	2223.51
411.78	2167.34
411.98	2146.27
412.17	2120.53
412.36	2223.51
412.55	2244.57
412.74	2321.81
412.93	2289.04
413.12	2214.15
413.31	2282.02
413.50	2275.00
413.69	2434.16
413.88	2473.95
414.07	2452.88
414.26	2366.28
414.45	2487.99
414.64	2466.92
414.83	2623.74
415.02	2420.11
415.22	2480.97
415.41	2607.36
415.60	2647.15
415.79	2693.96
415.98	2712.68
416.17	2675.23
416.36	2700.98
416.55	2696.30
416.74	2757.15
416.93	2752.47
417.12	2862.48
417.31	2832.05
417.50	2754.81
417.69	2829.71
417.88	2789.92
418.07	2881.20
418.26	2871.84
418.45	2932.69
418.64	3066.10
418.83	3040.36
419.02	2918.65
419.21	3073.12
419.39	3138.66
419.58	2857.79
419.77	2995.89
419.96	3103.55
420.15	3220.58
420.34	3098.87
420.53	3105.89
420.72	3152.70
420.91	3211.22
421.10	3213.56
421.29	3243.98
421.48	3222.92
421.67	3349.31
421.86	3253.34
422.05	3276.75
422.24	3396.12
422.43	3293.13
422.61	3321.22
422.80	3330.58
422.99	3279.09
423.18	3311.86
423.37	3328.24
423.56	3466.33
423.75	3236.96
423.94	3412.50
424.13	3183.13
424.32	3279.09
424.50	3358.67
424.69	3515.48
424.88	3410.16
425.07	3353.99
425.26	3421.86
425.45	3478.04
425.64	3255.69
425.83	3318.88
426.01	3325.90
426.20	3545.91
426.39	3356.33
426.58	3536.55
426.77	3466.33
426.96	3473.36
427.15	3459.31
427.33	3552.93
427.52	3574.00
427.71	3555.27
427.90	3492.08
428.09	3660.60
428.28	3562.30
428.46	3569.32
428.65	3676.98
428.84	3719.11
429.03	3651.24
429.22	3569.32
429.40	3655.92
429.59	3569.32
429.78	3482.72
429.97	3517.83
430.16	3623.15
430.34	3763.58
430.53	3850.18
430.72	3695.71
430.91	3875.93
431.10	3882.95
431.28	3918.06
431.47	3899.33
431.66	4035.08
431.85	4030.40
432.03	4105.30
432.22	4177.86
432.41	3880.61
432.60	3953.16
432.79	4042.11
432.97	4042.11
433.16	4004.66
433.35	3925.08
433.54	4081.89
433.72	4131.05
433.91	3995.29
434.10	4126.36
434.28	4194.24
434.47	4273.82
434.66	4241.05
434.85	4238.71
435.03	4175.52
435.22	4283.18
435.41	4318.29
435.59	4259.78
435.78	4252.75
435.97	4381.48
436.16	4397.87
436.34	4404.89
436.53	4376.80
436.72	4444.68
436.90	4337.01
437.09	4528.94
437.28	4383.82
437.46	4461.06
437.65	4547.66
437.84	4496.17
438.02	4468.08
438.21	4468.08
438.40	4465.74
438.58	4568.73
438.77	4788.74
438.96	4606.17
439.14	4692.77
439.33	4898.74
439.52	4887.04
439.70	4943.21
439.89	4786.40
440.08	4884.70
440.26	4833.21
440.45	4931.51
440.63	4980.66
440.82	5090.67
441.01	5165.56
441.19	5121.09
441.38	5111.73
441.57	5203.01
441.75	5203.01
441.94	5476.85
442.12	5275.57
442.31	5408.98
442.50	5425.36
442.68	5453.45
442.87	5352.81
443.05	5298.97
443.24	5411.32
443.43	5551.75
443.61	5526.00
443.80	5643.03
443.98	5624.31
444.17	5334.08
444.35	5523.66
444.54	5544.73
444.73	5596.22
444.91	5565.79
445.10	5444.09
445.28	5659.42
445.47	5544.73
445.65	5509.62
445.84	5727.29
446.02	5572.82
446.21	5493.24
446.39	5654.73
446.58	5750.70
446.77	5713.25
446.95	5530.69
447.14	5614.95
447.32	5849.00
447.51	5790.49
447.69	5671.12
447.88	5757.72
448.06	5790.49
448.25	5818.57
448.43	5762.40
448.62	5661.76
448.80	5792.83
448.99	5818.57
449.17	5778.78
449.36	5799.85
449.54	5849.00
449.73	6078.37
449.91	6090.07
450.10	6064.33
450.28	6361.58
450.46	6246.89
450.65	6094.76
450.83	6190.72
451.02	6094.76
451.20	6317.11
451.39	6146.25
451.57	6111.14
451.76	6052.63
451.94	6202.42
452.13	6282.00
452.31	6076.03
452.49	6120.50
452.68	6174.33
452.86	5994.11
453.05	6211.78
453.23	6209.44
453.42	6195.40
453.60	6153.27
453.78	6256.25
453.97	6321.79
454.15	6445.84
454.34	6171.99
454.52	6342.85
454.70	6567.54
454.89	6565.20
455.07	6452.86
455.26	6436.47
455.44	6661.16
455.62	6518.39
455.81	6651.80
455.99	6801.60
456.17	6586.27
456.36	6733.72
456.54	6731.38
456.73	6719.68
456.91	6892.88
457.09	6925.65
457.28	7173.74
457.46	6876.49
457.64	6920.96
457.83	6857.77
458.01	6881.18
458.19	7094.16
458.38	6909.26
458.56	7166.72
458.74	7021.61
458.93	6986.50
459.11	7136.29
459.29	7260.34
459.48	7302.47
459.66	7283.75
459.84	7082.46
460.03	7222.89
460.21	7342.26
460.39	7386.73
460.57	7389.07
460.76	7157.36
460.94	7346.94
461.12	7307.15
461.31	7384.39
461.49	7433.54
461.67	7169.06
461.85	7597.38
462.04	7478.01
462.22	7936.76
462.40	7569.29
462.59	7695.68
462.77	7625.47
462.95	7653.55
463.13	7693.34
463.32	7791.64
463.50	7791.64
463.68	7723.77
463.86	7953.14
464.05	7581.00
464.23	7707.38
464.41	7768.24
464.59	7789.30
464.78	8046.76
464.96	7698.02
465.14	7620.78
465.32	7962.50
465.50	8084.21
465.69	8128.68
465.87	7950.80
466.05	8023.36
466.23	8161.45
466.41	7990.59
466.60	8313.58
466.78	7955.48
466.96	8042.08
467.14	8025.70
467.32	8163.79
467.51	8257.41
467.69	7988.25
467.87	8121.66
468.05	8245.71
468.23	8147.40
468.41	8252.73
468.60	8194.22
468.78	8372.10
468.96	8222.30
469.14	8432.95
469.32	8388.48
469.50	8212.94
469.69	8463.38
469.87	8645.94
470.05	8547.64
470.23	8599.13
470.41	8793.39
470.59	8863.61
470.77	8683.39
470.95	8418.91
471.14	8777.01
471.32	8643.60
471.50	8910.42
471.68	8868.29
471.86	8905.74
472.04	8961.91
472.22	9097.66
472.40	8828.50
472.58	9011.06
472.77	9142.13
472.95	8980.64
473.13	9423.00
473.31	9303.63
473.49	9263.84
473.67	9195.96
473.85	9254.48
474.03	9640.67
474.21	9504.92
474.39	9448.74
474.57	9565.77
474.75	9891.10
474.93	9848.97
475.12	9600.88
475.30	9731.95
475.48	9643.01
475.66	9884.08
475.84	9745.99
476.02	10022.17
476.20	10033.88
476.38	10078.35
476.56	10420.06
476.74	10293.68
476.92	10085.37
477.10	10293.68
477.28	10452.83
477.46	10389.64
477.64	10562.84
477.82	10967.75
478.00	10820.30
478.18	10909.24
478.36	10979.45
478.54	11140.95
478.72	10993.50
478.90	11335.21
479.08	11290.74
479.26	11480.33
479.44	11485.01
479.62	11304.79
479.80	11555.22
479.98	11538.84
480.16	11915.67
480.34	11686.29
480.52	12077.16
480.70	11957.80
480.88	11950.78
481.06	11988.22
481.24	12222.28
481.41	12266.75
481.59	12606.13
481.77	12449.31
481.95	12580.38
482.13	12835.50
482.31	12650.60
482.49	13062.53
482.67	12987.63
482.85	13156.15
483.03	13116.36
483.21	13439.36
483.39	13540.00
483.57	13303.60
483.74	13678.09
483.92	13547.02
484.10	13619.58
484.28	13837.25
484.46	13968.32
484.64	14483.24
484.82	13991.72
485.00	14061.94
485.18	14441.11
485.35	14537.07
485.53	14431.74
485.71	14637.71
485.89	14925.60
486.07	14843.68
486.25	14822.61
486.43	14738.35
486.61	14972.41
486.78	15295.40
486.96	15475.62
487.14	15585.63
487.32	15630.10
487.50	15742.44
487.68	15976.50
487.85	16023.31
488.03	16430.56
488.21	16439.92
488.39	16224.59
488.57	16578.01
488.75	16404.81
488.92	16596.74
489.10	17050.80
489.28	17151.45
489.46	17242.73
489.64	17156.13
489.81	17593.81
489.99	17792.75
490.17	17547.00
490.35	17888.71
490.53	17940.21
490.70	18019.78
490.88	18040.85
491.06	18382.57
491.24	18548.75
491.41	18366.18
491.59	18518.32
491.77	18572.15
491.95	19023.87
492.13	18796.84
492.30	19398.36
492.48	19047.28
492.66	19187.71
492.84	19529.43
493.01	19042.60
493.19	19339.85
493.37	19594.96
493.54	19515.39
493.72	20088.82
493.90	20025.62
494.08	20126.27
494.25	20269.04
494.43	20753.53
494.61	20465.64
494.79	20425.86
494.96	20390.75
495.14	20659.91
495.32	21027.37
495.49	21191.21
495.67	21277.81
495.85	21432.29
496.02	21469.73
496.20	21656.98
496.38	21296.53
496.55	21465.05
496.73	22068.91
496.91	21872.31
497.09	21914.44
497.26	21769.32
497.44	21895.71
497.62	22363.82
497.79	22651.70
497.97	22560.42
498.14	22436.38
498.32	22761.71
498.50	22738.30
498.67	23103.43
498.85	22991.08
499.03	23257.90
499.20	23318.76
499.38	23515.36
499.56	23482.59
499.73	23461.53
499.91	23564.51
500.08	23770.48
500.26	23356.21
500.44	23948.36
500.61	23843.04
500.79	23894.53
500.97	24208.16
501.14	24683.29
501.32	24273.70
501.49	24339.23
501.67	24147.31
501.84	24622.44
502.02	24390.72
502.20	25020.33
502.37	24830.74
502.55	24613.07
502.72	25352.68
502.90	25172.46
503.07	24996.92
503.25	25198.21
503.43	25245.02
503.60	25638.23
503.78	25460.35
503.95	25642.91
504.13	25120.97
504.30	25989.31
504.48	25750.57
504.65	25792.70
504.83	26003.35
505.01	26361.45
505.18	26050.16
505.36	26274.85
505.53	26300.60
505.71	26298.26
505.88	26274.85
506.06	26036.12
506.23	26740.62
506.41	26426.99
506.58	26600.19
506.76	26871.69
506.93	27187.66
507.11	26883.39
507.28	26890.41
507.46	27136.17
507.63	27187.66
507.81	27300.01
507.98	26867.01
508.16	27475.55
508.33	27222.77
508.50	27398.31
508.68	27494.27
508.85	28102.81
509.03	27950.68
509.20	27770.46
509.38	28098.13
509.55	28170.69
509.73	28243.24
509.90	28151.96
510.08	28194.09
510.25	28381.34
510.42	28507.72
510.60	28105.15
510.77	28709.01
510.95	28847.10
511.12	28650.50
511.30	28926.68
511.47	29282.44
511.64	28966.47
511.82	29118.60
511.99	29291.80
512.17	29036.69
512.34	28879.87
512.51	28854.12
512.69	29359.68
512.86	29537.56
513.04	29872.26
513.21	29450.96
513.38	29649.91
513.56	29507.13
513.73	29289.46
513.90	29823.11
514.08	29998.65
514.25	30188.23
514.43	30085.25
514.60	30157.80
514.77	29912.05
514.95	30125.04
515.12	30527.61
515.29	30572.08
515.47	30590.80
515.64	30906.77
515.81	30934.86
515.99	30656.34
516.16	30808.47
516.33	30597.82
516.51	31227.43
516.68	30675.06
516.85	30766.34
517.03	31054.23
517.20	31072.95
517.37	31175.94
517.54	31136.15
517.72	31604.25
517.89	31440.42
518.06	31618.30
518.24	31356.16
518.41	31412.33
518.58	31335.09
518.75	31564.46
518.93	31597.23
519.10	31807.88
519.27	31868.73
519.45	32065.34
519.62	31880.44
519.79	32114.49
519.96	32168.32
520.14	32676.22
520.31	31985.76
520.48	32488.98
520.65	32385.99
520.83	33024.96
521.00	32652.81
521.17	32678.56
521.34	33207.52
521.52	32957.08
521.69	32891.55
521.86	32746.44
522.03	33247.31
522.20	33469.66
522.38	32912.61
522.55	33174.75
522.72	33071.77
522.89	33109.22
523.07	33420.51
523.24	33684.99
523.41	33397.10
523.58	33523.49
523.75	33516.47
523.92	33516.47
524.10	34012.66
524.27	34017.35
524.44	34012.66
524.61	33968.19
524.78	34511.20
524.96	33989.26
525.13	34258.42
525.30	34387.15
525.47	34742.91
525.64	34508.86
525.81	34354.38
525.98	34492.47
526.16	34738.23
526.33	34312.25
526.50	34904.41
526.67	34668.02
526.84	34178.84
527.01	34621.20
527.18	34590.78
527.36	34801.43
527.53	35091.65
527.70	35117.40
527.87	35318.68
528.04	35122.08
528.21	35035.48
528.38	35548.06
528.55	35218.04
528.72	35634.66
528.89	35847.64
529.07	35531.67
529.24	35667.42
529.41	35796.15
529.58	35779.77
529.75	35206.34
529.92	35952.97
530.09	35644.02
530.26	36046.59
530.43	35555.08
530.60	35379.54
530.77	35777.43
530.94	36306.39
531.11	36123.83
531.28	36081.70
531.46	36507.68
531.63	36556.83
531.80	36266.60
531.97	36510.02
532.14	36100.42
532.31	36414.05
532.48	36624.70
532.65	36547.47
532.82	36158.94
532.99	36917.27
533.16	36268.94
533.33	36559.17
533.50	37057.70
533.67	37055.36
533.84	36737.05
534.01	36849.39
534.18	37123.24
534.35	37198.13
534.52	36664.49
534.69	36971.10
534.86	36886.84
535.03	36755.77
535.20	37656.88
535.37	37254.31
535.54	37516.45
535.71	37106.85
535.88	37270.69
536.05	37361.97
536.22	37797.31
536.38	37846.46
536.55	37581.98
536.72	37394.74
536.89	37551.56
537.06	37469.64
537.23	37699.01
537.40	37525.81
537.57	37673.26
537.74	37823.06
537.91	38122.65
538.08	38129.67
538.25	37881.57
538.42	37699.01
538.59	38115.62
538.75	38242.01
538.92	38099.24
539.09	38417.55
539.26	38422.23
539.43	38284.14
539.60	38356.70
539.77	38520.54
539.94	38773.31
540.11	38780.34
540.28	38600.12
540.44	38939.49
540.61	38623.52
540.78	38480.75
540.95	38880.98
541.12	38918.43
541.29	38586.07
541.46	38635.22
541.62	38785.02
541.79	39054.18
541.96	38763.95
542.13	38745.23
542.30	38731.18
542.47	38979.28
542.63	38906.73
542.80	39210.99
542.97	39489.52
543.14	39739.96
543.31	39868.69
543.48	39475.48
543.64	40266.58
543.81	40058.27
543.98	39880.39
544.15	39555.05
544.32	39995.07
544.48	39768.04
544.65	40006.78
544.82	39742.30
544.99	39791.45
545.16	39835.92
545.32	39793.79
545.49	39901.45
545.66	40236.15
545.83	40247.85
546.00	40261.90
546.16	40060.61
546.33	39955.29
546.50	39999.76
546.67	39849.96
546.83	40027.84
547.00	40091.04
547.17	40062.95
547.34	40561.48
547.50	40275.94
547.67	40872.78
547.84	40308.71
548.00	40793.20
548.17	40451.48
548.34	40594.25
548.51	40722.98
548.67	40715.96
548.84	40942.99
549.01	40741.71
549.18	40701.92
549.34	40690.21
549.51	40835.33
549.68	41134.92
549.84	41020.23
550.01	41249.60
550.18	40708.94
550.34	41153.64
550.51	40964.06
550.68	40856.39
550.84	40788.52
551.01	41127.89
551.18	40617.66
551.34	40919.59
551.51	41214.49
551.68	41045.97
551.84	41036.61
552.01	40985.12
552.18	41354.93
552.34	41301.09
552.51	41514.08
552.68	41532.81
552.84	41338.54
553.01	41841.76
553.18	41556.21
553.34	41305.77
553.51	40980.44
553.67	41118.53
553.84	41532.81
554.01	41493.02
554.17	42003.25
554.34	41687.28
554.51	41839.42
554.67	42113.26
554.84	41748.14
555.00	42003.25
555.17	41825.37
555.33	42253.69
555.50	42014.96
555.67	41703.67
555.83	42019.64
556.00	42021.98
556.16	42667.97
556.33	42174.11
556.50	41848.78
556.66	42127.30
556.83	41837.08
556.99	42480.72
557.16	42019.64
557.32	42265.39
557.49	42548.60
557.65	41930.70
557.82	41743.45
557.98	42192.84
558.15	42019.64
558.32	42560.30
558.48	42351.99
558.65	42913.72
558.81	42272.42
558.98	42251.35
559.14	42375.40
559.31	42274.76
559.47	42866.91
559.64	42714.78
559.80	42920.74
559.97	42616.47
560.13	42251.35
560.30	42632.86
560.46	42396.46
560.63	42412.85
560.79	42803.72
560.96	43166.50
561.12	42653.92
561.29	42951.17
561.45	42522.85
561.61	42501.79
561.78	42536.90
561.94	42546.26
562.11	43002.66
562.27	42600.09
562.44	42873.93
562.60	43040.11
562.77	43075.22
562.93	42813.08
563.10	42813.08
563.26	42553.28
563.42	43007.34
563.59	43119.69
563.75	42883.30
563.92	43454.39
564.08	42691.37
564.24	43203.95
564.41	42920.74
564.57	42838.83
564.74	43091.60
564.90	43210.97
565.07	43456.73
565.23	43168.84
565.39	42974.58
565.56	43192.25
565.72	42937.13
565.88	43281.19
566.05	43505.88
566.21	42909.04
566.38	43283.53
566.54	43416.94
566.70	43105.65
566.87	43693.12
567.03	43309.27
567.19	43344.38
567.36	43557.37
567.52	43330.34
567.68	43690.78
567.85	43164.16
568.01	43545.67
568.17	43129.05
568.34	43629.93
568.50	42782.65
568.66	43220.33
568.83	43477.79
568.99	43063.52
569.15	43379.49
569.32	43281.19
569.48	43473.11
569.64	43840.57
569.81	43592.48
569.97	43538.65
570.13	43885.04
570.30	43232.04
570.46	43051.81
570.62	43079.90
570.78	43620.56
570.95	43655.67
571.11	43365.45
571.27	43646.31
571.43	43866.32
571.60	43335.02
571.76	43412.26
571.92	43597.16
572.09	43459.07
572.25	43737.59
572.41	43524.60
572.57	43576.09
572.74	44088.67
572.90	43604.18
573.06	43555.03
573.22	43676.74
573.38	43594.82
573.55	43475.45
573.71	43484.81
573.87	43578.43
574.03	43419.28
574.20	43489.49
574.36	43622.90
574.52	44076.97
574.68	43770.36
574.84	43943.56
575.01	43552.69
575.17	43445.02
575.33	43489.49
575.49	43379.49
575.65	43899.09
575.82	44341.45
575.98	43885.04
576.14	43821.85
576.30	43714.19
576.46	43454.39
576.62	43533.96
576.79	43391.19
576.95	43557.37
577.11	43931.86
577.27	43681.42
577.43	43278.85
577.59	44023.14
577.75	44027.82
577.92	43246.08
578.08	43416.94
578.24	43707.16
578.40	43480.13
578.56	43805.47
578.72	43922.49
578.88	43765.68
579.04	43466.09
579.21	44121.44
579.37	43519.92
579.53	43679.08
579.69	43255.44
579.85	43845.26
580.01	43782.06
580.17	43711.84
580.33	44266.55
580.49	43992.71
580.65	43885.04
580.82	44261.87
580.98	43456.73
581.14	43676.74
581.30	44105.06
581.46	44058.24
581.62	43775.04
581.78	43913.13
581.94	44357.83
582.10	43880.36
582.26	44002.07
582.42	43997.39
582.58	43995.05
582.74	43585.46
582.90	43849.94
583.06	44198.68
583.22	44158.89
583.38	43945.90
583.54	43849.94
583.70	43936.54
583.86	44306.34
584.02	43901.43
584.18	43629.93
584.34	43800.79
584.50	43959.94
584.66	43962.28
584.82	43896.75
584.98	44350.81
585.14	44151.87
585.30	44076.97
585.46	44074.63
585.62	43770.36
585.78	43910.79
585.94	44083.99
586.10	44065.27
586.26	43753.97
586.42	44245.49
586.58	43775.04
586.74	44168.25
586.90	43959.94
587.06	44053.56
587.22	44229.10
587.38	43723.55
587.54	44072.29
587.70	44341.45
587.86	43941.22
588.02	43927.17
588.18	44484.22
588.34	43826.53
588.49	43515.24
588.65	43807.81
588.81	43648.65
588.97	43552.69
589.13	43379.49
589.29	44116.76
589.45	44280.60
589.61	44170.59
589.77	44259.53
589.93	44477.20
590.08	44453.79
590.24	44421.03
590.40	44186.97
