SpectraSuite Data File
++++++++++++++++++++++++++++++++++++
Date: Fri Oct 25 10:48:31 EDT 2013
User: price-jones
Dark Spectrum Present: No
Reference Spectrum Present: No
Number of Sampled Component Spectra: 1
Spectrometers: USB2+H05261
Integration Time (usec): 100000 (USB2+H05261)
Spectra Averaged: 1 (USB2+H05261)
Boxcar Smoothing: 0 (USB2+H05261)
Correct for Electrical Dark: No (USB2+H05261)
Strobe/Lamp Enabled: No (USB2+H05261)
Correct for Detector Non-linearity: No (USB2+H05261)
Correct for Stray Light: No (USB2+H05261)
Number of Pixels in Processed Spectrum: 2048
>>>>>Begin Processed Spectral Data<<<<<
365.73	152.13
365.92	152.13
366.12	152.13
366.32	46.81
366.52	0.00
366.72	86.60
366.91	0.00
367.11	56.17
367.31	25.75
367.51	63.19
367.70	98.30
367.90	67.88
368.10	51.49
368.30	51.49
368.49	46.81
368.69	35.11
368.89	86.60
369.09	46.81
369.28	30.43
369.48	11.70
369.68	28.09
369.87	74.90
370.07	149.79
370.27	184.90
370.47	205.97
370.66	442.36
370.86	472.79
371.06	507.90
371.25	552.37
371.45	437.68
371.65	435.34
371.84	517.26
372.04	498.53
372.24	507.90
372.44	465.77
372.63	505.56
372.83	564.07
373.03	575.77
373.22	545.34
373.42	526.62
373.62	533.64
373.81	561.73
374.01	643.65
374.21	603.86
374.40	559.39
374.60	526.62
374.79	578.11
374.99	587.47
375.19	645.99
375.38	608.54
375.58	606.20
375.78	629.60
375.97	638.97
376.17	706.84
376.37	669.39
376.56	566.41
376.76	592.16
376.95	594.50
377.15	723.23
377.35	592.16
377.54	648.33
377.74	697.48
377.93	660.03
378.13	664.71
378.33	692.80
378.52	643.65
378.72	695.14
378.91	678.76
379.11	685.78
379.31	709.18
379.50	662.37
379.70	704.50
379.89	692.80
380.09	685.78
380.28	681.10
380.48	676.41
380.68	823.87
380.87	676.41
381.07	746.63
381.26	826.21
381.46	662.37
381.65	741.95
381.85	765.36
382.04	704.50
382.24	770.04
382.43	730.25
382.63	709.18
382.83	802.80
383.02	767.70
383.22	734.93
383.41	828.55
383.61	767.70
383.80	858.98
384.00	730.25
384.19	823.87
384.39	819.19
384.58	809.83
384.78	842.59
384.97	849.61
385.17	877.70
385.36	805.14
385.56	795.78
385.75	795.78
385.95	840.25
386.14	791.10
386.34	802.80
386.53	915.15
386.72	837.91
386.92	823.87
387.11	884.72
387.31	905.79
387.50	873.02
387.70	950.26
387.89	940.90
388.09	957.28
388.28	912.81
388.48	896.43
388.67	1022.81
388.86	943.24
389.06	1011.11
389.25	987.71
389.45	1046.22
389.64	873.02
389.84	1144.52
390.03	1020.47
390.22	1090.69
390.42	985.37
390.61	1111.75
390.81	1139.84
391.00	1071.97
391.19	1132.82
391.39	985.37
391.58	1083.67
391.78	1069.62
391.97	1132.82
392.16	1034.52
392.36	1146.86
392.55	1062.60
392.75	1060.26
392.94	1011.11
393.13	999.41
393.33	1039.20
393.52	1067.28
393.71	1130.48
393.91	1095.37
394.10	1184.31
394.29	1125.80
394.49	1177.29
394.68	1231.12
394.88	1245.16
395.07	1299.00
395.26	1263.89
395.46	1394.96
395.65	1240.48
395.84	1214.74
396.04	1308.36
396.23	1064.94
396.42	1170.27
396.62	1228.78
396.81	1299.00
397.00	1308.36
397.19	1324.74
397.39	1320.06
397.58	1425.39
397.77	1404.32
397.97	1437.09
398.16	1488.58
398.35	1399.64
398.55	1348.15
398.74	1507.30
398.93	1584.54
399.12	1554.12
399.32	1533.05
399.51	1575.18
399.70	1514.33
399.90	1661.78
400.09	1582.20
400.28	1675.82
400.47	1664.12
400.67	1722.63
400.86	1668.80
401.05	1710.93
401.24	1680.50
401.44	1729.66
401.63	1898.17
401.82	1790.51
402.01	1715.61
402.21	1760.08
402.40	1788.17
402.59	1872.43
402.78	1818.60
402.97	1816.26
403.17	1886.47
403.36	1825.62
403.55	1994.14
403.74	1935.62
403.93	1954.35
404.13	1949.67
404.32	1928.60
404.51	1930.94
404.70	1970.73
404.89	1935.62
405.09	1937.96
405.28	1952.01
405.47	1919.24
405.66	1940.30
405.85	2057.33
406.05	2043.29
406.24	2085.42
406.43	2001.16
406.62	2181.38
406.81	2129.89
407.00	2148.61
407.20	2050.31
407.39	2059.67
407.58	2190.74
407.77	2214.15
407.96	2326.49
408.15	2223.51
408.34	2237.55
408.54	2272.66
408.73	2300.75
408.92	2305.43
409.11	2356.92
409.30	2420.11
409.49	2312.45
409.68	2370.96
409.87	2298.41
410.07	2363.94
410.26	2476.29
410.45	2434.16
410.64	2462.24
410.83	2532.46
411.02	2537.14
411.21	2583.95
411.40	2520.76
411.59	2703.32
411.78	2640.12
411.98	2513.74
412.17	2677.57
412.36	2661.19
412.55	2813.32
412.74	2656.51
412.93	2764.17
413.12	2920.99
413.31	2778.22
413.50	2883.54
413.69	2946.73
413.88	2939.71
414.07	3023.97
414.26	2944.39
414.45	3007.59
414.64	2986.52
414.83	3059.08
415.02	3075.46
415.22	3091.85
415.41	3150.36
415.60	3300.16
415.79	3232.28
415.98	3403.14
416.17	3215.90
416.36	3131.64
416.55	3215.90
416.74	3316.54
416.93	3269.73
417.12	3337.60
417.31	3393.78
417.50	3417.18
417.69	3517.83
417.88	3559.95
418.07	3414.84
418.26	3421.86
418.45	3576.34
418.64	3662.94
418.83	3595.06
419.02	3658.26
419.21	3709.75
419.39	3709.75
419.58	3616.13
419.77	3513.14
419.96	3693.37
420.15	3861.88
420.34	3686.34
420.53	3740.18
420.72	3817.41
420.91	3854.86
421.10	3936.78
421.29	3929.76
421.48	3765.92
421.67	3859.54
421.86	3801.03
422.05	3875.93
422.24	3740.18
422.43	3838.48
422.61	3829.12
422.80	3894.65
422.99	4051.47
423.18	4025.72
423.37	3955.51
423.56	3971.89
423.75	3896.99
423.94	4124.02
424.13	3758.90
424.32	3880.61
424.50	3999.98
424.69	4201.26
424.88	4271.48
425.07	4011.68
425.26	3878.27
425.45	3960.19
425.64	3859.54
425.83	4070.19
426.01	4107.64
426.20	4032.74
426.39	4018.70
426.58	3969.55
426.77	3974.23
426.96	4072.53
427.15	4009.34
427.33	4170.83
427.52	4238.71
427.71	4250.41
427.90	4133.39
428.09	4147.43
428.28	4264.46
428.46	4119.34
428.65	4259.78
428.84	4390.84
429.03	4376.80
429.22	4212.96
429.40	4280.84
429.59	4170.83
429.78	3880.61
429.97	3918.06
430.16	4021.04
430.34	4105.30
430.53	4248.07
430.72	4339.35
430.91	4166.15
431.10	4416.59
431.28	4643.62
431.47	4510.21
431.66	4667.03
431.85	4617.88
432.03	4732.56
432.22	4702.14
432.41	4664.69
432.60	4791.08
432.79	4835.55
432.97	4896.40
433.16	4788.74
433.35	4542.98
433.54	4819.16
433.72	4746.61
433.91	4912.78
434.10	4798.10
434.28	4851.93
434.47	4945.55
434.66	4884.70
434.85	4964.28
435.03	4983.00
435.22	5013.43
435.41	5317.70
435.59	5284.93
435.78	5144.50
435.97	5165.56
436.16	5153.86
436.34	5177.26
436.53	5144.50
436.72	5310.68
436.90	5104.71
437.09	5242.80
437.28	5214.71
437.46	5334.08
437.65	5071.94
437.84	5308.34
438.02	5219.39
438.21	5451.11
438.40	5345.78
438.58	5472.17
438.77	5582.18
438.96	5413.66
439.14	5713.25
439.33	5621.97
439.52	5544.73
439.70	5708.57
439.89	5685.16
440.08	5804.53
440.26	5746.02
440.45	5879.43
440.63	5886.45
440.82	6078.37
441.01	5860.70
441.19	6024.54
441.38	6146.25
441.57	6083.05
441.75	6258.59
441.94	6523.07
442.12	6174.33
442.31	6464.56
442.50	6462.22
442.68	6562.86
442.87	6326.47
443.05	6548.82
443.24	6452.86
443.43	6483.28
443.61	6633.08
443.80	6733.72
443.98	6450.52
444.17	6384.98
444.35	6473.92
444.54	6806.28
444.73	6731.38
444.91	6443.49
445.10	6595.63
445.28	6686.91
445.47	6530.09
445.65	6574.56
445.84	6530.09
446.02	6745.42
446.21	6827.34
446.39	6712.66
446.58	6647.12
446.77	6787.55
446.95	6693.93
447.14	6832.02
447.32	6766.49
447.51	6675.21
447.69	6658.82
447.88	6855.43
448.06	6871.81
448.25	6892.88
448.43	6916.28
448.62	6672.87
448.80	6876.49
448.99	6832.02
449.17	6874.15
449.36	6942.03
449.54	7045.01
449.73	7241.62
449.91	7466.31
450.10	7227.57
450.28	7180.76
450.46	7208.85
450.65	7382.05
450.83	7190.13
451.02	7389.07
451.20	7548.23
451.39	7328.22
451.57	7442.90
451.76	7335.24
451.94	7199.49
452.13	7246.30
452.31	7384.39
452.49	7138.63
452.68	7358.64
452.86	7213.53
453.05	7456.95
453.23	7304.81
453.42	7274.38
453.60	7410.14
453.78	7604.40
453.97	7428.86
454.15	7389.07
454.34	7342.26
454.52	7644.19
454.70	7571.63
454.89	7627.81
455.07	7637.17
455.26	7651.21
455.44	7859.52
455.62	8114.64
455.81	7929.74
455.99	7948.46
456.17	7864.20
456.36	7754.19
456.54	7857.18
456.73	7999.95
456.91	8308.90
457.09	8245.71
457.28	8329.97
457.46	8133.36
457.64	8353.37
457.83	8259.75
458.01	8163.79
458.19	8482.10
458.38	8358.05
458.56	8514.87
458.74	8283.16
458.93	8234.00
459.11	8477.42
459.29	8269.11
459.48	8379.12
459.66	8505.51
459.84	8404.86
460.03	8645.94
460.21	8603.81
460.39	8737.22
460.57	8564.02
460.76	8727.86
460.94	8716.16
461.12	8781.69
461.31	8849.57
461.49	8648.28
461.67	8629.56
461.85	8997.02
462.04	8865.95
462.22	9310.65
462.40	9184.26
462.59	9020.42
462.77	8997.02
462.95	8954.89
463.13	9149.15
463.32	8978.30
463.50	9121.07
463.68	9242.78
463.86	9261.50
464.05	8980.64
464.23	8968.93
464.41	9235.75
464.59	9015.74
464.78	9495.55
464.96	9366.82
465.14	9118.73
465.32	9320.01
465.50	9390.23
465.69	9509.60
465.87	9280.22
466.05	9359.80
466.23	9277.88
466.41	9420.66
466.60	9554.07
466.78	9481.51
466.96	9331.72
467.14	9366.82
467.32	9528.32
467.51	9593.86
467.69	9224.05
467.87	9462.79
468.05	9549.39
468.23	9586.83
468.41	9366.82
468.60	9467.47
468.78	9738.97
468.96	9680.46
469.14	9755.35
469.32	9837.27
469.50	9577.47
469.69	10115.80
469.87	10019.83
470.05	9795.14
470.23	9818.55
470.41	9916.85
470.59	9830.25
470.77	9867.70
470.95	10045.58
471.14	10232.82
471.32	10274.95
471.50	10281.97
471.68	10546.45
471.86	10525.39
472.04	10384.96
472.22	10768.80
472.40	10331.12
472.58	10551.14
472.77	10548.79
472.95	10869.45
473.13	11147.97
473.31	10623.69
473.49	10740.72
473.67	10761.78
473.85	10892.85
474.03	11169.04
474.21	10984.13
474.39	11201.80
474.57	11290.74
474.75	11346.92
474.93	11288.40
475.12	11290.74
475.30	11424.15
475.48	11375.00
475.66	11517.78
475.84	11487.35
476.02	11550.54
476.20	11517.78
476.38	11864.18
476.56	11927.37
476.74	11913.33
476.92	12077.16
477.10	11976.52
477.28	12163.76
477.46	12341.64
477.64	12348.67
477.82	12725.49
478.00	12629.53
478.18	12863.58
478.36	12582.72
478.54	12683.36
478.72	12929.12
478.90	13132.75
479.08	13247.43
479.26	13303.60
479.44	13165.51
479.62	13542.34
479.80	13383.18
479.98	13631.28
480.16	13579.79
480.34	13743.63
480.52	14181.31
480.70	13881.72
480.88	13968.32
481.06	14193.01
481.24	14104.07
481.41	14218.75
481.59	14604.94
481.77	14588.56
481.95	14792.19
482.13	14504.30
482.31	14836.66
482.49	14780.48
482.67	15171.35
482.85	15428.81
483.03	15009.86
483.21	15541.16
483.39	15667.55
483.57	15496.69
483.74	15740.10
483.92	15824.36
484.10	15676.91
484.28	15932.03
484.46	16182.46
484.64	16552.27
484.82	16273.74
485.00	16449.28
485.18	16552.27
485.35	16786.32
485.53	16283.11
485.71	16390.77
485.89	16730.15
486.07	16648.23
486.25	16835.47
486.43	17383.16
486.61	17003.99
486.78	17680.41
486.96	17675.73
487.14	17937.87
487.32	18104.04
487.50	18139.15
487.68	18132.13
487.85	18609.60
488.03	18466.83
488.21	19115.16
488.39	18686.84
488.57	18862.38
488.75	18981.74
488.92	19506.02
489.10	19723.69
489.28	19728.38
489.46	19983.49
489.64	20135.63
489.81	20563.95
489.99	20491.39
490.17	20695.02
490.35	20704.38
490.53	20620.12
490.70	20858.85
490.88	20636.50
491.06	20982.90
491.24	20896.30
491.41	21193.55
491.59	21160.78
491.77	21359.73
491.95	21345.69
492.13	21593.78
492.30	22078.27
492.48	21865.28
492.66	22099.34
492.84	21888.69
493.01	22794.48
493.19	22127.42
493.37	22455.10
493.54	22677.45
493.72	22904.48
493.90	23040.23
494.08	23131.51
494.25	23171.30
494.43	23515.36
494.61	23894.53
494.79	23803.25
494.96	23962.40
495.14	23845.38
495.32	24159.01
495.49	24142.63
495.67	24175.39
495.85	24470.30
496.02	25029.69
496.20	24713.72
496.38	24886.92
496.55	24788.61
496.73	25479.07
496.91	25184.16
497.09	24982.88
497.26	25649.93
497.44	25170.12
497.62	25467.37
497.79	25839.51
497.97	25446.30
498.14	25748.23
498.32	25921.43
498.50	26019.74
498.67	26125.06
498.85	26878.71
499.03	26497.20
499.20	26864.67
499.38	26768.71
499.56	26857.65
499.73	26939.57
499.91	27063.61
500.08	27360.86
500.26	26588.49
500.44	26902.12
500.61	26955.95
500.79	27077.66
500.97	27400.65
501.14	27662.79
501.32	27412.35
501.49	27325.75
501.67	27623.00
501.84	28065.36
502.02	27917.91
502.20	28065.36
502.37	28189.41
502.55	28116.86
502.72	28301.76
502.90	28577.94
503.07	28491.34
503.25	28772.21
503.43	28678.58
503.60	28662.20
503.78	28650.50
503.95	28858.81
504.13	29139.67
504.30	29626.50
504.48	29125.63
504.65	29443.94
504.83	29420.53
505.01	29888.64
505.18	29607.78
505.36	30068.86
505.53	29762.25
505.71	30270.15
505.88	30260.79
506.06	29858.21
506.23	30038.44
506.41	29949.50
506.58	30235.04
506.76	30441.01
506.93	30794.43
507.11	30597.82
507.28	30398.88
507.46	30661.02
507.63	30417.60
507.81	30693.79
507.98	30586.12
508.16	30642.29
508.33	31016.78
508.50	30981.67
508.68	30962.95
508.85	31505.95
509.03	31405.31
509.20	31580.85
509.38	31360.84
509.55	31857.03
509.73	31627.66
509.90	31779.79
510.08	31702.56
510.25	31510.63
510.42	32212.79
510.60	32151.94
510.77	32381.31
510.95	32112.15
511.12	32268.97
511.30	32950.06
511.47	33226.24
511.64	32610.68
511.82	32685.58
511.99	32573.24
512.17	33193.48
512.34	32636.43
512.51	33397.10
512.69	32992.19
512.86	32877.51
513.04	33666.27
513.21	33464.98
513.38	33598.39
513.56	33795.00
513.73	33450.94
513.90	33273.06
514.08	33418.17
514.25	33947.13
514.43	33570.30
514.60	33539.88
514.77	33832.44
514.95	34216.29
515.12	33785.63
515.29	34195.23
515.47	34478.43
515.64	34911.43
515.81	34197.57
515.99	34263.10
516.16	34359.06
516.33	34003.30
516.51	34031.39
516.68	34059.48
516.85	34050.11
517.03	33717.76
517.20	34508.86
517.37	35000.37
517.54	35225.06
517.72	34679.72
517.89	34991.01
518.06	34665.67
518.24	34906.75
518.41	34621.20
518.58	34998.03
518.75	35290.60
518.93	35342.09
519.10	35346.77
519.27	35690.83
519.45	35466.14
519.62	35913.18
519.79	35461.46
519.96	36102.76
520.14	35995.10
520.31	36002.12
520.48	36102.76
520.65	36142.55
520.83	36212.77
521.00	36549.81
521.17	36526.40
521.34	36432.78
521.52	36659.81
521.69	36720.66
521.86	37184.09
522.03	37088.13
522.20	36856.42
522.38	37053.02
522.55	37134.94
522.72	37111.53
522.89	37214.52
523.07	36903.23
523.24	36935.99
523.41	37961.15
523.58	37305.80
523.75	37628.79
523.92	37570.28
524.10	37801.99
524.27	37773.91
524.44	38148.39
524.61	37848.80
524.78	38246.69
524.96	38389.47
525.13	38307.55
525.30	38270.10
525.47	38010.30
525.64	37919.02
525.81	38443.30
525.98	38363.72
526.16	37785.61
526.33	37975.19
526.50	38438.62
526.67	38349.68
526.84	38579.05
527.01	38476.07
527.18	38143.71
527.36	38794.38
527.53	38778.00
527.70	38855.23
527.87	39072.90
528.04	38955.88
528.21	39316.32
528.38	38913.75
528.55	39557.39
528.72	39779.74
528.89	39964.65
529.07	39342.06
529.24	39491.86
529.41	39213.34
529.58	39138.44
529.75	39208.65
529.92	39646.33
530.09	39936.56
530.26	39601.86
530.43	39674.42
530.60	39660.38
530.77	39697.83
530.94	40334.45
531.11	39681.44
531.28	39941.24
531.46	40275.94
531.63	40657.45
531.80	39966.99
531.97	40039.54
532.14	40006.78
532.31	39924.86
532.48	40140.19
532.65	40612.98
532.82	40652.76
532.99	40715.96
533.16	40540.42
533.33	40509.99
533.50	40924.27
533.67	40935.97
533.84	40383.60
534.01	40938.31
534.18	40783.83
534.35	41067.04
534.52	40362.54
534.69	40732.34
534.86	41097.47
535.03	40825.96
535.20	41216.83
535.37	41794.95
535.54	41724.73
535.71	41202.79
535.88	41078.74
536.05	41179.39
536.22	41518.76
536.38	41467.27
536.55	41099.81
536.72	41446.21
536.89	41387.69
537.06	41165.34
537.23	42192.84
537.40	41432.16
537.57	41773.88
537.74	41432.16
537.91	42075.81
538.08	42031.34
538.25	41715.37
538.42	41553.87
538.59	42134.32
538.75	41457.91
538.92	41984.53
539.09	42298.16
539.26	42043.04
539.43	41855.80
539.60	41982.19
539.77	41893.25
539.94	42143.69
540.11	41799.63
540.28	41937.72
540.44	42260.71
540.61	42204.54
540.78	41977.51
540.95	42492.43
541.12	42410.51
541.29	42850.53
541.46	42487.74
541.62	42564.98
541.79	42569.66
541.96	42328.59
542.13	42307.52
542.30	42953.51
542.47	43037.77
542.63	42462.00
542.80	43026.07
542.97	43255.44
543.14	43194.59
543.31	43650.99
543.48	43318.64
543.64	44055.90
543.81	43732.91
543.98	43264.80
544.15	43828.87
544.32	43861.64
544.48	44105.06
544.65	43634.61
544.82	43709.50
544.99	43491.83
545.16	43821.85
545.32	43482.47
545.49	43924.83
545.66	43894.41
545.83	43908.45
546.00	44081.65
546.16	44392.94
546.33	43819.51
546.50	43704.82
546.67	44233.78
546.83	43328.00
547.00	43973.98
547.17	43599.50
547.34	43718.87
547.50	44416.35
547.67	44435.07
547.84	44465.50
548.00	44179.95
548.17	44154.21
548.34	44545.08
548.51	44638.70
548.67	44882.11
548.84	44652.74
549.01	44329.75
549.18	44491.24
549.34	44729.98
549.51	44442.09
549.68	44425.71
549.84	44685.51
550.01	44762.75
550.18	43908.45
550.34	44636.36
550.51	44762.75
550.68	44493.58
550.84	44477.20
551.01	45024.89
551.18	44727.64
551.34	44781.47
551.51	45001.48
551.68	44886.79
551.84	44989.78
552.01	44643.38
552.18	44802.53
552.34	44598.91
552.51	45137.23
552.68	45113.83
552.84	45167.66
553.01	45469.59
553.18	45015.52
553.34	45151.27
553.51	45237.87
553.67	45134.89
553.84	45284.68
554.01	45118.51
554.17	45593.64
554.34	45317.45
554.51	45516.40
554.67	45762.15
554.84	45137.23
555.00	45071.70
555.17	45298.73
555.33	45839.39
555.50	45687.26
555.67	45588.95
555.83	45439.16
556.00	45221.49
556.16	46183.45
556.33	45600.66
556.50	45614.70
556.66	45446.18
556.83	45284.68
556.99	45853.44
557.16	46171.75
557.32	45610.02
557.49	45668.53
557.65	45212.13
557.82	45638.11
557.98	45645.13
558.15	46024.29
558.32	45687.26
558.48	45694.28
558.65	45488.31
558.81	45902.59
558.98	45542.14
559.14	45975.14
559.31	45989.19
559.47	46033.66
559.64	46321.54
559.80	46227.92
559.97	46000.89
560.13	46075.79
560.30	45904.93
560.46	46295.80
560.63	46316.86
560.79	46382.40
560.96	46328.56
561.12	46307.50
561.29	46532.19
561.45	46564.96
561.61	46185.79
561.78	46190.47
561.94	46216.22
562.11	46155.36
562.27	46464.32
562.44	46387.08
562.60	46782.63
562.77	46330.90
562.93	46564.96
563.10	46719.43
563.26	46321.54
563.42	46571.98
563.59	46447.93
563.75	46326.22
563.92	46454.95
564.08	46300.48
564.24	46752.20
564.41	46621.13
564.57	46789.65
564.74	46487.72
564.90	46712.41
565.07	46513.47
565.23	46656.24
565.39	46279.41
565.56	46986.25
565.72	46225.58
565.88	46176.43
566.05	46396.44
566.21	46497.08
566.38	46342.61
566.54	46469.00
566.70	46698.37
566.87	47079.88
567.03	46646.88
567.19	47309.25
567.36	46490.06
567.52	46579.00
567.68	46562.62
567.85	46316.86
568.01	46770.93
568.17	46192.81
568.34	46541.55
568.50	46281.75
568.66	46665.60
568.83	47007.32
568.99	46464.32
569.15	46555.60
569.32	46373.03
569.48	46476.02
569.64	46794.33
569.81	46902.00
569.97	46724.11
570.13	46614.11
570.30	46588.36
570.46	46244.30
570.62	46195.15
570.78	46632.83
570.95	46312.18
571.11	46745.18
571.27	46539.21
571.43	46763.90
571.60	46899.65
571.76	46693.69
571.92	46569.64
572.09	47091.58
572.25	46836.46
572.41	46796.67
572.57	46473.68
572.74	47533.94
572.90	47119.66
573.06	46586.02
573.22	47257.76
573.38	46906.68
573.55	46609.43
573.71	47388.83
573.87	46918.38
574.03	46876.25
574.20	46993.28
574.36	46836.46
574.52	47253.08
574.68	46761.56
574.84	46784.97
575.01	47070.51
575.17	46871.57
575.33	46848.16
575.49	46894.97
575.65	47468.40
575.82	47084.56
575.98	46803.69
576.14	47152.43
576.30	47215.63
576.46	46799.01
576.62	46646.88
576.79	46677.30
576.95	46436.23
577.11	46813.05
577.27	46806.03
577.43	46911.36
577.59	46948.81
577.75	46887.95
577.92	46735.82
578.08	46471.34
578.24	46265.37
578.40	46450.27
578.56	46756.88
578.72	46710.07
578.88	47035.41
579.04	46944.12
579.21	47182.86
579.37	46845.82
579.53	46782.63
579.69	47194.56
579.85	46766.24
580.01	46871.57
580.17	46904.34
580.33	47356.06
580.49	46988.60
580.65	47187.54
580.82	46799.01
580.98	46869.23
581.14	47180.52
581.30	46897.31
581.46	47138.39
581.62	47112.64
581.78	46770.93
581.94	47384.15
582.10	47239.03
582.26	47374.78
582.42	46946.47
582.58	47323.29
582.74	46906.68
582.90	47126.69
583.06	46880.93
583.22	47110.30
583.38	47129.03
583.54	47150.09
583.70	46937.10
583.86	47274.14
584.02	47117.32
584.18	47203.92
584.34	47136.05
584.50	47454.36
584.66	46836.46
584.82	46918.38
584.98	47702.46
585.14	47201.58
585.30	46529.85
585.46	46878.59
585.62	46789.65
585.78	47000.30
585.94	46738.16
586.10	46932.42
586.26	46967.53
586.42	46864.55
586.58	47089.24
586.74	47299.89
586.90	46560.28
587.06	46906.68
587.22	46911.36
587.38	46920.72
587.54	47281.16
587.70	47452.02
587.86	47358.40
588.02	47480.11
588.18	47161.79
588.34	47133.71
588.49	46586.02
588.65	46614.11
588.81	46593.04
588.97	46813.05
589.13	46267.71
589.29	46349.63
589.45	46939.44
589.61	46700.71
589.77	47215.63
589.93	47180.52
