SpectraSuite Data File
++++++++++++++++++++++++++++++++++++
Date: Fri Oct 25 10:47:31 EDT 2013
User: price-jones
Dark Spectrum Present: No
Reference Spectrum Present: No
Number of Sampled Component Spectra: 1
Spectrometers: USB2+H05261
Integration Time (usec): 100000 (USB2+H05261)
Spectra Averaged: 1 (USB2+H05261)
Boxcar Smoothing: 0 (USB2+H05261)
Correct for Electrical Dark: No (USB2+H05261)
Strobe/Lamp Enabled: No (USB2+H05261)
Correct for Detector Non-linearity: No (USB2+H05261)
Correct for Stray Light: No (USB2+H05261)
Number of Pixels in Processed Spectrum: 2048
>>>>>Begin Processed Spectral Data<<<<<
365.73	128.73
365.92	128.73
366.12	128.73
366.32	117.03
366.52	63.19
366.72	67.88
366.91	42.13
367.11	0.00
367.31	35.11
367.51	0.00
367.70	32.77
367.90	51.49
368.10	46.81
368.30	46.81
368.49	23.41
368.69	119.37
368.89	70.22
369.09	4.68
369.28	98.30
369.48	60.85
369.68	131.07
369.87	98.30
370.07	35.11
370.27	35.11
370.47	231.71
370.66	360.44
370.86	409.59
371.06	538.32
371.25	465.77
371.45	404.91
371.65	418.96
371.84	447.04
372.04	402.57
372.24	456.40
372.44	440.02
372.63	517.26
372.83	461.09
373.03	463.43
373.22	484.49
373.42	454.06
373.62	526.62
373.81	486.83
374.01	545.34
374.21	503.22
374.40	550.03
374.60	573.43
374.79	500.87
374.99	578.11
375.19	477.47
375.38	472.79
375.58	554.71
375.78	510.24
375.97	547.69
376.17	730.25
376.37	538.32
376.56	566.41
376.76	559.39
376.95	594.50
377.15	648.33
377.35	664.71
377.54	578.11
377.74	524.28
377.93	601.52
378.13	566.41
378.33	510.24
378.52	545.34
378.72	667.05
378.91	533.64
379.11	615.56
379.31	627.26
379.50	634.29
379.70	678.76
379.89	732.59
380.09	653.01
380.28	594.50
380.48	767.70
380.68	709.18
380.87	617.90
381.07	645.99
381.26	690.46
381.46	683.44
381.65	641.31
381.85	648.33
382.04	667.05
382.24	662.37
382.43	653.01
382.63	648.33
382.83	571.09
383.02	662.37
383.22	660.03
383.41	716.20
383.61	622.58
383.80	751.31
384.00	732.59
384.19	699.82
384.39	760.67
384.58	730.25
384.78	732.59
384.97	753.65
385.17	709.18
385.36	730.25
385.56	704.50
385.75	732.59
385.95	770.04
386.14	830.89
386.34	758.33
386.53	765.36
386.72	744.29
386.92	828.55
387.11	734.93
387.31	863.66
387.50	819.19
387.70	858.98
387.89	828.55
388.09	763.01
388.28	823.87
388.48	805.14
388.67	858.98
388.86	805.14
389.06	816.85
389.25	919.83
389.45	891.74
389.64	870.68
389.84	882.38
390.03	875.36
390.22	805.14
390.42	915.15
390.61	891.74
390.81	947.92
391.00	903.45
391.19	966.64
391.39	844.93
391.58	833.23
391.78	926.85
391.97	954.94
392.16	887.06
392.36	964.30
392.55	1034.52
392.75	1039.20
392.94	933.87
393.13	961.96
393.33	966.64
393.52	1018.13
393.71	987.71
393.91	1004.09
394.10	1081.33
394.29	1015.79
394.49	1055.58
394.68	1078.99
394.88	1097.71
395.07	1137.50
395.26	1053.24
395.46	1088.35
395.65	1095.37
395.84	1067.28
396.04	1214.74
396.23	1144.52
396.42	1071.97
396.62	1130.48
396.81	1118.78
397.00	1025.15
397.19	1181.97
397.39	1167.93
397.58	1228.78
397.77	1245.16
397.97	1261.55
398.16	1221.76
398.35	1240.48
398.55	1212.40
398.74	1249.85
398.93	1224.10
399.12	1231.12
399.32	1301.34
399.51	1196.01
399.70	1357.51
399.90	1320.06
400.09	1380.92
400.28	1350.49
400.47	1371.55
400.67	1448.79
400.86	1413.68
401.05	1331.76
401.24	1432.41
401.44	1507.30
401.63	1437.09
401.82	1444.11
402.01	1371.55
402.21	1572.84
402.40	1605.61
402.59	1495.60
402.78	1521.35
402.97	1598.59
403.17	1507.30
403.36	1490.92
403.55	1591.56
403.74	1605.61
403.93	1579.86
404.13	1551.78
404.32	1558.80
404.51	1554.12
404.70	1621.99
404.89	1638.38
405.09	1708.59
405.28	1659.44
405.47	1654.76
405.66	1715.61
405.85	1717.95
406.05	1710.93
406.24	1703.91
406.43	1645.40
406.62	1748.38
406.81	1851.36
407.00	1809.23
407.20	1811.57
407.39	1750.72
407.58	1771.79
407.77	1799.87
407.96	1879.45
408.15	1872.43
408.34	1870.09
408.54	1987.11
408.73	2008.18
408.92	1891.15
409.11	2059.67
409.30	2085.42
409.49	1947.33
409.68	1982.43
409.87	1867.75
410.07	2179.04
410.26	2099.46
410.45	2099.46
410.64	2003.50
410.83	2155.63
411.02	2036.27
411.21	2214.15
411.40	2218.83
411.59	2207.13
411.78	2253.94
411.98	2230.53
412.17	2258.62
412.36	2312.45
412.55	2298.41
412.74	2424.80
412.93	2326.49
413.12	2403.73
413.31	2513.74
413.50	2424.80
413.69	2438.84
413.88	2546.50
414.07	2525.44
414.26	2483.31
414.45	2675.23
414.64	2520.76
414.83	2574.59
415.02	2658.85
415.22	2616.72
415.41	2637.78
415.60	2551.18
415.79	2712.68
415.98	2864.82
416.17	2801.62
416.36	2785.24
416.55	2813.32
416.74	2834.39
416.93	2722.04
417.12	2850.77
417.31	2888.22
417.50	2867.16
417.69	2928.01
417.88	2930.35
418.07	3061.42
418.26	2958.44
418.45	2951.42
418.64	3002.91
418.83	3241.64
419.02	3133.98
419.21	3164.40
419.39	3164.40
419.58	3042.70
419.77	3035.67
419.96	3204.19
420.15	3166.74
420.34	3185.47
420.53	3180.79
420.72	3344.63
420.91	3368.03
421.10	3262.71
421.29	3377.39
421.48	3295.47
421.67	3358.67
421.86	3346.97
422.05	3279.09
422.24	3339.94
422.43	3508.46
422.61	3372.71
422.80	3508.46
422.99	3260.37
423.18	3421.86
423.37	3300.16
423.56	3386.76
423.75	3346.97
423.94	3356.33
424.13	3213.56
424.32	3262.71
424.50	3396.12
424.69	3506.12
424.88	3571.66
425.07	3391.44
425.26	3379.73
425.45	3389.10
425.64	3398.46
425.83	3496.76
426.01	3545.91
426.20	3510.80
426.39	3496.76
426.58	3433.57
426.77	3473.36
426.96	3449.95
427.15	3452.29
427.33	3545.91
427.52	3609.11
427.71	3550.59
427.90	3730.81
428.09	3583.36
428.28	3688.68
428.46	3623.15
428.65	3742.52
428.84	3737.84
429.03	3873.59
429.22	3637.19
429.40	3742.52
429.59	3641.87
429.78	3541.23
429.97	3471.01
430.16	3693.37
430.34	3763.58
430.53	3740.18
430.72	3885.29
430.91	3779.97
431.10	3761.24
431.28	3889.97
431.47	4049.13
431.66	4060.83
431.85	3936.78
432.03	4039.76
432.22	4182.54
432.41	4049.13
432.60	4086.58
432.79	4112.32
432.97	4112.32
433.16	4002.32
433.35	4159.13
433.54	4140.41
433.72	4210.62
433.91	4016.36
434.10	4109.98
434.28	4152.11
434.47	4290.20
434.66	4196.58
434.85	4325.31
435.03	4479.79
435.22	4348.72
435.41	4447.02
435.59	4372.12
435.78	4423.61
435.97	4388.50
436.16	4409.57
436.34	4528.94
436.53	4517.23
436.72	4702.14
436.90	4475.10
437.09	4425.95
437.28	4421.27
437.46	4442.34
437.65	4671.71
437.84	4545.32
438.02	4547.66
438.21	4606.17
438.40	4550.00
438.58	4770.01
438.77	4844.91
438.96	4634.26
439.14	4896.40
439.33	4915.12
439.52	4894.06
439.70	5013.43
439.89	5048.54
440.08	4957.25
440.26	5004.07
440.45	4833.21
440.63	5135.14
440.82	5118.75
441.01	5116.41
441.19	5210.03
441.38	5401.96
441.57	5233.44
441.75	5617.29
441.94	5399.62
442.12	5434.72
442.31	5605.58
442.50	5472.17
442.68	5533.03
442.87	5605.58
443.05	5584.52
443.24	5643.03
443.43	5523.66
443.61	5535.37
443.80	5748.36
443.98	5579.84
444.17	5373.87
444.35	5596.22
444.54	5802.19
444.73	5699.20
444.91	5582.18
445.10	5724.95
445.28	5680.48
445.47	5617.29
445.65	5820.91
445.84	5809.21
446.02	5841.98
446.21	5692.18
446.39	5802.19
446.58	5846.66
446.77	5797.51
446.95	5729.63
447.14	5830.27
447.32	5738.99
447.51	5706.23
447.69	5753.04
447.88	5846.66
448.06	5966.03
448.25	5757.72
448.43	5844.32
448.62	5785.80
448.80	5949.64
448.99	5928.58
449.17	5907.51
449.36	6045.60
449.54	5984.75
449.73	6258.59
449.91	6237.53
450.10	6129.86
450.28	6202.42
450.46	6312.42
450.65	6071.35
450.83	6464.56
451.02	6204.76
451.20	6267.95
451.39	6396.68
451.57	6183.70
451.76	6115.82
451.94	6232.85
452.13	6366.26
452.31	6246.89
452.49	6223.48
452.68	6225.82
452.86	6108.80
453.05	6277.32
453.23	6399.02
453.42	6415.41
453.60	6504.35
453.78	6473.92
453.97	6574.56
454.15	6459.88
454.34	6389.66
454.52	6696.27
454.70	6705.63
454.89	6450.52
455.07	6663.51
455.26	6729.04
455.44	6775.85
455.62	6740.74
455.81	6602.65
455.99	6623.72
456.17	6792.23
456.36	6766.49
456.54	6906.92
456.73	6998.20
456.91	7157.36
457.09	7016.93
457.28	7133.95
457.46	6958.41
457.64	7194.81
457.83	7080.12
458.01	7009.90
458.19	7105.87
458.38	7248.64
458.56	7164.38
458.74	7297.79
458.93	7190.13
459.11	7325.88
459.29	7435.88
459.48	7183.10
459.66	7440.56
459.84	7452.27
460.03	7447.58
460.21	7368.01
460.39	7386.73
460.57	7307.15
460.76	7461.63
460.94	7501.42
461.12	7426.52
461.31	7492.05
461.49	7590.36
461.67	7604.40
461.85	7597.38
462.04	7709.72
462.22	8374.44
462.40	7843.14
462.59	7873.56
462.77	7531.84
462.95	7903.99
463.13	7859.52
463.32	7873.56
463.50	7836.11
463.68	7943.78
463.86	7946.12
464.05	7777.60
464.23	7583.34
464.41	8049.10
464.59	7861.86
464.78	8205.92
464.96	8138.04
465.14	8021.02
465.32	8187.19
465.50	8039.74
465.69	8138.04
465.87	8046.76
466.05	8121.66
466.23	8140.38
466.41	8063.15
466.60	8360.39
466.78	8056.12
466.96	8140.38
467.14	8170.81
467.32	8318.26
467.51	8596.79
467.69	8180.17
467.87	8182.51
468.05	8367.42
468.23	8250.39
468.41	8196.56
468.60	8451.67
468.78	8613.17
468.96	8365.07
469.14	8542.96
469.32	8737.22
469.50	8376.78
469.69	8549.98
469.87	8702.11
470.05	8830.84
470.23	8751.26
470.41	8631.90
470.59	8830.84
470.77	8774.67
470.95	8856.59
471.14	8982.98
471.32	8819.14
471.50	9139.79
471.68	8994.68
471.86	9057.87
472.04	9088.30
472.22	9448.74
472.40	9118.73
472.58	9247.46
472.77	9210.01
472.95	9235.75
473.13	9708.54
473.31	9294.27
473.49	9259.16
473.67	9364.48
473.85	9415.98
474.03	9610.24
474.21	9884.08
474.39	9781.10
474.57	9951.96
474.75	9771.74
474.93	9783.44
475.12	9966.00
475.30	9717.90
475.48	10033.88
475.66	9994.09
475.84	9961.32
476.02	9940.26
476.20	9958.98
476.38	10408.36
476.56	10518.37
476.74	10537.09
476.92	10548.79
477.10	10384.96
477.28	10677.52
477.46	10754.76
477.64	10803.91
477.82	10778.17
478.00	10916.26
478.18	11185.42
478.36	11222.87
478.54	11346.92
478.72	11159.67
478.90	11344.58
479.08	11644.17
479.26	11655.87
479.44	11688.64
479.62	11936.73
479.80	11906.31
479.98	11932.05
480.16	12472.71
480.34	11948.43
480.52	12290.15
480.70	12079.50
480.88	12084.19
481.06	12042.06
481.24	12325.26
481.41	12748.90
481.59	12507.82
481.77	12746.56
481.95	12711.45
482.13	12952.52
482.31	12828.48
482.49	13219.35
482.67	12992.31
482.85	13331.69
483.03	13551.70
483.21	13671.07
483.39	13483.83
483.57	13406.59
483.74	13916.83
483.92	13973.00
484.10	14078.32
484.28	14195.35
484.46	14251.52
484.64	14658.78
484.82	14326.42
485.00	14263.22
485.18	14628.35
485.35	14850.70
485.53	14349.82
485.71	14682.18
485.89	15108.16
486.07	15051.99
486.25	15147.95
486.43	15382.00
486.61	15592.65
486.78	15370.30
486.96	15611.37
487.14	15735.42
487.32	15995.22
487.50	16177.78
487.68	16292.47
487.85	16201.19
488.03	16475.03
488.21	16802.71
488.39	16599.08
488.57	16901.01
488.75	16938.46
488.92	17118.68
489.10	17242.73
489.28	17635.94
489.46	17458.06
489.64	17420.61
489.81	18047.87
489.99	18097.02
490.17	18082.98
490.35	18590.88
490.53	18305.33
490.70	18366.18
490.88	18078.30
491.06	18665.77
491.24	18497.25
491.41	18787.48
491.59	18728.97
491.77	18923.23
491.95	19019.19
492.13	19035.58
492.30	19559.86
492.48	19454.53
492.66	19463.90
492.84	19562.20
493.01	19756.46
493.19	19419.42
493.37	20334.57
493.54	20161.37
493.72	20397.77
493.90	20191.80
494.08	20505.43
494.25	20709.06
494.43	20718.42
494.61	21212.28
494.79	21181.85
494.96	21006.31
495.14	21010.99
495.32	21336.32
495.49	21195.89
495.67	21392.50
495.85	21605.49
496.02	21879.33
496.20	22047.85
496.38	21816.13
496.55	22183.60
496.73	22530.00
496.91	22185.94
497.09	22410.63
497.26	22534.68
497.44	22347.44
497.62	22691.49
497.79	23112.79
497.97	22864.69
498.14	22843.63
498.32	23253.22
498.50	23026.19
498.67	23529.41
498.85	23508.34
499.03	23632.39
499.20	23381.95
499.38	23875.80
499.56	23929.64
499.73	23983.47
499.91	24123.90
500.08	24156.67
500.26	23922.62
500.44	24077.09
500.61	24137.94
500.79	24299.44
500.97	24465.62
501.14	24381.36
501.32	24709.04
501.49	24755.85
501.67	24755.85
501.84	24959.47
502.02	24783.93
502.20	25050.75
502.37	25209.91
502.55	25266.08
502.72	25209.91
502.90	25420.56
503.07	25687.38
503.25	25495.46
503.43	25514.18
503.60	25556.31
503.78	25771.64
503.95	25692.06
504.13	25619.50
504.30	26052.50
504.48	26122.72
504.65	26288.90
504.83	26466.78
505.01	26480.82
505.18	26377.84
505.36	26773.39
505.53	26654.02
505.71	26752.32
505.88	26881.05
506.06	26190.59
506.23	26829.56
506.41	26703.17
506.58	27108.08
506.76	27021.48
506.93	26775.73
507.11	27377.25
507.28	27419.38
507.46	27269.58
507.63	27311.71
507.81	27798.54
507.98	27487.25
508.16	27910.89
508.33	27936.63
508.50	27957.70
508.68	27983.44
508.85	27985.79
509.03	28325.16
509.20	28542.83
509.38	28545.17
509.55	28744.12
509.73	28418.78
509.90	28886.89
510.08	28694.97
510.25	28596.67
510.42	28706.67
510.60	29039.03
510.77	29247.33
510.95	29209.89
511.12	28872.85
511.30	29357.34
511.47	29331.59
511.64	29551.60
511.82	29734.17
511.99	29486.07
512.17	29638.20
512.34	29668.63
512.51	29589.05
512.69	30162.48
512.86	29830.13
513.04	29872.26
513.21	30225.68
513.38	30052.48
513.56	29813.74
513.73	30059.50
513.90	30452.71
514.08	30345.05
514.25	30195.25
514.43	30445.69
514.60	30340.36
514.77	30597.82
514.95	30529.95
515.12	30759.32
515.29	30813.15
515.47	31065.93
515.64	30927.84
515.81	30670.38
515.99	31218.07
516.16	30953.58
516.33	31325.73
516.51	31168.91
516.68	31110.40
516.85	30761.66
517.03	31173.60
517.20	31126.78
517.37	31545.74
517.54	31630.00
517.72	32144.92
517.89	31697.88
518.06	31864.05
518.24	30967.63
518.41	31725.96
518.58	31718.94
518.75	31819.58
518.93	32133.21
519.10	32283.01
519.27	32493.66
519.45	32318.12
519.62	32435.14
519.79	32383.65
519.96	32561.53
520.14	33163.05
520.31	32393.01
520.48	32861.12
520.65	32716.01
520.83	33230.93
521.00	33160.71
521.17	33399.44
521.34	33369.02
521.52	33219.22
521.69	33273.06
521.86	33408.81
522.03	33626.48
522.20	33516.47
522.38	33598.39
522.55	33666.27
522.72	33773.93
522.89	33785.63
523.07	33577.33
523.24	33373.70
523.41	33673.29
523.58	33689.67
523.75	34244.38
523.92	34094.58
524.10	34321.62
524.27	34029.05
524.44	34536.94
524.61	34480.77
524.78	34862.28
524.96	34642.27
525.13	34738.23
525.30	35016.75
525.47	35049.52
525.64	34946.54
525.81	35306.98
525.98	34995.69
526.16	34852.92
526.33	35058.88
526.50	35093.99
526.67	34988.67
526.84	34518.22
527.01	34693.76
527.18	35384.22
527.36	35164.21
527.53	35634.66
527.70	35674.45
527.87	35739.98
528.04	35477.84
528.21	35583.16
528.38	35775.09
528.55	35842.96
528.72	35936.59
528.89	35922.54
529.07	35810.20
529.24	35756.36
529.41	36093.40
529.58	35938.93
529.75	35981.06
529.92	36119.15
530.09	36151.91
530.26	36135.53
530.43	36341.50
530.60	36023.19
530.77	35990.42
530.94	36575.55
531.11	36580.23
531.28	36467.89
531.46	36201.07
531.63	36772.16
531.80	36465.55
531.97	36662.15
532.14	36947.70
532.31	36573.21
532.48	36657.47
532.65	37167.71
532.82	37057.70
532.99	37240.26
533.16	36552.15
533.33	37357.29
533.50	37170.05
533.67	37474.32
533.84	37287.07
534.01	37507.08
534.18	37219.20
534.35	37357.29
534.52	37610.07
534.69	37581.98
534.86	37780.93
535.03	37858.17
535.20	37633.47
535.37	37853.48
535.54	37764.54
535.71	37963.49
535.88	37752.84
536.05	38139.03
536.22	37881.57
536.38	38370.74
536.55	37699.01
536.72	38120.31
536.89	37914.34
537.06	37972.85
537.23	38038.39
537.40	37895.61
537.57	38485.43
537.74	38246.69
537.91	38927.79
538.08	38293.50
538.25	38293.50
538.42	38185.84
538.59	38499.47
538.75	38300.53
538.92	38209.25
539.09	39105.67
539.26	38590.75
539.43	38632.88
539.60	38593.09
539.77	38724.16
539.94	39243.76
540.11	38976.94
540.28	38850.55
540.44	38981.62
540.61	38916.09
540.78	38916.09
540.95	39075.24
541.12	39058.86
541.29	38953.54
541.46	39182.91
541.62	38878.64
541.79	39517.60
541.96	39009.71
542.13	39676.76
542.30	39690.80
542.47	39756.34
542.63	39180.57
542.80	39367.81
542.97	39393.56
543.14	40264.24
543.31	39367.81
543.48	39583.14
543.64	40315.73
543.81	40463.18
543.98	40165.93
544.15	40189.34
544.32	40098.06
544.48	40081.67
544.65	40156.57
544.82	40531.06
544.99	39861.66
545.16	39950.60
545.32	40154.23
545.49	40350.84
545.66	40526.38
545.83	40442.12
546.00	40968.74
546.16	40814.26
546.33	40470.20
546.50	40123.80
546.67	40289.98
546.83	40240.83
547.00	40301.68
547.17	40327.43
547.34	40495.95
547.50	40404.67
547.67	41064.70
547.84	40479.57
548.00	40849.37
548.17	40713.62
548.34	40964.06
548.51	41062.36
548.67	41347.90
548.84	41326.84
549.01	41141.94
549.18	40737.02
549.34	41394.71
549.51	41273.01
549.68	41668.56
549.84	41591.32
550.01	41687.28
550.18	41383.01
550.34	41420.46
550.51	41375.99
550.68	41184.07
550.84	41228.54
551.01	41558.55
551.18	41673.24
551.34	41399.40
551.51	41902.61
551.68	41294.07
551.84	41570.25
552.01	41429.82
552.18	41364.29
552.34	41483.66
552.51	42143.69
552.68	41921.34
552.84	42129.64
553.01	41977.51
553.18	41897.93
553.34	41729.41
553.51	41790.27
553.67	42085.17
553.84	42206.88
554.01	41890.91
554.17	42239.65
554.34	42422.21
554.51	42543.92
554.67	42623.50
554.84	42005.59
555.00	42583.71
555.17	42036.02
555.33	42295.82
555.50	42323.91
555.67	42139.00
555.83	42546.26
556.00	42117.94
556.16	42698.39
556.33	42707.76
556.50	42426.89
556.66	42808.40
556.83	42040.70
556.99	42623.50
557.16	42799.04
557.32	42630.52
557.49	42417.53
557.65	42890.32
557.82	42527.53
557.98	42607.11
558.15	42789.67
558.32	42925.42
558.48	42649.24
558.65	42841.17
558.81	42738.18
558.98	42766.27
559.14	42892.66
559.31	42897.34
559.47	42721.80
559.64	43311.61
559.80	43005.00
559.97	43302.25
560.13	42450.30
560.30	42548.60
560.46	42733.50
560.63	43093.94
560.79	43150.12
560.96	43356.08
561.12	42906.70
561.29	43140.75
561.45	43065.86
561.61	43206.29
561.78	43058.84
561.94	43203.95
562.11	43201.61
562.27	43349.06
562.44	42866.91
562.60	43557.37
562.77	43398.21
562.93	43409.92
563.10	43192.25
563.26	43033.09
563.42	43356.08
563.59	43746.95
563.75	43138.41
563.92	43379.49
564.08	43606.52
564.24	43529.28
564.41	42953.51
564.57	42958.19
564.74	43318.64
564.90	43887.39
565.07	43489.49
565.23	43594.82
565.39	43559.71
565.56	43592.48
565.72	43463.75
565.88	43360.76
566.05	43306.93
566.21	43466.09
566.38	43484.81
566.54	43903.77
566.70	43665.03
566.87	43824.19
567.03	43814.83
567.19	43861.64
567.36	43489.49
567.52	43255.44
567.68	43641.63
567.85	43655.67
568.01	43763.34
568.17	43817.17
568.34	43821.85
568.50	43693.12
568.66	44002.07
568.83	43831.21
568.99	43449.70
569.15	43594.82
569.32	43676.74
569.48	43501.20
569.64	43973.98
569.81	43641.63
569.97	43873.34
570.13	43751.63
570.30	43660.35
570.46	43959.94
570.62	43550.35
570.78	43842.92
570.95	43819.51
571.11	44231.44
571.27	43646.31
571.43	43845.26
571.60	44074.63
571.76	44158.89
571.92	43641.63
572.09	43873.34
572.25	43817.17
572.41	43812.49
572.57	44091.01
572.74	44254.85
572.90	43892.07
573.06	43620.56
573.22	44142.50
573.38	44112.08
573.55	44065.27
573.71	44367.20
573.87	43990.37
574.03	43725.89
574.20	44119.10
574.36	43952.92
574.52	43910.79
574.68	44378.90
574.84	43983.35
575.01	43721.21
575.17	44072.29
575.33	44002.07
575.49	43922.49
575.65	44238.47
575.82	44392.94
575.98	43971.64
576.14	44547.42
576.30	44552.10
576.46	43966.96
576.62	43571.41
576.79	43896.75
576.95	43784.40
577.11	44254.85
577.27	44243.15
577.43	44161.23
577.59	44083.99
577.75	44114.42
577.92	43765.68
578.08	43824.19
578.24	44130.80
578.40	43997.39
578.56	43828.87
578.72	44037.18
578.88	44299.32
579.04	43988.03
579.21	44240.81
579.37	44128.46
579.53	44208.04
579.69	43835.89
579.85	44002.07
580.01	44540.39
580.17	44025.48
580.33	44130.80
580.49	44474.86
580.65	44299.32
580.82	44390.60
580.98	44121.44
581.14	44027.82
581.30	44285.28
581.46	44390.60
581.62	44095.69
581.78	44271.23
581.94	44208.04
582.10	44165.91
582.26	44446.77
582.42	44364.85
582.58	44130.80
582.74	43973.98
582.90	44053.56
583.06	44765.09
583.22	43704.82
583.38	44205.70
583.54	44472.52
583.70	44502.95
583.86	43629.93
584.02	44088.67
584.18	44296.98
584.34	43999.73
584.50	44505.29
584.66	44240.81
584.82	44039.52
584.98	44392.94
585.14	44629.34
585.30	44245.49
585.46	44240.81
585.62	44416.35
585.78	44107.40
585.94	44224.42
586.10	44091.01
586.26	43924.83
586.42	44418.69
586.58	44399.96
586.74	44486.56
586.90	43950.58
587.06	44151.87
587.22	44596.57
587.38	44065.27
587.54	44289.96
587.70	44463.16
587.86	44673.81
588.02	44519.33
588.18	44570.82
588.34	44360.17
588.49	44128.46
588.65	43934.20
588.81	43665.03
588.97	44385.92
589.13	44222.08
589.29	44137.82
589.45	43948.24
589.61	44533.37
589.77	44643.38
589.93	44493.58
590.08	44346.13
590.24	44437.41
590.40	44545.08
