SpectraSuite Data File
++++++++++++++++++++++++++++++++++++
Date: Fri Oct 25 10:48:03 EDT 2013
User: price-jones
Dark Spectrum Present: No
Reference Spectrum Present: No
Number of Sampled Component Spectra: 1
Spectrometers: USB2+H05261
Integration Time (usec): 100000 (USB2+H05261)
Spectra Averaged: 1 (USB2+H05261)
Boxcar Smoothing: 0 (USB2+H05261)
Correct for Electrical Dark: No (USB2+H05261)
Strobe/Lamp Enabled: No (USB2+H05261)
Correct for Detector Non-linearity: No (USB2+H05261)
Correct for Stray Light: No (USB2+H05261)
Number of Pixels in Processed Spectrum: 2048
>>>>>Begin Processed Spectral Data<<<<<
365.73	131.07
365.92	131.07
366.12	131.07
366.32	91.28
366.52	74.90
366.72	42.13
366.91	14.04
367.11	67.88
367.31	0.00
367.51	9.36
367.70	25.75
367.90	35.11
368.10	84.26
368.30	7.02
368.49	37.45
368.69	93.62
368.89	98.30
369.09	86.60
369.28	65.54
369.48	77.24
369.68	126.39
369.87	86.60
370.07	117.03
370.27	133.41
370.47	229.37
370.66	351.08
370.86	468.11
371.06	414.27
371.25	456.40
371.45	454.06
371.65	430.66
371.84	463.43
372.04	414.27
372.24	447.04
372.44	472.79
372.63	517.26
372.83	489.17
373.03	528.96
373.22	512.58
373.42	493.85
373.62	489.17
373.81	510.24
374.01	564.07
374.21	472.79
374.40	568.75
374.60	524.28
374.79	545.34
374.99	580.45
375.19	552.37
375.38	566.41
375.58	580.45
375.78	650.67
375.97	533.64
376.17	615.56
376.37	559.39
376.56	550.03
376.76	622.58
376.95	566.41
377.15	559.39
377.35	585.13
377.54	552.37
377.74	617.90
377.93	538.32
378.13	603.86
378.33	688.12
378.52	624.92
378.72	653.01
378.91	589.82
379.11	608.54
379.31	622.58
379.50	601.52
379.70	692.80
379.89	650.67
380.09	671.73
380.28	580.45
380.48	692.80
380.68	648.33
380.87	709.18
381.07	657.69
381.26	638.97
381.46	615.56
381.65	653.01
381.85	695.14
382.04	734.93
382.24	706.84
382.43	681.10
382.63	582.79
382.83	706.84
383.02	767.70
383.22	779.40
383.41	645.99
383.61	681.10
383.80	716.20
384.00	774.72
384.19	767.70
384.39	760.67
384.58	758.33
384.78	779.40
384.97	758.33
385.17	751.31
385.36	755.99
385.56	706.84
385.75	744.29
385.95	812.17
386.14	788.76
386.34	706.84
386.53	875.36
386.72	809.83
386.92	837.91
387.11	767.70
387.31	821.53
387.50	791.10
387.70	763.01
387.89	816.85
388.09	898.77
388.28	800.46
388.48	830.89
388.67	819.19
388.86	905.79
389.06	840.25
389.25	966.64
389.45	889.40
389.64	826.21
389.84	924.51
390.03	847.27
390.22	868.34
390.42	936.21
390.61	840.25
390.81	894.08
391.00	943.24
391.19	1015.79
391.39	868.34
391.58	889.40
391.78	997.07
391.97	992.39
392.16	957.28
392.36	959.62
392.55	968.98
392.75	978.34
392.94	945.58
393.13	882.38
393.33	896.43
393.52	966.64
393.71	1022.81
393.91	990.05
394.10	1027.50
394.29	1064.94
394.49	985.37
394.68	1172.61
394.88	1125.80
395.07	1205.38
395.26	1055.58
395.46	1097.71
395.65	1144.52
395.84	1156.22
396.04	1144.52
396.23	1095.37
396.42	1001.75
396.62	1097.71
396.81	1111.75
397.00	1118.78
397.19	1160.91
397.39	1198.35
397.58	1186.65
397.77	1130.48
397.97	1299.00
398.16	1203.04
398.35	1249.85
398.55	1263.89
398.74	1291.98
398.93	1380.92
399.12	1334.11
399.32	1299.00
399.51	1308.36
399.70	1364.53
399.90	1256.87
400.09	1352.83
400.28	1397.30
400.47	1380.92
400.67	1427.73
400.86	1411.34
401.05	1423.05
401.24	1530.71
401.44	1474.54
401.63	1451.13
401.82	1357.51
402.01	1376.24
402.21	1554.12
402.40	1493.26
402.59	1593.90
402.78	1514.33
402.97	1561.14
403.17	1568.16
403.36	1598.59
403.55	1582.20
403.74	1671.14
403.93	1509.65
404.13	1589.22
404.32	1624.33
404.51	1645.40
404.70	1809.23
404.89	1647.74
405.09	1696.89
405.28	1685.19
405.47	1657.10
405.66	1699.23
405.85	1708.59
406.05	1694.55
406.24	1720.29
406.43	1722.63
406.62	1753.06
406.81	1846.68
407.00	1811.57
407.20	1715.61
407.39	1788.17
407.58	1802.21
407.77	1797.53
407.96	1909.88
408.15	1905.20
408.34	2040.95
408.54	1893.49
408.73	1944.99
408.92	2022.22
409.11	1937.96
409.30	1975.41
409.49	1942.64
409.68	1902.86
409.87	2026.90
410.07	2120.53
410.26	2024.56
410.45	2071.37
410.64	2150.95
410.83	2146.27
411.02	2111.16
411.21	2134.57
411.40	2125.21
411.59	2211.81
411.78	2204.78
411.98	2256.28
412.17	2270.32
412.36	2249.25
412.55	2373.30
412.74	2272.66
412.93	2399.05
413.12	2366.28
413.31	2525.44
413.50	2443.52
413.69	2455.22
413.88	2637.78
414.07	2340.54
414.26	2471.61
414.45	2663.53
414.64	2516.08
414.83	2637.78
415.02	2647.15
415.22	2654.17
415.41	2630.76
415.60	2633.10
415.79	2743.11
415.98	2878.86
416.17	2876.52
416.36	2843.75
416.55	2747.79
416.74	2787.58
416.93	2906.95
417.12	2963.12
417.31	2939.71
417.50	2869.50
417.69	3094.19
417.88	3038.02
418.07	2991.20
418.26	2895.24
418.45	3028.65
418.64	3171.43
418.83	3002.91
419.02	3126.96
419.21	3232.28
419.39	3052.06
419.58	3162.06
419.77	3075.46
419.96	3185.47
420.15	3295.47
420.34	3173.77
420.53	3290.79
420.72	3304.84
420.91	3330.58
421.10	3398.46
421.29	3463.99
421.48	3180.79
421.67	3471.01
421.86	3269.73
422.05	3405.48
422.24	3419.52
422.43	3351.65
422.61	3445.27
422.80	3471.01
422.99	3538.89
423.18	3459.31
423.37	3557.61
423.56	3576.34
423.75	3461.65
423.94	3501.44
424.13	3213.56
424.32	3438.25
424.50	3478.04
424.69	3662.94
424.88	3543.57
425.07	3475.70
425.26	3304.84
425.45	3494.42
425.64	3564.64
425.83	3468.67
426.01	3513.14
426.20	3517.83
426.39	3559.95
426.58	3410.16
426.77	3447.61
426.96	3510.80
427.15	3515.48
427.33	3585.70
427.52	3578.68
427.71	3581.02
427.90	3623.15
428.09	3761.24
428.28	3658.26
428.46	3679.32
428.65	3625.49
428.84	3747.20
429.03	3981.25
429.22	3623.15
429.40	3634.85
429.59	3744.86
429.78	3637.19
429.97	3550.59
430.16	3599.74
430.34	3754.22
430.53	3709.75
430.72	3840.82
430.91	3794.01
431.10	3829.12
431.28	4063.17
431.47	4140.41
431.66	4189.56
431.85	4004.66
432.03	4114.66
432.22	4140.41
432.41	3918.06
432.60	4107.64
432.79	4215.30
432.97	4037.42
433.16	3976.57
433.35	4175.52
433.54	4224.67
433.72	4304.25
433.91	4203.60
434.10	4236.37
434.28	4271.48
434.47	4091.26
434.66	4255.09
434.85	4484.47
435.03	4430.63
435.22	4358.08
435.41	4535.96
435.59	4578.09
435.78	4386.16
435.97	4484.47
436.16	4386.16
436.34	4435.32
436.53	4533.62
436.72	4662.35
436.90	4449.36
437.09	4519.57
437.28	4622.56
437.46	4580.43
437.65	4554.68
437.84	4578.09
438.02	4528.94
438.21	4587.45
438.40	4589.79
438.58	4889.38
438.77	4830.87
438.96	4807.46
439.14	5018.11
439.33	4882.36
439.52	4950.23
439.70	4924.49
439.89	5036.83
440.08	5036.83
440.26	5032.15
440.45	4884.70
440.63	5090.67
440.82	5207.69
441.01	5085.98
441.19	5249.82
441.38	5252.16
441.57	5280.25
441.75	5411.32
441.94	5530.69
442.12	5654.73
442.31	5455.79
442.50	5495.58
442.68	5591.54
442.87	5579.84
443.05	5448.77
443.24	5675.80
443.43	5582.18
443.61	5884.11
443.80	5853.68
443.98	5689.84
444.17	5486.22
444.35	5528.35
444.54	5823.25
444.73	5863.04
444.91	5668.78
445.10	5526.00
445.28	5703.89
445.47	5568.13
445.65	5738.99
445.84	5678.14
446.02	6026.88
446.21	5776.44
446.39	5636.01
446.58	6024.54
446.77	5813.89
446.95	5701.54
447.14	5830.27
447.32	5895.81
447.51	5741.33
447.69	5860.70
447.88	5914.53
448.06	5987.09
448.25	5893.47
448.43	5909.85
448.62	5926.24
448.80	5914.53
448.99	5928.58
449.17	6024.54
449.36	5987.09
449.54	6221.14
449.73	6232.85
449.91	6235.19
450.10	6223.48
450.28	6216.46
450.46	6263.27
450.65	6244.55
450.83	6279.66
451.02	6249.23
451.20	6263.27
451.39	6471.58
451.57	6324.13
451.76	6242.21
451.94	6340.51
452.13	6345.19
452.31	6242.21
452.49	6363.92
452.68	6326.47
452.86	6387.32
453.05	6525.41
453.23	6469.24
453.42	6382.64
453.60	6406.05
453.78	6600.31
453.97	6431.79
454.15	6572.22
454.34	6485.62
454.52	6628.40
454.70	6558.18
454.89	6691.59
455.07	6764.15
455.26	6693.93
455.44	6768.83
455.62	6888.20
455.81	6857.77
455.99	6693.93
456.17	6766.49
456.36	6883.52
456.54	6923.30
456.73	6768.83
456.91	7129.27
457.09	7246.30
457.28	7272.04
457.46	7248.64
457.64	7190.13
457.83	7007.56
458.01	6853.09
458.19	7222.89
458.38	7066.08
458.56	7318.86
458.74	7227.57
458.93	7227.57
459.11	7360.98
459.29	7358.64
459.48	7304.81
459.66	7176.08
459.84	7463.97
460.03	7597.38
460.21	7412.48
460.39	7520.14
460.57	7470.99
460.76	7573.97
460.94	7499.08
461.12	7428.86
461.31	7777.60
461.49	7496.74
461.67	7578.65
461.85	7714.41
462.04	7665.25
462.22	8180.17
462.40	7967.18
462.59	7801.01
462.77	7908.67
462.95	7831.43
463.13	7824.41
463.32	7761.22
463.50	7941.44
463.68	7992.93
463.86	8006.97
464.05	7946.12
464.23	7964.84
464.41	8035.06
464.59	7943.78
464.78	7964.84
464.96	7946.12
465.14	8002.29
465.32	7889.95
465.50	8091.23
465.69	8360.39
465.87	8299.54
466.05	8226.98
466.23	8095.91
466.41	8177.83
466.60	8414.23
466.78	8215.28
466.96	8395.50
467.14	8198.90
467.32	8262.09
467.51	8280.82
467.69	8154.43
467.87	8430.61
468.05	8545.30
468.23	8231.66
468.41	8241.03
468.60	8435.29
468.78	8301.88
468.96	8360.39
469.14	8599.13
469.32	8638.92
469.50	8421.25
469.69	8837.86
469.87	8856.59
470.05	8702.11
470.23	8835.52
470.41	8795.73
470.59	8968.93
470.77	8779.35
470.95	8872.97
471.14	9153.84
471.32	8816.80
471.50	9121.07
471.68	9004.04
471.86	9123.41
472.04	9151.49
472.22	9486.19
472.40	9179.58
472.58	9060.21
472.77	9345.76
472.95	9514.28
473.13	9720.24
473.31	9483.85
473.49	9408.95
473.67	9481.51
473.85	9413.63
474.03	9715.56
474.21	9764.72
474.39	9973.02
474.57	9853.66
474.75	10097.07
474.93	9991.75
475.12	9933.23
475.30	10040.90
475.48	9848.97
475.66	9886.42
475.84	10012.81
476.02	10186.01
476.20	10267.93
476.38	10391.98
476.56	10562.84
476.74	10225.80
476.92	10527.73
477.10	10476.24
477.28	10710.29
477.46	10604.97
477.64	10656.46
477.82	11124.57
478.00	11290.74
478.18	11136.27
478.36	11194.78
478.54	11386.71
478.72	11396.07
478.90	11508.41
479.08	11606.72
479.26	11824.39
479.44	11744.81
479.62	11913.33
479.80	11899.28
479.98	12093.55
480.16	12187.17
480.34	12114.61
480.52	12311.22
480.70	12271.43
480.88	12283.13
481.06	12297.17
481.24	12411.86
481.41	12753.58
481.59	12922.10
481.77	12809.75
481.95	12957.21
482.13	12823.80
482.31	12959.55
482.49	13411.27
482.67	13324.67
482.85	13240.41
483.03	13500.21
483.21	13968.32
483.39	13947.25
483.57	13760.01
483.74	14253.86
483.92	13853.63
484.10	13951.93
484.28	14139.18
484.46	14370.89
484.64	14630.69
484.82	14363.87
485.00	14780.48
485.18	14934.96
485.35	15084.75
485.53	14904.53
485.71	14860.06
485.89	15220.50
486.07	15169.01
486.25	15220.50
486.43	15194.76
486.61	15454.56
486.78	15763.51
486.96	15681.59
487.14	16044.37
487.32	15899.26
487.50	16224.59
487.68	16559.29
487.85	16603.76
488.03	16610.78
488.21	16954.84
488.39	16655.25
488.57	16954.84
488.75	16898.67
488.92	17268.47
489.10	17268.47
489.28	17043.78
489.46	17659.34
489.64	17771.69
489.81	17989.36
489.99	17874.67
490.17	18118.09
490.35	18553.43
490.53	18331.08
490.70	18534.70
490.88	18384.91
491.06	18696.20
491.24	18750.03
491.41	19030.90
491.59	18813.23
491.77	18876.42
491.95	19225.16
492.13	19234.52
492.30	19634.75
492.48	19232.18
492.66	19604.33
492.84	19414.74
493.01	19683.91
493.19	19924.98
493.37	19988.18
493.54	20077.12
493.72	20339.26
493.90	20524.16
494.08	20589.69
494.25	21083.55
494.43	20594.37
494.61	21151.42
494.79	20975.88
494.96	21027.37
495.14	21137.38
495.32	21259.09
495.49	21270.79
495.67	21355.05
495.85	21624.21
496.02	22036.14
496.20	22080.61
496.38	22019.76
496.55	22317.01
496.73	22696.17
496.91	22438.72
497.09	22588.51
497.26	22691.49
497.44	22827.24
497.62	22871.72
497.79	22932.57
497.97	23215.77
498.14	22998.10
498.32	23391.31
498.50	23096.41
498.67	23810.27
498.85	23637.07
499.03	23807.93
499.20	23793.89
499.38	23536.43
499.56	23793.89
499.73	24093.47
499.91	24189.44
500.08	24397.74
500.26	24173.05
500.44	24299.44
500.61	24107.52
500.79	24060.71
500.97	24538.18
501.14	24706.70
501.32	24992.24
501.49	24943.09
501.67	24886.92
501.84	25104.59
502.02	24664.57
502.20	25514.18
502.37	25359.70
502.55	25387.79
502.72	25556.31
502.90	25490.77
503.07	25678.02
503.25	25291.83
503.43	25413.54
503.60	25874.62
503.78	26047.82
503.95	25612.48
504.13	26214.00
504.30	26052.50
504.48	26265.49
504.65	26588.49
504.83	26717.22
505.01	26527.63
505.18	26368.48
505.36	26794.45
505.53	26972.33
505.71	27166.60
505.88	26986.38
506.06	26565.08
506.23	26946.59
506.41	27213.41
506.58	27257.88
506.76	27222.77
506.93	27414.69
507.11	27187.66
507.28	27620.66
507.46	27796.20
507.63	27573.85
507.81	27800.88
507.98	27662.79
508.16	27740.03
508.33	28058.34
508.50	28276.01
508.68	27931.95
508.85	28477.30
509.03	28498.36
509.20	28503.04
509.38	29146.69
509.55	28744.12
509.73	28521.77
509.90	28547.51
510.08	28673.90
510.25	28790.93
510.42	28968.81
510.60	29092.86
510.77	29167.76
510.95	29277.76
511.12	28863.49
511.30	29682.67
511.47	29523.52
511.64	29589.05
511.82	29809.06
511.99	29661.61
512.17	29598.41
512.34	29736.51
512.51	30190.57
512.69	30085.25
512.86	29743.53
513.04	30164.82
513.21	29993.97
513.38	29806.72
513.56	30167.16
513.73	30646.97
513.90	30335.68
514.08	30412.92
514.25	30513.56
514.43	30459.73
514.60	30546.33
514.77	30403.56
514.95	31260.20
515.12	31051.89
515.29	30611.87
515.47	30761.66
515.64	31468.50
515.81	30920.82
515.99	31318.71
516.16	31524.68
516.33	31220.41
516.51	31239.13
516.68	31255.51
516.85	31482.55
517.03	31501.27
517.20	31449.78
517.37	31548.08
517.54	31716.60
517.72	31828.95
517.89	31714.26
518.06	31716.60
518.24	31571.49
518.41	31491.91
518.58	32002.14
518.75	32184.71
518.93	32137.90
519.10	32290.03
519.27	32772.18
519.45	32400.04
519.62	32865.80
519.79	32851.76
519.96	32720.69
520.14	32919.63
520.31	32987.51
520.48	33188.80
520.65	33006.23
520.83	33345.61
521.00	33277.74
521.17	33511.79
521.34	33474.34
521.52	33298.80
521.69	33706.05
521.86	33703.71
522.03	33542.22
522.20	34029.05
522.38	33914.36
522.55	33834.78
522.72	33958.83
522.89	33937.77
523.07	34125.01
523.24	34045.43
523.41	33846.49
523.58	34183.52
523.75	34546.31
523.92	34675.04
524.10	34504.18
524.27	34520.56
524.44	34466.73
524.61	35112.72
524.78	35028.46
524.96	34668.02
525.13	34993.35
525.30	35225.06
525.47	35243.79
525.64	35164.21
525.81	35075.27
525.98	35002.71
526.16	34857.60
526.33	34810.79
526.50	35152.51
526.67	34878.66
526.84	35234.42
527.01	35075.27
527.18	35267.19
527.36	35384.22
527.53	35461.46
527.70	35721.26
527.87	35742.32
528.04	35611.25
528.21	35779.77
528.38	35840.62
528.55	35962.33
528.72	36285.33
528.89	36189.36
529.07	36077.02
529.24	35871.05
529.41	35962.33
529.58	35889.77
529.75	36100.42
529.92	36119.15
530.09	36250.22
530.26	35962.33
530.43	36814.29
530.60	36133.19
530.77	36219.79
530.94	36453.84
531.11	36657.47
531.28	36720.66
531.46	36847.05
531.63	36519.38
531.80	36751.09
531.97	37443.89
532.14	37153.66
532.31	36706.62
532.48	36835.35
532.65	37336.23
532.82	37160.69
532.99	37008.55
533.16	36840.03
533.33	37530.49
533.50	37652.20
533.67	37464.96
533.84	37301.12
534.01	37710.71
534.18	37340.91
534.35	38087.54
534.52	37404.10
534.69	37626.45
534.86	37483.68
535.03	37581.98
535.20	37598.37
535.37	38597.77
535.54	37977.53
535.71	37893.27
535.88	38314.57
536.05	38110.94
536.22	37886.25
536.38	38508.83
536.55	38302.87
536.72	38602.46
536.89	37977.53
537.06	38007.96
537.23	37916.68
537.40	38085.20
537.57	38202.22
537.74	38518.20
537.91	38721.82
538.08	38476.07
538.25	38143.71
538.42	38904.38
538.59	38452.66
538.75	38433.94
538.92	38642.24
539.09	38834.17
539.26	38827.15
539.43	38841.19
539.60	38967.58
539.77	38930.13
539.94	38934.81
540.11	38483.09
540.28	39007.37
540.44	38677.35
540.61	39260.15
540.78	38698.42
540.95	38806.08
541.12	39503.56
541.29	39056.52
541.46	39161.84
541.62	39105.67
541.79	39566.76
541.96	39091.63
542.13	39374.83
542.30	39756.34
542.47	39562.08
542.63	39613.57
542.80	39885.07
542.97	40194.02
543.14	40364.88
543.31	39725.91
543.48	39931.88
543.64	40615.32
543.81	40278.28
543.98	40381.26
544.15	40172.96
544.32	40439.78
544.48	40554.46
544.65	39962.31
544.82	40477.22
544.99	40250.19
545.16	40526.38
545.32	40130.83
545.49	41392.37
545.66	40610.64
545.83	40849.37
546.00	41085.76
546.16	40739.36
546.33	40788.52
546.50	40643.40
546.67	40423.39
546.83	40268.92
547.00	40877.46
547.17	40786.18
547.34	40760.43
547.50	40891.50
547.67	41371.31
547.84	41015.55
548.00	41364.29
548.17	41312.80
548.34	40809.58
548.51	41177.04
548.67	41223.86
548.84	41518.76
549.01	41390.03
549.18	41280.03
549.34	41270.67
549.51	41354.93
549.68	41130.23
549.84	41881.55
550.01	41677.92
550.18	41261.30
550.34	41003.85
550.51	41500.04
550.68	41277.69
550.84	41488.34
551.01	41537.49
551.18	41808.99
551.34	41851.12
551.51	41584.30
551.68	42038.36
551.84	42031.34
552.01	41769.20
552.18	41832.39
552.34	41991.55
552.51	41844.10
552.68	41780.90
552.84	41944.74
553.01	42146.03
553.18	42209.22
553.34	42190.50
553.51	41996.23
553.67	41916.65
553.84	42330.93
554.01	42267.73
554.17	42637.54
554.34	42590.73
554.51	42330.93
554.67	42527.53
554.84	42199.86
555.00	42480.72
555.17	42251.35
555.33	42281.78
555.50	42354.33
555.67	43093.94
555.83	42564.98
556.00	42256.03
556.16	42932.45
556.33	42326.25
556.50	43126.71
556.66	42841.17
556.83	42284.12
556.99	43019.05
557.16	43005.00
557.32	42993.30
557.49	42532.22
557.65	43119.69
557.82	42820.10
557.98	42536.90
558.15	42728.82
558.32	42822.44
558.48	42951.17
558.65	42618.81
558.81	42986.28
558.98	43105.65
559.14	43269.48
559.31	43040.11
559.47	43035.43
559.64	43601.84
559.80	43433.32
559.97	43283.53
560.13	43124.37
560.30	42663.28
560.46	43126.71
560.63	43393.53
560.79	43381.83
560.96	43768.02
561.12	43206.29
561.29	43449.70
561.45	42876.27
561.61	43250.76
561.78	42955.85
561.94	43239.06
562.11	43335.02
562.27	43161.82
562.44	43552.69
562.60	43650.99
562.77	43725.89
562.93	43243.74
563.10	43667.37
563.26	43409.92
563.42	43901.43
563.59	43409.92
563.75	43856.96
563.92	43807.81
564.08	43526.94
564.24	43786.74
564.41	43487.15
564.57	43526.94
564.74	43620.56
564.90	43615.88
565.07	43555.03
565.23	43529.28
565.39	43945.90
565.56	44093.35
565.72	43824.19
565.88	43629.93
566.05	43526.94
566.21	43618.22
566.38	43508.22
566.54	43700.14
566.70	43854.62
566.87	44158.89
567.03	43903.77
567.19	44107.40
567.36	43997.39
567.52	43484.81
567.68	44053.56
567.85	43641.63
568.01	43782.06
568.17	43896.75
568.34	43777.38
568.50	43683.76
568.66	43374.81
568.83	43784.40
568.99	44034.84
569.15	43728.23
569.32	43938.88
569.48	43545.67
569.64	44325.07
569.81	44538.05
569.97	43992.71
570.13	43672.06
570.30	43136.07
570.46	43508.22
570.62	43454.39
570.78	43908.45
570.95	44215.06
571.11	43758.66
571.27	43955.26
571.43	44435.07
571.60	44027.82
571.76	43531.62
571.92	43913.13
572.09	43782.06
572.25	44119.10
572.41	43660.35
572.57	44215.06
572.74	44364.85
572.90	43959.94
573.06	44257.19
573.22	44538.05
573.38	44025.48
573.55	43859.30
573.71	44390.60
573.87	44074.63
574.03	44023.14
574.20	43920.15
574.36	43990.37
574.52	44062.93
574.68	44385.92
574.84	44137.82
575.01	44194.00
575.17	44369.54
575.33	44184.63
575.49	43927.17
575.65	44151.87
575.82	44301.66
575.98	44044.20
576.14	44458.48
576.30	44065.27
576.46	43924.83
576.62	43945.90
576.79	44102.71
576.95	43552.69
577.11	43915.47
577.27	44383.58
577.43	44561.46
577.59	44032.50
577.75	44313.36
577.92	43763.34
578.08	44044.20
578.24	44058.24
578.40	44133.14
578.56	43985.69
578.72	44194.00
578.88	44568.48
579.04	44465.50
579.21	44067.61
579.37	44177.61
579.53	44327.41
579.69	43669.72
579.85	44280.60
580.01	44563.80
580.17	44184.63
580.33	44254.85
580.49	44744.02
580.65	44154.21
580.82	44505.29
580.98	44215.06
581.14	43889.73
581.30	44559.12
581.46	44526.35
581.62	44437.41
581.78	44203.36
581.94	44617.63
582.10	44524.01
582.26	44395.28
582.42	44294.64
582.58	44444.43
582.74	44390.60
582.90	43990.37
583.06	44800.19
583.22	44559.12
583.38	44376.56
583.54	44315.70
583.70	44343.79
583.86	44694.87
584.02	44123.78
584.18	44399.96
584.34	44364.85
584.50	44261.87
584.66	44449.11
584.82	44243.15
584.98	44533.37
585.14	44304.00
585.30	44163.57
585.46	44453.79
585.62	44376.56
585.78	44486.56
585.94	44184.63
586.10	44142.50
586.26	44219.74
586.42	44133.14
586.58	44683.17
586.74	44154.21
586.90	44322.72
587.06	44421.03
587.22	44690.19
587.38	44236.12
587.54	44332.09
587.70	44575.50
587.86	44624.65
588.02	44222.08
588.18	44605.93
588.34	44575.50
588.49	43861.64
588.65	43962.28
588.81	44268.89
588.97	44102.71
589.13	43917.81
589.29	44573.16
589.45	44325.07
589.61	44549.76
589.77	44516.99
589.93	44828.28
590.08	45177.02
590.24	44818.92
590.40	44463.16
