SpectraSuite Data File
++++++++++++++++++++++++++++++++++++
Date: Fri Oct 25 10:43:14 EDT 2013
User: price-jones
Dark Spectrum Present: No
Reference Spectrum Present: No
Number of Sampled Component Spectra: 1
Spectrometers: USB2+H05261
Integration Time (usec): 100000 (USB2+H05261)
Spectra Averaged: 1 (USB2+H05261)
Boxcar Smoothing: 0 (USB2+H05261)
Correct for Electrical Dark: No (USB2+H05261)
Strobe/Lamp Enabled: No (USB2+H05261)
Correct for Detector Non-linearity: No (USB2+H05261)
Correct for Stray Light: No (USB2+H05261)
Number of Pixels in Processed Spectrum: 2048
>>>>>Begin Processed Spectral Data<<<<<
365.73	107.66
365.92	107.66
366.12	107.66
366.32	39.79
366.52	0.00
366.72	0.00
366.91	18.72
367.11	0.00
367.31	23.41
367.51	0.00
367.70	0.00
367.90	37.45
368.10	0.00
368.30	4.68
368.49	37.45
368.69	51.49
368.89	88.94
369.09	11.70
369.28	39.79
369.48	21.06
369.68	77.24
369.87	126.39
370.07	86.60
370.27	72.56
370.47	210.65
370.66	283.20
370.86	425.98
371.06	514.92
371.25	468.11
371.45	447.04
371.65	470.45
371.84	425.98
372.04	472.79
372.24	433.00
372.44	411.93
372.63	435.34
372.83	507.90
373.03	566.41
373.22	510.24
373.42	561.73
373.62	507.90
373.81	543.00
374.01	521.94
374.21	547.69
374.40	557.05
374.60	477.47
374.79	552.37
374.99	503.22
375.19	617.90
375.38	634.29
375.58	580.45
375.78	624.92
375.97	596.84
376.17	662.37
376.37	552.37
376.56	608.54
376.76	641.31
376.95	559.39
377.15	589.82
377.35	603.86
377.54	617.90
377.74	566.41
377.93	648.33
378.13	648.33
378.33	711.52
378.52	622.58
378.72	685.78
378.91	655.35
379.11	594.50
379.31	617.90
379.50	650.67
379.70	711.52
379.89	655.35
380.09	725.57
380.28	615.56
380.48	636.63
380.68	657.69
380.87	706.84
381.07	758.33
381.26	641.31
381.46	641.31
381.65	674.07
381.85	723.23
382.04	669.39
382.24	655.35
382.43	767.70
382.63	674.07
382.83	704.50
383.02	751.31
383.22	699.82
383.41	662.37
383.61	732.59
383.80	765.36
384.00	709.18
384.19	816.85
384.39	805.14
384.58	844.93
384.78	788.76
384.97	830.89
385.17	744.29
385.36	784.08
385.56	751.31
385.75	730.25
385.95	739.61
386.14	833.23
386.34	863.66
386.53	837.91
386.72	856.64
386.92	866.00
387.11	894.08
387.31	889.40
387.50	823.87
387.70	784.08
387.89	884.72
388.09	884.72
388.28	933.87
388.48	856.64
388.67	947.92
388.86	936.21
389.06	896.43
389.25	1022.81
389.45	966.64
389.64	901.11
389.84	994.73
390.03	976.00
390.22	959.62
390.42	922.17
390.61	1011.11
390.81	1036.86
391.00	976.00
391.19	1069.62
391.39	1064.94
391.58	1048.56
391.78	1057.92
391.97	1036.86
392.16	1057.92
392.36	1116.44
392.55	997.07
392.75	992.39
392.94	915.15
393.13	940.90
393.33	1001.75
393.52	999.41
393.71	980.68
393.91	1090.69
394.10	1191.33
394.29	1184.31
394.49	1076.65
394.68	1146.86
394.88	1165.59
395.07	1277.93
395.26	1193.67
395.46	1149.20
395.65	1207.72
395.84	1289.64
396.04	1315.38
396.23	1193.67
396.42	1224.10
396.62	1233.46
396.81	1088.35
397.00	1102.39
397.19	1233.46
397.39	1299.00
397.58	1411.34
397.77	1378.58
397.97	1418.36
398.16	1404.32
398.35	1486.24
398.55	1502.62
398.74	1458.15
398.93	1535.39
399.12	1565.82
399.32	1472.20
399.51	1502.62
399.70	1481.56
399.90	1493.26
400.09	1591.56
400.28	1624.33
400.47	1614.97
400.67	1579.86
400.86	1689.87
401.05	1675.82
401.24	1664.12
401.44	1636.03
401.63	1729.66
401.82	1746.04
402.01	1706.25
402.21	1781.15
402.40	1659.44
402.59	1778.81
402.78	1755.40
402.97	1764.76
403.17	1858.39
403.36	1750.72
403.55	1806.89
403.74	1881.79
403.93	1858.39
404.13	1926.26
404.32	1813.92
404.51	1870.09
404.70	1884.13
404.89	1966.05
405.09	1952.01
405.28	2026.90
405.47	1973.07
405.66	1998.82
405.85	2078.40
406.05	1987.11
406.24	1893.49
406.43	2026.90
406.62	2022.22
406.81	2186.06
407.00	1968.39
407.20	2062.01
407.39	2090.10
407.58	2078.40
407.77	2150.95
407.96	2162.66
408.15	2333.51
408.34	2143.93
408.54	2221.17
408.73	2216.49
408.92	2260.96
409.11	2270.32
409.30	2282.02
409.49	2242.23
409.68	2293.72
409.87	2183.72
410.07	2338.20
410.26	2429.48
410.45	2307.77
410.64	2420.11
410.83	2483.31
411.02	2466.92
411.21	2548.84
411.40	2647.15
411.59	2633.10
411.78	2696.30
411.98	2541.82
412.17	2644.81
412.36	2649.49
412.55	2583.95
412.74	2719.70
412.93	2743.11
413.12	2771.19
413.31	2932.69
413.50	2773.53
413.69	2892.90
413.88	2782.90
414.07	2752.47
414.26	2920.99
414.45	2862.48
414.64	2874.18
414.83	3026.31
415.02	3094.19
415.22	3007.59
415.41	3047.38
415.60	3190.15
415.79	3112.91
415.98	3318.88
416.17	3283.77
416.36	3040.36
416.55	3339.94
416.74	3180.79
416.93	3281.43
417.12	3269.73
417.31	3316.54
417.50	3276.75
417.69	3379.73
417.88	3417.18
418.07	3447.61
418.26	3508.46
418.45	3414.84
418.64	3543.57
418.83	3520.17
419.02	3581.02
419.21	3571.66
419.39	3583.36
419.58	3510.80
419.77	3571.66
419.96	3599.74
420.15	3630.17
420.34	3775.28
420.53	3700.39
420.72	3829.12
420.91	3880.61
421.10	3784.65
421.29	3815.07
421.48	3845.50
421.67	3859.54
421.86	3829.12
422.05	3712.09
422.24	3676.98
422.43	3913.38
422.61	3733.15
422.80	3798.69
422.99	3950.82
423.18	3978.91
423.37	3845.50
423.56	3798.69
423.75	3899.33
423.94	3817.41
424.13	3632.51
424.32	3829.12
424.50	4004.66
424.69	3939.12
424.88	4067.85
425.07	3791.67
425.26	4018.70
425.45	3794.01
425.64	3878.27
425.83	3899.33
426.01	4088.92
426.20	3960.19
426.39	3999.98
426.58	4042.11
426.77	3918.06
426.96	3999.98
427.15	4063.17
427.33	3953.16
427.52	4002.32
427.71	4152.11
427.90	4210.62
428.09	4131.05
428.28	4009.34
428.46	4126.36
428.65	4095.94
428.84	4252.75
429.03	4372.12
429.22	3983.59
429.40	4016.36
429.59	4147.43
429.78	3969.55
429.97	3913.38
430.16	4044.45
430.34	4262.12
430.53	4079.55
430.72	4166.15
430.91	4198.92
431.10	4259.78
431.28	4482.13
431.47	4465.74
431.66	4643.62
431.85	4500.85
432.03	4657.67
432.22	4634.26
432.41	4631.92
432.60	4744.27
432.79	4629.58
432.97	4812.14
433.16	4758.31
433.35	4713.84
433.54	4816.82
433.72	4697.46
433.91	4727.88
434.10	4887.04
434.28	4678.73
434.47	4917.47
434.66	4898.74
434.85	4887.04
435.03	4875.34
435.22	5008.75
435.41	5109.39
435.59	5114.07
435.78	5090.67
435.97	5118.75
436.16	5081.30
436.34	5233.44
436.53	5146.84
436.72	5100.03
436.90	5149.18
437.09	5240.46
437.28	5116.41
437.46	5259.18
437.65	5111.73
437.84	5167.90
438.02	5158.54
438.21	5090.67
438.40	5181.95
438.58	5282.59
438.77	5371.53
438.96	5322.38
439.14	5476.85
439.33	5565.79
439.52	5551.75
439.70	5675.80
439.89	5771.76
440.08	5577.50
440.26	5738.99
440.45	5554.09
440.63	5710.91
440.82	5930.92
441.01	5893.47
441.19	5956.66
441.38	6064.33
441.57	6066.67
441.75	6274.98
441.94	6146.25
442.12	6455.20
442.31	6471.58
442.50	6361.58
442.68	6246.89
442.87	6347.53
443.05	6345.19
443.24	6583.93
443.43	6583.93
443.61	6422.43
443.80	6558.18
443.98	6455.20
444.17	6179.01
444.35	6614.35
444.54	6530.09
444.73	6457.54
444.91	6429.45
445.10	6520.73
445.28	6384.98
445.47	6270.30
445.65	6289.02
445.84	6377.96
446.02	6502.01
446.21	6431.79
446.39	6410.73
446.58	6729.04
446.77	6572.22
446.95	6492.65
447.14	6684.57
447.32	6731.38
447.51	6663.51
447.69	6600.31
447.88	6497.33
448.06	6654.14
448.25	6703.29
448.43	6820.32
448.62	6670.53
448.80	6698.61
448.99	6654.14
449.17	6616.69
449.36	6677.55
449.54	7030.97
449.73	7159.70
449.91	7164.38
450.10	7229.91
450.28	7293.11
450.46	7337.58
450.65	7150.34
450.83	7190.13
451.02	7243.96
451.20	7136.29
451.39	7218.21
451.57	7236.94
451.76	7073.10
451.94	7164.38
452.13	7126.93
452.31	7138.63
452.49	7087.14
452.68	7140.97
452.86	7115.23
453.05	7316.51
453.23	7428.86
453.42	7213.53
453.60	7382.05
453.78	7487.37
453.97	7171.40
454.15	7297.79
454.34	7274.38
454.52	7606.74
454.70	7400.77
454.89	7508.44
455.07	7456.95
455.26	7674.62
455.44	7805.69
455.62	7583.34
455.81	7728.45
455.99	7672.28
456.17	7789.30
456.36	7838.45
456.54	8006.97
456.73	8154.43
456.91	8102.93
457.09	8006.97
457.28	8320.60
457.46	7960.16
457.64	8128.68
457.83	7962.50
458.01	7854.84
458.19	8119.32
458.38	8060.80
458.56	8142.72
458.74	8152.09
458.93	8381.46
459.11	8313.58
459.29	8344.01
459.48	8135.70
459.66	8404.86
459.84	8201.24
460.03	8540.61
460.21	8423.59
460.39	8449.33
460.57	8470.40
460.76	8493.80
460.94	8667.00
461.12	8390.82
461.31	8779.35
461.49	8631.90
461.67	8674.03
461.85	8814.46
462.04	8636.58
462.22	9343.42
462.40	8847.22
462.59	8608.49
462.77	8657.64
462.95	8854.25
463.13	8922.12
463.32	8912.76
463.50	8987.66
463.68	9102.34
463.86	9081.28
464.05	8737.22
464.23	8652.96
464.41	9025.11
464.59	8809.78
464.78	9172.56
464.96	9249.80
465.14	8997.02
465.32	9210.01
465.50	9263.84
465.69	9315.33
465.87	9235.75
466.05	9076.60
466.23	9235.75
466.41	9280.22
466.60	9423.00
466.78	8987.66
466.96	8992.34
467.14	9076.60
467.32	9320.01
467.51	9657.05
467.69	8980.64
467.87	9394.91
468.05	9425.34
468.23	9448.74
468.41	9462.79
468.60	9617.26
468.78	9425.34
468.96	9399.59
469.14	9825.57
469.32	9792.80
469.50	9338.74
469.69	9717.90
469.87	9783.44
470.05	9661.73
470.23	9771.74
470.41	9933.23
470.59	9675.77
470.77	9860.68
470.95	10090.05
471.14	10352.19
471.32	10083.03
471.50	10277.29
471.68	10169.63
471.86	10370.91
472.04	10286.65
472.22	10649.44
472.40	10150.90
472.58	10221.12
472.77	10527.73
472.95	10614.33
473.13	10986.47
473.31	10333.47
473.49	10457.51
473.67	10581.56
473.85	10867.11
474.03	10960.73
474.21	10883.49
474.39	10986.47
474.57	11073.07
474.75	11143.29
474.93	11124.57
475.12	11119.89
475.30	11180.74
475.48	11232.23
475.66	11274.36
475.84	11101.16
476.02	11454.58
476.20	11405.43
476.38	11623.10
476.56	11653.53
476.74	11852.47
476.92	11552.88
477.10	11690.98
477.28	12042.06
477.46	12168.45
477.64	12315.90
477.82	12308.88
478.00	12444.63
478.18	12716.13
478.36	12435.27
478.54	12592.08
478.72	12704.43
478.90	12987.63
479.08	13008.70
479.26	12905.71
479.44	13050.83
479.62	13034.44
479.80	13404.25
479.98	13579.79
480.16	13724.90
480.34	13324.67
480.52	13621.92
480.70	13799.80
480.88	13661.71
481.06	13898.10
481.24	13837.25
481.41	14010.45
481.59	14286.63
481.77	14164.92
481.95	14415.36
482.13	14719.63
482.31	14817.93
482.49	15110.50
482.67	14717.29
482.85	14869.42
483.03	15169.01
483.21	15239.23
483.39	15508.39
483.57	15470.94
483.74	15442.85
483.92	15503.71
484.10	15346.89
484.28	15726.06
484.46	16147.36
484.64	16149.70
484.82	15950.75
485.00	16142.67
485.18	16479.71
485.35	16475.03
485.53	16109.91
485.71	16248.00
485.89	16442.26
486.07	16070.12
486.25	16519.50
486.43	16812.07
486.61	16945.48
486.78	17298.90
486.96	17289.54
487.14	17261.45
487.32	17989.36
487.50	17645.30
487.68	18075.96
487.85	18293.63
488.03	18508.96
488.21	18485.55
488.39	18679.82
488.57	18450.44
488.75	18733.65
488.92	18799.18
489.10	19124.52
489.28	19159.63
489.46	19669.86
489.64	19833.70
489.81	20322.87
489.99	20107.54
490.17	19896.89
490.35	20409.47
490.53	20449.26
490.70	20266.70
490.88	20297.13
491.06	20891.62
491.24	20842.47
491.41	20744.17
491.59	20636.50
491.77	20767.57
491.95	21195.89
492.13	21422.92
492.30	21687.40
492.48	21584.42
492.66	22066.57
492.84	21713.15
493.01	21961.25
493.19	21940.18
493.37	21982.31
493.54	22178.92
493.72	22438.72
493.90	22572.13
494.08	22735.96
494.25	22937.25
494.43	23220.45
494.61	23447.49
494.79	23218.11
494.96	23498.98
495.14	23592.60
495.32	23269.61
495.49	23304.71
495.67	24093.47
495.85	24210.50
496.02	24201.14
496.20	24435.19
496.38	24599.03
496.55	24109.86
496.73	24999.26
496.91	24538.18
497.09	24945.43
497.26	24959.47
497.44	24786.27
497.62	24896.28
497.79	25266.08
497.97	24943.09
498.14	25235.66
498.32	25411.20
498.50	25212.25
498.67	25860.58
498.85	26015.05
499.03	25844.20
499.20	26190.59
499.38	26359.11
499.56	26148.46
499.73	26075.91
499.91	26153.15
500.08	26499.55
500.26	26338.05
500.44	26492.52
500.61	26738.28
500.79	26394.22
500.97	26728.92
501.14	27049.57
501.32	26944.25
501.49	26862.33
501.67	27201.71
501.84	27129.15
502.02	27494.27
502.20	27845.35
502.37	27662.79
502.55	27482.57
502.72	27817.27
502.90	28032.60
503.07	28107.49
503.25	27725.99
503.43	27974.08
503.60	28020.89
503.78	27997.49
503.95	28381.34
504.13	28556.88
504.30	28615.39
504.48	28627.09
504.65	28446.87
504.83	28835.40
505.01	29383.09
505.18	28786.25
505.36	29179.46
505.53	29469.69
505.71	29441.60
505.88	29270.74
506.06	29582.03
506.23	29668.63
506.41	29507.13
506.58	29511.81
506.76	29982.26
506.93	29818.42
507.11	29579.69
507.28	30045.46
507.46	29731.83
507.63	29834.81
507.81	30199.93
507.98	30038.44
508.16	30050.14
508.33	30361.43
508.50	30726.55
508.68	30595.48
508.85	30778.04
509.03	30651.66
509.20	30897.41
509.38	30829.54
509.55	31033.16
509.73	30995.71
509.90	31393.61
510.08	31433.39
510.25	31241.47
510.42	31318.71
510.60	31484.89
510.77	32098.11
510.95	32093.43
511.12	31522.34
511.30	31805.54
511.47	32074.70
511.64	32044.27
511.82	31922.57
511.99	31945.97
512.17	32210.45
512.34	31573.83
512.51	32701.96
512.69	32795.59
512.86	32606.00
513.04	32760.48
513.21	32720.69
513.38	32634.09
513.56	32774.52
513.73	32233.86
513.90	32931.34
514.08	32985.17
514.25	33205.18
514.43	33188.80
514.60	33212.20
514.77	33235.61
514.95	33394.76
515.12	33406.47
515.29	33373.70
515.47	33940.11
515.64	34087.56
515.81	33752.87
515.99	33532.86
516.16	33783.29
516.33	33450.94
516.51	33708.40
516.68	32872.82
516.85	32737.07
517.03	33490.73
517.20	33607.75
517.37	34319.28
517.54	34504.18
517.72	33823.08
517.89	33741.16
518.06	33504.77
518.24	33944.79
518.41	34410.56
518.58	34150.76
518.75	34223.31
518.93	34506.52
519.10	34703.12
519.27	35030.80
519.45	34665.67
519.62	35110.38
519.79	35421.67
519.96	35168.89
520.14	35330.39
520.31	34979.31
520.48	35337.41
520.65	35428.69
520.83	35508.27
521.00	35805.52
521.17	35812.54
521.34	35737.64
521.52	36203.41
521.69	36086.38
521.86	35931.90
522.03	35950.63
522.20	36037.23
522.38	36142.55
522.55	36261.92
522.72	35976.37
522.89	36016.16
523.07	36837.69
523.24	36243.20
523.41	36563.85
523.58	36704.28
523.75	37212.18
523.92	36804.92
524.10	36856.42
524.27	36383.63
524.44	37212.18
524.61	37258.99
524.78	37195.79
524.96	37329.20
525.13	37156.00
525.30	37689.65
525.47	37670.92
525.64	37216.86
525.81	37621.77
525.98	37226.22
526.16	37193.45
526.33	37642.84
526.50	37443.89
526.67	37156.00
526.84	37163.03
527.01	37483.68
527.18	37347.93
527.36	37874.55
527.53	37897.95
527.70	38153.07
527.87	38546.28
528.04	37972.85
528.21	38309.89
528.38	38312.23
528.55	38508.83
528.72	38710.12
528.89	38946.51
529.07	38352.02
529.24	38389.47
529.41	38745.23
529.58	38897.36
529.75	38508.83
529.92	38918.43
530.09	38892.68
530.26	38778.00
530.43	38951.20
530.60	39044.82
530.77	39318.66
530.94	39262.49
531.11	39395.90
531.28	39084.61
531.46	39377.17
531.63	39494.20
531.80	39232.06
531.97	39522.29
532.14	39276.53
532.31	38944.17
532.48	38946.51
532.65	39625.27
532.82	39070.56
532.99	39634.63
533.16	39505.90
533.33	39852.30
533.50	39782.09
533.67	39543.35
533.84	39709.53
534.01	40112.10
534.18	39484.84
534.35	40142.53
534.52	39440.37
534.69	40315.73
534.86	40538.08
535.03	40390.62
535.20	40355.52
535.37	41095.13
535.54	40854.05
535.71	40830.65
535.88	40495.95
536.05	40201.04
536.22	40673.83
536.38	40411.69
536.55	40395.31
536.72	40392.97
536.89	40395.31
537.06	40755.75
537.23	40465.52
537.40	40856.39
537.57	41343.22
537.74	41120.87
537.91	41083.42
538.08	41160.66
538.25	40966.40
538.42	40809.58
538.59	41134.92
538.75	41163.00
538.92	41113.85
539.09	41277.69
539.26	41312.80
539.43	41282.37
539.60	41057.68
539.77	40900.86
539.94	41593.66
540.11	41345.56
540.28	41364.29
540.44	41673.24
540.61	41263.64
540.78	41083.42
540.95	41282.37
541.12	41434.50
541.29	41359.61
541.46	41722.39
541.62	41865.16
541.79	41673.24
541.96	41383.01
542.13	41708.35
542.30	41717.71
542.47	42244.33
542.63	42387.10
542.80	41968.15
542.97	42281.78
543.14	42256.03
543.31	41930.70
543.48	42377.74
543.64	42665.63
543.81	42670.31
543.98	42845.85
544.15	42497.11
544.32	42742.86
544.48	42958.19
544.65	42890.32
544.82	42883.30
544.99	42316.89
545.16	42579.03
545.32	42457.32
545.49	43288.21
545.66	43096.28
545.83	42916.06
546.00	42691.37
546.16	43105.65
546.33	42354.33
546.50	42466.68
546.67	43309.27
546.83	42731.16
547.00	43288.21
547.17	42827.12
547.34	43023.73
547.50	42911.38
547.67	43173.52
547.84	42974.58
548.00	43519.92
548.17	43098.62
548.34	43627.59
548.51	43784.40
548.67	43374.81
548.84	43564.39
549.01	43414.60
549.18	43578.43
549.34	44030.16
549.51	43882.70
549.68	43498.86
549.84	43683.76
550.01	43983.35
550.18	43730.57
550.34	43351.40
550.51	43955.26
550.68	43746.95
550.84	43049.47
551.01	43789.08
551.18	43842.92
551.34	43803.13
551.51	44296.98
551.68	44528.69
551.84	43751.63
552.01	44016.11
552.18	43908.45
552.34	43777.38
552.51	43964.62
552.68	43838.23
552.84	44163.57
553.01	44594.23
553.18	43819.51
553.34	44320.38
553.51	44278.25
553.67	44458.48
553.84	44320.38
554.01	43906.11
554.17	44538.05
554.34	44435.07
554.51	44165.91
554.67	44779.13
554.84	44514.65
555.00	44360.17
555.17	44151.87
555.33	44320.38
555.50	44406.98
555.67	44566.14
555.83	44582.52
556.00	44769.77
556.16	44921.90
556.33	44561.46
556.50	44594.23
556.66	44535.71
556.83	44722.96
556.99	44704.23
557.16	44367.20
557.32	45020.20
557.49	44961.69
557.65	44601.25
557.82	44755.72
557.98	44697.21
558.15	44786.15
558.32	44921.90
558.48	44519.33
558.65	44694.87
558.81	44486.56
558.98	44978.07
559.14	45020.20
559.31	44842.32
559.47	45317.45
559.64	45097.44
559.80	44886.79
559.97	45001.48
560.13	44765.09
560.30	45132.55
560.46	44971.05
560.63	44994.46
560.79	45251.92
560.96	45495.33
561.12	44875.09
561.29	45455.54
561.45	45457.88
561.61	45296.39
561.78	45102.12
561.94	44865.73
562.11	45390.01
562.27	45581.93
562.44	45354.90
562.60	45167.66
562.77	45235.53
562.93	45113.83
563.10	45633.42
563.26	45132.55
563.42	45563.21
563.59	45305.75
563.75	45607.68
563.92	45808.96
564.08	45099.78
564.24	45514.06
564.41	45752.79
564.57	45375.97
564.74	45652.15
564.90	45305.75
565.07	45418.10
565.23	45535.12
565.39	45584.27
565.56	45170.00
565.72	44828.28
565.88	45382.99
566.05	45319.79
566.21	45265.96
566.38	44935.95
566.54	45315.11
566.70	45443.84
566.87	45745.77
567.03	45373.63
567.19	46202.18
567.36	45612.36
567.52	45584.27
567.68	45731.73
567.85	45144.25
568.01	46092.17
568.17	45649.81
568.34	45708.32
568.50	45434.48
568.66	45415.76
568.83	45806.62
568.99	45565.55
569.15	45148.93
569.32	45745.77
569.48	45656.83
569.64	45680.24
569.81	45614.70
569.97	45654.49
570.13	45860.46
570.30	44968.71
570.46	45315.11
570.62	45188.72
570.78	44971.05
570.95	45354.90
571.11	45778.54
571.27	45511.72
571.43	45102.12
571.60	45626.40
571.76	45649.81
571.92	45750.45
572.09	45736.41
572.25	45916.63
572.41	45956.42
572.57	45668.53
572.74	46302.82
572.90	45603.00
573.06	45998.55
573.22	45825.35
573.38	45549.17
573.55	45378.31
573.71	46052.38
573.87	45649.81
574.03	45734.07
574.20	45804.28
574.36	45773.86
574.52	45708.32
574.68	45631.08
574.84	45818.33
575.01	46031.32
575.17	46050.04
575.33	45968.12
575.49	45799.60
575.65	46150.68
575.82	45860.46
575.98	45539.80
576.14	45879.18
576.30	45668.53
576.46	45841.73
576.62	45818.33
576.79	45727.05
576.95	45628.74
577.11	45577.25
577.27	45624.06
577.43	45628.74
577.59	45544.48
577.75	45223.83
577.92	45031.91
578.08	45439.16
578.24	45277.66
578.40	45633.42
578.56	45588.95
578.72	45825.35
578.88	45935.35
579.04	45921.31
579.21	45794.92
579.37	45808.96
579.53	45769.18
579.69	45705.98
579.85	46054.72
580.01	45881.52
580.17	45673.21
580.33	45500.01
580.49	45801.94
580.65	45961.10
580.82	45837.05
580.98	45621.72
581.14	45890.88
581.30	46073.45
581.46	45420.44
581.62	46155.36
581.78	45764.49
581.94	46258.35
582.10	45958.76
582.26	46078.13
582.42	45916.63
582.58	45834.71
582.74	45560.87
582.90	46099.19
583.06	46157.70
583.22	46150.68
583.38	46183.45
583.54	46274.73
583.70	45720.02
583.86	46010.25
584.02	45471.93
584.18	46197.49
584.34	45956.42
584.50	46150.68
584.66	46007.91
584.82	45916.63
584.98	46181.11
585.14	46138.98
585.30	45818.33
585.46	45705.98
585.62	45638.11
585.78	46071.10
585.94	45734.07
586.10	45603.00
586.26	45553.85
586.42	45827.69
586.58	45989.19
586.74	45827.69
586.90	45605.34
587.06	45717.68
587.22	46248.99
587.38	45516.40
587.54	46206.86
587.70	45984.51
587.86	45794.92
588.02	46019.61
588.18	46279.41
588.34	45404.05
588.49	45624.06
588.65	45298.73
588.81	45331.50
588.97	45265.96
589.13	45347.88
589.29	45209.79
589.45	45883.86
589.61	45516.40
589.77	46127.28
589.93	45881.52
590.08	46206.86
