SpectraSuite Data File
++++++++++++++++++++++++++++++++++++
Date: Fri Oct 25 10:47:59 EDT 2013
User: price-jones
Dark Spectrum Present: No
Reference Spectrum Present: No
Number of Sampled Component Spectra: 1
Spectrometers: USB2+H05261
Integration Time (usec): 100000 (USB2+H05261)
Spectra Averaged: 1 (USB2+H05261)
Boxcar Smoothing: 0 (USB2+H05261)
Correct for Electrical Dark: No (USB2+H05261)
Strobe/Lamp Enabled: No (USB2+H05261)
Correct for Detector Non-linearity: No (USB2+H05261)
Correct for Stray Light: No (USB2+H05261)
Number of Pixels in Processed Spectrum: 2048
>>>>>Begin Processed Spectral Data<<<<<
365.73	161.50
365.92	161.50
366.12	161.50
366.32	74.90
366.52	42.13
366.72	86.60
366.91	53.83
367.11	58.51
367.31	23.41
367.51	39.79
367.70	9.36
367.90	32.77
368.10	0.00
368.30	79.58
368.49	16.38
368.69	60.85
368.89	77.24
369.09	49.15
369.28	56.17
369.48	93.62
369.68	60.85
369.87	88.94
370.07	81.92
370.27	168.52
370.47	196.60
370.66	369.80
370.86	437.68
371.06	444.70
371.25	535.98
371.45	425.98
371.65	531.30
371.84	355.76
372.04	484.49
372.24	510.24
372.44	411.93
372.63	458.74
372.83	479.81
373.03	500.87
373.22	484.49
373.42	538.32
373.62	479.81
373.81	444.70
374.01	528.96
374.21	571.09
374.40	552.37
374.60	622.58
374.79	615.56
374.99	575.77
375.19	547.69
375.38	613.22
375.58	538.32
375.78	615.56
375.97	645.99
376.17	704.50
376.37	573.43
376.56	491.51
376.76	599.18
376.95	599.18
377.15	538.32
377.35	575.77
377.54	601.52
377.74	662.37
377.93	552.37
378.13	538.32
378.33	603.86
378.52	650.67
378.72	592.16
378.91	608.54
379.11	634.29
379.31	571.09
379.50	608.54
379.70	624.92
379.89	678.76
380.09	627.26
380.28	660.03
380.48	702.16
380.68	760.67
380.87	620.24
381.07	641.31
381.26	683.44
381.46	599.18
381.65	725.57
381.85	650.67
382.04	683.44
382.24	603.86
382.43	627.26
382.63	631.94
382.83	711.52
383.02	702.16
383.22	688.12
383.41	676.41
383.61	725.57
383.80	706.84
384.00	772.38
384.19	697.48
384.39	758.33
384.58	748.97
384.78	734.93
384.97	706.84
385.17	688.12
385.36	725.57
385.56	805.14
385.75	805.14
385.95	755.99
386.14	840.25
386.34	744.29
386.53	777.06
386.72	809.83
386.92	868.34
387.11	798.12
387.31	858.98
387.50	802.80
387.70	882.38
387.89	781.74
388.09	819.19
388.28	847.27
388.48	828.55
388.67	868.34
388.86	844.93
389.06	823.87
389.25	903.45
389.45	954.94
389.64	861.32
389.84	891.74
390.03	940.90
390.22	912.81
390.42	929.19
390.61	912.81
390.81	924.51
391.00	1015.79
391.19	976.00
391.39	1064.94
391.58	912.81
391.78	898.77
391.97	903.45
392.16	903.45
392.36	945.58
392.55	940.90
392.75	1001.75
392.94	947.92
393.13	997.07
393.33	1022.81
393.52	997.07
393.71	1062.60
393.91	1053.24
394.10	1022.81
394.29	1001.75
394.49	908.13
394.68	1109.41
394.88	1025.15
395.07	1071.97
395.26	1083.67
395.46	1057.92
395.65	1137.50
395.84	1137.50
396.04	1160.91
396.23	1128.14
396.42	1095.37
396.62	1128.14
396.81	1043.88
397.00	1170.27
397.19	1221.76
397.39	1142.18
397.58	1207.72
397.77	1214.74
397.97	1263.89
398.16	1259.21
398.35	1231.12
398.55	1273.25
398.74	1291.98
398.93	1348.15
399.12	1338.79
399.32	1303.68
399.51	1334.11
399.70	1376.24
399.90	1310.70
400.09	1310.70
400.28	1366.87
400.47	1455.81
400.67	1432.41
400.86	1458.15
401.05	1446.45
401.24	1504.96
401.44	1521.35
401.63	1462.83
401.82	1502.62
402.01	1579.86
402.21	1575.18
402.40	1483.90
402.59	1488.58
402.78	1563.48
402.97	1502.62
403.17	1556.46
403.36	1544.75
403.55	1537.73
403.74	1577.52
403.93	1497.94
404.13	1558.80
404.32	1633.69
404.51	1659.44
404.70	1586.88
404.89	1661.78
405.09	1809.23
405.28	1760.08
405.47	1717.95
405.66	1701.57
405.85	1664.12
406.05	1589.22
406.24	1746.04
406.43	1732.00
406.62	1664.12
406.81	1830.30
407.00	1891.15
407.20	1795.19
407.39	1750.72
407.58	1888.81
407.77	1919.24
407.96	1940.30
408.15	1886.47
408.34	1884.13
408.54	1982.43
408.73	1982.43
408.92	2033.93
409.11	2097.12
409.30	2038.61
409.49	2015.20
409.68	2047.97
409.87	2010.52
410.07	1996.48
410.26	2071.37
410.45	2115.84
410.64	2078.40
410.83	2101.80
411.02	2188.40
411.21	2146.27
411.40	2237.55
411.59	2401.39
411.78	2275.00
411.98	2303.09
412.17	2380.32
412.36	2399.05
412.55	2450.54
412.74	2429.48
412.93	2373.30
413.12	2225.85
413.31	2619.06
413.50	2452.88
413.69	2548.84
413.88	2633.10
414.07	2583.95
414.26	2565.23
414.45	2572.25
414.64	2588.63
414.83	2700.98
415.02	2686.94
415.22	2736.09
415.41	2663.53
415.60	2801.62
415.79	2829.71
415.98	2883.54
416.17	2726.72
416.36	2832.05
416.55	2722.04
416.74	2731.41
416.93	2829.71
417.12	2860.13
417.31	2904.60
417.50	2846.09
417.69	3084.83
417.88	3059.08
418.07	2991.20
418.26	3028.65
418.45	3061.42
418.64	3159.72
418.83	3073.12
419.02	3133.98
419.21	3094.19
419.39	3157.38
419.58	3159.72
419.77	3187.81
419.96	3211.22
420.15	3229.94
420.34	3052.06
420.53	3124.62
420.72	3382.07
420.91	3241.64
421.10	3286.11
421.29	3428.88
421.48	3321.22
421.67	3492.08
421.86	3389.10
422.05	3349.31
422.24	3220.58
422.43	3414.84
422.61	3478.04
422.80	3398.46
422.99	3396.12
423.18	3487.40
423.37	3552.93
423.56	3438.25
423.75	3487.40
423.94	3463.99
424.13	3398.46
424.32	3349.31
424.50	3609.11
424.69	3613.79
424.88	3487.40
425.07	3517.83
425.26	3459.31
425.45	3569.32
425.64	3452.29
425.83	3438.25
426.01	3606.77
426.20	3480.38
426.39	3517.83
426.58	3543.57
426.77	3442.93
426.96	3389.10
427.15	3559.95
427.33	3653.58
427.52	3688.68
427.71	3574.00
427.90	3702.73
428.09	3630.17
428.28	3679.32
428.46	3744.86
428.65	3653.58
428.84	3843.16
429.03	3943.80
429.22	3749.54
429.40	3803.37
429.59	3808.05
429.78	3674.64
429.97	3606.77
430.16	3686.34
430.34	3812.73
430.53	3913.38
430.72	3810.39
430.91	3904.01
431.10	3878.27
431.28	4084.23
431.47	4198.92
431.66	4121.68
431.85	4021.04
432.03	4166.15
432.22	4234.03
432.41	4229.35
432.60	4308.93
432.79	4149.77
432.97	4236.37
433.16	4276.16
433.35	4154.45
433.54	4084.23
433.72	4194.24
433.91	4227.01
434.10	4411.91
434.28	4294.88
434.47	4475.10
434.66	4440.00
434.85	4381.48
435.03	4365.10
435.22	4308.93
435.41	4521.92
435.59	4550.00
435.78	4568.73
435.97	4465.74
436.16	4519.57
436.34	4571.07
436.53	4449.36
436.72	4765.33
436.90	4451.70
437.09	4533.62
437.28	4528.94
437.46	4678.73
437.65	4634.26
437.84	4784.06
438.02	4641.28
438.21	4629.58
438.40	4498.51
438.58	4826.18
438.77	4786.40
438.96	4840.23
439.14	4905.76
439.33	5069.60
439.52	5085.98
439.70	5062.58
439.89	5172.58
440.08	5160.88
440.26	5149.18
440.45	5100.03
440.63	5174.92
440.82	5275.57
441.01	5186.63
441.19	5165.56
441.38	5345.78
441.57	5329.40
441.75	5439.40
441.94	5434.72
442.12	5678.14
442.31	5584.52
442.50	5678.14
442.68	5621.97
442.87	5652.39
443.05	5671.12
443.24	5654.73
443.43	5645.37
443.61	5671.12
443.80	5837.30
443.98	5549.41
444.17	5495.58
444.35	5799.85
444.54	5926.24
444.73	5776.44
444.91	5783.46
445.10	5818.57
445.28	5839.64
445.47	5832.62
445.65	5771.76
445.84	5778.78
446.02	5865.38
446.21	5825.59
446.39	5970.71
446.58	5905.17
446.77	5884.11
446.95	5666.44
447.14	5900.49
447.32	5858.36
447.51	5996.45
447.69	5795.17
447.88	6076.03
448.06	5956.66
448.25	5975.39
448.43	6150.93
448.62	5823.25
448.80	5989.43
448.99	5956.66
449.17	6225.82
449.36	6031.56
449.54	6099.44
449.73	6289.02
449.91	6200.08
450.10	6242.21
450.28	6420.09
450.46	6326.47
450.65	6406.05
450.83	6436.47
451.02	6349.87
451.20	6509.03
451.39	6434.13
451.57	6415.41
451.76	6366.26
451.94	6366.26
452.13	6473.92
452.31	6375.62
452.49	6246.89
452.68	6487.96
452.86	6406.05
453.05	6406.05
453.23	6553.50
453.42	6548.82
453.60	6410.73
453.78	6654.14
453.97	6518.39
454.15	6588.61
454.34	6738.40
454.52	6715.00
454.70	6670.53
454.89	6621.38
455.07	6637.76
455.26	6817.98
455.44	6817.98
455.62	6778.19
455.81	6878.83
455.99	7028.63
456.17	6958.41
456.36	6998.20
456.54	6956.07
456.73	7143.32
456.91	7234.60
457.09	7300.13
457.28	7417.16
457.46	7185.44
457.64	7227.57
457.83	7222.89
458.01	7173.74
458.19	7353.96
458.38	7335.24
458.56	7431.20
458.74	7466.31
458.93	7316.51
459.11	7398.43
459.29	7332.90
459.48	7428.86
459.66	7541.21
459.84	7351.62
460.03	7641.85
460.21	7379.71
460.39	7623.12
460.57	7375.03
460.76	7683.98
460.94	7812.71
461.12	7651.21
461.31	7517.80
461.49	7520.14
461.67	7616.10
461.85	7719.09
462.04	7798.66
462.22	8329.97
462.40	7763.56
462.59	8025.70
462.77	7815.05
462.95	7960.16
463.13	7875.90
463.32	8109.96
463.50	7999.95
463.68	8180.17
463.86	8159.11
464.05	7889.95
464.23	7974.21
464.41	8187.19
464.59	8046.76
464.78	8222.30
464.96	8297.20
465.14	8201.24
465.32	8138.04
465.50	8203.58
465.69	8285.50
465.87	8168.47
466.05	7941.44
466.23	8198.90
466.41	8297.20
466.60	8617.85
466.78	8341.67
466.96	8290.18
467.14	8468.06
467.32	8365.07
467.51	8667.00
467.69	8285.50
467.87	8554.66
468.05	8367.42
468.23	8659.98
468.41	8306.56
468.60	8334.65
468.78	8629.56
468.96	8514.87
469.14	8798.07
469.32	8596.79
469.50	8643.60
469.69	8615.51
469.87	8720.84
470.05	8704.45
470.23	8844.88
470.41	8781.69
470.59	9139.79
470.77	8765.31
470.95	8931.48
471.14	9116.39
471.32	9004.04
471.50	9401.93
471.68	9170.22
471.86	9118.73
472.04	9275.54
472.22	9453.42
472.40	9139.79
472.58	9315.33
472.77	9310.65
472.95	9322.35
473.13	9731.95
473.31	9596.20
473.49	9556.41
473.67	9603.22
473.85	9757.69
474.03	9813.87
474.21	9806.84
474.39	9834.93
474.57	9898.13
474.75	10050.26
474.93	10132.18
475.12	10115.80
475.30	10022.17
475.48	10003.45
475.66	10174.31
475.84	10150.90
476.02	10328.78
476.20	10476.24
476.38	10445.81
476.56	10717.31
476.74	10576.88
476.92	10541.77
477.10	10576.88
477.28	10712.63
477.46	10925.62
477.64	10841.36
477.82	11108.18
478.00	11473.31
478.18	11082.44
478.36	11363.30
478.54	11480.33
478.72	11400.75
478.90	11522.46
479.08	11700.34
479.26	11754.17
479.44	11793.96
479.62	11981.20
479.80	11882.90
479.98	12159.08
480.16	12428.24
480.34	12208.23
480.52	12304.20
480.70	12458.67
480.88	12112.27
481.06	12594.42
481.24	12446.97
481.41	12535.91
481.59	12929.12
481.77	12961.89
481.95	12910.40
482.13	13195.94
482.31	12957.21
482.49	13448.72
482.67	13479.15
482.85	13444.04
483.03	13626.60
483.21	13717.88
483.39	13820.86
483.57	13825.54
483.74	14253.86
483.92	14075.98
484.10	14003.43
484.28	14389.61
484.46	14499.62
484.64	14768.78
484.82	14317.06
485.00	14839.00
485.18	14970.07
485.35	15035.60
485.53	14939.64
485.71	15047.30
485.89	15262.63
486.07	15337.53
486.25	15204.12
486.43	15438.17
486.61	15719.04
486.78	15892.24
486.96	15988.20
487.14	16093.52
487.32	16233.96
487.50	16383.75
487.68	16762.92
487.85	16905.69
488.03	16568.65
488.21	16671.64
488.39	16882.28
488.57	17298.90
488.75	17195.92
488.92	17425.29
489.10	17348.05
489.28	17717.86
489.46	18052.55
489.64	17937.87
489.81	18349.80
489.99	18085.32
490.17	18544.06
490.35	18361.50
490.53	18312.35
490.70	18462.15
490.88	18647.05
491.06	18864.72
491.24	19112.81
491.41	19054.30
491.59	19112.81
491.77	18946.64
491.95	19232.18
492.13	19143.24
492.30	19871.15
492.48	19587.94
492.66	19613.69
492.84	19878.17
493.01	20034.99
493.19	20184.78
493.37	20393.09
493.54	20304.15
493.72	20531.18
493.90	20552.24
494.08	20702.04
494.25	21223.98
494.43	20999.29
494.61	20952.48
494.79	21156.10
494.96	21284.83
495.14	21408.88
495.32	21898.05
495.49	21558.67
495.67	21699.11
495.85	21994.01
496.02	21979.97
496.20	22188.28
496.38	22204.66
496.55	22558.08
496.73	23220.45
496.91	22501.91
497.09	22838.95
497.26	22642.34
497.44	22855.33
497.62	23175.98
497.79	23220.45
497.97	23147.90
498.14	23145.56
498.32	23248.54
498.50	23391.31
498.67	23768.14
498.85	23592.60
499.03	23962.40
499.20	23885.17
499.38	23765.80
499.56	24369.66
499.73	24341.57
499.91	24297.10
500.08	24634.14
500.26	24425.83
500.44	24334.55
500.61	24620.10
500.79	24442.21
500.97	24680.95
501.14	24964.15
501.32	25109.27
501.49	24884.58
501.67	24947.77
501.84	25050.75
502.02	25039.05
502.20	25245.02
502.37	25472.05
502.55	25434.60
502.72	25717.81
502.90	25628.87
503.07	25982.29
503.25	25947.18
503.43	25668.66
503.60	25991.65
503.78	26003.35
503.95	26195.28
504.13	26192.94
504.30	26506.57
504.48	26434.01
504.65	26979.36
504.83	26532.31
505.01	27014.46
505.18	26742.96
505.36	27178.30
505.53	26918.50
505.71	27175.96
505.88	27363.20
506.06	26925.52
506.23	27325.75
506.41	26731.26
506.58	27599.60
506.76	27475.55
506.93	27843.01
507.11	27662.79
507.28	27843.01
507.46	27517.68
507.63	27557.47
507.81	27941.32
507.98	27983.44
508.16	28044.30
508.33	28210.48
508.50	28456.23
508.68	28336.87
508.85	28711.35
509.03	28479.64
509.20	28320.48
509.38	28631.77
509.55	28793.27
509.73	28720.71
509.90	29322.23
510.08	28800.29
510.25	29469.69
510.42	29216.91
510.60	29460.32
510.77	29305.85
510.95	29418.19
511.12	29511.81
511.30	29577.35
511.47	29776.30
511.64	29692.04
511.82	29825.45
511.99	29972.90
512.17	30085.25
512.34	29621.82
512.51	30464.41
512.69	30293.55
512.86	30279.51
513.04	30363.77
513.21	30511.22
513.38	30017.37
513.56	30373.13
513.73	30298.23
513.90	30436.33
514.08	30787.41
514.25	30682.08
514.43	30979.33
514.60	31171.25
514.77	30885.71
514.95	31372.54
515.12	31009.76
515.29	31386.58
515.47	31468.50
515.64	31594.89
515.81	30976.99
515.99	31028.48
516.16	31627.66
516.33	31644.04
516.51	32020.87
516.68	31105.72
516.85	31447.44
517.03	31882.78
517.20	31791.50
517.37	32058.32
517.54	32407.06
517.72	32374.29
517.89	31814.90
518.06	31683.83
518.24	32119.17
518.41	32123.85
518.58	32451.53
518.75	32290.03
518.93	32547.49
519.10	32570.90
519.27	32800.27
519.45	32730.05
519.62	32907.93
519.79	32903.25
519.96	33092.83
520.14	32971.13
520.31	32863.46
520.48	33043.68
520.65	33123.26
520.83	33397.10
521.00	33525.83
521.17	33516.47
521.34	33546.90
521.52	33832.44
521.69	33628.82
521.86	33813.72
522.03	34040.75
522.20	34139.05
522.38	33879.25
522.55	34134.37
522.72	34326.30
522.89	33755.21
523.07	34040.75
523.24	33886.28
523.41	34581.42
523.58	34244.38
523.75	34660.99
523.92	34787.38
524.10	34934.84
524.27	34258.42
524.44	35040.16
524.61	35016.75
524.78	35196.98
524.96	35089.31
525.13	35189.95
525.30	35531.67
525.47	35370.18
525.64	35192.30
525.81	35250.81
525.98	35007.39
526.16	35098.67
526.33	34951.22
526.50	35468.48
526.67	35255.49
526.84	35215.70
527.01	35489.54
527.18	35477.84
527.36	35309.32
527.53	35866.37
527.70	36039.57
527.87	36116.81
528.04	35749.34
528.21	36371.92
528.38	36006.80
528.55	36247.88
528.72	36217.45
528.89	36477.25
529.07	35782.11
529.24	36039.57
529.41	36346.18
529.58	36407.03
529.75	36070.00
529.92	36849.39
530.09	36699.60
530.26	36690.24
530.43	36854.08
530.60	36737.05
530.77	36144.89
530.94	36968.76
531.11	36671.51
531.28	37088.13
531.46	37151.32
531.63	37397.08
531.80	37251.97
531.97	36910.25
532.14	36989.83
532.31	37343.25
532.48	37090.47
532.65	37127.92
532.82	37256.65
532.99	37766.88
533.16	36830.67
533.33	37584.32
533.50	37816.04
533.67	37675.60
533.84	37228.56
534.01	37593.68
534.18	37249.63
534.35	38007.96
534.52	37710.71
534.69	37867.53
534.86	38115.62
535.03	37691.99
535.20	38178.82
535.37	38419.89
535.54	38497.13
535.71	38234.99
535.88	38157.75
536.05	38511.17
536.22	38569.69
536.38	38419.89
536.55	38225.63
536.72	38431.60
536.89	38330.95
537.06	38281.80
537.23	38616.50
537.40	38693.74
537.57	38682.03
537.74	38333.29
537.91	39037.80
538.08	38944.17
538.25	38569.69
538.42	38925.45
538.59	39180.57
538.75	38696.08
538.92	38878.64
539.09	39098.65
539.26	38969.92
539.43	39344.41
539.60	38969.92
539.77	39260.15
539.94	39215.68
540.11	39136.10
540.28	38990.98
540.44	39117.37
540.61	39065.88
540.78	39257.81
540.95	39129.08
541.12	39321.00
541.29	39283.55
541.46	39419.30
541.62	39562.08
541.79	39807.83
541.96	39562.08
542.13	39636.97
542.30	39470.79
542.47	39707.19
542.63	39328.02
542.80	39847.62
542.97	40137.85
543.14	40573.19
543.31	40601.27
543.48	39941.24
543.64	40734.68
543.81	40683.19
543.98	40407.01
544.15	40774.47
544.32	40502.97
544.48	41055.34
544.65	40638.72
544.82	40493.61
544.99	39955.29
545.16	40617.66
545.32	40453.82
545.49	41081.08
545.66	41064.70
545.83	40935.97
546.00	41394.71
546.16	40994.48
546.33	40872.78
546.50	40758.09
546.67	41146.62
546.83	40779.15
547.00	41139.60
547.17	40917.25
547.34	41347.90
547.50	41270.67
547.67	41624.09
547.84	41600.68
548.00	41495.36
548.17	41546.85
548.34	41474.29
548.51	41687.28
548.67	41911.97
548.84	41729.41
549.01	41818.35
549.18	41694.30
549.34	41808.99
549.51	41731.75
549.68	41654.51
549.84	41825.37
550.01	41869.84
550.18	41474.29
550.34	41741.11
550.51	41755.16
550.68	41624.09
550.84	41413.44
551.01	41706.01
551.18	41808.99
551.34	42050.06
551.51	41680.26
551.68	42237.31
551.84	42246.67
552.01	42181.13
552.18	42197.52
552.34	41970.49
552.51	42384.76
552.68	42377.74
552.84	42246.67
553.01	42670.31
553.18	42227.95
553.34	42471.36
553.51	42134.32
553.67	42160.07
553.84	42890.32
554.01	42478.38
554.17	42948.83
554.34	42754.57
554.51	42742.86
554.67	42684.35
554.84	42314.55
555.00	42543.92
555.17	41975.17
555.33	42710.10
555.50	42522.85
555.67	42974.58
555.83	42717.12
556.00	42689.03
556.16	42993.30
556.33	43021.39
556.50	42766.27
556.66	43428.64
556.83	42494.77
556.99	43377.15
557.16	43440.34
557.32	42944.15
557.49	43225.01
557.65	42796.70
557.82	43089.26
557.98	43133.73
558.15	43227.35
558.32	43330.34
558.48	42859.89
558.65	43100.97
558.81	43133.73
558.98	42906.70
559.14	43173.52
559.31	43110.33
559.47	43545.67
559.64	43384.17
559.80	43473.11
559.97	43309.27
560.13	43093.94
560.30	43274.16
560.46	43522.26
560.63	43264.80
560.79	43679.08
560.96	43959.94
561.12	43501.20
561.29	43702.48
561.45	43262.46
561.61	43906.11
561.78	43416.94
561.94	43400.55
562.11	43393.53
562.27	42948.83
562.44	43428.64
562.60	44179.95
562.77	43421.62
562.93	43833.55
563.10	44030.16
563.26	43407.58
563.42	43863.98
563.59	43566.73
563.75	43653.33
563.92	43840.57
564.08	43863.98
564.24	43941.22
564.41	43964.62
564.57	43854.62
564.74	43777.38
564.90	43814.83
565.07	43831.21
565.23	43625.25
565.39	43786.74
565.56	44292.30
565.72	43643.97
565.88	44041.86
566.05	43856.96
566.21	44037.18
566.38	44065.27
566.54	43702.48
566.70	44268.89
566.87	44107.40
567.03	43831.21
567.19	44355.49
567.36	44320.38
567.52	43660.35
567.68	44208.04
567.85	43814.83
568.01	44210.38
568.17	43789.08
568.34	43978.67
568.50	44198.68
568.66	44348.47
568.83	44748.70
568.99	44168.25
569.15	43742.27
569.32	44208.04
569.48	43697.80
569.64	44446.77
569.81	44659.76
569.97	43868.66
570.13	44252.51
570.30	43833.55
570.46	44058.24
570.62	43782.06
570.78	43852.28
570.95	43845.26
571.11	44381.24
571.27	44182.29
571.43	44165.91
571.60	44341.45
571.76	43971.64
571.92	44383.58
572.09	44315.70
572.25	44018.46
572.41	44109.74
572.57	44039.52
572.74	44556.78
572.90	44465.50
573.06	44357.83
573.22	44626.99
573.38	44128.46
573.55	44266.55
573.71	44360.17
573.87	44439.75
574.03	44126.12
574.20	44437.41
574.36	44039.52
574.52	44540.39
574.68	44318.04
574.84	44395.28
575.01	44399.96
575.17	43952.92
575.33	43753.97
575.49	44215.06
575.65	44509.97
575.82	44526.35
575.98	44500.61
576.14	44793.17
576.30	44350.81
576.46	44289.96
576.62	44282.94
576.79	44521.67
576.95	44004.41
577.11	44364.85
577.27	44128.46
577.43	44418.69
577.59	44350.81
577.75	44285.28
577.92	44119.10
578.08	43988.03
578.24	44308.68
578.40	44360.17
578.56	44662.10
578.72	44708.91
578.88	44694.87
579.04	44589.55
579.21	44278.25
579.37	44313.36
579.53	44414.01
579.69	44446.77
579.85	44451.45
580.01	45177.02
580.17	44746.36
580.33	44751.04
580.49	44879.77
580.65	44622.31
580.82	44676.15
580.98	44371.88
581.14	44446.77
581.30	44797.85
581.46	43791.42
581.62	44793.17
581.78	45020.20
581.94	44914.88
582.10	44760.40
582.26	44914.88
582.42	44788.49
582.58	44437.41
582.74	44699.55
582.90	44629.34
583.06	44364.85
583.22	44898.50
583.38	44971.05
583.54	44678.49
583.70	44521.67
583.86	44168.25
584.02	44238.47
584.18	44444.43
584.34	44313.36
584.50	44580.18
584.66	44460.82
584.82	44502.95
584.98	45116.17
585.14	44521.67
585.30	44685.51
585.46	44690.19
585.62	44524.01
585.78	44341.45
585.94	44215.06
586.10	44378.90
586.26	44477.20
586.42	44395.28
586.58	44626.99
586.74	44987.44
586.90	44397.62
587.06	44666.78
587.22	44718.28
587.38	44304.00
587.54	44952.33
587.70	45155.96
587.86	45078.72
588.02	44634.02
588.18	44921.90
588.34	44278.25
588.49	44465.50
588.65	44259.53
588.81	44355.49
588.97	44360.17
589.13	44245.49
589.29	44519.33
589.45	44257.19
589.61	44828.28
589.77	44921.90
589.93	44797.85
590.08	45191.06
590.24	44767.43
