SpectraSuite Data File
++++++++++++++++++++++++++++++++++++
Date: Fri Oct 25 10:48:07 EDT 2013
User: price-jones
Dark Spectrum Present: No
Reference Spectrum Present: No
Number of Sampled Component Spectra: 1
Spectrometers: USB2+H05261
Integration Time (usec): 100000 (USB2+H05261)
Spectra Averaged: 1 (USB2+H05261)
Boxcar Smoothing: 0 (USB2+H05261)
Correct for Electrical Dark: No (USB2+H05261)
Strobe/Lamp Enabled: No (USB2+H05261)
Correct for Detector Non-linearity: No (USB2+H05261)
Correct for Stray Light: No (USB2+H05261)
Number of Pixels in Processed Spectrum: 2048
>>>>>Begin Processed Spectral Data<<<<<
365.73	159.16
365.92	159.16
366.12	159.16
366.32	39.79
366.52	23.41
366.72	65.54
366.91	4.68
367.11	2.34
367.31	21.06
367.51	44.47
367.70	72.56
367.90	9.36
368.10	56.17
368.30	0.00
368.49	46.81
368.69	32.77
368.89	84.26
369.09	63.19
369.28	65.54
369.48	98.30
369.68	114.69
369.87	49.15
370.07	46.81
370.27	175.54
370.47	203.63
370.66	351.08
370.86	402.57
371.06	409.59
371.25	517.26
371.45	400.23
371.65	440.02
371.84	433.00
372.04	440.02
372.24	416.62
372.44	449.38
372.63	491.51
372.83	545.34
373.03	519.60
373.22	451.72
373.42	465.77
373.62	475.13
373.81	493.85
374.01	540.66
374.21	561.73
374.40	533.64
374.60	505.56
374.79	547.69
374.99	463.43
375.19	533.64
375.38	568.75
375.58	507.90
375.78	615.56
375.97	538.32
376.17	587.47
376.37	552.37
376.56	608.54
376.76	552.37
376.95	624.92
377.15	589.82
377.35	624.92
377.54	613.22
377.74	603.86
377.93	594.50
378.13	683.44
378.33	634.29
378.52	678.76
378.72	613.22
378.91	723.23
379.11	603.86
379.31	660.03
379.50	641.31
379.70	634.29
379.89	685.78
380.09	608.54
380.28	709.18
380.48	657.69
380.68	631.94
380.87	589.82
381.07	688.12
381.26	648.33
381.46	585.13
381.65	667.05
381.85	634.29
382.04	667.05
382.24	610.88
382.43	704.50
382.63	594.50
382.83	655.35
383.02	704.50
383.22	739.61
383.41	688.12
383.61	681.10
383.80	678.76
384.00	720.88
384.19	741.95
384.39	802.80
384.58	695.14
384.78	734.93
384.97	774.72
385.17	685.78
385.36	741.95
385.56	690.46
385.75	678.76
385.95	774.72
386.14	880.04
386.34	755.99
386.53	688.12
386.72	755.99
386.92	814.51
387.11	760.67
387.31	770.04
387.50	816.85
387.70	851.96
387.89	763.01
388.09	854.30
388.28	795.78
388.48	828.55
388.67	861.32
388.86	833.23
389.06	884.72
389.25	901.11
389.45	875.36
389.64	861.32
389.84	919.83
390.03	898.77
390.22	858.98
390.42	922.17
390.61	929.19
390.81	873.02
391.00	896.43
391.19	987.71
391.39	1013.45
391.58	1004.09
391.78	945.58
391.97	992.39
392.16	929.19
392.36	1046.22
392.55	999.41
392.75	990.05
392.94	973.66
393.13	929.19
393.33	929.19
393.52	957.28
393.71	1022.81
393.91	987.71
394.10	966.64
394.29	1020.47
394.49	1039.20
394.68	1090.69
394.88	1041.54
395.07	1118.78
395.26	1008.77
395.46	1076.65
395.65	1118.78
395.84	1074.31
396.04	1114.10
396.23	1088.35
396.42	1153.88
396.62	1130.48
396.81	1034.52
397.00	1156.22
397.19	1198.35
397.39	1191.33
397.58	1224.10
397.77	1193.67
397.97	1240.48
398.16	1235.80
398.35	1296.66
398.55	1240.48
398.74	1329.42
398.93	1378.58
399.12	1320.06
399.32	1259.21
399.51	1221.76
399.70	1359.85
399.90	1345.81
400.09	1383.26
400.28	1329.42
400.47	1362.19
400.67	1324.74
400.86	1423.05
401.05	1460.49
401.24	1394.96
401.44	1404.32
401.63	1554.12
401.82	1495.60
402.01	1343.47
402.21	1523.69
402.40	1432.41
402.59	1474.54
402.78	1437.09
402.97	1486.24
403.17	1638.38
403.36	1535.39
403.55	1561.14
403.74	1533.05
403.93	1626.67
404.13	1591.56
404.32	1689.87
404.51	1504.96
404.70	1624.33
404.89	1626.67
405.09	1795.19
405.28	1722.63
405.47	1692.21
405.66	1650.08
405.85	1722.63
406.05	1783.49
406.24	1797.53
406.43	1846.68
406.62	1905.20
406.81	1771.79
407.00	1706.25
407.20	1818.60
407.39	1832.64
407.58	1860.73
407.77	1846.68
407.96	1874.77
408.15	1872.43
408.34	1933.28
408.54	2052.65
408.73	1989.46
408.92	1970.73
409.11	1989.46
409.30	1994.14
409.49	1975.41
409.68	1898.17
409.87	2167.34
410.07	2066.69
410.26	2106.48
410.45	2012.86
410.64	1949.67
410.83	2019.88
411.02	2188.40
411.21	2176.70
411.40	2181.38
411.59	2232.87
411.78	2258.62
411.98	2150.95
412.17	2436.50
412.36	2356.92
412.55	2340.54
412.74	2387.35
412.93	2333.51
413.12	2361.60
413.31	2555.86
413.50	2370.96
413.69	2469.27
413.88	2487.99
414.07	2607.36
414.26	2485.65
414.45	2534.80
414.64	2649.49
414.83	2574.59
415.02	2588.63
415.22	2647.15
415.41	2731.41
415.60	2787.58
415.79	2719.70
415.98	2843.75
416.17	2885.88
416.36	2773.53
416.55	2843.75
416.74	2942.05
416.93	2890.56
417.12	2780.56
417.31	2885.88
417.50	2829.71
417.69	3012.27
417.88	3082.49
418.07	2958.44
418.26	3066.10
418.45	3150.36
418.64	3192.49
418.83	3080.14
419.02	3183.13
419.21	3166.74
419.39	3183.13
419.58	3014.61
419.77	3171.43
419.96	3150.36
420.15	3276.75
420.34	3183.13
420.53	3255.69
420.72	3295.47
420.91	3260.37
421.10	3361.01
421.29	3279.09
421.48	3190.15
421.67	3297.81
421.86	3396.12
422.05	3281.43
422.24	3421.86
422.43	3349.31
422.61	3267.39
422.80	3515.48
422.99	3471.01
423.18	3445.27
423.37	3513.14
423.56	3478.04
423.75	3361.01
423.94	3391.44
424.13	3208.87
424.32	3377.39
424.50	3571.66
424.69	3520.17
424.88	3597.40
425.07	3363.35
425.26	3396.12
425.45	3391.44
425.64	3473.36
425.83	3424.20
426.01	3569.32
426.20	3517.83
426.39	3426.54
426.58	3548.25
426.77	3538.89
426.96	3712.09
427.15	3602.08
427.33	3588.04
427.52	3726.13
427.71	3698.05
427.90	3501.44
428.09	3723.79
428.28	3611.45
428.46	3700.39
428.65	3805.71
428.84	3735.50
429.03	3936.78
429.22	3705.07
429.40	3737.84
429.59	3693.37
429.78	3529.53
429.97	3559.95
430.16	3613.79
430.34	3868.91
430.53	3784.65
430.72	3882.95
430.91	3932.10
431.10	3744.86
431.28	3936.78
431.47	4051.47
431.66	4058.49
431.85	3943.80
432.03	4079.55
432.22	4238.71
432.41	4161.47
432.60	4149.77
432.79	4058.49
432.97	4147.43
433.16	4147.43
433.35	4166.15
433.54	4203.60
433.72	4205.94
433.91	4138.07
434.10	4161.47
434.28	4194.24
434.47	4241.05
434.66	4339.35
434.85	4383.82
435.03	4463.40
435.22	4276.16
435.41	4442.34
435.59	4351.06
435.78	4219.99
435.97	4510.21
436.16	4519.57
436.34	4587.45
436.53	4519.57
436.72	4524.26
436.90	4526.60
437.09	4624.90
437.28	4489.15
437.46	4454.04
437.65	4561.70
437.84	4636.60
438.02	4664.69
438.21	4685.75
438.40	4648.30
438.58	4784.06
438.77	4842.57
438.96	4840.23
439.14	4856.61
439.33	4950.23
439.52	5004.07
439.70	4737.24
439.89	4973.64
440.08	5043.85
440.26	5043.85
440.45	5060.24
440.63	4922.15
440.82	5214.71
441.01	5121.09
441.19	5343.44
441.38	5451.11
441.57	5329.40
441.75	5387.91
441.94	5462.81
442.12	5280.25
442.31	5385.57
442.50	5355.15
442.68	5652.39
442.87	5465.15
443.05	5652.39
443.24	5678.14
443.43	5666.44
443.61	5673.46
443.80	5776.44
443.98	5570.48
444.17	5490.90
444.35	5584.52
444.54	5802.19
444.73	5837.30
444.91	5689.84
445.10	5771.76
445.28	5659.42
445.47	5586.86
445.65	5643.03
445.84	5746.02
446.02	5912.19
446.21	5647.71
446.39	5687.50
446.58	5888.79
446.77	5823.25
446.95	5792.83
447.14	5755.38
447.32	5980.07
447.51	5820.91
447.69	5722.61
447.88	5870.06
448.06	5919.21
448.25	5813.89
448.43	5893.47
448.62	5970.71
448.80	5956.66
448.99	5991.77
449.17	5982.41
449.36	5982.41
449.54	6001.13
449.73	6097.10
449.91	6080.71
450.10	6270.30
450.28	6293.70
450.46	6246.89
450.65	6207.10
450.83	6384.98
451.02	6148.59
451.20	6291.36
451.39	6246.89
451.57	6303.06
451.76	6417.75
451.94	6377.96
452.13	6494.99
452.31	6370.94
452.49	6312.42
452.68	6492.65
452.86	6431.79
453.05	6462.22
453.23	6555.84
453.42	6345.19
453.60	6499.67
453.78	6583.93
453.97	6516.05
454.15	6448.18
454.34	6487.96
454.52	6502.01
454.70	6551.16
454.89	6609.67
455.07	6619.04
455.26	6850.75
455.44	6815.64
455.62	6876.49
455.81	6803.94
455.99	6874.15
456.17	6803.94
456.36	6981.82
456.54	7009.90
456.73	7021.61
456.91	7150.34
457.09	7110.55
457.28	7279.07
457.46	7080.12
457.64	7164.38
457.83	7115.23
458.01	7089.48
458.19	7339.92
458.38	7187.79
458.56	7236.94
458.74	7250.98
458.93	7239.28
459.11	7349.28
459.29	7346.94
459.48	7403.11
459.66	7412.48
459.84	7360.98
460.03	7463.97
460.21	7536.52
460.39	7576.31
460.57	7480.35
460.76	7602.06
460.94	7655.89
461.12	7604.40
461.31	7527.16
461.49	7405.46
461.67	7548.23
461.85	7606.74
462.04	7653.55
462.22	8067.83
462.40	7889.95
462.59	7688.66
462.77	7824.41
462.95	7906.33
463.13	7985.91
463.32	7936.76
463.50	8105.28
463.68	8011.65
463.86	7875.90
464.05	7733.13
464.23	7913.35
464.41	8159.11
464.59	7829.09
464.78	8093.57
464.96	8119.32
465.14	7918.03
465.32	8030.38
465.50	8320.60
465.69	8236.35
465.87	8205.92
466.05	8173.15
466.23	8159.11
466.41	8149.75
466.60	8531.25
466.78	8269.11
466.96	8084.21
467.14	8341.67
467.32	8180.17
467.51	8596.79
467.69	8229.32
467.87	8334.65
468.05	8465.72
468.23	8557.00
468.41	8400.18
468.60	8409.54
468.78	8744.24
468.96	8535.93
469.14	8648.28
469.32	8620.19
469.50	8416.57
469.69	8585.08
469.87	8575.72
470.05	8777.01
470.23	8884.67
470.41	8912.76
470.59	8908.08
470.77	8947.87
470.95	8795.73
471.14	8950.21
471.32	8889.35
471.50	9137.45
471.68	9111.71
471.86	9060.21
472.04	9069.58
472.22	9273.20
472.40	9359.80
472.58	9284.91
472.77	9291.93
472.95	9479.17
473.13	9577.47
473.31	9376.19
473.49	9565.77
473.67	9334.06
473.85	9542.36
474.03	9727.27
474.21	9748.33
474.39	9816.21
474.57	9788.12
474.75	9909.83
474.93	10076.01
475.12	9853.66
475.30	9926.21
475.48	9937.91
475.66	9966.00
475.84	10141.54
476.02	10202.40
476.20	10111.11
476.38	10394.32
476.56	10633.05
476.74	10530.07
476.92	10403.68
477.10	10726.68
477.28	10628.37
477.46	10558.16
477.64	10799.23
477.82	11009.88
478.00	11269.68
478.18	11304.79
478.36	11314.15
478.54	11335.21
478.72	11215.85
478.90	11496.71
479.08	11541.18
479.26	11571.61
479.44	11698.00
479.62	11744.81
479.80	11784.60
479.98	11625.44
480.16	12287.81
480.34	12212.92
480.52	12084.19
480.70	12287.81
480.88	12065.46
481.06	12301.86
481.24	12599.10
481.41	12690.38
481.59	12720.81
481.77	12842.52
481.95	12784.01
482.13	13025.08
482.31	13099.98
482.49	13401.91
482.67	13149.13
482.85	13631.28
483.03	13378.50
483.21	13713.20
483.39	13666.39
483.57	13806.82
483.74	13818.52
483.92	14094.71
484.10	13984.70
484.28	14193.01
484.46	14391.95
484.64	14663.46
484.82	14239.82
485.00	14712.61
485.18	14649.41
485.35	14820.27
485.53	14782.82
485.71	14736.01
485.89	15272.00
486.07	15070.71
486.25	15454.56
486.43	15260.29
486.61	15349.23
486.78	15751.81
486.96	15922.66
487.14	16049.05
487.32	16025.65
487.50	16098.20
487.68	16269.06
487.85	16456.31
488.03	16814.41
488.21	16879.94
488.39	16865.90
488.57	16936.12
488.75	16802.71
488.92	17324.65
489.10	17273.15
489.28	17336.35
489.46	17940.21
489.64	17413.59
489.81	18335.76
489.99	18106.38
490.17	18600.24
490.35	18288.95
490.53	18441.08
490.70	18164.90
490.88	18537.04
491.06	18642.37
491.24	18782.80
491.41	19105.79
491.59	18991.11
491.77	18904.51
491.95	19084.73
492.13	19363.25
492.30	19278.99
492.48	19737.74
492.66	19726.04
492.84	19747.10
493.01	19779.87
493.19	20009.24
493.37	20006.90
493.54	20491.39
493.72	20360.32
493.90	20308.83
494.08	21032.05
494.25	21020.35
494.43	20915.03
494.61	21013.33
494.79	20879.92
494.96	21015.67
495.14	21158.44
495.32	21165.46
495.49	21198.23
495.67	21521.23
495.85	21708.47
496.02	22099.34
496.20	21928.48
496.38	22052.53
496.55	22214.02
496.73	22888.10
496.91	22347.44
497.09	22370.84
497.26	22548.72
497.44	22302.96
497.62	22998.10
497.79	22881.08
497.97	22822.56
498.14	23295.35
498.32	23239.18
498.50	23496.64
498.67	23370.25
498.85	23386.63
499.03	23487.28
499.20	23726.01
499.38	23922.62
499.56	23981.13
499.73	23669.84
499.91	24039.64
500.08	24044.32
500.26	23903.89
500.44	24247.95
500.61	24236.25
500.79	24477.32
500.97	24638.82
501.14	24847.13
501.32	24772.23
501.49	24870.53
501.67	24915.00
501.84	25008.62
502.02	25046.07
502.20	25333.96
502.37	25245.02
502.55	25481.41
502.72	25298.85
502.90	25408.86
503.07	25483.75
503.25	25727.17
503.43	25544.61
503.60	25722.49
503.78	25752.91
503.95	26197.62
504.13	25926.11
504.30	26277.19
504.48	26434.01
504.65	26342.73
504.83	26700.83
505.01	26265.49
505.18	26211.66
505.36	26562.74
505.53	26958.29
505.71	27094.04
505.88	26969.99
506.06	26583.80
506.23	26988.72
506.41	26782.75
506.58	27543.42
506.76	26934.88
506.93	27576.19
507.11	27410.01
507.28	27786.84
507.46	27442.78
507.63	27360.86
507.81	27828.97
507.98	27573.85
508.16	27885.14
508.33	28182.39
508.50	28023.23
508.68	27800.88
508.85	28486.66
509.03	28290.06
509.20	28173.03
509.38	28725.39
509.55	28746.46
509.73	28669.22
509.90	28512.41
510.08	28594.32
510.25	28945.41
510.42	29364.36
510.60	28985.19
510.77	29109.24
510.95	29429.90
511.12	29074.13
511.30	29383.09
511.47	29593.73
511.64	29797.36
511.82	29876.94
511.99	29853.53
512.17	29853.53
512.34	29682.67
512.51	29780.98
512.69	29883.96
512.86	30359.09
513.04	30459.73
513.21	30267.81
513.38	29993.97
513.56	30066.52
513.73	30361.43
513.90	30560.37
514.08	30277.17
514.25	30295.89
514.43	30721.87
514.60	30338.02
514.77	30588.46
514.95	30684.42
515.12	31051.89
515.29	30960.61
515.47	31101.04
515.64	31307.01
515.81	31318.71
515.99	30892.73
516.16	31295.30
516.33	31681.49
516.51	31594.89
516.68	31192.32
516.85	31232.11
517.03	31199.34
517.20	31545.74
517.37	31676.81
517.54	32091.09
517.72	31952.99
517.89	31929.59
518.06	31964.70
518.24	31557.44
518.41	32093.43
518.58	32086.40
518.75	31922.57
518.93	32191.73
519.10	32048.96
519.27	32570.90
519.45	32273.65
519.62	32643.45
519.79	32744.09
519.96	33039.00
520.14	33008.58
520.31	33029.64
520.48	33139.65
520.65	33102.20
520.83	32739.41
521.00	33638.18
521.17	32961.76
521.34	33298.80
521.52	33853.51
521.69	33565.62
521.86	33692.01
522.03	33649.88
522.20	34050.11
522.38	33876.91
522.55	33965.85
522.72	34216.29
522.89	33928.41
523.07	33998.62
523.24	33780.95
523.41	34075.86
523.58	34047.77
523.75	34443.32
523.92	34550.99
524.10	34553.33
524.27	34810.79
524.44	34583.76
524.61	34616.52
524.78	34663.33
524.96	34946.54
525.13	35304.64
525.30	35026.12
525.47	34862.28
525.64	35145.48
525.81	34953.56
525.98	35093.99
526.16	34815.47
526.33	34789.72
526.50	35302.30
526.67	35199.32
526.84	35154.85
527.01	35309.32
527.18	35229.74
527.36	35758.70
527.53	35854.67
527.70	35791.47
527.87	35880.41
528.04	35620.61
528.21	35615.93
528.38	35548.06
528.55	36168.30
528.72	35962.33
528.89	36198.73
529.07	35990.42
529.24	36048.93
529.41	36060.63
529.58	35632.32
529.75	36119.15
529.92	36002.12
530.09	35936.59
530.26	36608.32
530.43	36219.79
530.60	36252.56
530.77	36636.41
530.94	36713.64
531.11	36828.33
531.28	36774.50
531.46	36711.30
531.63	36884.50
531.80	36900.89
531.97	36919.61
532.14	36739.39
532.31	36737.05
532.48	37024.93
532.65	36933.65
532.82	36840.03
532.99	37549.21
533.16	37060.04
533.33	37207.50
533.50	37656.88
533.67	37518.79
533.84	37296.44
534.01	37453.25
534.18	37333.89
534.35	37769.22
534.52	37516.45
534.69	37495.38
534.86	38101.58
535.03	37308.14
535.20	37984.55
535.37	38022.00
535.54	38263.08
535.71	37591.34
535.88	38211.59
536.05	38368.40
536.22	38022.00
536.38	38005.62
536.55	38183.50
536.72	38089.88
536.89	38085.20
537.06	37965.83
537.23	38396.49
537.40	38206.90
537.57	38677.35
537.74	38890.34
537.91	38731.18
538.08	38307.55
538.25	38412.87
538.42	38728.84
538.59	38979.28
538.75	38068.81
538.92	38569.69
539.09	38838.85
539.26	38820.13
539.43	38855.23
539.60	38904.38
539.77	38850.55
539.94	38976.94
540.11	38682.03
540.28	39049.50
540.44	39131.42
540.61	38604.80
540.78	38990.98
540.95	39049.50
541.12	39136.10
541.29	39372.49
541.46	39079.92
541.62	39416.96
541.79	39409.94
541.96	39023.75
542.13	39395.90
542.30	39655.70
542.47	39569.10
542.63	39386.54
542.80	39812.51
542.97	39826.56
543.14	40432.75
543.31	40383.60
543.48	40404.67
543.64	40039.54
543.81	39856.98
543.98	40350.84
544.15	40172.96
544.32	40355.52
544.48	40802.56
544.65	40266.58
544.82	40505.31
544.99	40119.12
545.16	40453.82
545.32	40322.75
545.49	40856.39
545.66	40521.69
545.83	40329.77
546.00	40961.72
546.16	40603.61
546.33	40844.69
546.50	40161.25
546.67	40624.68
546.83	40659.79
547.00	40655.11
547.17	40762.77
547.34	40825.96
547.50	40959.38
547.67	41043.63
547.84	41181.73
548.00	41392.37
548.17	41418.12
548.34	41495.36
548.51	41493.02
548.67	41277.69
548.84	41069.38
549.01	41488.34
549.18	41200.45
549.34	41752.82
549.51	41680.26
549.68	41308.11
549.84	41366.63
550.01	41427.48
550.18	41390.03
550.34	41708.35
550.51	41345.56
550.68	41235.56
550.84	41509.40
551.01	41532.81
551.18	41556.21
551.34	41808.99
551.51	42040.70
551.68	41897.93
551.84	41560.89
552.01	42139.00
552.18	41890.91
552.34	41797.29
552.51	42113.26
552.68	42211.56
552.84	42036.02
553.01	42188.16
553.18	42024.32
553.34	41621.75
553.51	41928.36
553.67	42153.05
553.84	42529.87
554.01	42618.81
554.17	42340.29
554.34	42223.26
554.51	42284.12
554.67	42646.90
554.84	42466.68
555.00	42073.47
555.17	42391.78
555.33	42335.61
555.50	42436.25
555.67	42658.60
555.83	42679.67
556.00	42651.58
556.16	42986.28
556.33	42955.85
556.50	42511.15
556.66	42946.49
556.83	42401.14
556.99	42707.76
557.16	42693.71
557.32	42511.15
557.49	42997.98
557.65	42457.32
557.82	43058.84
557.98	42831.80
558.15	42630.52
558.32	43508.22
558.48	43023.73
558.65	43079.90
558.81	43236.72
558.98	42623.50
559.14	42855.21
559.31	42976.92
559.47	43225.01
559.64	43072.88
559.80	43271.82
559.97	42990.96
560.13	42857.55
560.30	42986.28
560.46	43115.01
560.63	42913.72
560.79	43552.69
560.96	43356.08
561.12	43538.65
561.29	42855.21
561.45	43246.08
561.61	42995.64
561.78	43440.34
561.94	42995.64
562.11	43320.98
562.27	42972.24
562.44	43356.08
562.60	43421.62
562.77	43756.32
562.93	43522.26
563.10	43796.10
563.26	43157.14
563.42	43730.57
563.59	43435.66
563.75	43796.10
563.92	43821.85
564.08	43168.84
564.24	44051.22
564.41	43716.53
564.57	43604.18
564.74	43901.43
564.90	43508.22
565.07	43552.69
565.23	43339.70
565.39	43990.37
565.56	44002.07
565.72	43981.01
565.88	43833.55
566.05	43608.86
566.21	43917.81
566.38	43718.87
566.54	43573.75
566.70	43868.66
566.87	44112.08
567.03	44065.27
567.19	44151.87
567.36	43969.30
567.52	44053.56
567.68	44072.29
567.85	43852.28
568.01	43737.59
568.17	43852.28
568.34	43866.32
568.50	43744.61
568.66	43697.80
568.83	43658.01
568.99	44072.29
569.15	43702.48
569.32	43650.99
569.48	43894.41
569.64	44041.86
569.81	44165.91
569.97	43863.98
570.13	44287.62
570.30	43613.54
570.46	43573.75
570.62	43686.10
570.78	43941.22
570.95	43672.06
571.11	43950.58
571.27	43812.49
571.43	43929.51
571.60	44233.78
571.76	43779.72
571.92	43695.46
572.09	43622.90
572.25	43988.03
572.41	44037.18
572.57	44257.19
572.74	44554.44
572.90	44575.50
573.06	44011.43
573.22	44350.81
573.38	43749.29
573.55	43674.40
573.71	44428.05
573.87	43910.79
574.03	43489.49
574.20	44065.27
574.36	44336.77
574.52	44191.65
574.68	44322.72
574.84	43981.01
575.01	44060.58
575.17	43861.64
575.33	44177.61
575.49	44172.93
575.65	44397.62
575.82	44334.43
575.98	44135.48
576.14	44390.60
576.30	44137.82
576.46	44002.07
576.62	43817.17
576.79	44205.70
576.95	43665.03
577.11	44039.52
577.27	44282.94
577.43	44341.45
577.59	44261.87
577.75	44027.82
577.92	43847.60
578.08	44020.80
578.24	43936.54
578.40	44076.97
578.56	43819.51
578.72	44093.35
578.88	44491.24
579.04	44334.43
579.21	44210.38
579.37	44065.27
579.53	44121.44
579.69	44062.93
579.85	44575.50
580.01	44229.10
580.17	44083.99
580.33	44505.29
580.49	44271.23
580.65	44470.18
580.82	43962.28
580.98	44215.06
581.14	44414.01
581.30	44664.44
581.46	44734.66
581.62	44842.32
581.78	44332.09
581.94	45254.26
582.10	44622.31
582.26	44381.24
582.42	44706.57
582.58	44456.14
582.74	44748.70
582.90	44257.19
583.06	44645.72
583.22	44582.52
583.38	44383.58
583.54	44671.46
583.70	44488.90
583.86	44392.94
584.02	44732.32
584.18	44690.19
584.34	44460.82
584.50	44325.07
584.66	44392.94
584.82	44222.08
584.98	44713.59
585.14	44409.32
585.30	44516.99
585.46	44229.10
585.62	44289.96
585.78	44226.76
585.94	44198.68
586.10	44301.66
586.26	44069.95
586.42	44814.24
586.58	45024.89
586.74	44299.32
586.90	44694.87
587.06	44662.10
587.22	44130.80
587.38	44320.38
587.54	44414.01
587.70	44612.95
587.86	44404.64
588.02	44727.64
588.18	44839.98
588.34	44271.23
588.49	44100.37
588.65	43887.39
588.81	44353.15
588.97	44268.89
589.13	44465.50
589.29	44093.35
589.45	44772.11
589.61	44549.76
589.77	44786.15
589.93	44421.03
590.08	44957.01
590.24	44666.78
590.40	44737.00
