SpectraSuite Data File
++++++++++++++++++++++++++++++++++++
Date: Fri Oct 25 11:24:07 EDT 2013
User: price-jones
Dark Spectrum Present: No
Reference Spectrum Present: No
Number of Sampled Component Spectra: 1
Spectrometers: USB2+H05261
Integration Time (usec): 100000 (USB2+H05261)
Spectra Averaged: 1 (USB2+H05261)
Boxcar Smoothing: 0 (USB2+H05261)
Correct for Electrical Dark: No (USB2+H05261)
Strobe/Lamp Enabled: No (USB2+H05261)
Correct for Detector Non-linearity: No (USB2+H05261)
Correct for Stray Light: No (USB2+H05261)
Number of Pixels in Processed Spectrum: 2048
>>>>>Begin Processed Spectral Data<<<<<
365.73	205.97
365.92	205.97
366.12	205.97
366.32	163.84
366.52	142.77
366.72	114.69
366.91	177.88
367.11	121.71
367.31	133.41
367.51	98.30
367.70	72.56
367.90	191.92
368.10	105.32
368.30	177.88
368.49	77.24
368.69	234.05
368.89	133.41
369.09	210.65
369.28	177.88
369.48	131.07
369.68	194.26
369.87	217.67
370.07	138.09
370.27	248.10
370.47	339.38
370.66	657.69
370.86	596.84
371.06	622.58
371.25	650.67
371.45	730.25
371.65	669.39
371.84	697.48
372.04	580.45
372.24	641.31
372.44	655.35
372.63	709.18
372.83	727.91
373.03	741.95
373.22	748.97
373.42	861.32
373.62	739.61
373.81	727.91
374.01	809.83
374.21	779.40
374.40	746.63
374.60	809.83
374.79	791.10
374.99	842.59
375.19	884.72
375.38	868.34
375.58	837.91
375.78	826.21
375.97	861.32
376.17	856.64
376.37	931.53
376.56	837.91
376.76	849.61
376.95	816.85
377.15	889.40
377.35	856.64
377.54	929.19
377.74	912.81
377.93	805.14
378.13	957.28
378.33	926.85
378.52	887.06
378.72	973.66
378.91	947.92
379.11	802.80
379.31	964.30
379.50	933.87
379.70	947.92
379.89	1036.86
380.09	1018.13
380.28	1055.58
380.48	973.66
380.68	961.96
380.87	1001.75
381.07	1036.86
381.26	1130.48
381.46	1048.56
381.65	1029.84
381.85	978.34
382.04	1071.97
382.24	1064.94
382.43	1064.94
382.63	1022.81
382.83	1076.65
383.02	1114.10
383.22	1226.44
383.41	1015.79
383.61	1139.84
383.80	1177.29
384.00	1036.86
384.19	1097.71
384.39	1200.69
384.58	1179.63
384.78	1200.69
384.97	1144.52
385.17	1191.33
385.36	1184.31
385.56	1116.44
385.75	1121.12
385.95	1186.65
386.14	1261.55
386.34	1226.44
386.53	1100.05
386.72	1217.08
386.92	1188.99
387.11	1231.12
387.31	1174.95
387.50	1188.99
387.70	1142.18
387.89	1268.57
388.09	1273.25
388.28	1315.38
388.48	1270.91
388.67	1327.08
388.86	1301.34
389.06	1336.45
389.25	1343.47
389.45	1277.93
389.64	1472.20
389.84	1411.34
390.03	1453.47
390.22	1322.40
390.42	1392.62
390.61	1380.92
390.81	1406.66
391.00	1383.26
391.19	1544.75
391.39	1497.94
391.58	1547.09
391.78	1383.26
391.97	1441.77
392.16	1488.58
392.36	1551.78
392.55	1547.09
392.75	1640.72
392.94	1563.48
393.13	1533.05
393.33	1547.09
393.52	1558.80
393.71	1568.16
393.91	1600.93
394.10	1593.90
394.29	1589.22
394.49	1603.27
394.68	1612.63
394.88	1689.87
395.07	1605.61
395.26	1643.06
395.46	1680.50
395.65	1781.15
395.84	1703.91
396.04	1724.97
396.23	1678.16
396.42	1757.74
396.62	1914.56
396.81	1720.29
397.00	1811.57
397.19	1762.42
397.39	1792.85
397.58	1788.17
397.77	1860.73
397.97	1984.77
398.16	1933.28
398.35	1842.00
398.55	1834.98
398.74	1973.07
398.93	1956.69
399.12	1944.99
399.32	1888.81
399.51	1937.96
399.70	1991.80
399.90	1912.22
400.09	1966.05
400.28	2022.22
400.47	1982.43
400.67	2111.16
400.86	2029.24
401.05	2099.46
401.24	2111.16
401.44	2186.06
401.63	2148.61
401.82	2113.50
402.01	2186.06
402.21	2125.21
402.40	2127.55
402.59	2176.70
402.78	2267.98
402.97	2148.61
403.17	2244.57
403.36	2251.60
403.55	2209.47
403.74	2403.73
403.93	2342.88
404.13	2326.49
404.32	2324.15
404.51	2354.58
404.70	2417.77
404.89	2401.39
405.09	2476.29
405.28	2466.92
405.47	2441.18
405.66	2495.01
405.85	2544.16
406.05	2509.05
406.24	2537.14
406.43	2506.71
406.62	2759.49
406.81	2724.38
407.00	2693.96
407.20	2663.53
407.39	2738.43
407.58	2705.66
407.77	2806.30
407.96	2733.75
408.15	2796.94
408.34	2771.19
408.54	2848.43
408.73	2672.89
408.92	2832.05
409.11	2981.84
409.30	2920.99
409.49	2902.26
409.68	2918.65
409.87	2932.69
410.07	3110.57
410.26	3056.74
410.45	2892.90
410.64	2972.48
410.83	3112.91
411.02	3131.64
411.21	3126.96
411.40	3166.74
411.59	3283.77
411.78	3232.28
411.98	3218.24
412.17	3375.05
412.36	3358.67
412.55	3382.07
412.74	3365.69
412.93	3424.20
413.12	3466.33
413.31	3611.45
413.50	3405.48
413.69	3365.69
413.88	3625.49
414.07	3684.00
414.26	3653.58
414.45	3667.62
414.64	3688.68
414.83	3805.71
415.02	3845.50
415.22	3997.64
415.41	3826.78
415.60	3875.93
415.79	3946.14
415.98	4035.08
416.17	3805.71
416.36	4060.83
416.55	3915.72
416.74	4102.96
416.93	3995.29
417.12	4032.74
417.31	4337.01
417.50	4210.62
417.69	4222.33
417.88	4329.99
418.07	4358.08
418.26	4259.78
418.45	4409.57
418.64	4599.15
418.83	4484.47
419.02	4414.25
419.21	4606.17
419.39	4561.70
419.58	4470.42
419.77	4566.39
419.96	4573.41
420.15	4592.13
420.34	4720.86
420.53	4603.83
420.72	4702.14
420.91	4746.61
421.10	4781.71
421.29	4823.84
421.48	4533.62
421.67	4795.76
421.86	4755.97
422.05	4858.95
422.24	4858.95
422.43	5018.11
422.61	4823.84
422.80	4990.02
422.99	4910.44
423.18	5130.45
423.37	4929.17
423.56	4922.15
423.75	5034.49
423.94	4856.61
424.13	4554.68
424.32	4748.95
424.50	5043.85
424.69	5137.48
424.88	5137.48
425.07	4917.47
425.26	5004.07
425.45	5116.41
425.64	4840.23
425.83	5018.11
426.01	5186.63
426.20	5174.92
426.39	5128.11
426.58	5146.84
426.77	5144.50
426.96	5149.18
427.15	5107.05
427.33	5245.14
427.52	5284.93
427.71	5280.25
427.90	5310.68
428.09	5289.61
428.28	5357.49
428.46	5420.68
428.65	5331.74
428.84	5544.73
429.03	5479.19
429.22	5511.96
429.40	5488.56
429.59	5472.17
429.78	5523.66
429.97	5385.57
430.16	5479.19
430.34	5682.82
430.53	5610.26
430.72	5713.25
430.91	5746.02
431.10	5729.63
431.28	5823.25
431.47	5792.83
431.66	5830.27
431.85	5757.72
432.03	5973.05
432.22	5919.21
432.41	5954.32
432.60	5881.77
432.79	5797.51
432.97	6146.25
433.16	5954.32
433.35	5980.07
433.54	6083.05
433.72	6202.42
433.91	6150.93
434.10	6104.12
434.28	6235.19
434.47	6242.21
434.66	6274.98
434.85	6377.96
435.03	6438.81
435.22	6342.85
435.41	6483.28
435.59	6441.15
435.78	6513.71
435.97	6443.49
436.16	6422.43
436.34	6492.65
436.53	6530.09
436.72	6759.47
436.90	6471.58
437.09	6689.25
437.28	6700.95
437.46	6752.45
437.65	6876.49
437.84	6764.15
438.02	6614.35
438.21	6722.02
438.40	6707.98
438.58	7206.51
438.77	7133.95
438.96	7054.37
439.14	7208.85
439.33	7068.42
439.52	7185.44
439.70	7171.40
439.89	7459.29
440.08	7379.71
440.26	7232.26
440.45	7274.38
440.63	7646.53
440.82	7536.52
441.01	7499.08
441.19	7775.26
441.38	7824.41
441.57	7735.47
441.75	7796.32
441.94	8074.85
442.12	8037.40
442.31	8044.42
442.50	7985.91
442.68	8042.08
442.87	8058.46
443.05	8266.77
443.24	8318.26
443.43	8308.90
443.61	8299.54
443.80	8229.32
443.98	7957.82
444.17	8081.87
444.35	8278.47
444.54	8231.66
444.73	8299.54
444.91	8248.05
445.10	8437.63
445.28	8456.36
445.47	8355.71
445.65	8468.06
445.84	8400.18
446.02	8620.19
446.21	8369.76
446.39	8318.26
446.58	8519.55
446.77	8489.12
446.95	8381.46
447.14	8526.57
447.32	8751.26
447.51	8407.20
447.69	8571.04
447.88	8514.87
448.06	8451.67
448.25	8498.49
448.43	8655.30
448.62	8559.34
448.80	8704.45
448.99	8802.75
449.17	8709.13
449.36	8657.64
449.54	9055.53
449.73	8786.37
449.91	9022.77
450.10	9025.11
450.28	9179.58
450.46	9390.23
450.65	8917.44
450.83	9221.71
451.02	9055.53
451.20	9228.73
451.39	9137.45
451.57	9287.25
451.76	9125.75
451.94	9334.06
452.13	9242.78
452.31	9249.80
452.49	9160.86
452.68	9327.03
452.86	9460.45
453.05	9504.92
453.23	9500.23
453.42	9579.81
453.60	9343.42
453.78	9727.27
453.97	9516.62
454.15	9476.83
454.34	9528.32
454.52	9654.71
454.70	9528.32
454.89	9858.34
455.07	9811.53
455.26	9987.07
455.44	10026.86
455.62	9841.95
455.81	9989.41
455.99	10073.67
456.17	10090.05
456.36	10146.22
456.54	10139.20
456.73	10387.30
456.91	10583.90
457.09	10523.05
457.28	10476.24
457.46	10539.43
457.64	10796.89
457.83	10588.58
458.01	10387.30
458.19	10729.02
458.38	10523.05
458.56	10855.40
458.74	10626.03
458.93	10799.23
459.11	10754.76
459.29	10913.92
459.48	10794.55
459.66	10771.15
459.84	10932.64
460.03	11105.84
460.21	11201.80
460.39	11159.67
460.57	11098.82
460.76	11131.59
460.94	11307.13
461.12	11356.28
461.31	11367.98
461.49	11272.02
461.67	11311.81
461.85	11613.74
462.04	11421.81
462.22	11609.06
462.40	11808.00
462.59	11728.42
462.77	11503.73
462.95	11826.73
463.13	11576.29
463.32	11845.45
463.50	11875.88
463.68	11854.81
463.86	11756.51
464.05	11651.19
464.23	11723.74
464.41	11873.54
464.59	11836.09
464.78	12205.89
464.96	12091.21
465.14	11910.99
465.32	12175.47
465.50	12243.34
465.69	12301.86
465.87	12095.89
466.05	12168.45
466.23	12294.83
466.41	12142.70
466.60	12606.13
466.78	12173.13
466.96	12114.61
467.14	12446.97
467.32	12402.50
467.51	12821.45
467.69	12163.76
467.87	12608.47
468.05	12648.26
468.23	12479.74
468.41	12348.67
468.60	12760.60
468.78	12971.25
468.96	12865.92
469.14	12805.07
469.32	12882.31
469.50	12734.85
469.69	13006.36
469.87	13102.32
470.05	13095.30
470.23	13233.39
470.41	13207.64
470.59	13221.69
470.77	13116.36
470.95	13453.40
471.14	13804.48
471.32	13235.73
471.50	13490.85
471.68	13862.99
471.86	13984.70
472.04	13884.06
472.22	14080.66
472.40	13675.75
472.58	13750.65
472.77	14026.83
472.95	14218.75
473.13	14738.35
473.31	14078.32
473.49	14293.65
473.67	14136.84
473.85	14305.35
474.03	14775.80
474.21	14438.76
474.39	14822.61
474.57	14923.26
474.75	15201.78
474.93	14895.17
475.12	14958.36
475.30	15307.10
475.48	15183.06
475.66	15487.32
475.84	15136.24
476.02	15218.16
476.20	15784.57
476.38	15494.35
476.56	16140.33
476.74	16025.65
476.92	16102.89
477.10	15859.47
477.28	16072.46
477.46	16294.81
477.64	16840.15
477.82	16624.83
478.00	17116.34
478.18	16865.90
478.36	17060.16
478.54	17153.79
478.72	17167.83
478.90	17427.63
479.08	17781.05
479.26	17872.33
479.44	17860.63
479.62	17867.65
479.80	18207.03
479.98	18251.50
480.16	18541.72
480.34	18628.32
480.52	18958.34
480.70	18806.20
480.88	18504.28
481.06	18724.29
481.24	19119.84
481.41	19176.01
481.59	19239.20
481.77	19637.09
481.95	19604.33
482.13	19704.97
482.31	19978.81
482.49	20409.47
482.67	20395.43
482.85	20580.33
483.03	20519.48
483.21	20870.56
483.39	20908.01
483.57	21053.12
483.74	21198.23
483.92	21586.76
484.10	21556.33
484.28	22089.98
484.46	22204.66
484.64	22377.86
484.82	21991.67
485.00	22377.86
485.18	23246.20
485.35	23061.30
485.53	22827.24
485.71	23276.63
485.89	23501.32
486.07	23311.74
486.25	23920.28
486.43	23840.70
486.61	23913.25
486.78	24264.33
486.96	24159.01
487.14	24423.49
487.32	25015.65
487.50	25420.56
487.68	25205.23
487.85	25275.45
488.03	25640.57
488.21	25921.43
488.39	25689.72
488.57	26279.54
488.75	26536.99
488.92	26710.19
489.10	26859.99
489.28	27091.70
489.46	27615.98
489.64	27234.47
489.81	28009.19
489.99	27515.34
490.17	27777.48
490.35	28446.87
490.53	28304.10
490.70	28409.42
490.88	28224.52
491.06	29088.18
491.24	28797.95
491.41	29163.08
491.59	29343.30
491.77	29652.25
491.95	29972.90
492.13	29916.73
492.30	30052.48
492.48	30015.03
492.66	30338.02
492.84	30391.86
493.01	30766.34
493.19	31091.68
493.37	31023.80
493.54	31545.74
493.72	31651.06
493.90	31620.64
494.08	32189.39
494.25	32341.52
494.43	32098.11
494.61	32390.67
494.79	32629.41
494.96	32725.37
495.14	32921.98
495.32	33378.38
495.49	33317.53
495.67	33219.22
495.85	33607.75
496.02	33727.12
496.20	33830.10
496.38	34223.31
496.55	34129.69
496.73	34728.87
496.91	34401.19
497.09	35175.91
497.26	35129.10
497.44	34923.13
497.62	35468.48
497.79	35693.17
497.97	35475.50
498.14	36013.82
498.32	36013.82
498.50	36105.10
498.67	36734.71
498.85	37130.26
499.03	37067.06
499.20	37046.00
499.38	37120.90
499.56	36868.12
499.73	37792.63
499.91	37254.31
500.08	37762.20
500.26	37539.85
500.44	37628.79
500.61	38204.56
500.79	37741.14
500.97	38232.65
501.14	39119.71
501.32	38352.02
501.49	38590.75
501.67	38457.34
501.84	38916.09
502.02	39260.15
502.20	39318.66
502.37	39487.18
502.55	39484.84
502.72	39854.64
502.90	39882.73
503.07	39922.52
503.25	39833.58
503.43	39941.24
503.60	40479.57
503.78	40509.99
503.95	40620.00
504.13	40692.55
504.30	40931.29
504.48	40320.41
504.65	41081.08
504.83	41109.17
505.01	41394.71
505.18	41244.92
505.36	42506.47
505.53	41469.61
505.71	42000.91
505.88	41794.95
506.06	41799.63
506.23	42190.50
506.41	42113.26
506.58	42410.51
506.76	42532.22
506.93	42445.62
507.11	42447.96
507.28	42712.44
507.46	43208.63
507.63	42754.57
507.81	43423.96
507.98	43058.84
508.16	43758.66
508.33	43711.84
508.50	43407.58
508.68	43826.53
508.85	44266.55
509.03	43744.61
509.20	44100.37
509.38	44217.40
509.55	44816.58
509.73	44547.42
509.90	44912.54
510.08	44516.99
510.25	45095.10
510.42	44928.92
510.60	45165.32
510.77	45221.49
510.95	45797.26
511.12	45322.13
511.30	45670.87
511.47	45797.26
511.64	45720.02
511.82	46071.10
511.99	45698.96
512.17	46106.21
512.34	45874.50
512.51	46373.03
512.69	46511.13
512.86	46806.03
513.04	46532.19
513.21	46937.10
513.38	47257.76
513.56	47185.20
513.73	46930.08
513.90	47122.01
514.08	47131.37
514.25	47442.66
514.43	47725.86
514.60	47569.05
514.77	47753.95
514.95	47943.53
515.12	47440.32
515.29	48093.33
515.47	48140.14
515.64	48376.53
515.81	48238.44
515.99	48135.46
516.16	48846.98
516.33	48425.68
516.51	48978.05
516.68	48694.85
516.85	48456.11
517.03	49085.72
517.20	49207.42
517.37	49038.90
517.54	49069.33
517.72	48877.41
517.89	49429.77
518.06	49731.70
518.24	49532.76
518.41	49689.57
518.58	49364.24
518.75	49198.06
518.93	49521.05
519.10	49764.47
519.27	50120.23
519.45	49979.80
519.62	50223.22
519.79	50253.64
519.96	50007.89
520.14	50494.72
520.31	50424.50
520.48	50796.65
520.65	50937.08
520.83	50740.47
521.00	50782.60
521.17	50548.55
521.34	50798.99
521.52	50815.37
521.69	51004.95
521.86	50925.38
522.03	51316.25
522.20	51304.54
522.38	51831.16
522.55	51697.75
522.72	51648.60
522.89	51852.23
523.07	51789.03
523.24	51821.80
523.41	51760.95
523.58	51669.67
523.75	52051.17
523.92	51737.54
524.10	52348.42
524.27	52289.91
524.44	51966.91
524.61	52374.17
524.78	52308.63
524.96	52238.42
525.13	52858.66
525.30	52699.50
525.47	52673.76
525.64	52687.80
525.81	52788.44
525.98	52797.80
526.16	52872.70
526.33	52863.34
526.50	53195.70
526.67	52807.17
526.84	53097.39
527.01	53036.54
527.18	53090.37
527.36	53457.84
527.53	53102.07
527.70	53324.43
527.87	53581.88
528.04	53240.17
528.21	53436.77
528.38	53485.92
528.55	53853.39
528.72	53385.28
528.89	53661.46
529.07	53841.68
529.24	53598.27
529.41	53916.58
529.58	53764.45
529.75	53858.07
529.92	53874.45
530.09	53909.56
530.26	53968.07
530.43	54281.70
530.60	53687.21
530.77	53855.73
530.94	54354.26
531.11	54288.73
531.28	54321.49
531.46	54251.28
531.63	54621.08
531.80	54813.01
531.97	54429.16
532.14	54581.29
532.31	54677.25
532.48	54497.03
532.65	54817.69
532.82	54595.34
532.99	54960.46
533.16	54791.94
533.33	54824.71
533.50	54798.96
533.67	55025.99
533.84	54880.88
534.01	55124.30
534.18	55077.49
534.35	55533.89
534.52	55360.69
534.69	55447.29
534.86	55440.27
535.03	55253.03
535.20	55274.09
535.37	55437.93
535.54	55290.48
535.71	55526.87
535.88	55496.44
536.05	55423.89
536.22	56016.04
536.38	55945.83
536.55	55744.54
536.72	55777.31
536.89	55744.54
537.06	55859.23
537.23	56013.70
537.40	55608.79
537.57	56147.11
537.74	55971.57
537.91	56273.50
538.08	56030.08
538.25	56004.34
538.42	55994.98
538.59	56172.86
538.75	56114.34
538.92	56395.21
539.09	56484.15
539.26	56165.84
539.43	56219.67
539.60	56509.89
539.77	56214.99
539.94	56818.84
540.11	56357.76
540.28	56626.92
540.44	56788.42
540.61	56786.08
540.78	56645.65
540.95	56659.69
541.12	56528.62
541.29	56563.73
541.46	56690.12
541.62	56816.50
541.79	56954.60
541.96	56514.58
542.13	56783.74
542.30	56970.98
542.47	56762.67
542.63	57017.79
542.80	56816.50
542.97	57073.96
543.14	57251.84
543.31	57446.11
543.48	57361.85
543.64	57453.13
543.81	57614.63
543.98	57584.20
544.15	57680.16
544.32	57668.46
544.48	57886.13
544.65	57600.58
544.82	57719.95
544.99	57249.50
545.16	57750.38
545.32	57453.13
545.49	57801.87
545.66	57752.72
545.83	57853.36
546.00	57991.45
546.16	57755.06
546.33	57794.85
546.50	57858.04
546.67	57860.38
546.83	57586.54
547.00	58052.31
547.17	57616.97
547.34	58005.50
547.50	58075.71
547.67	58307.43
547.84	58227.85
548.00	58387.00
548.17	58447.86
548.34	58277.00
548.51	58440.84
548.67	58454.88
548.84	58562.54
549.01	58136.57
549.18	58138.91
549.34	58377.64
549.51	58560.20
549.68	58504.03
549.84	58370.62
550.01	58424.45
550.18	58482.97
550.34	58532.12
550.51	58665.53
550.68	58656.17
550.84	58300.40
551.01	58791.92
551.18	58721.70
551.34	58679.57
551.51	58698.30
551.68	58717.02
551.84	58653.82
552.01	58628.08
552.18	58740.42
552.34	58705.32
552.51	58915.96
552.68	58721.70
552.84	58756.81
553.01	59070.44
553.18	58955.75
553.34	58934.69
553.51	58894.90
553.67	59098.53
553.84	59107.89
554.01	59185.13
554.17	59185.13
554.34	59299.81
554.51	59154.70
554.67	59363.01
554.84	59196.83
555.00	59217.89
555.17	59154.70
555.33	59290.45
555.50	59098.53
555.67	59030.65
555.83	59325.56
556.00	59243.64
556.16	59400.46
556.33	59503.44
556.50	59414.50
556.66	59646.21
556.83	59351.30
556.99	59573.66
557.16	59643.87
557.32	59517.48
557.49	59774.94
557.65	59557.27
557.82	59655.57
557.98	59583.02
558.15	59737.49
558.32	59627.49
558.48	59573.66
558.65	59543.23
558.81	59533.87
558.98	59587.70
559.14	59653.23
559.31	59796.01
559.47	59849.84
559.64	59805.37
559.80	59833.46
559.97	60023.04
560.13	59917.71
560.30	59828.77
560.46	59636.85
560.63	59856.86
560.79	59798.35
560.96	60020.70
561.12	59948.14
561.29	60018.36
561.45	59997.29
561.61	60055.81
561.78	59985.59
561.94	60039.42
562.11	59943.46
562.27	59987.93
562.44	60163.47
562.60	60168.15
562.77	59943.46
562.93	59922.40
563.10	60289.86
563.26	60104.96
563.42	60388.16
563.59	60088.57
563.75	60067.51
563.92	60214.96
564.08	60097.94
564.24	60313.26
564.41	60266.45
564.57	60460.72
564.74	60217.30
564.90	60163.47
565.07	60093.25
565.23	60252.41
565.39	60308.58
565.56	60364.76
565.72	60315.61
565.88	60268.79
566.05	60140.07
566.21	60451.36
566.38	60519.23
566.54	60327.31
566.70	60505.19
566.87	60559.02
567.03	60329.65
567.19	60587.11
567.36	60463.06
567.52	60392.84
567.68	60701.79
567.85	60404.55
568.01	60582.43
568.17	60444.33
568.34	60552.00
568.50	60530.93
568.66	60493.49
568.83	60610.51
568.99	60467.74
569.15	60568.38
569.32	60526.25
569.48	60491.15
569.64	60514.55
569.81	60669.03
569.97	60430.29
570.13	60526.25
570.30	60399.86
570.46	60708.82
570.62	60645.62
570.78	60624.56
570.95	60519.23
571.11	60720.52
571.27	60608.17
571.43	60580.09
571.60	60615.19
571.76	60615.19
571.92	60640.94
572.09	60729.88
572.25	60781.37
572.41	60800.10
572.57	60853.93
572.74	60837.54
572.90	60711.16
573.06	60928.83
573.22	60671.37
573.38	60790.73
573.55	60669.03
573.71	60886.70
573.87	60800.10
574.03	60788.39
574.20	60884.36
574.36	60662.00
574.52	60793.07
574.68	60886.70
574.84	60839.89
575.01	60921.80
575.17	60931.17
575.33	60603.49
575.49	60910.10
575.65	61027.13
575.82	60863.29
575.98	60931.17
576.14	61162.88
576.30	61099.68
576.46	60903.08
576.62	60884.36
576.79	60853.93
576.95	60800.10
577.11	60921.80
577.27	60896.06
577.43	60926.49
577.59	60795.42
577.75	60889.04
577.92	60837.54
578.08	60917.12
578.24	60942.87
578.40	61095.00
578.56	60938.19
578.72	61062.24
578.88	61324.38
579.04	61006.06
579.21	60910.10
579.37	61153.52
579.53	61062.24
579.69	60926.49
579.85	61176.92
580.01	60851.59
580.17	60818.82
580.33	61307.99
580.49	61221.39
580.65	61085.64
580.82	61062.24
580.98	60980.32
581.14	60750.94
581.30	61183.94
581.46	61190.97
581.62	60959.25
581.78	61113.73
581.94	61099.68
582.10	61148.84
582.26	61123.09
582.42	60928.83
582.58	61001.38
582.74	60987.34
582.90	60970.96
583.06	61031.81
583.22	60853.93
583.38	60999.04
583.54	61155.86
583.70	61207.35
583.86	61169.90
584.02	61059.90
584.18	61223.73
584.34	61130.11
584.50	61095.00
584.66	61109.05
584.82	60935.85
584.98	61310.33
585.14	61174.58
585.30	61022.45
585.46	61095.00
585.62	61223.73
585.78	61368.85
585.94	61006.06
586.10	61123.09
586.26	61329.06
586.42	61237.78
586.58	61190.97
586.74	61162.88
586.90	61186.28
587.06	60989.68
587.22	61279.91
587.38	61247.14
587.54	61235.44
587.70	61263.52
587.86	61153.52
588.02	61418.00
588.18	61345.44
588.34	61214.37
588.49	61275.22
