SpectraSuite Data File
++++++++++++++++++++++++++++++++++++
Date: Fri Oct 25 11:33:16 EDT 2013
User: price-jones
Dark Spectrum Present: No
Reference Spectrum Present: No
Number of Sampled Component Spectra: 1
Spectrometers: USB2+H05261
Integration Time (usec): 100000 (USB2+H05261)
Spectra Averaged: 1 (USB2+H05261)
Boxcar Smoothing: 0 (USB2+H05261)
Correct for Electrical Dark: No (USB2+H05261)
Strobe/Lamp Enabled: No (USB2+H05261)
Correct for Detector Non-linearity: No (USB2+H05261)
Correct for Stray Light: No (USB2+H05261)
Number of Pixels in Processed Spectrum: 2048
>>>>>Begin Processed Spectral Data<<<<<
365.73	227.03
365.92	227.03
366.12	227.03
366.32	180.22
366.52	131.07
366.72	205.97
366.91	142.77
367.11	175.54
367.31	154.48
367.51	110.01
367.70	154.48
367.90	187.24
368.10	161.50
368.30	135.75
368.49	128.73
368.69	177.88
368.89	121.71
369.09	224.69
369.28	264.48
369.48	205.97
369.68	196.60
369.87	271.50
370.07	205.97
370.27	287.89
370.47	325.33
370.66	526.62
370.86	521.94
371.06	566.41
371.25	526.62
371.45	533.64
371.65	552.37
371.84	578.11
372.04	575.77
372.24	554.71
372.44	587.47
372.63	561.73
372.83	528.96
373.03	622.58
373.22	566.41
373.42	514.92
373.62	688.12
373.81	610.88
374.01	678.76
374.21	732.59
374.40	587.47
374.60	669.39
374.79	681.10
374.99	627.26
375.19	645.99
375.38	678.76
375.58	571.09
375.78	617.90
375.97	636.63
376.17	699.82
376.37	578.11
376.56	578.11
376.76	650.67
376.95	688.12
377.15	704.50
377.35	671.73
377.54	690.46
377.74	585.13
377.93	716.20
378.13	720.88
378.33	662.37
378.52	617.90
378.72	777.06
378.91	681.10
379.11	697.48
379.31	660.03
379.50	727.91
379.70	667.05
379.89	716.20
380.09	690.46
380.28	767.70
380.48	777.06
380.68	734.93
380.87	767.70
381.07	781.74
381.26	748.97
381.46	770.04
381.65	718.54
381.85	720.88
382.04	851.96
382.24	802.80
382.43	877.70
382.63	805.14
382.83	849.61
383.02	851.96
383.22	875.36
383.41	725.57
383.61	758.33
383.80	861.32
384.00	779.40
384.19	840.25
384.39	877.70
384.58	807.48
384.78	915.15
384.97	809.83
385.17	767.70
385.36	751.31
385.56	844.93
385.75	854.30
385.95	833.23
386.14	901.11
386.34	929.19
386.53	854.30
386.72	882.38
386.92	880.04
387.11	814.51
387.31	908.13
387.50	940.90
387.70	894.08
387.89	983.02
388.09	894.08
388.28	910.47
388.48	938.55
388.67	1020.47
388.86	964.30
389.06	922.17
389.25	990.05
389.45	863.66
389.64	830.89
389.84	973.66
390.03	985.37
390.22	1041.54
390.42	898.77
390.61	917.49
390.81	887.06
391.00	1088.35
391.19	994.73
391.39	1011.11
391.58	1036.86
391.78	997.07
391.97	990.05
392.16	1095.37
392.36	1188.99
392.55	1006.43
392.75	1050.90
392.94	1029.84
393.13	1116.44
393.33	1055.58
393.52	1104.73
393.71	1130.48
393.91	1165.59
394.10	1067.28
394.29	1095.37
394.49	1076.65
394.68	1093.03
394.88	1111.75
395.07	1125.80
395.26	1156.22
395.46	1074.31
395.65	1100.05
395.84	1191.33
396.04	1308.36
396.23	1146.86
396.42	1146.86
396.62	1210.06
396.81	1200.69
397.00	1247.51
397.19	1254.53
397.39	1240.48
397.58	1275.59
397.77	1226.44
397.97	1355.17
398.16	1228.78
398.35	1284.95
398.55	1308.36
398.74	1289.64
398.93	1324.74
399.12	1383.26
399.32	1322.40
399.51	1315.38
399.70	1362.19
399.90	1306.02
400.09	1490.92
400.28	1401.98
400.47	1411.34
400.67	1432.41
400.86	1446.45
401.05	1448.79
401.24	1448.79
401.44	1439.43
401.63	1549.43
401.82	1467.52
402.01	1418.36
402.21	1474.54
402.40	1462.83
402.59	1479.22
402.78	1558.80
402.97	1533.05
403.17	1535.39
403.36	1521.35
403.55	1607.95
403.74	1530.71
403.93	1643.06
404.13	1710.93
404.32	1549.43
404.51	1640.72
404.70	1638.38
404.89	1561.14
405.09	1680.50
405.28	1668.80
405.47	1664.12
405.66	1762.42
405.85	1720.29
406.05	1739.02
406.24	1795.19
406.43	1750.72
406.62	1739.02
406.81	1891.15
407.00	1930.94
407.20	1741.36
407.39	1757.74
407.58	1900.52
407.77	1865.41
407.96	1870.09
408.15	1860.73
408.34	1961.37
408.54	1954.35
408.73	1989.46
408.92	1966.05
409.11	2031.58
409.30	2115.84
409.49	1954.35
409.68	2012.86
409.87	2015.20
410.07	2083.08
410.26	2052.65
410.45	2038.61
410.64	2064.35
410.83	2080.74
411.02	2235.21
411.21	2218.83
411.40	2207.13
411.59	2193.08
411.78	2256.28
411.98	2195.42
412.17	2303.09
412.36	2136.91
412.55	2331.17
412.74	2347.56
412.93	2347.56
413.12	2286.70
413.31	2410.75
413.50	2431.82
413.69	2335.85
413.88	2448.20
414.07	2466.92
414.26	2504.37
414.45	2434.16
414.64	2457.56
414.83	2647.15
415.02	2579.27
415.22	2597.99
415.41	2628.42
415.60	2579.27
415.79	2663.53
415.98	2733.75
416.17	2787.58
416.36	2710.34
416.55	2729.06
416.74	2773.53
416.93	2787.58
417.12	2890.56
417.31	2913.97
417.50	2869.50
417.69	2956.10
417.88	2829.71
418.07	2956.10
418.26	2876.52
418.45	3021.63
418.64	3133.98
418.83	3012.27
419.02	3110.57
419.21	3073.12
419.39	3119.93
419.58	3155.04
419.77	3009.93
419.96	3019.29
420.15	3131.64
420.34	3145.68
420.53	3269.73
420.72	3356.33
420.91	3243.98
421.10	3218.24
421.29	3349.31
421.48	3311.86
421.67	3236.96
421.86	3260.37
422.05	3248.66
422.24	3295.47
422.43	3375.05
422.61	3323.56
422.80	3431.23
422.99	3468.67
423.18	3435.91
423.37	3548.25
423.56	3632.51
423.75	3428.88
423.94	3274.41
424.13	3171.43
424.32	3293.13
424.50	3454.63
424.69	3531.87
424.88	3585.70
425.07	3412.50
425.26	3445.27
425.45	3449.95
425.64	3346.97
425.83	3405.48
426.01	3485.06
426.20	3419.52
426.39	3496.76
426.58	3456.97
426.77	3620.81
426.96	3478.04
427.15	3581.02
427.33	3482.72
427.52	3625.49
427.71	3735.50
427.90	3684.00
428.09	3634.85
428.28	3812.73
428.46	3744.86
428.65	3698.05
428.84	3758.90
429.03	3934.44
429.22	3794.01
429.40	3838.48
429.59	3798.69
429.78	3782.31
429.97	3623.15
430.16	3761.24
430.34	3751.88
430.53	3737.84
430.72	3953.16
430.91	3831.46
431.10	3866.56
431.28	3779.97
431.47	4042.11
431.66	4009.34
431.85	4063.17
432.03	4081.89
432.22	4133.39
432.41	3985.93
432.60	4058.49
432.79	4168.49
432.97	4105.30
433.16	4245.73
433.35	4065.51
433.54	4173.18
433.72	4407.23
433.91	4100.62
434.10	4245.73
434.28	4205.94
434.47	4205.94
434.66	4430.63
434.85	4395.53
435.03	4355.74
435.22	4360.42
435.41	4566.39
435.59	4358.08
435.78	4437.66
435.97	4458.72
436.16	4402.55
436.34	4372.12
436.53	4355.74
436.72	4697.46
436.90	4451.70
437.09	4599.15
437.28	4421.27
437.46	4557.02
437.65	4477.44
437.84	4599.15
438.02	4723.20
438.21	4795.76
438.40	4585.11
438.58	4929.17
438.77	4826.18
438.96	4842.57
439.14	4861.29
439.33	4947.89
439.52	4994.70
439.70	4957.25
439.89	5046.20
440.08	5128.11
440.26	5067.26
440.45	5057.90
440.63	5078.96
440.82	5217.05
441.01	5083.64
441.19	5067.26
441.38	5369.19
441.57	5256.84
441.75	5577.50
441.94	5345.78
442.12	5423.02
442.31	5486.22
442.50	5350.46
442.68	5472.17
442.87	5411.32
443.05	5544.73
443.24	5577.50
443.43	5469.83
443.61	5617.29
443.80	5783.46
443.98	5551.75
444.17	5341.10
444.35	5584.52
444.54	5724.95
444.73	5652.39
444.91	5420.68
445.10	5678.14
445.28	5675.80
445.47	5612.60
445.65	5652.39
445.84	5823.25
446.02	5607.92
446.21	5626.65
446.39	5753.04
446.58	5804.53
446.77	5701.54
446.95	5636.01
447.14	5788.14
447.32	5921.56
447.51	5799.85
447.69	5804.53
447.88	5984.75
448.06	5914.53
448.25	5940.28
448.43	5884.11
448.62	5895.81
448.80	5944.96
448.99	6026.88
449.17	5940.28
449.36	5916.87
449.54	6031.56
449.73	6209.44
449.91	6101.78
450.10	6069.01
450.28	6045.60
450.46	6101.78
450.65	6094.76
450.83	6080.71
451.02	6183.70
451.20	6230.51
451.39	6239.87
451.57	6064.33
451.76	6195.40
451.94	6225.82
452.13	6394.34
452.31	6363.92
452.49	6207.10
452.68	6211.78
452.86	6399.02
453.05	6424.77
453.23	6300.72
453.42	6427.11
453.60	6445.84
453.78	6469.24
453.97	6429.45
454.15	6583.93
454.34	6604.99
454.52	6527.75
454.70	6567.54
454.89	6637.76
455.07	6633.08
455.26	6731.38
455.44	6619.04
455.62	6806.28
455.81	6663.51
455.99	6621.38
456.17	6743.08
456.36	6963.09
456.54	6876.49
456.73	7026.29
456.91	7000.54
457.09	7061.40
457.28	7101.19
457.46	7019.27
457.64	7220.55
457.83	7159.70
458.01	7014.59
458.19	7311.83
458.38	7054.37
458.56	7325.88
458.74	7293.11
458.93	7424.18
459.11	7152.68
459.29	7213.53
459.48	7377.37
459.66	7363.33
459.84	7508.44
460.03	7576.31
460.21	7438.22
460.39	7311.83
460.57	7449.93
460.76	7459.29
460.94	7541.21
461.12	7543.55
461.31	7691.00
461.49	7489.71
461.67	7499.08
461.85	7751.85
462.04	7674.62
462.22	8224.64
462.40	7744.83
462.59	7691.00
462.77	7836.11
462.95	7915.69
463.13	7866.54
463.32	7896.97
463.50	8049.10
463.68	7962.50
463.86	8004.63
464.05	7976.55
464.23	7854.84
464.41	8067.83
464.59	8189.53
464.78	8290.18
464.96	7974.21
465.14	8138.04
465.32	8067.83
465.50	8355.71
465.69	8322.94
465.87	8355.71
466.05	8135.70
466.23	8257.41
466.41	8304.22
466.60	8418.91
466.78	8077.19
466.96	8173.15
467.14	8091.23
467.32	8521.89
467.51	8451.67
467.69	8243.37
467.87	8372.10
468.05	8435.29
468.23	8386.14
468.41	8266.77
468.60	8592.11
468.78	8517.21
468.96	8617.85
469.14	8606.15
469.32	8671.68
469.50	8601.47
469.69	8737.22
469.87	8798.07
470.05	8739.56
470.23	8950.21
470.41	8898.72
470.59	9111.71
470.77	8863.61
470.95	8971.27
471.14	9137.45
471.32	8835.52
471.50	8985.32
471.68	9064.89
471.86	9268.52
472.04	9165.54
472.22	9516.62
472.40	9329.38
472.58	9430.02
472.77	9408.95
472.95	9446.40
473.13	9834.93
473.31	9500.23
473.49	9668.75
473.67	9352.78
473.85	9820.89
474.03	9914.51
474.21	9694.50
474.39	9713.22
474.57	9909.83
474.75	10029.20
474.93	9942.60
475.12	10277.29
475.30	10225.80
475.48	10113.45
475.66	10258.57
475.84	10118.14
476.02	10319.42
476.20	10356.87
476.38	10450.49
476.56	10843.70
476.74	10665.82
476.92	10593.26
477.10	10771.15
477.28	10773.49
477.46	10778.17
477.64	10888.17
477.82	11234.57
478.00	11351.60
478.18	11208.83
478.36	11190.10
478.54	11353.94
478.72	11754.17
478.90	11632.46
479.08	11948.43
479.26	11906.31
479.44	11927.37
479.62	11819.71
479.80	11838.43
479.98	12081.85
480.16	12498.46
480.34	12269.09
480.52	12210.57
480.70	12376.75
480.88	12315.90
481.06	12575.70
481.24	12608.47
481.41	12919.76
481.59	12854.22
481.77	12966.57
481.95	13085.94
482.13	13032.10
482.31	13163.17
482.49	13462.76
482.67	13408.93
482.85	13502.55
483.03	13731.92
483.21	13465.10
483.39	13792.78
483.57	13965.98
483.74	14078.32
483.92	14008.11
484.10	14169.60
484.28	14506.64
484.46	14621.33
484.64	14794.53
484.82	14759.42
485.00	14743.03
485.18	15023.90
485.35	15232.21
485.53	14958.36
485.71	15147.95
485.89	15772.87
486.07	15236.89
486.25	15459.24
486.43	15829.04
486.61	15765.85
486.78	15873.51
486.96	15852.45
487.14	16107.57
487.32	16325.24
487.50	16376.73
487.68	16727.81
487.85	16734.83
488.03	17053.14
488.21	17006.33
488.39	16950.16
488.57	17420.61
488.75	17228.68
488.92	17652.32
489.10	17680.41
489.28	17797.43
489.46	17752.96
489.64	17886.37
489.81	18422.36
489.99	18225.75
490.17	18380.23
490.35	18508.96
490.53	18366.18
490.70	19044.94
490.88	18850.67
491.06	19044.94
491.24	19042.60
491.41	19491.98
491.59	19318.78
491.77	19403.04
491.95	19381.98
492.13	19534.11
492.30	19793.91
492.48	19632.41
492.66	20154.35
492.84	20034.99
493.01	20381.38
493.19	20283.08
493.37	20713.74
493.54	20343.94
493.72	20767.57
493.90	20353.30
494.08	20858.85
494.25	21181.85
494.43	21460.37
494.61	20943.11
494.79	21453.35
494.96	21600.80
495.14	21509.52
495.32	22216.36
495.49	22155.51
495.67	21762.30
495.85	21916.78
496.02	22338.07
496.20	22497.23
496.38	22555.74
496.55	22675.11
496.73	22979.38
496.91	22675.11
497.09	23173.64
497.26	23325.78
497.44	23000.44
497.62	23220.45
497.79	23716.65
497.97	23274.29
498.14	23924.96
498.32	23887.51
498.50	23810.27
498.67	23854.74
498.85	24156.67
499.03	24418.81
499.20	23770.48
499.38	24226.89
499.56	24552.22
499.73	24650.52
499.91	24641.16
500.08	25034.37
500.26	24744.14
500.44	24957.13
500.61	25266.08
500.79	24769.89
500.97	25238.00
501.14	25598.44
501.32	25577.37
501.49	25706.10
501.67	25308.21
501.84	25776.32
502.02	25610.14
502.20	25886.32
502.37	26108.68
502.55	25954.20
502.72	26389.54
502.90	26305.28
503.07	26092.29
503.25	26651.68
503.43	26546.36
503.60	26352.09
503.78	26611.89
503.95	26916.16
504.13	26691.47
504.30	27192.34
504.48	26899.78
504.65	27204.05
504.83	27288.31
505.01	27138.51
505.18	27328.10
505.36	27695.56
505.53	27419.38
505.71	27754.07
505.88	27630.02
506.06	27651.09
506.23	27730.67
506.41	27967.06
506.58	27948.34
506.76	28056.00
506.93	28233.88
507.11	28126.22
507.28	28641.14
507.46	28521.77
507.63	28339.21
507.81	29071.79
507.98	28130.90
508.16	28652.84
508.33	29029.66
508.50	29092.86
508.68	28837.74
508.85	29041.37
509.03	29167.76
509.20	29291.80
509.38	29352.66
509.55	29432.24
509.73	29778.64
509.90	29696.72
510.08	29867.58
510.25	29631.18
510.42	29539.90
510.60	30078.22
510.77	29769.27
510.95	30518.25
511.12	30050.14
511.30	30094.61
511.47	30232.70
511.64	30581.44
511.82	30508.88
511.99	30541.65
512.17	30962.95
512.34	30698.47
512.51	30635.27
512.69	31260.20
512.86	31077.63
513.04	31197.00
513.21	31236.79
513.38	31632.34
513.56	31515.31
513.73	31538.72
513.90	31426.37
514.08	31627.66
514.25	31967.04
514.43	32030.23
514.60	31894.48
514.77	31922.57
514.95	32233.86
515.12	31810.22
515.29	32170.66
515.47	32156.62
515.64	32348.54
515.81	32217.47
515.99	32526.42
516.16	32758.14
516.33	32486.64
516.51	32891.55
516.68	33008.58
516.85	32582.60
517.03	32882.19
517.20	33170.07
517.37	32786.22
517.54	33003.89
517.72	33504.77
517.89	33174.75
518.06	33500.09
518.24	33326.89
518.41	33443.91
518.58	33670.95
518.75	33029.64
518.93	34125.01
519.10	33717.76
519.27	33825.42
519.45	33844.15
519.62	33937.77
519.79	33783.29
519.96	34206.93
520.14	34550.99
520.31	33802.02
520.48	34660.99
520.65	34192.89
520.83	34614.18
521.00	34829.51
521.17	34712.49
521.34	34646.95
521.52	34827.17
521.69	35058.88
521.86	34796.74
522.03	35122.08
522.20	35133.78
522.38	35377.20
522.55	35693.17
522.72	35278.89
522.89	35552.74
523.07	35765.73
523.24	35335.07
523.41	35435.71
523.58	35667.42
523.75	35559.76
523.92	35959.99
524.10	35957.65
524.27	35814.88
524.44	36311.07
524.61	36156.60
524.78	35718.92
524.96	36512.36
525.13	36477.25
525.30	36538.10
525.47	36460.87
525.64	36280.64
525.81	36928.97
525.98	36809.61
526.16	36708.96
526.33	36851.73
526.50	36924.29
526.67	36629.38
526.84	36723.01
527.01	36704.28
527.18	37050.68
527.36	37205.16
527.53	36732.37
527.70	37553.90
527.87	37488.36
528.04	37497.72
528.21	37380.70
528.38	37516.45
528.55	37720.07
528.72	37617.09
528.89	38148.39
529.07	38050.09
529.24	37214.52
529.41	37830.08
529.58	37659.22
529.75	37996.26
529.92	37907.32
530.09	38031.36
530.26	38176.48
530.43	38335.63
530.60	37640.50
530.77	38237.33
530.94	38045.41
531.11	38377.76
531.28	38384.79
531.46	38319.25
531.63	38431.60
531.80	38206.90
531.97	38955.88
532.14	38785.02
532.31	38431.60
532.48	39044.82
532.65	39154.82
532.82	38883.32
532.99	39353.77
533.16	38955.88
533.33	38808.42
533.50	39213.34
533.67	39096.31
533.84	39042.48
534.01	39218.02
534.18	39154.82
534.35	39559.73
534.52	39543.35
534.69	40011.46
534.86	39606.55
535.03	39484.84
535.20	39681.44
535.37	39962.31
535.54	39711.87
535.71	39746.98
535.88	39798.47
536.05	39842.94
536.22	40210.40
536.38	40084.01
536.55	39952.94
536.72	40266.58
536.89	39943.58
537.06	40364.88
537.23	40399.99
537.40	40034.86
537.57	40718.30
537.74	40404.67
537.91	40500.63
538.08	40397.65
538.25	40039.54
538.42	40664.47
538.59	41251.94
538.75	40568.51
538.92	40694.89
539.09	41071.72
539.26	40741.71
539.43	40753.41
539.60	41109.17
539.77	41160.66
539.94	41167.68
540.11	41415.78
540.28	41436.84
540.44	40746.39
540.61	41050.66
540.78	41347.90
540.95	41455.57
541.12	40657.45
541.29	41277.69
541.46	41560.89
541.62	41280.03
541.79	41689.62
541.96	41565.57
542.13	41478.97
542.30	41420.46
542.47	42160.07
542.63	41645.15
542.80	41872.18
542.97	41916.65
543.14	42115.60
543.31	42232.63
543.48	42464.34
543.64	42829.46
543.81	42625.84
543.98	42251.35
544.15	42000.91
544.32	42576.69
544.48	42447.96
544.65	42141.35
544.82	42705.41
544.99	42256.03
545.16	42815.42
545.32	42897.34
545.49	43012.02
545.66	42876.27
545.83	43054.15
546.00	42637.54
546.16	42883.30
546.33	42817.76
546.50	42649.24
546.67	43208.63
546.83	43063.52
547.00	42897.34
547.17	43136.07
547.34	43267.14
547.50	43014.37
547.67	43723.55
547.84	43337.36
548.00	43330.34
548.17	43805.47
548.34	43641.63
548.51	43819.51
548.67	43222.67
548.84	43168.84
549.01	43711.84
549.18	43405.23
549.34	44062.93
549.51	44285.28
549.68	44179.95
549.84	43510.56
550.01	43700.14
550.18	43711.84
550.34	44346.13
550.51	44013.77
550.68	44095.69
550.84	43529.28
551.01	44343.79
551.18	43871.00
551.34	44128.46
551.51	44566.14
551.68	44095.69
551.84	44222.08
552.01	44177.61
552.18	44060.58
552.34	44151.87
552.51	44648.06
552.68	43934.20
552.84	44182.29
553.01	44561.46
553.18	44362.51
553.34	44751.04
553.51	44404.64
553.67	44875.09
553.84	44692.53
554.01	44898.50
554.17	44781.47
554.34	44961.69
554.51	44666.78
554.67	44982.76
554.84	44968.71
555.00	45268.30
555.17	44753.38
555.33	45261.28
555.50	44839.98
555.67	45116.17
555.83	45469.59
556.00	45478.95
556.16	45900.25
556.33	45109.14
556.50	45815.99
556.66	45067.02
556.83	45251.92
556.99	45752.79
557.16	45584.27
557.32	45441.50
557.49	45900.25
557.65	45202.77
557.82	45434.48
557.98	45380.65
558.15	45649.81
558.32	45811.31
558.48	45511.72
558.65	45450.86
558.81	45815.99
558.98	45514.06
559.14	45663.85
559.31	45411.07
559.47	45902.59
559.64	45778.54
559.80	45439.16
559.97	45626.40
560.13	45696.62
560.30	45619.38
560.46	46099.19
560.63	45986.85
560.79	46293.46
560.96	46024.29
561.12	46223.24
561.29	46681.98
561.45	46071.10
561.61	46138.98
561.78	46508.79
561.94	45872.16
562.11	46047.70
562.27	45916.63
562.44	46403.46
562.60	46047.70
562.77	46251.33
562.93	46127.28
563.10	46494.74
563.26	46064.08
563.42	46368.35
563.59	46384.74
563.75	46501.76
563.92	46522.83
564.08	46328.56
564.24	46188.13
564.41	46319.20
564.57	46431.55
564.74	46625.81
564.90	46330.90
565.07	46412.82
565.23	46476.02
565.39	46579.00
565.56	46536.87
565.72	46419.84
565.88	46887.95
566.05	46639.86
566.21	46478.36
566.38	46464.32
566.54	46419.84
566.70	46773.27
566.87	46852.84
567.03	46590.70
567.19	47033.07
567.36	47002.64
567.52	46366.01
567.68	47077.54
567.85	46651.56
568.01	47047.11
568.17	46911.36
568.34	47159.45
568.50	46810.71
568.66	46906.68
568.83	46923.06
568.99	46951.15
569.15	47175.84
569.32	46939.44
569.48	46705.39
569.64	47414.57
569.81	46925.40
569.97	47206.26
570.13	47512.88
570.30	46770.93
570.46	46965.19
570.62	47054.13
570.78	47082.22
570.95	46906.68
571.11	47281.16
571.27	47044.77
571.43	47129.03
571.60	46391.76
571.76	46862.21
571.92	47278.82
572.09	46721.77
572.25	47119.66
572.41	47131.37
572.57	47358.40
572.74	47405.21
572.90	47323.29
573.06	47512.88
573.22	46911.36
573.38	47356.06
573.55	47732.89
573.71	47342.02
573.87	47379.46
574.03	47372.44
574.20	47430.96
574.36	47648.63
574.52	47435.64
574.68	47393.51
574.84	47334.99
575.01	47440.32
575.17	47482.45
575.33	47459.04
575.49	47229.67
575.65	47428.62
575.82	47449.68
575.98	47166.48
576.14	47412.23
576.30	47758.63
576.46	47688.42
576.62	47152.43
576.79	47105.62
576.95	47173.50
577.11	47203.92
577.27	47426.28
577.43	47672.03
577.59	47533.94
577.75	47433.30
577.92	47187.54
578.08	47143.07
578.24	47760.97
578.40	47959.92
578.56	48004.39
578.72	47243.71
578.88	47936.51
579.04	47374.78
579.21	47522.24
579.37	47379.46
579.53	47468.40
579.69	47466.06
579.85	47522.24
580.01	47634.58
580.17	47770.33
580.33	47665.01
580.49	47503.51
580.65	47770.33
580.82	47477.77
580.98	47555.00
581.14	47004.98
581.30	47765.65
581.46	47320.95
581.62	47430.96
581.78	47196.90
581.94	47327.97
582.10	47615.86
582.26	47870.98
582.42	47510.53
582.58	47299.89
582.74	47842.89
582.90	47412.23
583.06	47728.20
583.22	47487.13
583.38	47896.72
583.54	47672.03
583.70	47714.16
583.86	47798.42
584.02	47744.59
584.18	47861.61
584.34	47835.87
584.50	47988.00
584.66	47950.56
584.82	47660.33
584.98	48215.04
585.14	47786.72
585.30	47697.78
585.46	47557.35
585.62	47693.10
585.78	47798.42
585.94	47892.04
586.10	47735.23
586.26	47784.38
586.42	47943.53
586.58	47796.08
586.74	47929.49
586.90	47384.15
587.06	47737.57
587.22	48222.06
587.38	47887.36
587.54	48034.81
587.70	47906.08
587.86	47969.28
588.02	47690.76
588.18	47800.76
588.34	47739.91
588.49	47880.34
588.65	47763.31
588.81	47674.37
588.97	47791.40
589.13	47852.25
589.29	47880.34
589.45	48624.63
589.61	47807.78
589.77	48643.35
589.93	47901.40
