SpectraSuite Data File
++++++++++++++++++++++++++++++++++++
Date: Fri Oct 25 11:23:11 EDT 2013
User: price-jones
Dark Spectrum Present: No
Reference Spectrum Present: No
Number of Sampled Component Spectra: 1
Spectrometers: USB2+H05261
Integration Time (usec): 100000 (USB2+H05261)
Spectra Averaged: 1 (USB2+H05261)
Boxcar Smoothing: 0 (USB2+H05261)
Correct for Electrical Dark: No (USB2+H05261)
Strobe/Lamp Enabled: No (USB2+H05261)
Correct for Detector Non-linearity: No (USB2+H05261)
Correct for Stray Light: No (USB2+H05261)
Number of Pixels in Processed Spectrum: 2048
>>>>>Begin Processed Spectral Data<<<<<
365.73	229.37
365.92	229.37
366.12	229.37
366.32	138.09
366.52	133.41
366.72	121.71
366.91	159.16
367.11	112.35
367.31	128.73
367.51	140.43
367.70	133.41
367.90	105.32
368.10	168.52
368.30	191.92
368.49	121.71
368.69	142.77
368.89	114.69
369.09	138.09
369.28	156.82
369.48	163.84
369.68	117.03
369.87	177.88
370.07	163.84
370.27	166.18
370.47	327.68
370.66	620.24
370.86	622.58
371.06	620.24
371.25	725.57
371.45	681.10
371.65	697.48
371.84	608.54
372.04	763.01
372.24	690.46
372.44	613.22
372.63	720.88
372.83	690.46
373.03	758.33
373.22	758.33
373.42	758.33
373.62	711.52
373.81	807.48
374.01	741.95
374.21	868.34
374.40	807.48
374.60	793.44
374.79	741.95
374.99	781.74
375.19	777.06
375.38	851.96
375.58	798.12
375.78	908.13
375.97	854.30
376.17	901.11
376.37	763.01
376.56	912.81
376.76	908.13
376.95	877.70
377.15	922.17
377.35	940.90
377.54	954.94
377.74	821.53
377.93	814.51
378.13	926.85
378.33	957.28
378.52	919.83
378.72	978.34
378.91	990.05
379.11	952.60
379.31	966.64
379.50	950.26
379.70	945.58
379.89	943.24
380.09	926.85
380.28	985.37
380.48	898.77
380.68	1004.09
380.87	997.07
381.07	1004.09
381.26	1029.84
381.46	992.39
381.65	1029.84
381.85	924.51
382.04	1057.92
382.24	1043.88
382.43	1041.54
382.63	1050.90
382.83	1093.03
383.02	1125.80
383.22	1153.88
383.41	1015.79
383.61	1093.03
383.80	1130.48
384.00	1137.50
384.19	1156.22
384.39	1163.25
384.58	1158.57
384.78	1116.44
384.97	1095.37
385.17	1107.07
385.36	1179.63
385.56	1144.52
385.75	1205.38
385.95	1203.04
386.14	1181.97
386.34	1231.12
386.53	1226.44
386.72	1275.59
386.92	1320.06
387.11	1238.14
387.31	1217.08
387.50	1231.12
387.70	1299.00
387.89	1289.64
388.09	1256.87
388.28	1263.89
388.48	1338.79
388.67	1373.89
388.86	1313.04
389.06	1320.06
389.25	1343.47
389.45	1313.04
389.64	1320.06
389.84	1376.24
390.03	1355.17
390.22	1273.25
390.42	1451.13
390.61	1301.34
390.81	1376.24
391.00	1348.15
391.19	1486.24
391.39	1387.94
391.58	1434.75
391.78	1418.36
391.97	1406.66
392.16	1472.20
392.36	1544.75
392.55	1495.60
392.75	1598.59
392.94	1561.14
393.13	1523.69
393.33	1561.14
393.52	1612.63
393.71	1575.18
393.91	1500.28
394.10	1533.05
394.29	1558.80
394.49	1577.52
394.68	1624.33
394.88	1624.33
395.07	1617.31
395.26	1572.84
395.46	1652.42
395.65	1837.32
395.84	1727.32
396.04	1748.38
396.23	1694.55
396.42	1640.72
396.62	1678.16
396.81	1858.39
397.00	1790.51
397.19	1851.36
397.39	1694.55
397.58	1788.17
397.77	1806.89
397.97	1888.81
398.16	1832.64
398.35	1884.13
398.55	1923.92
398.74	1919.24
398.93	1923.92
399.12	1926.26
399.32	1968.39
399.51	1886.47
399.70	1998.82
399.90	1898.17
400.09	2097.12
400.28	2031.58
400.47	1991.80
400.67	2150.95
400.86	2132.23
401.05	2083.08
401.24	2129.89
401.44	2200.10
401.63	2211.81
401.82	2097.12
402.01	2167.34
402.21	2221.17
402.40	2289.04
402.59	2162.66
402.78	2319.47
402.97	2258.62
403.17	2396.71
403.36	2260.96
403.55	2246.91
403.74	2469.27
403.93	2326.49
404.13	2429.48
404.32	2385.01
404.51	2260.96
404.70	2349.90
404.89	2410.75
405.09	2490.33
405.28	2448.20
405.47	2443.52
405.66	2457.56
405.85	2668.21
406.05	2476.29
406.24	2635.44
406.43	2546.50
406.62	2612.04
406.81	2675.23
407.00	2527.78
407.20	2686.94
407.39	2672.89
407.58	2853.11
407.77	2724.38
407.96	2773.53
408.15	2792.26
408.34	2796.94
408.54	2881.20
408.73	2853.11
408.92	2867.16
409.11	2909.29
409.30	2801.62
409.49	2839.07
409.68	3014.61
409.87	2965.46
410.07	2956.10
410.26	3091.85
410.45	2967.80
410.64	3126.96
410.83	3005.25
411.02	3122.27
411.21	3225.26
411.40	3108.23
411.59	3248.66
411.78	3187.81
411.98	3213.56
412.17	3304.84
412.36	3276.75
412.55	3426.54
412.74	3428.88
412.93	3431.23
413.12	3335.26
413.31	3599.74
413.50	3515.48
413.69	3428.88
413.88	3592.72
414.07	3644.21
414.26	3749.54
414.45	3798.69
414.64	3534.21
414.83	3691.02
415.02	3911.04
415.22	3892.31
415.41	3911.04
415.60	3927.42
415.79	3901.67
415.98	4039.76
416.17	4035.08
416.36	4009.34
416.55	4093.60
416.74	4039.76
416.93	4112.32
417.12	4131.05
417.31	4245.73
417.50	4224.67
417.69	4243.39
417.88	4362.76
418.07	4304.25
418.26	4283.18
418.45	4243.39
418.64	4463.40
418.83	4447.02
419.02	4477.44
419.21	4447.02
419.39	4585.11
419.58	4503.19
419.77	4479.79
419.96	4688.09
420.15	4552.34
420.34	4709.16
420.53	4629.58
420.72	4676.39
420.91	4582.77
421.10	4669.37
421.29	4692.77
421.48	4652.98
421.67	4741.93
421.86	4959.60
422.05	4851.93
422.24	4784.06
422.43	4877.68
422.61	4945.55
422.80	5006.41
422.99	5102.37
423.18	4961.94
423.37	5118.75
423.56	4910.44
423.75	4938.53
423.94	4999.38
424.13	4777.03
424.32	4828.53
424.50	5071.94
424.69	5217.05
424.88	5060.24
425.07	4964.28
425.26	4957.25
425.45	5041.51
425.64	4990.02
425.83	5114.07
426.01	5107.05
426.20	5008.75
426.39	5067.26
426.58	5057.90
426.77	5043.85
426.96	5123.43
427.15	5163.22
427.33	5371.53
427.52	5270.89
427.71	5301.31
427.90	5369.19
428.09	5413.66
428.28	5303.65
428.46	5481.53
428.65	5472.17
428.84	5610.26
429.03	5589.20
429.22	5315.36
429.40	5488.56
429.59	5561.11
429.78	5217.05
429.97	5221.74
430.16	5551.75
430.34	5610.26
430.53	5661.76
430.72	5781.12
430.91	5668.78
431.10	5722.61
431.28	5905.17
431.47	5741.33
431.66	5884.11
431.85	5689.84
432.03	5989.43
432.22	6141.57
432.41	6104.12
432.60	5881.77
432.79	5973.05
432.97	6136.88
433.16	6059.65
433.35	6069.01
433.54	6106.46
433.72	6174.33
433.91	6085.39
434.10	6256.25
434.28	6038.58
434.47	6190.72
434.66	6303.06
434.85	6338.17
435.03	6298.38
435.22	6415.41
435.41	6516.05
435.59	6485.62
435.78	6464.56
435.97	6647.12
436.16	6724.36
436.34	6637.76
436.53	6558.18
436.72	6761.81
436.90	6462.22
437.09	6710.32
437.28	6490.31
437.46	6579.25
437.65	6539.46
437.84	6684.57
438.02	6771.17
438.21	6834.36
438.40	6892.88
438.58	7007.56
438.77	7183.10
438.96	7045.01
439.14	7131.61
439.33	7297.79
439.52	7297.79
439.70	7330.56
439.89	7410.14
440.08	7428.86
440.26	7541.21
440.45	7304.81
440.63	7524.82
440.82	7618.44
441.01	7501.42
441.19	7836.11
441.38	7861.86
441.57	7791.64
441.75	7793.98
441.94	8002.29
442.12	8039.74
442.31	8053.78
442.50	8102.93
442.68	7946.12
442.87	8088.89
443.05	8006.97
443.24	8259.75
443.43	8224.64
443.61	8252.73
443.80	8390.82
443.98	8105.28
444.17	7971.86
444.35	8454.02
444.54	8276.13
444.73	8386.14
444.91	8367.42
445.10	8496.14
445.28	8414.23
445.47	8395.50
445.65	8360.39
445.84	8493.80
446.02	8362.73
446.21	8444.65
446.39	8472.74
446.58	8622.53
446.77	8505.51
446.95	8264.43
447.14	8470.40
447.32	8585.08
447.51	8571.04
447.69	8542.96
447.88	8257.41
448.06	8704.45
448.25	8578.06
448.43	8702.11
448.62	8662.32
448.80	8741.90
448.99	8929.14
449.17	8688.07
449.36	8730.20
449.54	8933.82
449.73	9060.21
449.91	9114.05
450.10	8910.42
450.28	9273.20
450.46	8952.55
450.65	9118.73
450.83	9200.65
451.02	9125.75
451.20	9202.99
451.39	9177.24
451.57	9275.54
451.76	9111.71
451.94	9200.65
452.13	9282.56
452.31	9249.80
452.49	9233.41
452.68	9511.94
452.86	9320.01
453.05	9500.23
453.23	9507.26
453.42	9439.38
453.60	9451.08
453.78	9853.66
453.97	9404.27
454.15	9558.75
454.34	9554.07
454.52	9788.12
454.70	9767.06
454.89	9701.52
455.07	9951.96
455.26	9872.38
455.44	9949.62
455.62	10083.03
455.81	9975.36
455.99	10026.86
456.17	10321.76
456.36	10277.29
456.54	10157.92
456.73	10333.47
456.91	10541.77
457.09	10565.18
457.28	10656.46
457.46	10424.75
457.64	10469.22
457.83	10642.42
458.01	10754.76
458.19	10808.59
458.38	10607.31
458.56	10864.77
458.74	10665.82
458.93	10794.55
459.11	10799.23
459.29	10895.19
459.48	10916.26
459.66	10963.07
459.84	11061.37
460.03	11166.70
460.21	11279.04
460.39	11082.44
460.57	11068.39
460.76	11166.70
460.94	11428.84
461.12	11293.08
461.31	11110.52
461.49	11061.37
461.67	11183.08
461.85	11545.86
462.04	11470.97
462.22	11674.59
462.40	11658.21
462.59	11513.10
462.77	11550.54
462.95	11726.08
463.13	11899.28
463.32	11730.76
463.50	11901.62
463.68	11946.09
463.86	12088.87
464.05	11939.07
464.23	11857.15
464.41	12039.72
464.59	11925.03
464.78	12091.21
464.96	12308.88
465.14	11868.86
465.32	12266.75
465.50	12252.70
465.69	12294.83
465.87	12416.54
466.05	11985.88
466.23	12252.70
466.41	12379.09
466.60	12688.04
466.78	12400.16
466.96	12114.61
467.14	12233.98
467.32	12517.18
467.51	12549.95
467.69	12397.82
467.87	12545.27
468.05	12416.54
468.23	12376.75
468.41	12709.11
468.60	12674.00
468.78	12697.41
468.96	12545.27
469.14	12929.12
469.32	13149.13
469.50	12699.75
469.69	13153.81
469.87	13296.58
470.05	13156.15
470.23	13394.89
470.41	13270.84
470.59	13338.71
470.77	13282.54
470.95	13521.27
471.14	13734.26
471.32	13289.56
471.50	13577.45
471.68	13731.92
471.86	13767.03
472.04	13736.60
472.22	14319.40
472.40	13844.27
472.58	14155.56
472.77	14258.54
472.95	14122.79
473.13	14860.06
473.31	14317.06
473.49	14197.69
473.67	14265.57
473.85	14356.85
474.03	14506.64
474.21	14576.86
474.39	15005.17
474.57	14867.08
474.75	15037.94
474.93	15154.97
475.12	15187.74
475.30	15166.67
475.48	15180.71
475.66	15286.04
475.84	15173.69
476.02	15667.55
476.20	15674.57
476.38	15716.70
476.56	16273.74
476.74	16002.24
476.92	15983.52
477.10	16051.39
477.28	16346.30
477.46	16240.98
477.64	16629.51
477.82	16842.50
478.00	17158.47
478.18	17116.34
478.36	17130.38
478.54	17125.70
478.72	17209.96
478.90	17551.68
479.08	17827.86
479.26	17825.52
479.44	17994.04
479.62	18015.10
479.80	18211.71
479.98	18452.78
480.16	18483.21
480.34	18387.25
480.52	18555.77
480.70	18974.72
480.88	18623.64
481.06	18824.93
481.24	19171.33
481.41	19281.33
481.59	19555.18
481.77	19594.96
481.95	19817.32
482.13	19983.49
482.31	19992.86
482.49	20273.72
482.67	20140.31
482.85	20559.27
483.03	20851.83
483.21	21015.67
483.39	21104.61
483.57	21130.36
483.74	21207.59
483.92	21961.25
484.10	21699.11
484.28	22204.66
484.46	22429.35
484.64	22455.10
484.82	21879.33
485.00	22731.28
485.18	22684.47
485.35	23351.52
485.53	23197.05
485.71	23192.37
485.89	23672.18
486.07	23388.97
486.25	23630.05
486.43	23805.59
486.61	24041.98
486.78	24624.78
486.96	24203.48
487.14	24584.99
487.32	25001.60
487.50	25123.31
487.68	25270.76
487.85	25390.13
488.03	25778.66
488.21	26225.70
488.39	25799.73
488.57	26345.07
488.75	26654.02
488.92	26864.67
489.10	27353.84
489.28	26721.90
489.46	27182.98
489.64	26948.93
489.81	27995.15
489.99	27999.83
490.17	28142.60
490.35	28072.39
490.53	28470.28
490.70	28659.86
490.88	28334.53
491.06	29102.22
491.24	28978.17
491.41	29280.10
491.59	29303.51
491.77	29387.77
491.95	30162.48
492.13	30043.12
492.30	30412.92
492.48	30431.65
492.66	30089.93
492.84	30445.69
493.01	31040.18
493.19	30778.04
493.37	31421.69
493.54	31321.05
493.72	31838.31
493.90	31695.53
494.08	32137.90
494.25	32158.96
494.43	32514.72
494.61	32566.21
494.79	32652.81
494.96	32762.82
495.14	32804.95
495.32	33401.79
495.49	33500.09
495.67	33198.16
495.85	33773.93
496.02	33956.49
496.20	34529.92
496.38	34513.54
496.55	34338.00
496.73	35431.03
496.91	34810.79
497.09	35103.35
497.26	35414.65
497.44	35009.73
497.62	35920.20
497.79	36161.28
497.97	36037.23
498.14	36215.11
498.32	36184.68
498.50	36613.00
498.67	36952.38
498.85	36821.31
499.03	37153.66
499.20	37069.40
499.38	37055.36
499.56	37490.70
499.73	37539.85
499.91	37717.73
500.08	38022.00
500.26	37745.82
500.44	37811.35
500.61	38136.69
500.79	38007.96
500.97	38567.35
501.14	39288.23
501.32	39262.49
501.49	39002.69
501.67	39323.34
501.84	39009.71
502.02	39016.73
502.20	39494.20
502.37	39503.56
502.55	39695.49
502.72	39845.28
502.90	40009.12
503.07	40079.33
503.25	40240.83
503.43	40027.84
503.60	40388.28
503.78	40720.64
503.95	40751.07
504.13	40910.22
504.30	40741.71
504.48	40781.49
504.65	41350.24
504.83	41296.41
505.01	41717.71
505.18	41560.89
505.36	41741.11
505.53	41439.18
505.71	41820.69
505.88	41958.78
506.06	41776.22
506.23	42497.11
506.41	42356.67
506.58	42887.98
506.76	42511.15
506.93	42728.82
507.11	42986.28
507.28	42864.57
507.46	42682.01
507.63	43438.00
507.81	43255.44
507.98	42733.50
508.16	43903.77
508.33	43964.62
508.50	43973.98
508.68	43854.62
508.85	44385.92
509.03	44643.38
509.20	44638.70
509.38	44601.25
509.55	45284.68
509.73	44947.65
509.90	45034.25
510.08	45074.04
510.25	45188.72
510.42	45130.21
510.60	45551.51
510.77	45237.87
510.95	45797.26
511.12	45762.15
511.30	45439.16
511.47	46075.79
511.64	45834.71
511.82	46380.06
511.99	46204.52
512.17	46384.74
512.34	46096.85
512.51	46967.53
512.69	46726.46
512.86	46763.90
513.04	47187.54
513.21	46997.96
513.38	46925.40
513.56	47297.55
513.73	47049.45
513.90	47313.93
514.08	47316.27
514.25	47894.38
514.43	47578.41
514.60	47903.74
514.77	47430.96
514.95	48243.12
515.12	48278.23
515.29	47842.89
515.47	48252.48
515.64	48512.28
515.81	48282.91
515.99	48734.63
516.16	48687.82
516.33	48877.41
516.51	48917.20
516.68	48966.35
516.85	48687.82
517.03	49338.49
517.20	49326.79
517.37	49352.54
517.54	49055.29
517.72	49336.15
517.89	49303.38
518.06	49530.42
518.24	49902.56
518.41	49785.54
518.58	49832.35
518.75	49598.29
518.93	49867.45
519.10	49860.43
519.27	49696.59
519.45	50141.30
519.62	49949.37
519.79	50473.65
519.96	50291.09
520.14	50349.60
520.31	50389.39
520.48	50499.40
520.65	50920.70
520.83	51021.34
521.00	50789.62
521.17	50798.99
521.34	51206.24
521.52	51316.25
521.69	51433.27
521.86	51487.10
522.03	51494.13
522.20	51749.24
522.38	51695.41
522.55	51604.13
522.72	52018.41
522.89	51803.08
523.07	52182.24
523.24	51758.61
523.41	52130.75
523.58	51634.56
523.75	52575.45
523.92	52374.17
524.10	52088.62
524.27	52390.55
524.44	52172.88
524.61	52467.79
524.78	52236.08
524.96	52533.32
525.13	53024.84
525.30	53024.84
525.47	52746.31
525.64	52891.43
525.81	52973.34
525.98	53198.04
526.16	52952.28
526.33	53165.27
526.50	53244.85
526.67	53167.61
526.84	53179.31
527.01	53422.73
527.18	53069.31
527.36	53303.36
527.53	53137.18
527.70	53881.47
527.87	53499.97
528.04	53198.04
528.21	53762.11
528.38	53469.54
528.55	53916.58
528.72	53663.80
528.89	53502.31
529.07	53464.86
529.24	53710.61
529.41	54042.97
529.58	53947.01
529.75	53829.98
529.92	54073.40
530.09	54141.27
530.26	54113.19
530.43	54061.69
530.60	54164.68
530.77	54227.87
530.94	54445.54
531.11	54244.26
531.28	54171.70
531.46	54475.97
531.63	54497.03
531.80	54667.89
531.97	54571.93
532.14	54845.77
532.31	54733.43
532.48	54742.79
532.65	54904.29
532.82	54883.22
532.99	54972.16
533.16	55098.55
533.33	54845.77
533.50	55409.84
533.67	55133.66
533.84	54827.05
534.01	55267.07
534.18	55255.37
534.35	55360.69
534.52	55234.30
534.69	55395.80
534.86	55484.74
535.03	55136.00
535.20	55526.87
535.37	55487.08
535.54	55571.34
535.71	55580.70
535.88	55711.77
536.05	55943.48
536.22	55957.53
536.38	55781.99
536.55	55901.36
536.72	55744.54
536.89	55945.83
537.06	55760.92
537.23	56065.19
537.40	55938.80
537.57	55887.31
537.74	55882.63
537.91	56051.15
538.08	56069.87
538.25	56116.68
538.42	56224.35
538.59	56446.70
538.75	56109.66
538.92	56205.62
539.09	56385.85
539.26	56409.25
539.43	56406.91
539.60	56589.47
539.77	56671.39
539.94	56671.39
540.11	56486.49
540.28	56385.85
540.44	56917.15
540.61	56591.81
540.78	56495.85
540.95	56732.25
541.12	56676.07
541.29	56612.88
541.46	56928.85
541.62	56910.13
541.79	56882.04
541.96	56685.43
542.13	56837.57
542.30	56886.72
542.47	57010.77
542.63	57118.43
542.80	57340.78
542.97	57303.34
543.14	57420.36
543.31	57308.02
543.48	57422.70
543.64	57717.61
543.81	57687.18
543.98	57663.78
544.15	57560.79
544.32	57506.96
544.48	57640.37
544.65	57481.22
544.82	57553.77
544.99	57408.66
545.16	57813.57
545.32	57743.36
545.49	58138.91
545.66	58288.70
545.83	57836.98
546.00	58038.26
546.16	57808.89
546.33	57888.47
546.50	57532.71
546.67	58178.70
546.83	57726.97
547.00	58087.42
547.17	58078.05
547.34	57928.26
547.50	58211.46
547.67	58370.62
547.84	58417.43
548.00	58237.21
548.17	58518.07
548.34	58333.17
548.51	58454.88
548.67	58614.04
548.84	58459.56
549.01	58230.19
549.18	58365.94
549.34	58454.88
549.51	58595.31
549.68	58726.38
549.84	58408.07
550.01	58611.70
550.18	58515.73
550.34	58656.17
550.51	58918.31
550.68	58677.23
550.84	58585.95
551.01	58995.54
551.18	58733.40
551.34	58843.41
551.51	58726.38
551.68	58829.37
551.84	58983.84
552.01	58712.34
552.18	58922.99
552.34	58990.86
552.51	59051.72
552.68	58791.92
552.84	58681.91
553.01	59269.39
553.18	59021.29
553.34	59224.92
553.51	58955.75
553.67	59126.61
553.84	59157.04
554.01	59306.83
554.17	59337.26
554.34	59025.97
554.51	59164.06
554.67	59299.81
554.84	59358.33
555.00	59203.85
555.17	59220.23
555.33	59168.74
555.50	59224.92
555.67	59128.95
555.83	59419.18
556.00	59281.09
556.16	59763.24
556.33	59606.42
556.50	59561.95
556.66	59568.97
556.83	59611.10
556.99	59779.62
557.16	59494.08
557.32	59538.55
557.49	59559.61
557.65	59650.89
557.82	59594.72
557.98	59718.77
558.15	59686.00
558.32	59817.07
558.48	59512.80
558.65	59458.97
558.81	59772.60
558.98	59505.78
559.14	59814.73
559.31	59704.73
559.47	59742.17
559.64	59936.44
559.80	59854.52
559.97	60140.07
560.13	59772.60
560.30	59861.54
560.46	60074.53
560.63	60058.15
560.79	60004.31
560.96	60074.53
561.12	60067.51
561.29	59875.58
561.45	59962.18
561.61	60013.68
561.78	60324.97
561.94	60001.97
562.11	59978.57
562.27	60182.19
562.44	60212.62
562.60	60271.14
562.77	60060.49
562.93	60053.47
563.10	60324.97
563.26	60175.17
563.42	60420.93
563.59	60254.75
563.75	60048.78
563.92	60273.48
564.08	60282.84
564.24	60292.20
564.41	60074.53
564.57	60514.55
564.74	60430.29
564.90	60289.86
565.07	60315.61
565.23	60413.91
565.39	60322.63
565.56	60329.65
565.72	60154.11
565.88	60360.08
566.05	60331.99
566.21	60404.55
566.38	60589.45
566.54	60519.23
566.70	60743.92
566.87	60666.69
567.03	60308.58
567.19	60757.97
567.36	60617.53
567.52	60350.71
567.68	60711.16
567.85	60507.53
568.01	60690.09
568.17	60458.38
568.34	60921.80
568.50	60470.08
568.66	60383.48
568.83	60516.89
568.99	60505.19
569.15	60584.77
569.32	60711.16
569.48	60596.47
569.64	60720.52
569.81	60633.92
569.97	60561.36
570.13	60884.36
570.30	60559.02
570.46	60598.81
570.62	60715.84
570.78	60823.50
570.95	60603.49
571.11	60896.06
571.27	60622.22
571.43	60715.84
571.60	60891.38
571.76	60741.58
571.92	60788.39
572.09	60746.26
572.25	60872.65
572.41	60795.42
572.57	60882.02
572.74	60910.10
572.90	61008.40
573.06	61052.87
573.22	60903.08
573.38	60919.46
573.55	60856.27
573.71	60882.02
573.87	60942.87
574.03	60879.67
574.20	60977.98
574.36	60718.18
574.52	60945.21
574.68	60849.25
574.84	60987.34
575.01	61013.08
575.17	60825.84
575.33	61045.85
575.49	60970.96
575.65	60959.25
575.82	61080.96
575.98	61036.49
576.14	61045.85
576.30	60973.30
576.46	60987.34
576.62	61015.43
576.79	61085.64
576.95	60748.60
577.11	60935.85
577.27	61165.22
577.43	60973.30
577.59	60992.02
577.75	61085.64
577.92	60816.48
578.08	61017.77
578.24	61130.11
578.40	61347.78
578.56	61300.97
578.72	60879.67
578.88	61116.07
579.04	61237.78
579.21	61106.71
579.37	61116.07
579.53	61080.96
579.69	60982.66
579.85	61031.81
580.01	61244.80
580.17	60949.89
580.33	61205.01
580.49	61453.11
580.65	61106.71
580.82	61176.92
580.98	60994.36
581.14	60992.02
581.30	61153.52
581.46	61050.53
581.62	61186.28
581.78	61064.58
581.94	61408.64
582.10	61200.33
582.26	61066.92
582.42	61167.56
582.58	61233.10
582.74	61340.76
582.90	61214.37
583.06	61237.78
583.22	61123.09
583.38	61158.20
583.54	61226.07
583.70	61223.73
583.86	61083.30
584.02	60992.02
584.18	61312.67
584.34	61226.07
584.50	61223.73
584.66	61034.15
584.82	60975.64
584.98	61305.65
585.14	61343.10
585.30	61104.37
585.46	61193.31
585.62	61200.33
585.78	61240.12
585.94	61205.01
586.10	61413.32
586.26	61265.86
586.42	61305.65
586.58	61396.93
586.74	61331.40
586.90	61076.28
587.06	61130.11
587.22	61354.80
587.38	61333.74
587.54	61439.06
587.70	61359.48
587.86	61371.19
588.02	61371.19
588.18	61432.04
588.34	61137.13
588.49	61242.46
