SpectraSuite Data File
++++++++++++++++++++++++++++++++++++
Date: Fri Oct 25 11:22:30 EDT 2013
User: price-jones
Dark Spectrum Present: No
Reference Spectrum Present: No
Number of Sampled Component Spectra: 1
Spectrometers: USB2+H05261
Integration Time (usec): 100000 (USB2+H05261)
Spectra Averaged: 1 (USB2+H05261)
Boxcar Smoothing: 0 (USB2+H05261)
Correct for Electrical Dark: No (USB2+H05261)
Strobe/Lamp Enabled: No (USB2+H05261)
Correct for Detector Non-linearity: No (USB2+H05261)
Correct for Stray Light: No (USB2+H05261)
Number of Pixels in Processed Spectrum: 2048
>>>>>Begin Processed Spectral Data<<<<<
365.73	224.69
365.92	224.69
366.12	224.69
366.32	168.52
366.52	88.94
366.72	201.29
366.91	93.62
367.11	145.11
367.31	77.24
367.51	126.39
367.70	74.90
367.90	133.41
368.10	191.92
368.30	117.03
368.49	135.75
368.69	110.01
368.89	56.17
369.09	138.09
369.28	227.03
369.48	163.84
369.68	100.64
369.87	175.54
370.07	163.84
370.27	238.73
370.47	320.65
370.66	561.73
370.86	737.27
371.06	606.20
371.25	648.33
371.45	631.94
371.65	748.97
371.84	653.01
372.04	624.92
372.24	648.33
372.44	688.12
372.63	727.91
372.83	826.21
373.03	711.52
373.22	837.91
373.42	791.10
373.62	849.61
373.81	819.19
374.01	805.14
374.21	772.38
374.40	786.42
374.60	842.59
374.79	809.83
374.99	889.40
375.19	833.23
375.38	828.55
375.58	772.38
375.78	858.98
375.97	889.40
376.17	791.10
376.37	826.21
376.56	894.08
376.76	844.93
376.95	891.74
377.15	924.51
377.35	821.53
377.54	926.85
377.74	931.53
377.93	926.85
378.13	812.17
378.33	992.39
378.52	842.59
378.72	940.90
378.91	1008.77
379.11	905.79
379.31	1001.75
379.50	964.30
379.70	992.39
379.89	896.43
380.09	903.45
380.28	954.94
380.48	994.73
380.68	987.71
380.87	983.02
381.07	1039.20
381.26	992.39
381.46	926.85
381.65	1018.13
381.85	1006.43
382.04	1022.81
382.24	1071.97
382.43	1076.65
382.63	1053.24
382.83	959.62
383.02	1114.10
383.22	1104.73
383.41	1118.78
383.61	1123.46
383.80	1163.25
384.00	1172.61
384.19	1172.61
384.39	1137.50
384.58	1142.18
384.78	1151.54
384.97	1146.86
385.17	1142.18
385.36	1249.85
385.56	1174.95
385.75	1165.59
385.95	1188.99
386.14	1160.91
386.34	1233.46
386.53	1160.91
386.72	1198.35
386.92	1273.25
387.11	1231.12
387.31	1280.27
387.50	1289.64
387.70	1219.42
387.89	1259.21
388.09	1352.83
388.28	1247.51
388.48	1338.79
388.67	1371.55
388.86	1268.57
389.06	1308.36
389.25	1416.02
389.45	1348.15
389.64	1352.83
389.84	1268.57
390.03	1359.85
390.22	1406.66
390.42	1460.49
390.61	1352.83
390.81	1266.23
391.00	1458.15
391.19	1462.83
391.39	1462.83
391.58	1462.83
391.78	1446.45
391.97	1448.79
392.16	1502.62
392.36	1558.80
392.55	1502.62
392.75	1600.93
392.94	1600.93
393.13	1488.58
393.33	1479.22
393.52	1549.43
393.71	1561.14
393.91	1516.67
394.10	1598.59
394.29	1624.33
394.49	1600.93
394.68	1750.72
394.88	1614.97
395.07	1638.38
395.26	1732.00
395.46	1680.50
395.65	1626.67
395.84	1722.63
396.04	1816.26
396.23	1729.66
396.42	1732.00
396.62	1839.66
396.81	1727.32
397.00	1830.30
397.19	1795.19
397.39	1804.55
397.58	1820.94
397.77	1809.23
397.97	1895.83
398.16	1916.90
398.35	1926.26
398.55	1966.05
398.74	1856.04
398.93	2064.35
399.12	1942.64
399.32	1865.41
399.51	1921.58
399.70	1970.73
399.90	1909.88
400.09	2120.53
400.28	2143.93
400.47	2073.71
400.67	2087.76
400.86	2134.57
401.05	2083.08
401.24	2172.02
401.44	2146.27
401.63	2150.95
401.82	2195.42
402.01	2193.08
402.21	2115.84
402.40	2045.63
402.59	2214.15
402.78	2239.89
402.97	2284.36
403.17	2279.68
403.36	2237.55
403.55	2221.17
403.74	2303.09
403.93	2305.43
404.13	2422.45
404.32	2380.32
404.51	2321.81
404.70	2401.39
404.89	2392.03
405.09	2511.39
405.28	2583.95
405.47	2471.61
405.66	2560.55
405.85	2502.03
406.05	2534.80
406.24	2644.81
406.43	2567.57
406.62	2644.81
406.81	2647.15
407.00	2642.46
407.20	2637.78
407.39	2635.44
407.58	2708.00
407.77	2726.72
407.96	2768.85
408.15	2740.77
408.34	2785.24
408.54	2918.65
408.73	2829.71
408.92	2888.22
409.11	2881.20
409.30	2895.24
409.49	2956.10
409.68	2946.73
409.87	2944.39
410.07	3077.80
410.26	3030.99
410.45	3028.65
410.64	3091.85
410.83	3042.70
411.02	3176.11
411.21	3141.00
411.40	3192.49
411.59	3248.66
411.78	3129.30
411.98	3300.16
412.17	3255.69
412.36	3400.80
412.55	3489.74
412.74	3433.57
412.93	3471.01
413.12	3433.57
413.31	3541.23
413.50	3517.83
413.69	3559.95
413.88	3534.21
414.07	3627.83
414.26	3646.55
414.45	3665.28
414.64	3669.96
414.83	3707.41
415.02	3847.84
415.22	3868.91
415.41	3990.61
415.60	3953.16
415.79	3967.21
415.98	3929.76
416.17	3953.16
416.36	3882.95
416.55	3995.29
416.74	4102.96
416.93	4086.58
417.12	4065.51
417.31	4142.75
417.50	4210.62
417.69	4325.31
417.88	4379.14
418.07	4236.37
418.26	4397.87
418.45	4372.12
418.64	4472.76
418.83	4381.48
419.02	4379.14
419.21	4498.51
419.39	4716.18
419.58	4482.13
419.77	4475.10
419.96	4526.60
420.15	4547.66
420.34	4557.02
420.53	4538.30
420.72	4695.11
420.91	4786.40
421.10	4865.97
421.29	4795.76
421.48	4692.77
421.67	4711.50
421.86	4802.78
422.05	4980.66
422.24	4830.87
422.43	4968.96
422.61	5001.72
422.80	5069.60
422.99	4997.04
423.18	4971.30
423.37	4880.02
423.56	4833.21
423.75	5025.13
423.94	4903.42
424.13	4748.95
424.32	4823.84
424.50	5071.94
424.69	5153.86
424.88	5039.17
425.07	5060.24
425.26	4875.34
425.45	5055.56
425.64	4945.55
425.83	4940.87
426.01	5064.92
426.20	5158.54
426.39	5125.77
426.58	4987.68
426.77	5055.56
426.96	5111.73
427.15	5259.18
427.33	5336.42
427.52	5289.61
427.71	5268.55
427.90	5275.57
428.09	5366.85
428.28	5313.02
428.46	5359.83
428.65	5397.28
428.84	5467.49
429.03	5540.05
429.22	5483.88
429.40	5401.96
429.59	5582.18
429.78	5385.57
429.97	5341.10
430.16	5621.97
430.34	5795.17
430.53	5657.07
430.72	5722.61
430.91	5579.84
431.10	5750.70
431.28	5652.39
431.47	5834.96
431.66	5886.45
431.85	5837.30
432.03	6136.88
432.22	6061.99
432.41	6001.13
432.60	6050.28
432.79	6232.85
432.97	5970.71
433.16	6001.13
433.35	6118.16
433.54	6047.94
433.72	6179.01
433.91	6164.97
434.10	6328.81
434.28	6162.63
434.47	6272.64
434.66	6324.13
434.85	6333.49
435.03	6307.74
435.22	6132.20
435.41	6586.27
435.59	6438.81
435.78	6532.44
435.97	6583.93
436.16	6516.05
436.34	6324.13
436.53	6436.47
436.72	6623.72
436.90	6616.69
437.09	6794.58
437.28	6726.70
437.46	6743.08
437.65	6679.89
437.84	6855.43
438.02	6789.89
438.21	6913.94
438.40	6892.88
438.58	6906.92
438.77	7112.89
438.96	7206.51
439.14	7215.87
439.33	7316.51
439.52	7316.51
439.70	7300.13
439.89	7543.55
440.08	7496.74
440.26	7510.78
440.45	7293.11
440.63	7658.23
440.82	7714.41
441.01	7641.85
441.19	7899.31
441.38	7833.77
441.57	7896.97
441.75	8051.44
441.94	8021.02
442.12	7990.59
442.31	8184.85
442.50	8241.03
442.68	8114.64
442.87	8046.76
443.05	8184.85
443.24	8313.58
443.43	8217.62
443.61	8322.94
443.80	8699.77
443.98	7896.97
444.17	7719.09
444.35	8222.30
444.54	8395.50
444.73	8292.52
444.91	8428.27
445.10	8404.86
445.28	8463.38
445.47	8278.47
445.65	8500.83
445.84	8381.46
446.02	8531.25
446.21	8301.88
446.39	8376.78
446.58	8655.30
446.77	8650.62
446.95	8257.41
447.14	8613.17
447.32	8514.87
447.51	8667.00
447.69	8690.41
447.88	8587.43
448.06	8538.27
448.25	8650.62
448.43	8575.72
448.62	8704.45
448.80	8674.03
448.99	8816.80
449.17	8805.10
449.36	8671.68
449.54	8879.99
449.73	8901.06
449.91	9011.06
450.10	9071.92
450.28	9104.68
450.46	9181.92
450.65	9067.24
450.83	9235.75
451.02	8997.02
451.20	9327.03
451.39	9109.36
451.57	9163.20
451.76	9137.45
451.94	9338.74
452.13	9406.61
452.31	9439.38
452.49	9322.35
452.68	9509.60
452.86	9315.33
453.05	9603.22
453.23	9731.95
453.42	9467.47
453.60	9343.42
453.78	9753.01
453.97	9549.39
454.15	9647.69
454.34	9446.40
454.52	9755.35
454.70	9792.80
454.89	9970.68
455.07	9795.14
455.26	9973.02
455.44	10047.92
455.62	10104.09
455.81	10216.44
455.99	10190.69
456.17	9989.41
456.36	10272.61
456.54	10431.77
456.73	10354.53
456.91	10462.19
457.09	10572.20
457.28	10743.06
457.46	10455.17
457.64	10473.90
457.83	10670.50
458.01	10274.95
458.19	10714.97
458.38	10609.65
458.56	10750.08
458.74	10773.49
458.93	10773.49
459.11	10733.70
459.29	10780.51
459.48	10946.69
459.66	10902.22
459.84	10960.73
460.03	11302.45
460.21	11075.42
460.39	11042.65
460.57	11225.21
460.76	11272.02
460.94	11243.93
461.12	11442.88
461.31	11143.29
461.49	11344.58
461.67	11325.85
461.85	11566.93
462.04	11449.90
462.22	11393.73
462.40	11658.21
462.59	11651.19
462.77	11454.58
462.95	11674.59
463.13	11698.00
463.32	11587.99
463.50	11758.85
463.68	11910.99
463.86	11901.62
464.05	11805.66
464.23	11798.64
464.41	12198.87
464.59	11819.71
464.78	12105.25
464.96	11955.46
465.14	11929.71
465.32	12252.70
465.50	12308.88
465.69	12093.55
465.87	12074.82
466.05	12205.89
466.23	12210.57
466.41	12276.11
466.60	12568.68
466.78	12283.13
466.96	12091.21
467.14	12463.35
467.32	12709.11
467.51	12725.49
467.69	12238.66
467.87	12505.48
468.05	12636.55
468.23	12643.57
468.41	12615.49
468.60	12844.86
468.78	12938.48
468.96	12629.53
469.14	12875.29
469.32	13144.45
469.50	13001.68
469.69	13275.52
469.87	13570.43
470.05	13322.33
470.23	13221.69
470.41	13329.35
470.59	13411.27
470.77	13275.52
470.95	13528.30
471.14	13820.86
471.32	13413.61
471.50	13741.29
471.68	14085.34
471.86	13804.48
472.04	13919.17
472.22	14169.60
472.40	13825.54
472.58	13963.64
472.77	14120.45
472.95	14211.73
473.13	14846.02
473.31	14080.66
473.49	14555.79
473.67	14223.44
473.85	14637.71
474.03	15016.88
474.21	14960.70
474.39	15183.06
474.57	14932.62
474.75	14951.34
474.93	14944.32
475.12	15213.48
475.30	15494.35
475.48	15117.52
475.66	15211.14
475.84	15459.24
476.02	15480.30
476.20	15503.71
476.38	15686.27
476.56	16175.44
476.74	16173.10
476.92	16006.92
477.10	16135.65
477.28	16475.03
477.46	16444.60
477.64	16421.20
477.82	16596.74
478.00	17135.06
478.18	17003.99
478.36	17298.90
478.54	17586.79
478.72	17319.96
478.90	17696.79
479.08	17755.30
479.26	17942.55
479.44	18300.65
479.62	18113.41
479.80	18436.40
479.98	18249.16
480.16	18740.67
480.34	18548.75
480.52	18757.05
480.70	19016.85
480.88	18574.49
481.06	18965.36
481.24	19243.88
481.41	19353.89
481.59	19531.77
481.77	19700.29
481.95	19721.35
482.13	20098.18
482.31	20128.61
482.49	20814.38
482.67	20482.03
482.85	20428.20
483.03	20765.23
483.21	21092.91
483.39	21359.73
483.57	21055.46
483.74	21612.51
483.92	21371.43
484.10	21497.82
484.28	22054.87
484.46	22427.01
484.64	22562.76
484.82	22230.41
485.00	22534.68
485.18	22981.72
485.35	23335.14
485.53	23068.32
485.71	23623.03
485.89	24023.26
486.07	23583.24
486.25	23714.31
486.43	23672.18
486.61	24327.53
486.78	24093.47
486.96	24306.46
487.14	24779.25
487.32	24879.89
487.50	25172.46
487.68	25280.13
487.85	25610.14
488.03	25855.90
488.21	26415.29
488.39	26087.61
488.57	26419.97
488.75	26593.17
488.92	27028.51
489.10	27101.06
489.28	26988.72
489.46	27594.92
489.64	27381.93
489.81	28271.33
489.99	28156.64
490.17	28203.46
490.35	28439.85
490.53	28657.52
490.70	29144.35
490.88	28334.53
491.06	29078.82
491.24	29230.95
491.41	29502.45
491.59	29748.21
491.77	29612.46
491.95	29785.66
492.13	30167.16
492.30	30307.60
492.48	30742.94
492.66	30719.53
492.84	30562.72
493.01	31084.65
493.19	30866.98
493.37	31662.77
493.54	31686.17
493.72	31929.59
493.90	31718.94
494.08	32383.65
494.25	32273.65
494.43	32374.29
494.61	32804.95
494.79	32929.00
494.96	32978.15
495.14	33193.48
495.32	33631.16
495.49	33593.71
495.67	33516.47
495.85	34143.74
496.02	34380.13
496.20	34019.69
496.38	34522.90
496.55	34160.12
496.73	35552.74
496.91	34953.56
497.09	35124.42
497.26	35019.10
497.44	35747.00
497.62	35924.88
497.79	36088.72
497.97	35938.93
498.14	36086.38
498.32	36507.68
498.50	36870.46
498.67	36938.33
498.85	37041.32
499.03	36943.02
499.20	37200.47
499.38	37387.72
499.56	37544.53
499.73	37495.38
499.91	37958.81
500.08	38206.90
500.26	37907.32
500.44	38080.52
500.61	38361.38
500.79	38408.19
500.97	38534.58
501.14	39269.51
501.32	39077.58
501.49	38827.15
501.67	39058.86
501.84	39522.29
502.02	39344.41
502.20	39398.24
502.37	40055.93
502.55	39793.79
502.72	39824.22
502.90	40076.99
503.07	40016.14
503.25	40168.27
503.43	40201.04
503.60	40612.98
503.78	40643.40
503.95	40832.99
504.13	41020.23
504.30	40610.64
504.48	40884.48
504.65	41544.51
504.83	41586.64
505.01	41904.95
505.18	41659.20
505.36	42160.07
505.53	41787.92
505.71	42085.17
505.88	42354.33
506.06	41897.93
506.23	42333.27
506.41	42546.26
506.58	42824.78
506.76	42761.59
506.93	42850.53
507.11	42824.78
507.28	43269.48
507.46	43299.91
507.63	43110.33
507.81	44105.06
507.98	43386.51
508.16	43777.38
508.33	44179.95
508.50	44245.49
508.68	44095.69
508.85	44814.24
509.03	44346.13
509.20	44210.38
509.38	44500.61
509.55	44603.59
509.73	44875.09
509.90	45141.91
510.08	44975.73
510.25	45195.74
510.42	45345.54
510.60	45418.10
510.77	45640.45
510.95	45682.58
511.12	45581.93
511.30	45715.34
511.47	46043.02
511.64	46099.19
511.82	46553.26
511.99	46036.00
512.17	46487.72
512.34	46693.69
512.51	47014.34
512.69	47061.15
512.86	46909.02
513.04	47185.20
513.21	47274.14
513.38	47049.45
513.56	47168.82
513.73	47557.35
513.90	47330.31
514.08	47789.06
514.25	47634.58
514.43	47978.64
514.60	48196.31
514.77	47767.99
514.95	48425.68
515.12	48133.12
515.29	48254.82
515.47	48769.74
515.64	48411.64
515.81	48472.49
515.99	48556.75
516.16	48858.68
516.33	48931.24
516.51	48952.30
516.68	49064.65
516.85	48788.47
517.03	49043.59
517.20	49301.04
517.37	49340.83
517.54	49132.53
517.72	49504.67
517.89	49485.95
518.06	49682.55
518.24	49350.20
518.41	49748.09
518.58	49673.19
518.75	49614.68
518.93	49993.84
519.10	49670.85
519.27	50253.64
519.45	50415.14
519.62	50344.92
519.79	50197.47
519.96	50330.88
520.14	50773.24
520.31	50347.26
520.48	51093.89
520.65	51040.06
520.83	50923.04
521.00	51250.71
521.17	50927.72
521.34	51068.15
521.52	51086.87
521.69	51239.01
521.86	51171.13
522.03	51569.02
522.20	51866.27
522.38	51704.77
522.55	51980.96
522.72	51498.81
522.89	51885.00
523.07	51924.78
523.24	51889.68
523.41	52133.09
523.58	51634.56
523.75	52231.40
523.92	52449.06
524.10	52268.84
524.27	52371.83
524.44	52556.73
524.61	52591.84
524.78	52439.70
524.96	52629.29
525.13	52594.18
525.30	53158.25
525.47	52783.76
525.64	52992.07
525.81	53169.95
525.98	53106.76
526.16	52825.89
526.33	52896.11
526.50	53481.24
526.67	53078.67
526.84	53436.77
527.01	53389.96
527.18	53411.02
527.36	53361.87
527.53	53661.46
527.70	53752.74
527.87	53724.66
528.04	53551.46
528.21	53661.46
528.38	53628.69
528.55	53858.07
528.72	53546.78
528.89	53923.60
529.07	53612.31
529.24	53853.39
529.41	54040.63
529.58	54075.74
529.75	54342.56
529.92	54185.74
530.09	54394.05
530.26	54232.55
530.43	54520.44
530.60	54169.36
530.77	54335.54
530.94	54639.81
531.11	54300.43
531.28	54433.84
531.46	54838.75
531.63	54953.44
531.80	54609.38
531.97	54611.72
532.14	54897.27
532.31	54897.27
532.48	54695.98
532.65	54923.01
532.82	54873.86
532.99	55089.19
533.16	55028.34
533.33	55344.31
533.50	55557.30
533.67	55295.16
533.84	55283.45
534.01	55136.00
534.18	55440.27
534.35	55679.00
534.52	55435.59
534.69	55854.54
534.86	55693.05
535.03	55346.65
535.20	55601.77
535.37	55576.02
535.54	55739.86
535.71	55311.54
535.88	55643.90
536.05	55880.29
536.22	55915.40
536.38	55980.93
536.55	55931.78
536.72	55756.24
536.89	55948.17
537.06	55707.09
537.23	56102.64
537.40	56069.87
537.57	56254.78
537.74	55992.64
537.91	56360.10
538.08	56451.38
538.25	55891.99
538.42	56392.87
538.59	56362.44
538.75	56250.09
538.92	56306.27
539.09	56582.45
539.26	56647.99
539.43	56577.77
539.60	56692.46
539.77	56498.19
539.94	56811.82
540.11	56713.52
540.28	56961.62
540.44	56647.99
540.61	56835.23
540.78	56619.90
540.95	56650.33
541.12	56814.16
541.29	56877.36
541.46	57125.46
541.62	57003.75
541.79	57073.96
541.96	56633.94
542.13	56910.13
542.30	57099.71
542.47	57097.37
542.63	57045.88
542.80	57104.39
542.97	57406.32
543.14	57558.45
543.31	57631.01
543.48	57230.78
543.64	57570.16
543.81	57605.26
543.98	57799.53
544.15	57649.74
544.32	57993.79
544.48	57998.48
544.65	57748.04
544.82	57530.37
544.99	57677.82
545.16	57755.06
545.32	57839.32
545.49	57691.86
545.66	57982.09
545.83	57977.41
546.00	58129.54
546.16	58007.84
546.33	57984.43
546.50	57733.99
546.67	58061.67
546.83	57626.33
547.00	57918.90
547.17	58141.25
547.34	58314.45
547.50	58131.89
547.67	58089.76
547.84	58410.41
548.00	58370.62
548.17	58529.78
548.34	58277.00
548.51	58522.76
548.67	58672.55
548.84	58497.01
549.01	58541.48
549.18	58618.72
549.34	58660.85
549.51	58597.65
549.68	58705.32
549.84	58791.92
550.01	58857.45
550.18	58333.17
550.34	58918.31
550.51	58843.41
550.68	58738.08
550.84	58230.19
551.01	58930.01
551.18	58670.21
551.34	58801.28
551.51	58972.14
551.68	58705.32
551.84	58939.37
552.01	58862.13
552.18	59021.29
552.34	58780.21
552.51	59157.04
552.68	58944.05
552.84	58986.18
553.01	58983.84
553.18	59140.66
553.34	59208.53
553.51	59243.64
553.67	58876.18
553.84	59150.02
554.01	59241.30
554.17	59302.15
554.34	59063.42
554.51	59337.26
554.67	59524.50
554.84	59470.67
555.00	59187.47
555.17	59330.24
555.33	59283.43
555.50	59264.70
555.67	59330.24
555.83	59283.43
556.00	59465.99
556.16	59833.46
556.33	59543.23
556.50	59545.57
556.66	59711.75
556.83	59381.73
556.99	59655.57
557.16	59896.65
557.32	59831.11
557.49	59728.13
557.65	59437.90
557.82	59767.92
557.98	59746.86
558.15	59849.84
558.32	59744.51
558.48	59660.26
558.65	60048.78
558.81	59875.58
558.98	59788.98
559.14	60023.04
559.31	59969.21
559.47	60102.62
559.64	60151.77
559.80	59948.14
559.97	60163.47
560.13	59756.22
560.30	59966.87
560.46	59997.29
560.63	60100.28
560.79	59976.23
560.96	59999.63
561.12	60320.29
561.29	60313.26
561.45	60306.24
561.61	60179.85
561.78	60095.60
561.94	60076.87
562.11	60177.51
562.27	60135.38
562.44	60097.94
562.60	60423.27
562.77	60224.32
562.93	60280.50
563.10	60186.88
563.26	60175.17
563.42	60582.43
563.59	60409.23
563.75	60289.86
563.92	60296.88
564.08	60186.88
564.24	60474.76
564.41	60280.50
564.57	60427.95
564.74	60519.23
564.90	60411.57
565.07	60406.89
565.23	60430.29
565.39	60334.33
565.56	60339.01
565.72	60416.25
565.88	60453.70
566.05	60324.97
566.21	60584.77
566.38	60584.77
566.54	60301.56
566.70	60662.00
566.87	60645.62
567.03	60552.00
567.19	60711.16
567.36	60603.49
567.52	60292.20
567.68	60828.18
567.85	60725.20
568.01	60685.41
568.17	60680.73
568.34	60750.94
568.50	60535.62
568.66	60624.56
568.83	60767.33
568.99	60718.18
569.15	60666.69
569.32	60631.58
569.48	60650.30
569.64	60968.61
569.81	60804.78
569.97	60671.37
570.13	60755.63
570.30	60554.34
570.46	60989.68
570.62	60877.33
570.78	60882.02
570.95	60795.42
571.11	60961.59
571.27	60626.90
571.43	60858.61
571.60	60989.68
571.76	60692.43
571.92	61029.47
572.09	60926.49
572.25	60743.92
572.41	60718.18
572.57	60832.86
572.74	61069.26
572.90	60835.20
573.06	60931.17
573.22	60800.10
573.38	61022.45
573.55	60942.87
573.71	60999.04
573.87	60966.27
574.03	60811.80
574.20	60907.76
574.36	60889.04
574.52	61055.21
574.68	61165.22
574.84	61247.14
575.01	61113.73
575.17	61001.38
575.33	60807.12
575.49	60910.10
575.65	61087.98
575.82	61078.62
575.98	61151.18
576.14	61219.05
576.30	61134.79
576.46	61095.00
576.62	60956.91
576.79	61090.32
576.95	60863.29
577.11	61153.52
577.27	60968.61
577.43	61083.30
577.59	60905.42
577.75	60769.67
577.92	61043.51
578.08	61123.09
578.24	61020.11
578.40	61298.63
578.56	61329.06
578.72	60926.49
578.88	61137.13
579.04	61277.57
579.21	61235.44
579.37	61116.07
579.53	61240.12
579.69	60963.93
579.85	61066.92
580.01	61125.43
580.17	61219.05
580.33	61247.14
580.49	61247.14
580.65	61261.18
580.82	61120.75
580.98	61104.37
581.14	61286.93
581.30	61396.93
581.46	61212.03
581.62	61095.00
581.78	61233.10
581.94	61235.44
582.10	61179.26
582.26	61221.39
582.42	61109.05
582.58	61116.07
582.74	61233.10
582.90	61137.13
583.06	61169.90
583.22	61258.84
583.38	61340.76
583.54	61310.33
583.70	61305.65
583.86	61228.41
584.02	61151.18
584.18	61207.35
584.34	61265.86
584.50	61307.99
584.66	61127.77
584.82	61127.77
584.98	61305.65
585.14	61270.54
585.30	61134.79
585.46	61230.75
585.62	61403.95
585.78	61520.98
585.94	61230.75
586.10	61478.85
586.26	61244.80
586.42	61511.62
586.58	61275.22
586.74	61338.42
586.90	61333.74
587.06	61317.35
587.22	61499.92
587.38	61233.10
587.54	61539.71
587.70	61511.62
587.86	61371.19
588.02	61312.67
588.18	61654.39
588.34	61439.06
588.49	61296.29
