SpectraSuite Data File
++++++++++++++++++++++++++++++++++++
Date: Fri Oct 25 10:47:39 EDT 2013
User: price-jones
Dark Spectrum Present: No
Reference Spectrum Present: No
Number of Sampled Component Spectra: 1
Spectrometers: USB2+H05261
Integration Time (usec): 100000 (USB2+H05261)
Spectra Averaged: 1 (USB2+H05261)
Boxcar Smoothing: 0 (USB2+H05261)
Correct for Electrical Dark: No (USB2+H05261)
Strobe/Lamp Enabled: No (USB2+H05261)
Correct for Detector Non-linearity: No (USB2+H05261)
Correct for Stray Light: No (USB2+H05261)
Number of Pixels in Processed Spectrum: 2048
>>>>>Begin Processed Spectral Data<<<<<
365.73	93.62
365.92	93.62
366.12	93.62
366.32	72.56
366.52	21.06
366.72	86.60
366.91	2.34
367.11	9.36
367.31	23.41
367.51	2.34
367.70	86.60
367.90	35.11
368.10	9.36
368.30	65.54
368.49	7.02
368.69	102.98
368.89	49.15
369.09	25.75
369.28	79.58
369.48	53.83
369.68	86.60
369.87	72.56
370.07	105.32
370.27	138.09
370.47	126.39
370.66	367.46
370.86	423.64
371.06	519.60
371.25	528.96
371.45	458.74
371.65	566.41
371.84	463.43
372.04	482.15
372.24	437.68
372.44	489.17
372.63	475.13
372.83	552.37
373.03	533.64
373.22	414.27
373.42	477.47
373.62	465.77
373.81	580.45
374.01	524.28
374.21	624.92
374.40	491.51
374.60	554.71
374.79	547.69
374.99	613.22
375.19	514.92
375.38	573.43
375.58	566.41
375.78	528.96
375.97	533.64
376.17	587.47
376.37	547.69
376.56	620.24
376.76	671.73
376.95	571.09
377.15	566.41
377.35	596.84
377.54	587.47
377.74	627.26
377.93	599.18
378.13	634.29
378.33	653.01
378.52	624.92
378.72	667.05
378.91	585.13
379.11	575.77
379.31	620.24
379.50	645.99
379.70	685.78
379.89	671.73
380.09	683.44
380.28	648.33
380.48	596.84
380.68	681.10
380.87	702.16
381.07	716.20
381.26	596.84
381.46	727.91
381.65	716.20
381.85	697.48
382.04	690.46
382.24	739.61
382.43	702.16
382.63	655.35
382.83	664.71
383.02	702.16
383.22	819.19
383.41	711.52
383.61	730.25
383.80	746.63
384.00	671.73
384.19	746.63
384.39	763.01
384.58	791.10
384.78	777.06
384.97	814.51
385.17	809.83
385.36	795.78
385.56	744.29
385.75	727.91
385.95	751.31
386.14	807.48
386.34	816.85
386.53	828.55
386.72	725.57
386.92	760.67
387.11	772.38
387.31	816.85
387.50	788.76
387.70	798.12
387.89	875.36
388.09	821.53
388.28	772.38
388.48	777.06
388.67	807.48
388.86	870.68
389.06	917.49
389.25	882.38
389.45	891.74
389.64	943.24
389.84	943.24
390.03	966.64
390.22	898.77
390.42	903.45
390.61	908.13
390.81	891.74
391.00	908.13
391.19	952.60
391.39	999.41
391.58	990.05
391.78	985.37
391.97	992.39
392.16	887.06
392.36	1025.15
392.55	1025.15
392.75	990.05
392.94	931.53
393.13	987.71
393.33	940.90
393.52	877.70
393.71	1041.54
393.91	1053.24
394.10	1029.84
394.29	1114.10
394.49	1083.67
394.68	1214.74
394.88	1114.10
395.07	1158.57
395.26	1200.69
395.46	1153.88
395.65	1174.95
395.84	1165.59
396.04	1123.46
396.23	1121.12
396.42	1097.71
396.62	1170.27
396.81	1172.61
397.00	1184.31
397.19	1284.95
397.39	1249.85
397.58	1273.25
397.77	1366.87
397.97	1301.34
398.16	1310.70
398.35	1329.42
398.55	1334.11
398.74	1287.29
398.93	1451.13
399.12	1348.15
399.32	1268.57
399.51	1366.87
399.70	1425.39
399.90	1313.04
400.09	1530.71
400.28	1476.88
400.47	1362.19
400.67	1500.28
400.86	1504.96
401.05	1441.77
401.24	1444.11
401.44	1554.12
401.63	1540.07
401.82	1453.47
402.01	1502.62
402.21	1643.06
402.40	1516.67
402.59	1610.29
402.78	1460.49
402.97	1593.90
403.17	1654.76
403.36	1629.01
403.55	1621.99
403.74	1675.82
403.93	1654.76
404.13	1584.54
404.32	1685.19
404.51	1673.48
404.70	1762.42
404.89	1757.74
405.09	1837.32
405.28	1795.19
405.47	1694.55
405.66	1914.56
405.85	1888.81
406.05	1846.68
406.24	1799.87
406.43	1834.98
406.62	1856.04
406.81	1991.80
407.00	1956.69
407.20	1891.15
407.39	1846.68
407.58	1909.88
407.77	1916.90
407.96	1942.64
408.15	1895.83
408.34	1970.73
408.54	2045.63
408.73	2106.48
408.92	2040.95
409.11	2078.40
409.30	2078.40
409.49	2078.40
409.68	2052.65
409.87	2076.06
410.07	2157.97
410.26	2148.61
410.45	2221.17
410.64	2303.09
410.83	2165.00
411.02	2312.45
411.21	2230.53
411.40	2286.70
411.59	2352.24
411.78	2230.53
411.98	2342.88
412.17	2375.64
412.36	2324.15
412.55	2396.71
412.74	2605.02
412.93	2509.05
413.12	2497.35
413.31	2658.85
413.50	2527.78
413.69	2539.48
413.88	2665.87
414.07	2537.14
414.26	2656.51
414.45	2672.89
414.64	2658.85
414.83	2600.34
415.02	2705.66
415.22	2787.58
415.41	2916.31
415.60	2768.85
415.79	2796.94
415.98	3047.38
416.17	2958.44
416.36	2846.09
416.55	2846.09
416.74	2984.18
416.93	2916.31
417.12	2935.03
417.31	3080.14
417.50	2967.80
417.69	3136.32
417.88	3103.55
418.07	3122.27
418.26	3166.74
418.45	3080.14
418.64	3243.98
418.83	3229.94
419.02	3248.66
419.21	3262.71
419.39	3157.38
419.58	3070.78
419.77	3133.98
419.96	3330.58
420.15	3314.20
420.34	3283.77
420.53	3513.14
420.72	3522.51
420.91	3377.39
421.10	3358.67
421.29	3407.82
421.48	3478.04
421.67	3482.72
421.86	3349.31
422.05	3564.64
422.24	3471.01
422.43	3431.23
422.61	3613.79
422.80	3625.49
422.99	3632.51
423.18	3627.83
423.37	3674.64
423.56	3597.40
423.75	3669.96
423.94	3473.36
424.13	3337.60
424.32	3529.53
424.50	3679.32
424.69	3609.11
424.88	3644.21
425.07	3644.21
425.26	3454.63
425.45	3559.95
425.64	3684.00
425.83	3564.64
426.01	3609.11
426.20	3768.26
426.39	3508.46
426.58	3707.41
426.77	3609.11
426.96	3740.18
427.15	3630.17
427.33	3646.55
427.52	3805.71
427.71	3698.05
427.90	3742.52
428.09	3854.86
428.28	3777.62
428.46	3693.37
428.65	3906.35
428.84	3953.16
429.03	3833.80
429.22	3714.43
429.40	3768.26
429.59	3868.91
429.78	3705.07
429.97	3667.62
430.16	3815.07
430.34	3864.22
430.53	3878.27
430.72	4004.66
430.91	3906.35
431.10	3845.50
431.28	4170.83
431.47	4196.58
431.66	4210.62
431.85	4203.60
432.03	4131.05
432.22	4227.01
432.41	4276.16
432.60	4182.54
432.79	4098.28
432.97	4327.65
433.16	4355.74
433.35	4175.52
433.54	4248.07
433.72	4369.78
433.91	4421.27
434.10	4311.27
434.28	4344.03
434.47	4435.32
434.66	4440.00
434.85	4278.50
435.03	4442.34
435.22	4622.56
435.41	4720.86
435.59	4540.64
435.78	4636.60
435.97	4699.80
436.16	4617.88
436.34	4669.37
436.53	4744.27
436.72	4692.77
436.90	4557.02
437.09	4643.62
437.28	4676.39
437.46	4746.61
437.65	4636.60
437.84	4821.50
438.02	4847.25
438.21	4786.40
438.40	4753.63
438.58	4875.34
438.77	4926.83
438.96	5069.60
439.14	5076.62
439.33	5050.88
439.52	5165.56
439.70	5233.44
439.89	5191.31
440.08	5212.37
440.26	5369.19
440.45	5320.04
440.63	5287.27
440.82	5460.47
441.01	5453.45
441.19	5357.49
441.38	5568.13
441.57	5493.24
441.75	5734.31
441.94	5753.04
442.12	5724.95
442.31	5877.09
442.50	5827.93
442.68	5722.61
442.87	5549.41
443.05	5619.63
443.24	5795.17
443.43	5898.15
443.61	5856.02
443.80	6012.84
443.98	5724.95
444.17	5689.84
444.35	5928.58
444.54	5968.37
444.73	5926.24
444.91	5907.51
445.10	5944.96
445.28	5849.00
445.47	5874.74
445.65	5816.23
445.84	5977.73
446.02	6080.71
446.21	6033.90
446.39	5977.73
446.58	6139.23
446.77	6186.04
446.95	5998.79
447.14	6008.16
447.32	6223.48
447.51	6244.55
447.69	6207.10
447.88	6277.32
448.06	6207.10
448.25	6033.90
448.43	6029.22
448.62	6054.97
448.80	6094.76
448.99	6179.01
449.17	6263.27
449.36	6043.26
449.54	6324.13
449.73	6274.98
449.91	6279.66
450.10	6415.41
450.28	6483.28
450.46	6450.52
450.65	6569.88
450.83	6574.56
451.02	6492.65
451.20	6637.76
451.39	6434.13
451.57	6520.73
451.76	6504.35
451.94	6759.47
452.13	6869.47
452.31	6541.80
452.49	6469.24
452.68	6567.54
452.86	6651.80
453.05	6644.78
453.23	6548.82
453.42	6626.06
453.60	6502.01
453.78	6672.87
453.97	6792.23
454.15	6778.19
454.34	6724.36
454.52	6787.55
454.70	6909.26
454.89	6813.30
455.07	6794.58
455.26	6984.16
455.44	6869.47
455.62	6888.20
455.81	7012.24
455.99	7133.95
456.17	7061.40
456.36	7035.65
456.54	7159.70
456.73	7117.57
456.91	7410.14
457.09	7232.26
457.28	7637.17
457.46	7267.36
457.64	7445.24
457.83	7302.47
458.01	7220.55
458.19	7602.06
458.38	7351.62
458.56	7419.50
458.74	7576.31
458.93	7517.80
459.11	7470.99
459.29	7573.97
459.48	7763.56
459.66	7508.44
459.84	7541.21
460.03	7655.89
460.21	7616.10
460.39	7714.41
460.57	7655.89
460.76	7967.18
460.94	7948.46
461.12	7978.89
461.31	7953.14
461.49	7733.13
461.67	7770.58
461.85	7927.39
462.04	7932.08
462.22	8367.42
462.40	8297.20
462.59	8107.62
462.77	8210.60
462.95	8039.74
463.13	8241.03
463.32	8177.83
463.50	8259.75
463.68	8201.24
463.86	8255.07
464.05	8234.00
464.23	8386.14
464.41	8264.43
464.59	8231.66
464.78	8341.67
464.96	8367.42
465.14	8566.36
465.32	8386.14
465.50	8498.49
465.69	8596.79
465.87	8437.63
466.05	8287.84
466.23	8388.48
466.41	8411.89
466.60	8472.74
466.78	8430.61
466.96	8355.71
467.14	8505.51
467.32	8718.50
467.51	8685.73
467.69	8409.54
467.87	8512.53
468.05	8760.63
468.23	8788.71
468.41	8791.05
468.60	8835.52
468.78	8837.86
468.96	8727.86
469.14	8865.95
469.32	9032.13
469.50	8819.14
469.69	9055.53
469.87	9057.87
470.05	8950.21
470.23	9020.42
470.41	8917.44
470.59	9022.77
470.77	8940.85
470.95	9186.60
471.14	9453.42
471.32	9144.47
471.50	9605.56
471.68	9493.21
471.86	9390.23
472.04	9554.07
472.22	9621.94
472.40	9312.99
472.58	9579.81
472.77	9591.52
472.95	9729.61
473.13	9914.51
473.31	9832.59
473.49	9507.26
473.67	9792.80
473.85	9839.61
474.03	10127.50
474.21	10001.11
474.39	10052.60
474.57	10181.33
474.75	10214.10
474.93	10183.67
475.12	10178.99
475.30	10431.77
475.48	10399.00
475.66	10352.19
475.84	10366.23
476.02	10232.82
476.20	10485.60
476.38	10630.71
476.56	10572.20
476.74	10757.10
476.92	10839.02
477.10	10984.13
477.28	11197.12
477.46	10979.45
477.64	11351.60
477.82	11536.50
478.00	11559.91
478.18	11599.70
478.36	11604.38
478.54	11597.35
478.72	11548.20
478.90	11815.02
479.08	12285.47
479.26	11922.69
479.44	12053.76
479.62	12308.88
479.80	12439.95
479.98	12306.54
480.16	12641.23
480.34	12463.35
480.52	12741.88
480.70	12772.30
480.88	12561.66
481.06	12723.15
481.24	13153.81
481.41	13177.22
481.59	13235.73
481.77	13345.73
481.95	13472.12
482.13	13219.35
482.31	13376.16
482.49	13914.48
482.67	13703.84
482.85	13923.85
483.03	14104.07
483.21	14118.11
483.39	14019.81
483.57	14153.22
483.74	14171.94
483.92	14391.95
484.10	14314.72
484.28	14485.58
484.46	14757.08
484.64	15023.90
484.82	14717.29
485.00	15225.18
485.18	15316.47
485.35	15335.19
485.53	15197.10
485.71	14963.04
485.89	15576.27
486.07	15267.31
486.25	15655.84
486.43	15810.32
486.61	16044.37
486.78	16039.69
486.96	15943.73
487.14	16360.34
487.32	16395.45
487.50	16636.53
487.68	16718.45
487.85	17039.10
488.03	17291.88
488.21	17156.13
488.39	17193.58
488.57	17535.29
488.75	17338.69
488.92	17605.51
489.10	17769.35
489.28	17982.34
489.46	18178.94
489.64	18001.06
489.81	18523.00
489.99	18434.06
490.17	18635.35
490.35	18953.66
490.53	18824.93
490.70	19218.14
490.88	18930.25
491.06	19452.19
491.24	19356.23
491.41	19108.13
491.59	19295.38
491.77	19398.36
491.95	19569.22
492.13	19917.96
492.30	20311.17
492.48	20109.88
492.66	20205.84
492.84	20266.70
493.01	20662.25
493.19	20283.08
493.37	20673.95
493.54	20779.28
493.72	21088.23
493.90	21310.58
494.08	21081.21
494.25	21621.87
494.43	21362.07
494.61	21848.90
494.79	21472.07
494.96	21729.53
495.14	21659.32
495.32	21869.97
495.49	22005.72
495.67	21832.52
495.85	22796.82
496.02	22389.56
496.20	22628.30
496.38	22618.94
496.55	22974.70
496.73	23229.82
496.91	23075.34
497.09	23068.32
497.26	23365.57
497.44	23178.33
497.62	23168.96
497.79	23810.27
497.97	23311.74
498.14	23683.88
498.32	24053.69
498.50	24329.87
498.67	24395.40
498.85	24212.84
499.03	24467.96
499.20	24166.03
499.38	24346.25
499.56	24517.11
499.73	24526.47
499.91	24460.94
500.08	24627.12
500.26	24594.35
500.44	24989.90
500.61	24823.72
500.79	25076.50
500.97	24982.88
501.14	25521.20
501.32	25617.16
501.49	25008.62
501.67	25570.35
501.84	25816.11
502.02	25869.94
502.20	25781.00
502.37	26199.96
502.55	25867.60
502.72	25956.54
502.90	26015.05
503.07	26096.97
503.25	26434.01
503.43	26504.23
503.60	26529.97
503.78	26686.79
503.95	26602.53
504.13	26618.91
504.30	26965.31
504.48	26958.29
504.65	27007.44
504.83	27047.23
505.01	27496.61
505.18	27175.96
505.36	27395.97
505.53	27660.45
505.71	27770.46
505.88	27494.27
506.06	27590.24
506.23	27604.28
506.41	27349.16
506.58	28151.96
506.76	28222.18
506.93	28311.12
507.11	28011.53
507.28	28208.14
507.46	28311.12
507.63	28163.67
507.81	28144.94
507.98	28676.24
508.16	28554.54
508.33	28657.52
508.50	28648.16
508.68	29134.99
508.85	29233.29
509.03	28828.38
509.20	29191.16
509.38	29263.72
509.55	29518.84
509.73	29343.30
509.90	29319.89
510.08	29109.24
510.25	29528.20
510.42	29425.22
510.60	30015.03
510.77	29848.85
510.95	30026.73
511.12	29935.45
511.30	30162.48
511.47	30431.65
511.64	30167.16
511.82	30611.87
511.99	30363.77
512.17	30834.22
512.34	30689.10
512.51	30775.70
512.69	31012.10
512.86	31077.63
513.04	31248.49
513.21	30794.43
513.38	30749.96
513.56	31461.48
513.73	31028.48
513.90	31012.10
514.08	30866.98
514.25	31344.45
514.43	31414.67
514.60	31365.52
514.77	31515.31
514.95	31449.78
515.12	31686.17
515.29	31435.74
515.47	31819.58
515.64	32184.71
515.81	32121.51
515.99	32088.74
516.16	31913.20
516.33	31924.91
516.51	32053.64
516.68	31819.58
516.85	31873.42
517.03	32048.96
517.20	31922.57
517.37	32514.72
517.54	32341.52
517.72	32105.13
517.89	32414.08
518.06	32456.21
518.24	32580.26
518.41	32048.96
518.58	32692.60
518.75	33027.30
518.93	32762.82
519.10	33127.94
519.27	33090.49
519.45	33212.20
519.62	33844.15
519.79	33380.72
519.96	33312.84
520.14	33734.14
520.31	33474.34
520.48	33823.08
520.65	33486.04
520.83	33982.24
521.00	33935.43
521.17	34211.61
521.34	33956.49
521.52	34373.11
521.69	34281.83
521.86	34483.11
522.03	34586.10
522.20	34558.01
522.38	34478.43
522.55	34782.70
522.72	34525.24
522.89	34668.02
523.07	35180.59
523.24	34373.11
523.41	34731.21
523.58	34588.44
523.75	34951.22
523.92	35077.61
524.10	35098.67
524.27	35255.49
524.44	35433.37
524.61	35314.00
524.78	35454.44
524.96	35452.09
525.13	36196.38
525.30	35803.17
525.47	35608.91
525.64	35871.05
525.81	35859.35
525.98	36058.29
526.16	35583.16
526.33	35662.74
526.50	35927.22
526.67	35739.98
526.84	35805.52
527.01	35707.21
527.18	36226.81
527.36	36360.22
527.53	36514.70
527.70	36889.18
527.87	36259.58
528.04	36596.62
528.21	36458.52
528.38	36624.70
528.55	36875.14
528.72	36526.40
528.89	36692.58
529.07	36573.21
529.24	36833.01
529.41	37125.58
529.58	36947.70
529.75	37071.75
529.92	36896.20
530.09	36947.70
530.26	37270.69
530.43	37031.96
530.60	37193.45
530.77	37359.63
530.94	37591.34
531.11	37312.82
531.28	37467.30
531.46	37460.27
531.63	37593.68
531.80	37584.32
531.97	37984.55
532.14	37764.54
532.31	37453.25
532.48	37490.70
532.65	37914.34
532.82	37806.67
532.99	38122.65
533.16	37542.19
533.33	38115.62
533.50	38141.37
533.67	38251.38
533.84	37897.95
534.01	38225.63
534.18	38157.75
534.35	38469.04
534.52	37900.29
534.69	38623.52
534.86	38834.17
535.03	38565.01
535.20	38597.77
535.37	38981.62
535.54	38918.43
535.71	38600.12
535.88	38497.13
536.05	38880.98
536.22	38880.98
536.38	38703.10
536.55	38768.63
536.72	38899.70
536.89	38703.10
537.06	38373.08
537.23	39012.05
537.40	38717.14
537.57	38824.81
537.74	39484.84
537.91	39566.76
538.08	39040.14
538.25	39299.94
538.42	39569.10
538.59	39281.21
538.75	38602.46
538.92	39562.08
539.09	39580.80
539.26	39592.50
539.43	39454.41
539.60	39463.77
539.77	39178.23
539.94	40013.80
540.11	39861.66
540.28	39770.38
540.44	39566.76
540.61	39632.29
540.78	39515.26
540.95	40105.08
541.12	39962.31
541.29	40074.65
541.46	39606.55
541.62	40292.32
541.79	40456.16
541.96	40189.34
542.13	40161.25
542.30	40402.33
542.47	40465.52
542.63	40002.10
542.80	40931.29
542.97	40772.13
543.14	40856.39
543.31	40507.65
543.48	41462.59
543.64	41099.81
543.81	41123.21
543.98	40650.42
544.15	40648.08
544.32	41275.35
544.48	41226.20
544.65	41146.62
544.82	41270.67
544.99	40811.92
545.16	41352.58
545.32	41158.32
545.49	41301.09
545.66	41521.10
545.83	41287.05
546.00	41354.93
546.16	41340.88
546.33	41207.47
546.50	41003.85
546.67	41359.61
546.83	41436.84
547.00	41387.69
547.17	41469.61
547.34	41804.31
547.50	41923.68
547.67	41511.74
547.84	41769.20
548.00	41982.19
548.17	41858.14
548.34	42110.92
548.51	42127.30
548.67	41750.48
548.84	41853.46
549.01	41972.83
549.18	41792.61
549.34	41933.04
549.51	41965.81
549.68	42483.06
549.84	42052.41
550.01	42513.49
550.18	42131.98
550.34	42274.76
550.51	42656.26
550.68	41897.93
550.84	41560.89
551.01	42520.51
551.18	42614.13
551.34	42391.78
551.51	42497.11
551.68	42529.87
551.84	42368.38
552.01	42742.86
552.18	42197.52
552.34	42777.97
552.51	42656.26
552.68	42382.42
552.84	42981.60
553.01	42871.59
553.18	42408.17
553.34	42960.53
553.51	42557.96
553.67	42672.65
553.84	42834.14
554.01	43318.64
554.17	43084.58
554.34	43227.35
554.51	43107.99
554.67	42997.98
554.84	43208.63
555.00	43129.05
555.17	43051.81
555.33	43157.14
555.50	42965.21
555.67	43386.51
555.83	43292.89
556.00	43241.40
556.16	43587.80
556.33	43765.68
556.50	43318.64
556.66	43927.17
556.83	43014.37
556.99	43512.90
557.16	43636.95
557.32	43339.70
557.49	43276.51
557.65	43225.01
557.82	43199.27
557.98	43433.32
558.15	43241.40
558.32	43526.94
558.48	43782.06
558.65	43924.83
558.81	43531.62
558.98	43271.82
559.14	43601.84
559.31	44025.48
559.47	43601.84
559.64	44126.12
559.80	44051.22
559.97	43985.69
560.13	43594.82
560.30	43992.71
560.46	43707.16
560.63	43913.13
560.79	43770.36
560.96	44020.80
561.12	43655.67
561.29	43819.51
561.45	43798.44
561.61	43906.11
561.78	43571.41
561.94	43828.87
562.11	44039.52
562.27	43803.13
562.44	43988.03
562.60	44154.21
562.77	44222.08
562.93	44123.78
563.10	44004.41
563.26	43746.95
563.42	43999.73
563.59	43732.91
563.75	44378.90
563.92	44027.82
564.08	44519.33
564.24	44605.93
564.41	43927.17
564.57	44168.25
564.74	44128.46
564.90	44142.50
565.07	44123.78
565.23	44196.34
565.39	44311.02
565.56	44711.25
565.72	44006.75
565.88	44376.56
566.05	44226.76
566.21	44488.90
566.38	44212.72
566.54	44142.50
566.70	44226.76
566.87	44339.11
567.03	44486.56
567.19	44711.25
567.36	44542.74
567.52	44067.61
567.68	44619.97
567.85	44657.42
568.01	44652.74
568.17	44308.68
568.34	44615.29
568.50	44205.70
568.66	44041.86
568.83	44708.91
568.99	44252.51
569.15	44296.98
569.32	44243.15
569.48	44240.81
569.64	44978.07
569.81	44460.82
569.97	44411.67
570.13	44786.15
570.30	43973.98
570.46	44130.80
570.62	44301.66
570.78	44301.66
570.95	44421.03
571.11	44680.83
571.27	44655.08
571.43	44512.31
571.60	44800.19
571.76	44502.95
571.92	44491.24
572.09	44313.36
572.25	44509.97
572.41	44493.58
572.57	44774.45
572.74	45139.57
572.90	44765.09
573.06	44802.53
573.22	45106.80
573.38	44533.37
573.55	44446.77
573.71	45188.72
573.87	44828.28
574.03	44076.97
574.20	44580.18
574.36	44500.61
574.52	44779.13
574.68	44687.85
574.84	44856.37
575.01	44945.31
575.17	44596.57
575.33	44772.11
575.49	44772.11
575.65	44645.72
575.82	44715.93
575.98	44678.49
576.14	45368.94
576.30	44903.18
576.46	44605.93
576.62	44622.31
576.79	44505.29
576.95	44409.32
577.11	44793.17
577.27	44624.65
577.43	44910.20
577.59	44582.52
577.75	44926.58
577.92	44542.74
578.08	44629.34
578.24	44608.27
578.40	44921.90
578.56	44807.22
578.72	45095.10
578.88	44858.71
579.04	44741.68
579.21	44741.68
579.37	44505.29
579.53	44935.95
579.69	44538.05
579.85	44961.69
580.01	44994.46
580.17	45024.89
580.33	45083.40
580.49	44928.92
580.65	45305.75
580.82	45207.45
580.98	44828.28
581.14	44802.53
581.30	45635.77
581.46	44964.03
581.62	45001.48
581.78	44774.45
581.94	45118.51
582.10	45165.32
582.26	45170.00
582.42	44886.79
582.58	45041.27
582.74	45008.50
582.90	44957.01
583.06	44905.52
583.22	45092.76
583.38	45059.99
583.54	44907.86
583.70	44755.72
583.86	44533.37
584.02	44559.12
584.18	44985.10
584.34	44884.45
584.50	44776.79
584.66	45038.93
584.82	45223.83
584.98	45191.06
585.14	44783.81
585.30	44940.63
585.46	44811.90
585.62	44722.96
585.78	44758.06
585.94	44879.77
586.10	44285.28
586.26	45179.36
586.42	44912.54
586.58	45146.59
586.74	45174.68
586.90	45010.84
587.06	45078.72
587.22	45359.58
587.38	44502.95
587.54	44987.44
587.70	45422.78
587.86	44938.29
588.02	45256.60
588.18	45069.36
588.34	44931.26
588.49	44762.75
588.65	44907.86
588.81	44767.43
588.97	45155.96
589.13	44729.98
589.29	44732.32
589.45	44758.06
589.61	45521.08
589.77	45057.65
589.93	44893.82
590.08	45542.14
590.24	45542.14
