SpectraSuite Data File
++++++++++++++++++++++++++++++++++++
Date: Fri Oct 25 10:43:55 EDT 2013
User: price-jones
Dark Spectrum Present: No
Reference Spectrum Present: No
Number of Sampled Component Spectra: 1
Spectrometers: USB2+H05261
Integration Time (usec): 100000 (USB2+H05261)
Spectra Averaged: 1 (USB2+H05261)
Boxcar Smoothing: 0 (USB2+H05261)
Correct for Electrical Dark: No (USB2+H05261)
Strobe/Lamp Enabled: No (USB2+H05261)
Correct for Detector Non-linearity: No (USB2+H05261)
Correct for Stray Light: No (USB2+H05261)
Number of Pixels in Processed Spectrum: 2048
>>>>>Begin Processed Spectral Data<<<<<
365.73	133.41
365.92	133.41
366.12	133.41
366.32	0.00
366.52	9.36
366.72	23.41
366.91	49.15
367.11	105.32
367.31	25.75
367.51	32.77
367.70	39.79
367.90	21.06
368.10	84.26
368.30	32.77
368.49	25.75
368.69	126.39
368.89	39.79
369.09	56.17
369.28	49.15
369.48	25.75
369.68	102.98
369.87	84.26
370.07	30.43
370.27	170.86
370.47	124.05
370.66	397.89
370.86	465.77
371.06	505.56
371.25	465.77
371.45	528.96
371.65	463.43
371.84	404.91
372.04	461.09
372.24	468.11
372.44	421.30
372.63	538.32
372.83	545.34
373.03	559.39
373.22	521.94
373.42	578.11
373.62	601.52
373.81	517.26
374.01	521.94
374.21	543.00
374.40	538.32
374.60	641.31
374.79	566.41
374.99	564.07
375.19	634.29
375.38	566.41
375.58	613.22
375.78	634.29
375.97	589.82
376.17	674.07
376.37	690.46
376.56	676.41
376.76	629.60
376.95	610.88
377.15	650.67
377.35	636.63
377.54	664.71
377.74	634.29
377.93	692.80
378.13	699.82
378.33	748.97
378.52	638.97
378.72	709.18
378.91	697.48
379.11	657.69
379.31	648.33
379.50	599.18
379.70	709.18
379.89	720.88
380.09	627.26
380.28	720.88
380.48	711.52
380.68	713.86
380.87	699.82
381.07	699.82
381.26	718.54
381.46	706.84
381.65	746.63
381.85	695.14
382.04	734.93
382.24	758.33
382.43	770.04
382.63	725.57
382.83	720.88
383.02	800.46
383.22	842.59
383.41	744.29
383.61	763.01
383.80	840.25
384.00	814.51
384.19	748.97
384.39	770.04
384.58	833.23
384.78	807.48
384.97	898.77
385.17	819.19
385.36	863.66
385.56	791.10
385.75	826.21
385.95	828.55
386.14	908.13
386.34	830.89
386.53	835.57
386.72	854.30
386.92	912.81
387.11	882.38
387.31	931.53
387.50	805.14
387.70	912.81
387.89	898.77
388.09	870.68
388.28	863.66
388.48	959.62
388.67	945.58
388.86	1029.84
389.06	980.68
389.25	1062.60
389.45	1078.99
389.64	976.00
389.84	1048.56
390.03	1067.28
390.22	1078.99
390.42	1004.09
390.61	1039.20
390.81	1093.03
391.00	1104.73
391.19	1097.71
391.39	1142.18
391.58	1032.18
391.78	1025.15
391.97	1156.22
392.16	1111.75
392.36	1132.82
392.55	1036.86
392.75	1055.58
392.94	1078.99
393.13	1057.92
393.33	1062.60
393.52	1109.41
393.71	1151.54
393.91	1207.72
394.10	1186.65
394.29	1256.87
394.49	1177.29
394.68	1296.66
394.88	1301.34
395.07	1214.74
395.26	1324.74
395.46	1299.00
395.65	1310.70
395.84	1282.61
396.04	1357.51
396.23	1249.85
396.42	1210.06
396.62	1261.55
396.81	1142.18
397.00	1345.81
397.19	1378.58
397.39	1378.58
397.58	1406.66
397.77	1371.55
397.97	1500.28
398.16	1558.80
398.35	1570.50
398.55	1460.49
398.74	1582.20
398.93	1558.80
399.12	1607.95
399.32	1598.59
399.51	1523.69
399.70	1652.42
399.90	1619.65
400.09	1668.80
400.28	1734.34
400.47	1788.17
400.67	1753.06
400.86	1643.06
401.05	1717.95
401.24	1776.47
401.44	1624.33
401.63	1816.26
401.82	1748.38
402.01	1771.79
402.21	1865.41
402.40	1839.66
402.59	1846.68
402.78	1774.13
402.97	1842.00
403.17	1902.86
403.36	1891.15
403.55	1952.01
403.74	1827.96
403.93	1977.75
404.13	1982.43
404.32	1982.43
404.51	2024.56
404.70	1942.64
404.89	2012.86
405.09	2062.01
405.28	1907.54
405.47	2050.31
405.66	2054.99
405.85	2078.40
406.05	2111.16
406.24	2106.48
406.43	2160.31
406.62	2188.40
406.81	2223.51
407.00	2115.84
407.20	2211.81
407.39	2197.76
407.58	2195.42
407.77	2223.51
407.96	2260.96
408.15	2387.35
408.34	2303.09
408.54	2366.28
408.73	2366.28
408.92	2509.05
409.11	2387.35
409.30	2335.85
409.49	2347.56
409.68	2375.64
409.87	2513.74
410.07	2422.45
410.26	2490.33
410.45	2551.18
410.64	2572.25
410.83	2754.81
411.02	2633.10
411.21	2773.53
411.40	2740.77
411.59	2719.70
411.78	2719.70
411.98	2745.45
412.17	2775.88
412.36	2548.84
412.55	2810.98
412.74	2839.07
412.93	2825.03
413.12	2815.66
413.31	3070.78
413.50	2883.54
413.69	3026.31
413.88	3199.51
414.07	3038.02
414.26	2991.20
414.45	3206.53
414.64	3272.07
414.83	3112.91
415.02	3241.64
415.22	3178.45
415.41	3318.88
415.60	3410.16
415.79	3304.84
415.98	3405.48
416.17	3365.69
416.36	3386.76
416.55	3433.57
416.74	3531.87
416.93	3424.20
417.12	3487.40
417.31	3534.21
417.50	3478.04
417.69	3630.17
417.88	3604.42
418.07	3548.25
418.26	3562.30
418.45	3597.40
418.64	3672.30
418.83	3791.67
419.02	3651.24
419.21	3786.99
419.39	3716.77
419.58	3761.24
419.77	3653.58
419.96	3782.31
420.15	3946.14
420.34	3854.86
420.53	3901.67
420.72	4049.13
420.91	3932.10
421.10	4177.86
421.29	4142.75
421.48	3948.48
421.67	3904.01
421.86	4002.32
422.05	3939.12
422.24	3875.93
422.43	3859.54
422.61	3922.74
422.80	3971.89
422.99	3971.89
423.18	4114.66
423.37	4201.26
423.56	4166.15
423.75	4023.38
423.94	4072.53
424.13	3894.65
424.32	3808.05
424.50	4086.58
424.69	4180.20
424.88	4053.81
425.07	4067.85
425.26	3960.19
425.45	4173.18
425.64	3950.82
425.83	4222.33
426.01	4142.75
426.20	4114.66
426.39	4140.41
426.58	4215.30
426.77	4184.88
426.96	4229.35
427.15	4093.60
427.33	4170.83
427.52	4198.92
427.71	4301.90
427.90	4348.72
428.09	4133.39
428.28	4348.72
428.46	4276.16
428.65	4196.58
428.84	4367.44
429.03	4573.41
429.22	4283.18
429.40	4264.46
429.59	4393.19
429.78	4124.02
429.97	4039.76
430.16	4142.75
430.34	4259.78
430.53	4266.80
430.72	4287.86
430.91	4430.63
431.10	4578.09
431.28	4800.44
431.47	4720.86
431.66	4840.23
431.85	4587.45
432.03	4833.21
432.22	4912.78
432.41	4835.55
432.60	4865.97
432.79	5048.54
432.97	4940.87
433.16	4875.34
433.35	4798.10
433.54	4830.87
433.72	4753.63
433.91	4830.87
434.10	4917.47
434.28	4901.08
434.47	5036.83
434.66	5029.81
434.85	5268.55
435.03	5081.30
435.22	5172.58
435.41	5305.99
435.59	5275.57
435.78	5408.98
435.97	5378.55
436.16	5284.93
436.34	5371.53
436.53	5430.04
436.72	5540.05
436.90	5385.57
437.09	5280.25
437.28	5268.55
437.46	5392.59
437.65	5416.00
437.84	5338.76
438.02	5423.02
438.21	5371.53
438.40	5322.38
438.58	5600.90
438.77	5664.10
438.96	5533.03
439.14	5799.85
439.33	5764.74
439.52	5874.74
439.70	5743.67
439.89	5909.85
440.08	5944.96
440.26	5968.37
440.45	6033.90
440.63	5900.49
440.82	6230.51
441.01	6078.37
441.19	6340.51
441.38	6392.00
441.57	6256.25
441.75	6408.39
441.94	6434.13
442.12	6562.86
442.31	6572.22
442.50	6679.89
442.68	6516.05
442.87	6607.33
443.05	6656.48
443.24	6707.98
443.43	6693.93
443.61	6853.09
443.80	7042.67
443.98	6668.19
444.17	6459.88
444.35	6829.68
444.54	6855.43
444.73	6881.18
444.91	6848.41
445.10	6780.53
445.28	6644.78
445.47	6750.10
445.65	6651.80
445.84	6890.54
446.02	6930.33
446.21	6906.92
446.39	6909.26
446.58	6803.94
446.77	7040.33
446.95	6792.23
447.14	6960.75
447.32	7199.49
447.51	6834.36
447.69	6906.92
447.88	7000.54
448.06	6951.39
448.25	7084.80
448.43	7016.93
448.62	7049.69
448.80	7040.33
448.99	7187.79
449.17	7187.79
449.36	7215.87
449.54	7206.51
449.73	7520.14
449.91	7489.71
450.10	7597.38
450.28	7576.31
450.46	7499.08
450.65	7276.73
450.83	7611.42
451.02	7606.74
451.20	7524.82
451.39	7609.08
451.57	7559.93
451.76	7417.16
451.94	7513.12
452.13	7726.11
452.31	7393.75
452.49	7564.61
452.68	7564.61
452.86	7396.09
453.05	7573.97
453.23	7639.51
453.42	7665.25
453.60	7466.31
453.78	7691.00
453.97	7686.32
454.15	7698.02
454.34	7634.83
454.52	7882.92
454.70	7747.17
454.89	8009.31
455.07	7962.50
455.26	7868.88
455.44	8081.87
455.62	8112.30
455.81	8039.74
455.99	8105.28
456.17	8203.58
456.36	8147.40
456.54	8196.56
456.73	8369.76
456.91	8521.89
457.09	8273.79
457.28	8575.72
457.46	8273.79
457.64	8648.28
457.83	8531.25
458.01	8540.61
458.19	8519.55
458.38	8362.73
458.56	8601.47
458.74	8521.89
458.93	8554.66
459.11	8730.20
459.29	8662.32
459.48	8718.50
459.66	8500.83
459.84	8753.60
460.03	8870.63
460.21	9011.06
460.39	8765.31
460.57	8924.46
460.76	9069.58
460.94	9006.38
461.12	8793.39
461.31	9069.58
461.49	8751.26
461.67	8882.33
461.85	9312.99
462.04	9179.58
462.22	9481.51
462.40	9104.68
462.59	9146.81
462.77	9263.84
462.95	9441.72
463.13	9341.08
463.32	9490.87
463.50	9551.73
463.68	9228.73
463.86	9193.62
464.05	9240.44
464.23	9273.20
464.41	9490.87
464.59	9193.62
464.78	9437.04
464.96	9329.38
465.14	9535.34
465.32	9525.98
465.50	9666.41
465.69	9729.61
465.87	9537.68
466.05	9696.84
466.23	9551.73
466.41	9605.56
466.60	9638.33
466.78	9708.54
466.96	9603.22
467.14	9626.62
467.32	9811.53
467.51	9762.37
467.69	9708.54
467.87	9731.95
468.05	9982.38
468.23	9753.01
468.41	9760.03
468.60	10022.17
468.78	9998.77
468.96	9853.66
469.14	10132.18
469.32	10207.08
469.50	9703.86
469.69	10019.83
469.87	10258.57
470.05	10270.27
470.23	10260.91
470.41	10083.03
470.59	10345.17
470.77	10207.08
470.95	10609.65
471.14	10773.49
471.32	10445.81
471.50	10675.18
471.68	10766.46
471.86	10691.57
472.04	10846.04
472.22	10855.40
472.40	10672.84
472.58	10509.01
472.77	10834.34
472.95	10902.22
473.13	11257.98
473.31	11002.86
473.49	10672.84
473.67	10874.13
473.85	11150.31
474.03	11164.36
474.21	11300.11
474.39	11578.63
474.57	11723.74
474.75	11578.63
474.93	11999.93
475.12	11520.12
475.30	11587.99
475.48	11749.49
475.66	11674.59
475.84	11992.90
476.02	11829.07
476.20	11974.18
476.38	12023.33
476.56	12182.49
476.74	12306.54
476.92	12159.08
477.10	12505.48
477.28	12589.74
477.46	12400.16
477.64	12662.30
477.82	12989.97
478.00	13109.34
478.18	12987.63
478.36	12912.74
478.54	13437.02
478.72	13362.12
478.90	13371.48
479.08	13371.48
479.26	13881.72
479.44	13741.29
479.62	13589.15
479.80	13855.97
479.98	14115.77
480.16	13987.04
480.34	14040.87
480.52	14506.64
480.70	14555.79
480.88	14097.05
481.06	14155.56
481.24	14590.90
481.41	14817.93
481.59	14925.60
481.77	15000.49
481.95	15040.28
482.13	15386.68
482.31	15014.54
482.49	15807.98
482.67	15424.13
482.85	15447.54
483.03	15800.96
483.21	15634.78
483.39	15742.44
483.57	15803.30
483.74	15927.35
483.92	16266.72
484.10	16126.29
484.28	16421.20
484.46	16816.75
484.64	17069.53
484.82	16615.46
485.00	16952.50
485.18	17111.66
485.35	17256.77
485.53	16992.29
485.71	16578.01
485.89	16779.30
486.07	16940.80
486.25	17205.28
486.43	17668.70
486.61	17657.00
486.78	18108.72
486.96	17879.35
487.14	18511.30
487.32	18396.61
487.50	18630.66
487.68	18712.58
487.85	18822.59
488.03	19108.13
488.21	19414.74
488.39	18885.78
488.57	19159.63
488.75	19344.53
488.92	19819.66
489.10	20070.09
489.28	20121.59
489.46	20493.73
489.64	20484.37
489.81	20662.25
489.99	20718.42
490.17	21106.95
490.35	21223.98
490.53	21104.61
490.70	21188.87
490.88	21303.56
491.06	21465.05
491.24	21425.26
491.41	21177.17
491.59	21394.84
491.77	21923.80
491.95	21722.51
492.13	21745.92
492.30	22530.00
492.48	22590.85
492.66	22684.47
492.84	22530.00
493.01	23047.26
493.19	22855.33
493.37	23168.96
493.54	23000.44
493.72	23388.97
493.90	23482.59
494.08	23880.49
494.25	23903.89
494.43	24018.58
494.61	24222.20
494.79	24266.67
494.96	24283.06
495.14	24458.60
495.32	24788.61
495.49	24533.50
495.67	24805.00
495.85	24587.33
496.02	25008.62
496.20	25223.95
496.38	25043.73
496.55	25312.89
496.73	25731.85
496.91	26024.42
497.09	25909.73
497.26	26284.22
497.44	25722.49
497.62	26415.29
497.79	26225.70
497.97	26005.69
498.14	26309.96
498.32	26235.06
498.50	26618.91
498.67	26881.05
498.85	26466.78
499.03	26920.84
499.20	27276.60
499.38	27105.74
499.56	27152.55
499.73	27290.65
499.91	27435.76
500.08	27484.91
500.26	27255.54
500.44	27288.31
500.61	27903.87
500.79	27578.53
500.97	27648.75
501.14	28189.41
501.32	27768.12
501.49	28130.90
501.67	28304.10
501.84	27990.47
502.02	28278.35
502.20	28339.21
502.37	28886.89
502.55	28350.91
502.72	29298.83
502.90	28655.18
503.07	28739.44
503.25	29371.38
503.43	29202.86
503.60	28868.17
503.78	28929.02
503.95	29188.82
504.13	29549.26
504.30	29621.82
504.48	29425.22
504.65	30071.20
504.83	29703.74
505.01	29921.41
505.18	29898.00
505.36	30595.48
505.53	30422.28
505.71	30391.86
505.88	30593.14
506.06	30663.36
506.23	30752.30
506.41	30579.10
506.58	30752.30
506.76	30829.54
506.93	31133.81
507.11	30944.22
507.28	30801.45
507.46	31108.06
507.63	31040.18
507.81	31075.29
507.98	31129.12
508.16	31763.41
508.33	31569.15
508.50	32032.57
508.68	32006.83
508.85	32142.58
509.03	31826.60
509.20	31573.83
509.38	32180.03
509.55	32374.29
509.73	32446.85
509.90	32460.89
510.08	32264.28
510.25	32238.54
510.42	32348.54
510.60	32659.84
510.77	32856.44
510.95	33020.28
511.12	32790.91
511.30	32945.38
511.47	33333.91
511.64	33415.83
511.82	33776.27
511.99	32816.65
512.17	33462.64
512.34	32884.53
512.51	33869.89
512.69	33827.76
512.86	33692.01
513.04	34078.20
513.21	33804.36
513.38	33556.26
513.56	33890.96
513.73	33916.70
513.90	34089.90
514.08	33958.83
514.25	34450.35
514.43	34178.84
514.60	33900.32
514.77	34567.37
514.95	34677.38
515.12	34410.56
515.29	34745.25
515.47	34909.09
515.64	34911.43
515.81	34675.04
515.99	34796.74
516.16	34778.02
516.33	34396.51
516.51	34639.93
516.68	34125.01
516.85	34146.08
517.03	34459.71
517.20	34998.03
517.37	35166.55
517.54	35360.81
517.72	35250.81
517.89	34756.96
518.06	34724.19
518.24	34930.16
518.41	34845.90
518.58	35370.18
518.75	35246.13
518.93	35791.47
519.10	35864.03
519.27	35854.67
519.45	35967.01
519.62	36311.07
519.79	36275.96
519.96	36114.47
520.14	36830.67
520.31	36488.95
520.48	36383.63
520.65	36598.96
520.83	36903.23
521.00	36840.03
521.17	36861.10
521.34	36730.03
521.52	37078.77
521.69	37144.30
521.86	37493.04
522.03	37333.89
522.20	37600.71
522.38	37450.91
522.55	37205.16
522.72	37514.11
522.89	37289.42
523.07	37797.31
523.24	37600.71
523.41	38185.84
523.58	38106.26
523.75	38359.04
523.92	37951.79
524.10	38408.19
524.27	38682.03
524.44	38139.03
524.61	38082.86
524.78	38504.15
524.96	38494.79
525.13	38773.31
525.30	38979.28
525.47	38415.21
525.64	38593.09
525.81	38675.01
525.98	38625.86
526.16	38124.99
526.33	38394.15
526.50	38237.33
526.67	38040.73
526.84	38370.74
527.01	38387.13
527.18	38621.18
527.36	39007.37
527.53	39416.96
527.70	39426.32
527.87	39243.76
528.04	39445.05
528.21	39615.91
528.38	39714.21
528.55	39629.95
528.72	39835.92
528.89	40318.07
529.07	39899.11
529.24	39913.16
529.41	39903.79
529.58	39440.37
529.75	39805.49
529.92	40348.50
530.09	40105.08
530.26	40257.21
530.43	40273.60
530.60	40243.17
530.77	40542.76
530.94	40914.90
531.11	40790.86
531.28	40423.39
531.46	40748.73
531.63	40521.69
531.80	40566.16
531.97	40280.62
532.14	40383.60
532.31	39976.35
532.48	40449.14
532.65	41202.79
532.82	40538.08
532.99	40603.61
533.16	40547.44
533.33	40851.71
533.50	40769.79
533.67	41315.14
533.84	40755.75
534.01	41111.51
534.18	40933.63
534.35	41443.87
534.52	41198.11
534.69	41832.39
534.86	42036.02
535.03	41675.58
535.20	41923.68
535.37	41949.42
535.54	42143.69
535.71	41450.89
535.88	41883.89
536.05	41406.42
536.22	42108.58
536.38	41895.59
536.55	41495.36
536.72	42057.09
536.89	41813.67
537.06	41801.97
537.23	42012.62
537.40	42389.44
537.57	42108.58
537.74	42115.60
537.91	42569.66
538.08	42684.35
538.25	42127.30
538.42	42387.10
538.59	42351.99
538.75	41968.15
538.92	42162.41
539.09	42408.17
539.26	42234.97
539.43	42600.09
539.60	42249.01
539.77	42120.28
539.94	42099.22
540.11	42328.59
540.28	42539.24
540.44	42567.32
540.61	42511.15
540.78	42511.15
540.95	42110.92
541.12	42824.78
541.29	42595.41
541.46	42644.56
541.62	42873.93
541.79	43489.49
541.96	42160.07
542.13	43054.15
542.30	42635.20
542.47	42726.48
542.63	42920.74
542.80	43016.71
542.97	43573.75
543.14	43889.73
543.31	43749.29
543.48	43641.63
543.64	43920.15
543.81	43840.57
543.98	43889.73
544.15	43856.96
544.32	44243.15
544.48	44460.82
544.65	44105.06
544.82	44231.44
544.99	43856.96
545.16	44203.36
545.32	43737.59
545.49	44524.01
545.66	44479.54
545.83	44495.92
546.00	44301.66
546.16	43917.81
546.33	44205.70
546.50	44268.89
546.67	44282.94
546.83	43669.72
547.00	44149.53
547.17	43681.42
547.34	44238.47
547.50	44163.57
547.67	44484.22
547.84	44715.93
548.00	44659.76
548.17	44708.91
548.34	44905.52
548.51	45193.40
548.67	44957.01
548.84	45184.04
549.01	44460.82
549.18	45118.51
549.34	45064.67
549.51	45216.81
549.68	45099.78
549.84	44914.88
550.01	45322.13
550.18	45071.70
550.34	44477.20
550.51	44905.52
550.68	44671.46
550.84	44451.45
551.01	45045.95
551.18	45113.83
551.34	45078.72
551.51	45532.78
551.68	45488.31
551.84	45319.79
552.01	45015.52
552.18	45549.17
552.34	45034.25
552.51	44877.43
552.68	45123.19
552.84	45607.68
553.01	45813.65
553.18	45057.65
553.34	45471.93
553.51	45120.85
553.67	45523.42
553.84	45785.56
554.01	45467.25
554.17	45638.11
554.34	45567.89
554.51	46080.47
554.67	46057.06
554.84	45485.97
555.00	45258.94
555.17	45530.44
555.33	45471.93
555.50	45652.15
555.67	45736.41
555.83	45846.41
556.00	45893.22
556.16	46340.27
556.33	46335.59
556.50	45595.98
556.66	46080.47
556.83	45549.17
556.99	46314.52
557.16	46021.95
557.32	46101.53
557.49	46094.51
557.65	45734.07
557.82	46007.91
557.98	45958.76
558.15	45865.14
558.32	45720.02
558.48	45701.30
558.65	45610.02
558.81	45823.01
558.98	45544.48
559.14	46108.55
559.31	46202.18
559.47	46483.04
559.64	46218.56
559.80	46260.69
559.97	46167.07
560.13	45743.43
560.30	45792.58
560.46	46146.00
560.63	46085.15
560.79	46450.27
560.96	46457.29
561.12	46286.43
561.29	46115.58
561.45	46571.98
561.61	46234.94
561.78	45748.11
561.94	46040.68
562.11	46211.54
562.27	46043.02
562.44	46199.83
562.60	46967.53
562.77	46602.41
562.93	46487.72
563.10	46827.10
563.26	46424.53
563.42	46412.82
563.59	46349.63
563.75	46459.63
563.92	46724.11
564.08	46913.70
564.24	46571.98
564.41	46497.08
564.57	46476.02
564.74	46424.53
564.90	46391.76
565.07	46471.34
565.23	47077.54
565.39	46288.77
565.56	46960.51
565.72	46351.97
565.88	46447.93
566.05	46677.30
566.21	46101.53
566.38	46162.39
566.54	46431.55
566.70	46906.68
566.87	47021.36
567.03	46653.90
567.19	47295.21
567.36	46862.21
567.52	46574.32
567.68	46852.84
567.85	46543.89
568.01	47096.26
568.17	46852.84
568.34	46560.28
568.50	46686.67
568.66	46368.35
568.83	46571.98
568.99	46181.11
569.15	46511.13
569.32	46494.74
569.48	46506.44
569.64	47047.11
569.81	46752.20
569.97	46412.82
570.13	46721.77
570.30	46555.60
570.46	46213.88
570.62	46447.93
570.78	46361.33
570.95	46583.68
571.11	46567.30
571.27	46307.50
571.43	46836.46
571.60	46803.69
571.76	46880.93
571.92	46817.74
572.09	47175.84
572.25	47035.41
572.41	46972.21
572.57	47065.83
572.74	46815.40
572.90	46777.95
573.06	46681.98
573.22	46696.03
573.38	46726.46
573.55	46590.70
573.71	47232.01
573.87	46887.95
574.03	46789.65
574.20	47079.88
574.36	47047.11
574.52	46775.61
574.68	46904.34
574.84	46557.94
575.01	47129.03
575.17	47061.15
575.33	46864.55
575.49	46913.70
575.65	47030.72
575.82	47290.52
575.98	47143.07
576.14	46960.51
576.30	46831.78
576.46	46642.20
576.62	46639.86
576.79	46972.21
576.95	46436.23
577.11	46714.75
577.27	46754.54
577.43	46859.87
577.59	46864.55
577.75	46955.83
577.92	46452.61
578.08	46459.63
578.24	46602.41
578.40	47047.11
578.56	46995.62
578.72	47065.83
578.88	47217.97
579.04	47143.07
579.21	46672.62
579.37	46997.96
579.53	46981.57
579.69	46653.90
579.85	47000.30
580.01	46787.31
580.17	46635.17
580.33	46794.33
580.49	47096.26
580.65	46747.52
580.82	46976.89
580.98	46457.29
581.14	47068.17
581.30	47285.84
581.46	47217.97
581.62	46911.36
581.78	46990.94
581.94	47299.89
582.10	46906.68
582.26	46740.50
582.42	47042.43
582.58	46981.57
582.74	47243.71
582.90	47386.49
583.06	47096.26
583.22	47000.30
583.38	47363.08
583.54	47173.50
583.70	47138.39
583.86	47187.54
584.02	46714.75
584.18	46791.99
584.34	46859.87
584.50	46909.02
584.66	47264.78
584.82	47063.49
584.98	47267.12
585.14	47140.73
585.30	47007.32
585.46	47295.21
585.62	46703.05
585.78	46845.82
585.94	46724.11
586.10	46440.91
586.26	47049.45
586.42	47138.39
586.58	47236.69
586.74	47400.53
586.90	46993.28
587.06	46763.90
587.22	47107.96
587.38	46852.84
587.54	46997.96
587.70	47159.45
587.86	47253.08
588.02	47388.83
588.18	47213.29
588.34	46990.94
588.49	46211.54
588.65	46204.52
588.81	46356.65
588.97	46752.20
589.13	46595.38
589.29	46873.91
589.45	46660.92
589.61	46880.93
589.77	46925.40
