SpectraSuite Data File
++++++++++++++++++++++++++++++++++++
Date: Fri Oct 25 11:23:01 EDT 2013
User: price-jones
Dark Spectrum Present: No
Reference Spectrum Present: No
Number of Sampled Component Spectra: 1
Spectrometers: USB2+H05261
Integration Time (usec): 100000 (USB2+H05261)
Spectra Averaged: 1 (USB2+H05261)
Boxcar Smoothing: 0 (USB2+H05261)
Correct for Electrical Dark: No (USB2+H05261)
Strobe/Lamp Enabled: No (USB2+H05261)
Correct for Detector Non-linearity: No (USB2+H05261)
Correct for Stray Light: No (USB2+H05261)
Number of Pixels in Processed Spectrum: 2048
>>>>>Begin Processed Spectral Data<<<<<
365.73	142.77
365.92	142.77
366.12	142.77
366.32	149.79
366.52	110.01
366.72	110.01
366.91	112.35
367.11	65.54
367.31	140.43
367.51	117.03
367.70	107.66
367.90	152.13
368.10	86.60
368.30	140.43
368.49	107.66
368.69	93.62
368.89	187.24
369.09	154.48
369.28	147.45
369.48	124.05
369.68	147.45
369.87	154.48
370.07	203.63
370.27	175.54
370.47	229.37
370.66	552.37
370.86	662.37
371.06	636.63
371.25	610.88
371.45	695.14
371.65	718.54
371.84	592.16
372.04	718.54
372.24	734.93
372.44	706.84
372.63	727.91
372.83	739.61
373.03	690.46
373.22	791.10
373.42	807.48
373.62	805.14
373.81	781.74
374.01	866.00
374.21	851.96
374.40	788.76
374.60	828.55
374.79	720.88
374.99	875.36
375.19	753.65
375.38	877.70
375.58	851.96
375.78	744.29
375.97	828.55
376.17	847.27
376.37	887.06
376.56	929.19
376.76	924.51
376.95	812.17
377.15	912.81
377.35	863.66
377.54	868.34
377.74	847.27
377.93	873.02
378.13	898.77
378.33	828.55
378.52	968.98
378.72	985.37
378.91	929.19
379.11	868.34
379.31	985.37
379.50	903.45
379.70	910.47
379.89	954.94
380.09	952.60
380.28	917.49
380.48	1086.01
380.68	959.62
380.87	1020.47
381.07	987.71
381.26	997.07
381.46	936.21
381.65	1043.88
381.85	1022.81
382.04	990.05
382.24	976.00
382.43	1046.22
382.63	1069.62
382.83	1057.92
383.02	1025.15
383.22	1135.16
383.41	1095.37
383.61	1128.14
383.80	1107.07
384.00	1116.44
384.19	1090.69
384.39	1090.69
384.58	1123.46
384.78	1158.57
384.97	1184.31
385.17	1181.97
385.36	1170.27
385.56	1268.57
385.75	1184.31
385.95	1240.48
386.14	1268.57
386.34	1158.57
386.53	1196.01
386.72	1118.78
386.92	1214.74
387.11	1299.00
387.31	1268.57
387.50	1252.19
387.70	1102.39
387.89	1200.69
388.09	1242.82
388.28	1306.02
388.48	1252.19
388.67	1200.69
388.86	1341.13
389.06	1301.34
389.25	1373.89
389.45	1317.72
389.64	1345.81
389.84	1296.66
390.03	1401.98
390.22	1320.06
390.42	1420.71
390.61	1329.42
390.81	1406.66
391.00	1387.94
391.19	1416.02
391.39	1458.15
391.58	1437.09
391.78	1441.77
391.97	1476.88
392.16	1437.09
392.36	1495.60
392.55	1483.90
392.75	1455.81
392.94	1551.78
393.13	1526.03
393.33	1483.90
393.52	1572.84
393.71	1619.65
393.91	1621.99
394.10	1633.69
394.29	1640.72
394.49	1605.61
394.68	1643.06
394.88	1614.97
395.07	1687.53
395.26	1741.36
395.46	1755.40
395.65	1715.61
395.84	1668.80
396.04	1760.08
396.23	1757.74
396.42	1816.26
396.62	1846.68
396.81	1708.59
397.00	1706.25
397.19	1767.10
397.39	1741.36
397.58	1884.13
397.77	1806.89
397.97	1839.66
398.16	1846.68
398.35	1928.60
398.55	1912.22
398.74	1879.45
398.93	1949.67
399.12	1888.81
399.32	1963.71
399.51	1881.79
399.70	2066.69
399.90	1970.73
400.09	2083.08
400.28	1984.77
400.47	2022.22
400.67	2143.93
400.86	2090.10
401.05	2150.95
401.24	2115.84
401.44	2115.84
401.63	2139.25
401.82	2101.80
402.01	2132.23
402.21	2094.78
402.40	2279.68
402.59	2162.66
402.78	2277.34
402.97	2251.60
403.17	2244.57
403.36	2303.09
403.55	2321.81
403.74	2389.69
403.93	2312.45
404.13	2443.52
404.32	2422.45
404.51	2401.39
404.70	2434.16
404.89	2408.41
405.09	2476.29
405.28	2523.10
405.47	2408.41
405.66	2520.76
405.85	2478.63
406.05	2609.70
406.24	2565.23
406.43	2661.19
406.62	2717.36
406.81	2668.21
407.00	2626.08
407.20	2593.31
407.39	2619.06
407.58	2670.55
407.77	2775.88
407.96	2668.21
408.15	2794.60
408.34	2705.66
408.54	2818.00
408.73	2761.83
408.92	2832.05
409.11	2883.54
409.30	2815.66
409.49	2899.92
409.68	2911.63
409.87	2799.28
410.07	3030.99
410.26	2932.69
410.45	2881.20
410.64	3049.72
410.83	2972.48
411.02	3178.45
411.21	3227.60
411.40	3176.11
411.59	3218.24
411.78	3199.51
411.98	3143.34
412.17	3330.58
412.36	3272.07
412.55	3318.88
412.74	3449.95
412.93	3492.08
413.12	3241.64
413.31	3632.51
413.50	3459.31
413.69	3534.21
413.88	3700.39
414.07	3712.09
414.26	3599.74
414.45	3763.58
414.64	3609.11
414.83	3824.44
415.02	3770.60
415.22	3861.88
415.41	3920.40
415.60	3892.31
415.79	3974.23
415.98	4042.11
416.17	3915.72
416.36	3964.87
416.55	4004.66
416.74	4145.09
416.93	4119.34
417.12	4037.42
417.31	4098.28
417.50	4128.70
417.69	4294.88
417.88	4348.72
418.07	4437.66
418.26	4367.44
418.45	4435.32
418.64	4599.15
418.83	4376.80
419.02	4510.21
419.21	4575.75
419.39	4542.98
419.58	4484.47
419.77	4505.53
419.96	4603.83
420.15	4594.47
420.34	4601.49
420.53	4706.82
420.72	4762.99
420.91	4819.16
421.10	4699.80
421.29	4823.84
421.48	4676.39
421.67	4685.75
421.86	4617.88
422.05	4713.84
422.24	4772.35
422.43	4819.16
422.61	4997.04
422.80	5039.17
422.99	4865.97
423.18	5020.45
423.37	4968.96
423.56	4889.38
423.75	4894.06
423.94	4833.21
424.13	4718.52
424.32	4837.89
424.50	5041.51
424.69	5177.26
424.88	5102.37
425.07	4985.34
425.26	4884.70
425.45	4938.53
425.64	5142.16
425.83	5085.98
426.01	5067.26
426.20	4971.30
426.39	5027.47
426.58	5085.98
426.77	5085.98
426.96	5198.33
427.15	5111.73
427.33	5224.08
427.52	5184.29
427.71	5247.48
427.90	5338.76
428.09	5268.55
428.28	5521.32
428.46	5453.45
428.65	5282.59
428.84	5446.43
429.03	5638.35
429.22	5397.28
429.40	5530.69
429.59	5446.43
429.78	5303.65
429.97	5334.08
430.16	5481.53
430.34	5652.39
430.53	5516.64
430.72	5823.25
430.91	5724.95
431.10	5729.63
431.28	5762.40
431.47	5827.93
431.66	5823.25
431.85	5898.15
432.03	5837.30
432.22	5977.73
432.41	5937.94
432.60	5907.51
432.79	5947.30
432.97	6010.50
433.16	5940.28
433.35	5963.68
433.54	6242.21
433.72	6228.17
433.91	6207.10
434.10	6197.74
434.28	6188.38
434.47	6394.34
434.66	6394.34
434.85	6258.59
435.03	6459.88
435.22	6209.44
435.41	6485.62
435.59	6375.62
435.78	6389.66
435.97	6532.44
436.16	6232.85
436.34	6511.37
436.53	6511.37
436.72	6569.88
436.90	6504.35
437.09	6801.60
437.28	6492.65
437.46	6509.03
437.65	6717.34
437.84	6970.12
438.02	6640.10
438.21	6965.43
438.40	6768.83
438.58	6913.94
438.77	7000.54
438.96	6977.14
439.14	7185.44
439.33	7353.96
439.52	7288.43
439.70	7258.00
439.89	7435.88
440.08	7407.80
440.26	7501.42
440.45	7510.78
440.63	7478.01
440.82	7489.71
441.01	7545.89
441.19	7737.81
441.38	7604.40
441.57	7602.06
441.75	7918.03
441.94	7939.10
442.12	7880.58
442.31	8173.15
442.50	7997.61
442.68	7824.41
442.87	7988.25
443.05	8201.24
443.24	8219.96
443.43	8163.79
443.61	8444.65
443.80	8608.49
443.98	8072.51
444.17	8016.33
444.35	8241.03
444.54	8306.56
444.73	8329.97
444.91	8280.82
445.10	8449.33
445.28	8224.64
445.47	8283.16
445.65	8329.97
445.84	8535.93
446.02	8435.29
446.21	8667.00
446.39	8477.42
446.58	8416.57
446.77	8557.00
446.95	8201.24
447.14	8435.29
447.32	8711.47
447.51	8458.70
447.69	8390.82
447.88	8657.64
448.06	8566.36
448.25	8699.77
448.43	8741.90
448.62	8809.78
448.80	8610.83
448.99	8746.58
449.17	8805.10
449.36	8784.03
449.54	9029.79
449.73	9025.11
449.91	9170.22
450.10	9132.77
450.28	9043.83
450.46	9151.49
450.65	9048.51
450.83	9179.58
451.02	9135.11
451.20	9341.08
451.39	9146.81
451.57	9273.20
451.76	9006.38
451.94	9322.35
452.13	9434.70
452.31	9387.89
452.49	9310.65
452.68	9364.48
452.86	9465.13
453.05	9455.76
453.23	9486.19
453.42	9327.03
453.60	9273.20
453.78	9394.91
453.97	9514.28
454.15	9479.17
454.34	9406.61
454.52	9710.88
454.70	9774.08
454.89	9870.04
455.07	9781.10
455.26	9839.61
455.44	9863.02
455.62	9692.16
455.81	9884.08
455.99	10200.05
456.17	10094.73
456.36	10022.17
456.54	10162.61
456.73	10401.34
456.91	10633.05
457.09	10473.90
457.28	10551.14
457.46	10349.85
457.64	10333.47
457.83	10368.57
458.01	10478.58
458.19	10750.08
458.38	10614.33
458.56	10817.96
458.74	10569.86
458.93	10626.03
459.11	10799.23
459.29	10565.18
459.48	10890.51
459.66	10855.40
459.84	10813.28
460.03	11183.08
460.21	11014.56
460.39	10846.04
460.57	11094.14
460.76	11283.72
460.94	11185.42
461.12	11176.06
461.31	11211.17
461.49	11342.24
461.67	11246.27
461.85	11700.34
462.04	11470.97
462.22	11550.54
462.40	11550.54
462.59	11672.25
462.77	11861.84
462.95	11957.80
463.13	11389.05
463.32	11789.28
463.50	11714.38
463.68	11913.33
463.86	11845.45
464.05	11452.24
464.23	11754.17
464.41	11920.35
464.59	11824.39
464.78	12081.85
464.96	12283.13
465.14	12058.44
465.32	12182.49
465.50	12175.47
465.69	12072.48
465.87	12180.15
466.05	12203.55
466.23	12315.90
466.41	12383.77
466.60	12477.40
466.78	12250.36
466.96	12233.98
467.14	12414.20
467.32	12463.35
467.51	12734.85
467.69	12351.01
467.87	12596.76
468.05	12692.73
468.23	12676.34
468.41	12556.97
468.60	12631.87
468.78	12664.64
468.96	12559.31
469.14	12872.95
469.32	13135.09
469.50	12737.20
469.69	13071.89
469.87	13301.26
470.05	13029.76
470.23	13273.18
470.41	13231.05
470.59	13441.70
470.77	13104.66
470.95	13415.95
471.14	13502.55
471.32	13483.83
471.50	13797.46
471.68	13886.40
471.86	13724.90
472.04	13645.32
472.22	13865.33
472.40	13907.46
472.58	13919.17
472.77	13870.01
472.95	14246.84
473.13	14600.26
473.31	14195.35
473.49	14293.65
473.67	14251.52
473.85	14155.56
474.03	14530.05
474.21	14590.90
474.39	14850.70
474.57	14869.42
474.75	15023.90
474.93	15103.48
475.12	14874.10
475.30	15185.40
475.48	15152.63
475.66	15236.89
475.84	15112.84
476.02	15452.22
476.20	15644.14
476.38	15822.02
476.56	15826.70
476.74	16177.78
476.92	16065.44
477.10	15997.56
477.28	15971.82
477.46	16252.68
477.64	16585.04
477.82	16791.00
478.00	16901.01
478.18	17032.08
478.36	17076.55
478.54	17352.73
478.72	17200.60
478.90	17603.17
479.08	17776.37
479.26	17858.29
479.44	17860.63
479.62	17771.69
479.80	18331.08
479.98	18232.77
480.16	18766.42
480.34	18300.65
480.52	18951.32
480.70	18677.48
480.88	18326.39
481.06	18841.31
481.24	18644.71
481.41	19101.11
481.59	19709.65
481.77	19693.27
481.95	19630.07
482.13	19829.02
482.31	19758.80
482.49	20346.28
482.67	20245.63
482.85	20610.76
483.03	20599.05
483.21	20940.77
483.39	21390.16
483.57	20875.24
483.74	21240.36
483.92	21535.27
484.10	21319.94
484.28	21855.92
484.46	21982.31
484.64	22394.25
484.82	21972.95
485.00	22214.02
485.18	22951.29
485.35	23094.07
485.53	23044.91
485.71	23115.13
485.89	23639.41
486.07	23377.27
486.25	23419.40
486.43	23634.73
486.61	24034.96
486.78	23988.15
486.96	24402.43
487.14	24610.73
487.32	24907.98
487.50	25266.08
487.68	24987.56
487.85	25642.91
488.03	26024.42
488.21	26106.34
488.39	25947.18
488.57	26319.32
488.75	26066.55
488.92	26490.18
489.10	26934.88
489.28	26850.63
489.46	27587.89
489.64	27112.77
489.81	27810.25
489.99	27730.67
490.17	27819.61
490.35	28116.86
490.53	28123.88
490.70	28634.11
490.88	28542.83
491.06	29081.16
491.24	28931.36
491.41	29355.00
491.59	29532.88
491.77	29759.91
491.95	29633.52
492.13	29764.59
492.30	30363.77
492.48	30195.25
492.66	30595.48
492.84	30277.17
493.01	30944.22
493.19	31157.21
493.37	31044.87
493.54	31002.74
493.72	31615.96
493.90	31421.69
494.08	31896.82
494.25	32191.73
494.43	32224.50
494.61	32261.94
494.79	32704.31
494.96	32816.65
495.14	33060.07
495.32	33022.62
495.49	33565.62
495.67	33542.22
495.85	33715.42
496.02	33638.18
496.20	33663.93
496.38	34466.73
496.55	33876.91
496.73	34944.20
496.91	34642.27
497.09	35267.19
497.26	35040.16
497.44	35344.43
497.62	35475.50
497.79	35985.74
497.97	35690.83
498.14	36304.05
498.32	36280.64
498.50	36641.09
498.67	36697.26
498.85	36636.41
499.03	37092.81
499.20	36837.69
499.38	37024.93
499.56	37553.90
499.73	37394.74
499.91	37659.22
500.08	37984.55
500.26	37546.87
500.44	38120.31
500.61	38265.42
500.79	38309.89
500.97	38403.51
501.14	38831.83
501.32	39072.90
501.49	39143.12
501.67	39105.67
501.84	39189.93
502.02	38754.59
502.20	39475.48
502.37	39325.68
502.55	39412.28
502.72	39447.39
502.90	39751.66
503.07	39646.33
503.25	40030.18
503.43	40074.65
503.60	40458.50
503.78	40399.99
503.95	40517.01
504.13	40659.79
504.30	40947.67
504.48	40945.33
504.65	41050.66
504.83	41277.69
505.01	41570.25
505.18	41654.51
505.36	41790.27
505.53	41567.91
505.71	42089.85
505.88	42349.65
506.06	41949.42
506.23	41963.46
506.41	41560.89
506.58	42347.31
506.76	42171.77
506.93	42913.72
507.11	42527.53
507.28	42953.51
507.46	42792.01
507.63	43044.79
507.81	43468.43
507.98	43264.80
508.16	43093.94
508.33	43639.29
508.50	43945.90
508.68	44041.86
508.85	44123.78
509.03	44093.35
509.20	44343.79
509.38	44552.10
509.55	44577.84
509.73	44739.34
509.90	44683.17
510.08	44751.04
510.25	44783.81
510.42	44987.44
510.60	44994.46
510.77	45474.27
510.95	45837.05
511.12	45483.63
511.30	45364.26
511.47	45764.49
511.64	45890.88
511.82	46082.81
511.99	46239.62
512.17	46447.93
512.34	46267.71
512.51	46658.58
512.69	46536.87
512.86	46653.90
513.04	46920.72
513.21	46796.67
513.38	47021.36
513.56	46967.53
513.73	47393.51
513.90	47112.64
514.08	47072.85
514.25	47812.46
514.43	47590.11
514.60	47547.98
514.77	47686.07
514.95	48222.06
515.12	47704.80
515.29	47824.17
515.47	48205.67
515.64	48315.68
515.81	47910.77
515.99	48100.35
516.16	48748.68
516.33	48744.00
516.51	49162.95
516.68	48505.26
516.85	48800.17
517.03	48938.26
517.20	48947.62
517.37	49240.19
517.54	49322.11
517.72	49247.21
517.89	49401.69
518.06	49560.84
518.24	49607.65
518.41	49654.47
518.58	49703.62
518.75	49254.23
518.93	49808.94
519.10	49925.97
519.27	50253.64
519.45	50071.08
519.62	50363.65
519.79	50284.07
519.96	50136.62
520.14	50466.63
520.31	50096.83
520.48	50387.05
520.65	50426.84
520.83	50885.59
521.00	51098.58
521.17	51098.58
521.34	51117.30
521.52	51016.66
521.69	50848.14
521.86	51063.47
522.03	51147.73
522.20	51594.77
522.38	51498.81
522.55	51302.20
522.72	51540.94
522.89	51615.83
523.07	51779.67
523.24	51760.95
523.41	52231.40
523.58	51894.36
523.75	52217.35
523.92	51536.26
524.10	52133.09
524.27	52034.79
524.44	52151.82
524.61	51826.48
524.78	52608.22
524.96	52428.00
525.13	52687.80
525.30	52594.18
525.47	52704.18
525.64	52886.74
525.81	52809.51
525.98	52999.09
526.16	52676.10
526.33	52844.62
526.50	53078.67
526.67	53001.43
526.84	53078.67
527.01	52814.19
527.18	53212.08
527.36	53172.29
527.53	53233.14
527.70	53605.29
527.87	53659.12
528.04	53345.49
528.21	53853.39
528.38	53422.73
528.55	53616.99
528.72	53551.46
528.89	53743.38
529.07	53183.99
529.24	53539.75
529.41	53930.62
529.58	53907.22
529.75	53853.39
529.92	53916.58
530.09	53860.41
530.26	54293.41
530.43	54241.92
530.60	53991.48
530.77	53794.87
530.94	54248.94
531.11	53979.78
531.28	54405.75
531.46	54429.16
531.63	54419.80
531.80	54246.60
531.97	54679.60
532.14	54602.36
532.31	54497.03
532.48	54611.72
532.65	54747.47
532.82	54759.17
532.99	54745.13
533.16	54878.54
533.33	54946.42
533.50	55126.64
533.67	54960.46
533.84	54864.50
534.01	55384.10
534.18	54983.86
534.35	55484.74
534.52	55203.88
534.69	55281.11
534.86	55391.12
535.03	55451.97
535.20	55344.31
535.37	55339.63
535.54	55484.74
535.71	55501.12
535.88	55594.74
536.05	55674.32
536.22	55746.88
536.38	55536.23
536.55	55690.71
536.72	55896.67
536.89	55793.69
537.06	55842.84
537.23	55650.92
537.40	55910.72
537.57	55899.01
537.74	55866.25
537.91	56299.25
538.08	55973.91
538.25	55796.03
538.42	55945.83
538.59	56390.53
538.75	55847.52
538.92	56296.91
539.09	56280.52
539.26	56303.93
539.43	56060.51
539.60	56430.32
539.77	56500.53
539.94	56673.73
540.11	56582.45
540.28	56413.93
540.44	56647.99
540.61	56549.68
540.78	56736.93
540.95	56484.15
541.12	56542.66
541.29	56559.05
541.46	56605.86
541.62	56926.51
541.79	56954.60
541.96	56755.65
542.13	56767.35
542.30	56802.46
542.47	57036.51
542.63	57139.50
542.80	57186.31
542.97	57319.72
543.14	57200.35
543.31	57160.56
543.48	57436.75
543.64	57708.25
543.81	57656.76
543.98	57385.25
544.15	57567.82
544.32	57513.98
544.48	57979.75
544.65	57649.74
544.82	57354.83
544.99	57345.47
545.16	57776.12
545.32	57778.46
545.49	57563.14
545.66	57874.43
545.83	57869.75
546.00	57923.58
546.16	57733.99
546.33	57755.06
546.50	57855.70
546.67	57942.30
546.83	57605.26
547.00	57996.13
547.17	58089.76
547.34	57991.45
547.50	58094.44
547.67	57930.60
547.84	58141.25
548.00	58138.91
548.17	58113.16
548.34	58293.38
548.51	58316.79
548.67	58262.96
548.84	58176.36
549.01	58344.87
549.18	58443.18
549.34	58468.92
549.51	58424.45
549.68	58665.53
549.84	58599.99
550.01	58637.44
550.18	58452.54
550.34	58857.45
550.51	58693.61
550.68	58389.34
550.84	58405.73
551.01	58693.61
551.18	58742.77
551.34	58663.19
551.51	58599.99
551.68	58684.25
551.84	58630.42
552.01	58780.21
552.18	58911.28
552.34	58677.23
552.51	58894.90
552.68	58831.71
552.84	58754.47
553.01	59180.45
553.18	59042.35
553.34	58990.86
553.51	58827.02
553.67	59145.34
553.84	59093.85
554.01	59234.28
554.17	59206.19
554.34	59290.45
554.51	58969.80
554.67	59121.93
554.84	59119.59
555.00	59061.08
555.17	58979.16
555.33	59124.27
555.50	59114.91
555.67	59196.83
555.83	59032.99
556.00	59377.05
556.16	59437.90
556.33	59611.10
556.50	59447.27
556.66	59496.42
556.83	59152.36
556.99	59430.88
557.16	59870.90
557.32	59784.30
557.49	59763.24
557.65	59590.04
557.82	59585.36
557.98	59583.02
558.15	59498.76
558.32	59611.10
558.48	59606.42
558.65	59522.16
558.81	59718.77
558.98	59678.98
559.14	59781.96
559.31	59838.14
559.47	59868.56
559.64	60041.76
559.80	59744.51
559.97	59835.80
560.13	59728.13
560.30	60069.85
560.46	59859.20
560.63	60060.49
560.79	59924.74
560.96	60088.57
561.12	60104.96
561.29	59915.37
561.45	59884.95
561.61	59962.18
561.78	59978.57
561.94	59845.16
562.11	59999.63
562.27	59978.57
562.44	59959.84
562.60	60212.62
562.77	60168.15
562.93	60011.34
563.10	60104.96
563.26	60121.34
563.42	60243.05
563.59	60369.44
563.75	60027.72
563.92	60016.02
564.08	60123.68
564.24	60313.26
564.41	60369.44
564.57	60385.82
564.74	60315.61
564.90	60460.72
565.07	60336.67
565.23	60322.63
565.39	60257.09
565.56	60395.18
565.72	60198.58
565.88	60420.93
566.05	60247.73
566.21	60334.33
566.38	60301.56
566.54	60369.44
566.70	60313.26
566.87	60594.13
567.03	60275.82
567.19	60467.74
567.36	60425.61
567.52	60327.31
567.68	60570.72
567.85	60437.31
568.01	60458.38
568.17	60598.81
568.34	60505.19
568.50	60388.16
568.66	60544.98
568.83	60474.76
568.99	60423.27
569.15	60378.80
569.32	60542.64
569.48	60350.71
569.64	60589.45
569.81	60409.23
569.97	60514.55
570.13	60680.73
570.30	60423.27
570.46	60818.82
570.62	60750.94
570.78	60704.13
570.95	60725.20
571.11	60980.32
571.27	60690.09
571.43	60526.25
571.60	60839.89
571.76	60860.95
571.92	60704.13
572.09	60725.20
572.25	60795.42
572.41	60858.61
572.57	60804.78
572.74	60893.72
572.90	60874.99
573.06	60900.74
573.22	60809.46
573.38	60788.39
573.55	60647.96
573.71	60952.23
573.87	60615.19
574.03	60755.63
574.20	60879.67
574.36	60692.43
574.52	61071.60
574.68	60734.56
574.84	60954.57
575.01	60919.46
575.17	60912.44
575.33	60874.99
575.49	60804.78
575.65	60750.94
575.82	60952.23
575.98	60963.93
576.14	61144.16
576.30	61139.47
576.46	60940.53
576.62	60734.56
576.79	60938.19
576.95	60858.61
577.11	60795.42
577.27	60992.02
577.43	60860.95
577.59	60977.98
577.75	60949.89
577.92	60793.07
578.08	60938.19
578.24	60938.19
578.40	61095.00
578.56	61277.57
578.72	60818.82
578.88	61193.31
579.04	61336.08
579.21	61083.30
579.37	61059.90
579.53	61310.33
579.69	61069.26
579.85	60921.80
580.01	61071.60
580.17	60924.14
580.33	61013.08
580.49	61109.05
580.65	61087.98
580.82	61029.47
580.98	61085.64
581.14	60919.46
581.30	61116.07
581.46	61010.74
581.62	61174.58
581.78	60828.18
581.94	61282.25
582.10	61139.47
582.26	61066.92
582.42	60996.70
582.58	61015.43
582.74	61069.26
582.90	61226.07
583.06	61017.77
583.22	60933.51
583.38	61172.24
583.54	61195.65
583.70	61148.84
583.86	61097.34
584.02	61006.06
584.18	61226.07
584.34	61228.41
584.50	61064.58
584.66	60893.72
584.82	60959.25
584.98	61137.13
585.14	61256.50
585.30	61057.56
585.46	61256.50
585.62	61275.22
585.78	61441.40
585.94	60832.86
586.10	60905.42
586.26	61195.65
586.42	61244.80
586.58	61270.54
586.74	61286.93
586.90	61062.24
587.06	61172.24
587.22	61371.19
587.38	61183.94
587.54	61289.27
587.70	61420.34
587.86	61389.91
588.02	61228.41
588.18	61439.06
588.34	61235.44
588.49	61394.59
