SpectraSuite Data File
++++++++++++++++++++++++++++++++++++
Date: Fri Oct 25 11:25:49 EDT 2013
User: price-jones
Dark Spectrum Present: No
Reference Spectrum Present: No
Number of Sampled Component Spectra: 1
Spectrometers: USB2+H05261
Integration Time (usec): 100000 (USB2+H05261)
Spectra Averaged: 1 (USB2+H05261)
Boxcar Smoothing: 0 (USB2+H05261)
Correct for Electrical Dark: No (USB2+H05261)
Strobe/Lamp Enabled: No (USB2+H05261)
Correct for Detector Non-linearity: No (USB2+H05261)
Correct for Stray Light: No (USB2+H05261)
Number of Pixels in Processed Spectrum: 2048
>>>>>Begin Processed Spectral Data<<<<<
365.73	250.44
365.92	250.44
366.12	250.44
366.32	154.48
366.52	84.26
366.72	194.26
366.91	65.54
367.11	138.09
367.31	194.26
367.51	182.56
367.70	175.54
367.90	220.01
368.10	88.94
368.30	140.43
368.49	140.43
368.69	126.39
368.89	147.45
369.09	152.13
369.28	180.22
369.48	133.41
369.68	159.16
369.87	154.48
370.07	189.58
370.27	245.76
370.47	346.40
370.66	500.87
370.86	648.33
371.06	718.54
371.25	638.97
371.45	554.71
371.65	683.44
371.84	676.41
372.04	641.31
372.24	725.57
372.44	770.04
372.63	734.93
372.83	786.42
373.03	786.42
373.22	739.61
373.42	802.80
373.62	725.57
373.81	800.46
374.01	873.02
374.21	858.98
374.40	763.01
374.60	894.08
374.79	777.06
374.99	819.19
375.19	835.57
375.38	805.14
375.58	866.00
375.78	863.66
375.97	938.55
376.17	823.87
376.37	898.77
376.56	875.36
376.76	976.00
376.95	851.96
377.15	898.77
377.35	898.77
377.54	880.04
377.74	929.19
377.93	821.53
378.13	873.02
378.33	854.30
378.52	833.23
378.72	1048.56
378.91	943.24
379.11	940.90
379.31	940.90
379.50	978.34
379.70	1018.13
379.89	947.92
380.09	922.17
380.28	973.66
380.48	990.05
380.68	992.39
380.87	1008.77
381.07	901.11
381.26	1074.31
381.46	1027.50
381.65	985.37
381.85	1071.97
382.04	1043.88
382.24	1043.88
382.43	1022.81
382.63	1057.92
382.83	997.07
383.02	1198.35
383.22	1308.36
383.41	1081.33
383.61	1149.20
383.80	1130.48
384.00	1095.37
384.19	1015.79
384.39	1090.69
384.58	1219.42
384.78	1083.67
384.97	1184.31
385.17	1167.93
385.36	1261.55
385.56	1184.31
385.75	1149.20
385.95	1224.10
386.14	1156.22
386.34	1254.53
386.53	1249.85
386.72	1095.37
386.92	1200.69
387.11	1294.32
387.31	1308.36
387.50	1172.61
387.70	1259.21
387.89	1174.95
388.09	1294.32
388.28	1350.49
388.48	1245.16
388.67	1364.53
388.86	1357.51
389.06	1310.70
389.25	1399.64
389.45	1301.34
389.64	1291.98
389.84	1399.64
390.03	1364.53
390.22	1404.32
390.42	1357.51
390.61	1299.00
390.81	1364.53
391.00	1390.28
391.19	1303.68
391.39	1366.87
391.58	1542.41
391.78	1467.52
391.97	1399.64
392.16	1535.39
392.36	1453.47
392.55	1453.47
392.75	1612.63
392.94	1404.32
393.13	1507.30
393.33	1579.86
393.52	1598.59
393.71	1629.01
393.91	1584.54
394.10	1540.07
394.29	1554.12
394.49	1612.63
394.68	1544.75
394.88	1612.63
395.07	1727.32
395.26	1685.19
395.46	1729.66
395.65	1675.82
395.84	1626.67
396.04	1809.23
396.23	1694.55
396.42	1762.42
396.62	1753.06
396.81	1776.47
397.00	1732.00
397.19	1795.19
397.39	1802.21
397.58	1790.51
397.77	1820.94
397.97	1839.66
398.16	1736.68
398.35	1816.26
398.55	1839.66
398.74	1905.20
398.93	1984.77
399.12	2005.84
399.32	1959.03
399.51	1851.36
399.70	1959.03
399.90	1923.92
400.09	2036.27
400.28	2054.99
400.47	2092.44
400.67	2160.31
400.86	2064.35
401.05	2033.93
401.24	2106.48
401.44	2120.53
401.63	2139.25
401.82	2181.38
402.01	2134.57
402.21	2186.06
402.40	2202.44
402.59	2139.25
402.78	2179.04
402.97	2174.36
403.17	2258.62
403.36	2342.88
403.55	2267.98
403.74	2473.95
403.93	2291.38
404.13	2375.64
404.32	2333.51
404.51	2366.28
404.70	2434.16
404.89	2438.84
405.09	2480.97
405.28	2420.11
405.47	2431.82
405.66	2401.39
405.85	2548.84
406.05	2497.35
406.24	2588.63
406.43	2605.02
406.62	2588.63
406.81	2560.55
407.00	2485.65
407.20	2530.12
407.39	2633.10
407.58	2600.34
407.77	2635.44
407.96	2757.15
408.15	2700.98
408.34	2696.30
408.54	2787.58
408.73	2862.48
408.92	2888.22
409.11	2843.75
409.30	2899.92
409.49	2960.78
409.68	2878.86
409.87	2881.20
410.07	3000.57
410.26	2972.48
410.45	2963.12
410.64	2977.16
410.83	3061.42
411.02	3047.38
411.21	3229.94
411.40	3229.94
411.59	3220.58
411.78	3300.16
411.98	3124.62
412.17	3187.81
412.36	3293.13
412.55	3255.69
412.74	3389.10
412.93	3391.44
413.12	3325.90
413.31	3555.27
413.50	3475.70
413.69	3384.41
413.88	3611.45
414.07	3513.14
414.26	3555.27
414.45	3730.81
414.64	3618.47
414.83	3726.13
415.02	3904.01
415.22	3854.86
415.41	3885.29
415.60	3852.52
415.79	3859.54
415.98	3967.21
416.17	3922.74
416.36	3999.98
416.55	4049.13
416.74	4016.36
416.93	3992.95
417.12	4056.15
417.31	4077.21
417.50	4051.47
417.69	4255.09
417.88	4269.14
418.07	4287.86
418.26	4084.23
418.45	4210.62
418.64	4334.67
418.83	4447.02
419.02	4472.76
419.21	4475.10
419.39	4507.87
419.58	4477.44
419.77	4287.86
419.96	4547.66
420.15	4521.92
420.34	4397.87
420.53	4580.43
420.72	4550.00
420.91	4634.26
421.10	4723.20
421.29	4819.16
421.48	4784.06
421.67	4727.88
421.86	4734.90
422.05	4894.06
422.24	4805.12
422.43	4856.61
422.61	4812.14
422.80	4887.04
422.99	4903.42
423.18	4781.71
423.37	4992.36
423.56	4889.38
423.75	4975.98
423.94	4847.25
424.13	4592.13
424.32	4669.37
424.50	4812.14
424.69	4990.02
424.88	4980.66
425.07	4847.25
425.26	4910.44
425.45	4924.49
425.64	4936.19
425.83	4847.25
426.01	5088.32
426.20	5111.73
426.39	5111.73
426.58	4919.81
426.77	5074.28
426.96	5125.77
427.15	4933.85
427.33	5289.61
427.52	5158.54
427.71	5373.87
427.90	5090.67
428.09	5186.63
428.28	5247.48
428.46	5303.65
428.65	5392.59
428.84	5523.66
429.03	5500.26
429.22	5366.85
429.40	5355.15
429.59	5446.43
429.78	5305.99
429.97	5277.91
430.16	5348.12
430.34	5533.03
430.53	5563.45
430.72	5738.99
430.91	5678.14
431.10	5645.37
431.28	5687.50
431.47	5811.55
431.66	5928.58
431.85	5797.51
432.03	5870.06
432.22	5963.68
432.41	6076.03
432.60	5888.79
432.79	5914.53
432.97	6080.71
433.16	6029.22
433.35	5916.87
433.54	6132.20
433.72	6043.26
433.91	6216.46
434.10	6033.90
434.28	6122.84
434.47	6258.59
434.66	6317.11
434.85	6216.46
435.03	6237.53
435.22	6272.64
435.41	6274.98
435.59	6197.74
435.78	6342.85
435.97	6286.68
436.16	6408.39
436.34	6415.41
436.53	6459.88
436.72	6534.78
436.90	6375.62
437.09	6689.25
437.28	6541.80
437.46	6525.41
437.65	6642.44
437.84	6663.51
438.02	6726.70
438.21	6834.36
438.40	6693.93
438.58	6993.52
438.77	6932.67
438.96	6862.45
439.14	7052.03
439.33	7178.42
439.52	7080.12
439.70	7026.29
439.89	7300.13
440.08	7379.71
440.26	7353.96
440.45	7236.94
440.63	7454.61
440.82	7538.87
441.01	7499.08
441.19	7510.78
441.38	7506.10
441.57	7602.06
441.75	7681.64
441.94	7962.50
442.12	7812.71
442.31	8013.99
442.50	7892.29
442.68	8063.15
442.87	8002.29
443.05	8290.18
443.24	8222.30
443.43	8133.36
443.61	8149.75
443.80	8369.76
443.98	7943.78
444.17	7894.63
444.35	8245.71
444.54	8245.71
444.73	8177.83
444.91	7957.82
445.10	8301.88
445.28	8262.09
445.47	8294.86
445.65	8344.01
445.84	8477.42
446.02	8245.71
446.21	8224.64
446.39	8376.78
446.58	8510.19
446.77	8278.47
446.95	8318.26
447.14	8439.97
447.32	8386.14
447.51	8381.46
447.69	8215.28
447.88	8318.26
448.06	8465.72
448.25	8369.76
448.43	8449.33
448.62	8482.10
448.80	8514.87
448.99	8631.90
449.17	8589.77
449.36	8418.91
449.54	8936.17
449.73	8884.67
449.91	8931.48
450.10	8861.27
450.28	8947.87
450.46	8872.97
450.65	8990.00
450.83	8968.93
451.02	8973.61
451.20	9226.39
451.39	9179.58
451.57	8985.32
451.76	8758.28
451.94	8947.87
452.13	9310.65
452.31	9310.65
452.49	9153.84
452.68	9233.41
452.86	9177.24
453.05	9500.23
453.23	9481.51
453.42	9217.03
453.60	9488.53
453.78	9343.42
453.97	9282.56
454.15	9418.32
454.34	9462.79
454.52	9708.54
454.70	9729.61
454.89	9820.89
455.07	9774.08
455.26	9760.03
455.44	9902.81
455.62	10038.56
455.81	9743.65
455.99	9963.66
456.17	10057.28
456.36	10113.45
456.54	10043.24
456.73	10225.80
456.91	10349.85
457.09	10263.25
457.28	10487.94
457.46	10214.10
457.64	10588.58
457.83	10555.82
458.01	10560.50
458.19	10534.75
458.38	10574.54
458.56	10635.39
458.74	10523.05
458.93	10473.90
459.11	10899.87
459.29	10509.01
459.48	10548.79
459.66	10703.27
459.84	10656.46
460.03	10965.41
460.21	10801.57
460.39	10743.06
460.57	10960.73
460.76	11119.89
460.94	11297.77
461.12	11157.33
461.31	11117.54
461.49	11241.59
461.67	11098.82
461.85	11229.89
462.04	11407.77
462.22	11810.34
462.40	11775.24
462.59	11302.45
462.77	11447.56
462.95	11632.46
463.13	11367.98
463.32	11543.52
463.50	11896.94
463.68	11676.93
463.86	11662.89
464.05	11627.78
464.23	11494.37
464.41	11580.97
464.59	11707.36
464.78	12095.89
464.96	11859.49
465.14	11955.46
465.32	12025.67
465.50	12133.34
465.69	11964.82
465.87	11868.86
466.05	11852.47
466.23	12035.03
466.41	12430.59
466.60	12278.45
466.78	12236.32
466.96	12355.69
467.14	12348.67
467.32	12271.43
467.51	12430.59
467.69	12049.08
467.87	12313.56
468.05	12507.82
468.23	12245.68
468.41	12416.54
468.60	12369.73
468.78	12690.38
468.96	12556.97
469.14	12664.64
469.32	12849.54
469.50	12776.98
469.69	13238.07
469.87	13083.59
470.05	13041.46
470.23	12863.58
470.41	12917.42
470.59	13212.32
470.77	12985.29
470.95	13121.04
471.14	13408.93
471.32	13102.32
471.50	13652.34
471.68	13240.41
471.86	13738.94
472.04	13827.88
472.22	14139.18
472.40	13514.25
472.58	13816.18
472.77	13949.59
472.95	14071.30
473.13	14471.53
473.31	13785.76
473.49	14225.78
473.67	14057.26
473.85	14260.88
474.03	14293.65
474.21	14705.59
474.39	14640.05
474.57	14581.54
474.75	14815.59
474.93	14771.12
475.12	14822.61
475.30	14745.38
475.48	15026.24
475.66	15236.89
475.84	15187.74
476.02	15421.79
476.20	15260.29
476.38	15803.30
476.56	15833.72
476.74	15910.96
476.92	16051.39
477.10	15728.40
477.28	15948.41
477.46	16105.23
477.64	16372.05
477.82	16538.23
478.00	16856.54
478.18	16877.60
478.36	16851.86
478.54	16919.73
478.72	17102.29
478.90	17319.96
479.08	17460.40
479.26	17277.83
479.44	17404.22
479.62	18012.76
479.80	17806.80
479.98	17984.68
480.16	18548.75
480.34	18410.65
480.52	18377.89
480.70	18403.63
480.88	18302.99
481.06	18359.16
481.24	18712.58
481.41	19037.92
481.59	18951.32
481.77	19213.46
481.95	19496.66
482.13	19452.19
482.31	19758.80
482.49	20034.99
482.67	20395.43
482.85	20098.18
483.03	20648.21
483.21	21076.52
483.39	20800.34
483.57	20655.23
483.74	20996.95
483.92	20999.29
484.10	21181.85
484.28	21476.76
484.46	21923.80
484.64	21963.59
484.82	21720.17
485.00	22394.25
485.18	22398.93
485.35	22691.49
485.53	23145.56
485.71	22981.72
485.89	23264.92
486.07	23290.67
486.25	23166.62
486.43	23463.87
486.61	23548.13
486.78	24109.86
486.96	24180.07
487.14	24641.16
487.32	24524.13
487.50	24601.37
487.68	24905.64
487.85	24905.64
488.03	25338.64
488.21	25738.87
488.39	25993.99
488.57	25811.43
488.75	26141.44
488.92	26321.66
489.10	26569.76
489.28	26625.93
489.46	26916.16
489.64	26553.38
489.81	27402.99
489.99	27477.89
490.17	27838.33
490.35	28095.79
490.53	27934.29
490.70	28168.35
490.88	27913.23
491.06	28823.70
491.24	28919.66
491.41	28931.36
491.59	29134.99
491.77	29146.69
491.95	29736.51
492.13	29546.92
492.30	29699.06
492.48	29996.31
492.66	30150.78
492.84	30457.39
493.01	30852.94
493.19	30328.66
493.37	30703.15
493.54	31033.16
493.72	31108.06
493.90	31463.82
494.08	31852.35
494.25	32027.89
494.43	31796.18
494.61	32091.09
494.79	32367.27
494.96	32568.55
495.14	32603.66
495.32	32542.81
495.49	33034.32
495.67	33364.34
495.85	33090.49
496.02	33722.44
496.20	33912.02
496.38	34010.32
496.55	33872.23
496.73	34462.05
496.91	34328.64
497.09	34965.26
497.26	34642.27
497.44	34822.49
497.62	34927.81
497.79	35543.38
497.97	35175.91
498.14	35442.73
498.32	35580.82
498.50	35819.56
498.67	36100.42
498.85	36456.18
499.03	36327.45
499.20	36928.97
499.38	36971.10
499.56	36821.31
499.73	36833.01
499.91	37308.14
500.08	37619.43
500.26	37092.81
500.44	37425.17
500.61	37823.06
500.79	37209.84
500.97	38085.20
501.14	38216.27
501.32	38134.35
501.49	38412.87
501.67	38394.15
501.84	39058.86
502.02	38843.53
502.20	38883.32
502.37	39042.48
502.55	38948.85
502.72	39096.31
502.90	39459.09
503.07	39402.92
503.25	39562.08
503.43	39398.24
503.60	39758.68
503.78	40072.31
503.95	39854.64
504.13	40306.37
504.30	40091.04
504.48	39920.18
504.65	40636.38
504.83	41001.50
505.01	41268.33
505.18	41193.43
505.36	41347.90
505.53	41237.90
505.71	41184.07
505.88	42017.30
506.06	41390.03
506.23	41722.39
506.41	41530.47
506.58	41902.61
506.76	42190.50
506.93	42225.60
507.11	42082.83
507.28	41741.11
507.46	42260.71
507.63	42504.13
507.81	43173.52
507.98	42553.28
508.16	42990.96
508.33	43323.32
508.50	43227.35
508.68	43353.74
508.85	43515.24
509.03	43758.66
509.20	43693.12
509.38	44172.93
509.55	44275.91
509.73	44547.42
509.90	44018.46
510.08	44573.16
510.25	44531.03
510.42	44807.22
510.60	44491.24
510.77	44945.31
510.95	45186.38
511.12	45118.51
511.30	45055.31
511.47	45144.25
511.64	44870.41
511.82	45942.38
511.99	45532.78
512.17	45701.30
512.34	45928.33
512.51	46113.23
512.69	45886.20
512.86	46417.50
513.04	46623.47
513.21	46298.14
513.38	46539.21
513.56	47068.17
513.73	46728.80
513.90	46534.53
514.08	46986.25
514.25	47040.09
514.43	47114.98
514.60	47599.47
514.77	47487.13
514.95	47360.74
515.12	47201.58
515.29	47599.47
515.47	47959.92
515.64	47753.95
515.81	48154.18
515.99	47899.06
516.16	48037.16
516.33	48046.52
516.51	48257.17
516.68	48198.65
516.85	48144.82
517.03	48928.90
517.20	48645.69
517.37	48549.73
517.54	48807.19
517.72	48828.26
517.89	49024.86
518.06	49045.93
518.24	49361.90
518.41	48727.61
518.58	49343.17
518.75	49078.69
518.93	49432.11
519.10	48975.71
519.27	49567.87
519.45	50073.42
519.62	49783.19
519.79	49696.59
519.96	49748.09
520.14	49855.75
520.31	49956.39
520.48	50108.53
520.65	50190.45
520.83	50319.18
521.00	50571.96
521.17	49837.03
521.34	50578.98
521.52	50543.87
521.69	50600.04
521.86	51026.02
522.03	50576.64
522.20	51143.05
522.38	51262.41
522.55	51105.60
522.72	51040.06
522.89	51231.99
523.07	51489.45
523.24	51519.87
523.41	51437.95
523.58	51428.59
523.75	51831.16
523.92	51388.80
524.10	51554.98
524.27	51697.75
524.44	51849.89
524.61	51777.33
524.78	52109.69
524.96	52034.79
525.13	52133.09
525.30	52250.12
525.47	52467.79
525.64	52596.52
525.81	52247.78
525.98	52315.65
526.16	52327.36
526.33	52381.19
526.50	52800.15
526.67	52523.96
526.84	52519.28
527.01	52786.10
527.18	52727.59
527.36	52652.69
527.53	52879.72
527.70	53020.16
527.87	53279.96
528.04	53125.48
528.21	53436.77
528.38	53155.91
528.55	53130.16
528.72	53256.55
528.89	53317.40
529.07	53181.65
529.24	53261.23
529.41	53469.54
529.58	53553.80
529.75	53460.18
529.92	53488.26
530.09	53406.34
530.26	53724.66
530.43	54138.93
530.60	53518.69
530.77	53673.16
530.94	54026.59
531.11	53909.56
531.28	54014.88
531.46	53989.14
531.63	54019.56
531.80	54071.06
531.97	54129.57
532.14	54520.44
532.31	53998.50
532.48	54536.82
532.65	54490.01
532.82	54356.60
532.99	54358.94
533.16	54410.43
533.33	54831.73
533.50	54775.56
533.67	54667.89
533.84	54590.66
534.01	54747.47
534.18	54611.72
534.35	55145.36
534.52	54932.37
534.69	55070.46
534.86	55084.51
535.03	54913.65
535.20	55114.94
535.37	55004.93
535.54	55365.37
535.71	55089.19
535.88	55386.44
536.05	55227.28
536.22	55264.73
536.38	55625.17
536.55	55613.47
536.72	55538.57
536.89	55229.62
537.06	55622.83
537.23	55632.19
537.40	55491.76
537.57	55615.81
537.74	55552.62
537.91	56086.26
538.08	55859.23
538.25	55618.15
538.42	55576.02
538.59	55730.50
538.75	55620.49
538.92	55922.42
539.09	56002.00
539.26	56002.00
539.43	55807.73
539.60	55950.51
539.77	56140.09
539.94	56240.73
540.11	56243.07
540.28	56214.99
540.44	56189.24
540.61	56191.58
540.78	55962.21
540.95	56423.29
541.12	56203.28
541.29	56240.73
541.46	56353.08
541.62	56376.48
541.79	56334.35
541.96	56020.72
542.13	56589.47
542.30	56399.89
542.47	56596.49
542.63	56725.22
542.80	56835.23
542.97	56928.85
543.14	57125.46
543.31	57305.68
543.48	57172.27
543.64	57333.76
543.81	57254.18
543.98	57308.02
544.15	57228.44
544.32	57277.59
544.48	57324.40
544.65	57188.65
544.82	57331.42
544.99	57153.54
545.16	57310.36
545.32	57401.64
545.49	57425.04
545.66	57623.99
545.83	57422.70
546.00	57469.51
546.16	57406.32
546.33	57359.51
546.50	57272.91
546.67	57705.91
546.83	57513.98
547.00	57572.50
547.17	57584.20
547.34	57638.03
547.50	57752.72
547.67	57834.64
547.84	57893.15
548.00	57827.62
548.17	58101.46
548.34	57808.89
548.51	58174.02
548.67	58164.65
548.84	58099.12
549.01	57942.30
549.18	57904.85
549.34	58141.25
549.51	58246.57
549.68	58178.70
549.84	58244.23
550.01	58166.99
550.18	58230.19
550.34	58213.80
550.51	58494.67
550.68	58415.09
550.84	57944.64
551.01	58454.88
551.18	58391.68
551.34	58279.34
551.51	58468.92
551.68	58557.86
551.84	58707.66
552.01	58284.02
552.18	58368.28
552.34	58337.85
552.51	58468.92
552.68	58372.96
552.84	58595.31
553.01	58915.96
553.18	58667.87
553.34	58602.33
553.51	58379.98
553.67	58749.79
553.84	58834.05
554.01	58901.92
554.17	58951.07
554.34	58798.94
554.51	58866.81
554.67	58871.49
554.84	58796.60
555.00	58845.75
555.17	58864.47
555.33	58997.88
555.50	58869.15
555.67	59035.33
555.83	59028.31
556.00	58944.05
556.16	59124.27
556.33	59171.08
556.50	59065.76
556.66	59208.53
556.83	58983.84
556.99	59135.98
557.16	59475.35
557.32	59524.50
557.49	59400.46
557.65	59311.52
557.82	59173.42
557.98	59278.75
558.15	59316.20
558.32	59133.63
558.48	59210.87
558.65	59337.26
558.81	59451.95
558.98	59449.61
559.14	59482.37
559.31	59817.07
559.47	59580.68
559.64	59632.17
559.80	59428.54
559.97	59753.88
560.13	59351.30
560.30	59381.73
560.46	59611.10
560.63	59702.38
560.79	59660.26
560.96	59714.09
561.12	59578.34
561.29	59718.77
561.45	59877.93
561.61	59992.61
561.78	59840.48
561.94	59531.53
562.11	59732.81
562.27	59821.75
562.44	59835.80
562.60	59948.14
562.77	60006.65
562.93	59756.22
563.10	59763.24
563.26	59875.58
563.42	60048.78
563.59	59877.93
563.75	59877.93
563.92	60023.04
564.08	59875.58
564.24	60163.47
564.41	60062.83
564.57	60051.12
564.74	60196.24
564.90	60100.28
565.07	59955.16
565.23	59955.16
565.39	60055.81
565.56	60067.51
565.72	60102.62
565.88	60224.32
566.05	59955.16
566.21	59828.77
566.38	60083.89
566.54	60266.45
566.70	60210.28
566.87	60287.52
567.03	59922.40
567.19	60210.28
567.36	60205.60
567.52	60151.77
567.68	60547.32
567.85	60315.61
568.01	60413.91
568.17	60299.22
568.34	60317.95
568.50	60306.24
568.66	60250.07
568.83	60275.82
568.99	60285.18
569.15	60313.26
569.32	60315.61
569.48	60020.70
569.64	60381.14
569.81	60463.06
569.97	60226.66
570.13	60163.47
570.30	60210.28
570.46	60383.48
570.62	60331.99
570.78	60481.78
570.95	60299.22
571.11	60376.46
571.27	60608.17
571.43	60493.49
571.60	60619.88
571.76	60364.76
571.92	60413.91
572.09	60554.34
572.25	60369.44
572.41	60296.88
572.57	60392.84
572.74	60509.87
572.90	60390.50
573.06	60420.93
573.22	60612.85
573.38	60470.08
573.55	60470.08
573.71	60793.07
573.87	60587.11
574.03	60336.67
574.20	60488.80
574.36	60540.30
574.52	60727.54
574.68	60523.91
574.84	60549.66
575.01	60451.36
575.17	60530.93
575.33	60420.93
575.49	60535.62
575.65	60713.50
575.82	60666.69
575.98	60725.20
576.14	60954.57
576.30	60828.18
576.46	60484.12
576.62	60673.71
576.79	60800.10
576.95	60441.99
577.11	60528.59
577.27	60561.36
577.43	60772.01
577.59	60570.72
577.75	60526.25
577.92	60683.07
578.08	60753.29
578.24	60839.89
578.40	60748.60
578.56	60786.05
578.72	60570.72
578.88	60973.30
579.04	60924.14
579.21	60788.39
579.37	60727.54
579.53	61015.43
579.69	60776.69
579.85	60638.60
580.01	60694.77
580.17	60629.24
580.33	60757.97
580.49	60669.03
580.65	60790.73
580.82	60673.71
580.98	60636.26
581.14	60601.15
581.30	60664.35
581.46	60800.10
581.62	60917.12
581.78	60748.60
581.94	60755.63
582.10	60690.09
582.26	60755.63
582.42	60804.78
582.58	60844.57
582.74	60734.56
582.90	60727.54
583.06	60603.49
583.22	60570.72
583.38	60666.69
583.54	60900.74
583.70	60762.65
583.86	60783.71
584.02	60746.26
584.18	60823.50
584.34	60877.33
584.50	60605.83
584.66	60886.70
584.82	60828.18
584.98	61041.17
585.14	60961.59
585.30	60811.80
585.46	60900.74
585.62	60811.80
585.78	61066.92
585.94	60690.09
586.10	60800.10
586.26	61008.40
586.42	60842.23
586.58	60807.12
586.74	60907.76
586.90	60910.10
587.06	60750.94
587.22	61076.28
587.38	60935.85
587.54	60994.36
587.70	60963.93
587.86	60884.36
588.02	60963.93
588.18	60961.59
588.34	60987.34
588.49	60912.44
