SpectraSuite Data File
++++++++++++++++++++++++++++++++++++
Date: Fri Oct 25 11:26:10 EDT 2013
User: price-jones
Dark Spectrum Present: No
Reference Spectrum Present: No
Number of Sampled Component Spectra: 1
Spectrometers: USB2+H05261
Integration Time (usec): 100000 (USB2+H05261)
Spectra Averaged: 1 (USB2+H05261)
Boxcar Smoothing: 0 (USB2+H05261)
Correct for Electrical Dark: No (USB2+H05261)
Strobe/Lamp Enabled: No (USB2+H05261)
Correct for Detector Non-linearity: No (USB2+H05261)
Correct for Stray Light: No (USB2+H05261)
Number of Pixels in Processed Spectrum: 2048
>>>>>Begin Processed Spectral Data<<<<<
365.73	231.71
365.92	231.71
366.12	231.71
366.32	91.28
366.52	128.73
366.72	215.33
366.91	191.92
367.11	131.07
367.31	107.66
367.51	149.79
367.70	119.37
367.90	196.60
368.10	112.35
368.30	140.43
368.49	145.11
368.69	203.63
368.89	191.92
369.09	145.11
369.28	191.92
369.48	145.11
369.68	166.18
369.87	142.77
370.07	248.10
370.27	285.55
370.47	360.44
370.66	575.77
370.86	650.67
371.06	662.37
371.25	645.99
371.45	596.84
371.65	645.99
371.84	641.31
372.04	688.12
372.24	781.74
372.44	671.73
372.63	734.93
372.83	711.52
373.03	760.67
373.22	730.25
373.42	777.06
373.62	748.97
373.81	807.48
374.01	833.23
374.21	725.57
374.40	784.08
374.60	830.89
374.79	777.06
374.99	823.87
375.19	774.72
375.38	840.25
375.58	779.40
375.78	819.19
375.97	809.83
376.17	908.13
376.37	870.68
376.56	863.66
376.76	849.61
376.95	788.76
377.15	849.61
377.35	919.83
377.54	990.05
377.74	851.96
377.93	877.70
378.13	823.87
378.33	954.94
378.52	924.51
378.72	954.94
378.91	978.34
379.11	926.85
379.31	990.05
379.50	903.45
379.70	973.66
379.89	1032.18
380.09	1046.22
380.28	1043.88
380.48	1004.09
380.68	1020.47
380.87	1039.20
381.07	1125.80
381.26	1102.39
381.46	1069.62
381.65	947.92
381.85	1102.39
382.04	1046.22
382.24	1083.67
382.43	1039.20
382.63	1036.86
382.83	1067.28
383.02	1104.73
383.22	1093.03
383.41	1100.05
383.61	1029.84
383.80	1064.94
384.00	1144.52
384.19	1093.03
384.39	1191.33
384.58	1221.76
384.78	1083.67
384.97	1121.12
385.17	1146.86
385.36	1207.72
385.56	1128.14
385.75	1196.01
385.95	1188.99
386.14	1179.63
386.34	1233.46
386.53	1268.57
386.72	1217.08
386.92	1268.57
387.11	1336.45
387.31	1329.42
387.50	1224.10
387.70	1266.23
387.89	1301.34
388.09	1313.04
388.28	1207.72
388.48	1350.49
388.67	1348.15
388.86	1277.93
389.06	1310.70
389.25	1364.53
389.45	1362.19
389.64	1329.42
389.84	1369.21
390.03	1390.28
390.22	1369.21
390.42	1383.26
390.61	1378.58
390.81	1432.41
391.00	1385.60
391.19	1409.00
391.39	1427.73
391.58	1483.90
391.78	1373.89
391.97	1540.07
392.16	1467.52
392.36	1523.69
392.55	1561.14
392.75	1507.30
392.94	1565.82
393.13	1537.73
393.33	1577.52
393.52	1624.33
393.71	1516.67
393.91	1636.03
394.10	1540.07
394.29	1591.56
394.49	1509.65
394.68	1633.69
394.88	1724.97
395.07	1675.82
395.26	1713.27
395.46	1600.93
395.65	1626.67
395.84	1682.85
396.04	1696.89
396.23	1722.63
396.42	1809.23
396.62	1781.15
396.81	1720.29
397.00	1734.34
397.19	1804.55
397.39	1806.89
397.58	1795.19
397.77	1832.64
397.97	1900.52
398.16	1827.96
398.35	1811.57
398.55	1914.56
398.74	1947.33
398.93	1994.14
399.12	1907.54
399.32	1912.22
399.51	1940.30
399.70	2078.40
399.90	1907.54
400.09	2003.50
400.28	2054.99
400.47	1888.81
400.67	2169.68
400.86	2197.76
401.05	2008.18
401.24	2087.76
401.44	2214.15
401.63	2174.36
401.82	2225.85
402.01	2097.12
402.21	2195.42
402.40	2190.74
402.59	2296.07
402.78	2284.36
402.97	2286.70
403.17	2293.72
403.36	2267.98
403.55	2267.98
403.74	2338.20
403.93	2305.43
404.13	2394.37
404.32	2356.92
404.51	2406.07
404.70	2413.09
404.89	2394.37
405.09	2406.07
405.28	2396.71
405.47	2459.90
405.66	2630.76
405.85	2541.82
406.05	2527.78
406.24	2509.05
406.43	2485.65
406.62	2534.80
406.81	2551.18
407.00	2560.55
407.20	2654.17
407.39	2675.23
407.58	2698.64
407.77	2675.23
407.96	2647.15
408.15	2778.22
408.34	2719.70
408.54	2775.88
408.73	2864.82
408.92	2841.41
409.11	2780.56
409.30	2899.92
409.49	2965.46
409.68	2939.71
409.87	3077.80
410.07	3035.67
410.26	3007.59
410.45	2909.29
410.64	2960.78
410.83	3021.63
411.02	3070.78
411.21	3241.64
411.40	3206.53
411.59	3143.34
411.78	3166.74
411.98	3190.15
412.17	3262.71
412.36	3353.99
412.55	3304.84
412.74	3471.01
412.93	3337.60
413.12	3391.44
413.31	3550.59
413.50	3576.34
413.69	3520.17
413.88	3456.97
414.07	3595.06
414.26	3712.09
414.45	3679.32
414.64	3716.77
414.83	3728.47
415.02	3796.35
415.22	3765.92
415.41	3817.41
415.60	3833.80
415.79	3847.84
415.98	3847.84
416.17	4077.21
416.36	4049.13
416.55	3969.55
416.74	4184.88
416.93	3927.42
417.12	4014.02
417.31	4173.18
417.50	4091.26
417.69	4212.96
417.88	4175.52
418.07	4175.52
418.26	4149.77
418.45	4271.48
418.64	4489.15
418.83	4344.03
419.02	4461.06
419.21	4528.94
419.39	4486.81
419.58	4489.15
419.77	4470.42
419.96	4643.62
420.15	4470.42
420.34	4606.17
420.53	4645.96
420.72	4568.73
420.91	4720.86
421.10	4889.38
421.29	4723.20
421.48	4664.69
421.67	4814.48
421.86	4847.25
422.05	4884.70
422.24	4826.18
422.43	4741.93
422.61	4894.06
422.80	4947.89
422.99	4915.12
423.18	4840.23
423.37	4922.15
423.56	4940.87
423.75	4919.81
423.94	4727.88
424.13	4585.11
424.32	4802.78
424.50	4933.85
424.69	5050.88
424.88	5067.26
425.07	5083.64
425.26	4938.53
425.45	4882.36
425.64	5046.20
425.83	4868.31
426.01	5069.60
426.20	5179.61
426.39	5020.45
426.58	5022.79
426.77	5078.96
426.96	5093.01
427.15	5067.26
427.33	5191.31
427.52	5193.65
427.71	5305.99
427.90	5240.46
428.09	5357.49
428.28	5268.55
428.46	5418.34
428.65	5334.08
428.84	5423.02
429.03	5535.37
429.22	5376.21
429.40	5294.29
429.59	5401.96
429.78	5301.31
429.97	5336.42
430.16	5460.47
430.34	5610.26
430.53	5607.92
430.72	5621.97
430.91	5570.48
431.10	5699.20
431.28	5753.04
431.47	5905.17
431.66	5935.60
431.85	5689.84
432.03	5959.00
432.22	6111.14
432.41	5879.43
432.60	5961.34
432.79	5778.78
432.97	5923.90
433.16	6012.84
433.35	6017.52
433.54	6132.20
433.72	6162.63
433.91	6155.61
434.10	6036.24
434.28	6127.52
434.47	6162.63
434.66	6129.86
434.85	6174.33
435.03	6218.80
435.22	6347.53
435.41	6328.81
435.59	6277.32
435.78	6349.87
435.97	6583.93
436.16	6492.65
436.34	6476.26
436.53	6279.66
436.72	6738.40
436.90	6417.75
437.09	6600.31
437.28	6544.14
437.46	6705.63
437.65	6745.42
437.84	6661.16
438.02	6469.24
438.21	6691.59
438.40	6796.92
438.58	7096.50
438.77	6993.52
438.96	6920.96
439.14	7201.83
439.33	7030.97
439.52	7302.47
439.70	7171.40
439.89	7342.26
440.08	7178.42
440.26	7382.05
440.45	7302.47
440.63	7396.09
440.82	7529.50
441.01	7426.52
441.19	7609.08
441.38	7679.30
441.57	7672.28
441.75	7920.37
441.94	7831.43
442.12	7913.35
442.31	8042.08
442.50	8042.08
442.68	7854.84
442.87	7976.55
443.05	7864.20
443.24	8112.30
443.43	8086.55
443.61	8138.04
443.80	8379.12
443.98	7868.88
444.17	7953.14
444.35	8163.79
444.54	8425.93
444.73	8273.79
444.91	8184.85
445.10	8505.51
445.28	8336.99
445.47	8241.03
445.65	8177.83
445.84	8505.51
446.02	8465.72
446.21	8484.44
446.39	8404.86
446.58	8564.02
446.77	8505.51
446.95	8187.19
447.14	8386.14
447.32	8564.02
447.51	8348.69
447.69	8549.98
447.88	8465.72
448.06	8564.02
448.25	8496.14
448.43	8566.36
448.62	8421.25
448.80	8652.96
448.99	8592.11
449.17	8711.47
449.36	8762.97
449.54	8702.11
449.73	8968.93
449.91	9097.66
450.10	8812.12
450.28	9006.38
450.46	9071.92
450.65	8985.32
450.83	9022.77
451.02	9109.36
451.20	9308.31
451.39	9090.64
451.57	8940.85
451.76	9067.24
451.94	9057.87
452.13	9240.44
452.31	9430.02
452.49	9135.11
452.68	9259.16
452.86	9329.38
453.05	9345.76
453.23	9500.23
453.42	9364.48
453.60	9228.73
453.78	9502.58
453.97	9518.96
454.15	9502.58
454.34	9415.98
454.52	9762.37
454.70	9631.30
454.89	9647.69
455.07	9694.50
455.26	9680.46
455.44	9757.69
455.62	9996.43
455.81	9951.96
455.99	9975.36
456.17	10061.96
456.36	10197.71
456.54	10136.86
456.73	10186.01
456.91	10459.85
457.09	10483.26
457.28	10628.37
457.46	10289.00
457.64	10366.23
457.83	10490.28
458.01	10544.11
458.19	10736.04
458.38	10443.47
458.56	10785.19
458.74	10647.10
458.93	10527.73
459.11	10757.10
459.29	10984.13
459.48	10590.92
459.66	10710.29
459.84	10953.71
460.03	11105.84
460.21	10942.00
460.39	10885.83
460.57	11056.69
460.76	11002.86
460.94	10970.09
461.12	11105.84
461.31	11047.33
461.49	11098.82
461.67	11044.99
461.85	11377.34
462.04	11419.47
462.22	11702.68
462.40	11555.22
462.59	11433.52
462.77	11220.53
462.95	11506.07
463.13	11529.48
463.32	11723.74
463.50	11719.06
463.68	11728.42
463.86	11971.84
464.05	11651.19
464.23	11655.87
464.41	11868.86
464.59	11566.93
464.78	11915.67
464.96	11838.43
465.14	11929.71
465.32	12189.51
465.50	11913.33
465.69	12280.79
465.87	12025.67
466.05	12065.46
466.23	11995.25
466.41	12154.40
466.60	12416.54
466.78	12145.04
466.96	12372.07
467.14	12589.74
467.32	12404.84
467.51	12496.12
467.69	12163.76
467.87	12140.36
468.05	12622.51
468.23	12365.05
468.41	12320.58
468.60	12767.62
468.78	12568.68
468.96	12479.74
469.14	12828.48
469.32	13104.66
469.50	12559.31
469.69	13006.36
469.87	13071.89
470.05	13074.23
470.23	13053.17
470.41	12957.21
470.59	13153.81
470.77	12912.74
470.95	13132.75
471.14	13509.57
471.32	13184.24
471.50	13757.67
471.68	13813.84
471.86	13628.94
472.04	13603.19
472.22	14134.50
472.40	13465.10
472.58	13853.63
472.77	13870.01
472.95	13764.69
473.13	14551.11
473.31	14097.05
473.49	14101.73
473.67	14148.54
473.85	14202.37
474.03	14487.92
474.21	14473.87
474.39	14740.69
474.57	14707.93
474.75	15009.86
474.93	14963.04
475.12	14738.35
475.30	14984.11
475.48	15124.54
475.66	14895.17
475.84	15227.53
476.02	15335.19
476.20	15288.38
476.38	15728.40
476.56	15997.56
476.74	16011.60
476.92	15882.88
477.10	15669.89
477.28	16046.71
477.46	15981.18
477.64	16332.26
477.82	16470.35
478.00	16690.36
478.18	16744.19
478.36	17139.74
478.54	16842.50
478.72	17181.87
478.90	17268.47
479.08	17418.27
479.26	17338.69
479.44	17762.33
479.62	17792.75
479.80	17991.70
479.98	18167.24
480.16	18244.48
480.34	18204.69
480.52	18370.86
480.70	18614.28
480.88	18462.15
481.06	18988.77
481.24	18864.72
481.41	18630.66
481.59	19290.70
481.77	19358.57
481.95	19627.73
482.13	19658.16
482.31	19777.53
482.49	20002.22
482.67	20276.06
482.85	20224.57
483.03	20585.01
483.21	20479.69
483.39	21282.49
483.57	20835.45
483.74	21032.05
483.92	21345.69
484.10	21254.40
484.28	21523.57
484.46	21774.00
484.64	22295.94
484.82	22073.59
485.00	22448.08
485.18	22471.48
485.35	22518.29
485.53	22518.29
485.71	22712.56
485.89	23662.82
486.07	23103.43
486.25	23157.26
486.43	23419.40
486.61	23847.72
486.78	23859.42
486.96	23981.13
487.14	24432.85
487.32	24339.23
487.50	24872.87
487.68	24694.99
487.85	25025.01
488.03	25607.80
488.21	25689.72
488.39	25773.98
488.57	26043.14
488.75	25975.27
488.92	26607.21
489.10	26604.87
489.28	26544.02
489.46	26909.14
489.64	26644.66
489.81	27398.31
489.99	27435.76
490.17	27538.74
490.35	28348.57
490.53	28294.74
490.70	28229.20
490.88	28194.09
491.06	28276.01
491.24	28503.04
491.41	28980.51
491.59	28819.02
491.77	29340.96
491.95	29385.43
492.13	29661.61
492.30	30162.48
492.48	29984.60
492.66	30263.13
492.84	30246.74
493.01	30462.07
493.19	30635.27
493.37	30677.40
493.54	31035.50
493.72	31274.24
493.90	31491.91
494.08	31847.67
494.25	32224.50
494.43	31744.69
494.61	32123.85
494.79	32451.53
494.96	32416.42
495.14	32849.42
495.32	32769.84
495.49	32697.28
495.67	33195.82
495.85	33446.26
496.02	33795.00
496.20	33816.06
496.38	34115.65
496.55	34078.20
496.73	34356.72
496.91	34181.18
497.09	34686.74
497.26	34780.36
497.44	34824.83
497.62	35356.13
497.79	35424.01
497.97	35306.98
498.14	35842.96
498.32	35505.93
498.50	36116.81
498.67	35992.76
498.85	36224.47
499.03	36521.72
499.20	36711.30
499.38	36559.17
499.56	36945.36
499.73	36898.55
499.91	36814.29
500.08	37471.98
500.26	37530.49
500.44	37422.83
500.61	37839.44
500.79	37900.29
500.97	38122.65
501.14	38319.25
501.32	38300.53
501.49	38328.61
501.67	38843.53
501.84	38796.72
502.02	38607.14
502.20	38560.33
502.37	39103.33
502.55	39136.10
502.72	39330.36
502.90	39353.77
503.07	39299.94
503.25	39590.16
503.43	39742.30
503.60	40254.87
503.78	39840.60
503.95	40282.96
504.13	40505.31
504.30	40479.57
504.48	40172.96
504.65	40091.04
504.83	40996.82
505.01	41031.93
505.18	41205.13
505.36	41460.25
505.53	41109.17
505.71	41883.89
505.88	41897.93
506.06	41357.27
506.23	41858.14
506.41	41853.46
506.58	41890.91
506.76	42099.22
506.93	42291.14
507.11	42279.44
507.28	42234.97
507.46	42511.15
507.63	42742.86
507.81	43267.14
507.98	42635.20
508.16	43072.88
508.33	43599.50
508.50	43412.26
508.68	43365.45
508.85	43721.21
509.03	43910.79
509.20	43756.32
509.38	44505.29
509.55	44402.30
509.73	44416.35
509.90	44341.45
510.08	44016.11
510.25	44708.91
510.42	44456.14
510.60	45141.91
510.77	45029.57
510.95	45097.44
511.12	44811.90
511.30	45223.83
511.47	45537.46
511.64	45432.14
511.82	45647.47
511.99	45509.38
512.17	45666.19
512.34	45694.28
512.51	46298.14
512.69	46124.94
512.86	46344.95
513.04	46677.30
513.21	46380.06
513.38	46302.82
513.56	46581.34
513.73	46567.30
513.90	46780.29
514.08	47100.94
514.25	47276.48
514.43	47384.15
514.60	47012.00
514.77	46997.96
514.95	47367.76
515.12	47501.17
515.29	47234.35
515.47	47840.55
515.64	47711.82
515.81	47604.16
515.99	48002.05
516.16	48500.58
516.33	47770.33
516.51	48460.79
516.68	48182.27
516.85	48413.98
517.03	48704.21
517.20	48397.60
517.37	48184.61
517.54	48411.64
517.72	48708.89
517.89	48896.13
518.06	49169.97
518.24	48821.23
518.41	48659.74
518.58	49289.34
518.75	49298.70
518.93	49579.57
519.10	49247.21
519.27	49556.16
519.45	49731.70
519.62	49893.20
519.79	49724.68
519.96	50068.74
520.14	50127.25
520.31	50010.23
520.48	50190.45
520.65	49907.24
520.83	50515.78
521.00	50323.86
521.17	50361.31
521.34	50356.63
521.52	50637.49
521.69	50473.65
521.86	50852.82
522.03	50990.91
522.20	51189.86
522.38	51508.17
522.55	51187.52
522.72	50894.95
522.89	50944.10
523.07	51693.07
523.24	51353.69
523.41	51634.56
523.58	51709.46
523.75	51854.57
523.92	51444.98
524.10	51456.68
524.27	52055.85
524.44	51892.02
524.61	51924.78
524.78	52184.58
524.96	52388.21
525.13	52107.35
525.30	52336.72
525.47	52097.98
525.64	52416.30
525.81	52552.05
525.98	52612.90
526.16	52219.69
526.33	52676.10
526.50	52846.96
526.67	52676.10
526.84	52739.29
527.01	52952.28
527.18	52924.19
527.36	52879.72
527.53	52685.46
527.70	53345.49
527.87	52982.71
528.04	52954.62
528.21	53258.89
528.38	53153.57
528.55	53357.19
528.72	53495.28
528.89	53181.65
529.07	53308.04
529.24	53361.87
529.41	53698.91
529.58	53329.11
529.75	53661.46
529.92	53626.35
530.09	53656.78
530.26	53741.04
530.43	53979.78
530.60	53530.39
530.77	53645.08
530.94	53998.50
531.11	53792.53
531.28	53965.73
531.46	53951.69
531.63	53963.39
531.80	54323.83
531.97	54075.74
532.14	54515.76
532.31	54213.83
532.48	54277.02
532.65	54656.19
532.82	54494.69
532.99	54611.72
533.16	54370.64
533.33	54515.76
533.50	54855.14
533.67	54642.15
533.84	54513.42
534.01	54735.77
534.18	54754.49
534.35	55035.36
534.52	55063.44
534.69	55119.62
534.86	55124.30
535.03	54798.96
535.20	55000.25
535.37	55105.57
535.54	55150.04
535.71	55157.06
535.88	55213.24
536.05	55437.93
536.22	55622.83
536.38	55526.87
536.55	55253.03
536.72	55430.91
536.89	55372.39
537.06	55547.93
537.23	55707.09
537.40	55667.30
537.57	55693.05
537.74	55674.32
537.91	55861.57
538.08	55913.06
538.25	55814.76
538.42	55772.63
538.59	55962.21
538.75	55774.97
538.92	56023.06
539.09	55990.30
539.26	56023.06
539.43	55964.55
539.60	56172.86
539.77	56114.34
539.94	56229.03
540.11	56243.07
540.28	56069.87
540.44	56355.42
540.61	56324.99
540.78	56292.22
540.95	56224.35
541.12	56097.96
541.29	56535.64
541.46	56294.56
541.62	56739.27
541.79	56587.13
541.96	56051.15
542.13	56367.12
542.30	56437.34
542.47	56755.65
542.63	56692.46
542.80	56821.19
542.97	57102.05
543.14	56905.44
543.31	57027.15
543.48	57076.30
543.64	57209.71
543.81	57144.18
543.98	57286.95
544.15	57387.60
544.32	57216.74
544.48	57551.43
544.65	57275.25
544.82	57380.57
544.99	57158.22
545.16	57249.50
545.32	57286.95
545.49	57687.18
545.66	57471.85
545.83	57308.02
546.00	57855.70
546.16	57528.03
546.33	57591.22
546.50	57265.89
546.67	57638.03
546.83	57298.65
547.00	57544.41
547.17	57577.18
547.34	57684.84
547.50	57579.52
547.67	57916.56
547.84	57914.22
548.00	58047.63
548.17	58045.29
548.34	57839.32
548.51	58185.72
548.67	58031.24
548.84	57865.06
549.01	57986.77
549.18	58188.06
549.34	57984.43
549.51	58101.46
549.68	58398.71
549.84	57989.11
550.01	58286.36
550.18	58155.29
550.34	58412.75
550.51	58171.67
550.68	58279.34
550.84	57804.21
551.01	58401.05
551.18	58316.79
551.34	58370.62
551.51	58417.43
551.68	58412.75
551.84	58670.21
552.01	58321.47
552.18	58422.11
552.34	58164.65
552.51	58520.41
552.68	58468.92
552.84	58623.40
553.01	58777.87
553.18	58604.67
553.34	58749.79
553.51	58660.85
553.67	58841.07
553.84	58794.26
554.01	58777.87
554.17	59040.01
554.34	59030.65
554.51	58892.56
554.67	59061.08
554.84	58738.08
555.00	58932.35
555.17	59028.31
555.33	58887.88
555.50	58773.19
555.67	58852.77
555.83	59175.76
556.00	59018.95
556.16	59283.43
556.33	59208.53
556.50	59105.55
556.66	59332.58
556.83	58862.13
556.99	59264.70
557.16	59309.18
557.32	59344.28
557.49	59435.56
557.65	59381.73
557.82	59180.45
557.98	59152.36
558.15	59458.97
558.32	59419.18
558.48	59203.85
558.65	59447.27
558.81	59283.43
558.98	59421.52
559.14	59531.53
559.31	59517.48
559.47	59578.34
559.64	59550.25
559.80	59622.81
559.97	59599.40
560.13	59601.74
560.30	59615.79
560.46	59728.13
560.63	59690.68
560.79	59608.76
560.96	59889.63
561.12	59576.00
561.29	59901.33
561.45	59784.30
561.61	59606.42
561.78	59709.41
561.94	59742.17
562.11	59889.63
562.27	59601.74
562.44	59742.17
562.60	60006.65
562.77	59903.67
562.93	59814.73
563.10	60170.49
563.26	59896.65
563.42	60123.68
563.59	59894.31
563.75	59798.35
563.92	60053.47
564.08	59983.25
564.24	60224.32
564.41	60041.76
564.57	59950.48
564.74	60051.12
564.90	60137.72
565.07	60076.87
565.23	60168.15
565.39	60037.08
565.56	60123.68
565.72	60236.03
565.88	60170.49
566.05	60027.72
566.21	60088.57
566.38	60041.76
566.54	60095.60
566.70	60123.68
566.87	60439.65
567.03	60156.45
567.19	60441.99
567.36	60353.05
567.52	60280.50
567.68	60584.77
567.85	60168.15
568.01	60275.82
568.17	60329.65
568.34	60378.80
568.50	60292.20
568.66	60149.43
568.83	60331.99
568.99	60282.84
569.15	60367.10
569.32	60278.16
569.48	60430.29
569.64	60603.49
569.81	60334.33
569.97	60104.96
570.13	60430.29
570.30	60151.77
570.46	60486.46
570.62	60327.31
570.78	60437.31
570.95	60364.76
571.11	60467.74
571.27	60219.64
571.43	60502.85
571.60	60544.98
571.76	60364.76
571.92	60654.98
572.09	60636.26
572.25	60507.53
572.41	60425.61
572.57	60327.31
572.74	60594.13
572.90	60334.33
573.06	60584.77
573.22	60662.00
573.38	60516.89
573.55	60594.13
573.71	60781.37
573.87	60711.16
574.03	60594.13
574.20	60603.49
574.36	60575.40
574.52	60521.57
574.68	60863.29
574.84	60849.25
575.01	60783.71
575.17	60708.82
575.33	60622.22
575.49	60652.64
575.65	60467.74
575.82	60945.21
575.98	60566.04
576.14	60715.84
576.30	60605.83
576.46	60322.63
576.62	60612.85
576.79	60582.43
576.95	60498.17
577.11	60743.92
577.27	60662.00
577.43	60809.46
577.59	60910.10
577.75	60713.50
577.92	60640.94
578.08	60563.70
578.24	60664.35
578.40	60692.43
578.56	61059.90
578.72	60526.25
578.88	60952.23
579.04	60860.95
579.21	60722.86
579.37	60966.27
579.53	60924.14
579.69	60533.28
579.85	60823.50
580.01	60596.47
580.17	60594.13
580.33	60849.25
580.49	61064.58
580.65	60893.72
580.82	60865.63
580.98	60647.96
581.14	60762.65
581.30	60935.85
581.46	60669.03
581.62	60757.97
581.78	60741.58
581.94	60874.99
582.10	60757.97
582.26	60832.86
582.42	60640.94
582.58	60879.67
582.74	60659.66
582.90	60926.49
583.06	60743.92
583.22	60870.31
583.38	60860.95
583.54	60732.22
583.70	60893.72
583.86	60905.42
584.02	60956.91
584.18	61003.72
584.34	60949.89
584.50	60783.71
584.66	60584.77
584.82	60659.66
584.98	61165.22
585.14	61183.94
585.30	60807.12
585.46	61155.86
585.62	60790.73
585.78	61087.98
585.94	61003.72
586.10	60985.00
586.26	61095.00
586.42	61104.37
586.58	60905.42
586.74	60952.23
586.90	60842.23
587.06	60999.04
587.22	61010.74
587.38	60919.46
587.54	61073.94
587.70	60898.40
587.86	60844.57
588.02	61132.45
588.18	61230.75
588.34	60772.01
