SpectraSuite Data File
++++++++++++++++++++++++++++++++++++
Date: Fri Oct 25 10:44:07 EDT 2013
User: price-jones
Dark Spectrum Present: No
Reference Spectrum Present: No
Number of Sampled Component Spectra: 1
Spectrometers: USB2+H05261
Integration Time (usec): 100000 (USB2+H05261)
Spectra Averaged: 1 (USB2+H05261)
Boxcar Smoothing: 0 (USB2+H05261)
Correct for Electrical Dark: No (USB2+H05261)
Strobe/Lamp Enabled: No (USB2+H05261)
Correct for Detector Non-linearity: No (USB2+H05261)
Correct for Stray Light: No (USB2+H05261)
Number of Pixels in Processed Spectrum: 2048
>>>>>Begin Processed Spectral Data<<<<<
365.73	112.35
365.92	112.35
366.12	112.35
366.32	65.54
366.52	11.70
366.72	65.54
366.91	56.17
367.11	44.47
367.31	21.06
367.51	0.00
367.70	9.36
367.90	0.00
368.10	58.51
368.30	28.09
368.49	30.43
368.69	67.88
368.89	11.70
369.09	77.24
369.28	102.98
369.48	49.15
369.68	74.90
369.87	107.66
370.07	79.58
370.27	133.41
370.47	215.33
370.66	353.42
370.86	379.17
371.06	463.43
371.25	440.02
371.45	503.22
371.65	451.72
371.84	465.77
372.04	493.85
372.24	435.34
372.44	517.26
372.63	447.04
372.83	535.98
373.03	496.19
373.22	479.81
373.42	554.71
373.62	564.07
373.81	517.26
374.01	599.18
374.21	496.19
374.40	510.24
374.60	622.58
374.79	610.88
374.99	550.03
375.19	585.13
375.38	608.54
375.58	528.96
375.78	552.37
375.97	608.54
376.17	573.43
376.37	629.60
376.56	552.37
376.76	660.03
376.95	638.97
377.15	531.30
377.35	575.77
377.54	688.12
377.74	617.90
377.93	636.63
378.13	674.07
378.33	725.57
378.52	648.33
378.72	676.41
378.91	650.67
379.11	575.77
379.31	599.18
379.50	657.69
379.70	676.41
379.89	720.88
380.09	657.69
380.28	671.73
380.48	674.07
380.68	615.56
380.87	727.91
381.07	631.94
381.26	669.39
381.46	697.48
381.65	741.95
381.85	744.29
382.04	725.57
382.24	655.35
382.43	748.97
382.63	678.76
382.83	709.18
383.02	760.67
383.22	765.36
383.41	704.50
383.61	741.95
383.80	697.48
384.00	819.19
384.19	748.97
384.39	772.38
384.58	748.97
384.78	788.76
384.97	786.42
385.17	835.57
385.36	779.40
385.56	709.18
385.75	793.44
385.95	875.36
386.14	833.23
386.34	800.46
386.53	851.96
386.72	788.76
386.92	940.90
387.11	866.00
387.31	898.77
387.50	849.61
387.70	858.98
387.89	856.64
388.09	858.98
388.28	987.71
388.48	901.11
388.67	861.32
388.86	929.19
389.06	1046.22
389.25	1034.52
389.45	903.45
389.64	968.98
389.84	952.60
390.03	1015.79
390.22	1039.20
390.42	1020.47
390.61	973.66
390.81	1041.54
391.00	1025.15
391.19	1053.24
391.39	1055.58
391.58	1034.52
391.78	912.81
391.97	990.05
392.16	1020.47
392.36	987.71
392.55	1069.62
392.75	1043.88
392.94	994.73
393.13	1008.77
393.33	1090.69
393.52	1020.47
393.71	1125.80
393.91	1053.24
394.10	1050.90
394.29	1102.39
394.49	1114.10
394.68	1160.91
394.88	1184.31
395.07	1294.32
395.26	1228.78
395.46	1235.80
395.65	1261.55
395.84	1280.27
396.04	1287.29
396.23	1196.01
396.42	1135.16
396.62	1186.65
396.81	1170.27
397.00	1203.04
397.19	1240.48
397.39	1306.02
397.58	1287.29
397.77	1373.89
397.97	1362.19
398.16	1416.02
398.35	1411.34
398.55	1437.09
398.74	1502.62
398.93	1554.12
399.12	1554.12
399.32	1549.43
399.51	1451.13
399.70	1540.07
399.90	1610.29
400.09	1479.22
400.28	1565.82
400.47	1605.61
400.67	1680.50
400.86	1640.72
401.05	1603.27
401.24	1643.06
401.44	1673.48
401.63	1713.27
401.82	1750.72
402.01	1727.32
402.21	1605.61
402.40	1689.87
402.59	1746.04
402.78	1879.45
402.97	1755.40
403.17	1774.13
403.36	1750.72
403.55	1832.64
403.74	1935.62
403.93	1804.55
404.13	1909.88
404.32	1825.62
404.51	1923.92
404.70	1893.49
404.89	1900.52
405.09	1930.94
405.28	1930.94
405.47	1923.92
405.66	2012.86
405.85	1963.71
406.05	1982.43
406.24	2003.50
406.43	1959.03
406.62	2024.56
406.81	2160.31
407.00	1987.11
407.20	2005.84
407.39	1996.48
407.58	2200.10
407.77	2183.72
407.96	2108.82
408.15	2111.16
408.34	2181.38
408.54	2176.70
408.73	2338.20
408.92	2279.68
409.11	2310.11
409.30	2282.02
409.49	2286.70
409.68	2314.79
409.87	2232.87
410.07	2258.62
410.26	2338.20
410.45	2445.86
410.64	2424.80
410.83	2544.16
411.02	2537.14
411.21	2562.89
411.40	2558.21
411.59	2569.91
411.78	2668.21
411.98	2633.10
412.17	2607.36
412.36	2558.21
412.55	2572.25
412.74	2768.85
412.93	2818.00
413.12	2708.00
413.31	2792.26
413.50	2794.60
413.69	2803.96
413.88	2850.77
414.07	2958.44
414.26	2785.24
414.45	2902.26
414.64	2857.79
414.83	3101.21
415.02	3026.31
415.22	2972.48
415.41	3096.53
415.60	3194.83
415.79	3096.53
415.98	3190.15
416.17	3234.62
416.36	3276.75
416.55	3192.49
416.74	3412.50
416.93	3208.87
417.12	3293.13
417.31	3417.18
417.50	3384.41
417.69	3536.55
417.88	3424.20
418.07	3499.10
418.26	3428.88
418.45	3435.91
418.64	3707.41
418.83	3522.51
419.02	3501.44
419.21	3723.79
419.39	3557.61
419.58	3562.30
419.77	3419.52
419.96	3618.47
420.15	3569.32
420.34	3634.85
420.53	3700.39
420.72	3789.33
420.91	3824.44
421.10	3857.20
421.29	3744.86
421.48	3737.84
421.67	3838.48
421.86	3815.07
422.05	3794.01
422.24	3824.44
422.43	3756.56
422.61	3880.61
422.80	3927.42
422.99	4028.06
423.18	3906.35
423.37	3913.38
423.56	3829.12
423.75	3833.80
423.94	3676.98
424.13	3728.47
424.32	3794.01
424.50	4086.58
424.69	4002.32
424.88	3964.87
425.07	3976.57
425.26	3875.93
425.45	3901.67
425.64	3824.44
425.83	4002.32
426.01	4060.83
426.20	4044.45
426.39	4011.68
426.58	3969.55
426.77	3922.74
426.96	3859.54
427.15	3892.31
427.33	4032.74
427.52	4088.92
427.71	4198.92
427.90	4105.30
428.09	4095.94
428.28	4128.70
428.46	4133.39
428.65	4032.74
428.84	4276.16
429.03	4231.69
429.22	4114.66
429.40	4128.70
429.59	4109.98
429.78	3899.33
429.97	3953.16
430.16	4067.85
430.34	4138.07
430.53	4124.02
430.72	4318.29
430.91	4229.35
431.10	4259.78
431.28	4531.28
431.47	4690.43
431.66	4526.60
431.85	4664.69
432.03	4582.77
432.22	4580.43
432.41	4601.49
432.60	4582.77
432.79	4737.24
432.97	4833.21
433.16	4592.13
433.35	4606.17
433.54	4734.90
433.72	4596.81
433.91	4772.35
434.10	4835.55
434.28	4837.89
434.47	4805.12
434.66	4926.83
434.85	4990.02
435.03	4777.03
435.22	4858.95
435.41	4997.04
435.59	5144.50
435.78	5116.41
435.97	5177.26
436.16	5172.58
436.34	5090.67
436.53	4985.34
436.72	5191.31
436.90	4919.81
437.09	5167.90
437.28	5149.18
437.46	5334.08
437.65	5081.30
437.84	5004.07
438.02	5130.45
438.21	5256.84
438.40	5067.26
438.58	5219.39
438.77	5355.15
438.96	5432.38
439.14	5362.17
439.33	5589.20
439.52	5680.48
439.70	5596.22
439.89	5734.31
440.08	5631.33
440.26	5750.70
440.45	5551.75
440.63	5827.93
440.82	5937.94
441.01	5841.98
441.19	5933.26
441.38	6071.35
441.57	6132.20
441.75	6127.52
441.94	6305.40
442.12	6167.31
442.31	6429.45
442.50	6286.68
442.68	6155.61
442.87	6469.24
443.05	6373.28
443.24	6441.15
443.43	6359.24
443.61	6485.62
443.80	6677.55
443.98	6298.38
444.17	6188.38
444.35	6607.33
444.54	6628.40
444.73	6518.39
444.91	6553.50
445.10	6466.90
445.28	6445.84
445.47	6396.68
445.65	6361.58
445.84	6504.35
446.02	6539.46
446.21	6462.22
446.39	6544.14
446.58	6628.40
446.77	6703.29
446.95	6647.12
447.14	6635.42
447.32	6719.68
447.51	6644.78
447.69	6649.46
447.88	6623.72
448.06	6602.65
448.25	6754.79
448.43	6785.21
448.62	6532.44
448.80	6712.66
448.99	6881.18
449.17	6834.36
449.36	6916.28
449.54	6946.71
449.73	7140.97
449.91	7005.22
450.10	6899.90
450.28	7059.06
450.46	7119.91
450.65	7145.66
450.83	7222.89
451.02	7110.55
451.20	7286.09
451.39	7185.44
451.57	7176.08
451.76	7267.36
451.94	7119.91
452.13	7152.68
452.31	7293.11
452.49	7133.95
452.68	7159.70
452.86	7258.00
453.05	7243.96
453.23	7194.81
453.42	7124.59
453.60	7337.58
453.78	7435.88
453.97	7131.61
454.15	7316.51
454.34	7445.24
454.52	7360.98
454.70	7564.61
454.89	7503.76
455.07	7431.20
455.26	7536.52
455.44	7623.12
455.62	7602.06
455.81	7723.77
455.99	7702.70
456.17	7798.66
456.36	7824.41
456.54	7803.35
456.73	7733.13
456.91	7946.12
457.09	7999.95
457.28	8259.75
457.46	8070.17
457.64	8039.74
457.83	8128.68
458.01	7906.33
458.19	8273.79
458.38	8177.83
458.56	8198.90
458.74	8245.71
458.93	8250.39
459.11	8175.49
459.29	8217.62
459.48	8196.56
459.66	8084.21
459.84	8376.78
460.03	8540.61
460.21	8538.27
460.39	8425.93
460.57	8257.41
460.76	8430.61
460.94	8592.11
461.12	8482.10
461.31	8575.72
461.49	8594.45
461.67	8667.00
461.85	8753.60
462.04	8692.75
462.22	9371.50
462.40	8821.48
462.59	8732.54
462.77	8968.93
462.95	8926.80
463.13	8823.82
463.32	8994.68
463.50	9064.89
463.68	9004.04
463.86	8842.54
464.05	8746.58
464.23	9076.60
464.41	9186.60
464.59	8842.54
464.78	9116.39
464.96	9275.54
465.14	9048.51
465.32	9071.92
465.50	9205.33
465.69	9399.59
465.87	9394.91
466.05	9202.99
466.23	9142.13
466.41	9153.84
466.60	9048.51
466.78	9062.55
466.96	9167.88
467.14	9282.56
467.32	9502.58
467.51	9469.81
467.69	8978.30
467.87	9226.39
468.05	9507.26
468.23	9287.25
468.41	9455.76
468.60	9348.10
468.78	9652.37
468.96	9348.10
469.14	9722.59
469.32	9771.74
469.50	9495.55
469.69	9841.95
469.87	9745.99
470.05	9727.27
470.23	9696.84
470.41	9755.35
470.59	9930.89
470.77	9792.80
470.95	10050.26
471.14	10274.95
471.32	9827.91
471.50	10263.25
471.68	10331.12
471.86	10420.06
472.04	10382.62
472.22	10462.19
472.40	10253.89
472.58	10314.74
472.77	10363.89
472.95	10558.16
473.13	10895.19
473.31	10483.26
473.49	10303.04
473.67	10696.25
473.85	10682.20
474.03	10927.96
474.21	10970.09
474.39	11225.21
474.57	10979.45
474.75	10974.77
474.93	11276.70
475.12	11241.59
475.30	11410.11
475.48	11126.91
475.66	11356.28
475.84	11293.08
476.02	11215.85
476.20	11246.27
476.38	11644.17
476.56	11859.49
476.74	11824.39
476.92	11623.10
477.10	11775.24
477.28	12105.25
477.46	11946.09
477.64	12379.09
477.82	12285.47
478.00	12477.40
478.18	12205.89
478.36	12542.93
478.54	12585.06
478.72	12802.73
478.90	12996.99
479.08	12816.77
479.26	13217.01
479.44	13202.96
479.62	13163.17
479.80	13179.56
479.98	13273.18
480.16	13504.89
480.34	13376.16
480.52	13523.62
480.70	13490.85
480.88	13738.94
481.06	13944.91
481.24	13816.18
481.41	14244.50
481.59	14200.03
481.77	14516.00
481.95	14263.22
482.13	14572.18
482.31	14490.26
482.49	14867.08
482.67	14647.07
482.85	14862.40
483.03	14970.07
483.21	15234.55
483.39	15445.20
483.57	15468.60
483.74	15531.80
483.92	15953.09
484.10	15557.54
484.28	15903.94
484.46	15988.20
484.64	16123.95
484.82	15843.09
485.00	15978.84
485.18	16152.04
485.35	16449.28
485.53	16292.47
485.71	15894.58
485.89	16369.71
486.07	16250.34
486.25	16645.89
486.43	16767.60
486.61	17179.53
486.78	17369.12
486.96	17448.69
487.14	17514.23
487.32	17537.63
487.50	17970.63
487.68	18188.30
487.85	18380.23
488.03	18368.52
488.21	18445.76
488.39	18258.52
488.57	18534.70
488.75	18822.59
488.92	18820.25
489.10	19286.01
489.28	19618.37
489.46	19597.31
489.64	19578.58
489.81	20161.37
489.99	19882.85
490.17	20086.48
490.35	20482.03
490.53	20294.79
490.70	20255.00
490.88	20577.99
491.06	20531.18
491.24	20526.50
491.41	20514.80
491.59	20425.86
491.77	20673.95
491.95	21097.59
492.13	21341.00
492.30	21722.51
492.48	21717.83
492.66	22052.53
492.84	21736.56
493.01	22134.45
493.19	22031.46
493.37	22122.74
493.54	22178.92
493.72	22352.12
493.90	22267.86
494.08	22703.20
494.25	22827.24
494.43	23131.51
494.61	23248.54
494.79	23377.27
494.96	23215.77
495.14	23653.45
495.32	24039.64
495.49	23634.73
495.67	23730.69
495.85	24137.94
496.02	24063.05
496.20	24477.32
496.38	24105.18
496.55	24577.97
496.73	25116.29
496.91	24807.34
497.09	24734.78
497.26	24655.20
497.44	24980.54
497.62	25486.09
497.79	25282.47
497.97	24744.14
498.14	25479.07
498.32	25626.53
498.50	25614.82
498.67	25958.88
498.85	26022.08
499.03	26080.59
499.20	26082.93
499.38	26232.72
499.56	26361.45
499.73	26415.29
499.91	26338.05
500.08	26665.72
500.26	26398.90
500.44	26689.13
500.61	26504.23
500.79	26979.36
500.97	26642.32
501.14	26501.89
501.32	26918.50
501.49	27138.51
501.67	27260.22
501.84	27143.19
502.02	27239.15
502.20	27718.96
502.37	27864.08
502.55	27571.51
502.72	27967.06
502.90	27864.08
503.07	27868.76
503.25	28070.04
503.43	28161.33
503.60	27882.80
503.78	28023.23
503.95	28137.92
504.13	28341.55
504.30	28940.72
504.48	28622.41
504.65	28720.71
504.83	28821.36
505.01	29212.23
505.18	28739.44
505.36	29479.05
505.53	29406.49
505.71	29626.50
505.88	29647.57
506.06	29659.27
506.23	29610.12
506.41	29310.53
506.58	29914.39
506.76	29865.24
506.93	30174.19
507.11	30015.03
507.28	29914.39
507.46	29977.58
507.63	29708.42
507.81	30429.30
507.98	29968.22
508.16	30405.90
508.33	30553.35
508.50	30897.41
508.68	30614.21
508.85	30974.65
509.03	31091.68
509.20	31143.17
509.38	31585.53
509.55	31082.31
509.73	31428.71
509.90	31384.24
510.08	31171.25
510.25	31243.81
510.42	31402.97
510.60	31782.13
510.77	31475.52
510.95	32107.47
511.12	31931.93
511.30	32170.66
511.47	32156.62
511.64	32268.97
511.82	32439.82
511.99	32030.23
512.17	32603.66
512.34	32526.42
512.51	32428.12
512.69	32687.92
512.86	32734.73
513.04	33125.60
513.21	32900.91
513.38	32762.82
513.56	32582.60
513.73	32608.34
513.90	32769.84
514.08	32753.46
514.25	33069.43
514.43	32776.86
514.60	33413.49
514.77	33280.08
514.95	33743.50
515.12	33518.81
515.29	33628.82
515.47	33762.23
515.64	34323.96
515.81	33783.29
515.99	33624.14
516.16	33825.42
516.33	33453.28
516.51	34033.73
516.68	33226.24
516.85	33338.59
517.03	33668.61
517.20	33916.70
517.37	34195.23
517.54	34555.67
517.72	33846.49
517.89	33752.87
518.06	33820.74
518.24	34380.13
518.41	34370.77
518.58	34471.41
518.75	34991.01
518.93	35229.74
519.10	34230.33
519.27	34986.33
519.45	34782.70
519.62	35304.64
519.79	35358.47
519.96	35379.54
520.14	35367.84
520.31	35047.18
520.48	35599.55
520.65	35445.07
520.83	36229.15
521.00	35749.34
521.17	35999.78
521.34	36203.41
521.52	36292.35
521.69	36278.30
521.86	36046.59
522.03	35983.40
522.20	36355.54
522.38	36575.55
522.55	36400.01
522.72	36329.80
522.89	36278.30
523.07	37034.30
523.24	36512.36
523.41	36950.04
523.58	36472.57
523.75	37401.76
523.92	37209.84
524.10	37322.18
524.27	37488.36
524.44	37003.87
524.61	36952.38
524.78	37806.67
524.96	37448.57
525.13	37755.18
525.30	37883.91
525.47	37500.06
525.64	37626.45
525.81	37589.00
525.98	37420.48
526.16	37542.19
526.33	37572.62
526.50	37752.84
526.67	37163.03
526.84	37359.63
527.01	37326.86
527.18	37731.78
527.36	38178.82
527.53	38071.15
527.70	38686.71
527.87	38457.34
528.04	37963.49
528.21	38281.80
528.38	38520.54
528.55	38869.28
528.72	38845.87
528.89	38799.06
529.07	38569.69
529.24	38684.37
529.41	38862.26
529.58	38731.18
529.75	38859.91
529.92	38895.02
530.09	39112.69
530.26	39182.91
530.43	39533.99
530.60	39194.61
530.77	39047.16
530.94	39166.52
531.11	39751.66
531.28	39494.20
531.46	39885.07
531.63	39583.14
531.80	39316.32
531.97	39438.03
532.14	38939.49
532.31	39171.21
532.48	39489.52
532.65	39505.90
532.82	39604.20
532.99	40100.40
533.16	39641.65
533.33	40105.08
533.50	40177.64
533.67	39838.26
533.84	39676.76
534.01	40421.05
534.18	40147.21
534.35	40414.03
534.52	39871.03
534.69	40261.90
534.86	40446.80
535.03	40329.77
535.20	40921.93
535.37	40739.36
535.54	40886.82
535.71	40886.82
535.88	40907.88
536.05	40552.12
536.22	41062.36
536.38	40837.67
536.55	40648.08
536.72	40601.27
536.89	40622.34
537.06	40734.68
537.23	41273.01
537.40	41331.52
537.57	41289.39
537.74	41331.52
537.91	41324.50
538.08	41223.86
538.25	41097.47
538.42	41558.55
538.59	41460.25
538.75	40910.22
538.92	41188.75
539.09	41450.89
539.26	41439.18
539.43	41038.95
539.60	41539.83
539.77	41610.04
539.94	41668.56
540.11	40832.99
540.28	41214.49
540.44	41750.48
540.61	41118.53
540.78	41366.63
540.95	41467.27
541.12	41860.48
541.29	41518.76
541.46	41851.12
541.62	42532.22
541.79	42131.98
541.96	41322.16
542.13	41553.87
542.30	41713.03
542.47	42291.14
542.63	41797.29
542.80	42567.32
542.97	42473.70
543.14	42658.60
543.31	42660.94
543.48	42677.33
543.64	43072.88
543.81	42897.34
543.98	42703.07
544.15	42766.27
544.32	43213.31
544.48	43442.68
544.65	43157.14
544.82	42890.32
544.99	42948.83
545.16	43100.97
545.32	42838.83
545.49	42859.89
545.66	43320.98
545.83	43299.91
546.00	43545.67
546.16	43290.55
546.33	43035.43
546.50	42951.17
546.67	43168.84
546.83	42408.17
547.00	43414.60
547.17	43309.27
547.34	43260.12
547.50	43335.02
547.67	43655.67
547.84	43026.07
548.00	43452.05
548.17	43880.36
548.34	43601.84
548.51	43768.02
548.67	44137.82
548.84	43679.08
549.01	43859.30
549.18	43629.93
549.34	44121.44
549.51	44156.55
549.68	44102.71
549.84	43845.26
550.01	43971.64
550.18	43950.58
550.34	44224.42
550.51	43927.17
550.68	44119.10
550.84	43739.93
551.01	44060.58
551.18	43938.88
551.34	44201.02
551.51	44282.94
551.68	44414.01
551.84	44664.44
552.01	43868.66
552.18	44715.93
552.34	43765.68
552.51	44048.88
552.68	44486.56
552.84	44664.44
553.01	44250.17
553.18	44076.97
553.34	44425.71
553.51	43824.19
553.67	44760.40
553.84	45104.46
554.01	44952.33
554.17	44680.83
554.34	44783.81
554.51	44884.45
554.67	44706.57
554.84	44727.64
555.00	44598.91
555.17	44591.89
555.33	45031.91
555.50	44842.32
555.67	44598.91
555.83	44896.16
556.00	45083.40
556.16	45638.11
556.33	44444.43
556.50	44610.61
556.66	44947.65
556.83	44437.41
556.99	44802.53
557.16	45478.95
557.32	45165.32
557.49	45235.53
557.65	45057.65
557.82	44811.90
557.98	45233.19
558.15	44800.19
558.32	45109.14
558.48	45317.45
558.65	45013.18
558.81	45436.82
558.98	44793.17
559.14	44828.28
559.31	44889.13
559.47	45624.06
559.64	45607.68
559.80	45647.47
559.97	45345.54
560.13	45205.11
560.30	45233.19
560.46	45954.08
560.63	45441.50
560.79	45436.82
560.96	45495.33
561.12	45247.24
561.29	45216.81
561.45	45509.38
561.61	45750.45
561.78	45574.91
561.94	45247.24
562.11	45485.97
562.27	45595.98
562.44	45567.89
562.60	45776.20
562.77	45890.88
562.93	45415.76
563.10	45497.67
563.26	45464.91
563.42	45687.26
563.59	45420.44
563.75	45579.59
563.92	45696.62
564.08	45563.21
564.24	45902.59
564.41	45603.00
564.57	45591.30
564.74	45673.21
564.90	45565.55
565.07	46043.02
565.23	45450.86
565.39	45521.08
565.56	45640.45
565.72	45406.39
565.88	45734.07
566.05	45535.12
566.21	45507.04
566.38	45593.64
566.54	46160.05
566.70	45813.65
566.87	46307.50
567.03	46141.32
567.19	46192.81
567.36	46174.09
567.52	45710.66
567.68	45762.15
567.85	45764.49
568.01	46101.53
568.17	45757.47
568.34	46174.09
568.50	45495.33
568.66	45759.81
568.83	45511.72
568.99	45539.80
569.15	46078.13
569.32	45677.90
569.48	45790.24
569.64	46387.08
569.81	46120.26
569.97	45893.22
570.13	46061.74
570.30	45624.06
570.46	45343.20
570.62	45792.58
570.78	45839.39
570.95	45696.62
571.11	45958.76
571.27	46162.39
571.43	45647.47
571.60	45867.48
571.76	45965.78
571.92	45951.74
572.09	45680.24
572.25	46131.96
572.41	45649.81
572.57	46230.26
572.74	46799.01
572.90	46064.08
573.06	46307.50
573.22	46358.99
573.38	45743.43
573.55	46368.35
573.71	46007.91
573.87	46464.32
574.03	45780.88
574.20	45811.31
574.36	45818.33
574.52	45668.53
574.68	46066.42
574.84	45970.46
575.01	46026.63
575.17	46141.32
575.33	45893.22
575.49	45778.54
575.65	46471.34
575.82	46316.86
575.98	45736.41
576.14	46103.87
576.30	46220.90
576.46	45993.87
576.62	45808.96
576.79	46302.82
576.95	45942.38
577.11	46185.79
577.27	46337.93
577.43	45832.37
577.59	46113.23
577.75	45614.70
577.92	45914.29
578.08	45661.51
578.24	46014.93
578.40	45965.78
578.56	46138.98
578.72	46274.73
578.88	46567.30
579.04	46131.96
579.21	46038.34
579.37	46382.40
579.53	45895.56
579.69	46246.65
579.85	46429.21
580.01	46539.21
580.17	46115.58
580.33	46185.79
580.49	46185.79
580.65	46220.90
580.82	46089.83
580.98	46426.87
581.14	46232.60
581.30	46820.08
581.46	46497.08
581.62	46113.23
581.78	45965.78
581.94	46330.90
582.10	46197.49
582.26	46436.23
582.42	46057.06
582.58	46354.31
582.74	46323.88
582.90	46354.31
583.06	46471.34
583.22	46726.46
583.38	46553.26
583.54	46473.68
583.70	46319.20
583.86	46248.99
584.02	46113.23
584.18	46330.90
584.34	46106.21
584.50	46057.06
584.66	46384.74
584.82	46206.86
584.98	46436.23
585.14	46438.57
585.30	46206.86
585.46	45979.82
585.62	46232.60
585.78	46167.07
585.94	45996.21
586.10	46485.38
586.26	46026.63
586.42	46176.43
586.58	46782.63
586.74	46003.23
586.90	46085.15
587.06	46302.82
587.22	46024.29
587.38	46195.15
587.54	46340.27
587.70	46073.45
587.86	46541.55
588.02	46363.67
588.18	46490.06
588.34	46316.86
588.49	46131.96
588.65	45397.03
588.81	45464.91
588.97	45907.27
589.13	45933.01
589.29	45975.14
589.45	45579.59
589.61	46476.02
589.77	46127.28
589.93	45958.76
