SpectraSuite Data File
++++++++++++++++++++++++++++++++++++
Date: Fri Oct 25 11:26:12 EDT 2013
User: price-jones
Dark Spectrum Present: No
Reference Spectrum Present: No
Number of Sampled Component Spectra: 1
Spectrometers: USB2+H05261
Integration Time (usec): 100000 (USB2+H05261)
Spectra Averaged: 1 (USB2+H05261)
Boxcar Smoothing: 0 (USB2+H05261)
Correct for Electrical Dark: No (USB2+H05261)
Strobe/Lamp Enabled: No (USB2+H05261)
Correct for Detector Non-linearity: No (USB2+H05261)
Correct for Stray Light: No (USB2+H05261)
Number of Pixels in Processed Spectrum: 2048
>>>>>Begin Processed Spectral Data<<<<<
365.73	252.78
365.92	252.78
366.12	252.78
366.32	168.52
366.52	133.41
366.72	201.29
366.91	168.52
367.11	156.82
367.31	248.10
367.51	126.39
367.70	107.66
367.90	154.48
368.10	135.75
368.30	196.60
368.49	107.66
368.69	145.11
368.89	182.56
369.09	140.43
369.28	203.63
369.48	166.18
369.68	191.92
369.87	170.86
370.07	168.52
370.27	191.92
370.47	276.18
370.66	599.18
370.86	650.67
371.06	622.58
371.25	692.80
371.45	716.20
371.65	709.18
371.84	674.07
372.04	730.25
372.24	779.40
372.44	741.95
372.63	767.70
372.83	723.23
373.03	802.80
373.22	737.27
373.42	779.40
373.62	751.31
373.81	713.86
374.01	807.48
374.21	823.87
374.40	866.00
374.60	847.27
374.79	816.85
374.99	819.19
375.19	800.46
375.38	877.70
375.58	903.45
375.78	809.83
375.97	896.43
376.17	870.68
376.37	828.55
376.56	957.28
376.76	868.34
376.95	950.26
377.15	873.02
377.35	884.72
377.54	889.40
377.74	875.36
377.93	973.66
378.13	936.21
378.33	999.41
378.52	894.08
378.72	863.66
378.91	983.02
379.11	882.38
379.31	1006.43
379.50	994.73
379.70	978.34
379.89	1015.79
380.09	950.26
380.28	999.41
380.48	983.02
380.68	947.92
380.87	973.66
381.07	1060.26
381.26	1029.84
381.46	1062.60
381.65	973.66
381.85	1001.75
382.04	1025.15
382.24	1060.26
382.43	1001.75
382.63	1036.86
382.83	1078.99
383.02	1107.07
383.22	1130.48
383.41	1086.01
383.61	1057.92
383.80	1160.91
384.00	1135.16
384.19	1057.92
384.39	1069.62
384.58	1137.50
384.78	1107.07
384.97	1217.08
385.17	1186.65
385.36	1188.99
385.56	1254.53
385.75	1153.88
385.95	1259.21
386.14	1231.12
386.34	1207.72
386.53	1224.10
386.72	1137.50
386.92	1249.85
387.11	1252.19
387.31	1306.02
387.50	1310.70
387.70	1217.08
387.89	1231.12
388.09	1210.06
388.28	1266.23
388.48	1341.13
388.67	1383.26
388.86	1313.04
389.06	1294.32
389.25	1343.47
389.45	1315.38
389.64	1350.49
389.84	1373.89
390.03	1371.55
390.22	1343.47
390.42	1472.20
390.61	1373.89
390.81	1446.45
391.00	1390.28
391.19	1423.05
391.39	1441.77
391.58	1416.02
391.78	1392.62
391.97	1507.30
392.16	1392.62
392.36	1493.26
392.55	1434.75
392.75	1542.41
392.94	1504.96
393.13	1537.73
393.33	1511.99
393.52	1528.37
393.71	1551.78
393.91	1542.41
394.10	1565.82
394.29	1619.65
394.49	1605.61
394.68	1607.95
394.88	1717.95
395.07	1661.78
395.26	1565.82
395.46	1624.33
395.65	1767.10
395.84	1701.57
396.04	1837.32
396.23	1746.04
396.42	1755.40
396.62	1804.55
396.81	1727.32
397.00	1795.19
397.19	1734.34
397.39	1741.36
397.58	1825.62
397.77	1802.21
397.97	1842.00
398.16	1834.98
398.35	1898.17
398.55	1823.28
398.74	1839.66
398.93	1966.05
399.12	1905.20
399.32	1846.68
399.51	2036.27
399.70	2010.52
399.90	1956.69
400.09	1963.71
400.28	1930.94
400.47	2129.89
400.67	2223.51
400.86	2076.06
401.05	2108.82
401.24	2043.29
401.44	2099.46
401.63	2172.02
401.82	2263.30
402.01	2087.76
402.21	2136.91
402.40	2115.84
402.59	2176.70
402.78	2279.68
402.97	2176.70
403.17	2310.11
403.36	2300.75
403.55	2258.62
403.74	2305.43
403.93	2335.85
404.13	2380.32
404.32	2321.81
404.51	2366.28
404.70	2485.65
404.89	2396.71
405.09	2438.84
405.28	2436.50
405.47	2413.09
405.66	2546.50
405.85	2534.80
406.05	2492.67
406.24	2558.21
406.43	2555.86
406.62	2626.08
406.81	2670.55
407.00	2551.18
407.20	2637.78
407.39	2647.15
407.58	2640.12
407.77	2670.55
407.96	2785.24
408.15	2705.66
408.34	2607.36
408.54	2684.59
408.73	2822.69
408.92	2853.11
409.11	2820.35
409.30	2888.22
409.49	3002.91
409.68	2871.84
409.87	2815.66
410.07	3042.70
410.26	2932.69
410.45	2911.63
410.64	3112.91
410.83	3063.76
411.02	3150.36
411.21	3129.30
411.40	3115.25
411.59	3105.89
411.78	3176.11
411.98	3094.19
412.17	3286.11
412.36	3169.09
412.55	3276.75
412.74	3384.41
412.93	3466.33
413.12	3405.48
413.31	3452.29
413.50	3412.50
413.69	3459.31
413.88	3672.30
414.07	3538.89
414.26	3564.64
414.45	3712.09
414.64	3726.13
414.83	3576.34
415.02	3702.73
415.22	3826.78
415.41	3857.20
415.60	3840.82
415.79	3873.59
415.98	3864.22
416.17	3885.29
416.36	3962.53
416.55	3932.10
416.74	3868.91
416.93	4095.94
417.12	4046.79
417.31	4227.01
417.50	4035.08
417.69	4332.33
417.88	4243.39
418.07	4154.45
418.26	4208.28
418.45	4287.86
418.64	4437.66
418.83	4259.78
419.02	4393.19
419.21	4571.07
419.39	4535.96
419.58	4552.34
419.77	4535.96
419.96	4528.94
420.15	4514.89
420.34	4521.92
420.53	4505.53
420.72	4629.58
420.91	4741.93
421.10	4620.22
421.29	4720.86
421.48	4702.14
421.67	4681.07
421.86	4734.90
422.05	4894.06
422.24	4744.27
422.43	4812.14
422.61	4990.02
422.80	5053.22
422.99	4868.31
423.18	4767.67
423.37	4954.91
423.56	4959.60
423.75	4905.76
423.94	4868.31
424.13	4678.73
424.32	4823.84
424.50	4917.47
424.69	5060.24
424.88	5004.07
425.07	4992.36
425.26	5008.75
425.45	4971.30
425.64	4994.70
425.83	4940.87
426.01	5093.01
426.20	5231.10
426.39	5191.31
426.58	5022.79
426.77	5015.77
426.96	5128.11
427.15	4884.70
427.33	5170.24
427.52	5298.97
427.71	5156.20
427.90	5252.16
428.09	5233.44
428.28	5233.44
428.46	5247.48
428.65	5245.14
428.84	5516.64
429.03	5497.92
429.22	5430.04
429.40	5437.06
429.59	5373.87
429.78	5310.68
429.97	5203.01
430.16	5526.00
430.34	5540.05
430.53	5736.65
430.72	5483.88
430.91	5582.18
431.10	5619.63
431.28	5774.10
431.47	5954.32
431.66	5722.61
431.85	5834.96
432.03	5923.90
432.22	6073.69
432.41	5900.49
432.60	6012.84
432.79	5893.47
432.97	6033.90
433.16	6003.47
433.35	5886.45
433.54	6120.50
433.72	6069.01
433.91	6115.82
434.10	6029.22
434.28	6076.03
434.47	6029.22
434.66	6157.95
434.85	6300.72
435.03	6181.35
435.22	6272.64
435.41	6459.88
435.59	6335.83
435.78	6516.05
435.97	6422.43
436.16	6328.81
436.34	6342.85
436.53	6396.68
436.72	6612.01
436.90	6413.07
437.09	6511.37
437.28	6551.16
437.46	6544.14
437.65	6668.19
437.84	6864.79
438.02	6724.36
438.21	6722.02
438.40	6637.76
438.58	6956.07
438.77	7105.87
438.96	6965.43
439.14	7056.72
439.33	7108.21
439.52	7325.88
439.70	7208.85
439.89	7316.51
440.08	7194.81
440.26	7258.00
440.45	7335.24
440.63	7428.86
440.82	7461.63
441.01	7419.50
441.19	7534.18
441.38	7672.28
441.57	7770.58
441.75	7789.30
441.94	7798.66
442.12	7756.54
442.31	8023.36
442.50	7950.80
442.68	7843.14
442.87	8002.29
443.05	7964.84
443.24	8226.98
443.43	8215.28
443.61	8180.17
443.80	8444.65
443.98	8086.55
444.17	7824.41
444.35	8215.28
444.54	8257.41
444.73	8149.75
444.91	8154.43
445.10	8252.73
445.28	8365.07
445.47	8105.28
445.65	8407.20
445.84	8383.80
446.02	8418.91
446.21	8388.48
446.39	8332.31
446.58	8524.23
446.77	8589.77
446.95	8313.58
447.14	8325.29
447.32	8514.87
447.51	8374.44
447.69	8397.84
447.88	8517.21
448.06	8482.10
448.25	8376.78
448.43	8355.71
448.62	8662.32
448.80	8613.17
448.99	8641.26
449.17	8596.79
449.36	8503.17
449.54	8837.86
449.73	8760.63
449.91	8950.21
450.10	8596.79
450.28	9210.01
450.46	8954.89
450.65	8947.87
450.83	8994.68
451.02	9043.83
451.20	9071.92
451.39	9057.87
451.57	8954.89
451.76	9092.98
451.94	9018.08
452.13	9385.55
452.31	9348.10
452.49	9151.49
452.68	9364.48
452.86	9226.39
453.05	9427.68
453.23	9312.99
453.42	9247.46
453.60	9437.04
453.78	9509.60
453.97	9392.57
454.15	9432.36
454.34	9376.19
454.52	9692.16
454.70	9640.67
454.89	9638.33
455.07	9621.94
455.26	9949.62
455.44	9856.00
455.62	10139.20
455.81	9989.41
455.99	9914.51
456.17	10235.16
456.36	10174.31
456.54	9933.23
456.73	10263.25
456.91	10312.40
457.09	10494.96
457.28	10551.14
457.46	10106.43
457.64	10530.07
457.83	10525.39
458.01	10265.59
458.19	10595.61
458.38	10473.90
458.56	10539.43
458.74	10576.88
458.93	10523.05
459.11	10911.58
459.29	10635.39
459.48	10567.52
459.66	10759.44
459.84	10843.70
460.03	10970.09
460.21	11063.71
460.39	11044.99
460.57	10923.28
460.76	11190.10
460.94	10740.72
461.12	11028.60
461.31	11112.86
461.49	10995.84
461.67	11218.19
461.85	11480.33
462.04	11152.65
462.22	11625.44
462.40	11686.29
462.59	11571.61
462.77	11440.54
462.95	11667.57
463.13	11386.71
463.32	11758.85
463.50	11667.57
463.68	11555.22
463.86	11817.36
464.05	11410.11
464.23	11580.97
464.41	11885.24
464.59	11571.61
464.78	12166.10
464.96	11985.88
465.14	11756.51
465.32	11946.09
465.50	12058.44
465.69	12210.57
465.87	11997.59
466.05	11964.82
466.23	12011.63
466.41	12283.13
466.60	12372.07
466.78	12138.02
466.96	12152.06
467.14	12133.34
467.32	12435.27
467.51	12468.03
467.69	12283.13
467.87	12107.59
468.05	12456.33
468.23	12470.37
468.41	12138.02
468.60	12360.37
468.78	12765.28
468.96	12622.51
469.14	12730.17
469.32	12896.35
469.50	12624.85
469.69	12830.82
469.87	13041.46
470.05	12875.29
470.23	12870.61
470.41	13039.12
470.59	13296.58
470.77	13125.72
470.95	13266.16
471.14	13657.03
471.32	13123.38
471.50	13502.55
471.68	13357.44
471.86	13525.96
472.04	13507.23
472.22	13956.61
472.40	13706.18
472.58	13954.27
472.77	14012.79
472.95	13937.89
473.13	14438.76
473.31	14085.34
473.49	14022.15
473.67	14045.55
473.85	14047.90
474.03	14471.53
474.21	14618.99
474.39	14424.72
474.57	14572.18
474.75	14710.27
474.93	14981.77
475.12	14965.39
475.30	15178.37
475.48	14918.57
475.66	14810.91
475.84	15023.90
476.02	15403.07
476.20	15194.76
476.38	15580.95
476.56	15992.88
476.74	15906.28
476.92	15742.44
477.10	15466.26
477.28	15653.50
477.46	16133.31
477.64	16283.11
477.82	16596.74
478.00	16664.61
478.18	16828.45
478.36	16650.57
478.54	17025.06
478.72	17121.02
478.90	17474.44
479.08	17039.10
479.26	17525.93
479.44	17818.50
479.62	17862.97
479.80	18057.23
479.98	18258.52
480.16	18434.06
480.34	18136.81
480.52	18611.94
480.70	18560.45
480.88	18223.41
481.06	18848.33
481.24	18611.94
481.41	19281.33
481.59	18979.40
481.77	19580.92
481.95	19197.07
482.13	19438.15
482.31	19634.75
482.49	20250.32
482.67	20130.95
482.85	20044.35
483.03	20418.83
483.21	20727.78
483.39	20769.91
483.57	20844.81
483.74	21113.97
483.92	21247.38
484.10	20922.05
484.28	21245.04
484.46	21869.97
484.64	22270.20
484.82	21844.22
485.00	22256.15
485.18	22412.97
485.35	22759.37
485.53	22604.89
485.71	23082.36
485.89	23487.28
486.07	23108.11
486.25	23295.35
486.43	23381.95
486.61	23782.18
486.78	24056.03
486.96	24163.69
487.14	24915.00
487.32	24156.67
487.50	24762.87
487.68	24833.08
487.85	25158.42
488.03	25392.47
488.21	25701.42
488.39	25764.62
488.57	26122.72
488.75	25986.97
488.92	26593.17
489.10	26895.10
489.28	26396.56
489.46	27435.76
489.64	26593.17
489.81	27496.61
489.99	27693.22
490.17	27784.50
490.35	27999.83
490.53	28418.78
490.70	27805.56
490.88	28084.09
491.06	28861.15
491.24	28521.77
491.41	28727.74
491.59	28940.72
491.77	29139.67
491.95	29209.89
492.13	29535.22
492.30	29783.32
492.48	29860.55
492.66	30448.03
492.84	30286.53
493.01	30352.07
493.19	30740.60
493.37	31089.34
493.54	31014.44
493.72	31072.95
493.90	31367.86
494.08	31625.32
494.25	32044.27
494.43	31901.50
494.61	32102.79
494.79	32278.33
494.96	32294.71
495.14	32531.11
495.32	32898.57
495.49	32659.84
495.67	33242.63
495.85	33301.14
496.02	34108.63
496.20	33649.88
496.38	33663.93
496.55	33738.82
496.73	34291.19
496.91	34742.91
497.09	34260.76
497.26	34670.36
497.44	34913.77
497.62	34782.70
497.79	35335.07
497.97	35129.10
498.14	35409.96
498.32	35725.94
498.50	35971.69
498.67	36465.55
498.85	35931.90
499.03	36547.47
499.20	36664.49
499.38	36495.97
499.56	36617.68
499.73	37060.04
499.91	37090.47
500.08	37289.42
500.26	37666.24
500.44	37336.23
500.61	38000.94
500.79	37296.44
500.97	38492.45
501.14	38356.70
501.32	38199.88
501.49	37874.55
501.67	38529.90
501.84	38658.63
502.02	38909.07
502.20	38857.57
502.37	38904.38
502.55	38913.75
502.72	39552.71
502.90	39206.31
503.07	39271.85
503.25	39440.37
503.43	39784.43
503.60	39871.03
503.78	39784.43
503.95	40285.30
504.13	40336.79
504.30	40514.67
504.48	40219.77
504.65	39840.60
504.83	40666.81
505.01	41280.03
505.18	41106.83
505.36	40935.97
505.53	40879.80
505.71	41647.49
505.88	41523.44
506.06	41158.32
506.23	42007.94
506.41	41516.42
506.58	42010.28
506.76	41867.50
506.93	42075.81
507.11	42607.11
507.28	42272.42
507.46	42944.15
507.63	42698.39
507.81	42754.57
507.98	42801.38
508.16	42986.28
508.33	43379.49
508.50	43072.88
508.68	43435.66
508.85	43360.76
509.03	43311.61
509.20	43871.00
509.38	44191.65
509.55	44130.80
509.73	44243.15
509.90	44198.68
510.08	44547.42
510.25	44374.22
510.42	44346.13
510.60	44790.83
510.77	45174.68
510.95	45282.34
511.12	44875.09
511.30	44854.03
511.47	45057.65
511.64	45600.66
511.82	45914.29
511.99	45607.68
512.17	45787.90
512.34	45265.96
512.51	46358.99
512.69	45755.13
512.86	46146.00
513.04	46532.19
513.21	46188.13
513.38	46401.12
513.56	46768.58
513.73	46906.68
513.90	46225.58
514.08	46962.85
514.25	47531.60
514.43	47040.09
514.60	47224.99
514.77	47131.37
514.95	47405.21
515.12	47206.26
515.29	47159.45
515.47	47906.08
515.64	47952.90
515.81	47767.99
515.99	47760.97
516.16	48182.27
516.33	48172.91
516.51	48603.56
516.68	48250.14
516.85	48285.25
517.03	48395.26
517.20	48542.71
517.37	48629.31
517.54	48624.63
517.72	48722.93
517.89	48863.36
518.06	49052.95
518.24	48861.02
518.41	48739.32
518.58	49125.50
518.75	49186.36
518.93	49242.53
519.10	49118.48
519.27	49691.91
519.45	49247.21
519.62	49530.42
519.79	49792.56
519.96	49617.02
520.14	50071.08
520.31	50033.63
520.48	50277.05
520.65	49837.03
520.83	50557.91
521.00	50326.20
521.17	50459.61
521.34	50466.63
521.52	50555.57
521.69	50590.68
521.86	50745.15
522.03	50829.41
522.20	50873.88
522.38	51147.73
522.55	50969.85
522.72	51138.36
522.89	51140.71
523.07	51660.30
523.24	51515.19
523.41	51231.99
523.58	51311.56
523.75	51615.83
523.92	51693.07
524.10	51760.95
524.27	51646.26
524.44	52037.13
524.61	51817.12
524.78	51976.28
524.96	52013.73
525.13	51906.06
525.30	52254.80
525.47	52573.11
525.64	52392.89
525.81	52615.24
525.98	52449.06
526.16	52294.59
526.33	52755.68
526.50	52713.55
526.67	52350.76
526.84	52865.68
527.01	52704.18
527.18	52545.03
527.36	52711.20
527.53	53057.60
527.70	53247.19
527.87	53200.38
528.04	53120.80
528.21	53258.89
528.38	53261.23
528.55	53078.67
528.72	53268.25
528.89	53396.98
529.07	52921.85
529.24	53127.82
529.41	53663.80
529.58	53506.99
529.75	53368.90
529.92	53396.98
530.09	53579.54
530.26	53865.09
530.43	53897.86
530.60	53609.97
530.77	53485.92
530.94	53815.94
531.11	53324.43
531.28	54152.97
531.46	53942.33
531.63	54122.55
531.80	54099.14
531.97	54012.54
532.14	54253.62
532.31	54265.32
532.48	54323.83
532.65	54401.07
532.82	54305.11
532.99	54649.17
533.16	54117.87
533.33	54522.78
533.50	54923.01
533.67	54796.62
533.84	54560.23
534.01	54845.77
534.18	54845.77
534.35	55353.67
534.52	55018.97
534.69	55269.41
534.86	54990.89
535.03	54717.04
535.20	55194.51
535.37	55056.42
535.54	55238.98
535.71	55274.09
535.88	55049.40
536.05	55306.86
536.22	55592.40
536.38	55412.18
536.55	55496.44
536.72	55377.08
536.89	55072.81
537.06	55482.40
537.23	55655.60
537.40	55292.82
537.57	55657.94
537.74	55576.02
537.91	55803.05
538.08	55643.90
538.25	55512.83
538.42	55943.48
538.59	55894.33
538.75	55803.05
538.92	56018.38
539.09	56009.02
539.26	56081.58
539.43	56123.71
539.60	56240.73
539.77	56123.71
539.94	56430.32
540.11	56367.12
540.28	56383.51
540.44	56308.61
540.61	56315.63
540.78	56058.17
540.95	56282.86
541.12	56119.02
541.29	56133.07
541.46	56385.85
541.62	56612.88
541.79	56631.60
541.96	56128.39
542.13	56687.78
542.30	56505.21
542.47	56633.94
542.63	56601.18
542.80	56741.61
542.97	56816.50
543.14	57268.23
543.31	56783.74
543.48	57284.61
543.64	57382.91
543.81	57242.48
543.98	57141.84
544.15	57251.84
544.32	57483.56
544.48	57385.25
544.65	57275.25
544.82	57336.10
544.99	57268.23
545.16	57340.78
545.32	57193.33
545.49	57450.79
545.66	57705.91
545.83	57305.68
546.00	57813.57
546.16	57425.04
546.33	57551.43
546.50	57394.62
546.67	57619.31
546.83	57317.38
547.00	57532.71
547.17	57612.29
547.34	57654.42
547.50	57780.81
547.67	57815.91
547.84	57958.69
548.00	57893.15
548.17	58265.30
548.34	57804.21
548.51	58162.31
548.67	58085.07
548.84	57968.05
549.01	57677.82
549.18	57846.34
549.34	58370.62
549.51	57954.00
549.68	58136.57
549.84	58094.44
550.01	58377.64
550.18	58129.54
550.34	58269.98
550.51	58293.38
550.68	58162.31
550.84	58174.02
551.01	58319.13
551.18	58073.37
551.34	58274.66
551.51	58468.92
551.68	58248.91
551.84	58387.00
552.01	58410.41
552.18	58417.43
552.34	58323.81
552.51	58527.44
552.68	58438.50
552.84	58471.26
553.01	58843.41
553.18	58855.11
553.34	58768.51
553.51	58623.40
553.67	58740.42
553.84	58845.75
554.01	58695.95
554.17	58925.33
554.34	58705.32
554.51	58738.08
554.67	58829.37
554.84	58815.32
555.00	58927.67
555.17	58965.12
555.33	58974.48
555.50	58747.45
555.67	58845.75
555.83	58974.48
556.00	59189.81
556.16	59009.59
556.33	59311.52
556.50	59236.62
556.66	59161.72
556.83	59035.33
556.99	59306.83
557.16	59463.65
557.32	59440.24
557.49	59437.90
557.65	59264.70
557.82	59213.21
557.98	59330.24
558.15	59231.94
558.32	59468.33
558.48	59360.67
558.65	59194.49
558.81	59447.27
558.98	59465.99
559.14	59360.67
559.31	59316.20
559.47	59583.02
559.64	59461.31
559.80	59653.23
559.97	59737.49
560.13	59480.03
560.30	59597.06
560.46	59615.79
560.63	59632.17
560.79	59522.16
560.96	59714.09
561.12	59646.21
561.29	59625.15
561.45	59746.86
561.61	59718.77
561.78	59786.64
561.94	59559.61
562.11	59716.43
562.27	59707.07
562.44	59819.41
562.60	59955.16
562.77	59803.03
562.93	59800.69
563.10	60027.72
563.26	59959.84
563.42	60111.98
563.59	59973.89
563.75	59739.83
563.92	59985.59
564.08	59770.26
564.24	60165.81
564.41	60023.04
564.57	60088.57
564.74	60044.10
564.90	60046.44
565.07	60079.21
565.23	60018.36
565.39	60058.15
565.56	60182.19
565.72	59997.29
565.88	60009.00
566.05	59936.44
566.21	59973.89
566.38	60013.68
566.54	60135.38
566.70	60334.33
566.87	60245.39
567.03	60102.62
567.19	60303.90
567.36	60067.51
567.52	60135.38
567.68	60399.86
567.85	60278.16
568.01	60378.80
568.17	60121.34
568.34	60346.03
568.50	60177.51
568.66	60353.05
568.83	60355.39
568.99	60261.77
569.15	60322.63
569.32	60271.14
569.48	60287.52
569.64	60364.76
569.81	60268.79
569.97	60402.21
570.13	60465.40
570.30	60193.90
570.46	60514.55
570.62	60247.73
570.78	60392.84
570.95	60285.18
571.11	60481.78
571.27	60537.96
571.43	60357.74
571.60	60481.78
571.76	60463.06
571.92	60734.56
572.09	60519.23
572.25	60446.68
572.41	60336.67
572.57	60350.71
572.74	60685.41
572.90	60367.10
573.06	60385.82
573.22	60584.77
573.38	60409.23
573.55	60722.86
573.71	60612.85
573.87	60570.72
574.03	60369.44
574.20	60629.24
574.36	60505.19
574.52	60470.08
574.68	60512.21
574.84	60467.74
575.01	60556.68
575.17	60697.11
575.33	60542.64
575.49	60561.36
575.65	60650.30
575.82	60774.35
575.98	60699.45
576.14	60769.67
576.30	60629.24
576.46	60542.64
576.62	60477.10
576.79	60465.40
576.95	60385.82
577.11	60657.32
577.27	60472.42
577.43	60755.63
577.59	60711.16
577.75	60692.43
577.92	60502.85
578.08	60594.13
578.24	60757.97
578.40	60753.29
578.56	60931.17
578.72	60715.84
578.88	60907.76
579.04	60970.96
579.21	60676.05
579.37	60746.26
579.53	60893.72
579.69	60739.24
579.85	60706.47
580.01	60727.54
580.17	60575.40
580.33	60755.63
580.49	60839.89
580.65	60669.03
580.82	60853.93
580.98	60755.63
581.14	60739.24
581.30	60753.29
581.46	60680.73
581.62	60783.71
581.78	60580.09
581.94	60849.25
582.10	60750.94
582.26	60687.75
582.42	60832.86
582.58	60914.78
582.74	60495.83
582.90	60860.95
583.06	60673.71
583.22	60697.11
583.38	60800.10
583.54	60874.99
583.70	60769.67
583.86	60931.17
584.02	60645.62
584.18	61006.06
584.34	60755.63
584.50	60804.78
584.66	60788.39
584.82	60685.41
584.98	61139.47
585.14	61013.08
585.30	60825.84
585.46	60898.40
585.62	60800.10
585.78	61102.03
585.94	60554.34
586.10	60879.67
586.26	60846.91
586.42	60830.52
586.58	60882.02
586.74	60992.02
586.90	61073.94
587.06	60743.92
587.22	61095.00
587.38	60917.12
587.54	61031.81
587.70	61010.74
587.86	60886.70
588.02	61017.77
588.18	61228.41
588.34	60942.87
588.49	60917.12
