SpectraSuite Data File
++++++++++++++++++++++++++++++++++++
Date: Fri Oct 25 11:25:18 EDT 2013
User: price-jones
Dark Spectrum Present: No
Reference Spectrum Present: No
Number of Sampled Component Spectra: 1
Spectrometers: USB2+H05261
Integration Time (usec): 100000 (USB2+H05261)
Spectra Averaged: 1 (USB2+H05261)
Boxcar Smoothing: 0 (USB2+H05261)
Correct for Electrical Dark: No (USB2+H05261)
Strobe/Lamp Enabled: No (USB2+H05261)
Correct for Detector Non-linearity: No (USB2+H05261)
Correct for Stray Light: No (USB2+H05261)
Number of Pixels in Processed Spectrum: 2048
>>>>>Begin Processed Spectral Data<<<<<
365.73	196.60
365.92	196.60
366.12	196.60
366.32	196.60
366.52	187.24
366.72	128.73
366.91	128.73
367.11	166.18
367.31	98.30
367.51	119.37
367.70	98.30
367.90	65.54
368.10	105.32
368.30	154.48
368.49	135.75
368.69	138.09
368.89	182.56
369.09	93.62
369.28	145.11
369.48	91.28
369.68	154.48
369.87	156.82
370.07	187.24
370.27	285.55
370.47	372.15
370.66	545.34
370.86	636.63
371.06	688.12
371.25	718.54
371.45	641.31
371.65	683.44
371.84	634.29
372.04	730.25
372.24	571.09
372.44	683.44
372.63	709.18
372.83	748.97
373.03	748.97
373.22	727.91
373.42	739.61
373.62	706.84
373.81	791.10
374.01	795.78
374.21	777.06
374.40	877.70
374.60	821.53
374.79	748.97
374.99	816.85
375.19	844.93
375.38	791.10
375.58	854.30
375.78	905.79
375.97	819.19
376.17	957.28
376.37	802.80
376.56	873.02
376.76	901.11
376.95	854.30
377.15	856.64
377.35	844.93
377.54	912.81
377.74	849.61
377.93	873.02
378.13	931.53
378.33	933.87
378.52	851.96
378.72	938.55
378.91	997.07
379.11	959.62
379.31	1018.13
379.50	959.62
379.70	1039.20
379.89	1008.77
380.09	978.34
380.28	973.66
380.48	980.68
380.68	1053.24
380.87	947.92
381.07	950.26
381.26	1043.88
381.46	990.05
381.65	1018.13
381.85	1060.26
382.04	971.32
382.24	1151.54
382.43	1118.78
382.63	936.21
382.83	1057.92
383.02	1055.58
383.22	1151.54
383.41	1062.60
383.61	1153.88
383.80	1107.07
384.00	1135.16
384.19	1116.44
384.39	1184.31
384.58	1196.01
384.78	1200.69
384.97	1078.99
385.17	1149.20
385.36	1163.25
385.56	1200.69
385.75	1029.84
385.95	1170.27
386.14	1050.90
386.34	1238.14
386.53	1135.16
386.72	1352.83
386.92	1324.74
387.11	1226.44
387.31	1170.27
387.50	1249.85
387.70	1252.19
387.89	1261.55
388.09	1315.38
388.28	1301.34
388.48	1174.95
388.67	1289.64
388.86	1376.24
389.06	1259.21
389.25	1371.55
389.45	1317.72
389.64	1341.13
389.84	1324.74
390.03	1371.55
390.22	1416.02
390.42	1366.87
390.61	1357.51
390.81	1446.45
391.00	1345.81
391.19	1488.58
391.39	1420.71
391.58	1425.39
391.78	1451.13
391.97	1416.02
392.16	1387.94
392.36	1542.41
392.55	1479.22
392.75	1493.26
392.94	1521.35
393.13	1636.03
393.33	1420.71
393.52	1535.39
393.71	1605.61
393.91	1692.21
394.10	1593.90
394.29	1579.86
394.49	1621.99
394.68	1619.65
394.88	1734.34
395.07	1591.56
395.26	1664.12
395.46	1589.22
395.65	1626.67
395.84	1785.83
396.04	1783.49
396.23	1734.34
396.42	1717.95
396.62	1767.10
396.81	1696.89
397.00	1750.72
397.19	1781.15
397.39	1799.87
397.58	1806.89
397.77	1753.06
397.97	1809.23
398.16	1823.28
398.35	1912.22
398.55	1909.88
398.74	1977.75
398.93	1860.73
399.12	1874.77
399.32	1937.96
399.51	1832.64
399.70	2054.99
399.90	1863.07
400.09	2026.90
400.28	2066.69
400.47	2010.52
400.67	1987.11
400.86	1970.73
401.05	2052.65
401.24	2132.23
401.44	2097.12
401.63	2108.82
401.82	2146.27
402.01	2134.57
402.21	2197.76
402.40	2111.16
402.59	2244.57
402.78	2186.06
402.97	2193.08
403.17	2242.23
403.36	2279.68
403.55	2317.13
403.74	2392.03
403.93	2321.81
404.13	2438.84
404.32	2375.64
404.51	2380.32
404.70	2403.73
404.89	2275.00
405.09	2497.35
405.28	2471.61
405.47	2483.31
405.66	2441.18
405.85	2523.10
406.05	2457.56
406.24	2476.29
406.43	2483.31
406.62	2621.40
406.81	2698.64
407.00	2495.01
407.20	2555.86
407.39	2509.05
407.58	2733.75
407.77	2803.96
407.96	2726.72
408.15	2670.55
408.34	2708.00
408.54	2796.94
408.73	2743.11
408.92	2860.13
409.11	2780.56
409.30	2722.04
409.49	2813.32
409.68	2855.45
409.87	2958.44
410.07	2937.37
410.26	3063.76
410.45	3023.97
410.64	3103.55
410.83	3070.78
411.02	3187.81
411.21	3204.19
411.40	3052.06
411.59	3206.53
411.78	3159.72
411.98	3091.85
412.17	3166.74
412.36	3236.96
412.55	3262.71
412.74	3382.07
412.93	3325.90
413.12	3234.62
413.31	3571.66
413.50	3480.38
413.69	3438.25
413.88	3538.89
414.07	3475.70
414.26	3569.32
414.45	3634.85
414.64	3555.27
414.83	3681.66
415.02	3674.64
415.22	3740.18
415.41	3871.25
415.60	3747.20
415.79	3840.82
415.98	3882.95
416.17	3866.56
416.36	4014.02
416.55	4016.36
416.74	3971.89
416.93	3960.19
417.12	3913.38
417.31	4142.75
417.50	4063.17
417.69	4273.82
417.88	4327.65
418.07	4271.48
418.26	4234.03
418.45	4367.44
418.64	4465.74
418.83	4266.80
419.02	4369.78
419.21	4517.23
419.39	4472.76
419.58	4348.72
419.77	4360.42
419.96	4493.83
420.15	4538.30
420.34	4456.38
420.53	4634.26
420.72	4657.67
420.91	4648.30
421.10	4652.98
421.29	4603.83
421.48	4674.05
421.67	4557.02
421.86	4695.11
422.05	4753.63
422.24	4720.86
422.43	4772.35
422.61	4791.08
422.80	4929.17
422.99	4772.35
423.18	4807.46
423.37	4887.04
423.56	4896.40
423.75	4805.12
423.94	4807.46
424.13	4564.04
424.32	4760.65
424.50	4954.91
424.69	5095.35
424.88	5046.20
425.07	4926.83
425.26	4964.28
425.45	5015.77
425.64	4978.32
425.83	4964.28
426.01	5027.47
426.20	4999.38
426.39	5036.83
426.58	4833.21
426.77	5018.11
426.96	5111.73
427.15	5062.58
427.33	5050.88
427.52	5060.24
427.71	5027.47
427.90	5172.58
428.09	5291.95
428.28	5177.26
428.46	5336.42
428.65	5357.49
428.84	5390.25
429.03	5369.19
429.22	5310.68
429.40	5486.22
429.59	5453.45
429.78	5362.17
429.97	5135.14
430.16	5518.98
430.34	5507.28
430.53	5406.64
430.72	5504.94
430.91	5570.48
431.10	5556.43
431.28	5717.93
431.47	5736.65
431.66	5874.74
431.85	5834.96
432.03	5792.83
432.22	5797.51
432.41	5806.87
432.60	6120.50
432.79	5767.08
432.97	5900.49
433.16	5977.73
433.35	5837.30
433.54	5902.83
433.72	6019.86
433.91	5968.37
434.10	5982.41
434.28	6069.01
434.47	6129.86
434.66	6111.14
434.85	6347.53
435.03	6193.06
435.22	6092.41
435.41	6321.79
435.59	6394.34
435.78	6331.15
435.97	6307.74
436.16	6317.11
436.34	6333.49
436.53	6562.86
436.72	6579.25
436.90	6420.09
437.09	6469.24
437.28	6382.64
437.46	6478.60
437.65	6399.02
437.84	6738.40
438.02	6679.89
438.21	6717.34
438.40	6553.50
438.58	6953.73
438.77	7056.72
438.96	6803.94
439.14	6974.80
439.33	7131.61
439.52	7150.34
439.70	7019.27
439.89	7274.38
440.08	7047.35
440.26	7208.85
440.45	7323.54
440.63	7527.16
440.82	7510.78
441.01	7520.14
441.19	7468.65
441.38	7761.22
441.57	7691.00
441.75	7831.43
441.94	7789.30
442.12	7836.11
442.31	7941.44
442.50	8006.97
442.68	7922.71
442.87	7875.90
443.05	8177.83
443.24	8042.08
443.43	8018.68
443.61	8058.46
443.80	8259.75
443.98	7906.33
444.17	7768.24
444.35	8079.53
444.54	8315.92
444.73	8292.52
444.91	8140.38
445.10	8194.22
445.28	8271.45
445.47	8205.92
445.65	8285.50
445.84	8344.01
446.02	8329.97
446.21	8404.86
446.39	8297.20
446.58	8472.74
446.77	8444.65
446.95	8241.03
447.14	8355.71
447.32	8454.02
447.51	8538.27
447.69	8444.65
447.88	8336.99
448.06	8259.75
448.25	8292.52
448.43	8554.66
448.62	8552.32
448.80	8484.44
448.99	8575.72
449.17	8613.17
449.36	8500.83
449.54	8589.77
449.73	8943.19
449.91	8863.61
450.10	8805.10
450.28	8877.65
450.46	8908.08
450.65	8819.14
450.83	8762.97
451.02	9041.49
451.20	9111.71
451.39	9011.06
451.57	9027.45
451.76	8985.32
451.94	8849.57
452.13	9291.93
452.31	9235.75
452.49	9193.62
452.68	9327.03
452.86	9254.48
453.05	9589.17
453.23	9568.11
453.42	9130.43
453.60	9245.12
453.78	9327.03
453.97	9338.74
454.15	9310.65
454.34	9191.28
454.52	9685.14
454.70	9781.10
454.89	9671.09
455.07	9762.37
455.26	9860.68
455.44	9820.89
455.62	9921.53
455.81	9769.40
455.99	10040.90
456.17	9954.30
456.36	10012.81
456.54	10141.54
456.73	10291.34
456.91	10431.77
457.09	10328.78
457.28	10363.89
457.46	10026.86
457.64	10672.84
457.83	10396.66
458.01	10068.98
458.19	10719.65
458.38	10265.59
458.56	10537.09
458.74	10464.54
458.93	10499.64
459.11	10604.97
459.29	10567.52
459.48	10473.90
459.66	10438.79
459.84	10663.48
460.03	10986.47
460.21	10977.11
460.39	10661.14
460.57	10656.46
460.76	10937.32
460.94	10848.38
461.12	11138.61
461.31	11089.46
461.49	11040.31
461.67	11077.76
461.85	11344.58
462.04	11243.93
462.22	11620.76
462.40	11482.67
462.59	11286.06
462.77	11276.70
462.95	11583.31
463.13	11538.84
463.32	11707.36
463.50	11506.07
463.68	11735.45
463.86	11651.19
464.05	11520.12
464.23	11812.68
464.41	11817.36
464.59	11412.45
464.78	12294.83
464.96	11644.17
465.14	11847.79
465.32	11927.37
465.50	11812.68
465.69	12163.76
465.87	11955.46
466.05	12006.95
466.23	12011.63
466.41	11948.43
466.60	12205.89
466.78	12142.70
466.96	12285.47
467.14	12011.63
467.32	12236.32
467.51	12437.61
467.69	12086.53
467.87	12297.17
468.05	12477.40
468.23	12372.07
468.41	12482.08
468.60	12528.89
468.78	12786.35
468.96	12571.02
469.14	12477.40
469.32	12952.52
469.50	12482.08
469.69	12812.09
469.87	12858.90
470.05	12940.82
470.23	12828.48
470.41	12865.92
470.59	13085.94
470.77	12936.14
470.95	13107.00
471.14	13589.15
471.32	12982.95
471.50	13455.74
471.68	13439.36
471.86	13387.86
472.04	13834.91
472.22	13914.48
472.40	13427.65
472.58	13467.44
472.77	13797.46
472.95	13977.68
473.13	14574.52
473.31	13963.64
473.49	13893.42
473.67	14038.53
473.85	13942.57
474.03	14562.81
474.21	14441.11
474.39	14602.60
474.57	14642.39
474.75	14831.97
474.93	14761.76
475.12	14668.14
475.30	15030.92
475.48	15077.73
475.66	14949.00
475.84	15129.22
476.02	15363.28
476.20	15403.07
476.38	15335.19
476.56	15985.86
476.74	15789.25
476.92	15875.85
477.10	15786.91
477.28	15906.28
477.46	16046.71
477.64	16311.19
477.82	16510.14
478.00	16638.87
478.18	16613.12
478.36	17067.19
478.54	16840.15
478.72	17039.10
478.90	17305.92
479.08	17383.16
479.26	17479.12
479.44	17668.70
479.62	17860.63
479.80	18036.17
479.98	17865.31
480.16	18174.26
480.34	18214.05
480.52	18178.94
480.70	18356.82
480.88	17937.87
481.06	18754.71
481.24	18586.19
481.41	19136.22
481.59	19255.59
481.77	19365.59
481.95	19000.47
482.13	19522.41
482.31	19616.03
482.49	20128.61
482.67	19758.80
482.85	20475.01
483.03	20446.92
483.21	20596.71
483.39	20568.63
483.57	20484.37
483.74	20776.94
483.92	20903.32
484.10	20922.05
484.28	21568.04
484.46	21750.60
484.64	22104.02
484.82	21986.99
485.00	21879.33
485.18	22380.20
485.35	22651.70
485.53	22518.29
485.71	22799.16
485.89	23185.35
486.07	22888.10
486.25	23215.77
486.43	23557.49
486.61	23503.66
486.78	24128.58
486.96	23737.71
487.14	24201.14
487.32	24620.10
487.50	24931.39
487.68	24716.06
487.85	24891.60
488.03	25462.69
488.21	25631.21
488.39	25504.82
488.57	25820.79
488.75	25923.77
488.92	26324.01
489.10	26160.17
489.28	26476.14
489.46	26946.59
489.64	26689.13
489.81	27452.14
489.99	27131.49
490.17	27889.82
490.35	27992.81
490.53	28079.41
490.70	27817.27
490.88	28088.77
491.06	28521.77
491.24	28720.71
491.41	28652.84
491.59	29055.41
491.77	29003.92
491.95	29287.12
492.13	29502.45
492.30	29369.04
492.48	29556.28
492.66	29827.79
492.84	30047.80
493.01	30263.13
493.19	30377.81
493.37	30621.23
493.54	30742.94
493.72	31323.39
493.90	31110.40
494.08	31569.15
494.25	31562.12
494.43	32130.87
494.61	31850.01
494.79	32055.98
494.96	32320.46
495.14	32156.62
495.32	33090.49
495.49	32961.76
495.67	33067.09
495.85	33153.69
496.02	33345.61
496.20	33708.40
496.38	33357.32
496.55	34050.11
496.73	34263.10
496.91	34169.48
497.09	34731.21
497.26	34480.77
497.44	34401.19
497.62	34883.34
497.79	35290.60
497.97	34768.66
498.14	35314.00
498.32	35967.01
498.50	35819.56
498.67	36046.59
498.85	36191.70
499.03	36453.84
499.20	36313.41
499.38	36182.34
499.56	36893.86
499.73	37024.93
499.91	36720.66
500.08	37296.44
500.26	36889.18
500.44	37371.33
500.61	37708.37
500.79	37303.46
500.97	37743.48
501.14	38417.55
501.32	38223.29
501.49	38401.17
501.67	38209.25
501.84	38586.07
502.02	38433.94
502.20	38501.81
502.37	38909.07
502.55	38525.22
502.72	39459.09
502.90	38920.77
503.07	39227.38
503.25	39840.60
503.43	39185.25
503.60	39768.04
503.78	39714.21
503.95	39735.27
504.13	40423.39
504.30	40247.85
504.48	40629.36
504.65	40554.46
504.83	40666.81
505.01	41036.61
505.18	40708.94
505.36	41174.70
505.53	41003.85
505.71	41462.59
505.88	41750.48
506.06	40875.12
506.23	41392.37
506.41	41392.37
506.58	41729.41
506.76	41792.61
506.93	42377.74
507.11	41940.06
507.28	42471.36
507.46	42309.86
507.63	42387.10
507.81	42590.73
507.98	42667.97
508.16	42506.47
508.33	43079.90
508.50	42955.85
508.68	43133.73
508.85	43552.69
509.03	43187.56
509.20	43615.88
509.38	44280.60
509.55	44172.93
509.73	43903.77
509.90	44039.52
510.08	44172.93
510.25	44289.96
510.42	44734.66
510.60	44961.69
510.77	44715.93
510.95	45179.36
511.12	44425.71
511.30	44760.40
511.47	45315.11
511.64	44856.37
511.82	45453.20
511.99	45689.60
512.17	45619.38
512.34	45532.78
512.51	46162.39
512.69	46068.76
512.86	46138.98
513.04	46471.34
513.21	46293.46
513.38	45904.93
513.56	46649.22
513.73	46703.05
513.90	46623.47
514.08	46501.76
514.25	47082.22
514.43	47377.12
514.60	46698.37
514.77	47077.54
514.95	47487.13
515.12	47082.22
515.29	47400.53
515.47	47683.73
515.64	47456.70
515.81	47828.85
515.99	47634.58
516.16	48018.43
516.33	47641.60
516.51	48240.78
516.68	48020.77
516.85	48383.55
517.03	48580.16
517.20	48523.99
517.37	48685.48
517.54	48343.77
517.72	48411.64
517.89	48559.09
518.06	48828.26
518.24	48884.43
518.41	48795.49
518.58	48875.07
518.75	49401.69
518.93	49275.30
519.10	48954.64
519.27	49584.25
519.45	49331.47
519.62	49521.05
519.79	49422.75
519.96	49668.51
520.14	49963.42
520.31	49834.69
520.48	50145.98
520.65	50178.75
520.83	50337.90
521.00	50326.20
521.17	50347.26
521.34	50518.12
521.52	50574.30
521.69	50674.94
521.86	50972.19
522.03	50712.39
522.20	50901.97
522.38	50988.57
522.55	51173.47
522.72	50663.24
522.89	51114.96
523.07	51224.96
523.24	50939.42
523.41	51236.67
523.58	51217.94
523.75	51433.27
523.92	51592.43
524.10	51426.25
524.27	51583.07
524.44	51669.67
524.61	51880.31
524.78	51936.49
524.96	51997.34
525.13	52044.15
525.30	51999.68
525.47	52308.63
525.64	52100.32
525.81	52329.70
525.98	52362.46
526.16	52292.25
526.33	52573.11
526.50	52828.23
526.67	52355.44
526.84	52800.15
527.01	52500.56
527.18	52739.29
527.36	52725.25
527.53	52692.48
527.70	53069.31
527.87	52821.21
528.04	53050.58
528.21	53008.45
528.38	53057.60
528.55	53052.92
528.72	53429.75
528.89	52959.30
529.07	53130.16
529.24	52758.02
529.41	53221.44
529.58	53394.64
529.75	53450.81
529.92	53127.82
530.09	53563.16
530.26	54129.57
530.43	53766.79
530.60	53467.20
530.77	53542.10
530.94	53853.39
531.11	53783.17
531.28	53853.39
531.46	54040.63
531.63	54167.02
531.80	54040.63
531.97	54010.20
532.14	54049.99
532.31	54248.94
532.48	54377.67
532.65	54115.53
532.82	54195.10
532.99	54440.86
533.16	54464.27
533.33	54543.84
533.50	54611.72
533.67	54550.87
533.84	54443.20
534.01	54504.06
534.18	54993.23
534.35	54901.95
534.52	54810.67
534.69	54705.34
534.86	54843.43
535.03	55058.76
535.20	54904.29
535.37	55332.60
535.54	54944.08
535.71	54897.27
535.88	54962.80
536.05	55311.54
536.22	54997.91
536.38	55344.31
536.55	55496.44
536.72	55299.84
536.89	55136.00
537.06	55222.60
537.23	55428.57
537.40	55405.16
537.57	55381.76
537.74	55402.82
537.91	55786.67
538.08	55554.96
538.25	55456.65
538.42	55653.26
538.59	56090.94
538.75	55774.97
538.92	55852.20
539.09	56100.30
539.26	55758.58
539.43	56018.38
539.60	56002.00
539.77	55945.83
539.94	56273.50
540.11	56081.58
540.28	56299.25
540.44	56266.48
540.61	56179.88
540.78	56060.51
540.95	56236.05
541.12	56006.68
541.29	56324.99
541.46	56334.35
541.62	56257.12
541.79	56484.15
541.96	56172.86
542.13	56526.28
542.30	56463.08
542.47	56779.06
542.63	56591.81
542.80	56762.67
542.97	56760.33
543.14	56856.29
543.31	56893.74
543.48	57221.42
543.64	57315.04
543.81	57064.60
543.98	57303.34
544.15	57106.73
544.32	56996.73
544.48	57462.49
544.65	57139.50
544.82	57031.83
544.99	57137.16
545.16	57425.04
545.32	56823.53
545.49	57340.78
545.66	57743.36
545.83	57401.64
546.00	57570.16
546.16	57448.45
546.33	57326.74
546.50	57127.80
546.67	57364.19
546.83	57268.23
547.00	57553.77
547.17	57528.03
547.34	57446.11
547.50	57790.17
547.67	57996.13
547.84	57743.36
548.00	57865.06
548.17	57991.45
548.34	57790.17
548.51	58028.90
548.67	57846.34
548.84	57694.21
549.01	57829.96
549.18	57900.17
549.34	57897.83
549.51	58094.44
549.68	58082.73
549.84	58150.61
550.01	58349.56
550.18	57998.48
550.34	58237.21
550.51	58178.70
550.68	58134.23
550.84	58239.55
551.01	58225.51
551.18	58255.93
551.34	58351.90
551.51	58389.34
551.68	58473.60
551.84	58213.80
552.01	58269.98
552.18	58506.37
552.34	58415.09
552.51	58595.31
552.68	58241.89
552.84	58515.73
553.01	58712.34
553.18	58695.95
553.34	58700.64
553.51	58347.21
553.67	58536.80
553.84	58777.87
554.01	58733.40
554.17	58639.78
554.34	58922.99
554.51	58614.04
554.67	58986.18
554.84	58859.79
555.00	58827.02
555.17	58836.39
555.33	58691.27
555.50	58625.74
555.67	58712.34
555.83	58773.19
556.00	58920.65
556.16	59072.78
556.33	59245.98
556.50	58960.44
556.66	59297.47
556.83	59054.06
556.99	59084.48
557.16	59143.00
557.32	59068.10
557.49	59573.66
557.65	59126.61
557.82	58983.84
557.98	59084.48
558.15	59449.61
558.32	59365.35
558.48	59210.87
558.65	59346.62
558.81	59353.65
558.98	59355.99
559.14	59426.20
559.31	59409.82
559.47	59480.03
559.64	59414.50
559.80	59561.95
559.97	59508.12
560.13	59231.94
560.30	59374.71
560.46	59475.35
560.63	59473.01
560.79	59568.97
560.96	59728.13
561.12	59522.16
561.29	59664.94
561.45	59540.89
561.61	59693.02
561.78	59608.76
561.94	59444.93
562.11	59688.34
562.27	59678.98
562.44	59709.41
562.60	59990.27
562.77	59814.73
562.93	59559.61
563.10	59847.50
563.26	59854.52
563.42	59945.80
563.59	59725.79
563.75	59770.26
563.92	59510.46
564.08	59716.43
564.24	59833.46
564.41	59906.01
564.57	59906.01
564.74	59971.55
564.90	59952.82
565.07	59959.84
565.23	59849.84
565.39	59751.54
565.56	59978.57
565.72	59868.56
565.88	60048.78
566.05	59945.80
566.21	59859.20
566.38	59952.82
566.54	60158.79
566.70	60090.91
566.87	60151.77
567.03	60048.78
567.19	60322.63
567.36	60018.36
567.52	60009.00
567.68	60385.82
567.85	60168.15
568.01	60163.47
568.17	59955.16
568.34	60020.70
568.50	60081.55
568.66	60231.35
568.83	60205.60
568.99	60102.62
569.15	60353.05
569.32	60062.83
569.48	60102.62
569.64	60432.63
569.81	60121.34
569.97	60189.22
570.13	60126.02
570.30	60020.70
570.46	60282.84
570.62	60437.31
570.78	60278.16
570.95	60271.14
571.11	60561.36
571.27	60371.78
571.43	60385.82
571.60	60474.76
571.76	60303.90
571.92	60636.26
572.09	60168.15
572.25	60348.37
572.41	60343.69
572.57	60507.53
572.74	60523.91
572.90	60271.14
573.06	60449.02
573.22	60329.65
573.38	60418.59
573.55	60434.97
573.71	60776.69
573.87	60582.43
574.03	60437.31
574.20	60458.38
574.36	60460.72
574.52	60676.05
574.68	60715.84
574.84	60692.43
575.01	60760.31
575.17	60537.96
575.33	60481.78
575.49	60381.14
575.65	60563.70
575.82	60498.17
575.98	60757.97
576.14	60926.49
576.30	60530.93
576.46	60774.35
576.62	60481.78
576.79	60441.99
576.95	60301.56
577.11	60662.00
577.27	60729.88
577.43	60491.15
577.59	60526.25
577.75	60500.51
577.92	60364.76
578.08	60652.64
578.24	60605.83
578.40	60811.80
578.56	60786.05
578.72	60591.79
578.88	60835.20
579.04	60779.03
579.21	60575.40
579.37	60692.43
579.53	60886.70
579.69	60502.85
579.85	60692.43
580.01	60580.09
580.17	60608.17
580.33	60678.39
580.49	61029.47
580.65	60764.99
580.82	60734.56
580.98	60683.07
581.14	60732.22
581.30	60764.99
581.46	60720.52
581.62	60804.78
581.78	60479.44
581.94	60849.25
582.10	60741.58
582.26	60573.06
582.42	60697.11
582.58	60610.51
582.74	60828.18
582.90	60741.58
583.06	60596.47
583.22	60720.52
583.38	60743.92
583.54	60795.42
583.70	60706.47
583.86	60697.11
584.02	60676.05
584.18	60825.84
584.34	60961.59
584.50	60846.91
584.66	60584.77
584.82	60610.51
584.98	60947.55
585.14	60713.50
585.30	60502.85
585.46	60931.17
585.62	60872.65
585.78	61006.06
585.94	60779.03
586.10	60839.89
586.26	60893.72
586.42	60940.53
586.58	61022.45
586.74	60835.20
586.90	60928.83
587.06	60949.89
587.22	60837.54
587.38	60720.52
587.54	60966.27
587.70	61038.83
587.86	60865.63
588.02	60849.25
588.18	60882.02
588.34	60788.39
588.49	61043.51
