SpectraSuite Data File
++++++++++++++++++++++++++++++++++++
Date: Fri Oct 25 11:26:35 EDT 2013
User: price-jones
Dark Spectrum Present: No
Reference Spectrum Present: No
Number of Sampled Component Spectra: 1
Spectrometers: USB2+H05261
Integration Time (usec): 100000 (USB2+H05261)
Spectra Averaged: 1 (USB2+H05261)
Boxcar Smoothing: 0 (USB2+H05261)
Correct for Electrical Dark: No (USB2+H05261)
Strobe/Lamp Enabled: No (USB2+H05261)
Correct for Detector Non-linearity: No (USB2+H05261)
Correct for Stray Light: No (USB2+H05261)
Number of Pixels in Processed Spectrum: 2048
>>>>>Begin Processed Spectral Data<<<<<
365.73	264.48
365.92	264.48
366.12	264.48
366.32	198.95
366.52	95.96
366.72	145.11
366.91	72.56
367.11	91.28
367.31	117.03
367.51	117.03
367.70	161.50
367.90	133.41
368.10	147.45
368.30	100.64
368.49	98.30
368.69	170.86
368.89	117.03
369.09	159.16
369.28	187.24
369.48	245.76
369.68	224.69
369.87	189.58
370.07	266.82
370.27	262.14
370.47	360.44
370.66	557.05
370.86	678.76
371.06	617.90
371.25	767.70
371.45	655.35
371.65	669.39
371.84	723.23
372.04	641.31
372.24	725.57
372.44	730.25
372.63	730.25
372.83	720.88
373.03	786.42
373.22	795.78
373.42	713.86
373.62	809.83
373.81	751.31
374.01	807.48
374.21	837.91
374.40	748.97
374.60	884.72
374.79	798.12
374.99	828.55
375.19	798.12
375.38	781.74
375.58	779.40
375.78	882.38
375.97	917.49
376.17	957.28
376.37	856.64
376.56	898.77
376.76	863.66
376.95	828.55
377.15	947.92
377.35	950.26
377.54	901.11
377.74	1006.43
377.93	961.96
378.13	999.41
378.33	917.49
378.52	1006.43
378.72	957.28
378.91	896.43
379.11	938.55
379.31	910.47
379.50	882.38
379.70	978.34
379.89	994.73
380.09	919.83
380.28	973.66
380.48	971.32
380.68	884.72
380.87	983.02
381.07	1095.37
381.26	978.34
381.46	1022.81
381.65	1050.90
381.85	1043.88
382.04	1048.56
382.24	1046.22
382.43	980.68
382.63	1020.47
382.83	1116.44
383.02	1102.39
383.22	1114.10
383.41	1006.43
383.61	1090.69
383.80	1114.10
384.00	1125.80
384.19	1135.16
384.39	1156.22
384.58	1181.97
384.78	1196.01
384.97	1200.69
385.17	1184.31
385.36	1172.61
385.56	1207.72
385.75	1207.72
385.95	1200.69
386.14	1158.57
386.34	1235.80
386.53	1217.08
386.72	1317.72
386.92	1259.21
387.11	1350.49
387.31	1193.67
387.50	1280.27
387.70	1263.89
387.89	1198.35
388.09	1336.45
388.28	1268.57
388.48	1327.08
388.67	1345.81
388.86	1313.04
389.06	1259.21
389.25	1357.51
389.45	1336.45
389.64	1411.34
389.84	1401.98
390.03	1406.66
390.22	1385.60
390.42	1444.11
390.61	1411.34
390.81	1390.28
391.00	1479.22
391.19	1453.47
391.39	1462.83
391.58	1481.56
391.78	1523.69
391.97	1504.96
392.16	1437.09
392.36	1483.90
392.55	1528.37
392.75	1647.74
392.94	1521.35
393.13	1488.58
393.33	1605.61
393.52	1577.52
393.71	1572.84
393.91	1589.22
394.10	1561.14
394.29	1488.58
394.49	1650.08
394.68	1591.56
394.88	1671.14
395.07	1739.02
395.26	1568.16
395.46	1687.53
395.65	1668.80
395.84	1727.32
396.04	1809.23
396.23	1743.70
396.42	1743.70
396.62	1762.42
396.81	1816.26
397.00	1818.60
397.19	1813.92
397.39	1860.73
397.58	1816.26
397.77	1839.66
397.97	1842.00
398.16	1813.92
398.35	1853.70
398.55	1919.24
398.74	1930.94
398.93	1977.75
399.12	1998.82
399.32	1874.77
399.51	1937.96
399.70	1996.48
399.90	1959.03
400.09	2083.08
400.28	2146.27
400.47	2057.33
400.67	2162.66
400.86	2106.48
401.05	2104.14
401.24	2136.91
401.44	2157.97
401.63	2244.57
401.82	2216.49
402.01	2113.50
402.21	2200.10
402.40	2235.21
402.59	2153.29
402.78	2228.19
402.97	2286.70
403.17	2235.21
403.36	2310.11
403.55	2366.28
403.74	2333.51
403.93	2431.82
404.13	2312.45
404.32	2417.77
404.51	2396.71
404.70	2534.80
404.89	2326.49
405.09	2492.67
405.28	2462.24
405.47	2443.52
405.66	2483.31
405.85	2511.39
406.05	2513.74
406.24	2548.84
406.43	2640.12
406.62	2637.78
406.81	2661.19
407.00	2658.85
407.20	2658.85
407.39	2537.14
407.58	2895.24
407.77	2590.97
407.96	2747.79
408.15	2832.05
408.34	2733.75
408.54	2733.75
408.73	2883.54
408.92	2832.05
409.11	2918.65
409.30	2876.52
409.49	2923.33
409.68	3019.29
409.87	2977.16
410.07	3026.31
410.26	3002.91
410.45	2993.55
410.64	3075.46
410.83	3178.45
411.02	3185.47
411.21	3211.22
411.40	3133.98
411.59	3215.90
411.78	3232.28
411.98	3201.85
412.17	3246.32
412.36	3356.33
412.55	3389.10
412.74	3389.10
412.93	3368.03
413.12	3447.61
413.31	3609.11
413.50	3548.25
413.69	3431.23
413.88	3758.90
414.07	3494.42
414.26	3637.19
414.45	3606.77
414.64	3740.18
414.83	3550.59
415.02	3763.58
415.22	3808.05
415.41	3899.33
415.60	3873.59
415.79	3843.16
415.98	4065.51
416.17	4032.74
416.36	3901.67
416.55	4051.47
416.74	4194.24
416.93	4091.26
417.12	4231.69
417.31	4294.88
417.50	4175.52
417.69	4465.74
417.88	4294.88
418.07	4297.22
418.26	4327.65
418.45	4383.82
418.64	4500.85
418.83	4512.55
419.02	4397.87
419.21	4561.70
419.39	4456.38
419.58	4482.13
419.77	4550.00
419.96	4676.39
420.15	4566.39
420.34	4629.58
420.53	4615.54
420.72	4748.95
420.91	4840.23
421.10	4755.97
421.29	4681.07
421.48	4760.65
421.67	4938.53
421.86	5064.92
422.05	4793.42
422.24	4784.06
422.43	5046.20
422.61	4870.65
422.80	4884.70
422.99	4917.47
423.18	4997.04
423.37	5095.35
423.56	5057.90
423.75	5060.24
423.94	4936.19
424.13	4578.09
424.32	4922.15
424.50	5081.30
424.69	5156.20
424.88	5036.83
425.07	4957.25
425.26	4983.00
425.45	4990.02
425.64	5022.79
425.83	4940.87
426.01	5181.95
426.20	5249.82
426.39	5135.14
426.58	5018.11
426.77	5137.48
426.96	5109.39
427.15	5186.63
427.33	5219.39
427.52	5184.29
427.71	5336.42
427.90	5331.74
428.09	5387.91
428.28	5418.34
428.46	5430.04
428.65	5355.15
428.84	5509.62
429.03	5582.18
429.22	5334.08
429.40	5441.75
429.59	5507.28
429.78	5308.34
429.97	5221.74
430.16	5481.53
430.34	5666.44
430.53	5584.52
430.72	5603.24
430.91	5526.00
431.10	5654.73
431.28	5797.51
431.47	5799.85
431.66	5954.32
431.85	5785.80
432.03	5839.64
432.22	5963.68
432.41	5923.90
432.60	5968.37
432.79	6003.47
432.97	6066.67
433.16	5951.98
433.35	5919.21
433.54	6207.10
433.72	6073.69
433.91	6277.32
434.10	6111.14
434.28	6101.78
434.47	6319.45
434.66	6375.62
434.85	6342.85
435.03	6284.34
435.22	6265.61
435.41	6576.91
435.59	6417.75
435.78	6574.56
435.97	6593.29
436.16	6274.98
436.34	6462.22
436.53	6497.33
436.72	6710.32
436.90	6700.95
437.09	6654.14
437.28	6628.40
437.46	6698.61
437.65	6518.39
437.84	6691.59
438.02	6801.60
438.21	6773.51
438.40	6785.21
438.58	7028.63
438.77	7293.11
438.96	7054.37
439.14	7246.30
439.33	7222.89
439.52	7089.48
439.70	7424.18
439.89	7424.18
440.08	7288.43
440.26	7520.14
440.45	7279.07
440.63	7442.90
440.82	7735.47
441.01	7449.93
441.19	7674.62
441.38	7896.97
441.57	7843.14
441.75	7777.60
441.94	8112.30
442.12	8037.40
442.31	8044.42
442.50	8105.28
442.68	8037.40
442.87	8210.60
443.05	8194.22
443.24	8339.33
443.43	8271.45
443.61	8128.68
443.80	8318.26
443.98	8009.31
444.17	8037.40
444.35	8269.11
444.54	8442.31
444.73	8287.84
444.91	8463.38
445.10	8243.37
445.28	8517.21
445.47	8290.18
445.65	8285.50
445.84	8610.83
446.02	8599.13
446.21	8650.62
446.39	8332.31
446.58	8620.19
446.77	8465.72
446.95	8222.30
447.14	8435.29
447.32	8650.62
447.51	8561.68
447.69	8767.65
447.88	8505.51
448.06	8580.40
448.25	8730.20
448.43	8580.40
448.62	8716.16
448.80	8519.55
448.99	8739.56
449.17	8596.79
449.36	8905.74
449.54	8889.35
449.73	8917.44
449.91	9179.58
450.10	9041.49
450.28	9121.07
450.46	9004.04
450.65	8917.44
450.83	9128.09
451.02	9011.06
451.20	9235.75
451.39	9289.59
451.57	9315.33
451.76	8982.98
451.94	9249.80
452.13	9226.39
452.31	9268.52
452.49	9046.17
452.68	9551.73
452.86	9336.40
453.05	9535.34
453.23	9577.47
453.42	9355.12
453.60	9263.84
453.78	9628.96
453.97	9490.87
454.15	9692.16
454.34	9743.65
454.52	9696.84
454.70	9802.16
454.89	9811.53
455.07	9980.04
455.26	9888.76
455.44	9987.07
455.62	9851.31
455.81	10115.80
455.99	10186.01
456.17	10001.11
456.36	9987.07
456.54	10143.88
456.73	10356.87
456.91	10509.01
457.09	10384.96
457.28	10569.86
457.46	10518.37
457.64	10600.29
457.83	10377.94
458.01	10626.03
458.19	10813.28
458.38	10431.77
458.56	10782.85
458.74	10665.82
458.93	10747.74
459.11	10801.57
459.29	10909.24
459.48	11021.58
459.66	10951.37
459.84	11040.31
460.03	11112.86
460.21	11007.54
460.39	11246.27
460.57	10956.05
460.76	11052.01
460.94	11140.95
461.12	11115.20
461.31	11363.30
461.49	11087.12
461.67	11080.10
461.85	11293.08
462.04	11377.34
462.22	11580.97
462.40	11716.72
462.59	11545.86
462.77	11494.37
462.95	11644.17
463.13	11712.04
463.32	11686.29
463.50	11845.45
463.68	11719.06
463.86	11786.94
464.05	11896.94
464.23	11957.80
464.41	11765.87
464.59	11845.45
464.78	12196.53
464.96	11882.90
465.14	11969.50
465.32	12210.57
465.50	12226.96
465.69	12233.98
465.87	12135.68
466.05	12049.08
466.23	12074.82
466.41	12322.92
466.60	12587.40
466.78	12297.17
466.96	12269.09
467.14	12226.96
467.32	12535.91
467.51	12716.13
467.69	12322.92
467.87	12671.66
468.05	12741.88
468.23	12362.71
468.41	12505.48
468.60	12746.56
468.78	12987.63
468.96	12624.85
469.14	13123.38
469.32	12971.25
469.50	12720.81
469.69	13001.68
469.87	12940.82
470.05	13334.03
470.23	13310.63
470.41	13390.20
470.59	13312.97
470.77	13102.32
470.95	13184.24
471.14	13614.90
471.32	13200.62
471.50	13752.99
471.68	13561.06
471.86	13902.78
472.04	13785.76
472.22	14094.71
472.40	13764.69
472.58	13975.34
472.77	14029.17
472.95	14389.61
473.13	14892.83
473.31	13998.74
473.49	14368.55
473.67	14473.87
473.85	14080.66
474.03	14602.60
474.21	14834.32
474.39	14731.33
474.57	15267.31
474.75	14925.60
474.93	15190.08
475.12	15117.52
475.30	15257.95
475.48	14963.04
475.66	15166.67
475.84	15358.60
476.02	15534.14
476.20	15716.70
476.38	15681.59
476.56	16105.23
476.74	15747.12
476.92	16053.73
477.10	16049.05
477.28	16152.04
477.46	16109.91
477.64	16224.59
477.82	16755.90
478.00	17083.57
478.18	17041.44
478.36	17146.76
478.54	17179.53
478.72	17046.12
478.90	17366.78
479.08	17600.83
479.26	17762.33
479.44	17884.03
479.62	18204.69
479.80	18333.42
479.98	18546.40
480.16	19037.92
480.34	18391.93
480.52	18934.93
480.70	18810.89
480.88	18586.19
481.06	18876.42
481.24	18993.45
481.41	19300.06
481.59	19124.52
481.77	19800.93
481.95	19859.45
482.13	19740.08
482.31	19477.94
482.49	20212.87
482.67	20180.10
482.85	20465.64
483.03	20643.52
483.21	20947.79
483.39	20919.71
483.57	21055.46
483.74	21348.03
483.92	21322.28
484.10	21319.94
484.28	21673.36
484.46	22043.17
484.64	22431.69
484.82	22054.87
485.00	22427.01
485.18	23152.58
485.35	23161.94
485.53	22869.37
485.71	23098.75
485.89	23878.15
486.07	23616.01
486.25	23768.14
486.43	23634.73
486.61	23646.43
486.78	24694.99
486.96	24500.73
487.14	24402.43
487.32	24575.62
487.50	24980.54
487.68	25312.89
487.85	25249.70
488.03	25792.70
488.21	25745.89
488.39	25935.48
488.57	25956.54
488.75	26487.84
488.92	26670.40
489.10	26817.86
489.28	26813.18
489.46	27108.08
489.64	27241.50
489.81	27847.69
489.99	27648.75
490.17	27873.44
490.35	28315.80
490.53	28657.52
490.70	28498.36
490.88	28257.29
491.06	28788.59
491.24	28975.83
491.41	29493.09
491.59	28985.19
491.77	29006.26
491.95	29956.52
492.13	29949.50
492.30	30003.33
492.48	30415.26
492.66	30466.75
492.84	30237.38
493.01	30593.14
493.19	31185.30
493.37	30972.31
493.54	31091.68
493.72	31377.22
493.90	31330.41
494.08	31660.43
494.25	32163.64
494.43	32453.87
494.61	32711.33
494.79	32811.97
494.96	32641.11
495.14	32884.53
495.32	33259.01
495.49	33383.06
495.67	33441.57
495.85	33659.24
496.02	33830.10
496.20	34237.36
496.38	34263.10
496.55	34007.98
496.73	35262.51
496.91	34686.74
497.09	35002.71
497.26	35234.42
497.44	34969.94
497.62	35655.72
497.79	36016.16
497.97	35470.82
498.14	36065.31
498.32	36306.39
498.50	36357.88
498.67	36505.34
498.85	36486.61
499.03	36996.85
499.20	36624.70
499.38	36893.86
499.56	37216.86
499.73	37050.68
499.91	37256.65
500.08	37591.34
500.26	37486.02
500.44	37399.42
500.61	38202.22
500.79	37785.61
500.97	38176.48
501.14	38817.78
501.32	38754.59
501.49	38511.17
501.67	38756.93
501.84	38761.61
502.02	38864.60
502.20	39234.40
502.37	39363.13
502.55	39496.54
502.72	39812.51
502.90	39749.32
503.07	39578.46
503.25	39817.19
503.43	39821.87
503.60	40016.14
503.78	40465.52
503.95	40519.35
504.13	40449.14
504.30	40737.02
504.48	40898.52
504.65	40996.82
504.83	41268.33
505.01	41570.25
505.18	41118.53
505.36	41759.84
505.53	41371.31
505.71	41808.99
505.88	41888.57
506.06	41736.43
506.23	42036.02
506.41	42099.22
506.58	42394.12
506.76	41933.04
506.93	42368.38
507.11	42363.70
507.28	42799.04
507.46	42993.30
507.63	43070.54
507.81	43533.96
507.98	42871.59
508.16	42969.90
508.33	43416.94
508.50	43229.69
508.68	43707.16
508.85	44210.38
509.03	43901.43
509.20	43704.82
509.38	44753.38
509.55	44350.81
509.73	44563.80
509.90	45179.36
510.08	44917.22
510.25	44481.88
510.42	45357.24
510.60	45518.74
510.77	45471.93
510.95	45476.61
511.12	45577.25
511.30	45521.08
511.47	45717.68
511.64	46073.45
511.82	46068.76
511.99	46010.25
512.17	46534.53
512.34	45794.92
512.51	46630.49
512.69	46550.91
512.86	46375.37
513.04	47166.48
513.21	46827.10
513.38	46731.14
513.56	46979.23
513.73	47030.72
513.90	46944.12
514.08	47124.35
514.25	47557.35
514.43	47494.15
514.60	47924.81
514.77	47302.23
514.95	47454.36
515.12	47875.66
515.29	47721.18
515.47	48154.18
515.64	48121.41
515.81	47683.73
515.99	48397.60
516.16	48776.76
516.33	48224.40
516.51	49427.43
516.68	48774.42
516.85	48615.27
517.03	49287.00
517.20	49287.00
517.37	48924.22
517.54	49272.96
517.72	49074.01
517.89	49226.15
518.06	49202.74
518.24	49289.34
518.41	49235.51
518.58	49490.63
518.75	49469.56
518.93	49858.09
519.10	49605.31
519.27	49984.48
519.45	49727.02
519.62	50506.42
519.79	49937.67
519.96	49799.58
520.14	50380.03
520.31	50333.22
520.48	50595.36
520.65	50281.73
520.83	50899.63
521.00	50628.13
521.17	50834.10
521.34	50745.15
521.52	50742.81
521.69	50813.03
521.86	51098.58
522.03	51054.11
522.20	51246.03
522.38	51447.32
522.55	51470.72
522.72	51491.79
522.89	51379.44
523.07	51679.03
523.24	51737.54
523.41	51945.85
523.58	51765.63
523.75	51917.76
523.92	52112.03
524.10	52205.65
524.27	52226.71
524.44	52296.93
524.61	52154.16
524.78	52245.44
524.96	52264.16
525.13	52624.60
525.30	52423.32
525.47	52341.40
525.64	52502.90
525.81	52252.46
525.98	52678.44
526.16	52694.82
526.33	52659.71
526.50	52978.03
526.67	53017.82
526.84	53242.51
527.01	53167.61
527.18	53195.70
527.36	53345.49
527.53	53088.03
527.70	53294.00
527.87	53034.20
528.04	53212.08
528.21	53483.58
528.38	53556.14
528.55	53794.87
528.72	53631.04
528.89	53776.15
529.07	53298.68
529.24	53240.17
529.41	53811.26
529.58	53947.01
529.75	54028.93
529.92	53890.83
530.09	54005.52
530.26	54321.49
530.43	54265.32
530.60	53965.73
530.77	53949.35
530.94	54040.63
531.11	54101.48
531.28	54197.44
531.46	54258.30
531.63	54389.37
531.80	54351.92
531.97	54377.67
532.14	54698.32
532.31	54499.37
532.48	54593.00
532.65	54913.65
532.82	54691.30
532.99	54808.32
533.16	54485.33
533.33	54841.09
533.50	55002.59
533.67	54908.97
533.84	54852.80
534.01	55037.70
534.18	55093.87
534.35	55629.85
534.52	55222.60
534.69	55358.35
534.86	55365.37
535.03	55033.02
535.20	55299.84
535.37	55332.60
535.54	55531.55
535.71	55428.57
535.88	55599.43
536.05	55564.32
536.22	55751.56
536.38	55650.92
536.55	55779.65
536.72	55461.33
536.89	55437.93
537.06	55718.79
537.23	55805.39
537.40	55742.20
537.57	55758.58
537.74	55854.54
537.91	56104.98
538.08	56140.09
538.25	55854.54
538.42	56072.21
538.59	56158.81
538.75	55992.64
538.92	56322.65
539.09	56343.72
539.26	56109.66
539.43	56102.64
539.60	56502.87
539.77	56519.26
539.94	56549.68
540.11	56584.79
540.28	56390.53
540.44	56580.11
540.61	56622.24
540.78	56498.19
540.95	56484.15
541.12	56376.48
541.29	56343.72
541.46	56655.01
541.62	56753.31
541.79	56605.86
541.96	56802.46
542.13	56706.50
542.30	56704.16
542.47	56816.50
542.63	56994.39
542.80	56797.78
542.97	57340.78
543.14	57340.78
543.31	57387.60
543.48	57392.28
543.64	57469.51
543.81	57654.42
543.98	57429.72
544.15	57450.79
544.32	57495.26
544.48	57609.95
544.65	57263.55
544.82	57516.32
544.99	57380.57
545.16	57642.71
545.32	57219.08
545.49	57839.32
545.66	57792.51
545.83	57790.17
546.00	57984.43
546.16	57773.78
546.33	57846.34
546.50	57647.39
546.67	57780.81
546.83	57600.58
547.00	57799.53
547.17	57682.50
547.34	57888.47
547.50	58012.52
547.67	58035.92
547.84	57996.13
548.00	58293.38
548.17	58445.52
548.34	58078.05
548.51	58164.65
548.67	58237.21
548.84	58216.14
549.01	58354.24
549.18	58379.98
549.34	58017.20
549.51	58382.32
549.68	58379.98
549.84	58604.67
550.01	58433.81
550.18	58394.03
550.34	58618.72
550.51	58445.52
550.68	58660.85
550.84	58394.03
551.01	58457.22
551.18	58368.28
551.34	58529.78
551.51	58719.36
551.68	58576.59
551.84	58656.17
552.01	58658.51
552.18	58686.59
552.34	58693.61
552.51	58983.84
552.68	58450.20
552.84	58733.40
553.01	59138.32
553.18	58775.53
553.34	59070.44
553.51	58702.98
553.67	59110.23
553.84	59009.59
554.01	59096.19
554.17	59194.49
554.34	58925.33
554.51	59257.68
554.67	59117.25
554.84	58845.75
555.00	59063.42
555.17	59037.67
555.33	59161.72
555.50	59150.02
555.67	59227.26
555.83	59236.62
556.00	59306.83
556.16	59360.67
556.33	59442.59
556.50	59245.98
556.66	59664.94
556.83	59023.63
556.99	59573.66
557.16	59522.16
557.32	59496.42
557.49	59512.80
557.65	59428.54
557.82	59529.19
557.98	59480.03
558.15	59552.59
558.32	59592.38
558.48	59426.20
558.65	59540.89
558.81	59590.04
558.98	59526.84
559.14	59540.89
559.31	59576.00
559.47	59709.41
559.64	59819.41
559.80	59938.78
559.97	59856.86
560.13	59700.04
560.30	59678.98
560.46	59861.54
560.63	59821.75
560.79	59840.48
560.96	59941.12
561.12	59931.76
561.29	59744.51
561.45	60083.89
561.61	59805.37
561.78	59976.23
561.94	59725.79
562.11	60006.65
562.27	59875.58
562.44	60102.62
562.60	60224.32
562.77	60266.45
562.93	59924.74
563.10	60142.41
563.26	60074.53
563.42	60259.43
563.59	60240.71
563.75	60198.58
563.92	60076.87
564.08	60177.51
564.24	60331.99
564.41	60182.19
564.57	60233.69
564.74	60090.91
564.90	60374.12
565.07	60128.36
565.23	60240.71
565.39	60161.13
565.56	60385.82
565.72	60149.43
565.88	60406.89
566.05	60219.64
566.21	60088.57
566.38	60313.26
566.54	60343.69
566.70	60420.93
566.87	60364.76
567.03	60123.68
567.19	60427.95
567.36	60350.71
567.52	60327.31
567.68	60619.88
567.85	60622.22
568.01	60626.90
568.17	60420.93
568.34	60598.81
568.50	60570.72
568.66	60397.52
568.83	60561.36
568.99	60460.72
569.15	60605.83
569.32	60416.25
569.48	60748.60
569.64	60781.37
569.81	60589.45
569.97	60463.06
570.13	60624.56
570.30	60308.58
570.46	60477.10
570.62	60566.04
570.78	60467.74
570.95	60535.62
571.11	60753.29
571.27	60570.72
571.43	60488.80
571.60	60608.17
571.76	60486.46
571.92	60701.79
572.09	60673.71
572.25	60526.25
572.41	60605.83
572.57	60561.36
572.74	60874.99
572.90	60570.72
573.06	60715.84
573.22	60542.64
573.38	60725.20
573.55	60680.73
573.71	61120.75
573.87	60893.72
574.03	60748.60
574.20	60926.49
574.36	60659.66
574.52	60851.59
574.68	60872.65
574.84	60825.84
575.01	60853.93
575.17	60713.50
575.33	60608.17
575.49	60750.94
575.65	60767.33
575.82	61003.72
575.98	60807.12
576.14	60956.91
576.30	60921.80
576.46	60708.82
576.62	60776.69
576.79	60797.76
576.95	60523.91
577.11	60966.27
577.27	60886.70
577.43	60774.35
577.59	60654.98
577.75	60764.99
577.92	60767.33
578.08	61027.13
578.24	60769.67
578.40	61071.60
578.56	60992.02
578.72	60935.85
578.88	61130.11
579.04	61310.33
579.21	60823.50
579.37	61183.94
579.53	61179.26
579.69	60708.82
579.85	60713.50
580.01	60999.04
580.17	60872.65
580.33	60755.63
580.49	61146.50
580.65	60989.68
580.82	60898.40
580.98	60996.70
581.14	60870.31
581.30	61116.07
581.46	60837.54
581.62	61080.96
581.78	60814.14
581.94	61193.31
582.10	60870.31
582.26	61076.28
582.42	60797.76
582.58	60999.04
582.74	60985.00
582.90	61001.38
583.06	60994.36
583.22	61027.13
583.38	61064.58
583.54	60975.64
583.70	61020.11
583.86	61106.71
584.02	60874.99
584.18	61219.05
584.34	61118.41
584.50	60987.34
584.66	61085.64
584.82	60985.00
584.98	61038.83
585.14	61343.10
585.30	60914.78
585.46	61043.51
585.62	60989.68
585.78	61158.20
585.94	60814.14
586.10	61045.85
586.26	61097.34
586.42	61099.68
586.58	61137.13
586.74	61116.07
586.90	60940.53
587.06	61137.13
587.22	61186.28
587.38	61095.00
587.54	61389.91
587.70	61457.79
587.86	61186.28
588.02	61095.00
588.18	61162.88
588.34	61048.19
588.49	61066.92
