SpectraSuite Data File
++++++++++++++++++++++++++++++++++++
Date: Fri Oct 25 10:47:19 EDT 2013
User: price-jones
Dark Spectrum Present: No
Reference Spectrum Present: No
Number of Sampled Component Spectra: 1
Spectrometers: USB2+H05261
Integration Time (usec): 100000 (USB2+H05261)
Spectra Averaged: 1 (USB2+H05261)
Boxcar Smoothing: 0 (USB2+H05261)
Correct for Electrical Dark: No (USB2+H05261)
Strobe/Lamp Enabled: No (USB2+H05261)
Correct for Detector Non-linearity: No (USB2+H05261)
Correct for Stray Light: No (USB2+H05261)
Number of Pixels in Processed Spectrum: 2048
>>>>>Begin Processed Spectral Data<<<<<
365.73	156.82
365.92	156.82
366.12	156.82
366.32	74.90
366.52	37.45
366.72	46.81
366.91	107.66
367.11	0.00
367.31	84.26
367.51	25.75
367.70	84.26
367.90	72.56
368.10	42.13
368.30	32.77
368.49	11.70
368.69	124.05
368.89	65.54
369.09	0.00
369.28	58.51
369.48	63.19
369.68	105.32
369.87	102.98
370.07	187.24
370.27	156.82
370.47	215.33
370.66	325.33
370.86	402.57
371.06	447.04
371.25	458.74
371.45	414.27
371.65	409.59
371.84	327.68
372.04	458.74
372.24	465.77
372.44	407.25
372.63	447.04
372.83	493.85
373.03	491.51
373.22	479.81
373.42	486.83
373.62	521.94
373.81	599.18
374.01	552.37
374.21	543.00
374.40	519.60
374.60	554.71
374.79	528.96
374.99	463.43
375.19	545.34
375.38	489.17
375.58	528.96
375.78	531.30
375.97	535.98
376.17	573.43
376.37	521.94
376.56	627.26
376.76	573.43
376.95	414.27
377.15	624.92
377.35	617.90
377.54	634.29
377.74	505.56
377.93	503.22
378.13	578.11
378.33	587.47
378.52	599.18
378.72	648.33
378.91	538.32
379.11	568.75
379.31	620.24
379.50	596.84
379.70	667.05
379.89	561.73
380.09	627.26
380.28	582.79
380.48	599.18
380.68	636.63
380.87	643.65
381.07	767.70
381.26	613.22
381.46	688.12
381.65	758.33
381.85	641.31
382.04	676.41
382.24	681.10
382.43	601.52
382.63	674.07
382.83	641.31
383.02	578.11
383.22	713.86
383.41	678.76
383.61	629.60
383.80	702.16
384.00	720.88
384.19	608.54
384.39	699.82
384.58	716.20
384.78	723.23
384.97	781.74
385.17	713.86
385.36	587.47
385.56	739.61
385.75	655.35
385.95	800.46
386.14	767.70
386.34	791.10
386.53	755.99
386.72	746.63
386.92	800.46
387.11	851.96
387.31	793.44
387.50	779.40
387.70	772.38
387.89	791.10
388.09	805.14
388.28	767.70
388.48	821.53
388.67	887.06
388.86	849.61
389.06	826.21
389.25	884.72
389.45	798.12
389.64	734.93
389.84	877.70
390.03	929.19
390.22	910.47
390.42	823.87
390.61	887.06
390.81	933.87
391.00	889.40
391.19	936.21
391.39	929.19
391.58	940.90
391.78	926.85
391.97	980.68
392.16	936.21
392.36	915.15
392.55	976.00
392.75	940.90
392.94	898.77
393.13	950.26
393.33	912.81
393.52	961.96
393.71	978.34
393.91	978.34
394.10	933.87
394.29	1081.33
394.49	1027.50
394.68	1046.22
394.88	1039.20
395.07	1027.50
395.26	1008.77
395.46	1057.92
395.65	987.71
395.84	1062.60
396.04	1125.80
396.23	1074.31
396.42	1095.37
396.62	1102.39
396.81	1064.94
397.00	1032.18
397.19	1172.61
397.39	1165.59
397.58	1249.85
397.77	1160.91
397.97	1252.19
398.16	1188.99
398.35	1151.54
398.55	1174.95
398.74	1317.72
398.93	1233.46
399.12	1294.32
399.32	1233.46
399.51	1315.38
399.70	1331.76
399.90	1301.34
400.09	1343.47
400.28	1343.47
400.47	1341.13
400.67	1432.41
400.86	1320.06
401.05	1320.06
401.24	1390.28
401.44	1362.19
401.63	1378.58
401.82	1413.68
402.01	1465.18
402.21	1376.24
402.40	1401.98
402.59	1409.00
402.78	1355.17
402.97	1439.43
403.17	1465.18
403.36	1465.18
403.55	1535.39
403.74	1561.14
403.93	1607.95
404.13	1486.24
404.32	1572.84
404.51	1652.42
404.70	1570.50
404.89	1671.14
405.09	1692.21
405.28	1586.88
405.47	1638.38
405.66	1687.53
405.85	1722.63
406.05	1596.25
406.24	1694.55
406.43	1659.44
406.62	1701.57
406.81	1844.34
407.00	1746.04
407.20	1776.47
407.39	1678.16
407.58	1722.63
407.77	1856.04
407.96	1816.26
408.15	1853.70
408.34	1806.89
408.54	1753.06
408.73	1837.32
408.92	1895.83
409.11	1977.75
409.30	1959.03
409.49	1954.35
409.68	1926.26
409.87	2024.56
410.07	1956.69
410.26	1987.11
410.45	2029.24
410.64	2069.03
410.83	2080.74
411.02	2069.03
411.21	2239.89
411.40	2167.34
411.59	2190.74
411.78	2169.68
411.98	2223.51
412.17	2195.42
412.36	2202.44
412.55	2335.85
412.74	2312.45
412.93	2399.05
413.12	2317.13
413.31	2422.45
413.50	2359.26
413.69	2422.45
413.88	2469.27
414.07	2387.35
414.26	2455.22
414.45	2502.03
414.64	2492.67
414.83	2665.87
415.02	2532.46
415.22	2537.14
415.41	2485.65
415.60	2682.25
415.79	2651.83
415.98	2782.90
416.17	2700.98
416.36	2647.15
416.55	2799.28
416.74	2813.32
416.93	2768.85
417.12	2925.67
417.31	2848.43
417.50	2911.63
417.69	2956.10
417.88	2874.18
418.07	2906.95
418.26	3000.57
418.45	3045.04
418.64	3124.62
418.83	3005.25
419.02	2958.44
419.21	3098.87
419.39	3054.40
419.58	3063.76
419.77	3033.33
419.96	3155.04
420.15	3089.51
420.34	3124.62
420.53	3169.09
420.72	3187.81
420.91	3141.00
421.10	3220.58
421.29	3227.60
421.48	3112.91
421.67	3300.16
421.86	3211.22
422.05	3194.83
422.24	3143.34
422.43	3281.43
422.61	3251.00
422.80	3396.12
422.99	3269.73
423.18	3421.86
423.37	3391.44
423.56	3372.71
423.75	3293.13
423.94	3302.50
424.13	3253.34
424.32	3215.90
424.50	3522.51
424.69	3405.48
424.88	3456.97
425.07	3258.03
425.26	3438.25
425.45	3466.33
425.64	3351.65
425.83	3428.88
426.01	3471.01
426.20	3473.36
426.39	3447.61
426.58	3461.65
426.77	3506.12
426.96	3377.39
427.15	3494.42
427.33	3566.98
427.52	3529.53
427.71	3522.51
427.90	3557.61
428.09	3616.13
428.28	3581.02
428.46	3632.51
428.65	3581.02
428.84	3648.90
429.03	3791.67
429.22	3527.19
429.40	3709.75
429.59	3714.43
429.78	3564.64
429.97	3480.38
430.16	3566.98
430.34	3566.98
430.53	3749.54
430.72	3623.15
430.91	3761.24
431.10	3819.75
431.28	3978.91
431.47	3770.60
431.66	4014.02
431.85	3866.56
432.03	3969.55
432.22	4180.20
432.41	3953.16
432.60	4067.85
432.79	4086.58
432.97	4196.58
433.16	4201.26
433.35	3932.10
433.54	3976.57
433.72	4007.00
433.91	4046.79
434.10	4091.26
434.28	4114.66
434.47	4081.89
434.66	4154.45
434.85	4440.00
435.03	4280.84
435.22	4243.39
435.41	4273.82
435.59	4344.03
435.78	4407.23
435.97	4318.29
436.16	4383.82
436.34	4393.19
436.53	4428.29
436.72	4444.68
436.90	4334.67
437.09	4554.68
437.28	4351.06
437.46	4432.97
437.65	4491.49
437.84	4402.55
438.02	4594.47
438.21	4568.73
438.40	4393.19
438.58	4599.15
438.77	4664.69
438.96	4830.87
439.14	4805.12
439.33	4917.47
439.52	4842.57
439.70	4936.19
439.89	5067.26
440.08	4931.51
440.26	5036.83
440.45	4950.23
440.63	5097.69
440.82	5174.92
441.01	5081.30
441.19	5238.12
441.38	5179.61
441.57	5338.76
441.75	5181.95
441.94	5324.72
442.12	5439.40
442.31	5348.12
442.50	5514.30
442.68	5432.38
442.87	5434.72
443.05	5420.68
443.24	5486.22
443.43	5401.96
443.61	5643.03
443.80	5746.02
443.98	5458.13
444.17	5378.55
444.35	5636.01
444.54	5598.56
444.73	5584.52
444.91	5596.22
445.10	5432.38
445.28	5694.52
445.47	5500.26
445.65	5537.71
445.84	5692.18
446.02	5748.36
446.21	5708.57
446.39	5713.25
446.58	5720.27
446.77	5678.14
446.95	5474.51
447.14	5776.44
447.32	5816.23
447.51	5633.67
447.69	5579.84
447.88	5717.93
448.06	5823.25
448.25	5792.83
448.43	5937.94
448.62	5661.76
448.80	5738.99
448.99	5799.85
449.17	5937.94
449.36	5706.23
449.54	5895.81
449.73	5909.85
449.91	6101.78
450.10	6193.06
450.28	6150.93
450.46	6108.80
450.65	6167.31
450.83	6239.87
451.02	5998.79
451.20	6221.14
451.39	6153.27
451.57	6312.42
451.76	6167.31
451.94	6270.30
452.13	6249.23
452.31	6204.76
452.49	6328.81
452.68	6204.76
452.86	6164.97
453.05	6176.67
453.23	6354.55
453.42	6321.79
453.60	6221.14
453.78	6429.45
453.97	6466.90
454.15	6300.72
454.34	6291.36
454.52	6530.09
454.70	6429.45
454.89	6656.48
455.07	6616.69
455.26	6413.07
455.44	6595.63
455.62	6775.85
455.81	6586.27
455.99	6670.53
456.17	6761.81
456.36	6759.47
456.54	6752.45
456.73	6890.54
456.91	6916.28
457.09	6895.22
457.28	7136.29
457.46	6958.41
457.64	7033.31
457.83	6918.62
458.01	6960.75
458.19	7098.84
458.38	7124.59
458.56	7037.99
458.74	7075.44
458.93	6974.80
459.11	7248.64
459.29	7250.98
459.48	7316.51
459.66	7197.15
459.84	7335.24
460.03	7508.44
460.21	7365.67
460.39	7255.66
460.57	7325.88
460.76	7290.77
460.94	7550.57
461.12	7536.52
461.31	7611.42
461.49	7548.23
461.67	7400.77
461.85	7585.68
462.04	7494.40
462.22	8088.89
462.40	7655.89
462.59	7754.19
462.77	7714.41
462.95	7730.79
463.13	7573.97
463.32	7878.24
463.50	7735.47
463.68	7885.26
463.86	7733.13
464.05	7679.30
464.23	7857.18
464.41	7840.79
464.59	7765.90
464.78	7927.39
464.96	7932.08
465.14	7885.26
465.32	7969.52
465.50	7911.01
465.69	8060.80
465.87	8030.38
466.05	7974.21
466.23	7826.75
466.41	7964.84
466.60	8184.85
466.78	7911.01
466.96	8077.19
467.14	8060.80
467.32	8077.19
467.51	8369.76
467.69	8074.85
467.87	7992.93
468.05	8184.85
468.23	8138.04
468.41	8093.57
468.60	8189.53
468.78	8425.93
468.96	8355.71
469.14	8332.31
469.32	8315.92
469.50	8191.88
469.69	8486.78
469.87	8510.19
470.05	8603.81
470.23	8629.56
470.41	8692.75
470.59	8580.40
470.77	8758.28
470.95	8643.60
471.14	8798.07
471.32	8652.96
471.50	9179.58
471.68	8849.57
471.86	9011.06
472.04	9212.35
472.22	9266.18
472.40	8861.27
472.58	9088.30
472.77	9125.75
472.95	9315.33
473.13	9509.60
473.31	9097.66
473.49	9130.43
473.67	9109.36
473.85	9350.44
474.03	9640.67
474.21	9563.43
474.39	9511.94
474.57	9540.02
474.75	9654.71
474.93	9661.73
475.12	9804.50
475.30	9743.65
475.48	9951.96
475.66	10078.35
475.84	9844.29
476.02	10193.03
476.20	9982.38
476.38	10153.24
476.56	10511.35
476.74	10211.76
476.92	9987.07
477.10	10064.30
477.28	10740.72
477.46	10469.22
477.64	10691.57
477.82	10892.85
478.00	10857.75
478.18	11082.44
478.36	10916.26
478.54	11066.05
478.72	11262.66
478.90	10892.85
479.08	11339.90
479.26	11307.13
479.44	11339.90
479.62	11424.15
479.80	11360.96
479.98	11559.91
480.16	12065.46
480.34	11676.93
480.52	11896.94
480.70	12011.63
480.88	11948.43
481.06	12123.98
481.24	12201.21
481.41	12304.20
481.59	12444.63
481.77	12877.63
481.95	12423.56
482.13	12751.24
482.31	12723.15
482.49	12924.44
482.67	13020.40
482.85	13144.45
483.03	13427.65
483.21	13509.57
483.39	13446.38
483.57	13369.14
483.74	13816.18
483.92	13542.34
484.10	13813.84
484.28	14083.00
484.46	14160.24
484.64	14391.95
484.82	14293.65
485.00	14483.24
485.18	14630.69
485.35	14991.13
485.53	14396.64
485.71	14373.23
485.89	14944.32
486.07	14951.34
486.25	14787.50
486.43	14970.07
486.61	15328.17
486.78	15213.48
486.96	15529.45
487.14	15545.84
487.32	15840.75
487.50	15920.32
487.68	15953.09
487.85	16299.49
488.03	16563.97
488.21	16395.45
488.39	16542.91
488.57	16428.22
488.75	16833.13
488.92	16711.42
489.10	17099.95
489.28	17156.13
489.46	17418.27
489.64	17170.17
489.81	17708.49
489.99	17603.17
490.17	17855.95
490.35	18097.02
490.53	17980.00
490.70	18003.40
490.88	18026.81
491.06	18115.75
491.24	18363.84
491.41	18356.82
491.59	18658.75
491.77	18436.40
491.95	18829.61
492.13	19201.76
492.30	19274.31
492.48	18956.00
492.66	19424.11
492.84	19192.39
493.01	19646.46
493.19	19616.03
493.37	19854.76
493.54	19779.87
493.72	19955.41
493.90	19655.82
494.08	20154.35
494.25	20535.86
494.43	20460.96
494.61	20788.64
494.79	20561.61
494.96	20519.48
495.14	20636.50
495.32	20971.20
495.49	21057.80
495.67	21200.57
495.85	21216.96
496.02	21766.98
496.20	21776.34
496.38	21460.37
496.55	21624.21
496.73	22111.04
496.91	21727.19
497.09	22162.53
497.26	22335.73
497.44	22295.94
497.62	22567.45
497.79	22698.52
497.97	22347.44
498.14	22803.84
498.32	23023.85
498.50	23126.83
498.67	23246.20
498.85	23480.25
499.03	23140.88
499.20	23328.12
499.38	23435.78
499.56	23611.32
499.73	23950.70
499.91	23599.62
500.08	23931.98
500.26	23681.54
500.44	23566.85
500.61	24102.84
500.79	24009.22
500.97	24320.51
501.14	24528.81
501.32	24346.25
501.49	24531.15
501.67	24552.22
501.84	24898.62
502.02	24917.34
502.20	24957.13
502.37	24903.30
502.55	25074.16
502.72	25078.84
502.90	25041.39
503.07	24819.04
503.25	25535.24
503.43	25638.23
503.60	25518.86
503.78	25509.50
503.95	25556.31
504.13	26017.40
504.30	25699.08
504.48	25776.32
504.65	26001.01
504.83	26040.80
505.01	26174.21
505.18	26136.76
505.36	26316.98
505.53	26223.36
505.71	26534.65
505.88	26677.43
506.06	26745.30
506.23	26408.26
506.41	26312.30
506.58	26527.63
506.76	26611.89
506.93	27084.68
507.11	26682.11
507.28	27227.45
507.46	27201.71
507.63	26906.80
507.81	26902.12
507.98	27262.56
508.16	27342.14
508.33	27534.06
508.50	27960.04
508.68	27775.14
508.85	27946.00
509.03	27768.12
509.20	27777.48
509.38	28346.23
509.55	28514.75
509.73	28224.52
509.90	28304.10
510.08	28414.10
510.25	28379.00
510.42	28783.91
510.60	28683.27
510.77	28957.11
510.95	29008.60
511.12	28776.89
511.30	28931.36
511.47	29237.97
511.64	29252.02
511.82	29549.26
511.99	28980.51
512.17	29266.06
512.34	28973.49
512.51	29392.45
512.69	29979.92
512.86	29509.47
513.04	29942.47
513.21	29759.91
513.38	29549.26
513.56	29706.08
513.73	29701.40
513.90	30331.00
514.08	29717.78
514.25	29944.81
514.43	30368.45
514.60	30384.83
514.77	30143.76
514.95	30134.40
515.12	30408.24
515.29	30845.92
515.47	30639.95
515.64	30904.43
515.81	30698.47
515.99	30874.01
516.16	30756.98
516.33	30742.94
516.51	31243.81
516.68	30527.61
516.85	31091.68
517.03	31215.72
517.20	30941.88
517.37	31461.48
517.54	31185.30
517.72	31641.70
517.89	31208.70
518.06	31365.52
518.24	31583.19
518.41	31194.66
518.58	31630.00
518.75	31660.43
518.93	31901.50
519.10	31732.98
519.27	31999.80
519.45	32070.02
519.62	31950.65
519.79	32439.82
519.96	32212.79
520.14	32830.69
520.31	32116.83
520.48	32519.40
520.65	32383.65
520.83	32959.42
521.00	32496.00
521.17	33017.94
521.34	33106.88
521.52	32807.29
521.69	33095.18
521.86	33350.29
522.03	33464.98
522.20	33088.15
522.38	33287.10
522.55	33221.56
522.72	33184.12
522.89	33329.23
523.07	33628.82
523.24	33610.09
523.41	34171.82
523.58	33818.40
523.75	34000.96
523.92	33897.98
524.10	34096.92
524.27	33933.09
524.44	34012.66
524.61	34174.16
524.78	34185.86
524.96	34253.74
525.13	34604.82
525.30	34347.36
525.47	34679.72
525.64	34611.84
525.81	34558.01
525.98	34995.69
526.16	34382.47
526.33	34527.58
526.50	34567.37
526.67	34696.10
526.84	34459.71
527.01	35047.18
527.18	34742.91
527.36	34864.62
527.53	35110.38
527.70	35395.92
527.87	35386.56
528.04	35056.54
528.21	35428.69
528.38	35229.74
528.55	35648.70
528.72	35487.20
528.89	35466.14
529.07	35665.08
529.24	35562.10
529.41	35454.44
529.58	35583.16
529.75	35688.49
529.92	35934.24
530.09	35903.82
530.26	36095.74
530.43	35744.66
530.60	36077.02
530.77	35765.73
530.94	35747.00
531.11	36154.26
531.28	36297.03
531.46	36566.19
531.63	36446.82
531.80	36329.80
531.97	36275.96
532.14	36467.89
532.31	36430.44
532.48	36449.16
532.65	36889.18
532.82	36561.51
532.99	36783.86
533.16	36746.41
533.33	37008.55
533.50	36961.74
533.67	37125.58
533.84	36697.26
534.01	37048.34
534.18	36774.50
534.35	37560.92
534.52	37305.80
534.69	37027.28
534.86	37565.60
535.03	37137.28
535.20	37596.03
535.37	37467.30
535.54	37638.15
535.71	37202.82
535.88	37462.61
536.05	37343.25
536.22	37977.53
536.38	37656.88
536.55	38139.03
536.72	38132.01
536.89	37546.87
537.06	37748.16
537.23	37780.93
537.40	37722.41
537.57	37783.27
537.74	38026.68
537.91	38515.86
538.08	38176.48
538.25	37706.03
538.42	37755.18
538.59	38080.52
538.75	38323.93
538.92	38396.49
539.09	38529.90
539.26	38462.02
539.43	38635.22
539.60	38494.79
539.77	38335.63
539.94	38754.59
540.11	39037.80
540.28	38532.24
540.44	38618.84
540.61	38504.15
540.78	38408.19
540.95	38312.23
541.12	38199.88
541.29	38752.25
541.46	38787.36
541.62	39178.23
541.79	39019.07
541.96	38452.66
542.13	38820.13
542.30	39091.63
542.47	39498.88
542.63	39393.56
542.80	39084.61
542.97	39913.16
543.14	39580.80
543.31	39746.98
543.48	39391.22
543.64	40144.87
543.81	39854.64
543.98	39328.02
544.15	39711.87
544.32	39917.84
544.48	40027.84
544.65	40086.36
544.82	39990.39
544.99	39519.95
545.16	40065.29
545.32	39945.92
545.49	40091.04
545.66	40376.58
545.83	40423.39
546.00	40247.85
546.16	40339.13
546.33	40074.65
546.50	40137.85
546.67	40353.18
546.83	40067.63
547.00	40456.16
547.17	40507.65
547.34	40292.32
547.50	40701.92
547.67	40971.08
547.84	40769.79
548.00	40624.68
548.17	41155.98
548.34	40814.26
548.51	40807.24
548.67	41240.24
548.84	40938.31
549.01	40673.83
549.18	41001.50
549.34	41319.82
549.51	41099.81
549.68	41155.98
549.84	41109.17
550.01	41371.31
550.18	41083.42
550.34	41139.60
550.51	40992.14
550.68	40952.35
550.84	41261.30
551.01	41586.64
551.18	41289.39
551.34	40973.42
551.51	41125.55
551.68	41364.29
551.84	41682.60
552.01	40879.80
552.18	41675.58
552.34	41378.33
552.51	41553.87
552.68	41698.98
552.84	41610.04
553.01	42038.36
553.18	41956.44
553.34	41450.89
553.51	41703.67
553.67	41724.73
553.84	41900.27
554.01	41993.89
554.17	42087.51
554.34	41937.72
554.51	42227.95
554.67	41949.42
554.84	41553.87
555.00	41921.34
555.17	41930.70
555.33	41729.41
555.50	41736.43
555.67	41940.06
555.83	42450.30
556.00	41853.46
556.16	42511.15
556.33	42302.84
556.50	42141.35
556.66	42050.06
556.83	42485.40
556.99	42593.07
557.16	42197.52
557.32	42506.47
557.49	42183.48
557.65	42021.98
557.82	42124.96
557.98	42181.13
558.15	42501.79
558.32	42581.37
558.48	42520.51
558.65	42768.61
558.81	42506.47
558.98	42539.24
559.14	42492.43
559.31	42663.28
559.47	42822.44
559.64	42796.70
559.80	42763.93
559.97	42646.90
560.13	42307.52
560.30	42274.76
560.46	42686.69
560.63	42948.83
560.79	42878.61
560.96	42717.12
561.12	42635.20
561.29	43243.74
561.45	43494.18
561.61	42387.10
561.78	42869.25
561.94	42616.47
562.11	42658.60
562.27	43150.12
562.44	43229.69
562.60	42689.03
562.77	43115.01
562.93	42752.23
563.10	42752.23
563.26	42513.49
563.42	43199.27
563.59	42911.38
563.75	43377.15
563.92	43611.20
564.08	43112.67
564.24	43519.92
564.41	43328.00
564.57	43395.87
564.74	43407.58
564.90	43503.54
565.07	43391.19
565.23	42796.70
565.39	43271.82
565.56	43309.27
565.72	42899.68
565.88	43033.09
566.05	43100.97
566.21	43653.33
566.38	43363.11
566.54	43379.49
566.70	43524.60
566.87	43793.76
567.03	43426.30
567.19	43885.04
567.36	43210.97
567.52	43529.28
567.68	43594.82
567.85	43405.23
568.01	43732.91
568.17	42953.51
568.34	43578.43
568.50	43391.19
568.66	42923.08
568.83	43655.67
568.99	43107.99
569.15	43604.18
569.32	43718.87
569.48	43386.51
569.64	44325.07
569.81	43737.59
569.97	43372.47
570.13	43398.21
570.30	43409.92
570.46	43543.33
570.62	43423.96
570.78	43505.88
570.95	43236.72
571.11	43845.26
571.27	43342.04
571.43	43838.23
571.60	43508.22
571.76	43306.93
571.92	43599.50
572.09	43770.36
572.25	43187.56
572.41	43901.43
572.57	43819.51
572.74	44182.29
572.90	43814.83
573.06	44322.72
573.22	43995.05
573.38	43739.93
573.55	43173.52
573.71	43749.29
573.87	43557.37
574.03	43468.43
574.20	43641.63
574.36	43950.58
574.52	43985.69
574.68	43833.55
574.84	43990.37
575.01	43557.37
575.17	44142.50
575.33	44086.33
575.49	43852.28
575.65	44030.16
575.82	43952.92
575.98	43988.03
576.14	43934.20
576.30	43885.04
576.46	43915.47
576.62	43229.69
576.79	43758.66
576.95	43096.28
577.11	43812.49
577.27	43695.46
577.43	43969.30
577.59	43973.98
577.75	44114.42
577.92	43536.30
578.08	43775.04
578.24	43580.78
578.40	43632.27
578.56	43821.85
578.72	43985.69
578.88	44320.38
579.04	44114.42
579.21	43604.18
579.37	43690.78
579.53	43812.49
579.69	43267.14
579.85	43508.22
580.01	44027.82
580.17	44399.96
580.33	44151.87
580.49	44013.77
580.65	44442.09
580.82	44044.20
580.98	43892.07
581.14	43693.12
581.30	44156.55
581.46	43833.55
581.62	44062.93
581.78	43838.23
581.94	43959.94
582.10	43931.86
582.26	44210.38
582.42	44182.29
582.58	44105.06
582.74	44030.16
582.90	44039.52
583.06	44203.36
583.22	44086.33
583.38	44076.97
583.54	43817.17
583.70	44149.53
583.86	43814.83
584.02	44048.88
584.18	43892.07
584.34	43578.43
584.50	43906.11
584.66	44004.41
584.82	43620.56
584.98	44154.21
585.14	44074.63
585.30	43608.86
585.46	44062.93
585.62	43751.63
585.78	44453.79
585.94	43777.38
586.10	43920.15
586.26	43831.21
586.42	44048.88
586.58	44135.48
586.74	44275.91
586.90	43791.42
587.06	44196.34
587.22	43992.71
587.38	43786.74
587.54	44149.53
587.70	44257.19
587.86	43871.00
588.02	44411.67
588.18	43985.69
588.34	43721.21
588.49	44224.42
588.65	44069.95
588.81	43885.04
588.97	43880.36
589.13	43648.65
589.29	43948.24
589.45	44105.06
589.61	44130.80
589.77	44538.05
589.93	44032.50
590.08	44495.92
590.24	44231.44
590.40	44414.01
