SpectraSuite Data File
++++++++++++++++++++++++++++++++++++
Date: Fri Oct 25 10:44:54 EDT 2013
User: price-jones
Dark Spectrum Present: No
Reference Spectrum Present: No
Number of Sampled Component Spectra: 1
Spectrometers: USB2+H05261
Integration Time (usec): 100000 (USB2+H05261)
Spectra Averaged: 1 (USB2+H05261)
Boxcar Smoothing: 0 (USB2+H05261)
Correct for Electrical Dark: No (USB2+H05261)
Strobe/Lamp Enabled: No (USB2+H05261)
Correct for Detector Non-linearity: No (USB2+H05261)
Correct for Stray Light: No (USB2+H05261)
Number of Pixels in Processed Spectrum: 2048
>>>>>Begin Processed Spectral Data<<<<<
365.73	154.48
365.92	154.48
366.12	154.48
366.32	70.22
366.52	58.51
366.72	46.81
366.91	0.00
367.11	0.00
367.31	37.45
367.51	16.38
367.70	0.00
367.90	44.47
368.10	39.79
368.30	44.47
368.49	23.41
368.69	53.83
368.89	0.00
369.09	23.41
369.28	32.77
369.48	42.13
369.68	32.77
369.87	86.60
370.07	18.72
370.27	93.62
370.47	210.65
370.66	351.08
370.86	348.74
371.06	440.02
371.25	486.83
371.45	435.34
371.65	421.30
371.84	418.96
372.04	468.11
372.24	451.72
372.44	505.56
372.63	465.77
372.83	538.32
373.03	493.85
373.22	521.94
373.42	545.34
373.62	477.47
373.81	503.22
374.01	526.62
374.21	554.71
374.40	613.22
374.60	528.96
374.79	498.53
374.99	503.22
375.19	540.66
375.38	543.00
375.58	610.88
375.78	521.94
375.97	617.90
376.17	601.52
376.37	601.52
376.56	589.82
376.76	557.05
376.95	573.43
377.15	489.17
377.35	585.13
377.54	601.52
377.74	683.44
377.93	601.52
378.13	622.58
378.33	678.76
378.52	578.11
378.72	627.26
378.91	631.94
379.11	653.01
379.31	613.22
379.50	561.73
379.70	674.07
379.89	624.92
380.09	622.58
380.28	697.48
380.48	709.18
380.68	671.73
380.87	603.86
381.07	645.99
381.26	662.37
381.46	678.76
381.65	564.07
381.85	606.20
382.04	641.31
382.24	671.73
382.43	650.67
382.63	716.20
382.83	655.35
383.02	753.65
383.22	664.71
383.41	617.90
383.61	676.41
383.80	720.88
384.00	755.99
384.19	791.10
384.39	713.86
384.58	653.01
384.78	763.01
384.97	765.36
385.17	690.46
385.36	781.74
385.56	718.54
385.75	730.25
385.95	755.99
386.14	788.76
386.34	744.29
386.53	767.70
386.72	840.25
386.92	854.30
387.11	868.34
387.31	770.04
387.50	873.02
387.70	800.46
387.89	748.97
388.09	744.29
388.28	746.63
388.48	821.53
388.67	875.36
388.86	866.00
389.06	774.72
389.25	884.72
389.45	929.19
389.64	908.13
389.84	908.13
390.03	905.79
390.22	947.92
390.42	882.38
390.61	870.68
390.81	994.73
391.00	983.02
391.19	968.98
391.39	1020.47
391.58	887.06
391.78	966.64
391.97	961.96
392.16	929.19
392.36	968.98
392.55	1015.79
392.75	952.60
392.94	952.60
393.13	994.73
393.33	858.98
393.52	922.17
393.71	952.60
393.91	952.60
394.10	992.39
394.29	1018.13
394.49	1048.56
394.68	1102.39
394.88	1034.52
395.07	1170.27
395.26	1111.75
395.46	1128.14
395.65	1123.46
395.84	1151.54
396.04	1228.78
396.23	1146.86
396.42	1090.69
396.62	1130.48
396.81	1086.01
397.00	1165.59
397.19	1142.18
397.39	1186.65
397.58	1254.53
397.77	1214.74
397.97	1289.64
398.16	1233.46
398.35	1303.68
398.55	1259.21
398.74	1247.51
398.93	1310.70
399.12	1289.64
399.32	1277.93
399.51	1322.40
399.70	1341.13
399.90	1352.83
400.09	1343.47
400.28	1390.28
400.47	1411.34
400.67	1444.11
400.86	1451.13
401.05	1469.86
401.24	1551.78
401.44	1596.25
401.63	1401.98
401.82	1455.81
402.01	1516.67
402.21	1511.99
402.40	1584.54
402.59	1537.73
402.78	1521.35
402.97	1474.54
403.17	1600.93
403.36	1561.14
403.55	1565.82
403.74	1577.52
403.93	1624.33
404.13	1636.03
404.32	1610.29
404.51	1636.03
404.70	1633.69
404.89	1776.47
405.09	1713.27
405.28	1764.76
405.47	1748.38
405.66	1783.49
405.85	1809.23
406.05	1797.53
406.24	1746.04
406.43	1785.83
406.62	1813.92
406.81	1902.86
407.00	1799.87
407.20	1813.92
407.39	1729.66
407.58	1870.09
407.77	1823.28
407.96	1956.69
408.15	1954.35
408.34	1952.01
408.54	1952.01
408.73	2003.50
408.92	2010.52
409.11	2069.03
409.30	2139.25
409.49	2064.35
409.68	1973.07
409.87	1989.46
410.07	2040.95
410.26	2162.66
410.45	2101.80
410.64	2108.82
410.83	2218.83
411.02	2300.75
411.21	2427.14
411.40	2279.68
411.59	2211.81
411.78	2291.38
411.98	2340.54
412.17	2275.00
412.36	2328.83
412.55	2441.18
412.74	2429.48
412.93	2408.41
413.12	2385.01
413.31	2523.10
413.50	2457.56
413.69	2495.01
413.88	2562.89
414.07	2509.05
414.26	2572.25
414.45	2668.21
414.64	2593.31
414.83	2712.68
415.02	2710.34
415.22	2899.92
415.41	2710.34
415.60	2785.24
415.79	2803.96
415.98	2806.30
416.17	2740.77
416.36	2974.82
416.55	2911.63
416.74	2960.78
416.93	2869.50
417.12	2925.67
417.31	3075.46
417.50	3056.74
417.69	2991.20
417.88	3068.44
418.07	2928.01
418.26	3126.96
418.45	3098.87
418.64	3108.23
418.83	3162.06
419.02	3190.15
419.21	3101.21
419.39	3229.94
419.58	3197.17
419.77	3180.79
419.96	3281.43
420.15	3304.84
420.34	3382.07
420.53	3267.39
420.72	3353.99
420.91	3424.20
421.10	3272.07
421.29	3386.76
421.48	3335.26
421.67	3316.54
421.86	3461.65
422.05	3435.91
422.24	3515.48
422.43	3438.25
422.61	3501.44
422.80	3445.27
422.99	3468.67
423.18	3503.78
423.37	3461.65
423.56	3620.81
423.75	3583.36
423.94	3396.12
424.13	3262.71
424.32	3410.16
424.50	3529.53
424.69	3576.34
424.88	3763.58
425.07	3602.08
425.26	3447.61
425.45	3559.95
425.64	3543.57
425.83	3552.93
426.01	3627.83
426.20	3627.83
426.39	3604.42
426.58	3623.15
426.77	3398.46
426.96	3461.65
427.15	3543.57
427.33	3632.51
427.52	3599.74
427.71	3763.58
427.90	3702.73
428.09	3789.33
428.28	3688.68
428.46	3691.02
428.65	3859.54
428.84	3908.69
429.03	3868.91
429.22	3714.43
429.40	3845.50
429.59	3871.25
429.78	3660.60
429.97	3758.90
430.16	3648.90
430.34	3906.35
430.53	3758.90
430.72	3756.56
430.91	3796.35
431.10	3969.55
431.28	3983.59
431.47	4212.96
431.66	4079.55
431.85	4109.98
432.03	4166.15
432.22	4245.73
432.41	4023.38
432.60	4208.28
432.79	4088.92
432.97	4348.72
433.16	4222.33
433.35	4198.92
433.54	4109.98
433.72	4273.82
433.91	4287.86
434.10	4348.72
434.28	4451.70
434.47	4447.02
434.66	4589.79
434.85	4500.85
435.03	4472.76
435.22	4440.00
435.41	4671.71
435.59	4449.36
435.78	4533.62
435.97	4601.49
436.16	4510.21
436.34	4545.32
436.53	4514.89
436.72	4676.39
436.90	4601.49
437.09	4767.67
437.28	4578.09
437.46	4681.07
437.65	4709.16
437.84	4772.35
438.02	4615.54
438.21	4674.05
438.40	4669.37
438.58	4716.18
438.77	4868.31
438.96	4856.61
439.14	5027.47
439.33	5097.69
439.52	4992.36
439.70	5060.24
439.89	5151.52
440.08	5137.48
440.26	5151.52
440.45	5207.69
440.63	5380.89
440.82	5387.91
441.01	5362.17
441.19	5416.00
441.38	5488.56
441.57	5535.37
441.75	5528.35
441.94	5633.67
442.12	5584.52
442.31	5696.86
442.50	5713.25
442.68	5586.86
442.87	5654.73
443.05	5659.42
443.24	6019.86
443.43	5799.85
443.61	5764.74
443.80	5912.19
443.98	5680.48
444.17	5753.04
444.35	5743.67
444.54	6001.13
444.73	5783.46
444.91	5846.66
445.10	5881.77
445.28	5893.47
445.47	5771.76
445.65	5722.61
445.84	5907.51
446.02	5846.66
446.21	6029.22
446.39	5893.47
446.58	5858.36
446.77	6136.88
446.95	5804.53
447.14	5961.34
447.32	5874.74
447.51	6003.47
447.69	5909.85
447.88	6090.07
448.06	5975.39
448.25	6218.80
448.43	6047.94
448.62	5930.92
448.80	6061.99
448.99	6120.50
449.17	6160.29
449.36	6113.48
449.54	6143.91
449.73	6260.93
449.91	6141.57
450.10	6392.00
450.28	6518.39
450.46	6441.15
450.65	6504.35
450.83	6345.19
451.02	6286.68
451.20	6420.09
451.39	6513.71
451.57	6438.81
451.76	6485.62
451.94	6352.21
452.13	6530.09
452.31	6399.02
452.49	6518.39
452.68	6590.95
452.86	6509.03
453.05	6626.06
453.23	6705.63
453.42	6574.56
453.60	6553.50
453.78	6768.83
453.97	6466.90
454.15	6658.82
454.34	6642.44
454.52	6780.53
454.70	6764.15
454.89	6799.26
455.07	6747.76
455.26	6951.39
455.44	6864.79
455.62	7159.70
455.81	6970.12
455.99	7009.90
456.17	7115.23
456.36	7049.69
456.54	7150.34
456.73	7152.68
456.91	7133.95
457.09	7131.61
457.28	7449.93
457.46	7393.75
457.64	7297.79
457.83	7363.33
458.01	7295.45
458.19	7463.97
458.38	7468.65
458.56	7258.00
458.74	7368.01
458.93	7515.46
459.11	7515.46
459.29	7412.48
459.48	7543.55
459.66	7456.95
459.84	7573.97
460.03	7824.41
460.21	7637.17
460.39	7812.71
460.57	7716.75
460.76	7728.45
460.94	7845.48
461.12	7845.48
461.31	7723.77
461.49	7681.64
461.67	7712.07
461.85	7868.88
462.04	8025.70
462.22	7957.82
462.40	8191.88
462.59	7978.89
462.77	8018.68
462.95	7939.10
463.13	8070.17
463.32	7922.71
463.50	7992.93
463.68	8056.12
463.86	8234.00
464.05	8126.34
464.23	7939.10
464.41	8304.22
464.59	8212.94
464.78	8383.80
464.96	8355.71
465.14	8196.56
465.32	8379.12
465.50	8468.06
465.69	8374.44
465.87	8283.16
466.05	8116.98
466.23	8650.62
466.41	8285.50
466.60	8589.77
466.78	8315.92
466.96	8276.13
467.14	8470.40
467.32	8432.95
467.51	8636.58
467.69	8430.61
467.87	8512.53
468.05	8571.04
468.23	8519.55
468.41	8416.57
468.60	8334.65
468.78	8746.58
468.96	8627.21
469.14	8727.86
469.32	8734.88
469.50	8624.87
469.69	8837.86
469.87	8905.74
470.05	8849.57
470.23	8837.86
470.41	8805.10
470.59	9193.62
470.77	9083.62
470.95	8926.80
471.14	9184.26
471.32	9018.08
471.50	9430.02
471.68	9312.99
471.86	9357.46
472.04	9465.13
472.22	9533.00
472.40	9221.71
472.58	9217.03
472.77	9399.59
472.95	9610.24
473.13	10061.96
473.31	9617.26
473.49	9645.35
473.67	9561.09
473.85	9736.63
474.03	9891.10
474.21	9804.50
474.39	10047.92
474.57	9909.83
474.75	9937.91
474.93	10076.01
475.12	10134.52
475.30	10216.44
475.48	10293.68
475.66	10120.48
475.84	10190.69
476.02	10483.26
476.20	10361.55
476.38	10562.84
476.56	10932.64
476.74	10740.72
476.92	10740.72
477.10	10663.48
477.28	11054.35
477.46	10920.94
477.64	11094.14
477.82	11204.14
478.00	11159.67
478.18	11489.69
478.36	11520.12
478.54	11389.05
478.72	11599.70
478.90	11808.00
479.08	11955.46
479.26	12287.81
479.44	12212.92
479.62	11962.48
479.80	12035.03
479.98	12147.38
480.16	12561.66
480.34	12287.81
480.52	12688.04
480.70	12510.16
480.88	12556.97
481.06	12751.24
481.24	12774.64
481.41	12901.03
481.59	13001.68
481.77	13095.30
481.95	13004.02
482.13	13631.28
482.31	13322.33
482.49	13336.37
482.67	13378.50
482.85	13547.02
483.03	13724.90
483.21	14270.25
483.39	13947.25
483.57	14160.24
483.74	14136.84
483.92	14394.29
484.10	14143.86
484.28	14597.92
484.46	14719.63
484.64	14768.78
484.82	14614.30
485.00	14867.08
485.18	15073.05
485.35	15260.29
485.53	15023.90
485.71	15124.54
485.89	15323.49
486.07	15297.74
486.25	15087.09
486.43	15653.50
486.61	15576.27
486.78	16070.12
486.96	16238.64
487.14	16397.79
487.32	16582.70
487.50	16402.47
487.68	16547.59
487.85	16903.35
488.03	17057.82
488.21	16901.01
488.39	17034.42
488.57	17181.87
488.75	17235.70
488.92	17558.70
489.10	17874.67
489.28	17708.49
489.46	17998.72
489.64	18101.70
489.81	18455.12
489.99	18424.70
490.17	18459.81
490.35	18703.22
490.53	18724.29
490.70	18733.65
490.88	18361.50
491.06	19037.92
491.24	18820.25
491.41	19154.94
491.59	19236.86
491.77	19157.28
491.95	19597.31
492.13	19665.18
492.30	20011.58
492.48	20016.26
492.66	19894.55
492.84	19899.23
493.01	20170.74
493.19	20339.26
493.37	20594.37
493.54	20870.56
493.72	20786.30
493.90	20748.85
494.08	21268.45
494.25	20947.79
494.43	21254.40
494.61	21603.14
494.79	21619.53
494.96	21546.97
495.14	21451.01
495.32	21937.84
495.49	22197.64
495.67	21975.29
495.85	22143.81
496.02	22148.49
496.20	22202.32
496.38	22155.51
496.55	22281.90
496.73	23023.85
496.91	22953.63
497.09	22897.46
497.26	23204.07
497.44	23117.47
497.62	23290.67
497.79	23503.66
497.97	23412.38
498.14	23557.49
498.32	23772.82
498.50	23632.39
498.67	23985.81
498.85	23899.21
499.03	24161.35
499.20	24159.01
499.38	24479.66
499.56	24390.72
499.73	24482.00
499.91	24353.27
500.08	24650.52
500.26	24594.35
500.44	24673.93
500.61	24009.22
500.79	24645.84
500.97	24971.18
501.14	25261.40
501.32	24870.53
501.49	24886.92
501.67	25160.76
501.84	25324.60
502.02	25521.20
502.20	25619.50
502.37	25734.19
502.55	25883.98
502.72	25881.64
502.90	25891.01
503.07	25949.52
503.25	26504.23
503.43	26106.34
503.60	26012.71
503.78	26284.22
503.95	26326.35
504.13	26398.90
504.30	26778.07
504.48	26654.02
504.65	26757.00
504.83	27040.21
505.01	26731.26
505.18	27143.19
505.36	27241.50
505.53	27339.80
505.71	27428.74
505.88	27398.31
506.06	27494.27
506.23	27363.20
506.41	27311.71
506.58	27538.74
506.76	27562.15
506.93	27765.78
507.11	27747.05
507.28	28058.34
507.46	27702.58
507.63	27978.76
507.81	28397.72
507.98	27866.42
508.16	28161.33
508.33	28439.85
508.50	28545.17
508.68	28512.41
508.85	28889.23
509.03	28734.76
509.20	29109.24
509.38	29046.05
509.55	29015.62
509.73	29289.46
509.90	29280.10
510.08	29015.62
510.25	29460.32
510.42	29474.37
510.60	29240.31
510.77	29788.00
510.95	29748.21
511.12	29769.27
511.30	30206.95
511.47	29914.39
511.64	29780.98
511.82	30497.18
511.99	30192.91
512.17	30342.70
512.34	30174.19
512.51	30216.32
512.69	30242.06
512.86	30218.66
513.04	30574.42
513.21	30698.47
513.38	30551.01
513.56	31161.89
513.73	30504.20
513.90	30714.85
514.08	30897.41
514.25	30960.61
514.43	31094.02
514.60	31227.43
514.77	31323.39
514.95	30913.80
515.12	31002.74
515.29	31803.20
515.47	31835.97
515.64	31559.78
515.81	31349.14
515.99	31353.82
516.16	31721.28
516.33	31573.83
516.51	31676.81
516.68	31555.10
516.85	31323.39
517.03	31735.32
517.20	32100.45
517.37	32065.34
517.54	32032.57
517.72	32168.32
517.89	31763.41
518.06	32084.06
518.24	32098.11
518.41	32201.09
518.58	32486.64
518.75	32407.06
518.93	32680.90
519.10	32683.24
519.27	32748.78
519.45	32783.88
519.62	32629.41
519.79	33214.54
519.96	33130.28
520.14	33247.31
520.31	33146.67
520.48	33563.28
520.65	33488.38
520.83	34143.74
521.00	33858.19
521.17	33399.44
521.34	33542.22
521.52	33668.61
521.69	33897.98
521.86	34134.37
522.03	34113.31
522.20	33787.97
522.38	34213.95
522.55	34548.65
522.72	34213.95
522.89	34396.51
523.07	34490.13
523.24	34284.17
523.41	34782.70
523.58	34483.11
523.75	35337.41
523.92	34595.46
524.10	35086.97
524.27	34841.21
524.44	35218.04
524.61	34829.51
524.78	35086.97
524.96	35592.53
525.13	35297.62
525.30	35171.23
525.47	35435.71
525.64	35447.41
525.81	35498.91
525.98	35548.06
526.16	35391.24
526.33	35229.74
526.50	35508.27
526.67	35395.92
526.84	35152.51
527.01	35761.05
527.18	35821.90
527.36	35934.24
527.53	36243.20
527.70	36603.64
527.87	36175.32
528.04	36238.51
528.21	36030.21
528.38	35910.84
528.55	36236.17
528.72	36346.18
528.89	36371.92
529.07	36467.89
529.24	36147.23
529.41	36573.21
529.58	36718.32
529.75	36559.17
529.92	37125.58
530.09	36624.70
530.26	36479.59
530.43	37111.53
530.60	36914.93
530.77	36751.09
530.94	37282.39
531.11	36807.26
531.28	37078.77
531.46	37228.56
531.63	37092.81
531.80	37085.79
531.97	37083.45
532.14	37420.48
532.31	37083.45
532.48	36818.97
532.65	37467.30
532.82	37511.77
532.99	37640.50
533.16	37376.01
533.33	37750.50
533.50	37991.58
533.67	37834.76
533.84	37668.58
534.01	37846.46
534.18	38064.13
534.35	38249.03
534.52	38085.20
534.69	38286.48
534.86	37900.29
535.03	37972.85
535.20	38443.30
535.37	38607.14
535.54	38719.48
535.71	38326.27
535.88	38637.56
536.05	38157.75
536.22	38518.20
536.38	38794.38
536.55	38534.58
536.72	38433.94
536.89	38508.83
537.06	38155.41
537.23	38572.03
537.40	38588.41
537.57	38595.43
537.74	38738.21
537.91	39484.84
538.08	39541.01
538.25	38864.60
538.42	38667.99
538.59	39082.27
538.75	38600.12
538.92	39133.76
539.09	39100.99
539.26	39154.82
539.43	39164.18
539.60	39248.44
539.77	38696.08
539.94	38946.51
540.11	39651.02
540.28	39529.31
540.44	39651.02
540.61	39627.61
540.78	39295.25
540.95	39143.12
541.12	39129.08
541.29	39562.08
541.46	39594.84
541.62	39714.21
541.79	39683.78
541.96	39466.11
542.13	39639.31
542.30	39945.92
542.47	39934.22
542.63	40025.50
542.80	40194.02
542.97	40669.15
543.14	40531.06
543.31	40219.77
543.48	40502.97
543.64	40903.20
543.81	40631.70
543.98	40584.89
544.15	40556.80
544.32	40561.48
544.48	40907.88
544.65	40231.47
544.82	40823.62
544.99	40886.82
545.16	41127.89
545.32	40561.48
545.49	41361.95
545.66	41045.97
545.83	40914.90
546.00	41198.11
546.16	40879.80
546.33	40940.65
546.50	40861.07
546.67	40992.14
546.83	40816.60
547.00	41315.14
547.17	41198.11
547.34	41347.90
547.50	41090.44
547.67	41486.00
547.84	41394.71
548.00	41893.25
548.17	41535.15
548.34	41832.39
548.51	41872.18
548.67	41427.48
548.84	41949.42
549.01	41167.68
549.18	41844.10
549.34	41476.63
549.51	42014.96
549.68	42000.91
549.84	41755.16
550.01	42071.13
550.18	41394.71
550.34	42249.01
550.51	41991.55
550.68	41825.37
550.84	41965.81
551.01	42232.63
551.18	41921.34
551.34	41443.87
551.51	41984.53
551.68	42176.45
551.84	42291.14
552.01	42134.32
552.18	42270.08
552.34	42483.06
552.51	42239.65
552.68	42223.26
552.84	42471.36
553.01	42609.45
553.18	41933.04
553.34	42485.40
553.51	42131.98
553.67	42625.84
553.84	42794.36
554.01	42274.76
554.17	42450.30
554.34	42958.19
554.51	42859.89
554.67	42515.83
554.84	42796.70
555.00	42450.30
555.17	42595.41
555.33	43154.80
555.50	42667.97
555.67	42738.18
555.83	42536.90
556.00	42462.00
556.16	42983.94
556.33	43098.62
556.50	42735.84
556.66	43091.60
556.83	42761.59
556.99	43402.89
557.16	42953.51
557.32	43133.73
557.49	43068.20
557.65	43119.69
557.82	42986.28
557.98	43136.07
558.15	43540.99
558.32	43070.54
558.48	43274.16
558.65	43292.89
558.81	42794.36
558.98	43423.96
559.14	43330.34
559.31	42773.29
559.47	43421.62
559.64	43498.86
559.80	43599.50
559.97	43248.42
560.13	43129.05
560.30	43323.32
560.46	43585.46
560.63	43136.07
560.79	43849.94
560.96	43814.83
561.12	43318.64
561.29	43061.18
561.45	43330.34
561.61	43477.79
561.78	43578.43
561.94	43196.93
562.11	43330.34
562.27	43641.63
562.44	43854.62
562.60	43753.97
562.77	43917.81
562.93	43971.64
563.10	43711.84
563.26	42979.26
563.42	44046.54
563.59	43723.55
563.75	43629.93
563.92	44170.59
564.08	43749.29
564.24	44250.17
564.41	44149.53
564.57	44025.48
564.74	43695.46
564.90	43650.99
565.07	43873.34
565.23	43882.70
565.39	44219.74
565.56	43770.36
565.72	43730.57
565.88	44079.31
566.05	43973.98
566.21	43945.90
566.38	43526.94
566.54	44135.48
566.70	44371.88
566.87	44395.28
567.03	44039.52
567.19	44411.67
567.36	43821.85
567.52	44016.11
567.68	43859.30
567.85	43957.60
568.01	44055.90
568.17	44196.34
568.34	44641.04
568.50	43973.98
568.66	43985.69
568.83	43901.43
568.99	43716.53
569.15	43866.32
569.32	43768.02
569.48	43599.50
569.64	44458.48
569.81	44240.81
569.97	44119.10
570.13	44100.37
570.30	44289.96
570.46	44135.48
570.62	44055.90
570.78	43910.79
570.95	43920.15
571.11	44374.22
571.27	44325.07
571.43	44086.33
571.60	43957.60
571.76	44048.88
571.92	43707.16
572.09	43812.49
572.25	43594.82
572.41	44353.15
572.57	44348.47
572.74	44870.41
572.90	44292.30
573.06	44198.68
573.22	44161.23
573.38	44362.51
573.55	44591.89
573.71	44786.15
573.87	44615.29
574.03	44069.95
574.20	44577.84
574.36	44418.69
574.52	44704.23
574.68	44397.62
574.84	44119.10
575.01	44102.71
575.17	44236.12
575.33	44282.94
575.49	44481.88
575.65	44844.66
575.82	44519.33
575.98	44238.47
576.14	44301.66
576.30	44591.89
576.46	44201.02
576.62	44292.30
576.79	44282.94
576.95	44156.55
577.11	43866.32
577.27	44563.80
577.43	44582.52
577.59	44996.80
577.75	44282.94
577.92	44184.63
578.08	44002.07
578.24	44289.96
578.40	44142.50
578.56	43978.67
578.72	44928.92
578.88	44563.80
579.04	44442.09
579.21	44437.41
579.37	44435.07
579.53	44636.36
579.69	44264.21
579.85	43847.60
580.01	44444.43
580.17	43955.26
580.33	44367.20
580.49	44690.19
580.65	44484.22
580.82	44481.88
580.98	44474.86
581.14	44521.67
581.30	44912.54
581.46	43995.05
581.62	44626.99
581.78	44322.72
581.94	45062.33
582.10	44479.54
582.26	44402.30
582.42	44619.97
582.58	44388.26
582.74	44374.22
582.90	44278.25
583.06	44940.63
583.22	44921.90
583.38	44758.06
583.54	44554.44
583.70	44573.16
583.86	44655.08
584.02	44299.32
584.18	44854.03
584.34	44467.84
584.50	44568.48
584.66	44259.53
584.82	43957.60
584.98	44980.42
585.14	44933.60
585.30	44369.54
585.46	44493.58
585.62	44650.40
585.78	44507.63
585.94	44364.85
586.10	44371.88
586.26	44753.38
586.42	44711.25
586.58	44975.73
586.74	44509.97
586.90	44713.59
587.06	44318.04
587.22	44432.73
587.38	44498.26
587.54	44713.59
587.70	44844.66
587.86	44526.35
588.02	44832.96
588.18	44966.37
588.34	44507.63
588.49	44201.02
588.65	44107.40
588.81	44121.44
588.97	44556.78
589.13	44273.57
589.29	44278.25
589.45	44622.31
589.61	44685.51
589.77	44540.39
589.93	44641.04
590.08	44774.45
590.24	44830.62
590.40	44783.81
