SpectraSuite Data File
++++++++++++++++++++++++++++++++++++
Date: Fri Oct 25 11:34:36 EDT 2013
User: price-jones
Dark Spectrum Present: No
Reference Spectrum Present: No
Number of Sampled Component Spectra: 1
Spectrometers: USB2+H05261
Integration Time (usec): 100000 (USB2+H05261)
Spectra Averaged: 1 (USB2+H05261)
Boxcar Smoothing: 0 (USB2+H05261)
Correct for Electrical Dark: No (USB2+H05261)
Strobe/Lamp Enabled: No (USB2+H05261)
Correct for Detector Non-linearity: No (USB2+H05261)
Correct for Stray Light: No (USB2+H05261)
Number of Pixels in Processed Spectrum: 2048
>>>>>Begin Processed Spectral Data<<<<<
365.73	266.82
365.92	266.82
366.12	266.82
366.32	208.31
366.52	191.92
366.72	187.24
366.91	124.05
367.11	135.75
367.31	212.99
367.51	173.20
367.70	131.07
367.90	194.26
368.10	215.33
368.30	168.52
368.49	117.03
368.69	187.24
368.89	154.48
369.09	229.37
369.28	163.84
369.48	159.16
369.68	208.31
369.87	154.48
370.07	243.42
370.27	259.80
370.47	348.74
370.66	491.51
370.86	475.13
371.06	496.19
371.25	613.22
371.45	463.43
371.65	571.09
371.84	573.43
372.04	580.45
372.24	564.07
372.44	662.37
372.63	566.41
372.83	629.60
373.03	622.58
373.22	650.67
373.42	671.73
373.62	664.71
373.81	631.94
374.01	624.92
374.21	589.82
374.40	575.77
374.60	706.84
374.79	564.07
374.99	669.39
375.19	676.41
375.38	657.69
375.58	653.01
375.78	671.73
375.97	613.22
376.17	744.29
376.37	655.35
376.56	615.56
376.76	645.99
376.95	667.05
377.15	613.22
377.35	692.80
377.54	561.73
377.74	685.78
377.93	657.69
378.13	582.79
378.33	692.80
378.52	685.78
378.72	739.61
378.91	667.05
379.11	723.23
379.31	653.01
379.50	685.78
379.70	706.84
379.89	720.88
380.09	753.65
380.28	751.31
380.48	678.76
380.68	734.93
380.87	786.42
381.07	739.61
381.26	802.80
381.46	681.10
381.65	744.29
381.85	690.46
382.04	772.38
382.24	671.73
382.43	791.10
382.63	798.12
382.83	711.52
383.02	863.66
383.22	819.19
383.41	819.19
383.61	720.88
383.80	774.72
384.00	755.99
384.19	807.48
384.39	748.97
384.58	732.59
384.78	777.06
384.97	763.01
385.17	755.99
385.36	784.08
385.56	851.96
385.75	809.83
385.95	814.51
386.14	851.96
386.34	954.94
386.53	793.44
386.72	830.89
386.92	833.23
387.11	889.40
387.31	915.15
387.50	809.83
387.70	894.08
387.89	814.51
388.09	819.19
388.28	908.13
388.48	959.62
388.67	809.83
388.86	917.49
389.06	950.26
389.25	863.66
389.45	933.87
389.64	901.11
389.84	952.60
390.03	959.62
390.22	987.71
390.42	954.94
390.61	957.28
390.81	954.94
391.00	1039.20
391.19	959.62
391.39	924.51
391.58	961.96
391.78	926.85
391.97	947.92
392.16	903.45
392.36	1032.18
392.55	1029.84
392.75	1060.26
392.94	1029.84
393.13	1043.88
393.33	1039.20
393.52	1025.15
393.71	1071.97
393.91	1048.56
394.10	1025.15
394.29	1078.99
394.49	1027.50
394.68	1088.35
394.88	1013.45
395.07	1086.01
395.26	1081.33
395.46	1142.18
395.65	1083.67
395.84	1193.67
396.04	1207.72
396.23	1170.27
396.42	1107.07
396.62	1146.86
396.81	1249.85
397.00	1137.50
397.19	1233.46
397.39	1160.91
397.58	1144.52
397.77	1111.75
397.97	1231.12
398.16	1226.44
398.35	1275.59
398.55	1306.02
398.74	1308.36
398.93	1327.08
399.12	1233.46
399.32	1226.44
399.51	1315.38
399.70	1219.42
399.90	1406.66
400.09	1301.34
400.28	1317.72
400.47	1376.24
400.67	1306.02
400.86	1350.49
401.05	1336.45
401.24	1401.98
401.44	1373.89
401.63	1399.64
401.82	1327.08
402.01	1418.36
402.21	1418.36
402.40	1427.73
402.59	1460.49
402.78	1315.38
402.97	1469.86
403.17	1488.58
403.36	1497.94
403.55	1444.11
403.74	1465.18
403.93	1533.05
404.13	1556.46
404.32	1476.88
404.51	1488.58
404.70	1561.14
404.89	1596.25
405.09	1666.46
405.28	1593.90
405.47	1650.08
405.66	1614.97
405.85	1645.40
406.05	1568.16
406.24	1680.50
406.43	1760.08
406.62	1633.69
406.81	1755.40
407.00	1708.59
407.20	1596.25
407.39	1699.23
407.58	1771.79
407.77	1736.68
407.96	1757.74
408.15	1762.42
408.34	1760.08
408.54	1762.42
408.73	1804.55
408.92	1858.39
409.11	1820.94
409.30	1893.49
409.49	1853.70
409.68	1842.00
409.87	1874.77
410.07	1825.62
410.26	1893.49
410.45	2026.90
410.64	1996.48
410.83	2071.37
411.02	1994.14
411.21	2005.84
411.40	2078.40
411.59	2073.71
411.78	2183.72
411.98	2190.74
412.17	2162.66
412.36	2141.59
412.55	2176.70
412.74	2244.57
412.93	2209.47
413.12	2221.17
413.31	2216.49
413.50	2218.83
413.69	2282.02
413.88	2389.69
414.07	2284.36
414.26	2279.68
414.45	2420.11
414.64	2375.64
414.83	2279.68
415.02	2436.50
415.22	2401.39
415.41	2597.99
415.60	2523.10
415.79	2586.29
415.98	2649.49
416.17	2541.82
416.36	2487.99
416.55	2537.14
416.74	2647.15
416.93	2672.89
417.12	2588.63
417.31	2682.25
417.50	2757.15
417.69	2867.16
417.88	2668.21
418.07	2843.75
418.26	2691.62
418.45	2867.16
418.64	3019.29
418.83	2878.86
419.02	2871.84
419.21	2993.55
419.39	2970.14
419.58	3023.97
419.77	2881.20
419.96	2986.52
420.15	2951.42
420.34	3016.95
420.53	3059.08
420.72	3126.96
420.91	3049.72
421.10	3112.91
421.29	3070.78
421.48	3143.34
421.67	3159.72
421.86	3112.91
422.05	3169.09
422.24	3108.23
422.43	3115.25
422.61	3208.87
422.80	3232.28
422.99	3302.50
423.18	3234.62
423.37	3253.34
423.56	3138.66
423.75	3164.40
423.94	3246.32
424.13	3023.97
424.32	3115.25
424.50	3262.71
424.69	3265.05
424.88	3286.11
425.07	3208.87
425.26	3372.71
425.45	3192.49
425.64	3229.94
425.83	3274.41
426.01	3382.07
426.20	3330.58
426.39	3330.58
426.58	3337.60
426.77	3281.43
426.96	3421.86
427.15	3339.94
427.33	3365.69
427.52	3466.33
427.71	3431.23
427.90	3358.67
428.09	3433.57
428.28	3559.95
428.46	3332.92
428.65	3440.59
428.84	3595.06
429.03	3562.30
429.22	3513.14
429.40	3480.38
429.59	3520.17
429.78	3487.40
429.97	3452.29
430.16	3644.21
430.34	3494.42
430.53	3712.09
430.72	3714.43
430.91	3768.26
431.10	3559.95
431.28	3836.14
431.47	3808.05
431.66	3777.62
431.85	3620.81
432.03	3749.54
432.22	3864.22
432.41	3971.89
432.60	3810.39
432.79	3831.46
432.97	3847.84
433.16	3892.31
433.35	3911.04
433.54	4037.42
433.72	3962.53
433.91	3992.95
434.10	3927.42
434.28	3988.27
434.47	4028.06
434.66	4117.00
434.85	4138.07
435.03	4084.23
435.22	4011.68
435.41	4304.25
435.59	4215.30
435.78	4205.94
435.97	4227.01
436.16	4212.96
436.34	4187.22
436.53	4327.65
436.72	4327.65
436.90	4198.92
437.09	4341.69
437.28	4259.78
437.46	4369.78
437.65	4344.03
437.84	4360.42
438.02	4376.80
438.21	4325.31
438.40	4339.35
438.58	4444.68
438.77	4538.30
438.96	4479.79
439.14	4671.71
439.33	4671.71
439.52	4697.46
439.70	4798.10
439.89	4662.35
440.08	4741.93
440.26	4952.57
440.45	4741.93
440.63	4917.47
440.82	5041.51
441.01	4798.10
441.19	4915.12
441.38	5018.11
441.57	4943.21
441.75	5048.54
441.94	5043.85
442.12	5097.69
442.31	5053.22
442.50	5214.71
442.68	5123.43
442.87	5193.65
443.05	5263.86
443.24	5254.50
443.43	5165.56
443.61	5277.91
443.80	5521.32
443.98	5394.93
444.17	5085.98
444.35	5317.70
444.54	5406.64
444.73	5385.57
444.91	5467.49
445.10	5348.12
445.28	5341.10
445.47	5366.85
445.65	5327.06
445.84	5357.49
446.02	5310.68
446.21	5404.30
446.39	5184.29
446.58	5511.96
446.77	5490.90
446.95	5235.78
447.14	5493.24
447.32	5430.04
447.51	5476.85
447.69	5476.85
447.88	5406.64
448.06	5535.37
448.25	5432.38
448.43	5535.37
448.62	5430.04
448.80	5680.48
448.99	5624.31
449.17	5617.29
449.36	5493.24
449.54	5729.63
449.73	5802.19
449.91	5851.34
450.10	5685.16
450.28	5902.83
450.46	5884.11
450.65	5816.23
450.83	5767.08
451.02	5713.25
451.20	5724.95
451.39	5762.40
451.57	5795.17
451.76	5753.04
451.94	5827.93
452.13	6045.60
452.31	5930.92
452.49	5956.66
452.68	6113.48
452.86	5930.92
453.05	6120.50
453.23	6127.52
453.42	6054.97
453.60	5998.79
453.78	6286.68
453.97	5994.11
454.15	6080.71
454.34	6099.44
454.52	6122.84
454.70	6183.70
454.89	6202.42
455.07	6087.73
455.26	6312.42
455.44	6338.17
455.62	6239.87
455.81	6303.06
455.99	6366.26
456.17	6459.88
456.36	6382.64
456.54	6532.44
456.73	6553.50
456.91	6562.86
457.09	6722.02
457.28	6715.00
457.46	6590.95
457.64	6736.06
457.83	6754.79
458.01	6628.40
458.19	6855.43
458.38	6803.94
458.56	6740.74
458.74	6771.17
458.93	6883.52
459.11	6843.73
459.29	6878.83
459.48	6775.85
459.66	6806.28
459.84	6981.82
460.03	7082.46
460.21	6939.69
460.39	6998.20
460.57	6906.92
460.76	7157.36
460.94	7014.59
461.12	6885.86
461.31	7082.46
461.49	7185.44
461.67	7077.78
461.85	7316.51
462.04	7126.93
462.22	7527.16
462.40	7201.83
462.59	7360.98
462.77	7335.24
462.95	7300.13
463.13	7405.46
463.32	7201.83
463.50	7428.86
463.68	7370.35
463.86	7576.31
464.05	7332.90
464.23	7339.92
464.41	7470.99
464.59	7447.58
464.78	7847.82
464.96	7686.32
465.14	7676.96
465.32	7573.97
465.50	7779.94
465.69	7637.17
465.87	7742.49
466.05	7569.29
466.23	7754.19
466.41	7695.68
466.60	7864.20
466.78	7719.09
466.96	7735.47
467.14	7681.64
467.32	7868.88
467.51	7946.12
467.69	7765.90
467.87	7817.39
468.05	8011.65
468.23	7967.18
468.41	7941.44
468.60	7908.67
468.78	8077.19
468.96	7852.50
469.14	8013.99
469.32	8107.62
469.50	8133.36
469.69	8280.82
469.87	8599.13
470.05	8372.10
470.23	8351.03
470.41	8329.97
470.59	8425.93
470.77	8428.27
470.95	8603.81
471.14	8561.68
471.32	8512.53
471.50	8638.92
471.68	8608.49
471.86	8730.20
472.04	8683.39
472.22	8786.37
472.40	8559.34
472.58	8762.97
472.77	8765.31
472.95	8849.57
473.13	9085.96
473.31	8858.93
473.49	8809.78
473.67	8854.25
473.85	8985.32
474.03	9090.64
474.21	9153.84
474.39	9284.91
474.57	9261.50
474.75	9399.59
474.93	9481.51
475.12	9380.87
475.30	9455.76
475.48	9359.80
475.66	9448.74
475.84	9483.85
476.02	9614.92
476.20	9544.70
476.38	9839.61
476.56	10029.20
476.74	10134.52
476.92	9961.32
477.10	9830.25
477.28	10181.33
477.46	10111.11
477.64	10078.35
477.82	10462.19
478.00	10642.42
478.18	10431.77
478.36	10768.80
478.54	10546.45
478.72	10733.70
478.90	11033.29
479.08	11049.67
479.26	11063.71
479.44	11330.53
479.62	11215.85
479.80	11377.34
479.98	11260.32
480.16	11845.45
480.34	11379.68
480.52	11555.22
480.70	11646.51
480.88	11566.93
481.06	11522.46
481.24	11903.96
481.41	11960.14
481.59	12245.68
481.77	11990.56
481.95	12184.83
482.13	12241.00
482.31	12383.77
482.49	12491.44
482.67	12451.65
482.85	12720.81
483.03	12875.29
483.21	13048.49
483.39	13378.50
483.57	13015.72
483.74	13392.55
483.92	13324.67
484.10	13305.95
484.28	13455.74
484.46	13762.35
484.64	13919.17
484.82	13563.40
485.00	13987.04
485.18	13949.59
485.35	14253.86
485.53	14118.11
485.71	14083.00
485.89	14611.96
486.07	14747.72
486.25	14551.11
486.43	14700.90
486.61	14726.65
486.78	14799.21
486.96	15051.99
487.14	15419.45
487.32	15400.72
487.50	15393.70
487.68	15644.14
487.85	15744.78
488.03	15786.91
488.21	15854.79
488.39	15906.28
488.57	16170.76
488.75	16189.49
488.92	16365.03
489.10	16308.85
489.28	16594.40
489.46	16751.21
489.64	16744.19
489.81	17249.75
489.99	17434.65
490.17	17275.49
490.35	17493.16
490.53	17385.50
490.70	17799.77
490.88	17624.23
491.06	18066.60
491.24	18111.07
491.41	18012.76
491.59	18190.64
491.77	18174.26
491.95	18448.10
492.13	18583.85
492.30	18691.52
492.48	18553.43
492.66	18780.46
492.84	18890.46
493.01	19021.53
493.19	18927.91
493.37	19264.95
493.54	19271.97
493.72	19557.52
493.90	19496.66
494.08	19768.16
494.25	19719.01
494.43	20013.92
494.61	20205.84
494.79	20013.92
494.96	20018.60
495.14	20163.72
495.32	20659.91
495.49	20608.42
495.67	20734.81
495.85	21001.63
496.02	20854.17
496.20	21249.72
496.38	20994.61
496.55	21724.85
496.73	21841.88
496.91	21296.53
497.09	21664.00
497.26	21785.71
497.44	21572.72
497.62	21907.41
497.79	22078.27
497.97	22380.20
498.14	22120.40
498.32	22438.72
498.50	22221.05
498.67	22972.36
498.85	22586.17
499.03	22654.05
499.20	22845.97
499.38	23028.53
499.56	22916.19
499.73	23140.88
499.91	23089.38
500.08	23332.80
500.26	23271.95
500.44	23438.12
500.61	23517.70
500.79	23718.99
500.97	23550.47
501.14	24016.24
501.32	24004.53
501.49	24151.99
501.67	23803.25
501.84	24151.99
502.02	24011.56
502.20	24191.78
502.37	24144.97
502.55	24133.26
502.72	24496.05
502.90	24482.00
503.07	24439.87
503.25	24449.24
503.43	24355.61
503.60	24875.21
503.78	24807.34
503.95	24947.77
504.13	25333.96
504.30	25465.03
504.48	25090.54
504.65	25249.70
504.83	25823.13
505.01	25558.65
505.18	25399.49
505.36	25741.21
505.53	25507.16
505.71	25717.81
505.88	26185.91
506.06	25755.26
506.23	26450.39
506.41	26155.49
506.58	26286.56
506.76	26202.30
506.93	26354.43
507.11	26356.77
507.28	26618.91
507.46	26560.40
507.63	26579.12
507.81	26752.32
507.98	27009.78
508.16	27164.26
508.33	27058.93
508.50	27232.13
508.68	27304.69
508.85	26977.01
509.03	27236.81
509.20	27445.12
509.38	27887.48
509.55	27695.56
509.73	27634.71
509.90	27686.20
510.08	27988.13
510.25	28109.83
510.42	28154.30
510.60	28177.71
510.77	28194.09
510.95	28706.67
511.12	28271.33
511.30	28292.40
511.47	27974.08
511.64	28414.10
511.82	28987.53
511.99	28449.21
512.17	28952.43
512.34	28437.51
512.51	29142.01
512.69	29525.86
512.86	29315.21
513.04	29467.34
513.21	29249.67
513.38	29673.31
513.56	29305.85
513.73	29315.21
513.90	29881.62
514.08	29596.07
514.25	29645.23
514.43	29511.81
514.60	29612.46
514.77	29607.78
514.95	30174.19
515.12	29972.90
515.29	29708.42
515.47	30185.89
515.64	30370.79
515.81	30412.92
515.99	30459.73
516.16	30981.67
516.33	30689.10
516.51	30768.68
516.68	30604.84
516.85	30642.29
517.03	31061.25
517.20	31218.07
517.37	30663.36
517.54	31269.56
517.72	31049.55
517.89	30969.97
518.06	31042.53
518.24	31072.95
518.41	31325.73
518.58	30881.03
518.75	30927.84
518.93	31606.59
519.10	31519.99
519.27	31302.32
519.45	31873.42
519.62	31885.12
519.79	31747.03
519.96	31672.13
520.14	32004.49
520.31	31660.43
520.48	32023.21
520.65	32395.35
520.83	32383.65
521.00	32669.20
521.17	32580.26
521.34	32481.95
521.52	32371.95
521.69	32535.79
521.86	32519.40
522.03	32816.65
522.20	33024.96
522.38	33284.76
522.55	33060.07
522.72	32683.24
522.89	33060.07
523.07	33532.86
523.24	33090.49
523.41	33500.09
523.58	33303.48
523.75	33556.26
523.92	33383.06
524.10	33865.21
524.27	34019.69
524.44	33682.65
524.61	33759.89
524.78	34026.71
524.96	34209.27
525.13	34330.98
525.30	34328.64
525.47	34106.29
525.64	33771.59
525.81	34291.19
525.98	34375.45
526.16	34270.12
526.33	34085.22
526.50	35051.86
526.67	34373.11
526.84	34401.19
527.01	34298.21
527.18	34689.08
527.36	35044.84
527.53	35089.31
527.70	35161.87
527.87	35103.35
528.04	35154.85
528.21	35445.07
528.38	35253.15
528.55	35234.42
528.72	35023.78
528.89	35566.78
529.07	34923.13
529.24	35281.24
529.41	35545.72
529.58	35611.25
529.75	35590.19
529.92	35665.08
530.09	35700.19
530.26	35276.55
530.43	35569.12
530.60	35583.16
530.77	35489.54
530.94	36282.98
531.11	35725.94
531.28	35910.84
531.46	36217.45
531.63	36016.16
531.80	35737.64
531.97	36484.27
532.14	36196.38
532.31	35969.35
532.48	36507.68
532.65	36467.89
532.82	35845.30
532.99	36416.40
533.16	36638.75
533.33	36744.07
533.50	36531.08
533.67	36858.76
533.84	36938.33
534.01	36334.48
534.18	36727.69
534.35	36910.25
534.52	37046.00
534.69	37294.10
534.86	37350.27
535.03	36835.35
535.20	37495.38
535.37	37249.63
535.54	37741.14
535.71	37144.30
535.88	37310.48
536.05	37420.48
536.22	37336.23
536.38	37495.38
536.55	37514.11
536.72	37336.23
536.89	37741.14
537.06	37460.27
537.23	38022.00
537.40	37638.15
537.57	37345.59
537.74	37556.24
537.91	37979.87
538.08	38169.46
538.25	38000.94
538.42	38108.60
538.59	38232.65
538.75	37865.19
538.92	38394.15
539.09	38508.83
539.26	38010.30
539.43	38565.01
539.60	38314.57
539.77	38518.20
539.94	38824.81
540.11	38885.66
540.28	38637.56
540.44	38534.58
540.61	38646.93
540.78	38349.68
540.95	38562.67
541.12	38892.68
541.29	38855.23
541.46	39091.63
541.62	38333.29
541.79	38780.34
541.96	38728.84
542.13	38932.47
542.30	38878.64
542.47	39056.52
542.63	39526.97
542.80	39353.77
542.97	39662.72
543.14	39950.60
543.31	39463.77
543.48	39297.59
543.64	39749.32
543.81	39578.46
543.98	39779.74
544.15	39805.49
544.32	39763.36
544.48	40170.61
544.65	40076.99
544.82	39835.92
544.99	39819.53
545.16	39597.18
545.32	40149.55
545.49	39929.54
545.66	40399.99
545.83	40505.31
546.00	40407.01
546.16	40142.53
546.33	40465.52
546.50	40285.30
546.67	40673.83
546.83	40016.14
547.00	40584.89
547.17	40247.85
547.34	40233.81
547.50	40947.67
547.67	40868.09
547.84	40835.33
548.00	40940.65
548.17	40914.90
548.34	41263.64
548.51	41160.66
548.67	40823.62
548.84	40556.80
549.01	40753.41
549.18	41027.25
549.34	40741.71
549.51	40982.78
549.68	41268.33
549.84	41310.46
550.01	41003.85
550.18	41186.41
550.34	41310.46
550.51	41523.44
550.68	41450.89
550.84	41111.51
551.01	41390.03
551.18	41221.52
551.34	41329.18
551.51	41542.17
551.68	41507.06
551.84	41556.21
552.01	41600.68
552.18	41399.40
552.34	41701.32
552.51	41617.07
552.68	41352.58
552.84	41619.41
553.01	41757.50
553.18	41846.44
553.34	41837.08
553.51	41565.57
553.67	42085.17
553.84	42202.20
554.01	42246.67
554.17	41839.42
554.34	42321.57
554.51	42382.42
554.67	42370.72
554.84	42206.88
555.00	42089.85
555.17	42445.62
555.33	42031.34
555.50	42363.70
555.67	42333.27
555.83	42237.31
556.00	42960.53
556.16	42607.11
556.33	43072.88
556.50	42614.13
556.66	43019.05
556.83	42658.60
556.99	43199.27
557.16	42801.38
557.32	42965.21
557.49	42745.20
557.65	42518.17
557.82	42927.77
557.98	42813.08
558.15	42773.29
558.32	43058.84
558.48	42677.33
558.65	43124.37
558.81	42602.43
558.98	42944.15
559.14	42637.54
559.31	42799.04
559.47	42777.97
559.64	43138.41
559.80	42960.53
559.97	43505.88
560.13	42724.14
560.30	43147.78
560.46	43208.63
560.63	43749.29
560.79	43278.85
560.96	43445.02
561.12	43433.32
561.29	43257.78
561.45	43526.94
561.61	43625.25
561.78	43196.93
561.94	43107.99
562.11	43505.88
562.27	43557.37
562.44	42930.11
562.60	43524.60
562.77	43526.94
562.93	43650.99
563.10	43515.24
563.26	43377.15
563.42	44037.18
563.59	43765.68
563.75	43723.55
563.92	43676.74
564.08	43571.41
564.24	43662.69
564.41	43232.04
564.57	43690.78
564.74	43831.21
564.90	43503.54
565.07	43564.39
565.23	43746.95
565.39	43608.86
565.56	43732.91
565.72	44086.33
565.88	43810.15
566.05	43854.62
566.21	43981.01
566.38	43908.45
566.54	43861.64
566.70	43920.15
566.87	43814.83
567.03	43732.91
567.19	43894.41
567.36	43718.87
567.52	43842.92
567.68	44278.25
567.85	44308.68
568.01	44179.95
568.17	43875.68
568.34	43985.69
568.50	43938.88
568.66	43842.92
568.83	43927.17
568.99	43908.45
569.15	43812.49
569.32	44322.72
569.48	44060.58
569.64	44652.74
569.81	44442.09
569.97	44406.98
570.13	44212.72
570.30	43871.00
570.46	44154.21
570.62	44355.49
570.78	43863.98
570.95	43920.15
571.11	44612.95
571.27	44376.56
571.43	44418.69
571.60	44215.06
571.76	44334.43
571.92	43838.23
572.09	44392.94
572.25	44385.92
572.41	44367.20
572.57	44304.00
572.74	44622.31
572.90	44339.11
573.06	44318.04
573.22	44402.30
573.38	44987.44
573.55	44582.52
573.71	44591.89
573.87	44357.83
574.03	44306.34
574.20	44404.64
574.36	44509.97
574.52	44432.73
574.68	44418.69
574.84	45102.12
575.01	45036.59
575.17	44453.79
575.33	44404.64
575.49	44406.98
575.65	44989.78
575.82	44559.12
575.98	44591.89
576.14	44802.53
576.30	44973.39
576.46	44545.08
576.62	44556.78
576.79	44470.18
576.95	43997.39
577.11	44268.89
577.27	44622.31
577.43	44596.57
577.59	44762.75
577.75	44722.96
577.92	44432.73
578.08	44851.69
578.24	44500.61
578.40	44971.05
578.56	44816.58
578.72	44851.69
578.88	44978.07
579.04	44418.69
579.21	44624.65
579.37	44531.03
579.53	44439.75
579.69	44540.39
579.85	44531.03
580.01	44921.90
580.17	44418.69
580.33	44851.69
580.49	44788.49
580.65	44535.71
580.82	44807.22
580.98	44821.26
581.14	44893.82
581.30	44697.21
581.46	44989.78
581.62	44591.89
581.78	44648.06
581.94	44832.96
582.10	44582.52
582.26	45242.56
582.42	44875.09
582.58	45102.12
582.74	45029.57
582.90	44737.00
583.06	45083.40
583.22	44793.17
583.38	45038.93
583.54	45022.54
583.70	44526.35
583.86	44769.77
584.02	44830.62
584.18	45221.49
584.34	45059.99
584.50	44935.95
584.66	45064.67
584.82	44802.53
584.98	45289.37
585.14	44975.73
585.30	44776.79
585.46	44980.42
585.62	44854.03
585.78	45029.57
585.94	44889.13
586.10	45237.87
586.26	45031.91
586.42	44437.41
586.58	44854.03
586.74	44896.16
586.90	45198.09
587.06	44755.72
587.22	45081.06
587.38	45282.34
587.54	45799.60
587.70	45439.16
587.86	44900.84
588.02	45268.30
588.18	44814.24
588.34	45375.97
588.49	44912.54
588.65	45371.28
588.81	45216.81
588.97	44870.41
589.13	44666.78
589.29	45092.76
589.45	45441.50
589.61	44814.24
589.77	45378.31
589.93	45062.33
590.08	45221.49
