SpectraSuite Data File
++++++++++++++++++++++++++++++++++++
Date: Fri Oct 25 10:47:34 EDT 2013
User: price-jones
Dark Spectrum Present: No
Reference Spectrum Present: No
Number of Sampled Component Spectra: 1
Spectrometers: USB2+H05261
Integration Time (usec): 100000 (USB2+H05261)
Spectra Averaged: 1 (USB2+H05261)
Boxcar Smoothing: 0 (USB2+H05261)
Correct for Electrical Dark: No (USB2+H05261)
Strobe/Lamp Enabled: No (USB2+H05261)
Correct for Detector Non-linearity: No (USB2+H05261)
Correct for Stray Light: No (USB2+H05261)
Number of Pixels in Processed Spectrum: 2048
>>>>>Begin Processed Spectral Data<<<<<
365.73	140.43
365.92	140.43
366.12	140.43
366.32	60.85
366.52	49.15
366.72	79.58
366.91	28.09
367.11	56.17
367.31	46.81
367.51	32.77
367.70	16.38
367.90	39.79
368.10	72.56
368.30	72.56
368.49	0.00
368.69	81.92
368.89	86.60
369.09	72.56
369.28	74.90
369.48	9.36
369.68	49.15
369.87	102.98
370.07	25.75
370.27	156.82
370.47	194.26
370.66	425.98
370.86	383.85
371.06	376.83
371.25	449.38
371.45	437.68
371.65	449.38
371.84	444.70
372.04	421.30
372.24	395.55
372.44	512.58
372.63	465.77
372.83	461.09
373.03	503.22
373.22	500.87
373.42	613.22
373.62	514.92
373.81	482.15
374.01	594.50
374.21	608.54
374.40	475.13
374.60	491.51
374.79	585.13
374.99	526.62
375.19	512.58
375.38	552.37
375.58	543.00
375.78	629.60
375.97	514.92
376.17	543.00
376.37	535.98
376.56	573.43
376.76	517.26
376.95	599.18
377.15	575.77
377.35	608.54
377.54	641.31
377.74	596.84
377.93	528.96
378.13	650.67
378.33	617.90
378.52	664.71
378.72	627.26
378.91	667.05
379.11	608.54
379.31	592.16
379.50	545.34
379.70	617.90
379.89	704.50
380.09	617.90
380.28	657.69
380.48	641.31
380.68	606.20
380.87	601.52
381.07	720.88
381.26	662.37
381.46	582.79
381.65	676.41
381.85	608.54
382.04	645.99
382.24	669.39
382.43	655.35
382.63	713.86
382.83	720.88
383.02	730.25
383.22	704.50
383.41	770.04
383.61	681.10
383.80	760.67
384.00	704.50
384.19	697.48
384.39	702.16
384.58	777.06
384.78	758.33
384.97	772.38
385.17	812.17
385.36	784.08
385.56	784.08
385.75	758.33
385.95	676.41
386.14	777.06
386.34	793.44
386.53	847.27
386.72	823.87
386.92	849.61
387.11	870.68
387.31	772.38
387.50	770.04
387.70	793.44
387.89	856.64
388.09	826.21
388.28	854.30
388.48	868.34
388.67	854.30
388.86	875.36
389.06	861.32
389.25	929.19
389.45	931.53
389.64	901.11
389.84	926.85
390.03	880.04
390.22	990.05
390.42	873.02
390.61	840.25
390.81	917.49
391.00	858.98
391.19	894.08
391.39	912.81
391.58	929.19
391.78	947.92
391.97	994.73
392.16	917.49
392.36	1025.15
392.55	959.62
392.75	1029.84
392.94	973.66
393.13	938.55
393.33	997.07
393.52	1001.75
393.71	1011.11
393.91	1097.71
394.10	1046.22
394.29	1008.77
394.49	1032.18
394.68	1069.62
394.88	1144.52
395.07	1055.58
395.26	1109.41
395.46	1088.35
395.65	1102.39
395.84	1179.63
396.04	1160.91
396.23	1088.35
396.42	1111.75
396.62	1156.22
396.81	1114.10
397.00	1221.76
397.19	1200.69
397.39	1160.91
397.58	1303.68
397.77	1186.65
397.97	1156.22
398.16	1226.44
398.35	1343.47
398.55	1273.25
398.74	1287.29
398.93	1296.66
399.12	1273.25
399.32	1299.00
399.51	1371.55
399.70	1397.30
399.90	1481.56
400.09	1310.70
400.28	1411.34
400.47	1437.09
400.67	1479.22
400.86	1416.02
401.05	1537.73
401.24	1423.05
401.44	1439.43
401.63	1558.80
401.82	1455.81
402.01	1549.43
402.21	1430.07
402.40	1607.95
402.59	1533.05
402.78	1549.43
402.97	1636.03
403.17	1612.63
403.36	1565.82
403.55	1603.27
403.74	1554.12
403.93	1629.01
404.13	1724.97
404.32	1584.54
404.51	1589.22
404.70	1643.06
404.89	1661.78
405.09	1722.63
405.28	1710.93
405.47	1668.80
405.66	1729.66
405.85	1825.62
406.05	1647.74
406.24	1746.04
406.43	1699.23
406.62	1842.00
406.81	1870.09
407.00	1830.30
407.20	1776.47
407.39	1895.83
407.58	1895.83
407.77	1916.90
407.96	1916.90
408.15	1909.88
408.34	1846.68
408.54	1984.77
408.73	1912.22
408.92	1952.01
409.11	2036.27
409.30	2043.29
409.49	2078.40
409.68	1966.05
409.87	1949.67
410.07	2076.06
410.26	2127.55
410.45	1968.39
410.64	2150.95
410.83	2195.42
411.02	2246.91
411.21	2331.17
411.40	2256.28
411.59	2363.94
411.78	2289.04
411.98	2277.34
412.17	2286.70
412.36	2312.45
412.55	2312.45
412.74	2375.64
412.93	2422.45
413.12	2450.54
413.31	2462.24
413.50	2539.48
413.69	2506.71
413.88	2555.86
414.07	2567.57
414.26	2623.74
414.45	2619.06
414.64	2724.38
414.83	2698.64
415.02	2693.96
415.22	2731.41
415.41	2848.43
415.60	2808.64
415.79	2815.66
415.98	2881.20
416.17	2871.84
416.36	2834.39
416.55	2904.60
416.74	2956.10
416.93	2888.22
417.12	2904.60
417.31	2944.39
417.50	2995.89
417.69	3108.23
417.88	3019.29
418.07	3061.42
418.26	3033.33
418.45	3133.98
418.64	3246.32
418.83	3201.85
419.02	3248.66
419.21	3131.64
419.39	3208.87
419.58	3119.93
419.77	3192.49
419.96	3171.43
420.15	3192.49
420.34	3260.37
420.53	3239.30
420.72	3426.54
420.91	3349.31
421.10	3304.84
421.29	3468.67
421.48	3283.77
421.67	3456.97
421.86	3403.14
422.05	3368.03
422.24	3417.18
422.43	3475.70
422.61	3318.88
422.80	3480.38
422.99	3433.57
423.18	3463.99
423.37	3459.31
423.56	3438.25
423.75	3459.31
423.94	3410.16
424.13	3272.07
424.32	3389.10
424.50	3627.83
424.69	3641.87
424.88	3517.83
425.07	3506.12
425.26	3538.89
425.45	3475.70
425.64	3541.23
425.83	3531.87
426.01	3679.32
426.20	3531.87
426.39	3679.32
426.58	3620.81
426.77	3569.32
426.96	3625.49
427.15	3581.02
427.33	3639.53
427.52	3543.57
427.71	3758.90
427.90	3688.68
428.09	3686.34
428.28	3822.09
428.46	3796.35
428.65	3777.62
428.84	3885.29
429.03	3861.88
429.22	3777.62
429.40	3794.01
429.59	3684.00
429.78	3618.47
429.97	3684.00
430.16	3679.32
430.34	3735.50
430.53	3833.80
430.72	3875.93
430.91	4070.19
431.10	4023.38
431.28	4035.08
431.47	4046.79
431.66	4025.72
431.85	4138.07
432.03	4149.77
432.22	4262.12
432.41	4269.14
432.60	4142.75
432.79	4163.81
432.97	4299.56
433.16	4259.78
433.35	4248.07
433.54	4245.73
433.72	4203.60
433.91	4227.01
434.10	4222.33
434.28	4339.35
434.47	4418.93
434.66	4376.80
434.85	4372.12
435.03	4510.21
435.22	4416.59
435.41	4512.55
435.59	4599.15
435.78	4470.42
435.97	4557.02
436.16	4547.66
436.34	4545.32
436.53	4592.13
436.72	4816.82
436.90	4489.15
437.09	4603.83
437.28	4404.89
437.46	4599.15
437.65	4758.31
437.84	4643.62
438.02	4648.30
438.21	4713.84
438.40	4727.88
438.58	4802.78
438.77	4856.61
438.96	4840.23
439.14	4980.66
439.33	5107.05
439.52	5095.35
439.70	5060.24
439.89	5034.49
440.08	5313.02
440.26	5062.58
440.45	5078.96
440.63	5149.18
440.82	5392.59
441.01	5242.80
441.19	5303.65
441.38	5453.45
441.57	5472.17
441.75	5523.66
441.94	5483.88
442.12	5593.88
442.31	5699.20
442.50	5507.28
442.68	5652.39
442.87	5474.51
443.05	5652.39
443.24	5636.01
443.43	5589.20
443.61	5713.25
443.80	5877.09
443.98	5729.63
444.17	5621.97
444.35	5746.02
444.54	5877.09
444.73	5778.78
444.91	5731.97
445.10	5895.81
445.28	5675.80
445.47	5795.17
445.65	5722.61
445.84	5860.70
446.02	5769.42
446.21	5760.06
446.39	5820.91
446.58	5956.66
446.77	5909.85
446.95	5696.86
447.14	5877.09
447.32	6038.58
447.51	5942.62
447.69	5867.72
447.88	6031.56
448.06	6129.86
448.25	5921.56
448.43	5973.05
448.62	6069.01
448.80	6050.28
448.99	6162.63
449.17	6057.31
449.36	5921.56
449.54	6413.07
449.73	6284.34
449.91	6310.08
450.10	6305.40
450.28	6464.56
450.46	6406.05
450.65	6291.36
450.83	6406.05
451.02	6523.07
451.20	6494.99
451.39	6359.24
451.57	6403.71
451.76	6235.19
451.94	6384.98
452.13	6513.71
452.31	6499.67
452.49	6317.11
452.68	6478.60
452.86	6569.88
453.05	6675.21
453.23	6455.20
453.42	6511.37
453.60	6459.88
453.78	6640.10
453.97	6623.72
454.15	6511.37
454.34	6389.66
454.52	6766.49
454.70	6745.42
454.89	6670.53
455.07	6897.56
455.26	6768.83
455.44	7023.95
455.62	7009.90
455.81	6951.39
455.99	6944.37
456.17	7162.04
456.36	7023.95
456.54	7117.57
456.73	7075.44
456.91	7351.62
457.09	7288.43
457.28	7344.60
457.46	7183.10
457.64	7229.91
457.83	7185.44
458.01	7164.38
458.19	7295.45
458.38	7265.02
458.56	7470.99
458.74	7330.56
458.93	7318.86
459.11	7379.71
459.29	7307.15
459.48	7470.99
459.66	7435.88
459.84	7499.08
460.03	7709.72
460.21	7548.23
460.39	7793.98
460.57	7569.29
460.76	7637.17
460.94	7733.13
461.12	7793.98
461.31	7627.81
461.49	7655.89
461.67	7728.45
461.85	7805.69
462.04	7707.38
462.22	8336.99
462.40	7887.61
462.59	7950.80
462.77	7953.14
462.95	8121.66
463.13	8234.00
463.32	8063.15
463.50	8386.14
463.68	7964.84
463.86	8100.59
464.05	8149.75
464.23	8088.89
464.41	8152.09
464.59	7936.76
464.78	8273.79
464.96	8060.80
465.14	8231.66
465.32	8336.99
465.50	8351.03
465.69	8194.22
465.87	8311.24
466.05	8407.20
466.23	8229.32
466.41	8252.73
466.60	8533.59
466.78	8271.45
466.96	8341.67
467.14	8332.31
467.32	8540.61
467.51	8542.96
467.69	8245.71
467.87	8334.65
468.05	8531.25
468.23	8351.03
468.41	8617.85
468.60	8648.28
468.78	8769.99
468.96	8655.30
469.14	8599.13
469.32	8879.99
469.50	8592.11
469.69	8706.79
469.87	9043.83
470.05	8875.31
470.23	8840.20
470.41	9032.13
470.59	9078.94
470.77	8882.33
470.95	9006.38
471.14	9167.88
471.32	9043.83
471.50	9247.46
471.68	9451.08
471.86	9467.47
472.04	9289.59
472.22	9425.34
472.40	9366.82
472.58	9509.60
472.77	9631.30
472.95	9514.28
473.13	9797.48
473.31	9504.92
473.49	9600.88
473.67	9619.60
473.85	9659.39
474.03	9923.87
474.21	9755.35
474.39	9893.44
474.57	10008.13
474.75	9989.41
474.93	10143.88
475.12	10181.33
475.30	10155.58
475.48	10223.46
475.66	10228.14
475.84	10246.87
476.02	10523.05
476.20	10485.60
476.38	10544.11
476.56	10869.45
476.74	10944.34
476.92	10604.97
477.10	10576.88
477.28	10970.09
477.46	10977.11
477.64	10984.13
477.82	11129.25
478.00	11269.68
478.18	11084.78
478.36	11332.87
478.54	11583.31
478.72	11316.49
478.90	11595.01
479.08	12013.97
479.26	11939.07
479.44	11913.33
479.62	11915.67
479.80	12187.17
479.98	11929.71
480.16	12578.04
480.34	12133.34
480.52	12425.90
480.70	12688.04
480.88	12283.13
481.06	12599.10
481.24	12674.00
481.41	12872.95
481.59	12744.22
481.77	13015.72
481.95	13111.68
482.13	13205.30
482.31	13121.04
482.49	13561.06
482.67	13249.77
482.85	13703.84
483.03	14068.96
483.21	13881.72
483.39	14216.41
483.57	13963.64
483.74	14090.02
483.92	14178.97
484.10	14202.37
484.28	14459.83
484.46	14658.78
484.64	14604.94
484.82	14626.01
485.00	14754.74
485.18	14808.57
485.35	14801.55
485.53	15161.99
485.71	15080.07
485.89	15484.98
486.07	15281.36
486.25	15260.29
486.43	15712.02
486.61	15592.65
486.78	15740.10
486.96	15873.51
487.14	16067.78
487.32	16137.99
487.50	16446.94
487.68	16439.92
487.85	16945.48
488.03	17245.07
488.21	16959.52
488.39	17238.05
488.57	17287.20
488.75	17521.25
488.92	17591.47
489.10	17696.79
489.28	17771.69
489.46	18087.66
489.64	17757.64
489.81	18176.60
489.99	18331.08
490.17	18338.10
490.35	18394.27
490.53	18719.60
490.70	18838.97
490.88	18752.37
491.06	19365.59
491.24	18974.72
491.41	19012.17
491.59	18988.77
491.77	19021.53
491.95	19255.59
492.13	19396.02
492.30	19529.43
492.48	19955.41
492.66	19955.41
492.84	19997.54
493.01	20240.95
493.19	20098.18
493.37	20594.37
493.54	20751.19
493.72	20573.31
493.90	20889.28
494.08	21048.44
494.25	20938.43
494.43	21301.22
494.61	21249.72
494.79	21263.77
494.96	21188.87
495.14	21373.77
495.32	21841.88
495.49	21951.88
495.67	21685.06
495.85	22342.75
496.02	21991.67
496.20	22511.27
496.38	22405.95
496.55	22284.24
496.73	23119.81
496.91	22623.62
497.09	22712.56
497.26	23019.17
497.44	22860.01
497.62	23180.67
497.79	23461.53
497.97	23098.75
498.14	23665.16
498.32	23473.23
498.50	23543.45
498.67	24065.39
498.85	23931.98
499.03	24100.50
499.20	23892.19
499.38	24156.67
499.56	23906.23
499.73	24613.07
499.91	24390.72
500.08	24570.94
500.26	24362.64
500.44	24786.27
500.61	24498.39
500.79	24437.53
500.97	24847.13
501.14	24975.86
501.32	25092.88
501.49	24982.88
501.67	25226.29
501.84	25394.81
502.02	25535.24
502.20	25486.09
502.37	25642.91
502.55	26015.05
502.72	26183.57
502.90	25745.89
503.07	25879.30
503.25	25762.28
503.43	25907.39
503.60	26394.22
503.78	25991.65
503.95	26160.17
504.13	26136.76
504.30	26691.47
504.48	26487.84
504.65	26808.50
504.83	26710.19
505.01	26955.95
505.18	26869.35
505.36	27307.03
505.53	26972.33
505.71	27227.45
505.88	27573.85
506.06	27253.20
506.23	27695.56
506.41	27356.18
506.58	27372.57
506.76	27583.21
506.93	27634.71
507.11	27875.78
507.28	27679.18
507.46	27704.92
507.63	28018.55
507.81	28147.28
507.98	28624.75
508.16	28379.00
508.33	28690.29
508.50	28318.14
508.68	28393.04
508.85	28685.61
509.03	28786.25
509.20	28903.28
509.38	28985.19
509.55	29001.58
509.73	29118.60
509.90	29380.74
510.08	29745.87
510.25	29345.64
510.42	29153.71
510.60	29642.88
510.77	29432.24
510.95	29795.02
511.12	29392.45
511.30	29731.83
511.47	30132.06
511.64	30148.44
511.82	30265.47
511.99	29949.50
512.17	30162.48
512.34	29982.26
512.51	30614.21
512.69	30359.09
512.86	30513.56
513.04	30712.51
513.21	30412.92
513.38	30726.55
513.56	30539.31
513.73	30499.52
513.90	30731.23
514.08	30382.49
514.25	31185.30
514.43	30609.53
514.60	30883.37
514.77	31129.12
514.95	31138.49
515.12	31318.71
515.29	31407.65
515.47	31358.50
515.64	31634.68
515.81	31622.98
515.99	31356.16
516.16	31335.09
516.33	31576.17
516.51	31835.97
516.68	31611.28
516.85	31323.39
517.03	32175.34
517.20	32051.30
517.37	31978.74
517.54	32102.79
517.72	31957.67
517.89	32091.09
518.06	32135.56
518.24	32173.00
518.41	32432.80
518.58	32247.90
518.75	32559.19
518.93	32673.88
519.10	32945.38
519.27	32718.35
519.45	32978.15
519.62	33022.62
519.79	33202.84
519.96	33434.55
520.14	33385.40
520.31	33041.34
520.48	33287.10
520.65	33418.17
520.83	33706.05
521.00	33457.96
521.17	33912.02
521.34	33507.11
521.52	33682.65
521.69	33750.52
521.86	33703.71
522.03	34239.70
522.20	33956.49
522.38	34045.43
522.55	34192.89
522.72	34169.48
522.89	34239.70
523.07	34679.72
523.24	34153.10
523.41	34618.86
523.58	34953.56
523.75	34377.79
523.92	34644.61
524.10	34843.56
524.27	35187.61
524.44	34679.72
524.61	35105.70
524.78	35096.33
524.96	35136.12
525.13	35365.49
525.30	35747.00
525.47	35445.07
525.64	35140.80
525.81	35426.35
525.98	35449.75
526.16	35580.82
526.33	35152.51
526.50	35510.61
526.67	35218.04
526.84	35419.33
527.01	35206.34
527.18	35892.12
527.36	35541.03
527.53	35667.42
527.70	36765.14
527.87	36172.98
528.04	35981.06
528.21	36137.87
528.38	36133.19
528.55	36706.62
528.72	36746.41
528.89	36673.85
529.07	36184.68
529.24	36325.11
529.41	36842.37
529.58	36680.88
529.75	36329.80
529.92	36825.99
530.09	36816.63
530.26	36907.91
530.43	36966.42
530.60	37120.90
530.77	36945.36
530.94	37111.53
531.11	36678.54
531.28	37186.43
531.46	36952.38
531.63	37144.30
531.80	37383.04
531.97	37106.85
532.14	37132.60
532.31	37062.38
532.48	37354.95
532.65	37694.33
532.82	37528.15
532.99	38017.32
533.16	37439.21
533.33	37825.40
533.50	37809.01
533.67	37474.32
533.84	37586.66
534.01	37982.21
534.18	37748.16
534.35	37872.21
534.52	37839.44
534.69	38005.62
534.86	38263.08
535.03	38078.18
535.20	38396.49
535.37	38902.04
535.54	38890.34
535.71	38546.28
535.88	38574.37
536.05	38366.06
536.22	38457.34
536.38	38520.54
536.55	38288.82
536.72	38810.76
536.89	38153.07
537.06	38445.64
537.23	38719.48
537.40	38562.67
537.57	38347.34
537.74	39267.17
537.91	39218.02
538.08	39012.05
538.25	38829.49
538.42	38672.67
538.59	38934.81
538.75	38457.34
538.92	38864.60
539.09	38946.51
539.26	39423.98
539.43	39435.69
539.60	39007.37
539.77	39206.31
539.94	39159.50
540.11	39012.05
540.28	39800.81
540.44	39264.83
540.61	39044.82
540.78	39398.24
540.95	39337.38
541.12	39468.45
541.29	39435.69
541.46	39852.30
541.62	39653.36
541.79	39943.58
541.96	39505.90
542.13	39849.96
542.30	39892.09
542.47	39805.49
542.63	40182.32
542.80	40069.97
542.97	40439.78
543.14	40662.13
543.31	40577.87
543.48	40407.01
543.64	40776.81
543.81	40502.97
543.98	40622.34
544.15	40383.60
544.32	40945.33
544.48	41085.76
544.65	40683.19
544.82	40917.25
544.99	40308.71
545.16	40493.61
545.32	41125.55
545.49	40928.95
545.66	41282.37
545.83	41249.60
546.00	41097.47
546.16	41277.69
546.33	40914.90
546.50	40694.89
546.67	41097.47
546.83	40872.78
547.00	40942.99
547.17	41347.90
547.34	41322.16
547.50	41572.60
547.67	41596.00
547.84	41261.30
548.00	41464.93
548.17	41771.54
548.34	41710.69
548.51	41860.48
548.67	41525.78
548.84	41827.71
549.01	41439.18
549.18	41511.74
549.34	41989.21
549.51	41848.78
549.68	41865.16
549.84	42120.28
550.01	42017.30
550.18	41813.67
550.34	42223.26
550.51	41450.89
550.68	41823.03
550.84	41677.92
551.01	41979.85
551.18	41839.42
551.34	42129.64
551.51	42492.43
551.68	41900.27
551.84	42756.91
552.01	42078.15
552.18	41865.16
552.34	41982.19
552.51	42272.42
552.68	42183.48
552.84	42567.32
553.01	42628.18
553.18	42534.56
553.34	42267.73
553.51	42366.04
553.67	42230.29
553.84	42728.82
554.01	42625.84
554.17	42890.32
554.34	42801.38
554.51	42918.40
554.67	42909.04
554.84	42651.58
555.00	42417.53
555.17	42714.78
555.33	42869.25
555.50	42436.25
555.67	42965.21
555.83	42895.00
556.00	42820.10
556.16	43133.73
556.33	43117.35
556.50	43051.81
556.66	43189.91
556.83	42916.06
556.99	43292.89
557.16	42777.97
557.32	43051.81
557.49	43161.82
557.65	42948.83
557.82	42581.37
557.98	43187.56
558.15	43313.95
558.32	43299.91
558.48	43344.38
558.65	43292.89
558.81	43243.74
558.98	43419.28
559.14	43271.82
559.31	43426.30
559.47	43381.83
559.64	43564.39
559.80	43763.34
559.97	43669.72
560.13	43278.85
560.30	43753.97
560.46	43274.16
560.63	43578.43
560.79	43924.83
560.96	43714.19
561.12	43618.22
561.29	43966.96
561.45	43526.94
561.61	44027.82
561.78	43384.17
561.94	43438.00
562.11	43604.18
562.27	43433.32
562.44	43475.45
562.60	43674.40
562.77	44009.09
562.93	43716.53
563.10	44194.00
563.26	43533.96
563.42	44095.69
563.59	43756.32
563.75	43728.23
563.92	43711.84
564.08	43985.69
564.24	44552.10
564.41	44098.03
564.57	44182.29
564.74	43796.10
564.90	43828.87
565.07	43971.64
565.23	43620.56
565.39	43807.81
565.56	43924.83
565.72	44177.61
565.88	43761.00
566.05	43995.05
566.21	43882.70
566.38	43917.81
566.54	44009.09
566.70	44212.72
566.87	44399.96
567.03	44114.42
567.19	44011.43
567.36	44079.31
567.52	44470.18
567.68	44362.51
567.85	44292.30
568.01	44538.05
568.17	44032.50
568.34	44306.34
568.50	44451.45
568.66	43805.47
568.83	44374.22
568.99	43847.60
569.15	44245.49
569.32	44231.44
569.48	44020.80
569.64	44348.47
569.81	44807.22
569.97	44341.45
570.13	43934.20
570.30	43931.86
570.46	44325.07
570.62	44102.71
570.78	44013.77
570.95	43821.85
571.11	44495.92
571.27	44266.55
571.43	44495.92
571.60	44753.38
571.76	44491.24
571.92	44465.50
572.09	44332.09
572.25	44257.19
572.41	44364.85
572.57	44456.14
572.74	44926.58
572.90	44329.75
573.06	44732.32
573.22	44486.56
573.38	44376.56
573.55	43957.60
573.71	44708.91
573.87	44821.26
574.03	44336.77
574.20	44692.53
574.36	44172.93
574.52	44751.04
574.68	44390.60
574.84	44683.17
575.01	44561.46
575.17	44601.25
575.33	44109.74
575.49	43959.94
575.65	45146.59
575.82	44844.66
575.98	44526.35
576.14	44884.45
576.30	44563.80
576.46	44657.42
576.62	44069.95
576.79	44577.84
576.95	44058.24
577.11	44376.56
577.27	44481.88
577.43	44832.96
577.59	44465.50
577.75	44568.48
577.92	44369.54
578.08	44657.42
578.24	44194.00
578.40	44446.77
578.56	44299.32
578.72	44208.04
578.88	44912.54
579.04	44996.80
579.21	44615.29
579.37	44634.02
579.53	44570.82
579.69	44271.23
579.85	44741.68
580.01	44505.29
580.17	44566.14
580.33	45071.70
580.49	44488.90
580.65	45214.47
580.82	45038.93
580.98	44498.26
581.14	44236.12
581.30	44762.75
581.46	44781.47
581.62	44746.36
581.78	44521.67
581.94	44889.13
582.10	44811.90
582.26	44870.41
582.42	44582.52
582.58	44516.99
582.74	44177.61
582.90	44608.27
583.06	44526.35
583.22	45055.31
583.38	44694.87
583.54	44624.65
583.70	44776.79
583.86	45050.63
584.02	44542.74
584.18	44423.37
584.34	44477.20
584.50	44790.83
584.66	44678.49
584.82	44509.97
584.98	44928.92
585.14	45017.86
585.30	44556.78
585.46	44603.59
585.62	44116.76
585.78	44706.57
585.94	44535.71
586.10	44172.93
586.26	44367.20
586.42	44673.81
586.58	45153.62
586.74	44774.45
586.90	44439.75
587.06	44643.38
587.22	45155.96
587.38	44549.76
587.54	45006.16
587.70	44795.51
587.86	45263.62
588.02	44762.75
588.18	44886.79
588.34	44524.01
588.49	44626.99
588.65	44842.32
588.81	44528.69
588.97	44519.33
589.13	44444.43
589.29	44659.76
589.45	45127.87
589.61	44767.43
589.77	44800.19
589.93	44952.33
590.08	45385.33
590.24	45193.40
