SpectraSuite Data File
++++++++++++++++++++++++++++++++++++
Date: Fri Oct 25 11:34:01 EDT 2013
User: price-jones
Dark Spectrum Present: No
Reference Spectrum Present: No
Number of Sampled Component Spectra: 1
Spectrometers: USB2+H05261
Integration Time (usec): 100000 (USB2+H05261)
Spectra Averaged: 1 (USB2+H05261)
Boxcar Smoothing: 0 (USB2+H05261)
Correct for Electrical Dark: No (USB2+H05261)
Strobe/Lamp Enabled: No (USB2+H05261)
Correct for Detector Non-linearity: No (USB2+H05261)
Correct for Stray Light: No (USB2+H05261)
Number of Pixels in Processed Spectrum: 2048
>>>>>Begin Processed Spectral Data<<<<<
365.73	238.73
365.92	238.73
366.12	238.73
366.32	236.39
366.52	159.16
366.72	166.18
366.91	210.65
367.11	236.39
367.31	187.24
367.51	161.50
367.70	168.52
367.90	154.48
368.10	163.84
368.30	168.52
368.49	182.56
368.69	231.71
368.89	264.48
369.09	215.33
369.28	212.99
369.48	140.43
369.68	117.03
369.87	252.78
370.07	149.79
370.27	250.44
370.47	315.97
370.66	444.70
370.86	552.37
371.06	463.43
371.25	578.11
371.45	557.05
371.65	603.86
371.84	552.37
372.04	573.43
372.24	580.45
372.44	601.52
372.63	505.56
372.83	662.37
373.03	582.79
373.22	648.33
373.42	617.90
373.62	599.18
373.81	624.92
374.01	660.03
374.21	655.35
374.40	608.54
374.60	610.88
374.79	678.76
374.99	713.86
375.19	624.92
375.38	631.94
375.58	643.65
375.78	748.97
375.97	702.16
376.17	688.12
376.37	650.67
376.56	685.78
376.76	706.84
376.95	716.20
377.15	685.78
377.35	662.37
377.54	702.16
377.74	678.76
377.93	620.24
378.13	683.44
378.33	727.91
378.52	730.25
378.72	741.95
378.91	664.71
379.11	765.36
379.31	732.59
379.50	662.37
379.70	653.01
379.89	751.31
380.09	713.86
380.28	739.61
380.48	737.27
380.68	709.18
380.87	734.93
381.07	770.04
381.26	753.65
381.46	781.74
381.65	784.08
381.85	784.08
382.04	760.67
382.24	774.72
382.43	844.93
382.63	863.66
382.83	702.16
383.02	739.61
383.22	816.85
383.41	760.67
383.61	793.44
383.80	753.65
384.00	786.42
384.19	786.42
384.39	814.51
384.58	816.85
384.78	870.68
384.97	823.87
385.17	901.11
385.36	828.55
385.56	884.72
385.75	842.59
385.95	828.55
386.14	887.06
386.34	781.74
386.53	819.19
386.72	889.40
386.92	933.87
387.11	910.47
387.31	905.79
387.50	844.93
387.70	837.91
387.89	950.26
388.09	828.55
388.28	943.24
388.48	856.64
388.67	933.87
388.86	854.30
389.06	880.04
389.25	931.53
389.45	903.45
389.64	866.00
389.84	924.51
390.03	929.19
390.22	1048.56
390.42	985.37
390.61	957.28
390.81	1029.84
391.00	933.87
391.19	1020.47
391.39	912.81
391.58	1025.15
391.78	976.00
391.97	959.62
392.16	1006.43
392.36	1018.13
392.55	1064.94
392.75	1046.22
392.94	971.32
393.13	1043.88
393.33	1043.88
393.52	1086.01
393.71	1067.28
393.91	1081.33
394.10	1039.20
394.29	1029.84
394.49	1086.01
394.68	1069.62
394.88	1046.22
395.07	1219.42
395.26	1146.86
395.46	1121.12
395.65	1135.16
395.84	1144.52
396.04	1259.21
396.23	1132.82
396.42	1109.41
396.62	1263.89
396.81	1256.87
397.00	1179.63
397.19	1179.63
397.39	1289.64
397.58	1263.89
397.77	1306.02
397.97	1320.06
398.16	1282.61
398.35	1338.79
398.55	1231.12
398.74	1263.89
398.93	1352.83
399.12	1203.04
399.32	1336.45
399.51	1329.42
399.70	1301.34
399.90	1373.89
400.09	1376.24
400.28	1320.06
400.47	1394.96
400.67	1320.06
400.86	1455.81
401.05	1533.05
401.24	1383.26
401.44	1455.81
401.63	1483.90
401.82	1441.77
402.01	1465.18
402.21	1380.92
402.40	1465.18
402.59	1519.01
402.78	1521.35
402.97	1467.52
403.17	1507.30
403.36	1493.26
403.55	1401.98
403.74	1451.13
403.93	1544.75
404.13	1584.54
404.32	1638.38
404.51	1584.54
404.70	1626.67
404.89	1558.80
405.09	1703.91
405.28	1764.76
405.47	1743.70
405.66	1713.27
405.85	1682.85
406.05	1675.82
406.24	1678.16
406.43	1703.91
406.62	1797.53
406.81	1881.79
407.00	1832.64
407.20	1781.15
407.39	1748.38
407.58	1729.66
407.77	1748.38
407.96	1891.15
408.15	1881.79
408.34	1839.66
408.54	1842.00
408.73	1914.56
408.92	1802.21
409.11	1973.07
409.30	1909.88
409.49	1914.56
409.68	1949.67
409.87	1989.46
410.07	1975.41
410.26	2015.20
410.45	2015.20
410.64	2069.03
410.83	2059.67
411.02	2078.40
411.21	2190.74
411.40	2104.14
411.59	2188.40
411.78	2127.55
411.98	2221.17
412.17	2190.74
412.36	2235.21
412.55	2312.45
412.74	2317.13
412.93	2211.81
413.12	2335.85
413.31	2340.54
413.50	2321.81
413.69	2459.90
413.88	2408.41
414.07	2469.27
414.26	2452.88
414.45	2436.50
414.64	2429.48
414.83	2523.10
415.02	2558.21
415.22	2579.27
415.41	2651.83
415.60	2628.42
415.79	2626.08
415.98	2672.89
416.17	2759.49
416.36	2747.79
416.55	2829.71
416.74	2822.69
416.93	2808.64
417.12	2803.96
417.31	2860.13
417.50	2869.50
417.69	2958.44
417.88	2883.54
418.07	2991.20
418.26	2885.88
418.45	2925.67
418.64	3166.74
418.83	3063.76
419.02	2967.80
419.21	3052.06
419.39	3119.93
419.58	3063.76
419.77	3021.63
419.96	3126.96
420.15	3255.69
420.34	3155.04
420.53	3038.02
420.72	3148.02
420.91	3222.92
421.10	3227.60
421.29	3199.51
421.48	3164.40
421.67	3187.81
421.86	3267.39
422.05	3276.75
422.24	3307.18
422.43	3389.10
422.61	3379.73
422.80	3400.80
422.99	3349.31
423.18	3361.01
423.37	3431.23
423.56	3417.18
423.75	3342.28
423.94	3295.47
424.13	3192.49
424.32	3056.74
424.50	3368.03
424.69	3534.21
424.88	3417.18
425.07	3398.46
425.26	3452.29
425.45	3384.41
425.64	3321.22
425.83	3302.50
426.01	3536.55
426.20	3531.87
426.39	3494.42
426.58	3459.31
426.77	3536.55
426.96	3569.32
427.15	3517.83
427.33	3566.98
427.52	3571.66
427.71	3522.51
427.90	3588.04
428.09	3571.66
428.28	3620.81
428.46	3679.32
428.65	3644.21
428.84	3686.34
429.03	3693.37
429.22	3564.64
429.40	3798.69
429.59	3716.77
429.78	3559.95
429.97	3667.62
430.16	3798.69
430.34	3719.11
430.53	3852.52
430.72	3791.67
430.91	3847.84
431.10	3784.65
431.28	3899.33
431.47	4009.34
431.66	3985.93
431.85	3770.60
432.03	3990.61
432.22	4037.42
432.41	4053.81
432.60	3957.85
432.79	4046.79
432.97	4039.76
433.16	4081.89
433.35	4084.23
433.54	4156.79
433.72	4140.41
433.91	4166.15
434.10	4219.99
434.28	4196.58
434.47	4053.81
434.66	4250.41
434.85	4287.86
435.03	4393.19
435.22	4262.12
435.41	4327.65
435.59	4313.61
435.78	4421.27
435.97	4538.30
436.16	4381.48
436.34	4411.91
436.53	4271.48
436.72	4440.00
436.90	4322.97
437.09	4535.96
437.28	4334.67
437.46	4407.23
437.65	4526.60
437.84	4571.07
438.02	4526.60
438.21	4440.00
438.40	4381.48
438.58	4784.06
438.77	4788.74
438.96	4674.05
439.14	4833.21
439.33	4877.68
439.52	4840.23
439.70	4884.70
439.89	4985.34
440.08	4945.55
440.26	4987.68
440.45	4844.91
440.63	5191.31
440.82	5139.82
441.01	5090.67
441.19	5081.30
441.38	5217.05
441.57	5186.63
441.75	5263.86
441.94	5226.42
442.12	5324.72
442.31	5261.52
442.50	5434.72
442.68	5310.68
442.87	5423.02
443.05	5348.12
443.24	5537.71
443.43	5518.98
443.61	5427.70
443.80	5591.54
443.98	5350.46
444.17	5273.23
444.35	5575.16
444.54	5628.99
444.73	5432.38
444.91	5619.63
445.10	5535.37
445.28	5586.86
445.47	5542.39
445.65	5666.44
445.84	5643.03
446.02	5586.86
446.21	5593.88
446.39	5720.27
446.58	5643.03
446.77	5605.58
446.95	5575.16
447.14	5561.11
447.32	5891.13
447.51	5757.72
447.69	5736.65
447.88	5816.23
448.06	5626.65
448.25	5673.46
448.43	5746.02
448.62	5790.49
448.80	5654.73
448.99	5923.90
449.17	5863.04
449.36	5797.51
449.54	5858.36
449.73	5865.38
449.91	6073.69
450.10	5956.66
450.28	6031.56
450.46	6059.65
450.65	5942.62
450.83	6197.74
451.02	6061.99
451.20	6216.46
451.39	6029.22
451.57	6139.23
451.76	6148.59
451.94	6272.64
452.13	6263.27
452.31	6169.65
452.49	6043.26
452.68	6167.31
452.86	6368.60
453.05	6300.72
453.23	6303.06
453.42	6293.70
453.60	6207.10
453.78	6267.95
453.97	6296.04
454.15	6324.13
454.34	6277.32
454.52	6368.60
454.70	6441.15
454.89	6487.96
455.07	6539.46
455.26	6572.22
455.44	6583.93
455.62	6569.88
455.81	6729.04
455.99	6658.82
456.17	6661.16
456.36	6712.66
456.54	6834.36
456.73	6864.79
456.91	6881.18
457.09	6937.35
457.28	7026.29
457.46	6820.32
457.64	6979.48
457.83	6902.24
458.01	6913.94
458.19	7026.29
458.38	6956.07
458.56	7000.54
458.74	6979.48
458.93	7023.95
459.11	7143.32
459.29	7171.40
459.48	7330.56
459.66	7358.64
459.84	7218.21
460.03	7487.37
460.21	7206.51
460.39	7014.59
460.57	7372.69
460.76	7452.27
460.94	7508.44
461.12	7386.73
461.31	7569.29
461.49	7325.88
461.67	7377.37
461.85	7660.57
462.04	7522.48
462.22	7969.52
462.40	7611.42
462.59	7583.34
462.77	7559.93
462.95	7737.81
463.13	7599.72
463.32	7815.05
463.50	7660.57
463.68	7950.80
463.86	7786.96
464.05	7651.21
464.23	7803.35
464.41	7866.54
464.59	7665.25
464.78	8063.15
464.96	7957.82
465.14	7868.88
465.32	7969.52
465.50	7997.61
465.69	7971.86
465.87	8056.12
466.05	8067.83
466.23	8025.70
466.41	8079.53
466.60	8142.72
466.78	8191.88
466.96	8091.23
467.14	8128.68
467.32	8229.32
467.51	8245.71
467.69	8051.44
467.87	8248.05
468.05	8355.71
468.23	8175.49
468.41	8215.28
468.60	8339.33
468.78	8294.86
468.96	8397.84
469.14	8498.49
469.32	8554.66
469.50	8540.61
469.69	8606.15
469.87	8805.10
470.05	8664.66
470.23	8858.93
470.41	8727.86
470.59	8730.20
470.77	8751.26
470.95	8748.92
471.14	8987.66
471.32	8657.64
471.50	8938.51
471.68	9102.34
471.86	8978.30
472.04	9039.15
472.22	9165.54
472.40	8999.36
472.58	9067.24
472.77	9242.78
472.95	9350.44
473.13	9497.89
473.31	9153.84
473.49	9184.26
473.67	9423.00
473.85	9315.33
474.03	9458.10
474.21	9633.64
474.39	9661.73
474.57	9401.93
474.75	9685.14
474.93	9818.55
475.12	9863.02
475.30	9750.67
475.48	9966.00
475.66	10127.50
475.84	9851.31
476.02	10153.24
476.20	10047.92
476.38	10354.53
476.56	10307.72
476.74	10324.10
476.92	10424.75
477.10	10401.34
477.28	10452.83
477.46	10644.76
477.64	10689.23
477.82	10775.83
478.00	10902.22
478.18	10970.09
478.36	11033.29
478.54	11227.55
478.72	11178.40
478.90	11482.67
479.08	11253.30
479.26	11463.94
479.44	11400.75
479.62	11470.97
479.80	11461.60
479.98	11761.19
480.16	12147.38
480.34	12086.53
480.52	12105.25
480.70	12126.32
480.88	11892.26
481.06	12358.03
481.24	12353.35
481.41	12521.87
481.59	12634.21
481.77	12676.34
481.95	12470.37
482.13	12809.75
482.31	12685.70
482.49	13231.05
482.67	13018.06
482.85	13177.22
483.03	13401.91
483.21	13453.40
483.39	13528.30
483.57	13799.80
483.74	13830.23
483.92	13855.97
484.10	13799.80
484.28	14127.47
484.46	14429.40
484.64	14576.86
484.82	14270.25
485.00	14436.42
485.18	14789.85
485.35	14958.36
485.53	14759.42
485.71	15122.20
485.89	15054.33
486.07	15026.24
486.25	15145.61
486.43	15356.25
486.61	15566.90
486.78	15620.74
486.96	15379.66
487.14	15815.00
487.32	15915.64
487.50	15833.72
487.68	16255.02
487.85	16189.49
488.03	16521.84
488.21	16662.27
488.39	16575.67
488.57	16802.71
488.75	17406.56
488.92	17076.55
489.10	17455.72
489.28	17334.01
489.46	17593.81
489.64	17727.22
489.81	17853.61
489.99	17678.07
490.17	17994.04
490.35	18279.58
490.53	18225.75
490.70	18478.53
490.88	18097.02
491.06	18651.73
491.24	18731.31
491.41	18944.30
491.59	18967.70
491.77	19168.99
491.95	19447.51
492.13	19115.16
492.30	19119.84
492.48	19578.58
492.66	19424.11
492.84	19515.39
493.01	19796.25
493.19	20189.46
493.37	20159.03
493.54	20018.60
493.72	20493.73
493.90	20458.62
494.08	20400.11
494.25	20400.11
494.43	20716.08
494.61	20760.55
494.79	21015.67
494.96	20812.04
495.14	21106.95
495.32	21544.63
495.49	21502.50
495.67	21460.37
495.85	22029.12
496.02	21914.44
496.20	22249.13
496.38	21958.91
496.55	22024.44
496.73	22597.87
496.91	22190.62
497.09	22658.73
497.26	22862.35
497.44	22527.66
497.62	22735.96
497.79	23147.90
497.97	22906.82
498.14	23215.77
498.32	23288.33
498.50	23431.10
498.67	23667.50
498.85	23503.66
499.03	23672.18
499.20	23679.20
499.38	24198.80
499.56	24013.90
499.73	24219.86
499.91	24306.46
500.08	24641.16
500.26	24301.78
500.44	24114.54
500.61	24556.90
500.79	24393.06
500.97	24671.59
501.14	25146.72
501.32	24877.55
501.49	25034.37
501.67	24797.98
501.84	25067.14
502.02	24950.11
502.20	25270.76
502.37	25090.54
502.55	25252.04
502.72	25628.87
502.90	25472.05
503.07	25458.01
503.25	25937.82
503.43	25626.53
503.60	26038.46
503.78	26122.72
503.95	25949.52
504.13	25736.53
504.30	26143.78
504.48	26541.68
504.65	26609.55
504.83	26445.71
505.01	26904.46
505.18	26665.72
505.36	26724.24
505.53	27164.26
505.71	26773.39
505.88	27232.13
506.06	26918.50
506.23	27192.34
506.41	27232.13
506.58	27377.25
506.76	27419.38
506.93	27447.46
507.11	27473.21
507.28	27831.31
507.46	27690.88
507.63	27962.38
507.81	28058.34
507.98	27812.59
508.16	28070.04
508.33	28091.11
508.50	28484.32
508.68	28364.95
508.85	28208.14
509.03	28278.35
509.20	28493.68
509.38	29252.02
509.55	28690.29
509.73	28547.51
509.90	28804.97
510.08	28943.06
510.25	29041.37
510.42	29228.61
510.60	29397.13
510.77	29387.77
510.95	29413.51
511.12	29551.60
511.30	29823.11
511.47	29731.83
511.64	29743.53
511.82	30082.91
511.99	29771.61
512.17	30019.71
512.34	30075.88
512.51	30316.96
512.69	30497.18
512.86	30143.76
513.04	30462.07
513.21	30567.40
513.38	30827.20
513.56	30855.28
513.73	30799.11
513.90	30490.16
514.08	31021.46
514.25	30841.24
514.43	31236.79
514.60	31463.82
514.77	31402.97
514.95	31260.20
515.12	31082.31
515.29	31253.17
515.47	31828.95
515.64	31405.31
515.81	31372.54
515.99	31688.51
516.16	32114.49
516.33	31765.75
516.51	32245.56
516.68	31819.58
516.85	31721.28
517.03	32130.87
517.20	32210.45
517.37	32505.36
517.54	32313.44
517.72	32547.49
517.89	32140.24
518.06	32739.41
518.24	32369.61
518.41	32613.02
518.58	32718.35
518.75	32540.47
518.93	32809.63
519.10	32929.00
519.27	32961.76
519.45	33432.21
519.62	33181.77
519.79	33228.59
519.96	33270.72
520.14	33343.27
520.31	33273.06
520.48	33031.98
520.65	33404.13
520.83	33537.54
521.00	33764.57
521.17	34054.79
521.34	34073.52
521.52	33958.83
521.69	34050.11
521.86	34031.39
522.03	34319.28
522.20	34108.63
522.38	34834.19
522.55	34476.09
522.72	34363.75
522.89	34583.76
523.07	34763.98
523.24	34672.70
523.41	34934.84
523.58	35143.14
523.75	35283.58
523.92	35332.73
524.10	35248.47
524.27	35086.97
524.44	35358.47
524.61	35718.92
524.78	35379.54
524.96	35627.63
525.13	35377.20
525.30	35515.29
525.47	36030.21
525.64	35639.34
525.81	35487.20
525.98	35875.73
526.16	35573.80
526.33	35814.88
526.50	35952.97
526.67	36156.60
526.84	36142.55
527.01	36442.14
527.18	36095.74
527.36	36336.82
527.53	36381.29
527.70	36559.17
527.87	37109.19
528.04	36556.83
528.21	36594.28
528.38	36720.66
528.55	36669.17
528.72	36442.14
528.89	36889.18
529.07	36493.63
529.24	37036.64
529.41	37237.92
529.58	36921.95
529.75	36975.78
529.92	37053.02
530.09	36851.73
530.26	37022.59
530.43	37174.73
530.60	37074.09
530.77	37347.93
530.94	37123.24
531.11	37443.89
531.28	37528.15
531.46	37322.18
531.63	37806.67
531.80	37280.05
531.97	37581.98
532.14	38148.39
532.31	37694.33
532.48	38127.33
532.65	37813.70
532.82	37832.42
532.99	38052.43
533.16	38061.79
533.33	38630.54
533.50	38099.24
533.67	38227.97
533.84	38185.84
534.01	38155.41
534.18	38293.50
534.35	38529.90
534.52	38565.01
534.69	38944.17
534.86	38749.91
535.03	38244.35
535.20	38572.03
535.37	38752.25
535.54	38862.26
535.71	38506.49
535.88	39042.48
536.05	39346.75
536.22	39360.79
536.38	38815.44
536.55	38820.13
536.72	38909.07
536.89	39262.49
537.06	39667.40
537.23	39356.11
537.40	39100.99
537.57	39021.41
537.74	39309.30
537.91	39749.32
538.08	39243.76
538.25	39344.41
538.42	39489.52
538.59	39838.26
538.75	39578.46
538.92	39732.93
539.09	40144.87
539.26	40034.86
539.43	40065.29
539.60	39620.59
539.77	40179.98
539.94	40474.88
540.11	40116.78
540.28	40385.94
540.44	39945.92
540.61	40306.37
540.78	39847.62
540.95	40187.00
541.12	40601.27
541.29	40112.10
541.46	40694.89
541.62	40240.83
541.79	41050.66
541.96	40128.48
542.13	40278.28
542.30	40809.58
542.47	40367.22
542.63	40802.56
542.80	41148.96
542.97	41233.22
543.14	41385.35
543.31	41095.13
543.48	41289.39
543.64	41614.72
543.81	41736.43
543.98	41717.71
544.15	41745.80
544.32	41516.42
544.48	41787.92
544.65	41783.24
544.82	41743.45
544.99	41439.18
545.16	41654.51
545.32	41797.29
545.49	42068.79
545.66	42052.41
545.83	41694.30
546.00	41958.78
546.16	41448.55
546.33	41834.74
546.50	41841.76
546.67	42162.41
546.83	41617.07
547.00	42007.94
547.17	42117.94
547.34	41839.42
547.50	42237.31
547.67	42452.64
547.84	42225.60
548.00	42344.97
548.17	42447.96
548.34	42705.41
548.51	42635.20
548.67	42777.97
548.84	43072.88
549.01	42452.64
549.18	42513.49
549.34	42597.75
549.51	42726.48
549.68	43084.58
549.84	42567.32
550.01	43105.65
550.18	42447.96
550.34	42721.80
550.51	42976.92
550.68	43246.08
550.84	42983.94
551.01	43112.67
551.18	43051.81
551.34	42979.26
551.51	43433.32
551.68	42686.69
551.84	43182.88
552.01	43187.56
552.18	43325.66
552.34	42866.91
552.51	43297.57
552.68	43220.33
552.84	43213.31
553.01	43480.13
553.18	43793.76
553.34	43728.23
553.51	43782.06
553.67	43618.22
553.84	44004.41
554.01	43887.39
554.17	43695.46
554.34	43838.23
554.51	43768.02
554.67	44098.03
554.84	44203.36
555.00	43871.00
555.17	44109.74
555.33	43812.49
555.50	44247.83
555.67	43936.54
555.83	44086.33
556.00	44121.44
556.16	45015.52
556.33	44308.68
556.50	44376.56
556.66	44170.59
556.83	44004.41
556.99	44769.77
557.16	44641.04
557.32	44830.62
557.49	44470.18
557.65	44154.21
557.82	44428.05
557.98	44612.95
558.15	44933.60
558.32	44982.76
558.48	44395.28
558.65	44467.84
558.81	44821.26
558.98	44870.41
559.14	44554.44
559.31	44751.04
559.47	44732.32
559.64	44650.40
559.80	44919.56
559.97	45043.61
560.13	44968.71
560.30	44631.68
560.46	45170.00
560.63	45083.40
560.79	45521.08
560.96	45284.68
561.12	45031.91
561.29	45326.81
561.45	45015.52
561.61	44832.96
561.78	44940.63
561.94	45258.94
562.11	45057.65
562.27	45380.65
562.44	45258.94
562.60	45036.59
562.77	45085.74
562.93	45296.39
563.10	45350.22
563.26	45450.86
563.42	45481.29
563.59	45221.49
563.75	45102.12
563.92	45282.34
564.08	45368.94
564.24	45680.24
564.41	45703.64
564.57	45553.85
564.74	45165.32
564.90	45432.14
565.07	45401.71
565.23	45083.40
565.39	45485.97
565.56	45607.68
565.72	45935.35
565.88	45862.80
566.05	45085.74
566.21	45497.67
566.38	45352.56
566.54	45696.62
566.70	45818.33
566.87	45399.37
567.03	45448.52
567.19	45315.11
567.36	45876.84
567.52	45738.75
567.68	46218.56
567.85	45680.24
568.01	45865.14
568.17	46061.74
568.34	45935.35
568.50	45902.59
568.66	45865.14
568.83	45682.58
568.99	45687.26
569.15	46134.30
569.32	45813.65
569.48	45968.12
569.64	46087.49
569.81	46059.40
569.97	46052.38
570.13	46298.14
570.30	46014.93
570.46	46293.46
570.62	45621.72
570.78	46274.73
570.95	46286.43
571.11	46520.49
571.27	46110.89
571.43	46239.62
571.60	46445.59
571.76	45935.35
571.92	46136.64
572.09	46106.21
572.25	46031.32
572.41	46071.10
572.57	46330.90
572.74	46560.28
572.90	46366.01
573.06	46321.54
573.22	46323.88
573.38	46445.59
573.55	46508.79
573.71	46607.09
573.87	46211.54
574.03	46337.93
574.20	46740.50
574.36	46803.69
574.52	46635.17
574.68	46408.14
574.84	46361.33
575.01	46579.00
575.17	46277.07
575.33	46146.00
575.49	46024.29
575.65	46499.42
575.82	46295.80
575.98	46157.70
576.14	46504.10
576.30	46642.20
576.46	46412.82
576.62	46532.19
576.79	46143.66
576.95	46047.70
577.11	46167.07
577.27	46361.33
577.43	46024.29
577.59	46248.99
577.75	46047.70
577.92	46260.69
578.08	46595.38
578.24	46628.15
578.40	46600.07
578.56	46941.78
578.72	46670.28
578.88	46340.27
579.04	46609.43
579.21	46469.00
579.37	46230.26
579.53	46483.04
579.69	46340.27
579.85	46366.01
580.01	46321.54
580.17	46841.14
580.33	46703.05
580.49	46564.96
580.65	46461.97
580.82	46354.31
580.98	46525.17
581.14	46499.42
581.30	46721.77
581.46	46464.32
581.62	46644.54
581.78	46375.37
581.94	46426.87
582.10	46328.56
582.26	46609.43
582.42	46396.44
582.58	46211.54
582.74	46813.05
582.90	46398.78
583.06	46810.71
583.22	46562.62
583.38	47145.41
583.54	46480.70
583.70	46899.65
583.86	46848.16
584.02	46553.26
584.18	47129.03
584.34	46855.18
584.50	46988.60
584.66	47147.75
584.82	46871.57
584.98	46951.15
585.14	46768.58
585.30	46944.12
585.46	46707.73
585.62	46466.66
585.78	46822.42
585.94	46487.72
586.10	46876.25
586.26	46710.07
586.42	46630.49
586.58	46916.04
586.74	46649.22
586.90	46761.56
587.06	47461.38
587.22	46639.86
587.38	46967.53
587.54	46721.77
587.70	47033.07
587.86	46782.63
588.02	46651.56
588.18	46850.50
588.34	46808.37
588.49	46967.53
588.65	46911.36
588.81	46593.04
588.97	46838.80
589.13	47061.15
589.29	46902.00
589.45	47054.13
589.61	46955.83
589.77	47269.46
589.93	46848.16
590.08	46972.21
