SpectraSuite Data File
++++++++++++++++++++++++++++++++++++
Date: Fri Oct 25 11:33:55 EDT 2013
User: price-jones
Dark Spectrum Present: No
Reference Spectrum Present: No
Number of Sampled Component Spectra: 1
Spectrometers: USB2+H05261
Integration Time (usec): 100000 (USB2+H05261)
Spectra Averaged: 1 (USB2+H05261)
Boxcar Smoothing: 0 (USB2+H05261)
Correct for Electrical Dark: No (USB2+H05261)
Strobe/Lamp Enabled: No (USB2+H05261)
Correct for Detector Non-linearity: No (USB2+H05261)
Correct for Stray Light: No (USB2+H05261)
Number of Pixels in Processed Spectrum: 2048
>>>>>Begin Processed Spectral Data<<<<<
365.73	294.91
365.92	294.91
366.12	294.91
366.32	191.92
366.52	220.01
366.72	163.84
366.91	173.20
367.11	147.45
367.31	187.24
367.51	112.35
367.70	138.09
367.90	208.31
368.10	231.71
368.30	180.22
368.49	189.58
368.69	255.12
368.89	184.90
369.09	203.63
369.28	205.97
369.48	217.67
369.68	177.88
369.87	182.56
370.07	241.08
370.27	285.55
370.47	276.18
370.66	449.38
370.86	547.69
371.06	526.62
371.25	585.13
371.45	465.77
371.65	461.09
371.84	571.09
372.04	589.82
372.24	533.64
372.44	514.92
372.63	601.52
372.83	571.09
373.03	624.92
373.22	610.88
373.42	624.92
373.62	615.56
373.81	606.20
374.01	678.76
374.21	571.09
374.40	582.79
374.60	641.31
374.79	634.29
374.99	624.92
375.19	676.41
375.38	650.67
375.58	688.12
375.78	711.52
375.97	573.43
376.17	688.12
376.37	587.47
376.56	725.57
376.76	653.01
376.95	678.76
377.15	737.27
377.35	648.33
377.54	704.50
377.74	678.76
377.93	688.12
378.13	744.29
378.33	748.97
378.52	648.33
378.72	755.99
378.91	697.48
379.11	739.61
379.31	702.16
379.50	699.82
379.70	727.91
379.89	688.12
380.09	727.91
380.28	671.73
380.48	683.44
380.68	706.84
380.87	755.99
381.07	763.01
381.26	739.61
381.46	833.23
381.65	791.10
381.85	744.29
382.04	774.72
382.24	730.25
382.43	828.55
382.63	746.63
382.83	744.29
383.02	856.64
383.22	830.89
383.41	819.19
383.61	795.78
383.80	854.30
384.00	837.91
384.19	788.76
384.39	798.12
384.58	788.76
384.78	835.57
384.97	812.17
385.17	917.49
385.36	821.53
385.56	933.87
385.75	901.11
385.95	819.19
386.14	812.17
386.34	844.93
386.53	901.11
386.72	863.66
386.92	950.26
387.11	868.34
387.31	866.00
387.50	896.43
387.70	889.40
387.89	940.90
388.09	873.02
388.28	884.72
388.48	929.19
388.67	971.32
388.86	926.85
389.06	961.96
389.25	896.43
389.45	940.90
389.64	1020.47
389.84	971.32
390.03	936.21
390.22	943.24
390.42	922.17
390.61	978.34
390.81	968.98
391.00	1074.31
391.19	1034.52
391.39	999.41
391.58	968.98
391.78	1043.88
391.97	1078.99
392.16	1048.56
392.36	1102.39
392.55	1046.22
392.75	1069.62
392.94	1027.50
393.13	1118.78
393.33	1060.26
393.52	1116.44
393.71	1076.65
393.91	1074.31
394.10	915.15
394.29	1170.27
394.49	1086.01
394.68	1036.86
394.88	1088.35
395.07	1107.07
395.26	1114.10
395.46	1093.03
395.65	1219.42
395.84	1130.48
396.04	1306.02
396.23	1214.74
396.42	1203.04
396.62	1306.02
396.81	1170.27
397.00	1172.61
397.19	1174.95
397.39	1226.44
397.58	1198.35
397.77	1226.44
397.97	1329.42
398.16	1261.55
398.35	1203.04
398.55	1289.64
398.74	1214.74
398.93	1282.61
399.12	1249.85
399.32	1231.12
399.51	1348.15
399.70	1320.06
399.90	1249.85
400.09	1334.11
400.28	1359.85
400.47	1338.79
400.67	1390.28
400.86	1390.28
401.05	1376.24
401.24	1502.62
401.44	1469.86
401.63	1420.71
401.82	1509.65
402.01	1425.39
402.21	1446.45
402.40	1535.39
402.59	1483.90
402.78	1493.26
402.97	1511.99
403.17	1551.78
403.36	1493.26
403.55	1523.69
403.74	1610.29
403.93	1591.56
404.13	1575.18
404.32	1579.86
404.51	1530.71
404.70	1729.66
404.89	1633.69
405.09	1626.67
405.28	1701.57
405.47	1710.93
405.66	1682.85
405.85	1755.40
406.05	1593.90
406.24	1795.19
406.43	1741.36
406.62	1769.44
406.81	1802.21
407.00	1732.00
407.20	1729.66
407.39	1872.43
407.58	1874.77
407.77	1851.36
407.96	1797.53
408.15	1891.15
408.34	1980.09
408.54	1877.11
408.73	1837.32
408.92	1907.54
409.11	1921.58
409.30	2017.54
409.49	1963.71
409.68	2040.95
409.87	1933.28
410.07	2024.56
410.26	2076.06
410.45	2052.65
410.64	2101.80
410.83	2127.55
411.02	2038.61
411.21	2141.59
411.40	2073.71
411.59	2113.50
411.78	2207.13
411.98	2246.91
412.17	2253.94
412.36	2349.90
412.55	2321.81
412.74	2370.96
412.93	2434.16
413.12	2279.68
413.31	2363.94
413.50	2406.07
413.69	2347.56
413.88	2436.50
414.07	2382.67
414.26	2551.18
414.45	2469.27
414.64	2483.31
414.83	2497.35
415.02	2558.21
415.22	2490.33
415.41	2619.06
415.60	2562.89
415.79	2593.31
415.98	2878.86
416.17	2712.68
416.36	2822.69
416.55	2656.51
416.74	2719.70
416.93	2829.71
417.12	2717.36
417.31	2883.54
417.50	2715.02
417.69	2909.29
417.88	2935.03
418.07	2885.88
418.26	2869.50
418.45	3084.83
418.64	3063.76
418.83	3021.63
419.02	3143.34
419.21	3059.08
419.39	3035.67
419.58	3098.87
419.77	3136.32
419.96	3141.00
420.15	3229.94
420.34	3269.73
420.53	3215.90
420.72	3225.26
420.91	3258.03
421.10	3173.77
421.29	3431.23
421.48	3215.90
421.67	3281.43
421.86	3206.53
422.05	3290.79
422.24	3342.28
422.43	3304.84
422.61	3283.77
422.80	3290.79
422.99	3417.18
423.18	3314.20
423.37	3454.63
423.56	3396.12
423.75	3435.91
423.94	3194.83
424.13	3075.46
424.32	3243.98
424.50	3433.57
424.69	3419.52
424.88	3433.57
425.07	3349.31
425.26	3471.01
425.45	3346.97
425.64	3400.80
425.83	3365.69
426.01	3578.68
426.20	3566.98
426.39	3447.61
426.58	3419.52
426.77	3414.84
426.96	3496.76
427.15	3510.80
427.33	3534.21
427.52	3485.06
427.71	3627.83
427.90	3679.32
428.09	3667.62
428.28	3702.73
428.46	3602.08
428.65	3651.24
428.84	3812.73
429.03	3887.63
429.22	3665.28
429.40	3751.88
429.59	3672.30
429.78	3660.60
429.97	3571.66
430.16	3866.56
430.34	3808.05
430.53	3845.50
430.72	3955.51
430.91	3831.46
431.10	3887.63
431.28	3939.12
431.47	3913.38
431.66	4053.81
431.85	3716.77
432.03	3953.16
432.22	4180.20
432.41	4046.79
432.60	4107.64
432.79	4084.23
432.97	3964.87
433.16	4065.51
433.35	4053.81
433.54	4159.13
433.72	4079.55
433.91	4119.34
434.10	4142.75
434.28	4109.98
434.47	4175.52
434.66	4219.99
434.85	4201.26
435.03	4344.03
435.22	4236.37
435.41	4393.19
435.59	4351.06
435.78	4388.50
435.97	4334.67
436.16	4397.87
436.34	4297.22
436.53	4503.19
436.72	4580.43
436.90	4341.69
437.09	4489.15
437.28	4383.82
437.46	4402.55
437.65	4461.06
437.84	4451.70
438.02	4578.09
438.21	4587.45
438.40	4566.39
438.58	4594.47
438.77	4671.71
438.96	4744.27
439.14	4807.46
439.33	4903.42
439.52	4873.00
439.70	4863.63
439.89	4938.53
440.08	5076.62
440.26	5050.88
440.45	5043.85
440.63	4959.60
440.82	5146.84
441.01	5018.11
441.19	5032.15
441.38	5247.48
441.57	5219.39
441.75	5322.38
441.94	5401.96
442.12	5371.53
442.31	5313.02
442.50	5310.68
442.68	5420.68
442.87	5413.66
443.05	5416.00
443.24	5551.75
443.43	5493.24
443.61	5593.88
443.80	5717.93
443.98	5432.38
444.17	5249.82
444.35	5638.35
444.54	5542.39
444.73	5607.92
444.91	5549.41
445.10	5570.48
445.28	5603.24
445.47	5748.36
445.65	5626.65
445.84	5853.68
446.02	5650.05
446.21	5781.12
446.39	5497.92
446.58	5600.90
446.77	5916.87
446.95	5652.39
447.14	5687.50
447.32	5692.18
447.51	5734.31
447.69	5638.35
447.88	5729.63
448.06	5701.54
448.25	5767.08
448.43	5912.19
448.62	5783.46
448.80	5792.83
448.99	5783.46
449.17	5921.56
449.36	5816.23
449.54	5825.59
449.73	5966.03
449.91	6207.10
450.10	5991.77
450.28	5996.45
450.46	6197.74
450.65	6136.88
450.83	6057.31
451.02	6026.88
451.20	6204.76
451.39	6080.71
451.57	6127.52
451.76	6141.57
451.94	6064.33
452.13	6186.04
452.31	6083.05
452.49	6108.80
452.68	6296.04
452.86	6186.04
453.05	6392.00
453.23	6291.36
453.42	6239.87
453.60	6338.17
453.78	6541.80
453.97	6359.24
454.15	6420.09
454.34	6326.47
454.52	6478.60
454.70	6478.60
454.89	6509.03
455.07	6443.49
455.26	6609.67
455.44	6717.34
455.62	6712.66
455.81	6696.27
455.99	6724.36
456.17	6771.17
456.36	6633.08
456.54	6621.38
456.73	6930.33
456.91	7056.72
457.09	6946.71
457.28	7061.40
457.46	6846.07
457.64	7012.24
457.83	7077.78
458.01	6953.73
458.19	7265.02
458.38	7091.82
458.56	7117.57
458.74	7162.04
458.93	7080.12
459.11	7276.73
459.29	7248.64
459.48	7229.91
459.66	7208.85
459.84	7126.93
460.03	7550.57
460.21	7304.81
460.39	7316.51
460.57	7527.16
460.76	7382.05
460.94	7531.84
461.12	7489.71
461.31	7595.04
461.49	7321.20
461.67	7456.95
461.85	7702.70
462.04	7698.02
462.22	7974.21
462.40	7749.51
462.59	7658.23
462.77	7627.81
462.95	7871.22
463.13	7838.45
463.32	7756.54
463.50	7861.86
463.68	7864.20
463.86	7887.61
464.05	7749.51
464.23	7772.92
464.41	7918.03
464.59	8030.38
464.78	8093.57
464.96	7943.78
465.14	7777.60
465.32	8030.38
465.50	8044.42
465.69	8077.19
465.87	8088.89
466.05	8023.36
466.23	8285.50
466.41	8163.79
466.60	8355.71
466.78	8100.59
466.96	8056.12
467.14	8189.53
467.32	8390.82
467.51	8444.65
467.69	8074.85
467.87	8201.24
468.05	8285.50
468.23	8255.07
468.41	8245.71
468.60	8493.80
468.78	8557.00
468.96	8496.14
469.14	8456.36
469.32	8489.12
469.50	8397.84
469.69	8725.52
469.87	8814.46
470.05	8454.02
470.23	8769.99
470.41	8592.11
470.59	8870.63
470.77	8779.35
470.95	8751.26
471.14	8938.51
471.32	8835.52
471.50	9078.94
471.68	9132.77
471.86	9027.45
472.04	8872.97
472.22	9385.55
472.40	9053.19
472.58	9163.20
472.77	9226.39
472.95	9310.65
473.13	9551.73
473.31	9385.55
473.49	9453.42
473.67	9565.77
473.85	9366.82
474.03	9729.61
474.21	9523.64
474.39	9797.48
474.57	9687.48
474.75	9783.44
474.93	9734.29
475.12	9834.93
475.30	9919.19
475.48	10003.45
475.66	9954.30
475.84	9760.03
476.02	10183.67
476.20	10153.24
476.38	10253.89
476.56	10307.72
476.74	10494.96
476.92	10455.17
477.10	10331.12
477.28	10616.67
477.46	10537.09
477.64	10817.96
477.82	10766.46
478.00	11157.33
478.18	10993.50
478.36	11171.38
478.54	11255.64
478.72	11225.21
478.90	11349.26
479.08	11768.21
479.26	11637.14
479.44	11606.72
479.62	11819.71
479.80	11866.52
479.98	11665.23
480.16	12147.38
480.34	12020.99
480.52	11995.25
480.70	12404.84
480.88	12219.94
481.06	12320.58
481.24	12343.99
481.41	12507.82
481.59	12697.41
481.77	12800.39
481.95	13001.68
482.13	12912.74
482.31	13029.76
482.49	13195.94
482.67	13170.19
482.85	13357.44
483.03	13661.71
483.21	13535.32
483.39	13497.87
483.57	13619.58
483.74	13774.05
483.92	13921.51
484.10	13961.30
484.28	14162.58
484.46	14307.69
484.64	14560.47
484.82	14658.78
485.00	14668.14
485.18	15047.30
485.35	15208.80
485.53	15143.27
485.71	15211.14
485.89	15311.78
486.07	15206.46
486.25	15260.29
486.43	15583.29
486.61	15695.63
486.78	15726.06
486.96	15714.36
487.14	16210.55
487.32	16063.10
487.50	16257.36
487.68	16180.12
487.85	16606.10
488.03	16603.76
488.21	16980.59
488.39	16891.65
488.57	16863.56
488.75	17081.23
488.92	17434.65
489.10	17104.64
489.28	17642.96
489.46	17860.63
489.64	17771.69
489.81	18223.41
489.99	18150.85
490.17	18139.15
490.35	18291.29
490.53	18267.88
490.70	18494.91
490.88	18429.38
491.06	18630.66
491.24	18890.46
491.41	18785.14
491.59	19051.96
491.77	19019.19
491.95	18941.96
492.13	19213.46
492.30	19271.97
492.48	19744.76
492.66	19503.68
492.84	19669.86
493.01	19997.54
493.19	20084.14
493.37	20027.96
493.54	20245.63
493.72	20339.26
493.90	20444.58
494.08	20542.88
494.25	20549.90
494.43	20987.58
494.61	21081.21
494.79	21125.68
494.96	21355.05
495.14	21474.42
495.32	21666.34
495.49	21570.38
495.67	21788.05
495.85	21612.51
496.02	22043.17
496.20	21944.86
496.38	22108.70
496.55	22197.64
496.73	22726.60
496.91	22466.80
497.09	22941.93
497.26	22857.67
497.44	22649.36
497.62	23075.34
497.79	23164.28
497.97	22979.38
498.14	23325.78
498.32	23332.80
498.50	23733.03
498.67	23566.85
498.85	23632.39
499.03	23840.70
499.20	23859.42
499.38	24109.86
499.56	24126.24
499.73	24336.89
499.91	23960.06
500.08	24706.70
500.26	24549.88
500.44	24503.07
500.61	24961.81
500.79	24711.38
500.97	25022.67
501.14	25376.09
501.32	25488.43
501.49	25167.78
501.67	25502.48
501.84	25607.80
502.02	25343.32
502.20	25483.75
502.37	25247.36
502.55	25656.95
502.72	25502.48
502.90	25851.22
503.07	25820.79
503.25	26190.59
503.43	25659.29
503.60	25961.22
503.78	26635.30
503.95	26384.86
504.13	26534.65
504.30	26686.79
504.48	26672.74
504.65	26340.39
504.83	26850.63
505.01	26726.58
505.18	27143.19
505.36	27047.23
505.53	27019.14
505.71	27171.28
505.88	27505.98
506.06	26906.80
506.23	27597.26
506.41	27550.45
506.58	27402.99
506.76	27520.02
506.93	27938.97
507.11	28100.47
507.28	28063.02
507.46	28098.13
507.63	27889.82
507.81	28575.60
507.98	27800.88
508.16	28322.82
508.33	28364.95
508.50	28526.45
508.68	28395.38
508.85	28563.90
509.03	28517.09
509.20	28694.97
509.38	29254.36
509.55	29376.06
509.73	28924.34
509.90	29191.16
510.08	29242.65
510.25	28947.75
510.42	29233.29
510.60	29355.00
510.77	29919.07
510.95	29951.84
511.12	29303.51
511.30	30127.38
511.47	30125.04
511.64	29839.49
511.82	30265.47
511.99	30061.84
512.17	30204.61
512.34	30391.86
512.51	30307.60
512.69	30419.94
512.86	30543.99
513.04	30976.99
513.21	30614.21
513.38	31119.76
513.56	31012.10
513.73	31197.00
513.90	31070.61
514.08	31077.63
514.25	30920.82
514.43	31653.40
514.60	31489.57
514.77	31489.57
514.95	31779.79
515.12	31534.04
515.29	31276.58
515.47	31964.70
515.64	32079.38
515.81	31393.61
515.99	31857.03
516.16	32465.57
516.33	31901.50
516.51	32147.26
516.68	31938.95
516.85	32154.28
517.03	32662.18
517.20	32620.05
517.37	32144.92
517.54	32725.37
517.72	32437.48
517.89	32788.56
518.06	33041.34
518.24	32830.69
518.41	32872.82
518.58	32732.39
518.75	32856.44
518.93	32943.04
519.10	32898.57
519.27	32877.51
519.45	33406.47
519.62	33242.63
519.79	33607.75
519.96	33202.84
520.14	33656.90
520.31	33598.39
520.48	33921.38
520.65	34052.45
520.83	34092.24
521.00	34513.54
521.17	34440.98
521.34	34162.46
521.52	34504.18
521.69	33956.49
521.86	34572.05
522.03	34440.98
522.20	34705.46
522.38	34824.83
522.55	34660.99
522.72	34808.45
522.89	35182.93
523.07	35131.44
523.24	34965.26
523.41	35335.07
523.58	34621.20
523.75	35267.19
523.92	35117.40
524.10	35314.00
524.27	35370.18
524.44	35508.27
524.61	35887.43
524.78	35456.78
524.96	35962.33
525.13	35871.05
525.30	36215.11
525.47	35903.82
525.64	35328.05
525.81	35875.73
525.98	36039.57
526.16	36484.27
526.33	35913.18
526.50	36383.63
526.67	36189.36
526.84	36205.75
527.01	36734.71
527.18	36603.64
527.36	36765.14
527.53	36854.08
527.70	37003.87
527.87	36648.11
528.04	36907.91
528.21	36811.95
528.38	36781.52
528.55	37340.91
528.72	37081.11
528.89	37277.71
529.07	37139.62
529.24	36917.27
529.41	37479.00
529.58	37053.02
529.75	37560.92
529.92	37443.89
530.09	37656.88
530.26	37242.60
530.43	37266.01
530.60	37392.40
530.77	37738.80
530.94	37888.59
531.11	37195.79
531.28	37860.51
531.46	37612.41
531.63	38050.09
531.80	37963.49
531.97	38033.71
532.14	37926.04
532.31	38363.72
532.48	38483.09
532.65	38202.22
532.82	38024.34
532.99	38202.22
533.16	38136.69
533.33	38403.51
533.50	38696.08
533.67	38431.60
533.84	38466.70
534.01	38562.67
534.18	38485.43
534.35	38972.26
534.52	38813.10
534.69	39278.87
534.86	39175.89
535.03	39035.45
535.20	38745.23
535.37	39124.40
535.54	39103.33
535.71	39131.42
535.88	39084.61
536.05	39098.65
536.22	39746.98
536.38	39178.23
536.55	39208.65
536.72	39580.80
536.89	39152.48
537.06	39126.74
537.23	39770.38
537.40	39660.38
537.57	39330.36
537.74	39285.89
537.91	40011.46
538.08	40055.93
538.25	39765.70
538.42	40257.21
538.59	40179.98
538.75	39859.32
538.92	39929.54
539.09	40390.62
539.26	40390.62
539.43	40053.59
539.60	40598.93
539.77	40182.32
539.94	40215.08
540.11	40378.92
540.28	40271.26
540.44	40339.13
540.61	40568.51
540.78	40353.18
540.95	40830.65
541.12	40470.20
541.29	40481.91
541.46	40938.31
541.62	40807.24
541.79	40994.48
541.96	40741.71
542.13	40847.03
542.30	41111.51
542.47	41031.93
542.63	41296.41
542.80	41118.53
542.97	41532.81
543.14	41558.55
543.31	41294.07
543.48	41532.81
543.64	41762.18
543.81	41649.83
543.98	41598.34
544.15	41841.76
544.32	41490.68
544.48	41949.42
544.65	41748.14
544.82	42007.94
544.99	41769.20
545.16	42157.73
545.32	41481.31
545.49	42284.12
545.66	42625.84
545.83	42447.96
546.00	42092.19
546.16	41902.61
546.33	42237.31
546.50	42059.43
546.67	42696.05
546.83	41998.57
547.00	42220.92
547.17	42693.71
547.34	42321.57
547.50	42686.69
547.67	43107.99
547.84	42684.35
548.00	42527.53
548.17	43328.00
548.34	42403.49
548.51	42782.65
548.67	42869.25
548.84	42824.78
549.01	43203.95
549.18	42707.76
549.34	42871.59
549.51	43442.68
549.68	43243.74
549.84	43335.02
550.01	43676.74
550.18	43320.98
550.34	43217.99
550.51	43536.30
550.68	43215.65
550.84	43089.26
551.01	43625.25
551.18	43868.66
551.34	43550.35
551.51	43290.55
551.68	43409.92
551.84	43297.57
552.01	43285.87
552.18	43463.75
552.34	43295.23
552.51	43800.79
552.68	43672.06
552.84	43629.93
553.01	43887.39
553.18	43929.51
553.34	43976.33
553.51	44107.40
553.67	44041.86
553.84	44318.04
554.01	44238.47
554.17	43646.31
554.34	44428.05
554.51	43969.30
554.67	44795.51
554.84	44123.78
555.00	43866.32
555.17	44465.50
555.33	44477.20
555.50	43917.81
555.67	44362.51
555.83	44201.02
556.00	44790.83
556.16	44793.17
556.33	44439.75
556.50	44638.70
556.66	44641.04
556.83	44500.61
556.99	45174.68
557.16	44804.88
557.32	44957.01
557.49	44966.37
557.65	44673.81
557.82	44676.15
557.98	44851.69
558.15	44966.37
558.32	44697.21
558.48	44830.62
558.65	45268.30
558.81	44872.75
558.98	44765.09
559.14	44720.62
559.31	44835.30
559.47	44882.11
559.64	44879.77
559.80	45415.76
559.97	45085.74
560.13	45024.89
560.30	45059.99
560.46	45359.58
560.63	45446.18
560.79	45556.19
560.96	45668.53
561.12	45467.25
561.29	45537.46
561.45	45818.33
561.61	45687.26
561.78	45261.28
561.94	45691.94
562.11	45177.02
562.27	45088.08
562.44	45612.36
562.60	45287.03
562.77	45560.87
562.93	45181.70
563.10	45780.88
563.26	45921.31
563.42	46312.18
563.59	45397.03
563.75	44905.52
563.92	45635.77
564.08	45610.02
564.24	45736.41
564.41	45827.69
564.57	45595.98
564.74	45415.76
564.90	45677.90
565.07	45399.37
565.23	45724.71
565.39	45628.74
565.56	45729.39
565.72	45947.06
565.88	45853.44
566.05	46309.84
566.21	45801.94
566.38	45794.92
566.54	45542.14
566.70	46293.46
566.87	45853.44
567.03	46054.72
567.19	46340.27
567.36	46146.00
567.52	45956.42
567.68	46483.04
567.85	45872.16
568.01	46525.17
568.17	46358.99
568.34	46333.24
568.50	46305.16
568.66	45907.27
568.83	46440.91
568.99	45984.51
569.15	46122.60
569.32	46471.34
569.48	46131.96
569.64	46487.72
569.81	46557.94
569.97	46188.13
570.13	46160.05
570.30	46354.31
570.46	46167.07
570.62	46429.21
570.78	46403.46
570.95	46167.07
571.11	46857.52
571.27	46178.77
571.43	46410.48
571.60	46192.81
571.76	46394.10
571.92	46562.62
572.09	46344.95
572.25	46433.89
572.41	46614.11
572.57	46394.10
572.74	46831.78
572.90	46710.07
573.06	46700.71
573.22	46808.37
573.38	46525.17
573.55	46590.70
573.71	46749.86
573.87	46422.19
574.03	46777.95
574.20	46913.70
574.36	46770.93
574.52	46714.75
574.68	46923.06
574.84	46490.06
575.01	46979.23
575.17	46810.71
575.33	46398.78
575.49	46660.92
575.65	47004.98
575.82	46780.29
575.98	46841.14
576.14	46794.33
576.30	47019.02
576.46	46686.67
576.62	46476.02
576.79	46813.05
576.95	46351.97
577.11	46529.85
577.27	46777.95
577.43	46593.04
577.59	46660.92
577.75	46693.69
577.92	46632.83
578.08	46342.61
578.24	46834.12
578.40	47114.98
578.56	46845.82
578.72	46733.48
578.88	46759.22
579.04	46412.82
579.21	46155.36
579.37	47421.59
579.53	46976.89
579.69	46443.25
579.85	46838.80
580.01	46827.10
580.17	46667.94
580.33	46892.63
580.49	46892.63
580.65	47171.16
580.82	46976.89
580.98	46616.45
581.14	46658.58
581.30	47332.65
581.46	46368.35
581.62	46948.81
581.78	46562.62
581.94	47084.56
582.10	46845.82
582.26	47150.09
582.42	46761.56
582.58	46813.05
582.74	46953.49
582.90	46920.72
583.06	46941.78
583.22	47206.26
583.38	47004.98
583.54	47065.83
583.70	47299.89
583.86	47072.85
584.02	47194.56
584.18	47519.90
584.34	47194.56
584.50	47512.88
584.66	47136.05
584.82	47199.24
584.98	47594.79
585.14	47367.76
585.30	46431.55
585.46	46480.70
585.62	46939.44
585.78	46930.08
585.94	46742.84
586.10	47157.11
586.26	46934.76
586.42	47414.57
586.58	47173.50
586.74	47365.42
586.90	46955.83
587.06	47093.92
587.22	47140.73
587.38	47140.73
587.54	46960.51
587.70	47517.56
587.86	47105.62
588.02	46658.58
588.18	47152.43
588.34	46939.44
588.49	46958.17
588.65	46937.10
588.81	47468.40
588.97	47309.25
589.13	46932.42
589.29	46873.91
589.45	47388.83
589.61	47159.45
589.77	47786.72
589.93	47367.76
590.08	47250.74
