SpectraSuite Data File
++++++++++++++++++++++++++++++++++++
Date: Fri Oct 25 11:25:10 EDT 2013
User: price-jones
Dark Spectrum Present: No
Reference Spectrum Present: No
Number of Sampled Component Spectra: 1
Spectrometers: USB2+H05261
Integration Time (usec): 100000 (USB2+H05261)
Spectra Averaged: 1 (USB2+H05261)
Boxcar Smoothing: 0 (USB2+H05261)
Correct for Electrical Dark: No (USB2+H05261)
Strobe/Lamp Enabled: No (USB2+H05261)
Correct for Detector Non-linearity: No (USB2+H05261)
Correct for Stray Light: No (USB2+H05261)
Number of Pixels in Processed Spectrum: 2048
>>>>>Begin Processed Spectral Data<<<<<
365.73	224.69
365.92	224.69
366.12	224.69
366.32	175.54
366.52	184.90
366.72	184.90
366.91	67.88
367.11	149.79
367.31	131.07
367.51	114.69
367.70	65.54
367.90	156.82
368.10	191.92
368.30	152.13
368.49	138.09
368.69	196.60
368.89	114.69
369.09	163.84
369.28	234.05
369.48	147.45
369.68	187.24
369.87	189.58
370.07	191.92
370.27	238.73
370.47	304.27
370.66	531.30
370.86	587.47
371.06	613.22
371.25	671.73
371.45	678.76
371.65	741.95
371.84	624.92
372.04	655.35
372.24	763.01
372.44	772.38
372.63	716.20
372.83	734.93
373.03	748.97
373.22	688.12
373.42	819.19
373.62	758.33
373.81	788.76
374.01	833.23
374.21	760.67
374.40	788.76
374.60	933.87
374.79	840.25
374.99	760.67
375.19	849.61
375.38	823.87
375.58	880.04
375.78	798.12
375.97	903.45
376.17	887.06
376.37	798.12
376.56	858.98
376.76	875.36
376.95	812.17
377.15	863.66
377.35	812.17
377.54	931.53
377.74	849.61
377.93	903.45
378.13	866.00
378.33	994.73
378.52	870.68
378.72	961.96
378.91	992.39
379.11	910.47
379.31	1004.09
379.50	936.21
379.70	936.21
379.89	1013.45
380.09	980.68
380.28	940.90
380.48	999.41
380.68	910.47
380.87	961.96
381.07	987.71
381.26	1029.84
381.46	983.02
381.65	985.37
381.85	985.37
382.04	952.60
382.24	1118.78
382.43	1137.50
382.63	1086.01
382.83	1013.45
383.02	1125.80
383.22	1158.57
383.41	1050.90
383.61	1128.14
383.80	1069.62
384.00	1097.71
384.19	1125.80
384.39	1107.07
384.58	1137.50
384.78	1057.92
384.97	1247.51
385.17	1200.69
385.36	1228.78
385.56	1123.46
385.75	1188.99
385.95	1219.42
386.14	1259.21
386.34	1254.53
386.53	1256.87
386.72	1226.44
386.92	1231.12
387.11	1174.95
387.31	1261.55
387.50	1212.40
387.70	1277.93
387.89	1191.33
388.09	1294.32
388.28	1226.44
388.48	1289.64
388.67	1235.80
388.86	1427.73
389.06	1355.17
389.25	1409.00
389.45	1355.17
389.64	1320.06
389.84	1430.07
390.03	1324.74
390.22	1322.40
390.42	1364.53
390.61	1355.17
390.81	1390.28
391.00	1385.60
391.19	1427.73
391.39	1476.88
391.58	1362.19
391.78	1366.87
391.97	1474.54
392.16	1444.11
392.36	1521.35
392.55	1556.46
392.75	1516.67
392.94	1544.75
393.13	1647.74
393.33	1535.39
393.52	1563.48
393.71	1565.82
393.91	1528.37
394.10	1668.80
394.29	1659.44
394.49	1607.95
394.68	1682.85
394.88	1561.14
395.07	1561.14
395.26	1570.50
395.46	1614.97
395.65	1645.40
395.84	1703.91
396.04	1792.85
396.23	1713.27
396.42	1736.68
396.62	1671.14
396.81	1837.32
397.00	1748.38
397.19	1755.40
397.39	1872.43
397.58	1739.02
397.77	1755.40
397.97	1820.94
398.16	1863.07
398.35	1870.09
398.55	1809.23
398.74	1914.56
398.93	2024.56
399.12	2050.31
399.32	1909.88
399.51	1797.53
399.70	2015.20
399.90	2001.16
400.09	2019.88
400.28	1977.75
400.47	2003.50
400.67	2085.42
400.86	2017.54
401.05	2122.87
401.24	1977.75
401.44	2132.23
401.63	2139.25
401.82	2136.91
402.01	2141.59
402.21	2129.89
402.40	2033.93
402.59	2216.49
402.78	2239.89
402.97	2172.02
403.17	2239.89
403.36	2106.48
403.55	2230.53
403.74	2338.20
403.93	2408.41
404.13	2445.86
404.32	2401.39
404.51	2345.22
404.70	2303.09
404.89	2399.05
405.09	2555.86
405.28	2403.73
405.47	2495.01
405.66	2534.80
405.85	2502.03
406.05	2448.20
406.24	2551.18
406.43	2544.16
406.62	2679.91
406.81	2642.46
407.00	2569.91
407.20	2675.23
407.39	2619.06
407.58	2700.98
407.77	2637.78
407.96	2747.79
408.15	2621.40
408.34	2609.70
408.54	2818.00
408.73	2841.41
408.92	2857.79
409.11	2848.43
409.30	2998.23
409.49	2860.13
409.68	2853.11
409.87	2771.19
410.07	2890.56
410.26	2939.71
410.45	2888.22
410.64	3026.31
410.83	3054.40
411.02	3007.59
411.21	3103.55
411.40	3115.25
411.59	3187.81
411.78	3061.42
411.98	3246.32
412.17	3112.91
412.36	3101.21
412.55	3297.81
412.74	3325.90
412.93	3391.44
413.12	3361.01
413.31	3503.78
413.50	3321.22
413.69	3435.91
413.88	3517.83
414.07	3590.38
414.26	3684.00
414.45	3667.62
414.64	3674.64
414.83	3744.86
415.02	3674.64
415.22	3733.15
415.41	3784.65
415.60	3707.41
415.79	3803.37
415.98	3950.82
416.17	3969.55
416.36	4053.81
416.55	3974.23
416.74	4035.08
416.93	4056.15
417.12	4102.96
417.31	4121.68
417.50	3981.25
417.69	4217.65
417.88	4182.54
418.07	4301.90
418.26	4266.80
418.45	4227.01
418.64	4437.66
418.83	4325.31
419.02	4407.23
419.21	4545.32
419.39	4575.75
419.58	4442.34
419.77	4397.87
419.96	4524.26
420.15	4573.41
420.34	4545.32
420.53	4528.94
420.72	4833.21
420.91	4669.37
421.10	4629.58
421.29	4671.71
421.48	4634.26
421.67	4702.14
421.86	4795.76
422.05	4865.97
422.24	4760.65
422.43	4903.42
422.61	4929.17
422.80	4842.57
422.99	4770.01
423.18	5004.07
423.37	4882.36
423.56	4819.16
423.75	4788.74
423.94	4748.95
424.13	4554.68
424.32	4713.84
424.50	4987.68
424.69	5048.54
424.88	4957.25
425.07	5069.60
425.26	4926.83
425.45	4938.53
425.64	4847.25
425.83	4880.02
426.01	4985.34
426.20	5093.01
426.39	5078.96
426.58	5062.58
426.77	4933.85
426.96	5210.03
427.15	4933.85
427.33	5093.01
427.52	5053.22
427.71	5390.25
427.90	5167.90
428.09	5219.39
428.28	5305.99
428.46	5165.56
428.65	5261.52
428.84	5488.56
429.03	5423.02
429.22	5310.68
429.40	5296.63
429.59	5289.61
429.78	5170.24
429.97	5266.21
430.16	5317.70
430.34	5542.39
430.53	5465.15
430.72	5673.46
430.91	5624.31
431.10	5596.22
431.28	5867.72
431.47	5668.78
431.66	5837.30
431.85	5935.60
432.03	6010.50
432.22	5832.62
432.41	5851.34
432.60	5874.74
432.79	5984.75
432.97	5790.49
433.16	5816.23
433.35	5870.06
433.54	6115.82
433.72	6183.70
433.91	6078.37
434.10	6148.59
434.28	5928.58
434.47	6195.40
434.66	6300.72
434.85	6101.78
435.03	6242.21
435.22	6001.13
435.41	6352.21
435.59	6305.40
435.78	6483.28
435.97	6174.33
436.16	6331.15
436.34	6392.00
436.53	6392.00
436.72	6408.39
436.90	6445.84
437.09	6600.31
437.28	6441.15
437.46	6487.96
437.65	6586.27
437.84	6724.36
438.02	6719.68
438.21	6490.31
438.40	6682.23
438.58	6998.20
438.77	6834.36
438.96	6906.92
439.14	7096.50
439.33	7080.12
439.52	6963.09
439.70	7225.23
439.89	7393.75
440.08	7297.79
440.26	7424.18
440.45	7323.54
440.63	7201.83
440.82	7538.87
441.01	7342.26
441.19	7433.54
441.38	7618.44
441.57	7747.17
441.75	7772.92
441.94	7885.26
442.12	7934.42
442.31	7850.16
442.50	8142.72
442.68	7957.82
442.87	8028.04
443.05	7988.25
443.24	8088.89
443.43	8046.76
443.61	8194.22
443.80	8374.44
443.98	7908.67
444.17	7705.04
444.35	8269.11
444.54	8208.26
444.73	8112.30
444.91	8262.09
445.10	8166.13
445.28	8166.13
445.47	8159.11
445.65	8266.77
445.84	8262.09
446.02	8297.20
446.21	8414.23
446.39	8163.79
446.58	8449.33
446.77	8547.64
446.95	8168.47
447.14	8285.50
447.32	8606.15
447.51	8540.61
447.69	8187.19
447.88	8386.14
448.06	8435.29
448.25	8559.34
448.43	8475.08
448.62	8409.54
448.80	8519.55
448.99	8727.86
449.17	8559.34
449.36	8617.85
449.54	8802.75
449.73	8849.57
449.91	8917.44
450.10	8901.06
450.28	8980.64
450.46	8978.30
450.65	8795.73
450.83	8961.91
451.02	9036.81
451.20	9334.06
451.39	9151.49
451.57	9254.48
451.76	9174.90
451.94	9289.59
452.13	9247.46
452.31	9088.30
452.49	8999.36
452.68	9284.91
452.86	9210.01
453.05	9137.45
453.23	9385.55
453.42	9341.08
453.60	9226.39
453.78	9338.74
453.97	9423.00
454.15	9467.47
454.34	9521.30
454.52	9334.06
454.70	9488.53
454.89	9458.10
455.07	9610.24
455.26	9753.01
455.44	9902.81
455.62	9973.02
455.81	9853.66
455.99	9848.97
456.17	10012.81
456.36	9961.32
456.54	10162.61
456.73	10134.52
456.91	10260.91
457.09	10319.42
457.28	10480.92
457.46	10345.17
457.64	10382.62
457.83	10399.00
458.01	10417.72
458.19	10637.73
458.38	10441.13
458.56	10424.75
458.74	10576.88
458.93	10588.58
459.11	10675.18
459.29	10684.55
459.48	10899.87
459.66	10682.20
459.84	10721.99
460.03	10939.66
460.21	11009.88
460.39	10878.81
460.57	10934.98
460.76	11016.90
460.94	11028.60
461.12	10970.09
461.31	11164.36
461.49	11318.83
461.67	11087.12
461.85	11391.39
462.04	11297.77
462.22	11775.24
462.40	11681.61
462.59	11199.46
462.77	11304.79
462.95	11569.27
463.13	11442.88
463.32	11576.29
463.50	11461.60
463.68	11400.75
463.86	11878.22
464.05	11529.48
464.23	11524.80
464.41	11899.28
464.59	11651.19
464.78	12070.14
464.96	12159.08
465.14	11920.35
465.32	11742.47
465.50	12250.36
465.69	11866.52
465.87	12084.19
466.05	12079.50
466.23	12152.06
466.41	12112.27
466.60	12512.50
466.78	11976.52
466.96	12067.80
467.14	12116.95
467.32	12208.23
467.51	12435.27
467.69	12039.72
467.87	12123.98
468.05	12336.96
468.23	12266.75
468.41	12381.43
468.60	12435.27
468.78	12638.89
468.96	12318.24
469.14	12538.25
469.32	12606.13
469.50	12578.04
469.69	12940.82
469.87	12924.44
470.05	13083.59
470.23	12996.99
470.41	12835.50
470.59	13186.58
470.77	13025.08
470.95	13324.67
471.14	13322.33
471.32	13076.57
471.50	13364.46
471.68	13521.27
471.86	13479.15
472.04	13348.08
472.22	13942.57
472.40	13689.79
472.58	13738.94
472.77	13905.12
472.95	13895.76
473.13	14448.13
473.31	13975.34
473.49	14043.21
473.67	14120.45
473.85	14361.53
474.03	14303.01
474.21	14492.60
474.39	14429.40
474.57	14436.42
474.75	14691.54
474.93	14895.17
475.12	14829.63
475.30	15129.22
475.48	14752.40
475.66	15030.92
475.84	14911.55
476.02	15234.55
476.20	15211.14
476.38	15309.44
476.56	15576.27
476.74	15885.22
476.92	15648.82
477.10	15707.34
477.28	15920.32
477.46	16276.09
477.64	16212.89
477.82	16468.01
478.00	16938.46
478.18	16854.20
478.36	16561.63
478.54	16947.82
478.72	17095.27
478.90	17326.99
479.08	17235.70
479.26	17980.00
479.44	17422.95
479.62	17537.63
479.80	17837.22
479.98	17958.93
480.16	18338.10
480.34	18033.83
480.52	18085.32
480.70	18324.05
480.88	18450.44
481.06	18569.81
481.24	18836.63
481.41	18890.46
481.59	19204.10
481.77	19194.73
481.95	19440.49
482.13	19281.33
482.31	19356.23
482.49	19950.73
482.67	19922.64
482.85	20355.64
483.03	20435.22
483.21	20664.59
483.39	20828.43
483.57	20748.85
483.74	20889.28
483.92	21219.30
484.10	20814.38
484.28	21465.05
484.46	21900.39
484.64	22349.78
484.82	21891.03
485.00	22115.72
485.18	22427.01
485.35	22820.22
485.53	22586.17
485.71	22813.20
485.89	23339.82
486.07	22991.08
486.25	23255.56
486.43	23094.07
486.61	23538.77
486.78	24208.16
486.96	24194.12
487.14	24552.22
487.32	24594.35
487.50	24362.64
487.68	24568.60
487.85	25076.50
488.03	25053.09
488.21	25425.24
488.39	25682.70
488.57	25853.56
488.75	25818.45
488.92	26431.67
489.10	26178.89
489.28	26539.33
489.46	26764.03
489.64	26796.79
489.81	27384.27
489.99	27625.34
490.17	27384.27
490.35	27999.83
490.53	28114.52
490.70	28409.42
490.88	28226.86
491.06	28521.77
491.24	28933.70
491.41	28713.69
491.59	29076.48
491.77	28877.53
491.95	29223.93
492.13	29514.16
492.30	29373.72
492.48	29968.22
492.66	29848.85
492.84	30003.33
493.01	30286.53
493.19	30396.54
493.37	30483.14
493.54	31089.34
493.72	31206.36
493.90	30930.18
494.08	31503.61
494.25	31782.13
494.43	31604.25
494.61	32048.96
494.79	32105.13
494.96	32151.94
495.14	32161.30
495.32	32952.40
495.49	33039.00
495.67	33158.37
495.85	33472.00
496.02	33574.98
496.20	33834.78
496.38	33497.75
496.55	33596.05
496.73	34703.12
496.91	33876.91
497.09	34693.76
497.26	34569.71
497.44	34375.45
497.62	35206.34
497.79	35419.33
497.97	34871.64
498.14	35585.50
498.32	35999.78
498.50	35838.28
498.67	36498.31
498.85	35901.48
499.03	36311.07
499.20	36306.39
499.38	36692.58
499.56	36505.34
499.73	37125.58
499.91	36692.58
500.08	36957.06
500.26	36772.16
500.44	37532.83
500.61	37347.93
500.79	37495.38
500.97	37930.72
501.14	38136.69
501.32	38225.63
501.49	38405.85
501.67	38059.45
501.84	38890.34
502.02	38504.15
502.20	38967.58
502.37	38902.04
502.55	38941.83
502.72	39117.37
502.90	39276.53
503.07	39058.86
503.25	39187.59
503.43	39428.66
503.60	39840.60
503.78	39714.21
503.95	40041.88
504.13	40233.81
504.30	40538.08
504.48	39880.39
504.65	41153.64
504.83	40664.47
505.01	40690.21
505.18	40851.71
505.36	41345.56
505.53	41191.09
505.71	41420.46
505.88	41053.00
506.06	41069.38
506.23	41813.67
506.41	41584.30
506.58	41642.81
506.76	41935.38
506.93	41900.27
507.11	42286.46
507.28	42213.90
507.46	42171.77
507.63	42508.81
507.81	42916.06
507.98	42408.17
508.16	42550.94
508.33	42878.61
508.50	43290.55
508.68	43349.06
508.85	43379.49
509.03	43267.14
509.20	43339.70
509.38	43962.28
509.55	43941.22
509.73	44191.65
509.90	44231.44
510.08	43938.88
510.25	44411.67
510.42	44299.32
510.60	44474.86
510.77	45158.30
510.95	45233.19
511.12	45057.65
511.30	44746.36
511.47	44947.65
511.64	45425.12
511.82	45406.39
511.99	45272.98
512.17	45778.54
512.34	45546.82
512.51	45813.65
512.69	46096.85
512.86	46071.10
513.04	46124.94
513.21	46141.32
513.38	46492.40
513.56	46539.21
513.73	46323.88
513.90	46473.68
514.08	46539.21
514.25	46665.60
514.43	47430.96
514.60	47428.62
514.77	46955.83
514.95	47288.18
515.12	47119.66
515.29	47540.96
515.47	47587.77
515.64	47620.54
515.81	47555.00
515.99	47889.70
516.16	48413.98
516.33	47995.03
516.51	48023.11
516.68	47995.03
516.85	48540.37
517.03	48861.02
517.20	48657.40
517.37	48528.67
517.54	48292.27
517.72	48669.10
517.89	48676.12
518.06	48858.68
518.24	48952.30
518.41	49446.16
518.58	48949.96
518.75	49027.20
518.93	49240.19
519.10	49315.09
519.27	49453.18
519.45	49244.87
519.62	49448.50
519.79	49574.89
519.96	49202.74
520.14	50024.27
520.31	49914.26
520.48	50045.33
520.65	49855.75
520.83	50335.56
521.00	50415.14
521.17	50452.59
521.34	50670.26
521.52	50628.13
521.69	50436.20
521.86	50974.53
522.03	51000.27
522.20	50941.76
522.38	51217.94
522.55	51365.40
522.72	50981.55
522.89	51100.92
523.07	51110.28
523.24	51349.01
523.41	51428.59
523.58	51117.30
523.75	51505.83
523.92	51765.63
524.10	51812.44
524.27	51650.94
524.44	51512.85
524.61	51566.68
524.78	51714.14
524.96	51812.44
525.13	51966.91
525.30	52268.84
525.47	52306.29
525.64	52020.75
525.81	52360.12
525.98	52430.34
526.16	52327.36
526.33	52294.59
526.50	52666.73
526.67	52449.06
526.84	52552.05
527.01	52631.63
527.18	52690.14
527.36	52720.57
527.53	53043.56
527.70	53052.92
527.87	52931.22
528.04	53073.99
528.21	53179.31
528.38	53048.24
528.55	53226.12
528.72	53127.82
528.89	53368.90
529.07	53144.20
529.24	53148.88
529.41	53560.82
529.58	53577.20
529.75	53261.23
529.92	53544.44
530.09	53649.76
530.26	53619.33
530.43	53794.87
530.60	53532.73
530.77	53703.59
530.94	53886.15
531.11	53839.34
531.28	53829.98
531.46	54057.01
531.63	53869.77
531.80	54038.29
531.97	54160.00
532.14	54174.04
532.31	54401.07
532.48	54417.46
532.65	54384.69
532.82	54258.30
532.99	54695.98
533.16	54466.61
533.33	54569.59
533.50	54862.16
533.67	54611.72
533.84	54225.53
534.01	54923.01
534.18	54684.28
534.35	55082.17
534.52	54506.40
534.69	54700.66
534.86	54892.58
535.03	54930.03
535.20	55138.34
535.37	54913.65
535.54	55084.51
535.71	54733.43
535.88	55089.19
536.05	55248.35
536.22	55231.96
536.38	55285.79
536.55	55304.52
536.72	55255.37
536.89	55047.06
537.06	55421.55
537.23	55522.19
537.40	55222.60
537.57	55456.65
537.74	55648.58
537.91	55662.62
538.08	55671.98
538.25	55543.25
538.42	55477.72
538.59	55810.07
538.75	55767.94
538.92	55828.80
539.09	55819.44
539.26	55973.91
539.43	55877.95
539.60	55962.21
539.77	55917.74
539.94	56147.11
540.11	56240.73
540.28	55978.59
540.44	56285.20
540.61	56177.54
540.78	56385.85
540.95	56317.97
541.12	56259.46
541.29	56156.47
541.46	56072.21
541.62	56470.11
541.79	56589.47
541.96	56170.52
542.13	56392.87
542.30	56369.46
542.47	56442.02
542.63	56568.41
542.80	56603.52
542.97	56772.03
543.14	56849.27
543.31	56851.61
543.48	57055.24
543.64	57076.30
543.81	57132.48
543.98	57036.51
544.15	57148.86
544.32	56893.74
544.48	57460.15
544.65	56996.73
544.82	57350.15
544.99	57085.67
545.16	57340.78
545.32	57240.14
545.49	57521.01
545.66	57513.98
545.83	57425.04
546.00	57481.22
546.16	57448.45
546.33	57291.63
546.50	57411.00
546.67	57607.61
546.83	57198.01
547.00	57420.36
547.17	57366.53
547.34	57612.29
547.50	57654.42
547.67	57879.11
547.84	57869.75
548.00	57970.39
548.17	57991.45
548.34	57808.89
548.51	58000.82
548.67	57907.19
548.84	58028.90
549.01	57773.78
549.18	58113.16
549.34	58038.26
549.51	57876.77
549.68	58145.93
549.84	58171.67
550.01	58213.80
550.18	58150.61
550.34	58211.46
550.51	58358.92
550.68	58241.89
550.84	57921.24
551.01	58447.86
551.18	58178.70
551.34	58218.49
551.51	58452.54
551.68	58319.13
551.84	58267.64
552.01	58265.30
552.18	58534.46
552.34	58176.36
552.51	58663.19
552.68	58363.60
552.84	58422.11
553.01	58656.17
553.18	58468.92
553.34	58695.95
553.51	58599.99
553.67	58562.54
553.84	58651.48
554.01	58824.68
554.17	58770.85
554.34	58712.34
554.51	58777.87
554.67	58927.67
554.84	58752.13
555.00	58951.07
555.17	58780.21
555.33	58801.28
555.50	58798.94
555.67	58794.26
555.83	58812.98
556.00	58890.22
556.16	59147.68
556.33	59128.95
556.50	59054.06
556.66	59260.02
556.83	58803.62
556.99	59178.10
557.16	59311.52
557.32	59231.94
557.49	59327.90
557.65	59096.19
557.82	59236.62
557.98	59224.92
558.15	59049.38
558.32	59234.28
558.48	59133.63
558.65	59238.96
558.81	59339.60
558.98	59334.92
559.14	59538.55
559.31	59313.86
559.47	59395.77
559.64	59470.67
559.80	59437.90
559.97	59451.95
560.13	59501.10
560.30	59524.50
560.46	59601.74
560.63	59676.64
560.79	59388.75
560.96	59554.93
561.12	59503.44
561.29	59718.77
561.45	59704.73
561.61	59568.97
561.78	59543.23
561.94	59489.40
562.11	59583.02
562.27	59723.45
562.44	59880.27
562.60	59859.20
562.77	59587.70
562.93	59442.59
563.10	59620.47
563.26	59749.20
563.42	60065.17
563.59	59908.35
563.75	59906.01
563.92	60048.78
564.08	59781.96
564.24	59962.18
564.41	60053.47
564.57	59786.64
564.74	59891.97
564.90	59964.52
565.07	59906.01
565.23	59931.76
565.39	59845.16
565.56	59966.87
565.72	59929.42
565.88	59934.10
566.05	59969.21
566.21	60013.68
566.38	60086.23
566.54	60184.54
566.70	60097.94
566.87	60081.55
567.03	60030.06
567.19	60158.79
567.36	60210.28
567.52	59828.77
567.68	60395.18
567.85	60116.66
568.01	60076.87
568.17	60013.68
568.34	60306.24
568.50	60114.32
568.66	60196.24
568.83	60243.05
568.99	60217.30
569.15	60301.56
569.32	60224.32
569.48	60205.60
569.64	60317.95
569.81	60170.49
569.97	60116.66
570.13	60374.12
570.30	60261.77
570.46	60346.03
570.62	60233.69
570.78	60509.87
570.95	60346.03
571.11	60498.17
571.27	60296.88
571.43	60324.97
571.60	60364.76
571.76	60273.48
571.92	60516.89
572.09	60367.10
572.25	60411.57
572.41	60331.99
572.57	60376.46
572.74	60624.56
572.90	60308.58
573.06	60570.72
573.22	60523.91
573.38	60526.25
573.55	60451.36
573.71	60434.97
573.87	60458.38
574.03	60390.50
574.20	60458.38
574.36	60523.91
574.52	60458.38
574.68	60568.38
574.84	60633.92
575.01	60552.00
575.17	60594.13
575.33	60388.16
575.49	60502.85
575.65	60493.49
575.82	60680.73
575.98	60643.28
576.14	60725.20
576.30	60629.24
576.46	60540.30
576.62	60432.63
576.79	60336.67
576.95	60430.29
577.11	60587.11
577.27	60643.28
577.43	60697.11
577.59	60582.43
577.75	60727.54
577.92	60512.21
578.08	60739.24
578.24	60624.56
578.40	60624.56
578.56	60776.69
578.72	60980.32
578.88	60898.40
579.04	60760.31
579.21	60734.56
579.37	60825.84
579.53	60889.04
579.69	60608.17
579.85	60528.59
580.01	60647.96
580.17	60722.86
580.33	60694.77
580.49	61024.79
580.65	60584.77
580.82	60645.62
580.98	60570.72
581.14	60640.94
581.30	60772.01
581.46	60690.09
581.62	60903.08
581.78	60725.20
581.94	60732.22
582.10	60776.69
582.26	60589.45
582.42	60692.43
582.58	60889.04
582.74	60563.70
582.90	60832.86
583.06	60715.84
583.22	60708.82
583.38	60678.39
583.54	60921.80
583.70	60732.22
583.86	60800.10
584.02	60690.09
584.18	61064.58
584.34	60767.33
584.50	60729.88
584.66	60748.60
584.82	60486.46
584.98	60956.91
585.14	60816.48
585.30	60584.77
585.46	60860.95
585.62	60837.54
585.78	60755.63
585.94	60523.91
586.10	60786.05
586.26	60867.97
586.42	61029.47
586.58	60807.12
586.74	60877.33
586.90	60788.39
587.06	60774.35
587.22	61059.90
587.38	60725.20
587.54	60882.02
587.70	60987.34
587.86	60945.21
588.02	60905.42
588.18	61059.90
588.34	60711.16
588.49	60912.44
