SpectraSuite Data File
++++++++++++++++++++++++++++++++++++
Date: Fri Oct 25 10:48:26 EDT 2013
User: price-jones
Dark Spectrum Present: No
Reference Spectrum Present: No
Number of Sampled Component Spectra: 1
Spectrometers: USB2+H05261
Integration Time (usec): 100000 (USB2+H05261)
Spectra Averaged: 1 (USB2+H05261)
Boxcar Smoothing: 0 (USB2+H05261)
Correct for Electrical Dark: No (USB2+H05261)
Strobe/Lamp Enabled: No (USB2+H05261)
Correct for Detector Non-linearity: No (USB2+H05261)
Correct for Stray Light: No (USB2+H05261)
Number of Pixels in Processed Spectrum: 2048
>>>>>Begin Processed Spectral Data<<<<<
365.73	166.18
365.92	166.18
366.12	166.18
366.32	95.96
366.52	56.17
366.72	32.77
366.91	95.96
367.11	84.26
367.31	0.00
367.51	18.72
367.70	0.00
367.90	135.75
368.10	119.37
368.30	65.54
368.49	91.28
368.69	11.70
368.89	98.30
369.09	81.92
369.28	98.30
369.48	105.32
369.68	60.85
369.87	126.39
370.07	124.05
370.27	184.90
370.47	208.31
370.66	437.68
370.86	425.98
371.06	524.28
371.25	564.07
371.45	416.62
371.65	458.74
371.84	454.06
372.04	486.83
372.24	433.00
372.44	444.70
372.63	472.79
372.83	507.90
373.03	489.17
373.22	498.53
373.42	561.73
373.62	557.05
373.81	557.05
374.01	594.50
374.21	603.86
374.40	596.84
374.60	603.86
374.79	638.97
374.99	540.66
375.19	566.41
375.38	603.86
375.58	596.84
375.78	571.09
375.97	643.65
376.17	645.99
376.37	566.41
376.56	631.94
376.76	629.60
376.95	580.45
377.15	653.01
377.35	667.05
377.54	727.91
377.74	596.84
377.93	660.03
378.13	629.60
378.33	606.20
378.52	650.67
378.72	699.82
378.91	669.39
379.11	688.12
379.31	730.25
379.50	655.35
379.70	641.31
379.89	671.73
380.09	732.59
380.28	678.76
380.48	727.91
380.68	748.97
380.87	653.01
381.07	706.84
381.26	725.57
381.46	660.03
381.65	709.18
381.85	727.91
382.04	695.14
382.24	737.27
382.43	669.39
382.63	667.05
382.83	713.86
383.02	732.59
383.22	849.61
383.41	751.31
383.61	760.67
383.80	716.20
384.00	819.19
384.19	830.89
384.39	786.42
384.58	805.14
384.78	880.04
384.97	781.74
385.17	793.44
385.36	833.23
385.56	774.72
385.75	746.63
385.95	842.59
386.14	842.59
386.34	861.32
386.53	821.53
386.72	833.23
386.92	863.66
387.11	826.21
387.31	891.74
387.50	849.61
387.70	809.83
387.89	849.61
388.09	786.42
388.28	866.00
388.48	821.53
388.67	924.51
388.86	964.30
389.06	866.00
389.25	929.19
389.45	933.87
389.64	908.13
389.84	987.71
390.03	1013.45
390.22	1011.11
390.42	1034.52
390.61	961.96
390.81	936.21
391.00	1032.18
391.19	985.37
391.39	1081.33
391.58	1025.15
391.78	1008.77
391.97	1034.52
392.16	1034.52
392.36	1076.65
392.55	1032.18
392.75	1025.15
392.94	870.68
393.13	1067.28
393.33	1041.54
393.52	1004.09
393.71	1137.50
393.91	1050.90
394.10	1100.05
394.29	1074.31
394.49	1067.28
394.68	1163.25
394.88	1153.88
395.07	1149.20
395.26	1205.38
395.46	1242.82
395.65	1224.10
395.84	1242.82
396.04	1191.33
396.23	1116.44
396.42	1100.05
396.62	1163.25
396.81	1198.35
397.00	1210.06
397.19	1329.42
397.39	1266.23
397.58	1341.13
397.77	1322.40
397.97	1385.60
398.16	1406.66
398.35	1444.11
398.55	1406.66
398.74	1446.45
398.93	1458.15
399.12	1401.98
399.32	1465.18
399.51	1453.47
399.70	1558.80
399.90	1479.22
400.09	1596.25
400.28	1556.46
400.47	1584.54
400.67	1540.07
400.86	1540.07
401.05	1584.54
401.24	1530.71
401.44	1619.65
401.63	1629.01
401.82	1645.40
402.01	1675.82
402.21	1732.00
402.40	1661.78
402.59	1708.59
402.78	1715.61
402.97	1696.89
403.17	1722.63
403.36	1668.80
403.55	1792.85
403.74	1865.41
403.93	1813.92
404.13	1785.83
404.32	1757.74
404.51	1790.51
404.70	1825.62
404.89	1856.04
405.09	1923.92
405.28	1734.34
405.47	1865.41
405.66	1837.32
405.85	1834.98
406.05	1930.94
406.24	1909.88
406.43	1898.17
406.62	2015.20
406.81	2167.34
407.00	2066.69
407.20	2031.58
407.39	1977.75
407.58	1954.35
407.77	2076.06
407.96	2050.31
408.15	2162.66
408.34	2157.97
408.54	2155.63
408.73	2172.02
408.92	2125.21
409.11	2265.64
409.30	2197.76
409.49	2195.42
409.68	2204.78
409.87	2300.75
410.07	2230.53
410.26	2312.45
410.45	2263.30
410.64	2387.35
410.83	2401.39
411.02	2466.92
411.21	2375.64
411.40	2509.05
411.59	2483.31
411.78	2464.58
411.98	2544.16
412.17	2490.33
412.36	2537.14
412.55	2539.48
412.74	2682.25
412.93	2679.91
413.12	2600.34
413.31	2745.45
413.50	2803.96
413.69	2867.16
413.88	2853.11
414.07	2691.62
414.26	2958.44
414.45	2764.17
414.64	2860.13
414.83	2916.31
415.02	2920.99
415.22	2960.78
415.41	2963.12
415.60	3009.93
415.79	2998.23
415.98	3197.17
416.17	3091.85
416.36	3265.05
416.55	3148.02
416.74	3129.30
416.93	3077.80
417.12	3129.30
417.31	3262.71
417.50	3332.92
417.69	3447.61
417.88	3173.77
418.07	3232.28
418.26	3171.43
418.45	3424.20
418.64	3463.99
418.83	3403.14
419.02	3452.29
419.21	3468.67
419.39	3463.99
419.58	3248.66
419.77	3508.46
419.96	3527.19
420.15	3578.68
420.34	3583.36
420.53	3585.70
420.72	3627.83
420.91	3581.02
421.10	3630.17
421.29	3637.19
421.48	3583.36
421.67	3648.90
421.86	3709.75
422.05	3714.43
422.24	3784.65
422.43	3817.41
422.61	3676.98
422.80	3775.28
422.99	3850.18
423.18	3789.33
423.37	3826.78
423.56	3911.04
423.75	3707.41
423.94	3735.50
424.13	3672.30
424.32	3616.13
424.50	3929.76
424.69	3847.84
424.88	3922.74
425.07	3662.94
425.26	3761.24
425.45	3765.92
425.64	3737.84
425.83	3875.93
426.01	3836.14
426.20	3770.60
426.39	3836.14
426.58	3859.54
426.77	3854.86
426.96	3796.35
427.15	3864.22
427.33	4077.21
427.52	3887.63
427.71	4053.81
427.90	4124.02
428.09	4114.66
428.28	4030.40
428.46	4109.98
428.65	3978.91
428.84	4224.67
429.03	4154.45
429.22	3873.59
429.40	4088.92
429.59	3999.98
429.78	3960.19
429.97	3889.97
430.16	4009.34
430.34	3955.51
430.53	4194.24
430.72	4194.24
430.91	4245.73
431.10	4191.90
431.28	4435.32
431.47	4472.76
431.66	4468.08
431.85	4367.44
432.03	4416.59
432.22	4482.13
432.41	4463.40
432.60	4681.07
432.79	4482.13
432.97	4648.30
433.16	4587.45
433.35	4479.79
433.54	4517.23
433.72	4547.66
433.91	4624.90
434.10	4585.11
434.28	4636.60
434.47	4807.46
434.66	4863.63
434.85	4798.10
435.03	5036.83
435.22	4863.63
435.41	4933.85
435.59	4727.88
435.78	4983.00
435.97	4929.17
436.16	4732.56
436.34	5018.11
436.53	4898.74
436.72	5053.22
436.90	5015.77
437.09	4880.02
437.28	4973.64
437.46	4952.57
437.65	5067.26
437.84	4983.00
438.02	4931.51
438.21	4987.68
438.40	4912.78
438.58	5172.58
438.77	5296.63
438.96	5219.39
439.14	5486.22
439.33	5448.77
439.52	5511.96
439.70	5446.43
439.89	5474.51
440.08	5533.03
440.26	5509.62
440.45	5558.77
440.63	5558.77
440.82	5827.93
441.01	5809.21
441.19	5912.19
441.38	5998.79
441.57	6010.50
441.75	5816.23
441.94	6010.50
442.12	6106.46
442.31	6111.14
442.50	6010.50
442.68	5984.75
442.87	6333.49
443.05	6207.10
443.24	6284.34
443.43	6179.01
443.61	6136.88
443.80	6523.07
443.98	6197.74
444.17	6008.16
444.35	6249.23
444.54	6396.68
444.73	6459.88
444.91	6455.20
445.10	6186.04
445.28	6331.15
445.47	6249.23
445.65	6272.64
445.84	6296.04
446.02	6429.45
446.21	6279.66
446.39	6389.66
446.58	6483.28
446.77	6525.41
446.95	6450.52
447.14	6214.12
447.32	6445.84
447.51	6464.56
447.69	6466.90
447.88	6576.91
448.06	6532.44
448.25	6438.81
448.43	6574.56
448.62	6443.49
448.80	6553.50
448.99	6502.01
449.17	6689.25
449.36	6789.89
449.54	6806.28
449.73	6925.65
449.91	6785.21
450.10	6796.92
450.28	7112.89
450.46	6958.41
450.65	6986.50
450.83	6963.09
451.02	6902.24
451.20	7009.90
451.39	7087.14
451.57	7016.93
451.76	6981.82
451.94	6923.30
452.13	7084.80
452.31	7005.22
452.49	6864.79
452.68	7077.78
452.86	7045.01
453.05	7054.37
453.23	7218.21
453.42	6967.77
453.60	7014.59
453.78	7335.24
453.97	7197.15
454.15	7110.55
454.34	7190.13
454.52	7323.54
454.70	7353.96
454.89	7187.79
455.07	7330.56
455.26	7339.92
455.44	7557.59
455.62	7456.95
455.81	7480.35
455.99	7810.37
456.17	7531.84
456.36	7449.93
456.54	7665.25
456.73	7716.75
456.91	7887.61
457.09	7819.73
457.28	7861.86
457.46	7908.67
457.64	7857.18
457.83	7892.29
458.01	7747.17
458.19	8018.68
458.38	7985.91
458.56	8126.34
458.74	7889.95
458.93	8170.81
459.11	8100.59
459.29	7873.56
459.48	8116.98
459.66	8072.51
459.84	8025.70
460.03	8245.71
460.21	8442.31
460.39	8161.45
460.57	8145.06
460.76	8313.58
460.94	8322.94
461.12	8409.54
461.31	8376.78
461.49	8332.31
461.67	8407.20
461.85	8589.77
462.04	8336.99
462.22	8987.66
462.40	8549.98
462.59	8599.13
462.77	8503.17
462.95	8835.52
463.13	8655.30
463.32	8510.19
463.50	8697.43
463.68	8683.39
463.86	8861.27
464.05	8547.64
464.23	8657.64
464.41	8767.65
464.59	8634.24
464.78	8954.89
464.96	8992.34
465.14	8669.34
465.32	8908.08
465.50	9027.45
465.69	9050.85
465.87	8912.76
466.05	8952.55
466.23	9083.62
466.41	8978.30
466.60	9057.87
466.78	9076.60
466.96	8926.80
467.14	9029.79
467.32	9125.75
467.51	9217.03
467.69	9043.83
467.87	9163.20
468.05	9390.23
468.23	9242.78
468.41	9207.67
468.60	9174.90
468.78	9413.63
468.96	9020.42
469.14	9483.85
469.32	9483.85
469.50	9245.12
469.69	9369.16
469.87	9298.95
470.05	9516.62
470.23	9614.92
470.41	9514.28
470.59	9898.13
470.77	9572.79
470.95	9643.01
471.14	9783.44
471.32	9556.41
471.50	10143.88
471.68	9790.46
471.86	10076.01
472.04	10017.49
472.22	10361.55
472.40	9633.64
472.58	10150.90
472.77	9977.70
472.95	10298.36
473.13	10597.95
473.31	10197.71
473.49	10305.38
473.67	10403.68
473.85	10534.75
474.03	10614.33
474.21	10623.69
474.39	10801.57
474.57	10733.70
474.75	10881.15
474.93	10899.87
475.12	10899.87
475.30	10862.43
475.48	10942.00
475.66	11077.76
475.84	10832.00
476.02	11049.67
476.20	11143.29
476.38	11363.30
476.56	11562.25
476.74	11339.90
476.92	11236.91
477.10	11323.51
477.28	11627.78
477.46	11531.82
477.64	11843.11
477.82	12020.99
478.00	12353.35
478.18	12011.63
478.36	12088.87
478.54	12402.50
478.72	12496.12
478.90	12695.07
479.08	12699.75
479.26	12814.43
479.44	12732.51
479.62	12711.45
479.80	12870.61
479.98	12842.52
480.16	12973.59
480.34	12980.61
480.52	13324.67
480.70	13542.34
480.88	13198.28
481.06	13589.15
481.24	13682.77
481.41	13748.31
481.59	14054.92
481.77	13778.73
481.95	14272.59
482.13	14068.96
482.31	14202.37
482.49	14513.66
482.67	14471.53
482.85	14778.14
483.03	14656.43
483.21	15089.43
483.39	15016.88
483.57	15002.83
483.74	15070.71
483.92	15227.53
484.10	15129.22
484.28	15405.41
484.46	15510.73
484.64	15932.03
484.82	15625.42
485.00	15871.17
485.18	16137.99
485.35	16161.40
485.53	15676.91
485.71	15845.43
485.89	16189.49
486.07	16091.18
486.25	16390.77
486.43	16489.07
486.61	16716.11
486.78	16809.73
486.96	16699.72
487.14	17312.94
487.32	17312.94
487.50	17453.37
487.68	17539.97
487.85	17923.82
488.03	17872.33
488.21	18167.24
488.39	18249.16
488.57	18356.82
488.75	18555.77
488.92	18794.50
489.10	18948.98
489.28	18738.33
489.46	19030.90
489.64	19304.74
489.81	19536.45
489.99	19784.55
490.17	19829.02
490.35	19695.61
490.53	19812.63
490.70	19768.16
490.88	20079.46
491.06	20334.57
491.24	20086.48
491.41	20402.45
491.59	20327.55
491.77	20449.26
491.95	20507.77
492.13	20751.19
492.30	21116.31
492.48	21041.42
492.66	21247.38
492.84	20973.54
493.01	21336.32
493.19	21280.15
493.37	21715.49
493.54	21781.03
493.72	22221.05
493.90	22204.66
494.08	22492.55
494.25	22698.52
494.43	22600.21
494.61	22731.28
494.79	22771.07
494.96	22492.55
495.14	23037.89
495.32	23112.79
495.49	23386.63
495.67	23491.96
495.85	23536.43
496.02	23503.66
496.20	23625.37
496.38	24044.32
496.55	24072.41
496.73	24594.35
496.91	24240.93
497.09	24114.54
497.26	24474.98
497.44	24367.32
497.62	24856.49
497.79	24816.70
497.97	24449.24
498.14	25017.99
498.32	25193.53
498.50	24912.66
498.67	25184.16
498.85	25113.95
499.03	25584.40
499.20	25797.38
499.38	25661.63
499.56	25841.85
499.73	26375.50
499.91	25673.34
500.08	25921.43
500.26	25972.92
500.44	26209.32
500.61	26148.46
500.79	26431.67
500.97	26441.03
501.14	26850.63
501.32	26771.05
501.49	26412.95
501.67	26857.65
501.84	27054.25
502.02	27077.66
502.20	27063.61
502.37	27023.83
502.55	27129.15
502.72	27524.70
502.90	27660.45
503.07	27718.96
503.25	27435.76
503.43	27391.29
503.60	27751.73
503.78	27765.78
503.95	27583.21
504.13	27974.08
504.30	28060.68
504.48	28065.36
504.65	28397.72
504.83	28091.11
505.01	28231.54
505.18	28458.57
505.36	28741.78
505.53	28641.14
505.71	29015.62
505.88	29090.52
506.06	28952.43
506.23	29614.80
506.41	28809.65
506.58	29188.82
506.76	29511.81
506.93	29413.51
507.11	29488.41
507.28	29816.08
507.46	29198.18
507.63	29851.19
507.81	29816.08
507.98	29909.71
508.16	29642.88
508.33	30122.69
508.50	30073.54
508.68	30471.43
508.85	30558.03
509.03	30106.31
509.20	30347.39
509.38	30637.61
509.55	31016.78
509.73	30543.99
509.90	30862.30
510.08	30684.42
510.25	30637.61
510.42	30890.39
510.60	31159.55
510.77	31622.98
510.95	31344.45
511.12	31112.74
511.30	31292.96
511.47	32063.00
511.64	32067.68
511.82	31803.20
511.99	31749.37
512.17	32205.77
512.34	31632.34
512.51	31796.18
512.69	32596.64
512.86	32107.47
513.04	32367.27
513.21	32268.97
513.38	32233.86
513.56	32664.52
513.73	32283.01
513.90	32526.42
514.08	32306.41
514.25	32554.51
514.43	32503.02
514.60	32517.06
514.77	33053.05
514.95	33177.09
515.12	33069.43
515.29	32510.04
515.47	33752.87
515.64	33504.77
515.81	33071.77
515.99	32821.33
516.16	33455.62
516.33	33179.43
516.51	33703.71
516.68	32886.87
516.85	33057.73
517.03	33212.20
517.20	33420.51
517.37	33809.04
517.54	33823.08
517.72	33432.21
517.89	33525.83
518.06	33546.90
518.24	33502.43
518.41	33912.02
518.58	33874.57
518.75	33734.14
518.93	34394.17
519.10	34604.82
519.27	34670.36
519.45	34660.99
519.62	35136.12
519.79	34766.32
519.96	35012.07
520.14	34864.62
520.31	34836.53
520.48	35075.27
520.65	35119.74
520.83	35115.06
521.00	34967.60
521.17	35456.78
521.34	35304.64
521.52	35573.80
521.69	35990.42
521.86	35990.42
522.03	35683.81
522.20	35580.82
522.38	36287.67
522.55	35985.74
522.72	35597.21
522.89	35889.77
523.07	36163.62
523.24	35765.73
523.41	36470.23
523.58	35999.78
523.75	36868.12
523.92	36685.56
524.10	36870.46
524.27	36837.69
524.44	36931.31
524.61	36582.57
524.78	37258.99
524.96	37130.26
525.13	37048.34
525.30	37144.30
525.47	37258.99
525.64	37043.66
525.81	36935.99
525.98	37251.97
526.16	37102.17
526.33	37354.95
526.50	37359.63
526.67	36950.04
526.84	36973.44
527.01	37209.84
527.18	37677.94
527.36	37539.85
527.53	37879.23
527.70	38146.05
527.87	38249.03
528.04	37844.12
528.21	37984.55
528.38	37972.85
528.55	38202.22
528.72	38176.48
528.89	38300.53
529.07	38340.32
529.24	38000.94
529.41	38532.24
529.58	38555.64
529.75	38246.69
529.92	38583.73
530.09	38548.62
530.26	38712.46
530.43	39318.66
530.60	38520.54
530.77	39021.41
530.94	38895.02
531.11	39049.50
531.28	39243.76
531.46	39009.71
531.63	38831.83
531.80	38951.20
531.97	39262.49
532.14	39023.75
532.31	38609.48
532.48	39166.52
532.65	39339.72
532.82	39601.86
532.99	39810.17
533.16	39138.44
533.33	39639.31
533.50	39648.68
533.67	39681.44
533.84	39077.58
534.01	39646.33
534.18	39831.24
534.35	39985.71
534.52	40046.57
534.69	40027.84
534.86	39966.99
535.03	39969.33
535.20	40191.68
535.37	40751.07
535.54	40439.78
535.71	40456.16
535.88	40151.89
536.05	40044.23
536.22	40620.00
536.38	40189.34
536.55	40378.92
536.72	39875.71
536.89	40517.01
537.06	40708.94
537.23	40659.79
537.40	40304.02
537.57	40643.40
537.74	40737.02
537.91	41165.34
538.08	40865.75
538.25	40786.18
538.42	41062.36
538.59	41074.06
538.75	40615.32
538.92	40760.43
539.09	41036.61
539.26	41310.46
539.43	40938.31
539.60	41034.27
539.77	41170.02
539.94	41495.36
540.11	40851.71
540.28	40849.37
540.44	40898.52
540.61	40755.75
540.78	40961.72
540.95	41081.08
541.12	41497.70
541.29	41120.87
541.46	41347.90
541.62	41429.82
541.79	41778.56
541.96	41415.78
542.13	41612.38
542.30	41769.20
542.47	41493.02
542.63	41801.97
542.80	41844.10
542.97	42319.23
543.14	42363.70
543.31	42546.26
543.48	42064.11
543.64	42555.62
543.81	42380.08
543.98	42532.22
544.15	42117.94
544.32	42639.88
544.48	42864.57
544.65	42562.64
544.82	42307.52
544.99	42529.87
545.16	42265.39
545.32	42501.79
545.49	43164.16
545.66	42827.12
545.83	42976.92
546.00	42965.21
546.16	42955.85
546.33	42724.14
546.50	42794.36
546.67	42745.20
546.83	42401.14
547.00	42684.35
547.17	42738.18
547.34	43007.34
547.50	43145.44
547.67	43363.11
547.84	43278.85
548.00	43105.65
548.17	43583.12
548.34	43360.76
548.51	43353.74
548.67	43814.83
548.84	43845.26
549.01	42944.15
549.18	43356.08
549.34	43599.50
549.51	43878.02
549.68	43667.37
549.84	44011.43
550.01	43672.06
550.18	43295.23
550.34	43566.73
550.51	43751.63
550.68	43337.36
550.84	43711.84
551.01	43929.51
551.18	43782.06
551.34	43587.80
551.51	43721.21
551.68	44238.47
551.84	43770.36
552.01	43695.46
552.18	43433.32
552.34	43695.46
552.51	43936.54
552.68	43849.94
552.84	44439.75
553.01	44205.70
553.18	44163.57
553.34	44549.76
553.51	44100.37
553.67	43873.34
553.84	44711.25
554.01	44938.29
554.17	44444.43
554.34	44636.36
554.51	44556.78
554.67	44212.72
554.84	44835.30
555.00	44257.19
555.17	44535.71
555.33	44383.58
555.50	44385.92
555.67	44622.31
555.83	44542.74
556.00	44664.44
556.16	44582.52
556.33	44205.70
556.50	44711.25
556.66	44524.01
556.83	44638.70
556.99	44790.83
557.16	44933.60
557.32	44854.03
557.49	44835.30
557.65	44842.32
557.82	44896.16
557.98	44610.61
558.15	44830.62
558.32	44872.75
558.48	44554.44
558.65	44825.94
558.81	45008.50
558.98	45022.54
559.14	44938.29
559.31	45312.77
559.47	45113.83
559.64	45155.96
559.80	45441.50
559.97	45202.77
560.13	45118.51
560.30	44971.05
560.46	45565.55
560.63	45460.23
560.79	45289.37
560.96	44601.25
561.12	44835.30
561.29	45132.55
561.45	45172.34
561.61	45380.65
561.78	44985.10
561.94	45242.56
562.11	45263.62
562.27	45151.27
562.44	45546.82
562.60	45457.88
562.77	45993.87
562.93	45256.60
563.10	45642.79
563.26	45191.06
563.42	45312.77
563.59	45303.41
563.75	45361.92
563.92	45329.16
564.08	45794.92
564.24	45469.59
564.41	45191.06
564.57	45420.44
564.74	45532.78
564.90	45291.71
565.07	45928.33
565.23	45474.27
565.39	45062.33
565.56	45659.17
565.72	45755.13
565.88	45287.03
566.05	45275.32
566.21	45544.48
566.38	45507.04
566.54	45418.10
566.70	45471.93
566.87	46658.58
567.03	45925.99
567.19	46183.45
567.36	46068.76
567.52	45507.04
567.68	45825.35
567.85	45968.12
568.01	45904.93
568.17	45886.20
568.34	45607.68
568.50	45918.97
568.66	45481.29
568.83	45811.31
568.99	45382.99
569.15	45645.13
569.32	45523.42
569.48	45256.60
569.64	46082.81
569.81	45921.31
569.97	45570.23
570.13	45818.33
570.30	45741.09
570.46	45588.95
570.62	45773.86
570.78	45497.67
570.95	45832.37
571.11	45607.68
571.27	45853.44
571.43	45979.82
571.60	45790.24
571.76	45961.10
571.92	46050.04
572.09	45808.96
572.25	45979.82
572.41	45965.78
572.57	46038.34
572.74	46150.68
572.90	46270.05
573.06	45834.71
573.22	45844.07
573.38	45591.30
573.55	45771.52
573.71	46153.02
573.87	45928.33
574.03	45261.28
574.20	46127.28
574.36	45991.53
574.52	45993.87
574.68	45783.22
574.84	46295.80
575.01	46014.93
575.17	45937.69
575.33	46204.52
575.49	45516.40
575.65	46225.58
575.82	46248.99
575.98	45933.01
576.14	46424.53
576.30	46344.95
576.46	45862.80
576.62	45731.73
576.79	45771.52
576.95	45888.54
577.11	45844.07
577.27	45947.06
577.43	46061.74
577.59	45977.48
577.75	45935.35
577.92	45710.66
578.08	45605.34
578.24	45481.29
578.40	45708.32
578.56	45766.84
578.72	45717.68
578.88	45530.44
579.04	46246.65
579.21	46021.95
579.37	46263.03
579.53	46113.23
579.69	45600.66
579.85	46366.01
580.01	46115.58
580.17	45970.46
580.33	46270.05
580.49	46096.85
580.65	46089.83
580.82	46494.74
580.98	46190.47
581.14	46171.75
581.30	46394.10
581.46	46316.86
581.62	46113.23
581.78	46064.08
581.94	46691.35
582.10	46412.82
582.26	46363.67
582.42	46150.68
582.58	45787.90
582.74	45720.02
582.90	45823.01
583.06	46043.02
583.22	45958.76
583.38	46686.67
583.54	46085.15
583.70	46115.58
583.86	45895.56
584.02	45696.62
584.18	46066.42
584.34	46415.16
584.50	46204.52
584.66	46323.88
584.82	46024.29
584.98	46494.74
585.14	46265.37
585.30	46014.93
585.46	46363.67
585.62	46216.22
585.78	45940.04
585.94	45794.92
586.10	46155.36
586.26	45684.92
586.42	46117.92
586.58	46319.20
586.74	45745.77
586.90	45996.21
587.06	46293.46
587.22	46515.81
587.38	46043.02
587.54	46211.54
587.70	46354.31
587.86	46344.95
588.02	46277.07
588.18	46284.09
588.34	46024.29
588.49	46075.79
588.65	45708.32
588.81	45808.96
588.97	45881.52
589.13	46127.28
589.29	45944.72
589.45	45900.25
589.61	45762.15
589.77	46298.14
589.93	46045.36
