SpectraSuite Data File
++++++++++++++++++++++++++++++++++++
Date: Fri Oct 25 10:44:46 EDT 2013
User: price-jones
Dark Spectrum Present: No
Reference Spectrum Present: No
Number of Sampled Component Spectra: 1
Spectrometers: USB2+H05261
Integration Time (usec): 100000 (USB2+H05261)
Spectra Averaged: 1 (USB2+H05261)
Boxcar Smoothing: 0 (USB2+H05261)
Correct for Electrical Dark: No (USB2+H05261)
Strobe/Lamp Enabled: No (USB2+H05261)
Correct for Detector Non-linearity: No (USB2+H05261)
Correct for Stray Light: No (USB2+H05261)
Number of Pixels in Processed Spectrum: 2048
>>>>>Begin Processed Spectral Data<<<<<
365.73	168.52
365.92	168.52
366.12	168.52
366.32	35.11
366.52	0.00
366.72	14.04
366.91	0.00
367.11	56.17
367.31	0.00
367.51	0.00
367.70	32.77
367.90	107.66
368.10	63.19
368.30	105.32
368.49	0.00
368.69	0.00
368.89	91.28
369.09	53.83
369.28	37.45
369.48	77.24
369.68	93.62
369.87	91.28
370.07	72.56
370.27	88.94
370.47	196.60
370.66	320.65
370.86	386.19
371.06	414.27
371.25	444.70
371.45	369.80
371.65	484.49
371.84	489.17
372.04	482.15
372.24	416.62
372.44	470.45
372.63	535.98
372.83	472.79
373.03	440.02
373.22	463.43
373.42	421.30
373.62	547.69
373.81	545.34
374.01	564.07
374.21	535.98
374.40	512.58
374.60	538.32
374.79	484.49
374.99	566.41
375.19	571.09
375.38	543.00
375.58	582.79
375.78	571.09
375.97	550.03
376.17	594.50
376.37	575.77
376.56	622.58
376.76	521.94
376.95	603.86
377.15	636.63
377.35	624.92
377.54	622.58
377.74	582.79
377.93	528.96
378.13	653.01
378.33	610.88
378.52	592.16
378.72	547.69
378.91	641.31
379.11	575.77
379.31	641.31
379.50	601.52
379.70	688.12
379.89	657.69
380.09	662.37
380.28	627.26
380.48	624.92
380.68	648.33
380.87	638.97
381.07	594.50
381.26	671.73
381.46	678.76
381.65	695.14
381.85	667.05
382.04	634.29
382.24	730.25
382.43	655.35
382.63	655.35
382.83	704.50
383.02	741.95
383.22	734.93
383.41	643.65
383.61	699.82
383.80	676.41
384.00	664.71
384.19	777.06
384.39	716.20
384.58	753.65
384.78	802.80
384.97	767.70
385.17	720.88
385.36	730.25
385.56	765.36
385.75	706.84
385.95	748.97
386.14	844.93
386.34	751.31
386.53	711.52
386.72	676.41
386.92	851.96
387.11	767.70
387.31	833.23
387.50	791.10
387.70	901.11
387.89	737.27
388.09	748.97
388.28	812.17
388.48	676.41
388.67	786.42
388.86	856.64
389.06	774.72
389.25	898.77
389.45	873.02
389.64	842.59
389.84	926.85
390.03	903.45
390.22	919.83
390.42	922.17
390.61	966.64
390.81	919.83
391.00	980.68
391.19	1011.11
391.39	959.62
391.58	924.51
391.78	973.66
391.97	1015.79
392.16	950.26
392.36	999.41
392.55	905.79
392.75	950.26
392.94	954.94
393.13	976.00
393.33	1004.09
393.52	1015.79
393.71	1083.67
393.91	922.17
394.10	1142.18
394.29	983.02
394.49	1097.71
394.68	1034.52
394.88	1027.50
395.07	1158.57
395.26	1123.46
395.46	1165.59
395.65	1132.82
395.84	1069.62
396.04	1160.91
396.23	1163.25
396.42	1170.27
396.62	1097.71
396.81	1139.84
397.00	1196.01
397.19	1086.01
397.39	1179.63
397.58	1266.23
397.77	1203.04
397.97	1306.02
398.16	1320.06
398.35	1259.21
398.55	1275.59
398.74	1350.49
398.93	1399.64
399.12	1226.44
399.32	1277.93
399.51	1289.64
399.70	1345.81
399.90	1362.19
400.09	1380.92
400.28	1465.18
400.47	1460.49
400.67	1324.74
400.86	1448.79
401.05	1453.47
401.24	1500.28
401.44	1483.90
401.63	1430.07
401.82	1514.33
402.01	1425.39
402.21	1558.80
402.40	1568.16
402.59	1565.82
402.78	1460.49
402.97	1519.01
403.17	1605.61
403.36	1558.80
403.55	1591.56
403.74	1722.63
403.93	1680.50
404.13	1582.20
404.32	1652.42
404.51	1659.44
404.70	1638.38
404.89	1689.87
405.09	1727.32
405.28	1668.80
405.47	1732.00
405.66	1788.17
405.85	1713.27
406.05	1713.27
406.24	1776.47
406.43	1830.30
406.62	1879.45
406.81	1923.92
407.00	1722.63
407.20	1834.98
407.39	1785.83
407.58	1886.47
407.77	1949.67
407.96	1933.28
408.15	2019.88
408.34	1977.75
408.54	2005.84
408.73	2045.63
408.92	2071.37
409.11	2092.44
409.30	2026.90
409.49	1982.43
409.68	2085.42
409.87	1991.80
410.07	2143.93
410.26	2211.81
410.45	2181.38
410.64	2059.67
410.83	2181.38
411.02	2193.08
411.21	2275.00
411.40	2317.13
411.59	2354.58
411.78	2265.64
411.98	2298.41
412.17	2380.32
412.36	2445.86
412.55	2459.90
412.74	2396.71
412.93	2380.32
413.12	2434.16
413.31	2502.03
413.50	2420.11
413.69	2546.50
413.88	2605.02
414.07	2595.65
414.26	2605.02
414.45	2637.78
414.64	2686.94
414.83	2537.14
415.02	2764.17
415.22	2796.94
415.41	2810.98
415.60	2778.22
415.79	2754.81
415.98	2918.65
416.17	2883.54
416.36	2925.67
416.55	2808.64
416.74	2939.71
416.93	2925.67
417.12	2984.18
417.31	2916.31
417.50	2942.05
417.69	3173.77
417.88	3082.49
418.07	3084.83
418.26	3059.08
418.45	3262.71
418.64	3187.81
418.83	3159.72
419.02	3150.36
419.21	3253.34
419.39	3253.34
419.58	3187.81
419.77	3225.26
419.96	3293.13
420.15	3342.28
420.34	3183.13
420.53	3358.67
420.72	3452.29
420.91	3372.71
421.10	3456.97
421.29	3351.65
421.48	3328.24
421.67	3471.01
421.86	3358.67
422.05	3375.05
422.24	3358.67
422.43	3529.53
422.61	3461.65
422.80	3531.87
422.99	3456.97
423.18	3581.02
423.37	3719.11
423.56	3571.66
423.75	3669.96
423.94	3428.88
424.13	3265.05
424.32	3452.29
424.50	3559.95
424.69	3646.55
424.88	3627.83
425.07	3606.77
425.26	3531.87
425.45	3564.64
425.64	3588.04
425.83	3651.24
426.01	3686.34
426.20	3684.00
426.39	3674.64
426.58	3548.25
426.77	3613.79
426.96	3618.47
427.15	3667.62
427.33	3691.02
427.52	3639.53
427.71	3611.45
427.90	3700.39
428.09	3880.61
428.28	3901.67
428.46	3742.52
428.65	3927.42
428.84	3934.44
429.03	3894.65
429.22	3803.37
429.40	3831.46
429.59	3798.69
429.78	3756.56
429.97	3550.59
430.16	3609.11
430.34	3957.85
430.53	4018.70
430.72	3908.69
430.91	3840.82
431.10	3969.55
431.28	4175.52
431.47	4250.41
431.66	4280.84
431.85	4060.83
432.03	4308.93
432.22	4280.84
432.41	4131.05
432.60	4243.39
432.79	4147.43
432.97	4311.27
433.16	4456.38
433.35	4161.47
433.54	4262.12
433.72	4341.69
433.91	4451.70
434.10	4285.52
434.28	4325.31
434.47	4414.25
434.66	4404.89
434.85	4386.16
435.03	4505.53
435.22	4461.06
435.41	4629.58
435.59	4407.23
435.78	4542.98
435.97	4582.77
436.16	4615.54
436.34	4608.51
436.53	4510.21
436.72	4676.39
436.90	4540.64
437.09	4774.69
437.28	4596.81
437.46	4755.97
437.65	4641.28
437.84	4786.40
438.02	4652.98
438.21	4784.06
438.40	4774.69
438.58	4793.42
438.77	5074.28
438.96	5015.77
439.14	4997.04
439.33	5029.81
439.52	5181.95
439.70	5083.64
439.89	5055.56
440.08	5074.28
440.26	5294.29
440.45	5109.39
440.63	5364.51
440.82	5448.77
441.01	5313.02
441.19	5507.28
441.38	5406.64
441.57	5455.79
441.75	5633.67
441.94	5664.10
442.12	5636.01
442.31	5713.25
442.50	5746.02
442.68	5795.17
442.87	5621.97
443.05	5776.44
443.24	5678.14
443.43	5743.67
443.61	5715.59
443.80	5970.71
443.98	5645.37
444.17	5621.97
444.35	5987.09
444.54	6012.84
444.73	5778.78
444.91	5898.15
445.10	5797.51
445.28	5788.14
445.47	5907.51
445.65	5851.34
445.84	5799.85
446.02	5853.68
446.21	5827.93
446.39	5984.75
446.58	5881.77
446.77	6080.71
446.95	5944.96
447.14	6101.78
447.32	6108.80
447.51	5998.79
447.69	6155.61
447.88	6005.81
448.06	6069.01
448.25	6071.35
448.43	6106.46
448.62	6008.16
448.80	6153.27
448.99	6181.35
449.17	6162.63
449.36	6052.63
449.54	6312.42
449.73	6366.26
449.91	6214.12
450.10	6251.57
450.28	6544.14
450.46	6373.28
450.65	6497.33
450.83	6448.18
451.02	6504.35
451.20	6579.25
451.39	6518.39
451.57	6452.86
451.76	6296.04
451.94	6410.73
452.13	6672.87
452.31	6441.15
452.49	6368.60
452.68	6485.62
452.86	6368.60
453.05	6663.51
453.23	6649.46
453.42	6705.63
453.60	6696.27
453.78	6799.26
453.97	6471.58
454.15	6679.89
454.34	6661.16
454.52	6848.41
454.70	6810.96
454.89	6848.41
455.07	6916.28
455.26	6981.82
455.44	7009.90
455.62	6935.01
455.81	6920.96
455.99	6958.41
456.17	7056.72
456.36	7000.54
456.54	7236.94
456.73	7157.36
456.91	7218.21
457.09	7309.49
457.28	7531.84
457.46	7332.90
457.64	7323.54
457.83	7414.82
458.01	7159.70
458.19	7538.87
458.38	7379.71
458.56	7522.48
458.74	7487.37
458.93	7428.86
459.11	7630.15
459.29	7323.54
459.48	7573.97
459.66	7573.97
459.84	7501.42
460.03	7751.85
460.21	7681.64
460.39	7637.17
460.57	7749.51
460.76	7749.51
460.94	7803.35
461.12	8072.51
461.31	7730.79
461.49	7838.45
461.67	7805.69
461.85	7976.55
462.04	7899.31
462.22	8262.09
462.40	8016.33
462.59	8065.49
462.77	8067.83
462.95	8191.88
463.13	8276.13
463.32	8088.89
463.50	8252.73
463.68	8140.38
463.86	8278.47
464.05	7866.54
464.23	8142.72
464.41	8346.35
464.59	8009.31
464.78	8409.54
464.96	8353.37
465.14	8039.74
465.32	8353.37
465.50	8580.40
465.69	8325.29
465.87	8409.54
466.05	8601.47
466.23	8367.42
466.41	8280.82
466.60	8624.87
466.78	8472.74
466.96	8500.83
467.14	8428.27
467.32	8587.43
467.51	8643.60
467.69	8435.29
467.87	8500.83
468.05	8524.23
468.23	8664.66
468.41	8568.70
468.60	8575.72
468.78	8807.44
468.96	8561.68
469.14	8849.57
469.32	8926.80
469.50	8669.34
469.69	9011.06
469.87	9055.53
470.05	8954.89
470.23	8868.29
470.41	8957.23
470.59	9078.94
470.77	9041.49
470.95	9212.35
471.14	9231.07
471.32	9020.42
471.50	9287.25
471.68	9097.66
471.86	9247.46
472.04	9563.43
472.22	9479.17
472.40	9256.82
472.58	9523.64
472.77	9521.30
472.95	9521.30
473.13	10045.58
473.31	9523.64
473.49	9734.29
473.67	9682.80
473.85	9624.28
474.03	10052.60
474.21	9865.36
474.39	10043.24
474.57	10150.90
474.75	10331.12
474.93	10169.63
475.12	10253.89
475.30	10340.49
475.48	10298.36
475.66	10377.94
475.84	10326.44
476.02	10347.51
476.20	10391.98
476.38	10445.81
476.56	10782.85
476.74	10745.40
476.92	10883.49
477.10	10813.28
477.28	11124.57
477.46	11021.58
477.64	11276.70
477.82	11421.81
478.00	11332.87
478.18	11595.01
478.36	11562.25
478.54	11456.92
478.72	11571.61
478.90	11777.58
479.08	11920.35
479.26	12140.36
479.44	12004.61
479.62	12259.73
479.80	12161.42
479.98	12023.33
480.16	12360.37
480.34	12486.76
480.52	12514.84
480.70	12521.87
480.88	12367.39
481.06	12624.85
481.24	12613.15
481.41	12891.67
481.59	13146.79
481.77	13130.41
481.95	13163.17
482.13	13128.06
482.31	13254.45
482.49	13509.57
482.67	13479.15
482.85	13874.70
483.03	13909.80
483.21	14244.50
483.39	14164.92
483.57	14113.43
483.74	14134.50
483.92	14511.32
484.10	14139.18
484.28	14527.71
484.46	14668.14
484.64	15187.74
484.82	14700.90
485.00	14864.74
485.18	15176.03
485.35	15075.39
485.53	14834.32
485.71	14927.94
485.89	15484.98
486.07	15178.37
486.25	15461.58
486.43	15527.11
486.61	15768.19
486.78	16145.02
486.96	16009.26
487.14	16372.05
487.32	16472.69
487.50	16542.91
487.68	16751.21
487.85	16706.74
488.03	17092.93
488.21	17088.25
488.39	17151.45
488.57	17205.28
488.75	17326.99
488.92	17561.04
489.10	17900.42
489.28	18015.10
489.46	18216.39
489.64	18118.09
489.81	18382.57
489.99	18588.53
490.17	18513.64
490.35	18766.42
490.53	18499.59
490.70	18981.74
490.88	18871.74
491.06	19047.28
491.24	19187.71
491.41	19250.91
491.59	19367.93
491.77	19297.72
491.95	19487.30
492.13	19850.08
492.30	19779.87
492.48	19751.78
492.66	19992.86
492.84	20067.75
493.01	20367.34
493.19	20102.86
493.37	20348.62
493.54	20711.40
493.72	20900.98
493.90	21116.31
494.08	21109.29
494.25	21434.63
494.43	21392.50
494.61	21263.77
494.79	21446.33
494.96	21584.42
495.14	21680.38
495.32	21844.22
495.49	21876.99
495.67	22106.36
495.85	22066.57
496.02	22637.66
496.20	22373.18
496.38	22703.20
496.55	22689.15
496.73	23101.09
496.91	22740.64
497.09	22911.50
497.26	23073.00
497.44	23168.96
497.62	23513.02
497.79	23510.68
497.97	23250.88
498.14	23578.56
498.32	23747.08
498.50	23833.68
498.67	24065.39
498.85	24137.94
499.03	24074.75
499.20	24311.14
499.38	24219.86
499.56	24266.67
499.73	24404.77
499.91	24755.85
500.08	24652.86
500.26	24245.61
500.44	24755.85
500.61	24943.09
500.79	24613.07
500.97	25277.79
501.14	25336.30
501.32	25404.17
501.49	25228.63
501.67	25319.92
501.84	25282.47
502.02	25458.01
502.20	25663.97
502.37	25982.29
502.55	25764.62
502.72	25993.99
502.90	25855.90
503.07	25799.73
503.25	25975.27
503.43	26071.23
503.60	26288.90
503.78	25977.61
503.95	25993.99
504.13	26118.04
504.30	26742.96
504.48	26551.04
504.65	26810.84
504.83	26616.57
505.01	27592.58
505.18	27061.27
505.36	27487.25
505.53	27510.66
505.71	27442.78
505.88	27482.57
506.06	27145.53
506.23	27611.30
506.41	27618.32
506.58	27510.66
506.76	27730.67
506.93	28016.21
507.11	27821.95
507.28	28044.30
507.46	27779.82
507.63	28121.54
507.81	28535.81
507.98	28201.11
508.16	27960.04
508.33	28442.19
508.50	28493.68
508.68	28407.08
508.85	29109.24
509.03	28858.81
509.20	28662.20
509.38	29312.87
509.55	29397.13
509.73	29069.45
509.90	29048.39
510.08	29092.86
510.25	29277.76
510.42	29584.37
510.60	29790.34
510.77	29638.20
510.95	29923.75
511.12	29860.55
511.30	29926.09
511.47	29947.15
511.64	30211.64
511.82	30576.76
511.99	29905.02
512.17	29972.90
512.34	30153.12
512.51	30700.81
512.69	30211.64
512.86	30693.79
513.04	30717.19
513.21	30597.82
513.38	30602.50
513.56	30780.39
513.73	30450.37
513.90	31021.46
514.08	31077.63
514.25	31288.28
514.43	31367.86
514.60	30953.58
514.77	31173.60
514.95	31644.04
515.12	31356.16
515.29	31211.04
515.47	31915.54
515.64	31367.86
515.81	31412.33
515.99	31725.96
516.16	31768.09
516.33	31566.81
516.51	31531.70
516.68	31314.03
516.85	31475.52
517.03	31606.59
517.20	31777.45
517.37	32875.16
517.54	32402.38
517.72	32491.32
517.89	32034.91
518.06	32091.09
518.24	32114.49
518.41	32229.18
518.58	32584.94
518.75	32711.33
518.93	32921.98
519.10	32465.57
519.27	33055.39
519.45	32818.99
519.62	33127.94
519.79	33205.18
519.96	33092.83
520.14	33486.04
520.31	32835.38
520.48	33354.97
520.65	33312.84
520.83	33738.82
521.00	33464.98
521.17	33818.40
521.34	33757.55
521.52	33825.42
521.69	33830.10
521.86	33748.18
522.03	33708.40
522.20	34541.63
522.38	34403.53
522.55	34410.56
522.72	34242.04
522.89	34288.85
523.07	35009.73
523.24	34213.95
523.41	35049.52
523.58	34735.89
523.75	34771.00
523.92	34616.52
524.10	34707.80
524.27	35770.41
524.44	35288.26
524.61	35496.56
524.78	34885.68
524.96	35861.69
525.13	35049.52
525.30	36411.71
525.47	35875.73
525.64	35337.41
525.81	35344.43
525.98	35641.68
526.16	35246.13
526.33	35363.15
526.50	36060.63
526.67	35199.32
526.84	35424.01
527.01	35321.02
527.18	35716.58
527.36	35948.29
527.53	36273.62
527.70	36144.89
527.87	36510.02
528.04	36072.34
528.21	36650.45
528.38	36280.64
528.55	36643.43
528.72	36327.45
528.89	36751.09
529.07	36350.86
529.24	36598.96
529.41	36666.83
529.58	36594.28
529.75	36584.91
529.92	36760.45
530.09	36503.00
530.26	36961.74
530.43	36884.50
530.60	36437.46
530.77	36926.63
530.94	37008.55
531.11	37137.28
531.28	37490.70
531.46	37486.02
531.63	37085.79
531.80	37198.13
531.97	36973.44
532.14	37486.02
532.31	37373.67
532.48	37296.44
532.65	37626.45
532.82	37385.38
532.99	37811.35
533.16	37736.46
533.33	37610.07
533.50	38099.24
533.67	37956.47
533.84	37593.68
534.01	38197.54
534.18	38132.01
534.35	38321.59
534.52	37855.82
534.69	38141.37
534.86	38239.67
535.03	38665.65
535.20	38192.86
535.37	38389.47
535.54	38300.53
535.71	38480.75
535.88	38532.24
536.05	38223.29
536.22	38302.87
536.38	38450.32
536.55	38604.80
536.72	38462.02
536.89	38298.19
537.06	38485.43
537.23	39002.69
537.40	38969.92
537.57	38211.59
537.74	38649.27
537.91	39218.02
538.08	39072.90
538.25	38649.27
538.42	39136.10
538.59	39470.79
538.75	38969.92
538.92	39093.97
539.09	39248.44
539.26	39276.53
539.43	39431.01
539.60	39215.68
539.77	38967.58
539.94	39140.78
540.11	39199.29
540.28	39311.64
540.44	39496.54
540.61	39407.60
540.78	39302.28
540.95	39164.18
541.12	39466.11
541.29	39711.87
541.46	39533.99
541.62	39615.91
541.79	40072.31
541.96	39129.08
542.13	39512.92
542.30	39943.58
542.47	40025.50
542.63	39796.13
542.80	40034.86
542.97	40313.39
543.14	40467.86
543.31	40603.61
543.48	40568.51
543.64	40231.47
543.81	40940.65
543.98	40954.69
544.15	40816.60
544.32	40706.60
544.48	41160.66
544.65	40519.35
544.82	41305.77
544.99	40687.87
545.16	41022.57
545.32	40615.32
545.49	41418.12
545.66	41092.79
545.83	41408.76
546.00	41380.67
546.16	40877.46
546.33	41081.08
546.50	40610.64
546.67	40774.47
546.83	41081.08
547.00	41233.22
547.17	40870.43
547.34	41282.37
547.50	41780.90
547.67	41942.40
547.84	41284.71
548.00	41844.10
548.17	41567.91
548.34	41291.73
548.51	41860.48
548.67	41724.73
548.84	41890.91
549.01	41565.57
549.18	41294.07
549.34	41581.96
549.51	41647.49
549.68	42050.06
549.84	41839.42
550.01	42251.35
550.18	42253.69
550.34	42162.41
550.51	41841.76
550.68	41853.46
550.84	41853.46
551.01	42492.43
551.18	41951.76
551.34	42375.40
551.51	42120.28
551.68	41963.46
551.84	42218.58
552.01	41928.36
552.18	41979.85
552.34	42066.45
552.51	42246.67
552.68	42136.66
552.84	42230.29
553.01	42607.11
553.18	42672.65
553.34	42220.92
553.51	42426.89
553.67	42391.78
553.84	42738.18
554.01	42347.31
554.17	43009.68
554.34	42810.74
554.51	42555.62
554.67	42780.31
554.84	42373.06
555.00	42735.84
555.17	42946.49
555.33	42859.89
555.50	42815.42
555.67	42808.40
555.83	42822.44
556.00	42777.97
556.16	43377.15
556.33	42923.08
556.50	42904.36
556.66	42775.63
556.83	42682.01
556.99	43414.60
557.16	43353.74
557.32	43407.58
557.49	43058.84
557.65	43262.46
557.82	42972.24
557.98	42920.74
558.15	42962.87
558.32	43234.38
558.48	43480.13
558.65	42986.28
558.81	42979.26
558.98	43297.57
559.14	43629.93
559.31	43023.73
559.47	43487.15
559.64	43562.05
559.80	43594.82
559.97	43833.55
560.13	43285.87
560.30	43192.25
560.46	43423.96
560.63	43620.56
560.79	43658.01
560.96	43936.54
561.12	43482.47
561.29	43611.20
561.45	43807.81
561.61	43594.82
561.78	43459.07
561.94	43400.55
562.11	43199.27
562.27	43419.28
562.44	43768.02
562.60	43592.48
562.77	43660.35
562.93	43466.09
563.10	43882.70
563.26	43789.08
563.42	43533.96
563.59	43611.20
563.75	43615.88
563.92	43800.79
564.08	43732.91
564.24	43814.83
564.41	43845.26
564.57	43969.30
564.74	43756.32
564.90	43531.62
565.07	43973.98
565.23	43573.75
565.39	43580.78
565.56	44006.75
565.72	43604.18
565.88	43992.71
566.05	43878.02
566.21	44041.86
566.38	44107.40
566.54	43929.51
566.70	43990.37
566.87	44381.24
567.03	44060.58
567.19	44177.61
567.36	44133.14
567.52	44318.04
567.68	44018.46
567.85	43491.83
568.01	44158.89
568.17	43686.10
568.34	44374.22
568.50	44086.33
568.66	43667.37
568.83	44175.27
568.99	43531.62
569.15	44034.84
569.32	43938.88
569.48	43845.26
569.64	44346.13
569.81	44516.99
569.97	44226.76
570.13	44563.80
570.30	43889.73
570.46	43924.83
570.62	43910.79
570.78	43964.62
570.95	44093.35
571.11	44044.20
571.27	43892.07
571.43	44406.98
571.60	44037.18
571.76	44156.55
571.92	44561.46
572.09	44203.36
572.25	44463.16
572.41	43770.36
572.57	44519.33
572.74	44825.94
572.90	44619.97
573.06	44481.88
573.22	44573.16
573.38	44245.49
573.55	44423.37
573.71	44306.34
573.87	44428.05
574.03	44039.52
574.20	44151.87
574.36	44421.03
574.52	44502.95
574.68	44266.55
574.84	44449.11
575.01	44135.48
575.17	44547.42
575.33	44208.04
575.49	44112.08
575.65	44914.88
575.82	44360.17
575.98	44285.28
576.14	44748.70
576.30	44275.91
576.46	44266.55
576.62	44629.34
576.79	43849.94
576.95	43847.60
577.11	44254.85
577.27	44596.57
577.43	44528.69
577.59	44575.50
577.75	44289.96
577.92	43608.86
578.08	44102.71
578.24	44224.42
578.40	44177.61
578.56	44343.79
578.72	44177.61
578.88	44650.40
579.04	44999.14
579.21	44940.63
579.37	44311.02
579.53	44505.29
579.69	44034.84
579.85	44643.38
580.01	44371.88
580.17	44194.00
580.33	44561.46
580.49	44498.26
580.65	45029.57
580.82	44921.90
580.98	44472.52
581.14	44788.49
581.30	44701.89
581.46	44804.88
581.62	44680.83
581.78	44257.19
581.94	44601.25
582.10	44332.09
582.26	44325.07
582.42	44545.08
582.58	44184.63
582.74	44360.17
582.90	44856.37
583.06	44886.79
583.22	44959.35
583.38	44854.03
583.54	44800.19
583.70	44577.84
583.86	44594.23
584.02	44376.56
584.18	43992.71
584.34	44458.48
584.50	44446.77
584.66	44280.60
584.82	44423.37
584.98	44519.33
585.14	45031.91
585.30	44404.64
585.46	44587.21
585.62	44973.39
585.78	44863.39
585.94	44034.84
586.10	44626.99
586.26	44479.54
586.42	44910.20
586.58	44737.00
586.74	44889.13
586.90	44509.97
587.06	44320.38
587.22	44416.35
587.38	44479.54
587.54	44631.68
587.70	44463.16
587.86	44612.95
588.02	44809.56
588.18	44821.26
588.34	44596.57
588.49	44493.58
588.65	43959.94
588.81	44610.61
588.97	44446.77
589.13	44552.10
589.29	44388.26
589.45	44416.35
589.61	44458.48
589.77	44308.68
589.93	44697.21
590.08	45280.00
590.24	44573.16
