SpectraSuite Data File
++++++++++++++++++++++++++++++++++++
Date: Fri Oct 25 11:22:50 EDT 2013
User: price-jones
Dark Spectrum Present: No
Reference Spectrum Present: No
Number of Sampled Component Spectra: 1
Spectrometers: USB2+H05261
Integration Time (usec): 100000 (USB2+H05261)
Spectra Averaged: 1 (USB2+H05261)
Boxcar Smoothing: 0 (USB2+H05261)
Correct for Electrical Dark: No (USB2+H05261)
Strobe/Lamp Enabled: No (USB2+H05261)
Correct for Detector Non-linearity: No (USB2+H05261)
Correct for Stray Light: No (USB2+H05261)
Number of Pixels in Processed Spectrum: 2048
>>>>>Begin Processed Spectral Data<<<<<
365.73	301.93
365.92	301.93
366.12	301.93
366.32	119.37
366.52	93.62
366.72	201.29
366.91	100.64
367.11	119.37
367.31	84.26
367.51	128.73
367.70	114.69
367.90	152.13
368.10	159.16
368.30	156.82
368.49	159.16
368.69	126.39
368.89	161.50
369.09	91.28
369.28	119.37
369.48	105.32
369.68	224.69
369.87	191.92
370.07	168.52
370.27	217.67
370.47	320.65
370.66	599.18
370.86	648.33
371.06	648.33
371.25	695.14
371.45	638.97
371.65	692.80
371.84	627.26
372.04	624.92
372.24	772.38
372.44	674.07
372.63	690.46
372.83	709.18
373.03	791.10
373.22	706.84
373.42	758.33
373.62	732.59
373.81	760.67
374.01	863.66
374.21	809.83
374.40	758.33
374.60	847.27
374.79	851.96
374.99	763.01
375.19	828.55
375.38	784.08
375.58	791.10
375.78	784.08
375.97	938.55
376.17	901.11
376.37	798.12
376.56	922.17
376.76	905.79
376.95	858.98
377.15	917.49
377.35	940.90
377.54	870.68
377.74	837.91
377.93	898.77
378.13	950.26
378.33	919.83
378.52	908.13
378.72	950.26
378.91	938.55
379.11	978.34
379.31	961.96
379.50	926.85
379.70	1013.45
379.89	1013.45
380.09	1034.52
380.28	894.08
380.48	950.26
380.68	959.62
380.87	1078.99
381.07	1043.88
381.26	1074.31
381.46	1004.09
381.65	961.96
381.85	1018.13
382.04	1015.79
382.24	1102.39
382.43	1097.71
382.63	1095.37
382.83	1090.69
383.02	999.41
383.22	1046.22
383.41	1069.62
383.61	1069.62
383.80	1226.44
384.00	1118.78
384.19	1109.41
384.39	1118.78
384.58	1142.18
384.78	1107.07
384.97	1086.01
385.17	1184.31
385.36	1235.80
385.56	1109.41
385.75	1062.60
385.95	1245.16
386.14	1163.25
386.34	1186.65
386.53	1151.54
386.72	1296.66
386.92	1221.76
387.11	1273.25
387.31	1205.38
387.50	1273.25
387.70	1226.44
387.89	1259.21
388.09	1266.23
388.28	1191.33
388.48	1313.04
388.67	1341.13
388.86	1284.95
389.06	1348.15
389.25	1376.24
389.45	1352.83
389.64	1308.36
389.84	1350.49
390.03	1394.96
390.22	1275.59
390.42	1455.81
390.61	1390.28
390.81	1401.98
391.00	1392.62
391.19	1418.36
391.39	1416.02
391.58	1472.20
391.78	1526.03
391.97	1500.28
392.16	1420.71
392.36	1542.41
392.55	1451.13
392.75	1547.09
392.94	1584.54
393.13	1420.71
393.33	1551.78
393.52	1493.26
393.71	1612.63
393.91	1500.28
394.10	1540.07
394.29	1617.31
394.49	1629.01
394.68	1664.12
394.88	1509.65
395.07	1636.03
395.26	1710.93
395.46	1568.16
395.65	1708.59
395.84	1699.23
396.04	1811.57
396.23	1823.28
396.42	1783.49
396.62	1827.96
396.81	1785.83
397.00	1785.83
397.19	1790.51
397.39	1919.24
397.58	1856.04
397.77	1802.21
397.97	1832.64
398.16	1790.51
398.35	1923.92
398.55	1849.02
398.74	1853.70
398.93	1970.73
399.12	1923.92
399.32	2008.18
399.51	1989.46
399.70	2076.06
399.90	1963.71
400.09	2038.61
400.28	2090.10
400.47	2024.56
400.67	2043.29
400.86	2047.97
401.05	2076.06
401.24	2062.01
401.44	2069.03
401.63	2122.87
401.82	2106.48
402.01	2120.53
402.21	2256.28
402.40	2204.78
402.59	2232.87
402.78	2314.79
402.97	2214.15
403.17	2172.02
403.36	2303.09
403.55	2319.47
403.74	2335.85
403.93	2326.49
404.13	2370.96
404.32	2417.77
404.51	2361.60
404.70	2499.69
404.89	2429.48
405.09	2431.82
405.28	2434.16
405.47	2366.28
405.66	2373.30
405.85	2354.58
406.05	2565.23
406.24	2590.97
406.43	2640.12
406.62	2544.16
406.81	2623.74
407.00	2637.78
407.20	2644.81
407.39	2708.00
407.58	2665.87
407.77	2775.88
407.96	2787.58
408.15	2743.11
408.34	2747.79
408.54	2731.41
408.73	2768.85
408.92	2719.70
409.11	2871.84
409.30	2869.50
409.49	2864.82
409.68	2991.20
409.87	2935.03
410.07	3126.96
410.26	3133.98
410.45	3023.97
410.64	3047.38
410.83	3089.51
411.02	3215.90
411.21	3171.43
411.40	3105.89
411.59	3286.11
411.78	3183.13
411.98	3159.72
412.17	3222.92
412.36	3229.94
412.55	3297.81
412.74	3389.10
412.93	3475.70
413.12	3363.35
413.31	3552.93
413.50	3515.48
413.69	3552.93
413.88	3681.66
414.07	3555.27
414.26	3777.62
414.45	3798.69
414.64	3691.02
414.83	3822.09
415.02	3824.44
415.22	3777.62
415.41	4023.38
415.60	3920.40
415.79	4039.76
415.98	3936.78
416.17	3948.48
416.36	4037.42
416.55	3976.57
416.74	4051.47
416.93	4011.68
417.12	4166.15
417.31	4259.78
417.50	4271.48
417.69	4388.50
417.88	4252.75
418.07	4234.03
418.26	4353.40
418.45	4257.43
418.64	4517.23
418.83	4468.08
419.02	4456.38
419.21	4564.04
419.39	4559.36
419.58	4608.51
419.77	4437.66
419.96	4589.79
420.15	4650.64
420.34	4627.24
420.53	4669.37
420.72	4631.92
420.91	4709.16
421.10	4732.56
421.29	4709.16
421.48	4660.01
421.67	4678.73
421.86	4910.44
422.05	4699.80
422.24	4629.58
422.43	4781.71
422.61	4809.80
422.80	5001.72
422.99	4959.60
423.18	4929.17
423.37	4994.70
423.56	4847.25
423.75	5102.37
423.94	4943.21
424.13	4741.93
424.32	4777.03
424.50	5111.73
424.69	5050.88
424.88	5135.14
425.07	5006.41
425.26	4826.18
425.45	4964.28
425.64	4814.48
425.83	4917.47
426.01	5069.60
426.20	4971.30
426.39	4952.57
426.58	5025.13
426.77	5114.07
426.96	5142.16
427.15	5027.47
427.33	5149.18
427.52	5191.31
427.71	5291.95
427.90	5217.05
428.09	5317.70
428.28	5350.46
428.46	5387.91
428.65	5284.93
428.84	5448.77
429.03	5394.93
429.22	5355.15
429.40	5444.09
429.59	5565.79
429.78	5233.44
429.97	5221.74
430.16	5589.20
430.34	5764.74
430.53	5640.69
430.72	5727.29
430.91	5736.65
431.10	5699.20
431.28	5856.02
431.47	5832.62
431.66	5935.60
431.85	5909.85
432.03	5935.60
432.22	5994.11
432.41	5980.07
432.60	5867.72
432.79	5879.43
432.97	5937.94
433.16	5891.13
433.35	5783.46
433.54	5996.45
433.72	6101.78
433.91	6218.80
434.10	6204.76
434.28	6043.26
434.47	6200.08
434.66	6253.91
434.85	6408.39
435.03	6256.25
435.22	6342.85
435.41	6551.16
435.59	6389.66
435.78	6462.22
435.97	6370.94
436.16	6370.94
436.34	6525.41
436.53	6544.14
436.72	6665.85
436.90	6604.99
437.09	6792.23
437.28	6569.88
437.46	6696.27
437.65	6766.49
437.84	6773.51
438.02	6822.66
438.21	6920.96
438.40	6684.57
438.58	6930.33
438.77	6977.14
438.96	6979.48
439.14	7007.56
439.33	7229.91
439.52	7459.29
439.70	7330.56
439.89	7428.86
440.08	7461.63
440.26	7398.43
440.45	7335.24
440.63	7571.63
440.82	7733.13
441.01	7637.17
441.19	7470.99
441.38	7698.02
441.57	7667.60
441.75	7854.84
441.94	7833.77
442.12	7838.45
442.31	8173.15
442.50	7943.78
442.68	7995.27
442.87	8255.07
443.05	8088.89
443.24	8252.73
443.43	8166.13
443.61	8290.18
443.80	8297.20
443.98	7901.65
444.17	7829.09
444.35	8210.60
444.54	8374.44
444.73	8435.29
444.91	8212.94
445.10	8451.67
445.28	8404.86
445.47	8545.30
445.65	8315.92
445.84	8400.18
446.02	8564.02
446.21	8374.44
446.39	8535.93
446.58	8472.74
446.77	8748.92
446.95	8477.42
447.14	8430.61
447.32	8580.40
447.51	8524.23
447.69	8746.58
447.88	8372.10
448.06	8360.39
448.25	8652.96
448.43	8713.81
448.62	8596.79
448.80	8592.11
448.99	8830.84
449.17	8992.34
449.36	8521.89
449.54	8854.25
449.73	8947.87
449.91	9088.30
450.10	9001.70
450.28	9214.69
450.46	9104.68
450.65	9170.22
450.83	9116.39
451.02	8987.66
451.20	9163.20
451.39	9249.80
451.57	9146.81
451.76	9153.84
451.94	9338.74
452.13	9275.54
452.31	9266.18
452.49	9315.33
452.68	9406.61
452.86	9413.63
453.05	9469.81
453.23	9624.28
453.42	9444.06
453.60	9256.82
453.78	9600.88
453.97	9579.81
454.15	9495.55
454.34	9706.20
454.52	9795.14
454.70	9720.24
454.89	9724.93
455.07	9760.03
455.26	10167.29
455.44	10094.73
455.62	9851.31
455.81	9977.70
455.99	10040.90
456.17	10157.92
456.36	10068.98
456.54	10148.56
456.73	10317.08
456.91	10457.51
457.09	10415.38
457.28	10637.73
457.46	10471.56
457.64	10633.05
457.83	10583.90
458.01	10499.64
458.19	10855.40
458.38	10630.71
458.56	10803.91
458.74	10700.93
458.93	10527.73
459.11	10911.58
459.29	10668.16
459.48	10970.09
459.66	10806.25
459.84	10956.05
460.03	11047.33
460.21	11068.39
460.39	11054.35
460.57	10911.58
460.76	11108.18
460.94	11459.26
461.12	11370.32
461.31	11236.91
461.49	11442.88
461.67	11297.77
461.85	11625.44
462.04	11140.95
462.22	11695.66
462.40	11730.76
462.59	11459.26
462.77	11438.20
462.95	11868.86
463.13	11854.81
463.32	11356.28
463.50	11957.80
463.68	11925.03
463.86	11850.13
464.05	11688.64
464.23	11826.73
464.41	11896.94
464.59	11421.81
464.78	12226.96
464.96	12224.62
465.14	11833.75
465.32	12049.08
465.50	11882.90
465.69	12182.49
465.87	12028.01
466.05	12397.82
466.23	12170.79
466.41	12386.12
466.60	12292.49
466.78	12037.38
466.96	12418.88
467.14	12318.24
467.32	12540.59
467.51	12573.36
467.69	12306.54
467.87	12451.65
468.05	12603.78
468.23	12397.82
468.41	12425.90
468.60	12645.91
468.78	12936.14
468.96	12737.20
469.14	12826.14
469.32	13092.96
469.50	12779.32
469.69	12798.05
469.87	12919.76
470.05	13111.68
470.23	13277.86
470.41	13277.86
470.59	13245.09
470.77	13013.38
470.95	13245.09
471.14	13383.18
471.32	13280.20
471.50	13745.97
471.68	13764.69
471.86	13645.32
472.04	13727.24
472.22	14129.81
472.40	13799.80
472.58	13982.36
472.77	14005.77
472.95	14288.97
473.13	14511.32
473.31	14279.61
473.49	14122.79
473.67	14235.14
473.85	14462.17
474.03	14970.07
474.21	14712.61
474.39	14714.95
474.57	14703.25
474.75	14888.15
474.93	15136.24
475.12	15152.63
475.30	15342.21
475.48	15295.40
475.66	15206.46
475.84	15080.07
476.02	15335.19
476.20	15522.43
476.38	16044.37
476.56	16107.57
476.74	16023.31
476.92	15761.17
477.10	15974.16
477.28	15995.22
477.46	16177.78
477.64	16355.66
477.82	16762.92
478.00	17432.31
478.18	17018.04
478.36	17221.66
478.54	17315.28
478.72	17064.85
478.90	17577.42
479.08	17792.75
479.26	17970.63
479.44	17572.74
479.62	18052.55
479.80	18277.24
479.98	18420.02
480.16	18607.26
480.34	18417.68
480.52	18960.68
480.70	18707.90
480.88	18642.37
481.06	18850.67
481.24	19103.45
481.41	19215.80
481.59	19185.37
481.77	19599.65
481.95	19978.81
482.13	19939.02
482.31	19967.11
482.49	20629.48
482.67	20376.70
482.85	20610.76
483.03	20767.57
483.21	20842.47
483.39	21308.24
483.57	20783.96
483.74	21181.85
483.92	21418.24
484.10	21422.92
484.28	21755.28
484.46	22003.38
484.64	22801.50
484.82	21998.70
485.00	22501.91
485.18	23098.75
485.35	22934.91
485.53	22553.40
485.71	23227.48
485.89	23821.97
486.07	23461.53
486.25	23583.24
486.43	23548.13
486.61	23960.06
486.78	24072.41
486.96	24254.97
487.14	24781.59
487.32	24744.14
487.50	25146.72
487.68	24973.52
487.85	25221.61
488.03	25671.00
488.21	25998.67
488.39	25802.07
488.57	26333.37
488.75	26164.85
488.92	26647.00
489.10	26841.26
489.28	26806.16
489.46	27225.11
489.64	27206.39
489.81	28283.03
489.99	27768.12
490.17	27976.42
490.35	28182.39
490.53	28437.51
490.70	28418.78
490.88	28393.04
491.06	29387.77
491.24	29013.28
491.41	29099.88
491.59	29539.90
491.77	29502.45
491.95	29741.19
492.13	29813.74
492.30	29792.68
492.48	30003.33
492.66	30490.16
492.84	30724.21
493.01	30796.77
493.19	31019.12
493.37	31438.08
493.54	31220.41
493.72	31728.30
493.90	31398.29
494.08	32128.53
494.25	32030.23
494.43	32063.00
494.61	32411.74
494.79	32521.74
494.96	32460.89
495.14	33158.37
495.32	33116.24
495.49	33319.87
495.67	33759.89
495.85	33476.68
496.02	33848.83
496.20	34359.06
496.38	34373.11
496.55	34799.08
496.73	34740.57
496.91	34553.33
497.09	34930.16
497.26	35562.10
497.44	34948.88
497.62	35606.57
497.79	36215.11
497.97	35763.39
498.14	36205.75
498.32	36147.23
498.50	36680.88
498.67	36718.32
498.85	36491.29
499.03	36650.45
499.20	36994.51
499.38	37254.31
499.56	37471.98
499.73	37010.89
499.91	37380.70
500.08	37933.06
500.26	37560.92
500.44	37790.29
500.61	38211.59
500.79	37919.02
500.97	38234.99
501.14	38813.10
501.32	38888.00
501.49	39028.43
501.67	38925.45
501.84	39775.06
502.02	38923.11
502.20	39552.71
502.37	39353.77
502.55	39316.32
502.72	39555.05
502.90	39700.17
503.07	39948.26
503.25	39910.82
503.43	40072.31
503.60	40041.88
503.78	40500.63
503.95	40378.92
504.13	40645.74
504.30	41120.87
504.48	40727.66
504.65	41256.62
504.83	41596.00
505.01	41551.53
505.18	41385.35
505.36	41916.65
505.53	41343.22
505.71	42136.66
505.88	41673.24
506.06	41745.80
506.23	42220.92
506.41	42251.35
506.58	42754.57
506.76	42447.96
506.93	42843.51
507.11	42574.34
507.28	43049.47
507.46	42614.13
507.63	42820.10
507.81	43194.59
507.98	43175.86
508.16	43234.38
508.33	43454.39
508.50	43704.82
508.68	43524.60
508.85	44343.79
509.03	44144.84
509.20	44451.45
509.38	44208.04
509.55	44985.10
509.73	44947.65
509.90	44711.25
510.08	44783.81
510.25	44985.10
510.42	44985.10
510.60	45064.67
510.77	45331.50
510.95	45462.57
511.12	45401.71
511.30	45530.44
511.47	45837.05
511.64	45532.78
511.82	46447.93
511.99	46043.02
512.17	46382.40
512.34	45666.19
512.51	46424.53
512.69	46398.78
512.86	46663.26
513.04	46380.06
513.21	46899.65
513.38	47054.13
513.56	47000.30
513.73	47007.32
513.90	47323.29
514.08	47248.39
514.25	47487.13
514.43	47936.51
514.60	47686.07
514.77	47889.70
514.95	48018.43
515.12	47775.02
515.29	47566.71
515.47	48275.89
515.64	48086.31
515.81	48243.12
515.99	48315.68
516.16	48940.60
516.33	48807.19
516.51	48638.67
516.68	48854.00
516.85	48964.01
517.03	48793.15
517.20	49256.57
517.37	49050.61
517.54	49116.14
517.72	49095.08
517.89	49532.76
518.06	49457.86
518.24	49130.19
518.41	49427.43
518.58	49619.36
518.75	49354.88
518.93	49752.77
519.10	49776.17
519.27	50054.70
519.45	49853.41
519.62	50394.07
519.79	50078.10
519.96	50272.37
520.14	50403.44
520.31	50073.42
520.48	50595.36
520.65	50377.69
520.83	51004.95
521.00	50904.31
521.17	50817.71
521.34	50696.00
521.52	51133.68
521.69	51016.66
521.86	51220.28
522.03	51599.45
522.20	51608.81
522.38	51557.32
522.55	51751.59
522.72	51590.09
522.89	51220.28
523.07	51760.95
523.24	51742.22
523.41	51744.56
523.58	51559.66
523.75	52231.40
523.92	51913.08
524.10	52222.03
524.27	52495.88
524.44	52207.99
524.61	52367.15
524.78	52030.11
524.96	52046.49
525.13	52435.02
525.30	52388.21
525.47	52648.01
525.64	52818.87
525.81	52612.90
525.98	52842.27
526.16	52580.13
526.33	52994.41
526.50	53429.75
526.67	52823.55
526.84	53221.44
527.01	53095.05
527.18	52938.24
527.36	53179.31
527.53	53078.67
527.70	53497.62
527.87	53408.68
528.04	53270.59
528.21	53230.80
528.38	53460.18
528.55	53616.99
528.72	53467.20
528.89	53364.21
529.07	53495.28
529.24	53621.67
529.41	53701.25
529.58	53605.29
529.75	53499.97
529.92	53937.65
530.09	54007.86
530.26	54255.96
530.43	54387.03
530.60	54253.62
530.77	53996.16
530.94	53965.73
531.11	54284.04
531.28	54178.72
531.46	54344.90
531.63	54557.89
531.80	54466.61
531.97	54541.50
532.14	54632.78
532.31	54740.45
532.48	54967.48
532.65	54759.17
532.82	54532.14
532.99	54923.01
533.16	54482.99
533.33	55173.45
533.50	55339.63
533.67	55089.19
533.84	54789.60
534.01	55037.70
534.18	55238.98
534.35	55683.69
534.52	55084.51
534.69	55477.72
534.86	55360.69
535.03	55503.46
535.20	55428.57
535.37	55557.30
535.54	55510.49
535.71	55288.13
535.88	55870.93
536.05	55550.27
536.22	55578.36
536.38	55744.54
536.55	55718.79
536.72	55842.84
536.89	55941.14
537.06	55868.59
537.23	55896.67
537.40	55508.14
537.57	55894.33
537.74	55896.67
537.91	55992.64
538.08	56076.90
538.25	55859.23
538.42	56142.43
538.59	56449.04
538.75	56041.79
538.92	56350.74
539.09	56360.10
539.26	56374.14
539.43	56294.56
539.60	56413.93
539.77	56303.93
539.94	56657.35
540.11	56612.88
540.28	56453.72
540.44	56662.03
540.61	56568.41
540.78	56442.02
540.95	56612.88
541.12	56465.42
541.29	56413.93
541.46	56636.28
541.62	56697.14
541.79	56786.08
541.96	56545.00
542.13	56589.47
542.30	56765.01
542.47	56856.29
542.63	56835.23
542.80	57214.40
542.97	57151.20
543.14	57148.86
543.31	57251.84
543.48	57345.47
543.64	57485.90
543.81	57261.21
543.98	57251.84
544.15	57485.90
544.32	57518.67
544.48	57808.89
544.65	57616.97
544.82	57563.14
544.99	57364.19
545.16	57502.28
545.32	57588.88
545.49	57937.62
545.66	58094.44
545.83	57635.69
546.00	57914.22
546.16	57944.64
546.33	57808.89
546.50	57698.89
546.67	57794.85
546.83	57689.52
547.00	57965.71
547.17	57844.00
547.34	57918.90
547.50	57972.73
547.67	58309.77
547.84	57890.81
548.00	58150.61
548.17	58356.58
548.34	58206.78
548.51	58384.66
548.67	58323.81
548.84	58394.03
549.01	58375.30
549.18	58344.87
549.34	58370.62
549.51	58543.82
549.68	58382.32
549.84	58440.84
550.01	58520.41
550.18	58277.00
550.34	58569.57
550.51	58515.73
550.68	58522.76
550.84	58623.40
551.01	58700.64
551.18	58630.42
551.34	58604.67
551.51	58857.45
551.68	58880.86
551.84	58733.40
552.01	58777.87
552.18	58726.38
552.34	58871.49
552.51	58770.85
552.68	58766.17
552.84	58798.94
553.01	59103.21
553.18	58969.80
553.34	58892.56
553.51	58780.21
553.67	58908.94
553.84	59107.89
554.01	59318.54
554.17	59028.31
554.34	58920.65
554.51	59161.72
554.67	59135.98
554.84	58899.58
555.00	59175.76
555.17	59227.26
555.33	59255.34
555.50	59014.27
555.67	59175.76
555.83	59133.63
556.00	59320.88
556.16	59622.81
556.33	59671.96
556.50	59271.73
556.66	59550.25
556.83	59344.28
556.99	59512.80
557.16	59611.10
557.32	59648.55
557.49	59803.03
557.65	59519.82
557.82	59580.68
557.98	59749.20
558.15	59531.53
558.32	59625.15
558.48	59468.33
558.65	59426.20
558.81	59831.11
558.98	59550.25
559.14	59810.05
559.31	59676.64
559.47	59959.84
559.64	59817.07
559.80	59934.10
559.97	59903.67
560.13	59803.03
560.30	59856.86
560.46	59840.48
560.63	59718.77
560.79	60016.02
560.96	60016.02
561.12	60020.70
561.29	59831.11
561.45	60231.35
561.61	60074.53
561.78	60081.55
561.94	60051.12
562.11	60093.25
562.27	59990.27
562.44	60156.45
562.60	60289.86
562.77	60140.07
562.93	59901.33
563.10	60149.43
563.26	59891.97
563.42	60505.19
563.59	60205.60
563.75	59910.69
563.92	60175.17
564.08	60172.83
564.24	60252.41
564.41	60357.74
564.57	60395.18
564.74	60427.95
564.90	60362.42
565.07	60259.43
565.23	60303.90
565.39	60224.32
565.56	60331.99
565.72	60229.01
565.88	60264.11
566.05	60416.25
566.21	60320.29
566.38	60226.66
566.54	60327.31
566.70	60404.55
566.87	60643.28
567.03	60245.39
567.19	60741.58
567.36	60441.99
567.52	60320.29
567.68	60596.47
567.85	60479.44
568.01	60598.81
568.17	60493.49
568.34	60685.41
568.50	60364.76
568.66	60690.09
568.83	60739.24
568.99	60285.18
569.15	60287.52
569.32	60491.15
569.48	60439.65
569.64	60654.98
569.81	60659.66
569.97	60502.85
570.13	60591.79
570.30	60544.98
570.46	60633.92
570.62	60622.22
570.78	60603.49
570.95	60764.99
571.11	60772.01
571.27	60692.43
571.43	60676.05
571.60	60942.87
571.76	60690.09
571.92	61099.68
572.09	60502.85
572.25	60753.29
572.41	60666.69
572.57	60718.18
572.74	61113.73
572.90	60596.47
573.06	60727.54
573.22	60781.37
573.38	60910.10
573.55	60750.94
573.71	61130.11
573.87	60673.71
574.03	60692.43
574.20	60804.78
574.36	60734.56
574.52	60891.38
574.68	60982.66
574.84	60942.87
575.01	60889.04
575.17	60830.52
575.33	60596.47
575.49	60781.37
575.65	60867.97
575.82	61020.11
575.98	60870.31
576.14	61048.19
576.30	61071.60
576.46	61066.92
576.62	60954.57
576.79	60851.59
576.95	60856.27
577.11	60942.87
577.27	61001.38
577.43	60952.23
577.59	60800.10
577.75	60982.66
577.92	60980.32
578.08	61041.17
578.24	61118.41
578.40	61130.11
578.56	61106.71
578.72	60977.98
578.88	61095.00
579.04	61197.99
579.21	61158.20
579.37	61165.22
579.53	61190.97
579.69	60985.00
579.85	60985.00
580.01	61041.17
580.17	60982.66
580.33	61228.41
580.49	61130.11
580.65	61193.31
580.82	60849.25
580.98	60900.74
581.14	60959.25
581.30	61146.50
581.46	60977.98
581.62	61385.23
581.78	61244.80
581.94	61244.80
582.10	61207.35
582.26	61186.28
582.42	60910.10
582.58	60896.06
582.74	61034.15
582.90	61186.28
583.06	61141.81
583.22	60924.14
583.38	61102.03
583.54	61118.41
583.70	61109.05
583.86	61244.80
584.02	61181.60
584.18	61176.92
584.34	61179.26
584.50	61169.90
584.66	60867.97
584.82	61006.06
584.98	61219.05
585.14	61207.35
585.30	60947.55
585.46	61111.39
585.62	61034.15
585.78	61230.75
585.94	60996.70
586.10	61354.80
586.26	60987.34
586.42	61289.27
586.58	61258.84
586.74	61343.10
586.90	61172.24
587.06	61193.31
587.22	61214.37
587.38	61160.54
587.54	61279.91
587.70	61387.57
587.86	61083.30
588.02	61102.03
588.18	61284.59
588.34	61172.24
588.49	61062.24
