SpectraSuite Data File
++++++++++++++++++++++++++++++++++++
Date: Fri Oct 25 10:44:15 EDT 2013
User: price-jones
Dark Spectrum Present: No
Reference Spectrum Present: No
Number of Sampled Component Spectra: 1
Spectrometers: USB2+H05261
Integration Time (usec): 100000 (USB2+H05261)
Spectra Averaged: 1 (USB2+H05261)
Boxcar Smoothing: 0 (USB2+H05261)
Correct for Electrical Dark: No (USB2+H05261)
Strobe/Lamp Enabled: No (USB2+H05261)
Correct for Detector Non-linearity: No (USB2+H05261)
Correct for Stray Light: No (USB2+H05261)
Number of Pixels in Processed Spectrum: 2048
>>>>>Begin Processed Spectral Data<<<<<
365.73	91.28
365.92	91.28
366.12	91.28
366.32	28.09
366.52	39.79
366.72	32.77
366.91	56.17
367.11	0.00
367.31	9.36
367.51	70.22
367.70	86.60
367.90	86.60
368.10	7.02
368.30	0.00
368.49	0.00
368.69	65.54
368.89	0.00
369.09	98.30
369.28	77.24
369.48	98.30
369.68	84.26
369.87	70.22
370.07	128.73
370.27	135.75
370.47	205.97
370.66	365.12
370.86	407.25
371.06	463.43
371.25	514.92
371.45	454.06
371.65	414.27
371.84	493.85
372.04	458.74
372.24	489.17
372.44	503.22
372.63	428.32
372.83	468.11
373.03	472.79
373.22	482.15
373.42	603.86
373.62	538.32
373.81	585.13
374.01	564.07
374.21	561.73
374.40	479.81
374.60	589.82
374.79	624.92
374.99	557.05
375.19	603.86
375.38	596.84
375.58	613.22
375.78	519.60
375.97	589.82
376.17	571.09
376.37	545.34
376.56	578.11
376.76	571.09
376.95	643.65
377.15	615.56
377.35	606.20
377.54	564.07
377.74	645.99
377.93	578.11
378.13	678.76
378.33	636.63
378.52	615.56
378.72	638.97
378.91	709.18
379.11	636.63
379.31	709.18
379.50	580.45
379.70	706.84
379.89	676.41
380.09	631.94
380.28	741.95
380.48	657.69
380.68	662.37
380.87	669.39
381.07	702.16
381.26	800.46
381.46	655.35
381.65	772.38
381.85	704.50
382.04	791.10
382.24	718.54
382.43	702.16
382.63	676.41
382.83	772.38
383.02	725.57
383.22	791.10
383.41	699.82
383.61	770.04
383.80	779.40
384.00	779.40
384.19	828.55
384.39	891.74
384.58	809.83
384.78	816.85
384.97	798.12
385.17	793.44
385.36	774.72
385.56	814.51
385.75	772.38
385.95	847.27
386.14	858.98
386.34	784.08
386.53	697.48
386.72	713.86
386.92	938.55
387.11	896.43
387.31	851.96
387.50	826.21
387.70	901.11
387.89	905.79
388.09	880.04
388.28	898.77
388.48	823.87
388.67	891.74
388.86	952.60
389.06	922.17
389.25	1004.09
389.45	1041.54
389.64	1004.09
389.84	936.21
390.03	973.66
390.22	1015.79
390.42	950.26
390.61	1036.86
390.81	1043.88
391.00	1029.84
391.19	1095.37
391.39	1060.26
391.58	1100.05
391.78	1074.31
391.97	1036.86
392.16	964.30
392.36	1008.77
392.55	1034.52
392.75	1107.07
392.94	985.37
393.13	945.58
393.33	1032.18
393.52	1032.18
393.71	1156.22
393.91	1224.10
394.10	1128.14
394.29	1214.74
394.49	1128.14
394.68	1160.91
394.88	1191.33
395.07	1174.95
395.26	1242.82
395.46	1219.42
395.65	1247.51
395.84	1153.88
396.04	1306.02
396.23	1235.80
396.42	1146.86
396.62	1261.55
396.81	1181.97
397.00	1233.46
397.19	1366.87
397.39	1369.21
397.58	1334.11
397.77	1369.21
397.97	1451.13
398.16	1437.09
398.35	1423.05
398.55	1341.13
398.74	1497.94
398.93	1612.63
399.12	1563.48
399.32	1537.73
399.51	1540.07
399.70	1596.25
399.90	1460.49
400.09	1629.01
400.28	1710.93
400.47	1657.10
400.67	1657.10
400.86	1657.10
401.05	1575.18
401.24	1694.55
401.44	1680.50
401.63	1842.00
401.82	1659.44
402.01	1764.76
402.21	1687.53
402.40	1692.21
402.59	1788.17
402.78	1692.21
402.97	1799.87
403.17	1741.36
403.36	1750.72
403.55	1802.21
403.74	1912.22
403.93	1860.73
404.13	1771.79
404.32	1832.64
404.51	2040.95
404.70	1989.46
404.89	1839.66
405.09	2012.86
405.28	1961.37
405.47	1905.20
405.66	2076.06
405.85	1933.28
406.05	2108.82
406.24	2085.42
406.43	2022.22
406.62	2069.03
406.81	2139.25
407.00	2069.03
407.20	1933.28
407.39	2108.82
407.58	2160.31
407.77	2179.04
407.96	2167.34
408.15	2298.41
408.34	2265.64
408.54	2242.23
408.73	2235.21
408.92	2249.25
409.11	2251.60
409.30	2293.72
409.49	2195.42
409.68	2324.15
409.87	2307.77
410.07	2314.79
410.26	2438.84
410.45	2459.90
410.64	2356.92
410.83	2413.09
411.02	2361.60
411.21	2546.50
411.40	2609.70
411.59	2487.99
411.78	2689.28
411.98	2651.83
412.17	2677.57
412.36	2621.40
412.55	2703.32
412.74	2729.06
412.93	2803.96
413.12	2731.41
413.31	2899.92
413.50	2862.48
413.69	2841.41
413.88	2895.24
414.07	2850.77
414.26	2918.65
414.45	2923.33
414.64	2867.16
414.83	2988.86
415.02	3073.12
415.22	2993.55
415.41	3108.23
415.60	3129.30
415.79	3183.13
415.98	3162.06
416.17	3375.05
416.36	3328.24
416.55	3241.64
416.74	3225.26
416.93	3332.92
417.12	3279.09
417.31	3365.69
417.50	3337.60
417.69	3372.71
417.88	3389.10
418.07	3435.91
418.26	3311.86
418.45	3545.91
418.64	3581.02
418.83	3531.87
419.02	3459.31
419.21	3522.51
419.39	3637.19
419.58	3562.30
419.77	3454.63
419.96	3637.19
420.15	3655.92
420.34	3613.79
420.53	3784.65
420.72	3758.90
420.91	3845.50
421.10	3880.61
421.29	3882.95
421.48	3852.52
421.67	3896.99
421.86	3735.50
422.05	3754.22
422.24	3772.94
422.43	3810.39
422.61	3939.12
422.80	3833.80
422.99	3941.46
423.18	3936.78
423.37	4023.38
423.56	3946.14
423.75	4044.45
423.94	3782.31
424.13	3644.21
424.32	3873.59
424.50	3948.48
424.69	4046.79
424.88	4007.00
425.07	4072.53
425.26	3918.06
425.45	3985.93
425.64	3932.10
425.83	3948.48
426.01	4016.36
426.20	3990.61
426.39	3978.91
426.58	3772.94
426.77	3920.40
426.96	4065.51
427.15	3990.61
427.33	4086.58
427.52	4098.28
427.71	4098.28
427.90	4173.18
428.09	4234.03
428.28	4112.32
428.46	4121.68
428.65	4039.76
428.84	4334.67
429.03	4269.14
429.22	4117.00
429.40	4196.58
429.59	4107.64
429.78	3880.61
429.97	3920.40
430.16	3992.95
430.34	4198.92
430.53	4037.42
430.72	4184.88
430.91	4337.01
431.10	4269.14
431.28	4461.06
431.47	4638.94
431.66	4760.65
431.85	4571.07
432.03	4613.20
432.22	4748.95
432.41	4688.09
432.60	4744.27
432.79	4660.01
432.97	4805.12
433.16	4844.91
433.35	4667.03
433.54	4610.86
433.72	4814.48
433.91	4519.57
434.10	4734.90
434.28	4734.90
434.47	4828.53
434.66	4873.00
434.85	4891.72
435.03	4954.91
435.22	4968.96
435.41	4980.66
435.59	5139.82
435.78	5135.14
435.97	5160.88
436.16	5032.15
436.34	5125.77
436.53	5139.82
436.72	5090.67
436.90	5109.39
437.09	5249.82
437.28	5095.35
437.46	5090.67
437.65	5170.24
437.84	5048.54
438.02	5128.11
438.21	5167.90
438.40	5205.35
438.58	5455.79
438.77	5462.81
438.96	5474.51
439.14	5509.62
439.33	5633.67
439.52	5633.67
439.70	5479.19
439.89	5554.09
440.08	5685.16
440.26	5708.57
440.45	5593.88
440.63	5753.04
440.82	6038.58
441.01	5949.64
441.19	6008.16
441.38	6092.41
441.57	6157.95
441.75	6106.46
441.94	6265.61
442.12	6260.93
442.31	6190.72
442.50	6284.34
442.68	6153.27
442.87	6310.08
443.05	6452.86
443.24	6567.54
443.43	6523.07
443.61	6338.17
443.80	6544.14
443.98	6530.09
444.17	6298.38
444.35	6387.32
444.54	6675.21
444.73	6532.44
444.91	6455.20
445.10	6530.09
445.28	6464.56
445.47	6352.21
445.65	6448.18
445.84	6684.57
446.02	6567.54
446.21	6600.31
446.39	6497.33
446.58	6743.08
446.77	6806.28
446.95	6457.54
447.14	6600.31
447.32	6832.02
447.51	6785.21
447.69	6733.72
447.88	6675.21
448.06	6750.10
448.25	6752.45
448.43	6747.76
448.62	6815.64
448.80	6736.06
448.99	6885.86
449.17	6820.32
449.36	6787.55
449.54	6932.67
449.73	7007.56
449.91	7115.23
450.10	7208.85
450.28	7201.83
450.46	7066.08
450.65	7241.62
450.83	6960.75
451.02	7110.55
451.20	7211.19
451.39	7063.74
451.57	7229.91
451.76	7239.28
451.94	7393.75
452.13	7349.28
452.31	7389.07
452.49	7103.53
452.68	7239.28
452.86	7433.54
453.05	7236.94
453.23	7363.33
453.42	7176.08
453.60	7218.21
453.78	7564.61
453.97	7335.24
454.15	7527.16
454.34	7267.36
454.52	7541.21
454.70	7459.29
454.89	7665.25
455.07	7618.44
455.26	7763.56
455.44	7576.31
455.62	7892.29
455.81	7667.60
455.99	7840.79
456.17	7679.30
456.36	7779.94
456.54	8030.38
456.73	7906.33
456.91	8074.85
457.09	8079.53
457.28	8131.02
457.46	7971.86
457.64	8177.83
457.83	8294.86
458.01	8086.55
458.19	8262.09
458.38	8290.18
458.56	8444.65
458.74	8353.37
458.93	8168.47
459.11	8271.45
459.29	8280.82
459.48	8259.75
459.66	8149.75
459.84	8318.26
460.03	8526.57
460.21	8280.82
460.39	8573.38
460.57	8681.05
460.76	8676.37
460.94	8671.68
461.12	8627.21
461.31	8648.28
461.49	8727.86
461.67	8809.78
461.85	8681.05
462.04	8631.90
462.22	8950.21
462.40	8938.51
462.59	8945.53
462.77	8894.04
462.95	9081.28
463.13	8863.61
463.32	8990.00
463.50	8924.46
463.68	9130.43
463.86	9156.18
464.05	8966.59
464.23	9001.70
464.41	9212.35
464.59	8889.35
464.78	9399.59
464.96	9212.35
465.14	9029.79
465.32	9165.54
465.50	9366.82
465.69	9289.59
465.87	9240.44
466.05	9226.39
466.23	9146.81
466.41	9226.39
466.60	9406.61
466.78	9249.80
466.96	9376.19
467.14	9224.05
467.32	9423.00
467.51	9408.95
467.69	9198.31
467.87	9437.04
468.05	9668.75
468.23	9458.10
468.41	9341.08
468.60	9530.66
468.78	9523.64
468.96	9535.34
469.14	9628.96
469.32	9769.40
469.50	9528.32
469.69	9715.56
469.87	9504.92
470.05	9809.19
470.23	9879.40
470.41	9940.26
470.59	9907.49
470.77	9797.48
470.95	10134.52
471.14	10118.14
471.32	9923.87
471.50	10066.64
471.68	10340.49
471.86	10310.06
472.04	10284.31
472.22	10548.79
472.40	10097.07
472.58	10342.83
472.77	10413.04
472.95	10464.54
473.13	10839.02
473.31	10471.56
473.49	10665.82
473.67	10541.77
473.85	10726.68
474.03	10918.60
474.21	10836.68
474.39	11061.37
474.57	11250.96
474.75	11358.62
474.93	11082.44
475.12	11197.12
475.30	11190.10
475.48	10965.41
475.66	11246.27
475.84	11318.83
476.02	11466.28
476.20	11543.52
476.38	11922.69
476.56	11838.43
476.74	11730.76
476.92	11838.43
477.10	11775.24
477.28	12168.45
477.46	12025.67
477.64	12304.20
477.82	12367.39
478.00	12535.91
478.18	12343.99
478.36	12760.60
478.54	12837.84
478.72	12905.71
478.90	13078.91
479.08	13083.59
479.26	13327.01
479.44	13156.15
479.62	13036.78
479.80	13298.92
479.98	13509.57
480.16	13855.97
480.34	13488.51
480.52	13631.28
480.70	13767.03
480.88	13509.57
481.06	14017.47
481.24	14075.98
481.41	14232.80
481.59	14094.71
481.77	14256.20
481.95	14324.08
482.13	14789.85
482.31	14792.19
482.49	14977.09
482.67	14801.55
482.85	15089.43
483.03	15201.78
483.21	15173.69
483.39	15281.36
483.57	15405.41
483.74	15475.62
483.92	15782.23
484.10	15611.37
484.28	15934.37
484.46	16107.57
484.64	16491.41
484.82	16093.52
485.00	16334.60
485.18	16255.02
485.35	16411.84
485.53	16067.78
485.71	16198.85
485.89	16526.52
486.07	16681.00
486.25	16912.71
486.43	16879.94
486.61	17022.72
486.78	17018.04
486.96	17284.86
487.14	17680.41
487.32	17680.41
487.50	17914.46
487.68	17935.53
487.85	18345.12
488.03	18490.23
488.21	18757.05
488.39	18281.92
488.57	18719.60
488.75	18918.55
488.92	19108.13
489.10	19304.74
489.28	19541.13
489.46	19779.87
489.64	19686.25
489.81	19845.40
489.99	20505.43
490.17	20039.67
490.35	20467.98
490.53	20126.27
490.70	20379.04
490.88	20463.30
491.06	21048.44
491.24	20273.72
491.41	20362.66
491.59	20849.49
491.77	21069.50
491.95	20959.50
492.13	21177.17
492.30	21783.37
492.48	21511.86
492.66	21764.64
492.84	22017.42
493.01	22019.76
493.19	22064.23
493.37	22050.19
493.54	22270.20
493.72	22731.28
493.90	22565.10
494.08	22995.76
494.25	23154.92
494.43	23168.96
494.61	23564.51
494.79	23555.15
494.96	23707.29
495.14	23236.84
495.32	23583.24
495.49	23597.28
495.67	23960.06
495.85	24336.89
496.02	24020.92
496.20	24250.29
496.38	24552.22
496.55	24297.10
496.73	25142.03
496.91	25020.33
497.09	25006.28
497.26	24835.42
497.44	25057.78
497.62	25027.35
497.79	25319.92
497.97	25104.59
498.14	25099.90
498.32	25926.11
498.50	25673.34
498.67	25921.43
498.85	25991.65
499.03	26001.01
499.20	26092.29
499.38	26291.24
499.56	26244.43
499.73	26607.21
499.91	26377.84
500.08	26820.20
500.26	26043.14
500.44	26796.79
500.61	26773.39
500.79	26913.82
500.97	26911.48
501.14	26988.72
501.32	27063.61
501.49	27225.11
501.67	27105.74
501.84	27182.98
502.02	27454.48
502.20	27594.92
502.37	27917.91
502.55	27625.34
502.72	28222.18
502.90	28128.56
503.07	28056.00
503.25	28070.04
503.43	27948.34
503.60	28484.32
503.78	28259.63
503.95	28203.46
504.13	28250.27
504.30	28451.55
504.48	28638.80
504.65	28978.17
504.83	29226.27
505.01	29280.10
505.18	28945.41
505.36	29874.60
505.53	29434.58
505.71	29923.75
505.88	29745.87
506.06	29537.56
506.23	29668.63
506.41	29467.34
506.58	29577.35
506.76	30003.33
506.93	30082.91
507.11	29605.44
507.28	30155.46
507.46	30185.89
507.63	29982.26
507.81	30663.36
507.98	30242.06
508.16	30279.51
508.33	30422.28
508.50	30930.18
508.68	30972.31
508.85	31082.31
509.03	30841.24
509.20	31180.62
509.38	30939.54
509.55	31278.92
509.73	31402.97
509.90	31552.76
510.08	31632.34
510.25	31718.94
510.42	31667.45
510.60	31852.35
510.77	31550.42
510.95	32025.55
511.12	32020.87
511.30	32423.44
511.47	32278.33
511.64	32496.00
511.82	32493.66
511.99	32486.64
512.17	32573.24
512.34	32542.81
512.51	32636.43
512.69	33146.67
512.86	32704.31
513.04	32886.87
513.21	32828.35
513.38	32884.53
513.56	32680.90
513.73	32826.01
513.90	33167.73
514.08	33146.67
514.25	33067.09
514.43	33282.42
514.60	33399.44
514.77	33708.40
514.95	33851.17
515.12	33305.82
515.29	34101.61
515.47	34209.27
515.64	34181.18
515.81	33853.51
515.99	34059.48
516.16	33862.87
516.33	33563.28
516.51	33942.45
516.68	33567.96
516.85	33081.13
517.03	33715.42
517.20	33982.24
517.37	34295.87
517.54	34195.23
517.72	34403.53
517.89	34146.08
518.06	34022.03
518.24	34361.40
518.41	34541.63
518.58	34897.39
518.75	34515.88
518.93	35012.07
519.10	34885.68
519.27	35400.60
519.45	34876.32
519.62	35456.78
519.79	35644.02
519.96	35253.15
520.14	35306.98
520.31	35199.32
520.48	35611.25
520.65	35646.36
520.83	35842.96
521.00	35952.97
521.17	35803.17
521.34	36098.08
521.52	36112.13
521.69	36329.80
521.86	36638.75
522.03	36402.35
522.20	36432.78
522.38	36088.72
522.55	36442.14
522.72	36278.30
522.89	36713.64
523.07	36589.59
523.24	36694.92
523.41	37057.70
523.58	36711.30
523.75	37497.72
523.92	37291.76
524.10	37251.97
524.27	37450.91
524.44	37589.00
524.61	37624.11
524.78	37497.72
524.96	37921.36
525.13	37633.47
525.30	38007.96
525.47	37916.68
525.64	37504.74
525.81	37642.84
525.98	37600.71
526.16	37771.57
526.33	37476.66
526.50	37818.38
526.67	37233.24
526.84	37411.12
527.01	37247.29
527.18	37724.75
527.36	38199.88
527.53	38230.31
527.70	38218.61
527.87	38401.17
528.04	38078.18
528.21	38188.18
528.38	38660.97
528.55	38948.85
528.72	39138.44
528.89	39068.22
529.07	39105.67
529.24	38824.81
529.41	39126.74
529.58	38827.15
529.75	38852.89
529.92	38883.32
530.09	39023.75
530.26	39555.05
530.43	38993.32
530.60	39351.43
530.77	39248.44
530.94	39732.93
531.11	39557.39
531.28	39812.51
531.46	39927.20
531.63	39768.04
531.80	39484.84
531.97	39487.18
532.14	39714.21
532.31	39145.46
532.48	39704.85
532.65	39882.73
532.82	39515.26
532.99	39852.30
533.16	39899.11
533.33	40093.38
533.50	39805.49
533.67	40470.20
533.84	39817.19
534.01	40458.50
534.18	39908.47
534.35	40341.47
534.52	40545.10
534.69	40582.55
534.86	40601.27
535.03	40552.12
535.20	41223.86
535.37	41001.50
535.54	41167.68
535.71	40732.34
535.88	40505.31
536.05	40554.46
536.22	41003.85
536.38	41198.11
536.55	40744.05
536.72	40730.00
536.89	40821.28
537.06	40830.65
537.23	40989.80
537.40	41193.43
537.57	41027.25
537.74	41448.55
537.91	41406.42
538.08	41256.62
538.25	40907.88
538.42	41558.55
538.59	41738.77
538.75	41371.31
538.92	41113.85
539.09	41390.03
539.26	41305.77
539.43	41544.51
539.60	41457.91
539.77	41240.24
539.94	41441.53
540.11	41219.17
540.28	41432.16
540.44	41684.94
540.61	41668.56
540.78	41528.13
540.95	41610.04
541.12	41874.52
541.29	41537.49
541.46	41769.20
541.62	42270.08
541.79	41982.19
541.96	41808.99
542.13	41794.95
542.30	41820.69
542.47	41790.27
542.63	42185.82
542.80	42272.42
542.97	42539.24
543.14	42890.32
543.31	42478.38
543.48	42885.64
543.64	43217.99
543.81	43115.01
543.98	43225.01
544.15	43077.56
544.32	43166.50
544.48	43395.87
544.65	43171.18
544.82	43379.49
544.99	42946.49
545.16	43304.59
545.32	43107.99
545.49	43590.14
545.66	43550.35
545.83	43428.64
546.00	43842.92
546.16	43318.64
546.33	43257.78
546.50	42941.81
546.67	43536.30
546.83	43320.98
547.00	43761.00
547.17	43313.95
547.34	43416.94
547.50	43332.68
547.67	43896.75
547.84	43784.40
548.00	43529.28
548.17	43983.35
548.34	43817.17
548.51	44252.51
548.67	44046.54
548.84	43838.23
549.01	43503.54
549.18	44095.69
549.34	43611.20
549.51	44163.57
549.68	44629.34
549.84	43999.73
550.01	44439.75
550.18	44128.46
550.34	44086.33
550.51	44137.82
550.68	44027.82
550.84	43765.68
551.01	44329.75
551.18	44046.54
551.34	44395.28
551.51	44343.79
551.68	44416.35
551.84	44608.27
552.01	44343.79
552.18	44252.51
552.34	44044.20
552.51	44191.65
552.68	44591.89
552.84	44725.30
553.01	44634.02
553.18	44528.69
553.34	44266.55
553.51	44701.89
553.67	44680.83
553.84	44486.56
554.01	44875.09
554.17	44748.70
554.34	44868.07
554.51	44758.06
554.67	45045.95
554.84	45041.27
555.00	44856.37
555.17	44573.16
555.33	44877.43
555.50	44617.63
555.67	45191.06
555.83	45102.12
556.00	45013.18
556.16	45113.83
556.33	45282.34
556.50	44884.45
556.66	44814.24
556.83	44687.85
556.99	45200.43
557.16	45134.89
557.32	44980.42
557.49	45366.60
557.65	45001.48
557.82	45303.41
557.98	45184.04
558.15	45326.81
558.32	45265.96
558.48	44973.39
558.65	45338.52
558.81	45055.31
558.98	45177.02
559.14	45336.18
559.31	45193.40
559.47	45614.70
559.64	45289.37
559.80	45511.72
559.97	45333.84
560.13	45160.64
560.30	45235.53
560.46	45500.01
560.63	45691.94
560.79	45813.65
560.96	45710.66
561.12	45736.41
561.29	45792.58
561.45	45476.61
561.61	45549.17
561.78	44938.29
561.94	45195.74
562.11	45528.10
562.27	45188.72
562.44	45720.02
562.60	45633.42
562.77	45745.77
562.93	45336.18
563.10	45474.27
563.26	45958.76
563.42	45851.09
563.59	45862.80
563.75	45764.49
563.92	45563.21
564.08	45724.71
564.24	45963.44
564.41	45347.88
564.57	45930.67
564.74	45607.68
564.90	45813.65
565.07	46216.22
565.23	45579.59
565.39	45820.67
565.56	45752.79
565.72	45354.90
565.88	45745.77
566.05	45663.85
566.21	46218.56
566.38	45514.06
566.54	45832.37
566.70	46096.85
566.87	46440.91
567.03	46085.15
567.19	46366.01
567.36	46054.72
567.52	45757.47
567.68	46082.81
567.85	46403.46
568.01	45991.53
568.17	45855.78
568.34	46036.00
568.50	45918.97
568.66	45895.56
568.83	46405.80
568.99	45787.90
569.15	45680.24
569.32	45846.41
569.48	45963.44
569.64	46190.47
569.81	46110.89
569.97	46220.90
570.13	45703.64
570.30	45972.80
570.46	46050.04
570.62	45736.41
570.78	45345.54
570.95	45989.19
571.11	46087.49
571.27	46099.19
571.43	45724.71
571.60	45879.18
571.76	46103.87
571.92	45668.53
572.09	46157.70
572.25	46361.33
572.41	46230.26
572.57	46124.94
572.74	46358.99
572.90	46141.32
573.06	46703.05
573.22	45942.38
573.38	46178.77
573.55	45804.28
573.71	46337.93
573.87	46333.24
574.03	45797.26
574.20	46155.36
574.36	46564.96
574.52	46138.98
574.68	46405.80
574.84	46068.76
575.01	46028.98
575.17	45888.54
575.33	45879.18
575.49	45748.11
575.65	46164.73
575.82	46424.53
575.98	46248.99
576.14	46071.10
576.30	46356.65
576.46	46251.33
576.62	46256.01
576.79	46241.96
576.95	46127.28
577.11	46124.94
577.27	46314.52
577.43	46398.78
577.59	46433.89
577.75	46335.59
577.92	45752.79
578.08	45883.86
578.24	45462.57
578.40	45961.10
578.56	46251.33
578.72	46440.91
578.88	46373.03
579.04	46274.73
579.21	46279.41
579.37	46403.46
579.53	46281.75
579.69	45825.35
579.85	45989.19
580.01	46052.38
580.17	45975.14
580.33	46344.95
580.49	46548.57
580.65	46113.23
580.82	46571.98
580.98	45933.01
581.14	46387.08
581.30	46646.88
581.46	46124.94
581.62	46461.97
581.78	46358.99
581.94	46740.50
582.10	46454.95
582.26	46443.25
582.42	46298.14
582.58	46092.17
582.74	46185.79
582.90	46483.04
583.06	46490.06
583.22	46525.17
583.38	46799.01
583.54	46885.61
583.70	46644.54
583.86	46501.76
584.02	46354.31
584.18	46686.67
584.34	46473.68
584.50	45876.84
584.66	46471.34
584.82	45893.22
584.98	46616.45
585.14	46691.35
585.30	46174.09
585.46	46616.45
585.62	46101.53
585.78	46131.96
585.94	46251.33
586.10	46426.87
586.26	46209.20
586.42	46471.34
586.58	46637.51
586.74	46773.27
586.90	46256.01
587.06	46146.00
587.22	46377.72
587.38	46007.91
587.54	46447.93
587.70	46436.23
587.86	46457.29
588.02	46464.32
588.18	45893.22
588.34	46328.56
588.49	45766.84
588.65	45914.29
588.81	45869.82
588.97	46136.64
589.13	45338.52
589.29	46202.18
589.45	45867.48
589.61	46253.67
589.77	46632.83
589.93	46162.39
590.08	46728.80
