SpectraSuite Data File
++++++++++++++++++++++++++++++++++++
Date: Fri Oct 25 11:26:08 EDT 2013
User: price-jones
Dark Spectrum Present: No
Reference Spectrum Present: No
Number of Sampled Component Spectra: 1
Spectrometers: USB2+H05261
Integration Time (usec): 100000 (USB2+H05261)
Spectra Averaged: 1 (USB2+H05261)
Boxcar Smoothing: 0 (USB2+H05261)
Correct for Electrical Dark: No (USB2+H05261)
Strobe/Lamp Enabled: No (USB2+H05261)
Correct for Detector Non-linearity: No (USB2+H05261)
Correct for Stray Light: No (USB2+H05261)
Number of Pixels in Processed Spectrum: 2048
>>>>>Begin Processed Spectral Data<<<<<
365.73	229.37
365.92	229.37
366.12	229.37
366.32	166.18
366.52	121.71
366.72	131.07
366.91	88.94
367.11	156.82
367.31	107.66
367.51	170.86
367.70	100.64
367.90	154.48
368.10	154.48
368.30	170.86
368.49	149.79
368.69	177.88
368.89	212.99
369.09	156.82
369.28	187.24
369.48	173.20
369.68	205.97
369.87	208.31
370.07	212.99
370.27	262.14
370.47	301.93
370.66	645.99
370.86	624.92
371.06	692.80
371.25	669.39
371.45	674.07
371.65	704.50
371.84	706.84
372.04	608.54
372.24	713.86
372.44	779.40
372.63	760.67
372.83	812.17
373.03	706.84
373.22	702.16
373.42	784.08
373.62	784.08
373.81	699.82
374.01	781.74
374.21	765.36
374.40	786.42
374.60	826.21
374.79	791.10
374.99	882.38
375.19	877.70
375.38	926.85
375.58	849.61
375.78	823.87
375.97	870.68
376.17	919.83
376.37	840.25
376.56	889.40
376.76	905.79
376.95	851.96
377.15	940.90
377.35	833.23
377.54	912.81
377.74	896.43
377.93	901.11
378.13	912.81
378.33	929.19
378.52	959.62
378.72	898.77
378.91	922.17
379.11	947.92
379.31	933.87
379.50	940.90
379.70	966.64
379.89	1018.13
380.09	945.58
380.28	1034.52
380.48	1008.77
380.68	1025.15
380.87	954.94
381.07	1029.84
381.26	1032.18
381.46	968.98
381.65	959.62
381.85	997.07
382.04	1104.73
382.24	1086.01
382.43	1027.50
382.63	1071.97
382.83	1144.52
383.02	1067.28
383.22	1071.97
383.41	1121.12
383.61	1083.67
383.80	1125.80
384.00	1100.05
384.19	1107.07
384.39	1212.40
384.58	1114.10
384.78	1104.73
384.97	1167.93
385.17	1107.07
385.36	1142.18
385.56	1064.94
385.75	1135.16
385.95	1097.71
386.14	1233.46
386.34	1142.18
386.53	1181.97
386.72	1191.33
386.92	1287.29
387.11	1231.12
387.31	1261.55
387.50	1210.06
387.70	1224.10
387.89	1160.91
388.09	1184.31
388.28	1254.53
388.48	1336.45
388.67	1284.95
388.86	1301.34
389.06	1294.32
389.25	1376.24
389.45	1315.38
389.64	1310.70
389.84	1376.24
390.03	1380.92
390.22	1430.07
390.42	1483.90
390.61	1315.38
390.81	1409.00
391.00	1418.36
391.19	1383.26
391.39	1495.60
391.58	1439.43
391.78	1446.45
391.97	1460.49
392.16	1519.01
392.36	1474.54
392.55	1427.73
392.75	1523.69
392.94	1565.82
393.13	1565.82
393.33	1521.35
393.52	1467.52
393.71	1451.13
393.91	1530.71
394.10	1563.48
394.29	1619.65
394.49	1701.57
394.68	1734.34
394.88	1659.44
395.07	1607.95
395.26	1701.57
395.46	1661.78
395.65	1715.61
395.84	1631.35
396.04	1732.00
396.23	1694.55
396.42	1724.97
396.62	1776.47
396.81	1802.21
397.00	1689.87
397.19	1767.10
397.39	1860.73
397.58	1818.60
397.77	1753.06
397.97	1849.02
398.16	1895.83
398.35	1839.66
398.55	1834.98
398.74	1830.30
398.93	1942.64
399.12	1879.45
399.32	1853.70
399.51	1968.39
399.70	1930.94
399.90	1975.41
400.09	2001.16
400.28	2010.52
400.47	2043.29
400.67	2083.08
400.86	2017.54
401.05	2183.72
401.24	2106.48
401.44	2176.70
401.63	2150.95
401.82	2169.68
402.01	2157.97
402.21	2167.34
402.40	2211.81
402.59	2129.89
402.78	2244.57
402.97	2181.38
403.17	2153.29
403.36	2317.13
403.55	2296.07
403.74	2424.80
403.93	2370.96
404.13	2319.47
404.32	2157.97
404.51	2408.41
404.70	2361.60
404.89	2389.69
405.09	2415.43
405.28	2457.56
405.47	2417.77
405.66	2562.89
405.85	2548.84
406.05	2593.31
406.24	2569.91
406.43	2555.86
406.62	2663.53
406.81	2686.94
407.00	2600.34
407.20	2600.34
407.39	2679.91
407.58	2825.03
407.77	2715.02
407.96	2759.49
408.15	2724.38
408.34	2738.43
408.54	2801.62
408.73	2862.48
408.92	2867.16
409.11	2785.24
409.30	2923.33
409.49	2939.71
409.68	3016.95
409.87	2972.48
410.07	2988.86
410.26	3052.06
410.45	3049.72
410.64	2942.05
410.83	3084.83
411.02	3206.53
411.21	3229.94
411.40	3094.19
411.59	3325.90
411.78	3225.26
411.98	3262.71
412.17	3215.90
412.36	3279.09
412.55	3363.35
412.74	3309.52
412.93	3353.99
413.12	3353.99
413.31	3632.51
413.50	3456.97
413.69	3468.67
413.88	3597.40
414.07	3595.06
414.26	3574.00
414.45	3674.64
414.64	3536.55
414.83	3618.47
415.02	3772.94
415.22	3850.18
415.41	3740.18
415.60	3749.54
415.79	4100.62
415.98	3974.23
416.17	4044.45
416.36	3955.51
416.55	3962.53
416.74	4212.96
416.93	3978.91
417.12	4105.30
417.31	4189.56
417.50	4234.03
417.69	4276.16
417.88	4180.20
418.07	4341.69
418.26	4114.66
418.45	4229.35
418.64	4421.27
418.83	4322.97
419.02	4388.50
419.21	4372.12
419.39	4610.86
419.58	4255.09
419.77	4449.36
419.96	4461.06
420.15	4641.28
420.34	4465.74
420.53	4723.20
420.72	4723.20
420.91	4692.77
421.10	4587.45
421.29	4844.91
421.48	4596.81
421.67	4760.65
421.86	4718.52
422.05	4856.61
422.24	4819.16
422.43	4748.95
422.61	4828.53
422.80	5025.13
422.99	4959.60
423.18	4903.42
423.37	4910.44
423.56	4910.44
423.75	4861.29
423.94	4762.99
424.13	4552.34
424.32	4812.14
424.50	4917.47
424.69	5093.01
424.88	4994.70
425.07	4915.12
425.26	4917.47
425.45	5111.73
425.64	5069.60
425.83	4823.84
426.01	5001.72
426.20	4987.68
426.39	5104.71
426.58	5013.43
426.77	5022.79
426.96	5125.77
427.15	5114.07
427.33	5205.35
427.52	5163.22
427.71	5203.01
427.90	5181.95
428.09	5259.18
428.28	5444.09
428.46	5298.97
428.65	5373.87
428.84	5511.96
429.03	5526.00
429.22	5327.06
429.40	5460.47
429.59	5437.06
429.78	5259.18
429.97	5270.89
430.16	5579.84
430.34	5621.97
430.53	5675.80
430.72	5605.58
430.91	5579.84
431.10	5518.98
431.28	5738.99
431.47	5612.60
431.66	5783.46
431.85	5874.74
432.03	5982.41
432.22	5954.32
432.41	5888.79
432.60	5916.87
432.79	5951.98
432.97	5872.40
433.16	5858.36
433.35	6012.84
433.54	6120.50
433.72	6129.86
433.91	6064.33
434.10	6111.14
434.28	6061.99
434.47	6179.01
434.66	6321.79
434.85	6417.75
435.03	6370.94
435.22	6265.61
435.41	6413.07
435.59	6277.32
435.78	6499.67
435.97	6494.99
436.16	6303.06
436.34	6342.85
436.53	6553.50
436.72	6794.58
436.90	6497.33
437.09	6600.31
437.28	6429.45
437.46	6621.38
437.65	6485.62
437.84	6761.81
438.02	6628.40
438.21	6588.61
438.40	6827.34
438.58	7047.35
438.77	6923.30
438.96	6874.15
439.14	7103.53
439.33	7145.66
439.52	7096.50
439.70	7215.87
439.89	7492.05
440.08	7431.20
440.26	7293.11
440.45	7330.56
440.63	7421.84
440.82	7618.44
441.01	7459.29
441.19	7641.85
441.38	7667.60
441.57	7688.66
441.75	7969.52
441.94	7967.18
442.12	7894.63
442.31	7908.67
442.50	8028.04
442.68	7861.86
442.87	8107.62
443.05	8004.63
443.24	8294.86
443.43	8215.28
443.61	8124.00
443.80	8503.17
443.98	8044.42
444.17	7899.31
444.35	8159.11
444.54	8341.67
444.73	8372.10
444.91	8318.26
445.10	8355.71
445.28	8334.65
445.47	8173.15
445.65	8486.78
445.84	8489.12
446.02	8552.32
446.21	8362.73
446.39	8484.44
446.58	8524.23
446.77	8514.87
446.95	8409.54
447.14	8423.59
447.32	8435.29
447.51	8458.70
447.69	8496.14
447.88	8416.57
448.06	8444.65
448.25	8491.46
448.43	8465.72
448.62	8580.40
448.80	8748.92
448.99	8592.11
449.17	8816.80
449.36	8652.96
449.54	8762.97
449.73	8952.55
449.91	8929.14
450.10	8912.76
450.28	9071.92
450.46	9170.22
450.65	8905.74
450.83	9135.11
451.02	8858.93
451.20	9228.73
451.39	9217.03
451.57	9226.39
451.76	9048.51
451.94	9144.47
452.13	9411.29
452.31	9172.56
452.49	9336.40
452.68	9446.40
452.86	9202.99
453.05	9296.61
453.23	9486.19
453.42	9170.22
453.60	9357.46
453.78	9469.81
453.97	9427.68
454.15	9600.88
454.34	9483.85
454.52	9586.83
454.70	9572.79
454.89	9788.12
455.07	9767.06
455.26	9832.59
455.44	10090.05
455.62	9755.35
455.81	9813.87
455.99	9837.27
456.17	10045.58
456.36	9928.55
456.54	10263.25
456.73	10169.63
456.91	10560.50
457.09	10045.58
457.28	10513.69
457.46	10338.15
457.64	10518.37
457.83	10289.00
458.01	10279.63
458.19	10656.46
458.38	10427.09
458.56	10628.37
458.74	10658.80
458.93	10740.72
459.11	10672.84
459.29	10656.46
459.48	10824.98
459.66	10881.15
459.84	10782.85
460.03	11091.80
460.21	10951.37
460.39	10761.78
460.57	10876.47
460.76	11236.91
460.94	11157.33
461.12	11082.44
461.31	11178.40
461.49	11126.91
461.67	11274.36
461.85	11482.67
462.04	11421.81
462.22	11903.96
462.40	11686.29
462.59	11534.16
462.77	11468.62
462.95	11517.78
463.13	11714.38
463.32	11824.39
463.50	11910.99
463.68	11810.34
463.86	11728.42
464.05	11510.75
464.23	11728.42
464.41	11948.43
464.59	11585.65
464.78	12182.49
464.96	11761.19
465.14	11864.18
465.32	12032.69
465.50	12119.29
465.69	12149.72
465.87	12243.34
466.05	11910.99
466.23	12231.64
466.41	12140.36
466.60	12545.27
466.78	11948.43
466.96	12138.02
467.14	12241.00
467.32	12140.36
467.51	12393.14
467.69	12329.94
467.87	12339.30
468.05	12383.77
468.23	12578.04
468.41	12524.21
468.60	12451.65
468.78	12805.07
468.96	12552.29
469.14	12559.31
469.32	12739.54
469.50	12666.98
469.69	13013.38
469.87	12994.65
470.05	13249.77
470.23	13118.70
470.41	13013.38
470.59	13298.92
470.77	12868.27
470.95	13111.68
471.14	13687.45
471.32	13053.17
471.50	13593.83
471.68	13727.24
471.86	13834.91
472.04	13525.96
472.22	14003.43
472.40	13474.46
472.58	13872.36
472.77	14019.81
472.95	13949.59
473.13	14665.80
473.31	13907.46
473.49	14207.05
473.67	13958.96
473.85	14263.22
474.03	14544.09
474.21	14518.34
474.39	14588.56
474.57	14497.28
474.75	14604.94
474.93	14885.81
475.12	14665.80
475.30	15014.54
475.48	14993.47
475.66	15236.89
475.84	14993.47
476.02	15150.29
476.20	15492.01
476.38	15496.69
476.56	15873.51
476.74	15793.94
476.92	15782.23
477.10	15927.35
477.28	16238.64
477.46	15955.43
477.64	16549.93
477.82	16589.72
478.00	16819.09
478.18	16615.46
478.36	17029.74
478.54	17006.33
478.72	17158.47
478.90	17296.56
479.08	17816.16
479.26	17565.72
479.44	17881.69
479.62	18071.28
479.80	17989.36
479.98	18064.25
480.16	18452.78
480.34	18263.20
480.52	18504.28
480.70	18661.09
480.88	18366.18
481.06	18623.64
481.24	18647.05
481.41	18824.93
481.59	19456.87
481.77	19515.39
481.95	19580.92
482.13	19585.60
482.31	19609.01
482.49	20283.08
482.67	20311.17
482.85	20444.58
483.03	20643.52
483.21	20737.15
483.39	20933.75
483.57	20622.46
483.74	20851.83
483.92	21308.24
484.10	21118.65
484.28	21661.66
484.46	21914.44
484.64	22080.61
484.82	22092.32
485.00	21996.35
485.18	23023.85
485.35	22841.29
485.53	22796.82
485.71	22897.46
485.89	23566.85
486.07	23295.35
486.25	23005.13
486.43	23316.42
486.61	24039.64
486.78	23960.06
486.96	24381.36
487.14	24528.81
487.32	24535.84
487.50	24819.04
487.68	25130.33
487.85	25099.90
488.03	25378.43
488.21	25521.20
488.39	25717.81
488.57	26059.52
488.75	26342.73
488.92	26216.34
489.10	27035.53
489.28	26455.08
489.46	27168.94
489.64	26911.48
489.81	27260.22
489.99	27571.51
490.17	28198.77
490.35	28004.51
490.53	28629.43
490.70	28011.53
490.88	28238.56
491.06	28802.63
491.24	28783.91
491.41	28863.49
491.59	29371.38
491.77	29366.70
491.95	29406.49
492.13	29666.29
492.30	29677.99
492.48	30029.07
492.66	29996.31
492.84	30017.37
493.01	30607.19
493.19	30649.32
493.37	31002.74
493.54	31173.60
493.72	31201.68
493.90	31346.79
494.08	32002.14
494.25	31885.12
494.43	31810.22
494.61	32271.31
494.79	32231.52
494.96	32250.24
495.14	32643.45
495.32	32875.16
495.49	32772.18
495.67	33010.92
495.85	33275.40
496.02	33963.51
496.20	34000.96
496.38	33680.31
496.55	34117.99
496.73	34864.62
496.91	34419.92
497.09	34483.11
497.26	34707.80
497.44	35325.71
497.62	35175.91
497.79	35646.36
497.97	35438.05
498.14	35466.14
498.32	36238.51
498.50	36070.00
498.67	36437.46
498.85	36231.49
499.03	36470.23
499.20	36556.83
499.38	36261.92
499.56	36783.86
499.73	36823.65
499.91	37137.28
500.08	37390.06
500.26	37411.12
500.44	37839.44
500.61	37654.54
500.79	37528.15
500.97	37771.57
501.14	38340.32
501.32	37897.95
501.49	38609.48
501.67	38288.82
501.84	38597.77
502.02	38588.41
502.20	39117.37
502.37	38897.36
502.55	39129.08
502.72	39454.41
502.90	39604.20
503.07	39318.66
503.25	39545.69
503.43	39538.67
503.60	39749.32
503.78	40423.39
503.95	40233.81
504.13	40048.91
504.30	40645.74
504.48	40439.78
504.65	40849.37
504.83	41240.24
505.01	41275.35
505.18	41137.26
505.36	41060.02
505.53	40926.61
505.71	41493.02
505.88	41963.46
506.06	41170.02
506.23	41645.15
506.41	41584.30
506.58	42361.36
506.76	41818.35
506.93	42492.43
507.11	41998.57
507.28	41977.51
507.46	42721.80
507.63	42754.57
507.81	42845.85
507.98	42866.91
508.16	42808.40
508.33	43328.00
508.50	43075.22
508.68	43690.78
508.85	43725.89
509.03	43524.60
509.20	43423.96
509.38	44013.77
509.55	44318.04
509.73	44514.65
509.90	44320.38
510.08	44729.98
510.25	44671.46
510.42	44821.26
510.60	44603.59
510.77	45186.38
510.95	45254.26
511.12	44575.50
511.30	45078.72
511.47	45766.84
511.64	45207.45
511.82	45808.96
511.99	45099.78
512.17	45935.35
512.34	45450.86
512.51	46658.58
512.69	46562.62
512.86	46057.06
513.04	46017.27
513.21	46632.83
513.38	46934.76
513.56	46543.89
513.73	46897.31
513.90	46946.47
514.08	46834.12
514.25	46780.29
514.43	46902.00
514.60	47482.45
514.77	46972.21
514.95	47557.35
515.12	47070.51
515.29	47618.20
515.47	47845.23
515.64	47868.64
515.81	47510.53
515.99	48030.13
516.16	48371.85
516.33	48325.04
516.51	48636.33
516.68	48453.77
516.85	48119.07
517.03	48596.54
517.20	49059.97
517.37	48552.07
517.54	48701.87
517.72	48676.12
517.89	48711.23
518.06	49038.90
518.24	49169.97
518.41	49148.91
518.58	49539.78
518.75	48968.69
518.93	49577.23
519.10	49251.89
519.27	49675.53
519.45	49549.14
519.62	49703.62
519.79	49993.84
519.96	49963.42
520.14	50136.62
520.31	50279.39
520.48	50068.74
520.65	50120.23
520.83	50422.16
521.00	50649.19
521.17	50401.10
521.34	50468.97
521.52	50705.37
521.69	50686.64
521.86	51126.66
522.03	51152.41
522.20	51040.06
522.38	51192.20
522.55	51334.97
522.72	50997.93
522.89	51121.98
523.07	51447.32
523.24	51796.06
523.41	51440.29
523.58	51124.32
523.75	51508.17
523.92	51786.69
524.10	51936.49
524.27	51803.08
524.44	51578.39
524.61	52013.73
524.78	51847.55
524.96	52140.11
525.13	52275.87
525.30	52306.29
525.47	52275.87
525.64	52608.22
525.81	52486.51
525.98	52399.91
526.16	52561.41
526.33	52425.66
526.50	52851.64
526.67	52624.60
526.84	52884.40
527.01	52931.22
527.18	52758.02
527.36	52961.64
527.53	52725.25
527.70	53198.04
527.87	53301.02
528.04	52863.34
528.21	53382.94
528.38	53172.29
528.55	53481.24
528.72	53535.07
528.89	53289.32
529.07	53591.25
529.24	53315.06
529.41	53656.78
529.58	53556.14
529.75	53563.16
529.92	53712.95
530.09	53820.62
530.26	53867.43
530.43	53972.75
530.60	53364.21
530.77	53553.80
530.94	54071.06
531.11	53865.09
531.28	54115.53
531.46	54028.93
531.63	54073.40
531.80	54042.97
531.97	54129.57
532.14	54401.07
532.31	54246.60
532.48	54330.86
532.65	54382.35
532.82	54302.77
532.99	54475.97
533.16	54485.33
533.33	54628.10
533.50	54686.62
533.67	54614.06
533.84	54351.92
534.01	54555.55
534.18	54773.22
534.35	55185.15
534.52	54925.35
534.69	54955.78
534.86	55217.92
535.03	55126.64
535.20	55098.55
535.37	55341.97
535.54	55505.80
535.71	55309.20
535.88	55458.99
536.05	55480.06
536.22	55426.23
536.38	55398.14
536.55	55480.06
536.72	55456.65
536.89	55121.96
537.06	55618.15
537.23	55772.63
537.40	55489.42
537.57	55508.14
537.74	55690.71
537.91	55671.98
538.08	55955.19
538.25	55774.97
538.42	55770.28
538.59	55959.87
538.75	55880.29
538.92	55952.85
539.09	56175.20
539.26	56119.02
539.43	55767.94
539.60	56226.69
539.77	56119.02
539.94	56236.05
540.11	56488.83
540.28	56205.62
540.44	56355.42
540.61	56369.46
540.78	56404.57
540.95	56292.22
541.12	56446.70
541.29	56435.00
541.46	56233.71
541.62	56526.28
541.79	56552.02
541.96	56317.97
542.13	56507.55
542.30	56507.55
542.47	56734.59
542.63	56835.23
542.80	56844.59
542.97	56999.07
543.14	57160.56
543.31	57137.16
543.48	57078.64
543.64	57279.93
543.81	57401.64
543.98	57317.38
544.15	57226.10
544.32	57186.31
544.48	57509.30
544.65	57088.01
544.82	57521.01
544.99	57209.71
545.16	57467.17
545.32	57144.18
545.49	57621.65
545.66	57656.76
545.83	57530.37
546.00	57762.08
546.16	57565.48
546.33	57684.84
546.50	57460.15
546.67	57813.57
546.83	57209.71
547.00	57602.92
547.17	57553.77
547.34	57752.72
547.50	57902.51
547.67	57886.13
547.84	57865.06
548.00	57935.28
548.17	58178.70
548.34	57724.63
548.51	58300.40
548.67	58085.07
548.84	58014.86
549.01	58012.52
549.18	58110.82
549.34	58176.36
549.51	58384.66
549.68	58274.66
549.84	58028.90
550.01	58211.46
550.18	58085.07
550.34	58394.03
550.51	58316.79
550.68	58539.14
550.84	58038.26
551.01	58382.32
551.18	58384.66
551.34	58300.40
551.51	58422.11
551.68	58560.20
551.84	58347.21
552.01	58504.03
552.18	58609.35
552.34	58379.98
552.51	58670.21
552.68	58361.26
552.84	58562.54
553.01	58827.02
553.18	58532.12
553.34	58871.49
553.51	58609.35
553.67	58944.05
553.84	58702.98
554.01	58974.48
554.17	58857.45
554.34	58901.92
554.51	58962.78
554.67	59042.35
554.84	58922.99
555.00	59016.61
555.17	58930.01
555.33	59086.82
555.50	58904.26
555.67	59011.93
555.83	58937.03
556.00	59292.79
556.16	59288.11
556.33	59231.94
556.50	59217.89
556.66	59536.21
556.83	59164.06
556.99	59220.23
557.16	59444.93
557.32	59484.72
557.49	59526.84
557.65	59227.26
557.82	59243.64
557.98	59367.69
558.15	59231.94
558.32	59351.30
558.48	59276.41
558.65	59384.07
558.81	59608.76
558.98	59447.27
559.14	59517.48
559.31	59517.48
559.47	59564.29
559.64	59763.24
559.80	59547.91
559.97	59739.83
560.13	59449.61
560.30	59587.70
560.46	59613.44
560.63	59622.81
560.79	59693.02
560.96	59791.33
561.12	59751.54
561.29	59847.50
561.45	59655.57
561.61	59891.97
561.78	59702.38
561.94	59550.25
562.11	59901.33
562.27	59924.74
562.44	59929.42
562.60	60093.25
562.77	59929.42
562.93	59835.80
563.10	60018.36
563.26	59887.29
563.42	60135.38
563.59	59856.86
563.75	59826.43
563.92	59693.02
564.08	59817.07
564.24	60158.79
564.41	60093.25
564.57	60200.92
564.74	60100.28
564.90	60025.38
565.07	60072.19
565.23	60020.70
565.39	59971.55
565.56	60261.77
565.72	59838.14
565.88	60252.41
566.05	60154.11
566.21	60081.55
566.38	60135.38
566.54	60189.22
566.70	60343.69
566.87	60402.21
567.03	60186.88
567.19	60275.82
567.36	60186.88
567.52	60193.90
567.68	60587.11
567.85	60175.17
568.01	60334.33
568.17	60336.67
568.34	60383.48
568.50	60280.50
568.66	60135.38
568.83	60350.71
568.99	60207.94
569.15	60238.37
569.32	60324.97
569.48	60193.90
569.64	60547.32
569.81	60439.65
569.97	60355.39
570.13	60456.04
570.30	60301.56
570.46	60533.28
570.62	60327.31
570.78	60589.45
570.95	60484.12
571.11	60439.65
571.27	60175.17
571.43	60465.40
571.60	60385.82
571.76	60374.12
571.92	60526.25
572.09	60378.80
572.25	60439.65
572.41	60582.43
572.57	60561.36
572.74	60823.50
572.90	60444.33
573.06	60535.62
573.22	60589.45
573.38	60683.07
573.55	60460.72
573.71	60708.82
573.87	60486.46
574.03	60420.93
574.20	60502.85
574.36	60385.82
574.52	60612.85
574.68	60554.34
574.84	60594.13
575.01	60711.16
575.17	60647.96
575.33	60594.13
575.49	60495.83
575.65	60816.48
575.82	60825.84
575.98	60807.12
576.14	60973.30
576.30	60729.88
576.46	60530.93
576.62	60800.10
576.79	60720.52
576.95	60718.18
577.11	60741.58
577.27	60727.54
577.43	60807.12
577.59	60584.77
577.75	60673.71
577.92	60874.99
578.08	60647.96
578.24	60800.10
578.40	60905.42
578.56	60863.29
578.72	60633.92
578.88	60767.33
579.04	61029.47
579.21	60867.97
579.37	60715.84
579.53	60863.29
579.69	60584.77
579.85	60718.18
580.01	60640.94
580.17	60626.90
580.33	60804.78
580.49	60903.08
580.65	60786.05
580.82	60884.36
580.98	60760.31
581.14	60706.47
581.30	60921.80
581.46	60879.67
581.62	60818.82
581.78	60776.69
581.94	60837.54
582.10	60654.98
582.26	60704.13
582.42	60662.00
582.58	60863.29
582.74	60898.40
582.90	60884.36
583.06	60896.06
583.22	60676.05
583.38	60863.29
583.54	60926.49
583.70	60985.00
583.86	60963.93
584.02	60662.00
584.18	61001.38
584.34	60973.30
584.50	60853.93
584.66	60779.03
584.82	60662.00
584.98	61048.19
585.14	60985.00
585.30	60879.67
585.46	61120.75
585.62	61083.30
585.78	61092.66
585.94	60708.82
586.10	61022.45
586.26	60893.72
586.42	61041.17
586.58	61057.56
586.74	61052.87
586.90	60767.33
587.06	60947.55
587.22	61116.07
587.38	61069.26
587.54	61020.11
587.70	61160.54
587.86	60879.67
588.02	60947.55
588.18	61097.34
588.34	60926.49
588.49	61118.41
