SpectraSuite Data File
++++++++++++++++++++++++++++++++++++
Date: Fri Oct 25 10:47:33 EDT 2013
User: price-jones
Dark Spectrum Present: No
Reference Spectrum Present: No
Number of Sampled Component Spectra: 1
Spectrometers: USB2+H05261
Integration Time (usec): 100000 (USB2+H05261)
Spectra Averaged: 1 (USB2+H05261)
Boxcar Smoothing: 0 (USB2+H05261)
Correct for Electrical Dark: No (USB2+H05261)
Strobe/Lamp Enabled: No (USB2+H05261)
Correct for Detector Non-linearity: No (USB2+H05261)
Correct for Stray Light: No (USB2+H05261)
Number of Pixels in Processed Spectrum: 2048
>>>>>Begin Processed Spectral Data<<<<<
365.73	135.75
365.92	135.75
366.12	135.75
366.32	138.09
366.52	60.85
366.72	25.75
366.91	21.06
367.11	0.00
367.31	14.04
367.51	23.41
367.70	21.06
367.90	37.45
368.10	0.00
368.30	72.56
368.49	95.96
368.69	72.56
368.89	72.56
369.09	51.49
369.28	53.83
369.48	28.09
369.68	67.88
369.87	119.37
370.07	100.64
370.27	173.20
370.47	166.18
370.66	351.08
370.86	421.30
371.06	428.32
371.25	479.81
371.45	468.11
371.65	458.74
371.84	421.30
372.04	423.64
372.24	575.77
372.44	477.47
372.63	484.49
372.83	517.26
373.03	449.38
373.22	442.36
373.42	524.28
373.62	470.45
373.81	465.77
374.01	573.43
374.21	505.56
374.40	454.06
374.60	615.56
374.79	650.67
374.99	545.34
375.19	521.94
375.38	589.82
375.58	608.54
375.78	545.34
375.97	566.41
376.17	627.26
376.37	580.45
376.56	535.98
376.76	496.19
376.95	557.05
377.15	608.54
377.35	535.98
377.54	559.39
377.74	571.09
377.93	580.45
378.13	571.09
378.33	655.35
378.52	671.73
378.72	617.90
378.91	566.41
379.11	674.07
379.31	571.09
379.50	575.77
379.70	638.97
379.89	676.41
380.09	641.31
380.28	631.94
380.48	643.65
380.68	678.76
380.87	629.60
381.07	617.90
381.26	587.47
381.46	613.22
381.65	676.41
381.85	648.33
382.04	720.88
382.24	660.03
382.43	678.76
382.63	641.31
382.83	624.92
383.02	692.80
383.22	748.97
383.41	692.80
383.61	767.70
383.80	678.76
384.00	765.36
384.19	763.01
384.39	638.97
384.58	688.12
384.78	692.80
384.97	746.63
385.17	779.40
385.36	760.67
385.56	791.10
385.75	697.48
385.95	828.55
386.14	800.46
386.34	800.46
386.53	727.91
386.72	791.10
386.92	746.63
387.11	746.63
387.31	760.67
387.50	784.08
387.70	802.80
387.89	812.17
388.09	805.14
388.28	795.78
388.48	807.48
388.67	866.00
388.86	793.44
389.06	819.19
389.25	877.70
389.45	858.98
389.64	933.87
389.84	905.79
390.03	933.87
390.22	858.98
390.42	866.00
390.61	898.77
390.81	910.47
391.00	978.34
391.19	908.13
391.39	910.47
391.58	933.87
391.78	884.72
391.97	891.74
392.16	987.71
392.36	980.68
392.55	1062.60
392.75	894.08
392.94	887.06
393.13	945.58
393.33	917.49
393.52	987.71
393.71	947.92
393.91	994.73
394.10	1011.11
394.29	994.73
394.49	952.60
394.68	1046.22
394.88	1132.82
395.07	1076.65
395.26	1137.50
395.46	1137.50
395.65	1165.59
395.84	1151.54
396.04	1184.31
396.23	1046.22
396.42	1081.33
396.62	1090.69
396.81	1212.40
397.00	1174.95
397.19	1170.27
397.39	1165.59
397.58	1214.74
397.77	1137.50
397.97	1263.89
398.16	1177.29
398.35	1210.06
398.55	1268.57
398.74	1273.25
398.93	1418.36
399.12	1369.21
399.32	1214.74
399.51	1308.36
399.70	1364.53
399.90	1242.82
400.09	1254.53
400.28	1423.05
400.47	1315.38
400.67	1299.00
400.86	1474.54
401.05	1343.47
401.24	1439.43
401.44	1423.05
401.63	1411.34
401.82	1472.20
402.01	1509.65
402.21	1437.09
402.40	1490.92
402.59	1420.71
402.78	1401.98
402.97	1537.73
403.17	1493.26
403.36	1549.43
403.55	1535.39
403.74	1575.18
403.93	1614.97
404.13	1582.20
404.32	1596.25
404.51	1607.95
404.70	1678.16
404.89	1582.20
405.09	1736.68
405.28	1661.78
405.47	1661.78
405.66	1769.44
405.85	1717.95
406.05	1715.61
406.24	1797.53
406.43	1736.68
406.62	1753.06
406.81	1858.39
407.00	1809.23
407.20	1666.46
407.39	1858.39
407.58	1900.52
407.77	1881.79
407.96	1849.02
408.15	1942.64
408.34	1849.02
408.54	1961.37
408.73	1902.86
408.92	1977.75
409.11	1937.96
409.30	2038.61
409.49	1923.92
409.68	1907.54
409.87	1933.28
410.07	1961.37
410.26	2031.58
410.45	2087.76
410.64	2101.80
410.83	2066.69
411.02	2162.66
411.21	2232.87
411.40	2216.49
411.59	2207.13
411.78	2272.66
411.98	2172.02
412.17	2328.83
412.36	2253.94
412.55	2326.49
412.74	2335.85
412.93	2349.90
413.12	2289.04
413.31	2359.26
413.50	2375.64
413.69	2321.81
413.88	2441.18
414.07	2490.33
414.26	2499.69
414.45	2457.56
414.64	2637.78
414.83	2630.76
415.02	2572.25
415.22	2612.04
415.41	2799.28
415.60	2736.09
415.79	2677.57
415.98	2789.92
416.17	2761.83
416.36	2731.41
416.55	2703.32
416.74	2644.81
416.93	2888.22
417.12	2913.97
417.31	2853.11
417.50	2895.24
417.69	2899.92
417.88	2984.18
418.07	3066.10
418.26	2939.71
418.45	3026.31
418.64	3183.13
418.83	3049.72
419.02	3089.51
419.21	3023.97
419.39	3173.77
419.58	3162.06
419.77	3075.46
419.96	3066.10
420.15	3129.30
420.34	3122.27
420.53	3283.77
420.72	3283.77
420.91	3300.16
421.10	3155.04
421.29	3524.85
421.48	3262.71
421.67	3445.27
421.86	3253.34
422.05	3204.19
422.24	3337.60
422.43	3389.10
422.61	3391.44
422.80	3492.08
422.99	3363.35
423.18	3396.12
423.37	3456.97
423.56	3396.12
423.75	3349.31
423.94	3316.54
424.13	3145.68
424.32	3307.18
424.50	3482.72
424.69	3475.70
424.88	3513.14
425.07	3574.00
425.26	3353.99
425.45	3501.44
425.64	3349.31
425.83	3513.14
426.01	3658.26
426.20	3487.40
426.39	3538.89
426.58	3536.55
426.77	3456.97
426.96	3578.68
427.15	3494.42
427.33	3513.14
427.52	3634.85
427.71	3555.27
427.90	3604.42
428.09	3485.06
428.28	3658.26
428.46	3716.77
428.65	3660.60
428.84	3836.14
429.03	3667.62
429.22	3543.57
429.40	3623.15
429.59	3779.97
429.78	3581.02
429.97	3555.27
430.16	3576.34
430.34	3833.80
430.53	3833.80
430.72	3871.25
430.91	3754.22
431.10	3796.35
431.28	4021.04
431.47	3983.59
431.66	3997.64
431.85	3866.56
432.03	4014.02
432.22	4070.19
432.41	4093.60
432.60	4011.68
432.79	4084.23
432.97	3983.59
433.16	4107.64
433.35	4114.66
433.54	4063.17
433.72	4187.22
433.91	4159.13
434.10	4131.05
434.28	4217.65
434.47	4229.35
434.66	4329.99
434.85	4334.67
435.03	4353.40
435.22	4416.59
435.41	4456.38
435.59	4531.28
435.78	4465.74
435.97	4337.01
436.16	4358.08
436.34	4442.34
436.53	4510.21
436.72	4692.77
436.90	4339.35
437.09	4568.73
437.28	4369.78
437.46	4592.13
437.65	4650.64
437.84	4676.39
438.02	4547.66
438.21	4580.43
438.40	4458.72
438.58	4727.88
438.77	4772.35
438.96	4770.01
439.14	4788.74
439.33	4994.70
439.52	5093.01
439.70	4725.54
439.89	4917.47
440.08	4912.78
440.26	4959.60
440.45	5078.96
440.63	5067.26
440.82	5270.89
441.01	5167.90
441.19	5231.10
441.38	5336.42
441.57	5114.07
441.75	5320.04
441.94	5518.98
442.12	5439.40
442.31	5404.30
442.50	5434.72
442.68	5469.83
442.87	5383.23
443.05	5521.32
443.24	5647.71
443.43	5680.48
443.61	5621.97
443.80	5731.97
443.98	5497.92
444.17	5425.36
444.35	5537.71
444.54	5554.09
444.73	5673.46
444.91	5542.39
445.10	5790.49
445.28	5565.79
445.47	5699.20
445.65	5640.69
445.84	5682.82
446.02	5797.51
446.21	5799.85
446.39	5715.59
446.58	5753.04
446.77	5738.99
446.95	5734.31
447.14	5685.16
447.32	5942.62
447.51	5788.14
447.69	5713.25
447.88	5769.42
448.06	5959.00
448.25	5734.31
448.43	6085.39
448.62	5806.87
448.80	5753.04
448.99	5928.58
449.17	5959.00
449.36	5823.25
449.54	6129.86
449.73	6064.33
449.91	6193.06
450.10	6122.84
450.28	6179.01
450.46	6326.47
450.65	6228.17
450.83	6141.57
451.02	6221.14
451.20	6487.96
451.39	6249.23
451.57	6211.78
451.76	6328.81
451.94	6141.57
452.13	6377.96
452.31	6274.98
452.49	6164.97
452.68	6296.04
452.86	6340.51
453.05	6434.13
453.23	6469.24
453.42	6506.69
453.60	6438.81
453.78	6417.75
453.97	6480.94
454.15	6450.52
454.34	6457.54
454.52	6464.56
454.70	6499.67
454.89	6616.69
455.07	6750.10
455.26	6640.10
455.44	6759.47
455.62	6729.04
455.81	6717.34
455.99	6712.66
456.17	6705.63
456.36	6841.39
456.54	6953.73
456.73	6792.23
456.91	6970.12
457.09	6899.90
457.28	7108.21
457.46	7056.72
457.64	7105.87
457.83	6956.07
458.01	6923.30
458.19	7330.56
458.38	7016.93
458.56	7262.68
458.74	7136.29
458.93	7281.41
459.11	7105.87
459.29	7253.32
459.48	7398.43
459.66	7178.42
459.84	7293.11
460.03	7611.42
460.21	7452.27
460.39	7419.50
460.57	7342.26
460.76	7513.12
460.94	7609.08
461.12	7368.01
461.31	7548.23
461.49	7583.34
461.67	7620.78
461.85	7590.36
462.04	7695.68
462.22	8121.66
462.40	7801.01
462.59	7602.06
462.77	7676.96
462.95	7801.01
463.13	7768.24
463.32	7971.86
463.50	7901.65
463.68	7836.11
463.86	7911.01
464.05	7875.90
464.23	7892.29
464.41	7749.51
464.59	7967.18
464.78	8131.02
464.96	8042.08
465.14	7946.12
465.32	8065.49
465.50	8112.30
465.69	8074.85
465.87	8229.32
466.05	8236.35
466.23	8102.93
466.41	8252.73
466.60	8236.35
466.78	8056.12
466.96	8273.79
467.14	8180.17
467.32	8119.32
467.51	8477.42
467.69	8067.83
467.87	8222.30
468.05	8388.48
468.23	8322.94
468.41	8217.62
468.60	8409.54
468.78	8388.48
468.96	8425.93
469.14	8702.11
469.32	8559.34
469.50	8636.58
469.69	8634.24
469.87	8659.98
470.05	8662.32
470.23	8751.26
470.41	8791.05
470.59	8720.84
470.77	8847.22
470.95	8807.44
471.14	8952.55
471.32	8807.44
471.50	9062.55
471.68	8896.38
471.86	9060.21
472.04	9167.88
472.22	9390.23
472.40	8997.02
472.58	9008.72
472.77	9118.73
472.95	9315.33
473.13	9549.39
473.31	9408.95
473.49	9544.70
473.67	9474.49
473.85	9348.10
474.03	9612.58
474.21	9631.30
474.39	9678.12
474.57	9820.89
474.75	9884.08
474.93	9781.10
475.12	9905.15
475.30	9884.08
475.48	9848.97
475.66	9963.66
475.84	9891.10
476.02	10101.75
476.20	10174.31
476.38	10394.32
476.56	10462.19
476.74	10279.63
476.92	10448.15
477.10	10431.77
477.28	10567.52
477.46	10576.88
477.64	10803.91
477.82	10953.71
478.00	11070.73
478.18	10934.98
478.36	11286.06
478.54	11403.09
478.72	11180.74
478.90	11318.83
479.08	11714.38
479.26	11616.08
479.44	11541.18
479.62	11625.44
479.80	11756.51
479.98	11812.68
480.16	12051.42
480.34	11854.81
480.52	12145.04
480.70	12231.64
480.88	12018.65
481.06	12238.66
481.24	12348.67
481.41	12505.48
481.59	12760.60
481.77	12638.89
481.95	12739.54
482.13	12802.73
482.31	12879.97
482.49	13277.86
482.67	13158.49
482.85	13392.55
483.03	13750.65
483.21	13495.53
483.39	13694.47
483.57	13577.45
483.74	13884.06
483.92	13774.05
484.10	13771.71
484.28	14326.42
484.46	14059.60
484.64	14640.05
484.82	14230.46
485.00	14335.78
485.18	14588.56
485.35	14953.68
485.53	14672.82
485.71	14792.19
485.89	14965.39
486.07	14885.81
486.25	15206.46
486.43	15349.23
486.61	15283.70
486.78	15552.86
486.96	15702.65
487.14	16070.12
487.32	16011.60
487.50	15992.88
487.68	16219.91
487.85	16519.50
488.03	16678.66
488.21	16704.40
488.39	16603.76
488.57	17027.40
488.75	16837.81
488.92	17287.20
489.10	17193.58
489.28	17233.36
489.46	17245.07
489.64	17687.43
489.81	18054.89
489.99	17762.33
490.17	18097.02
490.35	18104.04
490.53	18251.50
490.70	18424.70
490.88	18188.30
491.06	18684.50
491.24	18497.25
491.41	18714.92
491.59	18817.91
491.77	18668.11
491.95	18824.93
492.13	19194.73
492.30	19047.28
492.48	19578.58
492.66	19323.46
492.84	19548.15
493.01	19702.63
493.19	19822.00
493.37	19901.58
493.54	19999.88
493.72	20372.02
493.90	20369.68
494.08	20720.76
494.25	20847.15
494.43	20702.04
494.61	20884.60
494.79	21092.91
494.96	20992.26
495.14	21020.35
495.32	21259.09
495.49	21628.89
495.67	21296.53
495.85	21406.54
496.02	21947.20
496.20	21855.92
496.38	21977.63
496.55	22209.34
496.73	22628.30
496.91	22342.75
497.09	22291.26
497.26	22214.02
497.44	22541.70
497.62	22377.86
497.79	23110.45
497.97	22787.46
498.14	22937.25
498.32	22916.19
498.50	23192.37
498.67	23255.56
498.85	23372.59
499.03	23756.44
499.20	23920.28
499.38	23931.98
499.56	23889.85
499.73	23854.74
499.91	24084.11
500.08	23962.40
500.26	23913.25
500.44	24252.63
500.61	24240.93
500.79	23976.45
500.97	24313.48
501.14	24493.71
501.32	25032.03
501.49	24751.17
501.67	24657.54
501.84	24720.74
502.02	24521.79
502.20	25020.33
502.37	25109.27
502.55	25202.89
502.72	25259.06
502.90	25551.63
503.07	25352.68
503.25	25837.17
503.43	25469.71
503.60	25862.92
503.78	25687.38
503.95	25514.18
504.13	26003.35
504.30	25678.02
504.48	26150.81
504.65	25947.18
504.83	26492.52
505.01	26651.68
505.18	26436.35
505.36	26609.55
505.53	27009.78
505.71	26572.10
505.88	26817.86
506.06	26703.17
506.23	26993.40
506.41	27246.18
506.58	26831.90
506.76	26759.34
506.93	27337.46
507.11	27398.31
507.28	27482.57
507.46	27445.12
507.63	27405.33
507.81	27723.65
507.98	27438.10
508.16	27424.06
508.33	27730.67
508.50	27800.88
508.68	28041.96
508.85	28311.12
509.03	28355.59
509.20	28016.21
509.38	28404.74
509.55	28617.73
509.73	28402.40
509.90	28322.82
510.08	28575.60
510.25	28631.77
510.42	28886.89
510.60	29046.05
510.77	28924.34
510.95	28961.79
511.12	28814.34
511.30	29160.73
511.47	29427.56
511.64	29642.88
511.82	29699.06
511.99	29462.66
512.17	29504.79
512.34	29640.54
512.51	29916.73
512.69	29984.60
512.86	30178.87
513.04	30054.82
513.21	29811.40
513.38	30256.11
513.56	29986.94
513.73	29703.74
513.90	30239.72
514.08	30345.05
514.25	30349.73
514.43	30190.57
514.60	30448.03
514.77	30321.64
514.95	30841.24
515.12	30370.79
515.29	30314.62
515.47	31044.87
515.64	30998.06
515.81	30785.07
515.99	30829.54
516.16	30941.88
516.33	30670.38
516.51	31342.11
516.68	31122.10
516.85	31126.78
517.03	30979.33
517.20	31189.98
517.37	31578.51
517.54	31555.10
517.72	31599.57
517.89	31744.69
518.06	31449.78
518.24	31335.09
518.41	31494.25
518.58	31948.31
518.75	31974.06
518.93	32367.27
519.10	32102.79
519.27	32395.35
519.45	32229.18
519.62	32793.25
519.79	32575.58
519.96	32582.60
520.14	32802.61
520.31	32760.48
520.48	32884.53
520.65	32301.73
520.83	33116.24
521.00	33394.76
521.17	33083.47
521.34	32921.98
521.52	33322.21
521.69	33174.75
521.86	33326.89
522.03	33392.42
522.20	33811.38
522.38	33844.15
522.55	33977.56
522.72	33886.28
522.89	33919.04
523.07	33996.28
523.24	33692.01
523.41	33912.02
523.58	33816.06
523.75	34328.64
523.92	34417.58
524.10	34134.37
524.27	34384.81
524.44	34373.11
524.61	34078.20
524.78	34771.00
524.96	34724.19
525.13	34752.27
525.30	34768.66
525.47	35033.14
525.64	34604.82
525.81	34995.69
525.98	34941.86
526.16	34558.01
526.33	34981.65
526.50	35358.47
526.67	34756.96
526.84	34998.03
527.01	34604.82
527.18	34740.57
527.36	35550.40
527.53	35342.09
527.70	35667.42
527.87	35756.36
528.04	35498.91
528.21	35697.85
528.38	35995.10
528.55	35894.46
528.72	35606.57
528.89	36133.19
529.07	36229.15
529.24	35562.10
529.41	35676.79
529.58	35761.05
529.75	35948.29
529.92	35798.49
530.09	36032.55
530.26	36514.70
530.43	36463.21
530.60	35789.13
530.77	36341.50
530.94	36538.10
531.11	36210.43
531.28	36669.17
531.46	36252.56
531.63	36465.55
531.80	36458.52
531.97	36634.06
532.14	36210.43
532.31	36231.49
532.48	36725.35
532.65	37106.85
532.82	36910.25
532.99	37544.53
533.16	36746.41
533.33	36950.04
533.50	37017.91
533.67	37237.92
533.84	36982.80
534.01	37474.32
534.18	37448.57
534.35	37574.96
534.52	37008.55
534.69	37450.91
534.86	37455.59
535.03	37324.52
535.20	37479.00
535.37	38316.91
535.54	37497.72
535.71	37490.70
535.88	38057.11
536.05	37649.86
536.22	37528.15
536.38	38014.98
536.55	37794.97
536.72	37921.36
536.89	37799.65
537.06	37916.68
537.23	38066.47
537.40	38003.28
537.57	38167.12
537.74	38490.11
537.91	38387.13
538.08	38251.38
538.25	38188.18
538.42	38501.81
538.59	38565.01
538.75	38277.12
538.92	38384.79
539.09	38714.80
539.26	38930.13
539.43	38983.96
539.60	39023.75
539.77	38345.00
539.94	38962.90
540.11	39136.10
540.28	38712.46
540.44	39051.84
540.61	38682.03
540.78	38937.15
540.95	38759.27
541.12	38546.28
541.29	39093.97
541.46	39175.89
541.62	39072.90
541.79	39215.68
541.96	39281.21
542.13	39571.44
542.30	39152.48
542.47	39480.16
542.63	39442.71
542.80	39587.82
542.97	39805.49
543.14	40121.46
543.31	40177.64
543.48	39721.23
543.64	40184.66
543.81	40409.35
543.98	40285.30
544.15	40203.38
544.32	40240.83
544.48	40320.41
544.65	39995.07
544.82	40013.80
544.99	39976.35
545.16	39779.74
545.32	40161.25
545.49	40589.57
545.66	40414.03
545.83	40594.25
546.00	40500.63
546.16	40364.88
546.33	40201.04
546.50	40016.14
546.67	40877.46
546.83	40313.39
547.00	40247.85
547.17	40722.98
547.34	40615.32
547.50	40877.46
547.67	40945.33
547.84	40547.44
548.00	41254.28
548.17	41284.71
548.34	40931.29
548.51	41020.23
548.67	41067.04
548.84	41301.09
549.01	40861.07
549.18	41198.11
549.34	41221.52
549.51	40961.72
549.68	41038.95
549.84	41567.91
550.01	41439.18
550.18	40877.46
550.34	41277.69
550.51	41167.68
550.68	41481.31
550.84	41177.04
551.01	41605.36
551.18	41734.09
551.34	41244.92
551.51	41837.08
551.68	41937.72
551.84	42078.15
552.01	41600.68
552.18	41713.03
552.34	41469.61
552.51	41755.16
552.68	41488.34
552.84	41755.16
553.01	42326.25
553.18	41862.82
553.34	41296.41
553.51	41350.24
553.67	41811.33
553.84	42110.92
554.01	42195.18
554.17	42426.89
554.34	42057.09
554.51	42223.26
554.67	42218.58
554.84	41497.70
555.00	41975.17
555.17	42183.48
555.33	42387.10
555.50	42012.62
555.67	42197.52
555.83	42164.75
556.00	42412.85
556.16	42845.85
556.33	42663.28
556.50	42609.45
556.66	42534.56
556.83	42504.13
556.99	42932.45
557.16	42789.67
557.32	42246.67
557.49	42508.81
557.65	42349.65
557.82	41860.48
557.98	42162.41
558.15	42686.69
558.32	42630.52
558.48	42656.26
558.65	42733.50
558.81	42216.24
558.98	42476.04
559.14	42714.78
559.31	42934.79
559.47	42965.21
559.64	43189.91
559.80	42780.31
559.97	42939.47
560.13	42583.71
560.30	42911.38
560.46	42808.40
560.63	42962.87
560.79	42738.18
560.96	43107.99
561.12	43037.77
561.29	43222.67
561.45	42838.83
561.61	43194.59
561.78	42740.52
561.94	43342.04
562.11	42780.31
562.27	43267.14
562.44	43051.81
562.60	42864.57
562.77	43662.69
562.93	43344.38
563.10	43199.27
563.26	42806.06
563.42	43365.45
563.59	43222.67
563.75	43597.16
563.92	42780.31
564.08	43786.74
564.24	43798.44
564.41	43405.23
564.57	43545.67
564.74	43669.72
564.90	43206.29
565.07	43658.01
565.23	43590.14
565.39	42656.26
565.56	43440.34
565.72	43295.23
565.88	43583.12
566.05	43129.05
566.21	43267.14
566.38	43363.11
566.54	43379.49
566.70	43880.36
566.87	43992.71
567.03	43365.45
567.19	43950.58
567.36	43690.78
567.52	43178.20
567.68	43838.23
567.85	43564.39
568.01	43892.07
568.17	43430.98
568.34	43519.92
568.50	43704.82
568.66	43861.64
568.83	43868.66
568.99	43229.69
569.15	43435.66
569.32	43267.14
569.48	43438.00
569.64	43945.90
569.81	44186.97
569.97	43894.41
570.13	43739.93
570.30	43576.09
570.46	43023.73
570.62	43215.65
570.78	43533.96
570.95	44011.43
571.11	44165.91
571.27	43643.97
571.43	43938.88
571.60	43826.53
571.76	44388.26
571.92	44041.86
572.09	43929.51
572.25	43917.81
572.41	43789.08
572.57	43854.62
572.74	44339.11
572.90	43983.35
573.06	43920.15
573.22	43632.27
573.38	43924.83
573.55	43454.39
573.71	43782.06
573.87	43660.35
574.03	44051.22
574.20	43601.84
574.36	43622.90
574.52	43957.60
574.68	44025.48
574.84	43927.17
575.01	43971.64
575.17	44395.28
575.33	44346.13
575.49	43700.14
575.65	44130.80
575.82	44318.04
575.98	43749.29
576.14	43901.43
576.30	43632.27
576.46	43817.17
576.62	44397.62
576.79	43707.16
576.95	43929.51
577.11	44442.09
577.27	44067.61
577.43	44322.72
577.59	44093.35
577.75	43803.13
577.92	43966.96
578.08	43374.81
578.24	43620.56
578.40	44442.09
578.56	44259.53
578.72	43622.90
578.88	44315.70
579.04	44044.20
579.21	43819.51
579.37	43983.35
579.53	44133.14
579.69	43643.97
579.85	44123.78
580.01	44406.98
580.17	44313.36
580.33	44418.69
580.49	44196.34
580.65	44378.90
580.82	44912.54
580.98	44233.78
581.14	43906.11
581.30	44481.88
581.46	44002.07
581.62	44498.26
581.78	44233.78
581.94	44147.18
582.10	44112.08
582.26	44296.98
582.42	44175.27
582.58	43826.53
582.74	44212.72
582.90	44009.09
583.06	44535.71
583.22	43992.71
583.38	44250.17
583.54	44060.58
583.70	44048.88
583.86	43992.71
584.02	44224.42
584.18	44102.71
584.34	44247.83
584.50	44378.90
584.66	44060.58
584.82	44601.25
584.98	44243.15
585.14	44294.64
585.30	43931.86
585.46	44109.74
585.62	44479.54
585.78	44201.02
585.94	43548.01
586.10	44130.80
586.26	43927.17
586.42	44205.70
586.58	44727.64
586.74	44142.50
586.90	44123.78
587.06	44140.16
587.22	44381.24
587.38	43873.34
587.54	44446.77
587.70	44582.52
587.86	44470.18
588.02	44519.33
588.18	44514.65
588.34	44474.86
588.49	44062.93
588.65	43896.75
588.81	43964.62
588.97	44023.14
589.13	44273.57
589.29	44238.47
589.45	44273.57
589.61	44451.45
589.77	44158.89
589.93	44170.59
590.08	44350.81
590.24	44762.75
590.40	44442.09
