SpectraSuite Data File
++++++++++++++++++++++++++++++++++++
Date: Fri Oct 25 10:43:57 EDT 2013
User: price-jones
Dark Spectrum Present: No
Reference Spectrum Present: No
Number of Sampled Component Spectra: 1
Spectrometers: USB2+H05261
Integration Time (usec): 100000 (USB2+H05261)
Spectra Averaged: 1 (USB2+H05261)
Boxcar Smoothing: 0 (USB2+H05261)
Correct for Electrical Dark: No (USB2+H05261)
Strobe/Lamp Enabled: No (USB2+H05261)
Correct for Detector Non-linearity: No (USB2+H05261)
Correct for Stray Light: No (USB2+H05261)
Number of Pixels in Processed Spectrum: 2048
>>>>>Begin Processed Spectral Data<<<<<
365.73	46.81
365.92	46.81
366.12	46.81
366.32	88.94
366.52	35.11
366.72	65.54
366.91	37.45
367.11	86.60
367.31	28.09
367.51	53.83
367.70	2.34
367.90	4.68
368.10	42.13
368.30	0.00
368.49	18.72
368.69	56.17
368.89	16.38
369.09	77.24
369.28	77.24
369.48	18.72
369.68	56.17
369.87	100.64
370.07	44.47
370.27	32.77
370.47	203.63
370.66	388.53
370.86	514.92
371.06	442.36
371.25	477.47
371.45	444.70
371.65	564.07
371.84	440.02
372.04	512.58
372.24	489.17
372.44	456.40
372.63	540.66
372.83	465.77
373.03	514.92
373.22	458.74
373.42	575.77
373.62	496.19
373.81	610.88
374.01	543.00
374.21	545.34
374.40	568.75
374.60	545.34
374.79	519.60
374.99	606.20
375.19	596.84
375.38	624.92
375.58	599.18
375.78	578.11
375.97	624.92
376.17	550.03
376.37	603.86
376.56	606.20
376.76	662.37
376.95	667.05
377.15	683.44
377.35	650.67
377.54	781.74
377.74	578.11
377.93	615.56
378.13	615.56
378.33	622.58
378.52	667.05
378.72	648.33
378.91	648.33
379.11	685.78
379.31	653.01
379.50	685.78
379.70	706.84
379.89	662.37
380.09	638.97
380.28	650.67
380.48	699.82
380.68	716.20
380.87	681.10
381.07	713.86
381.26	674.07
381.46	720.88
381.65	669.39
381.85	734.93
382.04	788.76
382.24	765.36
382.43	802.80
382.63	748.97
382.83	638.97
383.02	676.41
383.22	734.93
383.41	737.27
383.61	718.54
383.80	755.99
384.00	751.31
384.19	788.76
384.39	849.61
384.58	814.51
384.78	819.19
384.97	732.59
385.17	805.14
385.36	784.08
385.56	784.08
385.75	805.14
385.95	870.68
386.14	847.27
386.34	868.34
386.53	924.51
386.72	774.72
386.92	901.11
387.11	868.34
387.31	884.72
387.50	938.55
387.70	814.51
387.89	933.87
388.09	919.83
388.28	884.72
388.48	924.51
388.67	936.21
388.86	901.11
389.06	915.15
389.25	1020.47
389.45	947.92
389.64	959.62
389.84	1055.58
390.03	961.96
390.22	1114.10
390.42	1064.94
390.61	1013.45
390.81	1013.45
391.00	1100.05
391.19	1118.78
391.39	1128.14
391.58	1041.54
391.78	1018.13
391.97	1071.97
392.16	1043.88
392.36	1064.94
392.55	1032.18
392.75	1046.22
392.94	957.28
393.13	1135.16
393.33	973.66
393.52	1064.94
393.71	1165.59
393.91	1093.03
394.10	1149.20
394.29	1125.80
394.49	1203.04
394.68	1174.95
394.88	1289.64
395.07	1198.35
395.26	1188.99
395.46	1252.19
395.65	1210.06
395.84	1170.27
396.04	1217.08
396.23	1179.63
396.42	1245.16
396.62	1193.67
396.81	1200.69
397.00	1212.40
397.19	1301.34
397.39	1378.58
397.58	1352.83
397.77	1404.32
397.97	1446.45
398.16	1495.60
398.35	1481.56
398.55	1462.83
398.74	1561.14
398.93	1544.75
399.12	1519.01
399.32	1460.49
399.51	1579.86
399.70	1591.56
399.90	1549.43
400.09	1666.46
400.28	1668.80
400.47	1680.50
400.67	1668.80
400.86	1781.15
401.05	1717.95
401.24	1713.27
401.44	1710.93
401.63	1813.92
401.82	1806.89
402.01	1767.10
402.21	1790.51
402.40	1774.13
402.59	1753.06
402.78	1902.86
402.97	1781.15
403.17	1802.21
403.36	1870.09
403.55	1916.90
403.74	1837.32
403.93	1858.39
404.13	1926.26
404.32	1856.04
404.51	1984.77
404.70	1982.43
404.89	1949.67
405.09	1991.80
405.28	2059.67
405.47	2033.93
405.66	2031.58
405.85	2097.12
406.05	1909.88
406.24	2059.67
406.43	2062.01
406.62	2052.65
406.81	2214.15
407.00	2176.70
407.20	2043.29
407.39	2134.57
407.58	2200.10
407.77	2214.15
407.96	2183.72
408.15	2275.00
408.34	2267.98
408.54	2354.58
408.73	2417.77
408.92	2387.35
409.11	2338.20
409.30	2380.32
409.49	2422.45
409.68	2385.01
409.87	2354.58
410.07	2516.08
410.26	2436.50
410.45	2375.64
410.64	2567.57
410.83	2621.40
411.02	2665.87
411.21	2616.72
411.40	2581.61
411.59	2682.25
411.78	2710.34
411.98	2682.25
412.17	2726.72
412.36	2759.49
412.55	2818.00
412.74	2867.16
412.93	2846.09
413.12	2792.26
413.31	2864.82
413.50	2902.26
413.69	2902.26
413.88	3035.67
414.07	3000.57
414.26	3049.72
414.45	3007.59
414.64	3009.93
414.83	3068.44
415.02	3201.85
415.22	3150.36
415.41	3122.27
415.60	3281.43
415.79	3218.24
415.98	3260.37
416.17	3267.39
416.36	3344.63
416.55	3358.67
416.74	3524.85
416.93	3456.97
417.12	3353.99
417.31	3307.18
417.50	3485.06
417.69	3557.61
417.88	3576.34
418.07	3494.42
418.26	3456.97
418.45	3665.28
418.64	3786.99
418.83	3698.05
419.02	3698.05
419.21	3662.94
419.39	3599.74
419.58	3634.85
419.77	3712.09
419.96	3681.66
420.15	3742.52
420.34	3674.64
420.53	3812.73
420.72	3833.80
420.91	3904.01
421.10	3798.69
421.29	3866.56
421.48	3962.53
421.67	3932.10
421.86	3964.87
422.05	3995.29
422.24	3906.35
422.43	3932.10
422.61	3908.69
422.80	3861.88
422.99	3854.86
423.18	4098.28
423.37	4180.20
423.56	4084.23
423.75	3960.19
423.94	4072.53
424.13	3840.82
424.32	3894.65
424.50	3969.55
424.69	4093.60
424.88	4100.62
425.07	4046.79
425.26	3843.16
425.45	3992.95
425.64	4124.02
425.83	4028.06
426.01	4093.60
426.20	4133.39
426.39	4201.26
426.58	4067.85
426.77	4091.26
426.96	4100.62
427.15	4065.51
427.33	4109.98
427.52	4128.70
427.71	4276.16
427.90	4201.26
428.09	4297.22
428.28	4262.12
428.46	4255.09
428.65	4339.35
428.84	4154.45
429.03	4397.87
429.22	4107.64
429.40	4105.30
429.59	4182.54
429.78	3955.51
429.97	3911.04
430.16	4100.62
430.34	4241.05
430.53	4201.26
430.72	4318.29
430.91	4287.86
431.10	4409.57
431.28	4645.96
431.47	4697.46
431.66	4847.25
431.85	4723.20
432.03	4648.30
432.22	4704.48
432.41	4634.26
432.60	4812.14
432.79	4765.33
432.97	4870.65
433.16	4772.35
433.35	4755.97
433.54	4620.22
433.72	4833.21
433.91	4767.67
434.10	4858.95
434.28	4959.60
434.47	5018.11
434.66	5125.77
434.85	5142.16
435.03	4943.21
435.22	5083.64
435.41	5163.22
435.59	5238.12
435.78	5252.16
435.97	5198.33
436.16	5137.48
436.34	5254.50
436.53	5345.78
436.72	5444.09
436.90	5207.69
437.09	5275.57
437.28	5268.55
437.46	5371.53
437.65	5411.32
437.84	5336.42
438.02	5186.63
438.21	5275.57
438.40	5205.35
438.58	5427.70
438.77	5738.99
438.96	5469.83
439.14	5818.57
439.33	5643.03
439.52	5696.86
439.70	5795.17
439.89	5706.23
440.08	5605.58
440.26	5839.64
440.45	5844.32
440.63	5977.73
440.82	6008.16
441.01	6160.29
441.19	6207.10
441.38	6300.72
441.57	6289.02
441.75	6373.28
441.94	6427.11
442.12	6518.39
442.31	6333.49
442.50	6441.15
442.68	6429.45
442.87	6443.49
443.05	6530.09
443.24	6670.53
443.43	6595.63
443.61	6546.48
443.80	6743.08
443.98	6487.96
444.17	6420.09
444.35	6700.95
444.54	6911.60
444.73	6633.08
444.91	6665.85
445.10	6682.23
445.28	6626.06
445.47	6693.93
445.65	6700.95
445.84	6836.70
446.02	6745.42
446.21	6799.26
446.39	6579.25
446.58	6817.98
446.77	6782.87
446.95	6581.59
447.14	7042.67
447.32	6951.39
447.51	6780.53
447.69	6733.72
447.88	6967.77
448.06	6726.70
448.25	6918.62
448.43	6932.67
448.62	6979.48
448.80	6862.45
448.99	7061.40
449.17	7045.01
449.36	7140.97
449.54	7236.94
449.73	7232.26
449.91	7396.09
450.10	7382.05
450.28	7447.58
450.46	7426.52
450.65	7382.05
450.83	7566.95
451.02	7321.20
451.20	7487.37
451.39	7562.27
451.57	7470.99
451.76	7384.39
451.94	7398.43
452.13	7515.46
452.31	7545.89
452.49	7295.45
452.68	7541.21
452.86	7501.42
453.05	7454.61
453.23	7653.55
453.42	7489.71
453.60	7625.47
453.78	7559.93
453.97	7447.58
454.15	7393.75
454.34	7639.51
454.52	7775.26
454.70	7709.72
454.89	7707.38
455.07	7822.07
455.26	7885.26
455.44	8009.31
455.62	8004.63
455.81	7974.21
455.99	8147.40
456.17	8056.12
456.36	8028.04
456.54	7969.52
456.73	8194.22
456.91	8374.44
457.09	8360.39
457.28	8528.91
457.46	8189.53
457.64	8329.97
457.83	8215.28
458.01	8203.58
458.19	8557.00
458.38	8482.10
458.56	8571.04
458.74	8397.84
458.93	8196.56
459.11	8297.20
459.29	8599.13
459.48	8634.24
459.66	8587.43
459.84	8549.98
460.03	8774.67
460.21	8622.53
460.39	8704.45
460.57	8709.13
460.76	8765.31
460.94	8678.71
461.12	8861.27
461.31	8800.41
461.49	8961.91
461.67	8945.53
461.85	8992.34
462.04	9081.28
462.22	9118.73
462.40	9130.43
462.59	9273.20
462.77	9095.32
462.95	9109.36
463.13	9266.18
463.32	9303.63
463.50	9235.75
463.68	9235.75
463.86	9352.78
464.05	9158.52
464.23	9212.35
464.41	9317.67
464.59	9132.77
464.78	9284.91
464.96	9348.10
465.14	9160.86
465.32	9345.76
465.50	9430.02
465.69	9434.70
465.87	9493.21
466.05	9516.62
466.23	9296.61
466.41	9315.33
466.60	9795.14
466.78	9357.46
466.96	9586.83
467.14	9661.73
467.32	9430.02
467.51	9720.24
467.69	9430.02
467.87	9570.45
468.05	9647.69
468.23	9792.80
468.41	9551.73
468.60	9647.69
468.78	10073.67
468.96	9944.94
469.14	10008.13
469.32	10073.67
469.50	9558.75
469.69	10263.25
469.87	9893.44
470.05	9921.53
470.23	9872.38
470.41	10228.14
470.59	10167.29
470.77	10078.35
470.95	10090.05
471.14	10307.72
471.32	10328.78
471.50	10663.48
471.68	10434.11
471.86	10656.46
472.04	10888.17
472.22	10932.64
472.40	10417.72
472.58	10670.50
472.77	10766.46
472.95	10771.15
473.13	11040.31
473.31	10677.52
473.49	10925.62
473.67	11026.26
473.85	10986.47
474.03	11133.93
474.21	11309.47
474.39	11412.45
474.57	11386.71
474.75	11410.11
474.93	11445.22
475.12	11398.41
475.30	11705.02
475.48	11562.25
475.66	11705.02
475.84	11566.93
476.02	11637.14
476.20	11714.38
476.38	12067.80
476.56	11992.90
476.74	12250.36
476.92	12156.74
477.10	12205.89
477.28	12203.55
477.46	12250.36
477.64	12453.99
477.82	12695.07
478.00	12666.98
478.18	12889.33
478.36	12851.88
478.54	13123.38
478.72	12638.89
478.90	13092.96
479.08	13640.64
479.26	13341.05
479.44	13514.25
479.62	13696.82
479.80	13612.56
479.98	13813.84
480.16	14094.71
480.34	14061.94
480.52	14031.51
480.70	14115.77
480.88	13923.85
481.06	14122.79
481.24	14487.92
481.41	14633.03
481.59	14794.53
481.77	14998.15
481.95	14895.17
482.13	15119.86
482.31	15190.08
482.49	15220.50
482.67	15396.04
482.85	15246.25
483.03	15779.89
483.21	15634.78
483.39	15793.94
483.57	15836.06
483.74	15941.39
483.92	15910.96
484.10	15880.53
484.28	16395.45
484.46	16374.39
484.64	16868.24
484.82	16765.26
485.00	16648.23
485.18	16549.93
485.35	16791.00
485.53	16655.25
485.71	16245.66
485.89	16826.11
486.07	16791.00
486.25	16882.28
486.43	17523.59
486.61	17319.96
486.78	17626.57
486.96	17551.68
487.14	18178.94
487.32	17930.84
487.50	18312.35
487.68	18541.72
487.85	18773.44
488.03	18843.65
488.21	19061.32
488.39	19133.88
488.57	19260.27
488.75	19332.82
488.92	19573.90
489.10	19765.82
489.28	19822.00
489.46	20147.33
489.64	20140.31
489.81	20638.84
489.99	20444.58
490.17	20673.95
490.35	20657.57
490.53	20704.38
490.70	20980.56
490.88	20931.41
491.06	21696.77
491.24	21577.40
491.41	20865.88
491.59	21219.30
491.77	21128.02
491.95	21106.95
492.13	21635.91
492.30	22244.45
492.48	22188.28
492.66	22443.40
492.84	22532.34
493.01	22380.20
493.19	22703.20
493.37	22607.23
493.54	22710.22
493.72	23164.28
493.90	23197.05
494.08	23281.31
494.25	23639.41
494.43	23648.77
494.61	24079.43
494.79	24198.80
494.96	24105.18
495.14	23861.76
495.32	24151.99
495.49	24109.86
495.67	24561.58
495.85	24613.07
496.02	24814.36
496.20	24858.83
496.38	24945.43
496.55	25001.60
496.73	25357.36
496.91	25149.06
497.09	25862.92
497.26	25720.15
497.44	26008.03
497.62	25673.34
497.79	25872.28
497.97	25666.31
498.14	25659.29
498.32	26642.32
498.50	25956.54
498.67	26705.51
498.85	26658.70
499.03	27115.11
499.20	26876.37
499.38	26670.40
499.56	27014.46
499.73	27012.12
499.91	27147.87
500.08	27388.95
500.26	26850.63
500.44	26852.97
500.61	27218.09
500.79	27482.57
500.97	27517.68
501.14	27536.40
501.32	27690.88
501.49	27763.43
501.67	27676.83
501.84	28060.68
502.02	28166.01
502.20	28346.23
502.37	28409.42
502.55	28613.05
502.72	28999.24
502.90	28844.76
503.07	28645.82
503.25	28882.21
503.43	28985.19
503.60	28687.95
503.78	28922.00
503.95	28760.50
504.13	29355.00
504.30	29142.01
504.48	29521.18
504.65	29392.45
504.83	29621.82
505.01	30085.25
505.18	29621.82
505.36	30630.59
505.53	30082.91
505.71	29940.13
505.88	30426.96
506.06	30017.37
506.23	30368.45
506.41	30164.82
506.58	30752.30
506.76	30976.99
506.93	30445.69
507.11	30438.67
507.28	30609.53
507.46	30705.49
507.63	30754.64
507.81	31182.96
507.98	31000.40
508.16	30899.75
508.33	31012.10
508.50	31105.72
508.68	31562.12
508.85	31496.59
509.03	31454.46
509.20	31887.46
509.38	32002.14
509.55	31889.80
509.73	32119.17
509.90	31845.33
510.08	32018.53
510.25	32023.21
510.42	32060.66
510.60	32264.28
510.77	32252.58
510.95	32847.08
511.12	32826.01
511.30	32758.14
511.47	32903.25
511.64	32950.06
511.82	33528.17
511.99	32769.84
512.17	32830.69
512.34	32634.09
512.51	33249.65
512.69	33762.23
512.86	33191.14
513.04	33392.42
513.21	33310.50
513.38	33261.35
513.56	33839.47
513.73	33418.17
513.90	33560.94
514.08	33399.44
514.25	33956.49
514.43	33483.70
514.60	34110.97
514.77	33926.07
514.95	34543.97
515.12	34066.50
515.29	34270.12
515.47	34588.44
515.64	34815.47
515.81	34403.53
515.99	34464.39
516.16	34384.81
516.33	34054.79
516.51	34426.94
516.68	33633.50
516.85	33853.51
517.03	34387.15
517.20	34546.31
517.37	34602.48
517.54	35592.53
517.72	35000.37
517.89	34778.02
518.06	34382.47
518.24	34717.17
518.41	35316.34
518.58	35295.28
518.75	34944.20
518.93	35723.60
519.10	35377.20
519.27	35871.05
519.45	36105.10
519.62	35838.28
519.79	35681.47
519.96	35908.50
520.14	36222.13
520.31	36172.98
520.48	36081.70
520.65	36570.87
520.83	36638.75
521.00	36816.63
521.17	36575.55
521.34	36437.46
521.52	36858.76
521.69	36659.81
521.86	37046.00
522.03	37179.41
522.20	37041.32
522.38	36776.84
522.55	37261.33
522.72	36655.13
522.89	36900.89
523.07	37214.52
523.24	37317.50
523.41	37441.55
523.58	37605.39
523.75	38263.08
523.92	37680.28
524.10	38408.19
524.27	37958.81
524.44	37801.99
524.61	38230.31
524.78	38466.70
524.96	38328.61
525.13	38749.91
525.30	38667.99
525.47	38588.41
525.64	38234.99
525.81	38522.88
525.98	38440.96
526.16	37670.92
526.33	38293.50
526.50	38174.14
526.67	38094.56
526.84	37944.76
527.01	38195.20
527.18	38307.55
527.36	38883.32
527.53	38969.92
527.70	38934.81
527.87	39250.78
528.04	39070.56
528.21	38906.73
528.38	39356.11
528.55	39356.11
528.72	39374.83
528.89	39562.08
529.07	39454.41
529.24	39161.84
529.41	39480.16
529.58	39412.28
529.75	39337.38
529.92	39824.22
530.09	39948.26
530.26	39718.89
530.43	39770.38
530.60	39672.08
530.77	39999.76
530.94	40084.01
531.11	40652.76
531.28	40198.70
531.46	40528.72
531.63	40306.37
531.80	40140.19
531.97	40353.18
532.14	40465.52
532.31	40086.36
532.48	40151.89
532.65	40346.15
532.82	40009.12
532.99	40332.11
533.16	40179.98
533.33	40624.68
533.50	40835.33
533.67	40767.45
533.84	40559.14
534.01	40741.71
534.18	40683.19
534.35	40840.01
534.52	41076.40
534.69	40959.38
534.86	41282.37
535.03	40987.46
535.20	41624.09
535.37	41596.00
535.54	41530.47
535.71	41139.60
535.88	41586.64
536.05	41523.44
536.22	41401.74
536.38	41710.69
536.55	41357.27
536.72	41734.09
536.89	40964.06
537.06	41425.14
537.23	41942.40
537.40	41607.70
537.57	42017.30
537.74	41900.27
537.91	42401.14
538.08	41975.17
538.25	42061.77
538.42	41853.46
538.59	42349.65
538.75	41734.09
538.92	42377.74
539.09	42059.43
539.26	42333.27
539.43	42251.35
539.60	42344.97
539.77	41820.69
539.94	42164.75
540.11	42012.62
540.28	42085.17
540.44	42281.78
540.61	41706.01
540.78	42129.64
540.95	42113.26
541.12	42253.69
541.29	42424.55
541.46	42412.85
541.62	42740.52
541.79	42916.06
541.96	42178.79
542.13	42745.20
542.30	42649.24
542.47	42478.38
542.63	43115.01
542.80	42625.84
542.97	43501.20
543.14	43636.95
543.31	43517.58
543.48	43278.85
543.64	43920.15
543.81	43496.52
543.98	43510.56
544.15	43498.86
544.32	43906.11
544.48	44083.99
544.65	43730.57
544.82	43985.69
544.99	43222.67
545.16	43861.64
545.32	43299.91
545.49	44102.71
545.66	44411.67
545.83	44161.23
546.00	44177.61
546.16	43782.06
546.33	43887.39
546.50	43592.48
546.67	44233.78
546.83	43744.61
547.00	44147.18
547.17	43746.95
547.34	44175.27
547.50	43402.89
547.67	44140.16
547.84	43908.45
548.00	44474.86
548.17	44636.36
548.34	44568.48
548.51	44395.28
548.67	44531.03
548.84	44261.87
549.01	43964.62
549.18	44713.59
549.34	44540.39
549.51	44528.69
549.68	44996.80
549.84	44711.25
550.01	44968.71
550.18	44786.15
550.34	44690.19
550.51	44772.11
550.68	44828.28
550.84	44498.26
551.01	44573.16
551.18	44786.15
551.34	44825.94
551.51	44999.14
551.68	45572.57
551.84	45528.10
552.01	44694.87
552.18	44814.24
552.34	44605.93
552.51	44893.82
552.68	44877.43
552.84	45268.30
553.01	44975.73
553.18	45235.53
553.34	45099.78
553.51	45160.64
553.67	45172.34
553.84	45951.74
554.01	45514.06
554.17	45223.83
554.34	45408.73
554.51	45483.63
554.67	45528.10
554.84	45682.58
555.00	45331.50
555.17	45055.31
555.33	45476.61
555.50	45343.20
555.67	45242.56
555.83	45352.56
556.00	45488.31
556.16	46017.27
556.33	45303.41
556.50	45535.12
556.66	45654.49
556.83	45216.81
556.99	45659.17
557.16	45635.77
557.32	45942.38
557.49	45696.62
557.65	45626.40
557.82	45935.35
557.98	45874.50
558.15	45677.90
558.32	45652.15
558.48	45413.41
558.65	45881.52
558.81	45170.00
558.98	45579.59
559.14	45329.16
559.31	45727.05
559.47	45731.73
559.64	45944.72
559.80	45911.95
559.97	46087.49
560.13	45888.54
560.30	45879.18
560.46	45858.12
560.63	45897.91
560.79	45904.93
560.96	46492.40
561.12	45705.98
561.29	46007.91
561.45	45982.16
561.61	46265.37
561.78	46110.89
561.94	45296.39
562.11	45900.25
562.27	45799.60
562.44	45935.35
562.60	46225.58
562.77	45914.29
562.93	46005.57
563.10	46333.24
563.26	45956.42
563.42	46583.68
563.59	46391.76
563.75	46192.81
563.92	46054.72
564.08	46408.14
564.24	46691.35
564.41	46326.22
564.57	46419.84
564.74	46747.52
564.90	46408.14
565.07	46017.27
565.23	46096.85
565.39	46181.11
565.56	46658.58
565.72	45993.87
565.88	46497.08
566.05	46141.32
566.21	46256.01
566.38	46499.42
566.54	46141.32
566.70	46635.17
566.87	46813.05
567.03	46087.49
567.19	46822.42
567.36	46454.95
567.52	46279.41
567.68	46515.81
567.85	46681.98
568.01	46845.82
568.17	46665.60
568.34	46600.07
568.50	46349.63
568.66	46506.44
568.83	46614.11
568.99	46019.61
569.15	46450.27
569.32	46553.26
569.48	46394.10
569.64	46775.61
569.81	46490.06
569.97	46653.90
570.13	46705.39
570.30	46131.96
570.46	46265.37
570.62	46305.16
570.78	46181.11
570.95	46623.47
571.11	46410.48
571.27	46728.80
571.43	46417.50
571.60	46438.57
571.76	46962.85
571.92	46927.74
572.09	46426.87
572.25	46586.02
572.41	47079.88
572.57	46801.35
572.74	47126.69
572.90	46892.63
573.06	46829.44
573.22	46976.89
573.38	46405.80
573.55	46382.40
573.71	46927.74
573.87	46829.44
574.03	46600.07
574.20	46857.52
574.36	46852.84
574.52	47049.45
574.68	46621.13
574.84	46609.43
575.01	46574.32
575.17	46869.23
575.33	46178.77
575.49	46429.21
575.65	46667.94
575.82	46742.84
575.98	46195.15
576.14	46728.80
576.30	47065.83
576.46	46473.68
576.62	46684.33
576.79	46597.73
576.95	46384.74
577.11	46424.53
577.27	46794.33
577.43	46611.77
577.59	46649.22
577.75	46307.50
577.92	46134.30
578.08	46124.94
578.24	46230.26
578.40	46241.96
578.56	46614.11
578.72	46380.06
578.88	46967.53
579.04	46967.53
579.21	46277.07
579.37	46611.77
579.53	46995.62
579.69	46602.41
579.85	47040.09
580.01	46672.62
580.17	46504.10
580.33	46909.02
580.49	46962.85
580.65	46857.52
580.82	46452.61
580.98	46621.13
581.14	46836.46
581.30	46951.15
581.46	46920.72
581.62	47037.75
581.78	46602.41
581.94	47255.42
582.10	46440.91
582.26	47093.92
582.42	46993.28
582.58	47037.75
582.74	46763.90
582.90	47185.20
583.06	47302.23
583.22	46904.34
583.38	46883.27
583.54	46965.19
583.70	46897.31
583.86	46808.37
584.02	46639.86
584.18	46965.19
584.34	46878.59
584.50	46681.98
584.66	46614.11
584.82	46806.03
584.98	46726.46
585.14	46443.25
585.30	46859.87
585.46	46714.75
585.62	46595.38
585.78	46679.64
585.94	46511.13
586.10	46693.69
586.26	46358.99
586.42	47117.32
586.58	46689.01
586.74	46880.93
586.90	46693.69
587.06	47133.71
587.22	46487.72
587.38	46579.00
587.54	46983.91
587.70	46850.50
587.86	46630.49
588.02	46651.56
588.18	46873.91
588.34	46571.98
588.49	46061.74
588.65	46120.26
588.81	46349.63
588.97	46234.94
589.13	46157.70
589.29	46295.80
589.45	46745.18
589.61	46923.06
589.77	46492.40
589.93	46679.64
