SpectraSuite Data File
++++++++++++++++++++++++++++++++++++
Date: Fri Oct 25 11:26:05 EDT 2013
User: price-jones
Dark Spectrum Present: No
Reference Spectrum Present: No
Number of Sampled Component Spectra: 1
Spectrometers: USB2+H05261
Integration Time (usec): 100000 (USB2+H05261)
Spectra Averaged: 1 (USB2+H05261)
Boxcar Smoothing: 0 (USB2+H05261)
Correct for Electrical Dark: No (USB2+H05261)
Strobe/Lamp Enabled: No (USB2+H05261)
Correct for Detector Non-linearity: No (USB2+H05261)
Correct for Stray Light: No (USB2+H05261)
Number of Pixels in Processed Spectrum: 2048
>>>>>Begin Processed Spectral Data<<<<<
365.73	217.67
365.92	217.67
366.12	217.67
366.32	180.22
366.52	133.41
366.72	168.52
366.91	81.92
367.11	159.16
367.31	93.62
367.51	135.75
367.70	102.98
367.90	152.13
368.10	128.73
368.30	112.35
368.49	142.77
368.69	212.99
368.89	175.54
369.09	154.48
369.28	159.16
369.48	203.63
369.68	208.31
369.87	196.60
370.07	184.90
370.27	220.01
370.47	369.80
370.66	599.18
370.86	709.18
371.06	617.90
371.25	732.59
371.45	608.54
371.65	653.01
371.84	690.46
372.04	711.52
372.24	678.76
372.44	734.93
372.63	727.91
372.83	746.63
373.03	692.80
373.22	709.18
373.42	716.20
373.62	786.42
373.81	791.10
374.01	807.48
374.21	791.10
374.40	755.99
374.60	807.48
374.79	828.55
374.99	833.23
375.19	896.43
375.38	884.72
375.58	880.04
375.78	873.02
375.97	833.23
376.17	849.61
376.37	844.93
376.56	945.58
376.76	873.02
376.95	802.80
377.15	903.45
377.35	933.87
377.54	919.83
377.74	830.89
377.93	901.11
378.13	976.00
378.33	873.02
378.52	926.85
378.72	926.85
378.91	994.73
379.11	919.83
379.31	971.32
379.50	992.39
379.70	987.71
379.89	1055.58
380.09	1001.75
380.28	929.19
380.48	931.53
380.68	973.66
380.87	919.83
381.07	1043.88
381.26	992.39
381.46	1001.75
381.65	1015.79
381.85	1088.35
382.04	1006.43
382.24	1139.84
382.43	1050.90
382.63	1090.69
382.83	1067.28
383.02	1123.46
383.22	1205.38
383.41	1137.50
383.61	1076.65
383.80	1160.91
384.00	1158.57
384.19	1153.88
384.39	1095.37
384.58	1008.77
384.78	1116.44
384.97	1219.42
385.17	1151.54
385.36	1200.69
385.56	1151.54
385.75	1142.18
385.95	1254.53
386.14	1226.44
386.34	1207.72
386.53	1167.93
386.72	1217.08
386.92	1212.40
387.11	1224.10
387.31	1167.93
387.50	1301.34
387.70	1181.97
387.89	1287.29
388.09	1249.85
388.28	1317.72
388.48	1317.72
388.67	1350.49
388.86	1282.61
389.06	1303.68
389.25	1392.62
389.45	1301.34
389.64	1343.47
389.84	1462.83
390.03	1394.96
390.22	1437.09
390.42	1394.96
390.61	1331.76
390.81	1383.26
391.00	1465.18
391.19	1448.79
391.39	1455.81
391.58	1502.62
391.78	1474.54
391.97	1540.07
392.16	1511.99
392.36	1465.18
392.55	1460.49
392.75	1631.35
392.94	1516.67
393.13	1561.14
393.33	1535.39
393.52	1530.71
393.71	1617.31
393.91	1504.96
394.10	1638.38
394.29	1554.12
394.49	1614.97
394.68	1696.89
394.88	1610.29
395.07	1645.40
395.26	1682.85
395.46	1659.44
395.65	1863.07
395.84	1722.63
396.04	1853.70
396.23	1764.76
396.42	1753.06
396.62	1832.64
396.81	1820.94
397.00	1776.47
397.19	1771.79
397.39	1804.55
397.58	1877.11
397.77	1820.94
397.97	1844.34
398.16	1858.39
398.35	1926.26
398.55	1900.52
398.74	1928.60
398.93	1975.41
399.12	1891.15
399.32	1963.71
399.51	1916.90
399.70	2001.16
399.90	1998.82
400.09	1949.67
400.28	2111.16
400.47	2040.95
400.67	1867.75
400.86	2052.65
401.05	2155.63
401.24	2069.03
401.44	2162.66
401.63	2080.74
401.82	2143.93
402.01	2094.78
402.21	2265.64
402.40	2134.57
402.59	2195.42
402.78	2179.04
402.97	2134.57
403.17	2244.57
403.36	2293.72
403.55	2275.00
403.74	2289.04
403.93	2370.96
404.13	2403.73
404.32	2361.60
404.51	2253.94
404.70	2427.14
404.89	2448.20
405.09	2394.37
405.28	2630.76
405.47	2520.76
405.66	2495.01
405.85	2614.38
406.05	2548.84
406.24	2513.74
406.43	2562.89
406.62	2637.78
406.81	2595.65
407.00	2487.99
407.20	2651.83
407.39	2527.78
407.58	2731.41
407.77	2647.15
407.96	2715.02
408.15	2782.90
408.34	2668.21
408.54	2773.53
408.73	2822.69
408.92	2757.15
409.11	2792.26
409.30	2836.73
409.49	2925.67
409.68	2942.05
409.87	2836.73
410.07	3028.65
410.26	2958.44
410.45	2930.35
410.64	3026.31
410.83	3049.72
411.02	3075.46
411.21	3138.66
411.40	3183.13
411.59	3124.62
411.78	3229.94
411.98	3262.71
412.17	3136.32
412.36	3297.81
412.55	3414.84
412.74	3428.88
412.93	3417.18
413.12	3330.58
413.31	3552.93
413.50	3428.88
413.69	3379.73
413.88	3655.92
414.07	3646.55
414.26	3616.13
414.45	3541.23
414.64	3534.21
414.83	3744.86
415.02	3723.79
415.22	3859.54
415.41	3791.67
415.60	3969.55
415.79	3915.72
415.98	3950.82
416.17	3948.48
416.36	3911.04
416.55	3936.78
416.74	4102.96
416.93	4004.66
417.12	4074.87
417.31	4245.73
417.50	4250.41
417.69	4250.41
417.88	4159.13
418.07	4173.18
418.26	4393.19
418.45	4234.03
418.64	4404.89
418.83	4325.31
419.02	4489.15
419.21	4554.68
419.39	4578.09
419.58	4571.07
419.77	4404.89
419.96	4643.62
420.15	4505.53
420.34	4643.62
420.53	4596.81
420.72	4641.28
420.91	4638.94
421.10	4819.16
421.29	4851.93
421.48	4678.73
421.67	4629.58
421.86	4664.69
422.05	4821.50
422.24	4809.80
422.43	4868.31
422.61	5018.11
422.80	5048.54
422.99	4896.40
423.18	5078.96
423.37	4997.04
423.56	4851.93
423.75	4943.21
423.94	4856.61
424.13	4582.77
424.32	4877.68
424.50	5008.75
424.69	5053.22
424.88	5118.75
425.07	4959.60
425.26	5151.52
425.45	5027.47
425.64	4943.21
425.83	5006.41
426.01	5123.43
426.20	5093.01
426.39	5050.88
426.58	5111.73
426.77	5116.41
426.96	5135.14
427.15	5111.73
427.33	5001.72
427.52	5151.52
427.71	5259.18
427.90	5228.76
428.09	5268.55
428.28	5355.15
428.46	5320.04
428.65	5320.04
428.84	5521.32
429.03	5689.84
429.22	5263.86
429.40	5575.16
429.59	5446.43
429.78	5317.70
429.97	5296.63
430.16	5455.79
430.34	5650.05
430.53	5771.76
430.72	5619.63
430.91	5755.38
431.10	5675.80
431.28	5659.42
431.47	5825.59
431.66	5839.64
431.85	5743.67
432.03	5809.21
432.22	5977.73
432.41	5984.75
432.60	5771.76
432.79	5888.79
432.97	6017.52
433.16	5923.90
433.35	5935.60
433.54	6104.12
433.72	6078.37
433.91	5959.00
434.10	6115.82
434.28	5940.28
434.47	6225.82
434.66	6321.79
434.85	6429.45
435.03	6312.42
435.22	6401.37
435.41	6511.37
435.59	6546.48
435.78	6363.92
435.97	6399.02
436.16	6387.32
436.34	6354.55
436.53	6516.05
436.72	6668.19
436.90	6490.31
437.09	6499.67
437.28	6499.67
437.46	6544.14
437.65	6600.31
437.84	6775.85
438.02	6778.19
438.21	6745.42
438.40	6693.93
438.58	6979.48
438.77	7047.35
438.96	7028.63
439.14	7037.99
439.33	7204.17
439.52	7133.95
439.70	7382.05
439.89	7215.87
440.08	7255.66
440.26	7412.48
440.45	7456.95
440.63	7452.27
440.82	7655.89
441.01	7276.73
441.19	7496.74
441.38	7459.29
441.57	7803.35
441.75	7693.34
441.94	7850.16
442.12	7899.31
442.31	7894.63
442.50	8084.21
442.68	7866.54
442.87	7878.24
443.05	8180.17
443.24	8292.52
443.43	8107.62
443.61	8308.90
443.80	8367.42
443.98	7990.59
444.17	7770.58
444.35	8255.07
444.54	8432.95
444.73	8184.85
444.91	8414.23
445.10	8262.09
445.28	8367.42
445.47	8407.20
445.65	8304.22
445.84	8428.27
446.02	8496.14
446.21	8461.04
446.39	8425.93
446.58	8418.91
446.77	8585.08
446.95	8203.58
447.14	8269.11
447.32	8582.74
447.51	8578.06
447.69	8479.76
447.88	8503.17
448.06	8491.46
448.25	8444.65
448.43	8475.08
448.62	8601.47
448.80	8606.15
448.99	8652.96
449.17	8505.51
449.36	8709.13
449.54	8774.67
449.73	8901.06
449.91	8856.59
450.10	8938.51
450.28	9029.79
450.46	9186.60
450.65	8940.85
450.83	9125.75
451.02	9137.45
451.20	9303.63
451.39	9043.83
451.57	9160.86
451.76	8908.08
451.94	9240.44
452.13	9254.48
452.31	9338.74
452.49	9135.11
452.68	9228.73
452.86	9441.72
453.05	9437.04
453.23	9558.75
453.42	9558.75
453.60	9163.20
453.78	9579.81
453.97	9603.22
454.15	9380.87
454.34	9628.96
454.52	9781.10
454.70	9638.33
454.89	9678.12
455.07	9664.07
455.26	9785.78
455.44	9907.49
455.62	9771.74
455.81	9900.47
455.99	10129.84
456.17	9919.19
456.36	10108.77
456.54	10281.97
456.73	10277.29
456.91	10317.08
457.09	10492.62
457.28	10509.01
457.46	10312.40
457.64	10335.81
457.83	10548.79
458.01	10600.29
458.19	10581.56
458.38	10586.24
458.56	10698.59
458.74	10857.75
458.93	10775.83
459.11	10789.87
459.29	10768.80
459.48	10895.19
459.66	10656.46
459.84	11101.16
460.03	11023.92
460.21	10883.49
460.39	10958.39
460.57	11178.40
460.76	11190.10
460.94	11178.40
461.12	11131.59
461.31	11159.67
461.49	11314.15
461.67	11180.74
461.85	11564.59
462.04	11068.39
462.22	11599.70
462.40	11543.52
462.59	11485.01
462.77	11360.96
462.95	11569.27
463.13	11571.61
463.32	11566.93
463.50	11529.48
463.68	11840.77
463.86	11805.66
464.05	11611.40
464.23	11878.22
464.41	11892.26
464.59	11506.07
464.78	11985.88
464.96	11887.58
465.14	11901.62
465.32	12025.67
465.50	12037.38
465.69	11976.52
465.87	11999.93
466.05	12109.93
466.23	11981.20
466.41	12044.40
466.60	12376.75
466.78	12194.19
466.96	12170.79
467.14	12449.31
467.32	12346.33
467.51	12409.52
467.69	12119.29
467.87	12418.88
468.05	12636.55
468.23	12365.05
468.41	12507.82
468.60	12769.96
468.78	12571.02
468.96	12269.09
469.14	12402.50
469.32	13046.15
469.50	12594.42
469.69	13022.74
469.87	13146.79
470.05	12973.59
470.23	13198.28
470.41	13289.56
470.59	13186.58
470.77	13217.01
470.95	13146.79
471.14	13516.59
471.32	13277.86
471.50	13537.66
471.68	13554.04
471.86	13804.48
472.04	13596.17
472.22	13893.42
472.40	13678.09
472.58	13975.34
472.77	13975.34
472.95	14090.02
473.13	14267.91
473.31	14120.45
473.49	14125.13
473.67	14384.93
473.85	14314.72
474.03	14663.46
474.21	14246.84
474.39	14710.27
474.57	14710.27
474.75	14881.13
474.93	14871.76
475.12	14841.34
475.30	15515.41
475.48	14916.23
475.66	15068.37
475.84	15311.78
476.02	15098.80
476.20	15075.39
476.38	15482.64
476.56	16023.31
476.74	15829.04
476.92	16018.63
477.10	15838.41
477.28	16163.74
477.46	16205.87
477.64	16269.06
477.82	16432.90
478.00	17259.11
478.18	16826.11
478.36	16720.79
478.54	17397.20
478.72	16933.78
478.90	17114.00
479.08	17682.75
479.26	17668.70
479.44	17980.00
479.62	18033.83
479.80	18017.44
479.98	18054.89
480.16	18485.55
480.34	18359.16
480.52	18621.30
480.70	18853.02
480.88	18284.26
481.06	18696.20
481.24	18661.09
481.41	19150.26
481.59	19276.65
481.77	19342.19
481.95	19300.06
482.13	19548.15
482.31	19590.28
482.49	20177.76
482.67	20107.54
482.85	20404.79
483.03	20690.34
483.21	20917.37
483.39	20697.36
483.57	20919.71
483.74	21123.33
483.92	21261.43
484.10	21151.42
484.28	21535.27
484.46	21783.37
484.64	22277.22
484.82	21668.68
485.00	22515.95
485.18	22988.74
485.35	22679.79
485.53	22892.78
485.71	22850.65
485.89	23548.13
486.07	23527.06
486.25	23442.81
486.43	23665.16
486.61	23765.80
486.78	24077.09
486.96	24081.77
487.14	24425.83
487.32	24393.06
487.50	24493.71
487.68	24854.15
487.85	25411.20
488.03	25715.47
488.21	25759.94
488.39	25546.95
488.57	25855.90
488.75	26141.44
488.92	26436.35
489.10	26522.95
489.28	26455.08
489.46	27215.75
489.64	26712.53
489.81	27639.39
489.99	27524.70
490.17	27613.64
490.35	28133.24
490.53	28252.61
490.70	28290.06
490.88	28360.27
491.06	28615.39
491.24	28744.12
491.41	28783.91
491.59	28947.75
491.77	29172.44
491.95	29462.66
492.13	29806.72
492.30	29907.37
492.48	29956.52
492.66	30242.06
492.84	30543.99
493.01	30539.31
493.19	30689.10
493.37	30976.99
493.54	31173.60
493.72	31585.53
493.90	31187.64
494.08	31655.75
494.25	31878.10
494.43	31964.70
494.61	32065.34
494.79	32404.72
494.96	32194.07
495.14	32308.76
495.32	33163.05
495.49	33497.75
495.67	33170.07
495.85	33472.00
496.02	33706.05
496.20	34096.92
496.38	33886.28
496.55	33820.74
496.73	34623.54
496.91	34632.91
497.09	34946.54
497.26	34941.86
497.44	35339.75
497.62	35023.78
497.79	35873.39
497.97	35655.72
498.14	36004.46
498.32	36135.53
498.50	35931.90
498.67	36608.32
498.85	36442.14
499.03	36339.16
499.20	36247.88
499.38	37200.47
499.56	36634.06
499.73	37315.16
499.91	37392.40
500.08	37584.32
500.26	37294.10
500.44	37574.96
500.61	37619.43
500.79	37633.47
500.97	38066.47
501.14	38630.54
501.32	38565.01
501.49	38651.61
501.67	38712.46
501.84	38536.92
502.02	38747.57
502.20	38909.07
502.37	39154.82
502.55	39098.65
502.72	39332.70
502.90	39669.74
503.07	39496.54
503.25	39711.87
503.43	39646.33
503.60	40266.58
503.78	40119.12
503.95	40065.29
504.13	40418.71
504.30	40360.20
504.48	40802.56
504.65	40744.05
504.83	41163.00
505.01	41249.60
505.18	41221.52
505.36	41457.91
505.53	40973.42
505.71	41626.43
505.88	41977.51
506.06	41687.28
506.23	42239.65
506.41	41383.01
506.58	41780.90
506.76	41682.60
506.93	42012.62
507.11	42075.81
507.28	43072.88
507.46	42920.74
507.63	42714.78
507.81	43220.33
507.98	42979.26
508.16	43456.73
508.33	43522.26
508.50	43346.72
508.68	43508.22
508.85	43945.90
509.03	43585.46
509.20	43873.34
509.38	44315.70
509.55	44203.36
509.73	44058.24
509.90	44329.75
510.08	44325.07
510.25	44694.87
510.42	45048.29
510.60	45174.68
510.77	45116.17
510.95	45280.00
511.12	45076.38
511.30	45055.31
511.47	45455.54
511.64	45532.78
511.82	46124.94
511.99	45188.72
512.17	45933.01
512.34	45813.65
512.51	46270.05
512.69	46588.36
512.86	46209.20
513.04	46796.67
513.21	46363.67
513.38	46679.64
513.56	46763.90
513.73	46571.98
513.90	46988.60
514.08	47089.24
514.25	47072.85
514.43	47356.06
514.60	47332.65
514.77	47246.05
514.95	47697.78
515.12	47089.24
515.29	47440.32
515.47	47835.87
515.64	47997.37
515.81	47892.04
515.99	48186.95
516.16	47936.51
516.33	48114.39
516.51	48252.48
516.68	48563.78
516.85	48374.19
517.03	48978.05
517.20	48968.69
517.37	48751.02
517.54	48837.62
517.72	48994.43
517.89	48879.75
518.06	49258.91
518.24	48987.41
518.41	49244.87
518.58	49289.34
518.75	49455.52
518.93	49336.15
519.10	49062.31
519.27	49691.91
519.45	49556.16
519.62	49808.94
519.79	49698.94
519.96	49947.03
520.14	50096.83
520.31	49956.39
520.48	50206.83
520.65	50335.56
520.83	50419.82
521.00	50370.67
521.17	50443.23
521.34	50887.93
521.52	50843.46
521.69	50740.47
521.86	50965.17
522.03	51014.32
522.20	51096.24
522.38	51299.86
522.55	51430.93
522.72	51093.89
522.89	51379.44
523.07	51770.31
523.24	51386.46
523.41	51444.98
523.58	51356.03
523.75	51812.44
523.92	51723.50
524.10	52004.36
524.27	51751.59
524.44	52006.70
524.61	52060.54
524.78	52428.00
524.96	52285.23
525.13	52416.30
525.30	52065.22
525.47	52491.19
525.64	52399.91
525.81	52395.23
525.98	52664.39
526.16	52369.49
526.33	52594.18
526.50	52561.41
526.67	52772.06
526.84	52875.04
527.01	52755.68
527.18	52959.30
527.36	52954.62
527.53	52935.90
527.70	53183.99
527.87	53333.79
528.04	53134.84
528.21	53488.26
528.38	53581.88
528.55	53502.31
528.72	53263.57
528.89	53380.60
529.07	53291.66
529.24	53125.48
529.41	53537.41
529.58	53628.69
529.75	53689.55
529.92	53907.22
530.09	53811.26
530.26	54021.90
530.43	53961.05
530.60	53832.32
530.77	53909.56
530.94	54064.03
531.11	54061.69
531.28	54052.33
531.46	53975.09
531.63	54188.08
531.80	53991.48
531.97	54358.94
532.14	54394.05
532.31	54548.53
532.48	54805.98
532.65	54798.96
532.82	54372.99
532.99	54616.40
533.16	54616.40
533.33	54604.70
533.50	55000.25
533.67	54817.69
533.84	54616.40
534.01	54855.14
534.18	54892.58
534.35	55302.18
534.52	54869.18
534.69	55028.34
534.86	55079.83
535.03	54997.91
535.20	55210.90
535.37	55414.52
535.54	55639.22
535.71	55103.23
535.88	55491.76
536.05	55276.43
536.22	55533.89
536.38	55421.55
536.55	55559.64
536.72	55601.77
536.89	55508.14
537.06	55407.50
537.23	55819.44
537.40	55487.08
537.57	55660.28
537.74	55674.32
537.91	56079.24
538.08	55882.63
538.25	55856.88
538.42	55861.57
538.59	56069.87
538.75	55671.98
538.92	55952.85
539.09	56048.81
539.26	56104.98
539.43	56222.01
539.60	55990.30
539.77	56348.40
539.94	56456.06
540.11	56233.71
540.28	56306.27
540.44	56451.38
540.61	56416.27
540.78	56528.62
540.95	56392.87
541.12	56362.44
541.29	56266.48
541.46	56371.80
541.62	56650.33
541.79	56781.40
541.96	56486.49
542.13	56409.25
542.30	56561.39
542.47	56835.23
542.63	56694.80
542.80	57059.92
542.97	57130.14
543.14	57146.52
543.31	57076.30
543.48	57153.54
543.64	57411.00
543.81	57214.40
543.98	57261.21
544.15	57389.94
544.32	57256.53
544.48	57616.97
544.65	57106.73
544.82	57441.43
544.99	57242.48
545.16	57429.72
545.32	57354.83
545.49	57642.71
545.66	57577.18
545.83	57474.20
546.00	57736.34
546.16	57172.27
546.33	57565.48
546.50	57495.26
546.67	57691.86
546.83	57291.63
547.00	57698.89
547.17	57797.19
547.34	57928.26
547.50	57722.29
547.67	58080.39
547.84	57942.30
548.00	57937.62
548.17	58031.24
548.34	58171.67
548.51	58262.96
548.67	58033.58
548.84	58267.64
549.01	57958.69
549.18	58272.32
549.34	58225.51
549.51	58209.12
549.68	58157.63
549.84	58213.80
550.01	58389.34
550.18	58108.48
550.34	58396.37
550.51	58464.24
550.68	58384.66
550.84	58017.20
551.01	58569.57
551.18	58436.16
551.34	58368.28
551.51	58550.84
551.68	58595.31
551.84	58581.27
552.01	58314.45
552.18	58497.01
552.34	58447.86
552.51	58789.58
552.68	58419.77
552.84	58487.65
553.01	58646.80
553.18	58642.12
553.34	58834.05
553.51	58880.86
553.67	58801.28
553.84	59185.13
554.01	58965.12
554.17	58965.12
554.34	58731.06
554.51	58808.30
554.67	59079.80
554.84	59173.42
555.00	58939.37
555.17	58873.84
555.33	58960.44
555.50	58908.94
555.67	59011.93
555.83	58890.22
556.00	58993.20
556.16	59346.62
556.33	59278.75
556.50	59180.45
556.66	59164.06
556.83	59072.78
556.99	59110.23
557.16	59526.84
557.32	59297.47
557.49	59587.70
557.65	59288.11
557.82	59194.49
557.98	59313.86
558.15	59346.62
558.32	59330.24
558.48	59203.85
558.65	59395.77
558.81	59269.39
558.98	59428.54
559.14	59632.17
559.31	59554.93
559.47	59774.94
559.64	59674.30
559.80	59641.53
559.97	59583.02
560.13	59519.82
560.30	59707.07
560.46	59929.42
560.63	59884.95
560.79	59817.07
560.96	59739.83
561.12	59763.24
561.29	59746.86
561.45	59838.14
561.61	59737.49
561.78	59657.91
561.94	59779.62
562.11	59924.74
562.27	59777.28
562.44	60065.17
562.60	59931.76
562.77	59896.65
562.93	59704.73
563.10	60128.36
563.26	59847.50
563.42	60172.83
563.59	59814.73
563.75	59955.16
563.92	60058.15
564.08	60074.53
564.24	60069.85
564.41	60182.19
564.57	60172.83
564.74	60037.08
564.90	60184.54
565.07	60027.72
565.23	60119.00
565.39	60074.53
565.56	60165.81
565.72	60039.42
565.88	60357.74
566.05	60121.34
566.21	60137.72
566.38	60083.89
566.54	60310.92
566.70	60437.31
566.87	60252.41
567.03	60126.02
567.19	60317.95
567.36	60273.48
567.52	60271.14
567.68	60411.57
567.85	60341.35
568.01	60296.88
568.17	60289.86
568.34	60418.59
568.50	60243.05
568.66	60243.05
568.83	60360.08
568.99	60278.16
569.15	60360.08
569.32	60313.26
569.48	60484.12
569.64	60526.25
569.81	60458.38
569.97	60418.59
570.13	60451.36
570.30	60346.03
570.46	60369.44
570.62	60259.43
570.78	60313.26
570.95	60514.55
571.11	60774.35
571.27	60409.23
571.43	60507.53
571.60	60608.17
571.76	60610.51
571.92	60542.64
572.09	60573.06
572.25	60502.85
572.41	60587.11
572.57	60397.52
572.74	60727.54
572.90	60355.39
573.06	60549.66
573.22	60748.60
573.38	60580.09
573.55	60512.21
573.71	60870.31
573.87	60594.13
574.03	60437.31
574.20	60736.90
574.36	60725.20
574.52	60809.46
574.68	60823.50
574.84	60720.52
575.01	60790.73
575.17	60575.40
575.33	60315.61
575.49	60619.88
575.65	60547.32
575.82	60746.26
575.98	60807.12
576.14	61050.53
576.30	60523.91
576.46	60739.24
576.62	60662.00
576.79	60654.98
576.95	60533.28
577.11	60977.98
577.27	60816.48
577.43	60977.98
577.59	60851.59
577.75	60823.50
577.92	60556.68
578.08	60718.18
578.24	60692.43
578.40	60856.27
578.56	60809.46
578.72	60874.99
578.88	60938.19
579.04	61073.94
579.21	60835.20
579.37	60879.67
579.53	60989.68
579.69	60559.02
579.85	60690.09
580.01	60638.60
580.17	60797.76
580.33	61036.49
580.49	61048.19
580.65	60968.61
580.82	60837.54
580.98	60748.60
581.14	60736.90
581.30	60867.97
581.46	60818.82
581.62	60851.59
581.78	60701.79
581.94	60903.08
582.10	60893.72
582.26	60872.65
582.42	60790.73
582.58	60842.23
582.74	60903.08
582.90	60987.34
583.06	60846.91
583.22	60657.32
583.38	60926.49
583.54	60877.33
583.70	60811.80
583.86	60907.76
584.02	60633.92
584.18	60931.17
584.34	60921.80
584.50	60846.91
584.66	60865.63
584.82	60788.39
584.98	61172.24
585.14	60966.27
585.30	60837.54
585.46	61020.11
585.62	60891.38
585.78	61186.28
585.94	60800.10
586.10	60860.95
586.26	61027.13
586.42	61095.00
586.58	61080.96
586.74	60846.91
586.90	60910.10
587.06	61181.60
587.22	61197.99
587.38	60788.39
587.54	61275.22
587.70	61233.10
587.86	61099.68
588.02	60940.53
588.18	61113.73
588.34	60839.89
588.49	61069.26
