SpectraSuite Data File
++++++++++++++++++++++++++++++++++++
Date: Fri Oct 25 11:34:24 EDT 2013
User: price-jones
Dark Spectrum Present: No
Reference Spectrum Present: No
Number of Sampled Component Spectra: 1
Spectrometers: USB2+H05261
Integration Time (usec): 100000 (USB2+H05261)
Spectra Averaged: 1 (USB2+H05261)
Boxcar Smoothing: 0 (USB2+H05261)
Correct for Electrical Dark: No (USB2+H05261)
Strobe/Lamp Enabled: No (USB2+H05261)
Correct for Detector Non-linearity: No (USB2+H05261)
Correct for Stray Light: No (USB2+H05261)
Number of Pixels in Processed Spectrum: 2048
>>>>>Begin Processed Spectral Data<<<<<
365.73	315.97
365.92	315.97
366.12	315.97
366.32	156.82
366.52	173.20
366.72	210.65
366.91	175.54
367.11	208.31
367.31	161.50
367.51	147.45
367.70	198.95
367.90	194.26
368.10	215.33
368.30	182.56
368.49	154.48
368.69	131.07
368.89	168.52
369.09	163.84
369.28	208.31
369.48	124.05
369.68	217.67
369.87	234.05
370.07	250.44
370.27	304.27
370.47	269.16
370.66	461.09
370.86	477.47
371.06	533.64
371.25	498.53
371.45	528.96
371.65	566.41
371.84	535.98
372.04	503.22
372.24	699.82
372.44	587.47
372.63	533.64
372.83	641.31
373.03	554.71
373.22	573.43
373.42	573.43
373.62	645.99
373.81	638.97
374.01	650.67
374.21	592.16
374.40	692.80
374.60	610.88
374.79	589.82
374.99	615.56
375.19	657.69
375.38	650.67
375.58	655.35
375.78	730.25
375.97	674.07
376.17	648.33
376.37	685.78
376.56	603.86
376.76	648.33
376.95	695.14
377.15	669.39
377.35	547.69
377.54	641.31
377.74	695.14
377.93	692.80
378.13	706.84
378.33	755.99
378.52	695.14
378.72	732.59
378.91	709.18
379.11	737.27
379.31	660.03
379.50	699.82
379.70	734.93
379.89	692.80
380.09	695.14
380.28	720.88
380.48	763.01
380.68	716.20
380.87	688.12
381.07	744.29
381.26	739.61
381.46	725.57
381.65	753.65
381.85	660.03
382.04	863.66
382.24	784.08
382.43	760.67
382.63	720.88
382.83	763.01
383.02	805.14
383.22	711.52
383.41	795.78
383.61	786.42
383.80	812.17
384.00	788.76
384.19	737.27
384.39	746.63
384.58	793.44
384.78	770.04
384.97	791.10
385.17	812.17
385.36	791.10
385.56	788.76
385.75	833.23
385.95	805.14
386.14	816.85
386.34	805.14
386.53	828.55
386.72	760.67
386.92	802.80
387.11	821.53
387.31	856.64
387.50	828.55
387.70	837.91
387.89	840.25
388.09	837.91
388.28	866.00
388.48	873.02
388.67	971.32
388.86	936.21
389.06	823.87
389.25	924.51
389.45	880.04
389.64	849.61
389.84	950.26
390.03	936.21
390.22	926.85
390.42	957.28
390.61	919.83
390.81	976.00
391.00	940.90
391.19	978.34
391.39	1032.18
391.58	947.92
391.78	1022.81
391.97	971.32
392.16	915.15
392.36	1011.11
392.55	961.96
392.75	1078.99
392.94	1093.03
393.13	1020.47
393.33	1011.11
393.52	1053.24
393.71	1142.18
393.91	990.05
394.10	1060.26
394.29	1053.24
394.49	997.07
394.68	1064.94
394.88	1165.59
395.07	1097.71
395.26	1130.48
395.46	1093.03
395.65	1151.54
395.84	1137.50
396.04	1256.87
396.23	1097.71
396.42	1186.65
396.62	1179.63
396.81	1118.78
397.00	1266.23
397.19	1268.57
397.39	1153.88
397.58	1149.20
397.77	1259.21
397.97	1247.51
398.16	1177.29
398.35	1256.87
398.55	1200.69
398.74	1249.85
398.93	1331.76
399.12	1266.23
399.32	1296.66
399.51	1263.89
399.70	1341.13
399.90	1306.02
400.09	1313.04
400.28	1406.66
400.47	1371.55
400.67	1322.40
400.86	1413.68
401.05	1376.24
401.24	1444.11
401.44	1434.75
401.63	1399.64
401.82	1401.98
402.01	1383.26
402.21	1387.94
402.40	1472.20
402.59	1362.19
402.78	1399.64
402.97	1472.20
403.17	1462.83
403.36	1528.37
403.55	1582.20
403.74	1521.35
403.93	1537.73
404.13	1570.50
404.32	1516.67
404.51	1572.84
404.70	1647.74
404.89	1575.18
405.09	1633.69
405.28	1582.20
405.47	1624.33
405.66	1682.85
405.85	1563.48
406.05	1666.46
406.24	1790.51
406.43	1680.50
406.62	1750.72
406.81	1710.93
407.00	1717.95
407.20	1769.44
407.39	1783.49
407.58	1673.48
407.77	1776.47
407.96	1884.13
408.15	1858.39
408.34	1839.66
408.54	1907.54
408.73	1813.92
408.92	1799.87
409.11	1963.71
409.30	1886.47
409.49	1984.77
409.68	1930.94
409.87	1879.45
410.07	1987.11
410.26	2033.93
410.45	1926.26
410.64	1998.82
410.83	2115.84
411.02	2024.56
411.21	2146.27
411.40	2054.99
411.59	2078.40
411.78	2036.27
411.98	2050.31
412.17	2214.15
412.36	2195.42
412.55	2214.15
412.74	2228.19
412.93	2249.25
413.12	2284.36
413.31	2321.81
413.50	2403.73
413.69	2368.62
413.88	2476.29
414.07	2324.15
414.26	2223.51
414.45	2403.73
414.64	2476.29
414.83	2497.35
415.02	2555.86
415.22	2572.25
415.41	2567.57
415.60	2541.82
415.79	2628.42
415.98	2637.78
416.17	2668.21
416.36	2574.59
416.55	2640.12
416.74	2757.15
416.93	2595.65
417.12	2710.34
417.31	2808.64
417.50	2736.09
417.69	2815.66
417.88	2801.62
418.07	2916.31
418.26	2885.88
418.45	2916.31
418.64	2911.63
418.83	2930.35
419.02	3016.95
419.21	2923.33
419.39	3030.99
419.58	2939.71
419.77	2888.22
419.96	3073.12
420.15	3059.08
420.34	3052.06
420.53	2986.52
420.72	3131.64
420.91	3124.62
421.10	3126.96
421.29	3241.64
421.48	3133.98
421.67	3129.30
421.86	3115.25
422.05	3283.77
422.24	3131.64
422.43	3279.09
422.61	3162.06
422.80	3318.88
422.99	3276.75
423.18	3307.18
423.37	3386.76
423.56	3297.81
423.75	3297.81
423.94	3262.71
424.13	3117.59
424.32	3248.66
424.50	3337.60
424.69	3361.01
424.88	3510.80
425.07	3309.52
425.26	3241.64
425.45	3169.09
425.64	3316.54
425.83	3304.84
426.01	3307.18
426.20	3414.84
426.39	3384.41
426.58	3236.96
426.77	3407.82
426.96	3442.93
427.15	3337.60
427.33	3520.17
427.52	3330.58
427.71	3534.21
427.90	3496.76
428.09	3557.61
428.28	3440.59
428.46	3536.55
428.65	3611.45
428.84	3595.06
429.03	3531.87
429.22	3604.42
429.40	3634.85
429.59	3665.28
429.78	3620.81
429.97	3424.20
430.16	3714.43
430.34	3695.71
430.53	3674.64
430.72	3801.03
430.91	3655.92
431.10	3592.72
431.28	3709.75
431.47	3733.15
431.66	3866.56
431.85	3873.59
432.03	3964.87
432.22	3976.57
432.41	3964.87
432.60	3943.80
432.79	3925.08
432.97	3985.93
433.16	3786.99
433.35	4030.40
433.54	3946.14
433.72	4088.92
433.91	3981.25
434.10	3997.64
434.28	3913.38
434.47	4149.77
434.66	4367.44
434.85	4311.27
435.03	4145.09
435.22	4184.88
435.41	4304.25
435.59	4187.22
435.78	4329.99
435.97	4430.63
436.16	4229.35
436.34	4229.35
436.53	4311.27
436.72	4346.37
436.90	4236.37
437.09	4376.80
437.28	4369.78
437.46	4465.74
437.65	4484.47
437.84	4550.00
438.02	4372.12
438.21	4519.57
438.40	4444.68
438.58	4559.36
438.77	4484.47
438.96	4573.41
439.14	4496.17
439.33	4631.92
439.52	4882.36
439.70	4685.75
439.89	4779.37
440.08	4851.93
440.26	4880.02
440.45	4807.46
440.63	4884.70
440.82	5041.51
441.01	4912.78
441.19	4936.19
441.38	5036.83
441.57	5001.72
441.75	5135.14
441.94	5284.93
442.12	5158.54
442.31	5254.50
442.50	5128.11
442.68	5322.38
442.87	5261.52
443.05	5195.99
443.24	5303.65
443.43	5331.74
443.61	5366.85
443.80	5399.62
443.98	5181.95
444.17	5139.82
444.35	5280.25
444.54	5535.37
444.73	5373.87
444.91	5490.90
445.10	5469.83
445.28	5575.16
445.47	5418.34
445.65	5399.62
445.84	5390.25
446.02	5692.18
446.21	5406.64
446.39	5446.43
446.58	5736.65
446.77	5497.92
446.95	5469.83
447.14	5448.77
447.32	5537.71
447.51	5591.54
447.69	5652.39
447.88	5638.35
448.06	5589.20
448.25	5792.83
448.43	5504.94
448.62	5586.86
448.80	5715.59
448.99	5795.17
449.17	5645.37
449.36	5827.93
449.54	5823.25
449.73	5790.49
449.91	5874.74
450.10	5774.10
450.28	5968.37
450.46	5982.41
450.65	5776.44
450.83	5891.13
451.02	6029.22
451.20	6033.90
451.39	5865.38
451.57	5851.34
451.76	5895.81
451.94	5951.98
452.13	6101.78
452.31	6214.12
452.49	6001.13
452.68	6033.90
452.86	5994.11
453.05	6146.25
453.23	6200.08
453.42	6235.19
453.60	6202.42
453.78	6338.17
453.97	6218.80
454.15	6202.42
454.34	6214.12
454.52	6253.91
454.70	6190.72
454.89	6328.81
455.07	6289.02
455.26	6265.61
455.44	6342.85
455.62	6366.26
455.81	6399.02
455.99	6504.35
456.17	6644.78
456.36	6661.16
456.54	6513.71
456.73	6600.31
456.91	6724.36
457.09	6874.15
457.28	6843.73
457.46	6616.69
457.64	6890.54
457.83	6747.76
458.01	6597.97
458.19	6803.94
458.38	6782.87
458.56	6944.37
458.74	6707.98
458.93	6864.79
459.11	7091.82
459.29	6960.75
459.48	6743.08
459.66	7056.72
459.84	6995.86
460.03	6993.52
460.21	7162.04
460.39	7318.86
460.57	7045.01
460.76	7220.55
460.94	7162.04
461.12	7166.72
461.31	7220.55
461.49	7225.23
461.67	7070.76
461.85	7407.80
462.04	7211.19
462.22	7875.90
462.40	7686.32
462.59	7545.89
462.77	7449.93
462.95	7398.43
463.13	7377.37
463.32	7487.37
463.50	7379.71
463.68	7576.31
463.86	7536.52
464.05	7597.38
464.23	7475.67
464.41	7796.32
464.59	7562.27
464.78	7721.43
464.96	7747.17
465.14	7452.27
465.32	7541.21
465.50	7793.98
465.69	7964.84
465.87	7838.45
466.05	7761.22
466.23	7791.64
466.41	7915.69
466.60	7953.14
466.78	7698.02
466.96	7719.09
467.14	7824.41
467.32	7836.11
467.51	8011.65
467.69	7906.33
467.87	8077.19
468.05	8079.53
468.23	8067.83
468.41	8037.40
468.60	7985.91
468.78	8231.66
468.96	8135.70
469.14	8280.82
469.32	8266.77
469.50	8053.78
469.69	8252.73
469.87	8241.03
470.05	8353.37
470.23	8355.71
470.41	8484.44
470.59	8395.50
470.77	8470.40
470.95	8491.46
471.14	8624.87
471.32	8519.55
471.50	8664.66
471.68	8767.65
471.86	8798.07
472.04	8784.03
472.22	8961.91
472.40	8631.90
472.58	8877.65
472.77	8891.70
472.95	8910.42
473.13	9362.14
473.31	8889.35
473.49	8945.53
473.67	8800.41
473.85	8992.34
474.03	9415.98
474.21	9514.28
474.39	9401.93
474.57	9282.56
474.75	9462.79
474.93	9525.98
475.12	9401.93
475.30	9659.39
475.48	9582.15
475.66	9696.84
475.84	9596.20
476.02	9621.94
476.20	9877.06
476.38	9921.53
476.56	10291.34
476.74	10106.43
476.92	10274.95
477.10	10097.07
477.28	10375.59
477.46	10113.45
477.64	10438.79
477.82	10279.63
478.00	10590.92
478.18	10675.18
478.36	10906.90
478.54	10707.95
478.72	10972.43
478.90	10876.47
479.08	11124.57
479.26	11059.03
479.44	11384.37
479.62	11164.36
479.80	11412.45
479.98	11583.31
480.16	11744.81
480.34	11754.17
480.52	11955.46
480.70	11669.91
480.88	11758.85
481.06	11976.52
481.24	11948.43
481.41	12187.17
481.59	12194.19
481.77	12287.81
481.95	12257.39
482.13	12652.94
482.31	12526.55
482.49	12950.18
482.67	12833.16
482.85	13041.46
483.03	12849.54
483.21	12992.31
483.39	13233.39
483.57	12950.18
483.74	13422.97
483.92	13462.76
484.10	13537.66
484.28	13657.03
484.46	13956.61
484.64	14146.20
484.82	13642.98
485.00	14277.27
485.18	14221.10
485.35	14434.08
485.53	14618.99
485.71	14738.35
485.89	14965.39
486.07	14883.47
486.25	14808.57
486.43	15000.49
486.61	15115.18
486.78	15157.31
486.96	15131.56
487.14	15681.59
487.32	15412.43
487.50	15510.73
487.68	15777.55
487.85	15838.41
488.03	16016.29
488.21	16262.04
488.39	16126.29
488.57	16130.97
488.75	16468.01
488.92	16540.57
489.10	16823.77
489.28	16870.58
489.46	17102.29
489.64	17076.55
489.81	17359.75
489.99	17397.20
490.17	17209.96
490.35	17823.18
490.53	17980.00
490.70	18143.83
490.88	17816.16
491.06	18185.96
491.24	17989.36
491.41	18328.74
491.59	18321.71
491.77	18200.01
491.95	18511.30
492.13	18616.62
492.30	18679.82
492.48	18838.97
492.66	18941.96
492.84	19147.92
493.01	19211.12
493.19	19117.50
493.37	19410.06
493.54	19674.54
493.72	19854.76
493.90	19861.79
494.08	19695.61
494.25	20039.67
494.43	20259.68
494.61	20308.83
494.79	20561.61
494.96	20301.81
495.14	20624.80
495.32	20592.03
495.49	20905.66
495.67	21184.19
495.85	20945.45
496.02	21090.57
496.20	21362.07
496.38	21294.19
496.55	21528.25
496.73	22050.19
496.91	21708.47
497.09	21928.48
497.26	21830.18
497.44	21788.05
497.62	22185.94
497.79	22443.40
497.97	22539.36
498.14	22750.01
498.32	22710.22
498.50	22787.46
498.67	22703.20
498.85	22850.65
499.03	22719.58
499.20	22944.27
499.38	23183.01
499.56	23431.10
499.73	23190.03
499.91	23332.80
500.08	23702.61
500.26	23506.00
500.44	23789.20
500.61	23716.65
500.79	23742.39
500.97	23929.64
501.14	24369.66
501.32	24325.19
501.49	24243.27
501.67	24257.31
501.84	24465.62
502.02	24290.08
502.20	24709.04
502.37	24767.55
502.55	24622.44
502.72	24690.31
502.90	24816.70
503.07	25006.28
503.25	25120.97
503.43	24690.31
503.60	25411.20
503.78	25308.21
503.95	25188.85
504.13	25329.28
504.30	25614.82
504.48	25582.06
504.65	25996.33
504.83	25895.69
505.01	25830.15
505.18	25891.01
505.36	26359.11
505.53	26141.44
505.71	26281.88
505.88	26150.81
506.06	26169.53
506.23	26321.66
506.41	26347.41
506.58	26728.92
506.76	26764.03
506.93	26499.55
507.11	26721.90
507.28	26883.39
507.46	26890.41
507.63	27098.72
507.81	27578.53
507.98	26995.74
508.16	27255.54
508.33	27264.90
508.50	27711.94
508.68	27410.01
508.85	28149.62
509.03	27653.43
509.20	27728.33
509.38	27828.97
509.55	28379.00
509.73	28065.36
509.90	28432.83
510.08	28205.80
510.25	28353.25
510.42	28332.18
510.60	28311.12
510.77	28905.62
510.95	28753.48
511.12	28477.30
511.30	28645.82
511.47	28922.00
511.64	28821.36
511.82	28947.75
511.99	29060.09
512.17	29298.83
512.34	29193.50
512.51	29530.54
512.69	29549.26
512.86	29333.93
513.04	29937.79
513.21	29303.51
513.38	30148.44
513.56	29792.68
513.73	30153.12
513.90	30061.84
514.08	29853.53
514.25	30110.99
514.43	30258.45
514.60	30251.42
514.77	30672.72
514.95	30476.12
515.12	30335.68
515.29	30628.25
515.47	30593.14
515.64	30749.96
515.81	30925.50
515.99	31026.14
516.16	31173.60
516.33	31072.95
516.51	30995.71
516.68	31026.14
516.85	31143.17
517.03	31351.48
517.20	31243.81
517.37	31117.42
517.54	31470.84
517.72	31377.22
517.89	31527.02
518.06	31824.26
518.24	31452.12
518.41	31344.45
518.58	31882.78
518.75	31871.07
518.93	32046.62
519.10	31772.77
519.27	32086.40
519.45	32308.76
519.62	32217.47
519.79	32247.90
519.96	32165.98
520.14	32385.99
520.31	32194.07
520.48	32559.19
520.65	32479.61
520.83	33006.23
521.00	33104.54
521.17	32879.85
521.34	32910.27
521.52	33010.92
521.69	33017.94
521.86	32851.76
522.03	33090.49
522.20	33488.38
522.38	33897.98
522.55	33823.08
522.72	33582.01
522.89	33752.87
523.07	33640.52
523.24	33825.42
523.41	34017.35
523.58	33497.75
523.75	33802.02
523.92	33837.12
524.10	34352.04
524.27	34295.87
524.44	34302.89
524.61	34719.51
524.78	34188.21
524.96	34621.20
525.13	34464.39
525.30	34792.06
525.47	34614.18
525.64	34597.80
525.81	34778.02
525.98	34714.83
526.16	34939.52
526.33	34855.26
526.50	35218.04
526.67	35112.72
526.84	34962.92
527.01	35016.75
527.18	35304.64
527.36	34934.84
527.53	35325.71
527.70	35754.02
527.87	35737.64
528.04	35637.00
528.21	35641.68
528.38	35426.35
528.55	35629.98
528.72	35290.60
528.89	35772.75
529.07	35531.67
529.24	35688.49
529.41	35501.25
529.58	35737.64
529.75	36034.89
529.92	35770.41
530.09	36360.22
530.26	36140.21
530.43	36404.69
530.60	35543.38
530.77	36107.44
530.94	36325.11
531.11	36264.26
531.28	36222.13
531.46	36341.50
531.63	36629.38
531.80	36313.41
531.97	36350.86
532.14	36540.44
532.31	36650.45
532.48	37083.45
532.65	37296.44
532.82	36954.72
532.99	37584.32
533.16	36620.02
533.33	37212.18
533.50	37172.39
533.67	37284.73
533.84	37139.62
534.01	37434.53
534.18	37223.88
534.35	37436.87
534.52	37425.17
534.69	37886.25
534.86	37699.01
535.03	37755.18
535.20	37937.74
535.37	37738.80
535.54	38108.60
535.71	37729.44
535.88	37830.08
536.05	37900.29
536.22	37699.01
536.38	38064.13
536.55	37703.69
536.72	37989.24
536.89	37989.24
537.06	38153.07
537.23	38616.50
537.40	38412.87
537.57	38211.59
537.74	38342.66
537.91	38569.69
538.08	38347.34
538.25	38110.94
538.42	38476.07
538.59	38815.44
538.75	38326.27
538.92	38773.31
539.09	38953.54
539.26	38789.70
539.43	38885.66
539.60	39077.58
539.77	38906.73
539.94	39175.89
540.11	39473.13
540.28	38890.34
540.44	39084.61
540.61	39016.73
540.78	39096.31
540.95	38995.67
541.12	39236.74
541.29	39110.35
541.46	39407.60
541.62	39215.68
541.79	39548.03
541.96	39370.15
542.13	39264.83
542.30	39763.36
542.47	39756.34
542.63	39938.90
542.80	39702.51
542.97	39861.66
543.14	40451.48
543.31	39854.64
543.48	40053.59
543.64	40533.40
543.81	40381.26
543.98	40233.81
544.15	40549.78
544.32	40711.28
544.48	40509.99
544.65	40495.95
544.82	40533.40
544.99	40191.68
545.16	40704.26
545.32	40666.81
545.49	41303.43
545.66	40811.92
545.83	40903.20
546.00	40652.76
546.16	40502.97
546.33	40692.55
546.50	40622.34
546.67	41085.76
546.83	40975.76
547.00	40814.26
547.17	41071.72
547.34	40978.10
547.50	41067.04
547.67	41574.94
547.84	41436.84
548.00	41656.85
548.17	41631.11
548.34	41368.97
548.51	41958.78
548.67	41560.89
548.84	41703.67
549.01	41684.94
549.18	41219.17
549.34	41720.05
549.51	41738.77
549.68	41975.17
549.84	41656.85
550.01	42017.30
550.18	41766.86
550.34	41654.51
550.51	42326.25
550.68	42321.57
550.84	41581.96
551.01	42080.49
551.18	42031.34
551.34	42014.96
551.51	42267.73
551.68	41921.34
551.84	42000.91
552.01	42162.41
552.18	42195.18
552.34	41984.53
552.51	42677.33
552.68	42059.43
552.84	41979.85
553.01	42674.99
553.18	42707.76
553.34	42618.81
553.51	42532.22
553.67	42462.00
553.84	42628.18
554.01	42616.47
554.17	42937.13
554.34	42792.01
554.51	42539.24
554.67	43122.03
554.84	42979.26
555.00	42873.93
555.17	42752.23
555.33	42672.65
555.50	42564.98
555.67	43150.12
555.83	42946.49
556.00	42983.94
556.16	43737.59
556.33	42323.91
556.50	42677.33
556.66	43440.34
556.83	43126.71
556.99	43056.50
557.16	43318.64
557.32	43611.20
557.49	43597.16
557.65	43353.74
557.82	43414.60
557.98	43297.57
558.15	42965.21
558.32	43316.29
558.48	42880.95
558.65	43398.21
558.81	43185.22
558.98	43395.87
559.14	43328.00
559.31	43381.83
559.47	43625.25
559.64	43707.16
559.80	43063.52
559.97	43761.00
560.13	43672.06
560.30	43978.67
560.46	43817.17
560.63	43913.13
560.79	43913.13
560.96	43749.29
561.12	43861.64
561.29	43983.35
561.45	43683.76
561.61	43896.75
561.78	43863.98
561.94	44032.50
562.11	44114.42
562.27	43702.48
562.44	43833.55
562.60	43990.37
562.77	44252.51
562.93	43892.07
563.10	44238.47
563.26	43772.70
563.42	44397.62
563.59	44229.10
563.75	43550.35
563.92	44304.00
564.08	44350.81
564.24	44477.20
564.41	44346.13
564.57	43988.03
564.74	43992.71
564.90	44474.86
565.07	44289.96
565.23	44418.69
565.39	43978.67
565.56	44388.26
565.72	44367.20
565.88	44549.76
566.05	44252.51
566.21	44402.30
566.38	44135.48
566.54	44697.21
566.70	44566.14
566.87	44847.00
567.03	44481.88
567.19	44458.48
567.36	44631.68
567.52	44905.52
567.68	44734.66
567.85	44453.79
568.01	44779.13
568.17	44453.79
568.34	44722.96
568.50	44715.93
568.66	44566.14
568.83	45097.44
568.99	44385.92
569.15	44718.28
569.32	44793.17
569.48	44582.52
569.64	45120.85
569.81	44921.90
569.97	44825.94
570.13	45081.06
570.30	44580.18
570.46	45251.92
570.62	44673.81
570.78	44364.85
570.95	44753.38
571.11	45092.76
571.27	44957.01
571.43	44776.79
571.60	44891.48
571.76	44706.57
571.92	44858.71
572.09	44776.79
572.25	45144.25
572.41	44751.04
572.57	44903.18
572.74	45542.14
572.90	45198.09
573.06	45275.32
573.22	44837.64
573.38	45106.80
573.55	44924.24
573.71	45364.26
573.87	45464.91
574.03	45226.17
574.20	45497.67
574.36	45174.68
574.52	45326.81
574.68	45221.49
574.84	45385.33
575.01	45069.36
575.17	45303.41
575.33	45366.60
575.49	45001.48
575.65	45518.74
575.82	45064.67
575.98	45041.27
576.14	45120.85
576.30	45397.03
576.46	45668.53
576.62	45031.91
576.79	45282.34
576.95	45109.14
577.11	45052.97
577.27	45228.51
577.43	45219.15
577.59	44933.60
577.75	45195.74
577.92	44961.69
578.08	44933.60
578.24	45336.18
578.40	45167.66
578.56	45113.83
578.72	44989.78
578.88	45584.27
579.04	45425.12
579.21	45462.57
579.37	45155.96
579.53	45628.74
579.69	45258.94
579.85	45240.21
580.01	45434.48
580.17	45305.75
580.33	45478.95
580.49	45251.92
580.65	45734.07
580.82	45230.85
580.98	45305.75
581.14	45074.04
581.30	45780.88
581.46	44505.29
581.62	45366.60
581.78	45443.84
581.94	45375.97
582.10	45429.80
582.26	45474.27
582.42	45202.77
582.58	45469.59
582.74	45574.91
582.90	45776.20
583.06	45504.70
583.22	45509.38
583.38	45448.52
583.54	45748.11
583.70	45617.04
583.86	45640.45
584.02	45235.53
584.18	45834.71
584.34	45855.78
584.50	45652.15
584.66	45556.19
584.82	45492.99
584.98	45874.50
585.14	45982.16
585.30	45392.35
585.46	45364.26
585.62	45675.55
585.78	45481.29
585.94	45427.46
586.10	45333.84
586.26	45045.95
586.42	45209.79
586.58	46068.76
586.74	45769.18
586.90	45301.07
587.06	45237.87
587.22	45532.78
587.38	45429.80
587.54	45694.28
587.70	45832.37
587.86	45640.45
588.02	45572.57
588.18	45558.53
588.34	45595.98
588.49	45841.73
588.65	45535.12
588.81	45603.00
588.97	45762.15
589.13	45483.63
589.29	45757.47
589.45	45645.13
589.61	45500.01
589.77	45954.08
589.93	45338.52
590.08	46440.91
