SpectraSuite Data File
++++++++++++++++++++++++++++++++++++
Date: Fri Oct 25 10:43:25 EDT 2013
User: price-jones
Dark Spectrum Present: No
Reference Spectrum Present: No
Number of Sampled Component Spectra: 1
Spectrometers: USB2+H05261
Integration Time (usec): 100000 (USB2+H05261)
Spectra Averaged: 1 (USB2+H05261)
Boxcar Smoothing: 0 (USB2+H05261)
Correct for Electrical Dark: No (USB2+H05261)
Strobe/Lamp Enabled: No (USB2+H05261)
Correct for Detector Non-linearity: No (USB2+H05261)
Correct for Stray Light: No (USB2+H05261)
Number of Pixels in Processed Spectrum: 2048
>>>>>Begin Processed Spectral Data<<<<<
365.73	44.47
365.92	44.47
366.12	44.47
366.32	2.34
366.52	0.00
366.72	0.00
366.91	0.00
367.11	0.00
367.31	0.00
367.51	39.79
367.70	39.79
367.90	21.06
368.10	88.94
368.30	11.70
368.49	14.04
368.69	9.36
368.89	14.04
369.09	51.49
369.28	63.19
369.48	51.49
369.68	39.79
369.87	65.54
370.07	117.03
370.27	133.41
370.47	180.22
370.66	388.53
370.86	372.15
371.06	407.25
371.25	465.77
371.45	390.87
371.65	451.72
371.84	362.78
372.04	416.62
372.24	526.62
372.44	465.77
372.63	543.00
372.83	470.45
373.03	521.94
373.22	498.53
373.42	491.51
373.62	519.60
373.81	510.24
374.01	566.41
374.21	566.41
374.40	491.51
374.60	568.75
374.79	550.03
374.99	561.73
375.19	613.22
375.38	573.43
375.58	573.43
375.78	582.79
375.97	622.58
376.17	592.16
376.37	582.79
376.56	622.58
376.76	535.98
376.95	636.63
377.15	744.29
377.35	678.76
377.54	697.48
377.74	667.05
377.93	603.86
378.13	629.60
378.33	678.76
378.52	636.63
378.72	648.33
378.91	575.77
379.11	599.18
379.31	603.86
379.50	615.56
379.70	720.88
379.89	671.73
380.09	725.57
380.28	655.35
380.48	695.14
380.68	725.57
380.87	690.46
381.07	702.16
381.26	662.37
381.46	784.08
381.65	671.73
381.85	711.52
382.04	706.84
382.24	727.91
382.43	669.39
382.63	697.48
382.83	732.59
383.02	744.29
383.22	671.73
383.41	758.33
383.61	760.67
383.80	802.80
384.00	774.72
384.19	807.48
384.39	741.95
384.58	800.46
384.78	807.48
384.97	807.48
385.17	812.17
385.36	739.61
385.56	800.46
385.75	781.74
385.95	849.61
386.14	816.85
386.34	884.72
386.53	840.25
386.72	858.98
386.92	933.87
387.11	826.21
387.31	931.53
387.50	884.72
387.70	861.32
387.89	823.87
388.09	912.81
388.28	922.17
388.48	816.85
388.67	1022.81
388.86	952.60
389.06	940.90
389.25	947.92
389.45	973.66
389.64	938.55
389.84	971.32
390.03	966.64
390.22	961.96
390.42	1071.97
390.61	945.58
390.81	938.55
391.00	1011.11
391.19	992.39
391.39	1067.28
391.58	1004.09
391.78	983.02
391.97	1060.26
392.16	1013.45
392.36	1043.88
392.55	976.00
392.75	959.62
392.94	1015.79
393.13	1034.52
393.33	933.87
393.52	1034.52
393.71	1069.62
393.91	1074.31
394.10	1046.22
394.29	1036.86
394.49	1121.12
394.68	1149.20
394.88	1121.12
395.07	1165.59
395.26	1109.41
395.46	1217.08
395.65	1256.87
395.84	1245.16
396.04	1233.46
396.23	1214.74
396.42	1102.39
396.62	1261.55
396.81	1228.78
397.00	1181.97
397.19	1256.87
397.39	1315.38
397.58	1476.88
397.77	1291.98
397.97	1413.68
398.16	1352.83
398.35	1465.18
398.55	1397.30
398.74	1437.09
398.93	1437.09
399.12	1371.55
399.32	1474.54
399.51	1467.52
399.70	1502.62
399.90	1493.26
400.09	1409.00
400.28	1575.18
400.47	1530.71
400.67	1612.63
400.86	1570.50
401.05	1584.54
401.24	1661.78
401.44	1729.66
401.63	1633.69
401.82	1678.16
402.01	1724.97
402.21	1694.55
402.40	1687.53
402.59	1724.97
402.78	1675.82
402.97	1699.23
403.17	1736.68
403.36	1802.21
403.55	1818.60
403.74	1795.19
403.93	1870.09
404.13	1778.81
404.32	1881.79
404.51	1825.62
404.70	1849.02
404.89	1895.83
405.09	1963.71
405.28	1940.30
405.47	1949.67
405.66	1898.17
405.85	1891.15
406.05	1790.51
406.24	1844.34
406.43	1973.07
406.62	2040.95
406.81	2104.14
407.00	2012.86
407.20	2012.86
407.39	1970.73
407.58	2066.69
407.77	2162.66
407.96	2064.35
408.15	2218.83
408.34	2146.27
408.54	2270.32
408.73	2221.17
408.92	2246.91
409.11	2232.87
409.30	2216.49
409.49	2204.78
409.68	2263.30
409.87	2239.89
410.07	2333.51
410.26	2221.17
410.45	2312.45
410.64	2389.69
410.83	2317.13
411.02	2417.77
411.21	2553.52
411.40	2459.90
411.59	2452.88
411.78	2513.74
411.98	2485.65
412.17	2534.80
412.36	2576.93
412.55	2677.57
412.74	2654.17
412.93	2415.43
413.12	2588.63
413.31	2682.25
413.50	2722.04
413.69	2719.70
413.88	3038.02
414.07	2899.92
414.26	2911.63
414.45	2794.60
414.64	2799.28
414.83	3000.57
415.02	2899.92
415.22	3009.93
415.41	3063.76
415.60	2906.95
415.79	3126.96
415.98	3173.77
416.17	3094.19
416.36	3075.46
416.55	3098.87
416.74	3246.32
416.93	3241.64
417.12	3218.24
417.31	3293.13
417.50	3281.43
417.69	3337.60
417.88	3293.13
418.07	3534.21
418.26	3356.33
418.45	3389.10
418.64	3475.70
418.83	3466.33
419.02	3428.88
419.21	3550.59
419.39	3503.78
419.58	3503.78
419.77	3412.50
419.96	3531.87
420.15	3552.93
420.34	3665.28
420.53	3660.60
420.72	3684.00
420.91	3653.58
421.10	3658.26
421.29	3810.39
421.48	3765.92
421.67	3770.60
421.86	3669.96
422.05	3779.97
422.24	3688.68
422.43	3735.50
422.61	3756.56
422.80	3695.71
422.99	3772.94
423.18	3822.09
423.37	3960.19
423.56	3817.41
423.75	3850.18
423.94	3775.28
424.13	3499.10
424.32	3772.94
424.50	3864.22
424.69	3957.85
424.88	3922.74
425.07	3922.74
425.26	3861.88
425.45	3754.22
425.64	3845.50
425.83	3882.95
426.01	3948.48
426.20	3852.52
426.39	3936.78
426.58	3960.19
426.77	3946.14
426.96	3833.80
427.15	3962.53
427.33	3934.44
427.52	3950.82
427.71	4121.68
427.90	4004.66
428.09	4276.16
428.28	4063.17
428.46	4098.28
428.65	4049.13
428.84	4248.07
429.03	4299.56
429.22	3995.29
429.40	3985.93
429.59	4049.13
429.78	3803.37
429.97	3819.75
430.16	3955.51
430.34	4067.85
430.53	4163.81
430.72	4072.53
430.91	4189.56
431.10	4236.37
431.28	4486.81
431.47	4535.96
431.66	4528.94
431.85	4404.89
432.03	4561.70
432.22	4524.26
432.41	4582.77
432.60	4592.13
432.79	4559.36
432.97	4650.64
433.16	4650.64
433.35	4535.96
433.54	4706.82
433.72	4596.81
433.91	4603.83
434.10	4662.35
434.28	4755.97
434.47	4664.69
434.66	4901.08
434.85	4887.04
435.03	4837.89
435.22	4732.56
435.41	4999.38
435.59	4943.21
435.78	4877.68
435.97	5057.90
436.16	5050.88
436.34	5123.43
436.53	5071.94
436.72	5123.43
436.90	4929.17
437.09	4957.25
437.28	5011.09
437.46	5078.96
437.65	4943.21
437.84	5125.77
438.02	4924.49
438.21	5018.11
438.40	4919.81
438.58	5172.58
438.77	5263.86
438.96	5350.46
439.14	5317.70
439.33	5446.43
439.52	5533.03
439.70	5533.03
439.89	5432.38
440.08	5458.13
440.26	5521.32
440.45	5554.09
440.63	5778.78
440.82	5909.85
441.01	5989.43
441.19	5795.17
441.38	5984.75
441.57	5982.41
441.75	6083.05
441.94	5921.56
442.12	6108.80
442.31	6230.51
442.50	6310.08
442.68	6104.12
442.87	6179.01
443.05	6202.42
443.24	6434.13
443.43	6424.77
443.61	6258.59
443.80	6438.81
443.98	6183.70
444.17	6099.44
444.35	6441.15
444.54	6370.94
444.73	6319.45
444.91	6380.30
445.10	6377.96
445.28	6244.55
445.47	6289.02
445.65	6387.32
445.84	6436.47
446.02	6347.53
446.21	6401.37
446.39	6438.81
446.58	6544.14
446.77	6558.18
446.95	6455.20
447.14	6572.22
447.32	6642.44
447.51	6471.58
447.69	6555.84
447.88	6616.69
448.06	6612.01
448.25	6480.94
448.43	6562.86
448.62	6724.36
448.80	6586.27
448.99	6675.21
449.17	6747.76
449.36	6682.23
449.54	6857.77
449.73	7077.78
449.91	6848.41
450.10	6958.41
450.28	7096.50
450.46	6991.18
450.65	7201.83
450.83	7236.94
451.02	7098.84
451.20	7016.93
451.39	7133.95
451.57	6967.77
451.76	7019.27
451.94	7110.55
452.13	7262.68
452.31	7075.44
452.49	6855.43
452.68	7068.42
452.86	7126.93
453.05	7115.23
453.23	7082.46
453.42	7176.08
453.60	7063.74
453.78	7201.83
453.97	7009.90
454.15	7253.32
454.34	7206.51
454.52	7360.98
454.70	7485.03
454.89	7288.43
455.07	7370.35
455.26	7606.74
455.44	7653.55
455.62	7468.65
455.81	7559.93
455.99	7742.49
456.17	7733.13
456.36	7599.72
456.54	7712.07
456.73	7796.32
456.91	7882.92
457.09	8056.12
457.28	8173.15
457.46	7672.28
457.64	7896.97
457.83	7864.20
458.01	7871.22
458.19	8060.80
458.38	7901.65
458.56	7964.84
458.74	8105.28
458.93	8191.88
459.11	8318.26
459.29	7985.91
459.48	8182.51
459.66	8248.05
459.84	8425.93
460.03	8507.85
460.21	8449.33
460.39	8423.59
460.57	8243.37
460.76	8306.56
460.94	8425.93
461.12	8409.54
461.31	8500.83
461.49	8329.97
461.67	8521.89
461.85	8610.83
462.04	8524.23
462.22	9015.74
462.40	8887.01
462.59	8594.45
462.77	8697.43
462.95	8638.92
463.13	8795.73
463.32	8856.59
463.50	8798.07
463.68	8791.05
463.86	8877.65
464.05	8931.48
464.23	8678.71
464.41	8858.93
464.59	8662.32
464.78	8877.65
464.96	9046.17
465.14	8655.30
465.32	9048.51
465.50	9184.26
465.69	9095.32
465.87	9224.05
466.05	9139.79
466.23	9081.28
466.41	8971.27
466.60	9151.49
466.78	9027.45
466.96	9027.45
467.14	9210.01
467.32	8959.57
467.51	9289.59
467.69	8994.68
467.87	9270.86
468.05	9350.44
468.23	9163.20
468.41	9308.31
468.60	9322.35
468.78	9399.59
468.96	9357.46
469.14	9486.19
469.32	9530.66
469.50	9291.93
469.69	9645.35
469.87	9633.64
470.05	9544.70
470.23	9584.49
470.41	9579.81
470.59	9568.11
470.77	9687.48
470.95	9841.95
471.14	9825.57
471.32	9776.42
471.50	10129.84
471.68	9994.09
471.86	10129.84
472.04	10242.18
472.22	10399.00
472.40	10134.52
472.58	10331.12
472.77	10195.37
472.95	10420.06
473.13	10541.77
473.31	10340.49
473.49	10331.12
473.67	10384.96
473.85	10511.35
474.03	10780.51
474.21	10855.40
474.39	10890.51
474.57	10768.80
474.75	10787.53
474.93	10984.13
475.12	11037.97
475.30	10951.37
475.48	10942.00
475.66	11059.03
475.84	11073.07
476.02	11080.10
476.20	11211.17
476.38	11730.76
476.56	11583.31
476.74	11461.60
476.92	11756.51
477.10	11562.25
477.28	11934.39
477.46	11772.89
477.64	11854.81
477.82	12233.98
478.00	12341.64
478.18	12287.81
478.36	12360.37
478.54	12231.64
478.72	12442.29
478.90	12676.34
479.08	12779.32
479.26	12615.49
479.44	12732.51
479.62	12793.37
479.80	13291.90
479.98	13109.34
480.16	13366.80
480.34	13535.32
480.52	13532.98
480.70	13371.48
480.88	13427.65
481.06	13708.52
481.24	13582.13
481.41	14010.45
481.59	14005.77
481.77	14029.17
481.95	14031.51
482.13	14352.16
482.31	14235.14
482.49	14494.94
482.67	14579.20
482.85	14565.15
483.03	14820.27
483.21	15098.80
483.39	15129.22
483.57	15103.48
483.74	15236.89
483.92	15363.28
484.10	15393.70
484.28	15477.96
484.46	15559.88
484.64	16030.33
484.82	15782.23
485.00	16128.63
485.18	16194.17
485.35	16074.80
485.53	15758.83
485.71	15541.16
485.89	16435.24
486.07	16383.75
486.25	16112.25
486.43	16177.78
486.61	16814.41
486.78	17018.04
486.96	17160.81
487.14	17331.67
487.32	17315.28
487.50	17664.02
487.68	17781.05
487.85	17968.29
488.03	18066.60
488.21	18415.34
488.39	18476.19
488.57	18342.78
488.75	18445.76
488.92	18707.90
489.10	18845.99
489.28	19168.99
489.46	19117.50
489.64	19489.64
489.81	19735.40
489.99	19786.89
490.17	19831.36
490.35	20273.72
490.53	20056.05
490.70	19969.45
490.88	20027.96
491.06	20346.28
491.24	20503.09
491.41	20409.47
491.59	20381.38
491.77	20336.91
491.95	20793.32
492.13	20800.34
492.30	20896.30
492.48	21610.17
492.66	21432.29
492.84	21436.97
493.01	21542.29
493.19	21666.34
493.37	21776.34
493.54	21855.92
493.72	22324.03
493.90	21898.05
494.08	22398.93
494.25	22642.34
494.43	22675.11
494.61	22911.50
494.79	23190.03
494.96	23136.20
495.14	23197.05
495.32	23082.36
495.49	23185.35
495.67	23686.22
495.85	23702.61
496.02	23749.42
496.20	23861.76
496.38	24049.00
496.55	24109.86
496.73	24563.92
496.91	24381.36
497.09	24568.60
497.26	24599.03
497.44	24671.59
497.62	24669.25
497.79	24662.22
497.97	24496.05
498.14	24819.04
498.32	24964.15
498.50	25483.75
498.67	25603.12
498.85	25357.36
499.03	25663.97
499.20	25893.35
499.38	26036.12
499.56	25586.74
499.73	26068.89
499.91	25848.88
500.08	26288.90
500.26	25956.54
500.44	26008.03
500.61	25907.39
500.79	26403.58
500.97	26314.64
501.14	26719.56
501.32	26506.57
501.49	26431.67
501.67	26904.46
501.84	27049.57
502.02	26904.46
502.20	27007.44
502.37	27302.35
502.55	27590.24
502.72	27473.21
502.90	27494.27
503.07	27339.80
503.25	27992.81
503.43	27428.74
503.60	27655.77
503.78	27775.14
503.95	27548.11
504.13	27929.61
504.30	28180.05
504.48	28142.60
504.65	28208.14
504.83	28716.03
505.01	28582.62
505.18	28329.84
505.36	28926.68
505.53	28603.69
505.71	28975.83
505.88	28903.28
506.06	28725.39
506.23	29502.45
506.41	29111.58
506.58	29308.19
506.76	29284.78
506.93	29504.79
507.11	29539.90
507.28	29301.17
507.46	28975.83
507.63	29474.37
507.81	29790.34
507.98	29736.51
508.16	29743.53
508.33	30298.23
508.50	30490.16
508.68	30469.09
508.85	30906.77
509.03	30632.93
509.20	30471.43
509.38	30602.50
509.55	30576.76
509.73	30366.11
509.90	30756.98
510.08	30731.23
510.25	31070.61
510.42	30913.80
510.60	31075.29
510.77	31110.40
510.95	31674.47
511.12	31365.52
511.30	31463.82
511.47	31880.44
511.64	31711.92
511.82	32191.73
511.99	32077.04
512.17	31852.35
512.34	31700.22
512.51	31871.07
512.69	32322.80
512.86	32163.64
513.04	32020.87
513.21	32451.53
513.38	32437.48
513.56	32563.87
513.73	32257.26
513.90	32760.48
514.08	32205.77
514.25	32730.05
514.43	32678.56
514.60	32226.84
514.77	32535.79
514.95	32601.32
515.12	32655.15
515.29	32936.02
515.47	33235.61
515.64	33802.02
515.81	33542.22
515.99	33408.81
516.16	33139.65
516.33	33340.93
516.51	33123.26
516.68	32879.85
516.85	32858.78
517.03	33074.11
517.20	33151.35
517.37	33883.94
517.54	34005.64
517.72	33441.57
517.89	33481.36
518.06	33631.16
518.24	33748.18
518.41	33874.57
518.58	33605.41
518.75	33780.95
518.93	34270.12
519.10	33977.56
519.27	33984.58
519.45	34719.51
519.62	34696.10
519.79	34668.02
519.96	34897.39
520.14	35152.51
520.31	34450.35
520.48	34836.53
520.65	34969.94
520.83	35325.71
521.00	35665.08
521.17	35196.98
521.34	35655.72
521.52	35812.54
521.69	35407.62
521.86	35737.64
522.03	35489.54
522.20	35402.94
522.38	35751.68
522.55	35681.47
522.72	35789.13
522.89	35711.89
523.07	35896.80
523.24	36147.23
523.41	36107.44
523.58	36020.84
523.75	36402.35
523.92	36769.82
524.10	36608.32
524.27	36577.89
524.44	36655.13
524.61	36938.33
524.78	37036.64
524.96	36755.77
525.13	37085.79
525.30	37350.27
525.47	37450.91
525.64	36903.23
525.81	36704.28
525.98	36844.71
526.16	37160.69
526.33	36725.35
526.50	37092.81
526.67	36900.89
526.84	36851.73
527.01	36966.42
527.18	37654.54
527.36	37469.64
527.53	37764.54
527.70	38071.15
527.87	37949.45
528.04	38003.28
528.21	37661.56
528.38	37787.95
528.55	38391.81
528.72	37940.08
528.89	38347.34
529.07	38412.87
529.24	37954.13
529.41	38277.12
529.58	38473.73
529.75	38354.36
529.92	38452.66
530.09	38314.57
530.26	38593.09
530.43	38576.71
530.60	38323.93
530.77	38698.42
530.94	38913.75
531.11	38986.30
531.28	38967.58
531.46	38740.55
531.63	38710.12
531.80	39131.42
531.97	38810.76
532.14	38738.21
532.31	38419.89
532.48	38852.89
532.65	39112.69
532.82	38986.30
532.99	38993.32
533.16	39037.80
533.33	38965.24
533.50	39695.49
533.67	39033.11
533.84	39122.05
534.01	39604.20
534.18	39576.12
534.35	39819.53
534.52	39585.48
534.69	39716.55
534.86	39964.65
535.03	39445.05
535.20	39931.88
535.37	40479.57
535.54	40481.91
535.71	40374.24
535.88	40119.12
536.05	39885.07
536.22	39845.28
536.38	40334.45
536.55	40060.61
536.72	40081.67
536.89	39931.88
537.06	40187.00
537.23	40774.47
537.40	40598.93
537.57	40603.61
537.74	40470.20
537.91	40622.34
538.08	40591.91
538.25	40381.26
538.42	40371.90
538.59	40830.65
538.75	40470.20
538.92	40732.34
539.09	40596.59
539.26	40378.92
539.43	40762.77
539.60	40620.00
539.77	40643.40
539.94	41015.55
540.11	40622.34
540.28	40917.25
540.44	40952.35
540.61	40935.97
540.78	41055.34
540.95	40765.11
541.12	40818.94
541.29	40650.42
541.46	41170.02
541.62	41462.59
541.79	41364.29
541.96	41244.92
542.13	41221.52
542.30	41013.21
542.47	41366.63
542.63	41703.67
542.80	41745.80
542.97	41830.05
543.14	41759.84
543.31	41780.90
543.48	41893.25
543.64	42492.43
543.81	42047.72
543.98	42457.32
544.15	41977.51
544.32	42433.91
544.48	42834.14
544.65	42387.10
544.82	42153.05
544.99	42045.38
545.16	42593.07
545.32	42766.27
545.49	42934.79
545.66	42848.19
545.83	42822.44
546.00	42518.17
546.16	42564.98
546.33	42120.28
546.50	42241.99
546.67	42710.10
546.83	42171.77
547.00	42806.06
547.17	43014.37
547.34	42775.63
547.50	42607.11
547.67	42745.20
547.84	43007.34
548.00	43138.41
548.17	43459.07
548.34	42904.36
548.51	43482.47
548.67	43117.35
548.84	43093.94
549.01	43068.20
549.18	42848.19
549.34	42981.60
549.51	43391.19
549.68	43178.20
549.84	43290.55
550.01	43658.01
550.18	42684.35
550.34	43089.26
550.51	42972.24
550.68	43414.60
550.84	43054.15
551.01	43253.10
551.18	43393.53
551.34	43150.12
551.51	43473.11
551.68	43854.62
551.84	43622.90
552.01	43276.51
552.18	43566.73
552.34	43299.91
552.51	43566.73
552.68	43856.96
552.84	43381.83
553.01	43981.01
553.18	43805.47
553.34	43409.92
553.51	43917.81
553.67	43910.79
553.84	44025.48
554.01	44479.54
554.17	44144.84
554.34	44179.95
554.51	44289.96
554.67	43613.54
554.84	44011.43
555.00	43779.72
555.17	44009.09
555.33	44453.79
555.50	44116.76
555.67	44308.68
555.83	44257.19
556.00	44051.22
556.16	44500.61
556.33	44032.50
556.50	44011.43
556.66	44442.09
556.83	43786.74
556.99	44376.56
557.16	44362.51
557.32	44308.68
557.49	44643.38
557.65	44224.42
557.82	44421.03
557.98	44786.15
558.15	44465.50
558.32	44474.86
558.48	44238.47
558.65	44563.80
558.81	44432.73
558.98	44552.10
559.14	44727.64
559.31	44257.19
559.47	44594.23
559.64	44676.15
559.80	44973.39
559.97	44559.12
560.13	44313.36
560.30	44538.05
560.46	45057.65
560.63	44872.75
560.79	44912.54
560.96	45291.71
561.12	44664.44
561.29	44535.71
561.45	44802.53
561.61	44215.06
561.78	44732.32
561.94	44388.26
562.11	44470.18
562.27	45043.61
562.44	44814.24
562.60	45467.25
562.77	44793.17
562.93	44671.46
563.10	45212.13
563.26	44582.52
563.42	45446.18
563.59	45034.25
563.75	44978.07
563.92	45151.27
564.08	44924.24
564.24	45251.92
564.41	45003.82
564.57	45457.88
564.74	45233.19
564.90	45450.86
565.07	44807.22
565.23	44980.42
565.39	44685.51
565.56	44896.16
565.72	44769.77
565.88	45062.33
566.05	44973.39
566.21	44987.44
566.38	45214.47
566.54	45282.34
566.70	45537.46
566.87	45647.47
567.03	45296.39
567.19	45408.73
567.36	45268.30
567.52	45123.19
567.68	44835.30
567.85	45294.05
568.01	45186.38
568.17	44912.54
568.34	45474.27
568.50	45504.70
568.66	45603.00
568.83	45464.91
568.99	45099.78
569.15	45139.57
569.32	45240.21
569.48	45357.24
569.64	45659.17
569.81	45558.53
569.97	45010.84
570.13	45481.29
570.30	44954.67
570.46	45085.74
570.62	45450.86
570.78	44870.41
570.95	45006.16
571.11	45022.54
571.27	44917.22
571.43	44748.70
571.60	45607.68
571.76	45668.53
571.92	45366.60
572.09	45228.51
572.25	45647.47
572.41	45188.72
572.57	45408.73
572.74	46040.68
572.90	45797.26
573.06	45851.09
573.22	45397.03
573.38	45277.66
573.55	45537.46
573.71	45507.04
573.87	45535.12
574.03	45270.64
574.20	45457.88
574.36	45387.67
574.52	45118.51
574.68	45617.04
574.84	45708.32
575.01	45162.98
575.17	45392.35
575.33	44933.60
575.49	45027.23
575.65	45682.58
575.82	45160.64
575.98	45345.54
576.14	45759.81
576.30	45324.47
576.46	45413.41
576.62	45387.67
576.79	45624.06
576.95	45364.26
577.11	45741.09
577.27	45317.45
577.43	45455.54
577.59	45027.23
577.75	45090.42
577.92	45378.31
578.08	44889.13
578.24	45280.00
578.40	45469.59
578.56	45808.96
578.72	45631.08
578.88	45780.88
579.04	45198.09
579.21	45361.92
579.37	45773.86
579.53	45539.80
579.69	44870.41
579.85	44994.46
580.01	45755.13
580.17	45722.37
580.33	45638.11
580.49	45563.21
580.65	45862.80
580.82	45469.59
580.98	45275.32
581.14	45268.30
581.30	45691.94
581.46	45485.97
581.62	45654.49
581.78	45710.66
581.94	45748.11
582.10	45961.10
582.26	45626.40
582.42	45570.23
582.58	45668.53
582.74	45427.46
582.90	45935.35
583.06	45633.42
583.22	45925.99
583.38	46160.05
583.54	45619.38
583.70	45808.96
583.86	45490.65
584.02	45516.40
584.18	45750.45
584.34	45539.80
584.50	45397.03
584.66	45904.93
584.82	45539.80
584.98	46036.00
585.14	45624.06
585.30	45476.61
585.46	45708.32
585.62	45471.93
585.78	45572.57
585.94	45270.64
586.10	45268.30
586.26	45350.22
586.42	45755.13
586.58	45317.45
586.74	45481.29
586.90	45593.64
587.06	45584.27
587.22	45525.76
587.38	45392.35
587.54	46040.68
587.70	45766.84
587.86	45631.08
588.02	45434.48
588.18	45734.07
588.34	45603.00
588.49	45216.81
588.65	45310.43
588.81	45008.50
588.97	45130.21
589.13	45385.33
589.29	45406.39
589.45	45343.20
589.61	45305.75
589.77	45991.53
589.93	45832.37
590.08	46075.79
