SpectraSuite Data File
++++++++++++++++++++++++++++++++++++
Date: Fri Oct 25 10:44:36 EDT 2013
User: price-jones
Dark Spectrum Present: No
Reference Spectrum Present: No
Number of Sampled Component Spectra: 1
Spectrometers: USB2+H05261
Integration Time (usec): 100000 (USB2+H05261)
Spectra Averaged: 1 (USB2+H05261)
Boxcar Smoothing: 0 (USB2+H05261)
Correct for Electrical Dark: No (USB2+H05261)
Strobe/Lamp Enabled: No (USB2+H05261)
Correct for Detector Non-linearity: No (USB2+H05261)
Correct for Stray Light: No (USB2+H05261)
Number of Pixels in Processed Spectrum: 2048
>>>>>Begin Processed Spectral Data<<<<<
365.73	147.45
365.92	147.45
366.12	147.45
366.32	154.48
366.52	30.43
366.72	91.28
366.91	0.00
367.11	4.68
367.31	0.00
367.51	49.15
367.70	67.88
367.90	93.62
368.10	39.79
368.30	58.51
368.49	0.00
368.69	9.36
368.89	4.68
369.09	49.15
369.28	72.56
369.48	67.88
369.68	86.60
369.87	77.24
370.07	126.39
370.27	112.35
370.47	198.95
370.66	283.20
370.86	397.89
371.06	409.59
371.25	430.66
371.45	430.66
371.65	369.80
371.84	435.34
372.04	456.40
372.24	484.49
372.44	454.06
372.63	360.44
372.83	470.45
373.03	517.26
373.22	524.28
373.42	435.34
373.62	470.45
373.81	550.03
374.01	596.84
374.21	505.56
374.40	578.11
374.60	531.30
374.79	521.94
374.99	428.32
375.19	463.43
375.38	521.94
375.58	538.32
375.78	533.64
375.97	491.51
376.17	587.47
376.37	610.88
376.56	552.37
376.76	559.39
376.95	587.47
377.15	634.29
377.35	510.24
377.54	601.52
377.74	636.63
377.93	561.73
378.13	561.73
378.33	615.56
378.52	634.29
378.72	615.56
378.91	674.07
379.11	610.88
379.31	620.24
379.50	540.66
379.70	610.88
379.89	660.03
380.09	596.84
380.28	617.90
380.48	645.99
380.68	589.82
380.87	695.14
381.07	599.18
381.26	725.57
381.46	711.52
381.65	653.01
381.85	660.03
382.04	634.29
382.24	660.03
382.43	660.03
382.63	613.22
382.83	755.99
383.02	732.59
383.22	678.76
383.41	697.48
383.61	723.23
383.80	725.57
384.00	786.42
384.19	657.69
384.39	746.63
384.58	622.58
384.78	660.03
384.97	702.16
385.17	720.88
385.36	777.06
385.56	727.91
385.75	760.67
385.95	781.74
386.14	819.19
386.34	725.57
386.53	784.08
386.72	805.14
386.92	866.00
387.11	826.21
387.31	840.25
387.50	791.10
387.70	791.10
387.89	786.42
388.09	849.61
388.28	800.46
388.48	847.27
388.67	887.06
388.86	910.47
389.06	917.49
389.25	882.38
389.45	919.83
389.64	919.83
389.84	968.98
390.03	802.80
390.22	968.98
390.42	837.91
390.61	917.49
390.81	1015.79
391.00	994.73
391.19	861.32
391.39	959.62
391.58	992.39
391.78	875.36
391.97	854.30
392.16	954.94
392.36	931.53
392.55	997.07
392.75	926.85
392.94	940.90
393.13	884.72
393.33	926.85
393.52	931.53
393.71	978.34
393.91	1004.09
394.10	1046.22
394.29	1062.60
394.49	1090.69
394.68	1125.80
394.88	1060.26
395.07	1116.44
395.26	1067.28
395.46	1135.16
395.65	1151.54
395.84	1062.60
396.04	1160.91
396.23	1102.39
396.42	1160.91
396.62	1132.82
396.81	1146.86
397.00	1177.29
397.19	1132.82
397.39	1179.63
397.58	1188.99
397.77	1207.72
397.97	1235.80
398.16	1313.04
398.35	1275.59
398.55	1306.02
398.74	1273.25
398.93	1357.51
399.12	1327.08
399.32	1378.58
399.51	1366.87
399.70	1331.76
399.90	1455.81
400.09	1287.29
400.28	1394.96
400.47	1507.30
400.67	1465.18
400.86	1511.99
401.05	1455.81
401.24	1533.05
401.44	1493.26
401.63	1528.37
401.82	1533.05
402.01	1413.68
402.21	1572.84
402.40	1537.73
402.59	1589.22
402.78	1514.33
402.97	1558.80
403.17	1589.22
403.36	1561.14
403.55	1612.63
403.74	1652.42
403.93	1600.93
404.13	1659.44
404.32	1666.46
404.51	1680.50
404.70	1603.27
404.89	1657.10
405.09	1664.12
405.28	1671.14
405.47	1722.63
405.66	1781.15
405.85	1750.72
406.05	1776.47
406.24	1809.23
406.43	1785.83
406.62	1863.07
406.81	1820.94
407.00	1771.79
407.20	1930.94
407.39	1767.10
407.58	1912.22
407.77	1900.52
407.96	1968.39
408.15	2029.24
408.34	1914.56
408.54	2010.52
408.73	1982.43
408.92	2097.12
409.11	2211.81
409.30	2083.08
409.49	2066.69
409.68	2057.33
409.87	2066.69
410.07	2083.08
410.26	2134.57
410.45	2136.91
410.64	2150.95
410.83	2176.70
411.02	2223.51
411.21	2223.51
411.40	2279.68
411.59	2471.61
411.78	2359.26
411.98	2347.56
412.17	2342.88
412.36	2361.60
412.55	2333.51
412.74	2415.43
412.93	2509.05
413.12	2396.71
413.31	2450.54
413.50	2574.59
413.69	2537.14
413.88	2471.61
414.07	2534.80
414.26	2717.36
414.45	2689.28
414.64	2668.21
414.83	2712.68
415.02	2616.72
415.22	2658.85
415.41	2724.38
415.60	2757.15
415.79	2829.71
415.98	2883.54
416.17	2846.09
416.36	2918.65
416.55	2930.35
416.74	2871.84
416.93	2944.39
417.12	2803.96
417.31	3005.25
417.50	2981.84
417.69	3192.49
417.88	3091.85
418.07	2979.50
418.26	3047.38
418.45	3176.11
418.64	3279.09
418.83	3246.32
419.02	3236.96
419.21	3183.13
419.39	3225.26
419.58	3145.68
419.77	3197.17
419.96	3307.18
420.15	3213.56
420.34	3276.75
420.53	3316.54
420.72	3545.91
420.91	3382.07
421.10	3393.78
421.29	3438.25
421.48	3300.16
421.67	3501.44
421.86	3508.46
422.05	3520.17
422.24	3323.56
422.43	3382.07
422.61	3625.49
422.80	3550.59
422.99	3517.83
423.18	3431.23
423.37	3674.64
423.56	3522.51
423.75	3508.46
423.94	3520.17
424.13	3365.69
424.32	3435.91
424.50	3644.21
424.69	3707.41
424.88	3707.41
425.07	3466.33
425.26	3475.70
425.45	3520.17
425.64	3566.98
425.83	3494.42
426.01	3585.70
426.20	3487.40
426.39	3524.85
426.58	3653.58
426.77	3557.61
426.96	3702.73
427.15	3583.36
427.33	3758.90
427.52	3744.86
427.71	3852.52
427.90	3775.28
428.09	3861.88
428.28	3859.54
428.46	3676.98
428.65	3702.73
428.84	3896.99
429.03	3838.48
429.22	3808.05
429.40	3875.93
429.59	3847.84
429.78	3595.06
429.97	3651.24
430.16	3854.86
430.34	3911.04
430.53	3803.37
430.72	3875.93
430.91	3941.46
431.10	3948.48
431.28	3988.27
431.47	4093.60
431.66	4156.79
431.85	4011.68
432.03	4140.41
432.22	4170.83
432.41	4156.79
432.60	4145.09
432.79	4067.85
432.97	4348.72
433.16	4320.63
433.35	4278.50
433.54	4308.93
433.72	4325.31
433.91	4217.65
434.10	4351.06
434.28	4322.97
434.47	4475.10
434.66	4337.01
434.85	4447.02
435.03	4432.97
435.22	4507.87
435.41	4573.41
435.59	4573.41
435.78	4414.25
435.97	4622.56
436.16	4594.47
436.34	4535.96
436.53	4624.90
436.72	4713.84
436.90	4746.61
437.09	4809.80
437.28	4664.69
437.46	4671.71
437.65	4720.86
437.84	4674.05
438.02	4638.94
438.21	4699.80
438.40	4716.18
438.58	4985.34
438.77	5076.62
438.96	4877.68
439.14	4987.68
439.33	5095.35
439.52	5151.52
439.70	5034.49
439.89	5093.01
440.08	5235.78
440.26	5179.61
440.45	5167.90
440.63	5226.42
440.82	5495.58
441.01	5378.55
441.19	5406.64
441.38	5579.84
441.57	5523.66
441.75	5614.95
441.94	5600.90
442.12	5593.88
442.31	5741.33
442.50	5701.54
442.68	5666.44
442.87	5593.88
443.05	5757.72
443.24	5818.57
443.43	5692.18
443.61	5783.46
443.80	6005.81
443.98	5628.99
444.17	5624.31
444.35	5942.62
444.54	5963.68
444.73	5701.54
444.91	5947.30
445.10	6076.03
445.28	5996.45
445.47	5898.15
445.65	5703.89
445.84	5902.83
446.02	5982.41
446.21	5865.38
446.39	5916.87
446.58	5867.72
446.77	6071.35
446.95	6015.18
447.14	6157.95
447.32	6115.82
447.51	5937.94
447.69	5982.41
447.88	5975.39
448.06	5790.49
448.25	5963.68
448.43	6143.91
448.62	5977.73
448.80	5951.98
448.99	6155.61
449.17	6141.57
449.36	6127.52
449.54	6176.67
449.73	6333.49
449.91	6450.52
450.10	6511.37
450.28	6434.13
450.46	6434.13
450.65	6525.41
450.83	6511.37
451.02	6443.49
451.20	6541.80
451.39	6480.94
451.57	6272.64
451.76	6544.14
451.94	6396.68
452.13	6661.16
452.31	6569.88
452.49	6326.47
452.68	6384.98
452.86	6579.25
453.05	6719.68
453.23	6651.80
453.42	6651.80
453.60	6668.19
453.78	6677.55
453.97	6588.61
454.15	6656.48
454.34	6483.28
454.52	6897.56
454.70	6892.88
454.89	6778.19
455.07	6829.68
455.26	6897.56
455.44	7117.57
455.62	6998.20
455.81	7122.25
455.99	7080.12
456.17	6902.24
456.36	6993.52
456.54	7183.10
456.73	7267.36
456.91	7307.15
457.09	7475.67
457.28	7391.41
457.46	7190.13
457.64	7307.15
457.83	7447.58
458.01	7199.49
458.19	7501.42
458.38	7180.76
458.56	7492.05
458.74	7524.82
458.93	7653.55
459.11	7475.67
459.29	7627.81
459.48	7653.55
459.66	7562.27
459.84	7672.28
460.03	7707.38
460.21	7705.04
460.39	7749.51
460.57	7545.89
460.76	7719.09
460.94	7901.65
461.12	7932.08
461.31	7768.24
461.49	7925.05
461.67	7784.62
461.85	8018.68
462.04	7847.82
462.22	8189.53
462.40	8116.98
462.59	8009.31
462.77	8046.76
462.95	8016.33
463.13	8168.47
463.32	8222.30
463.50	8304.22
463.68	8219.96
463.86	8259.75
464.05	8189.53
464.23	8025.70
464.41	8470.40
464.59	8219.96
464.78	8531.25
464.96	8369.76
465.14	8070.17
465.32	8318.26
465.50	8313.58
465.69	8428.27
465.87	8332.31
466.05	8306.56
466.23	8524.23
466.41	8271.45
466.60	8659.98
466.78	8484.44
466.96	8470.40
467.14	8468.06
467.32	8491.46
467.51	8650.62
467.69	8269.11
467.87	8683.39
468.05	8798.07
468.23	8587.43
468.41	8559.34
468.60	8566.36
468.78	8683.39
468.96	8671.68
469.14	8851.91
469.32	8950.21
469.50	8777.01
469.69	8912.76
469.87	9034.47
470.05	9013.40
470.23	8905.74
470.41	9029.79
470.59	9020.42
470.77	9130.43
470.95	9130.43
471.14	9193.62
471.32	8910.42
471.50	9320.01
471.68	9350.44
471.86	9312.99
472.04	9371.50
472.22	9621.94
472.40	9142.13
472.58	9451.08
472.77	9605.56
472.95	9516.62
473.13	10094.73
473.31	9664.07
473.49	9500.23
473.67	9640.67
473.85	9774.08
474.03	9867.70
474.21	9984.73
474.39	10118.14
474.57	10045.58
474.75	10104.09
474.93	10195.37
475.12	10120.48
475.30	10384.96
475.48	10298.36
475.66	10054.94
475.84	10396.66
476.02	10406.02
476.20	10527.73
476.38	10532.41
476.56	10705.61
476.74	10754.76
476.92	10750.08
477.10	10768.80
477.28	11005.20
477.46	11012.22
477.64	11267.34
477.82	11094.14
478.00	11447.56
478.18	11351.60
478.36	11543.52
478.54	11548.20
478.72	11463.94
478.90	11789.28
479.08	11782.26
479.26	12203.55
479.44	12105.25
479.62	12004.61
479.80	11733.11
479.98	12393.14
480.16	12571.02
480.34	12184.83
480.52	12453.99
480.70	12788.69
480.88	12395.48
481.06	12556.97
481.24	12592.08
481.41	13062.53
481.59	13137.43
481.77	12985.29
481.95	13102.32
482.13	13224.03
482.31	13305.95
482.49	13521.27
482.67	13511.91
482.85	13916.83
483.03	14068.96
483.21	13984.70
483.39	13874.70
483.57	13926.19
483.74	14150.88
483.92	14340.46
484.10	14232.80
484.28	14764.10
484.46	14958.36
484.64	14904.53
484.82	14829.63
485.00	14841.34
485.18	15229.87
485.35	15236.89
485.53	14796.87
485.71	15021.56
485.89	15115.18
486.07	15344.55
486.25	15473.28
486.43	15445.20
486.61	15946.07
486.78	16035.01
486.96	16142.67
487.14	16252.68
487.32	16395.45
487.50	16393.11
487.68	16727.81
487.85	16812.07
488.03	16814.41
488.21	17076.55
488.39	16933.78
488.57	17224.00
488.75	17345.71
488.92	17759.98
489.10	17855.95
489.28	17994.04
489.46	18068.94
489.64	18162.56
489.81	18134.47
489.99	18712.58
490.17	18405.97
490.35	18537.04
490.53	18618.96
490.70	18733.65
490.88	18941.96
491.06	19014.51
491.24	19124.52
491.41	19215.80
491.59	19248.57
491.77	19264.95
491.95	19580.92
492.13	19517.73
492.30	19824.34
492.48	19899.23
492.66	20144.99
492.84	19665.18
493.01	20140.31
493.19	20058.39
493.37	20357.98
493.54	20872.90
493.72	20982.90
493.90	20762.89
494.08	20709.06
494.25	21301.22
494.43	21338.66
494.61	21497.82
494.79	21420.58
494.96	21284.83
495.14	21678.04
495.32	21799.75
495.49	21830.18
495.67	21797.41
495.85	22099.34
496.02	22668.09
496.20	22490.21
496.38	22532.34
496.55	22363.82
496.73	23175.98
496.91	22717.24
497.09	23094.07
497.26	23201.73
497.44	23278.97
497.62	23248.54
497.79	23281.31
497.97	23215.77
498.14	23419.40
498.32	23733.03
498.50	23917.93
498.67	23817.29
498.85	24053.69
499.03	24187.10
499.20	24325.19
499.38	24058.37
499.56	24482.00
499.73	24442.21
499.91	24559.24
500.08	24582.65
500.26	24467.96
500.44	24872.87
500.61	24819.04
500.79	24826.06
500.97	25067.14
501.14	25610.14
501.32	25104.59
501.49	25022.67
501.67	25130.33
501.84	25319.92
502.02	25420.56
502.20	25869.94
502.37	25867.60
502.55	25645.25
502.72	25888.67
502.90	26118.04
503.07	25792.70
503.25	26253.79
503.43	25968.24
503.60	26497.20
503.78	26146.12
503.95	26541.68
504.13	25860.58
504.30	26623.59
504.48	26235.06
504.65	27000.42
504.83	26829.56
505.01	27077.66
505.18	27021.48
505.36	27388.95
505.53	27197.02
505.71	27498.95
505.88	27318.73
506.06	27016.80
506.23	27274.26
506.41	27573.85
506.58	27491.93
506.76	27803.22
506.93	28093.45
507.11	27906.21
507.28	27859.40
507.46	27695.56
507.63	27950.68
507.81	27969.40
507.98	27779.82
508.16	28154.30
508.33	28861.15
508.50	28423.47
508.68	28659.86
508.85	29277.76
509.03	28875.19
509.20	28699.65
509.38	29362.02
509.55	29139.67
509.73	29088.18
509.90	29282.44
510.08	29364.36
510.25	29102.22
510.42	29200.52
510.60	29284.78
510.77	29610.12
510.95	29619.48
511.12	29600.76
511.30	30017.37
511.47	30024.39
511.64	30075.88
511.82	30298.23
511.99	29855.87
512.17	30387.18
512.34	29755.23
512.51	30347.39
512.69	30682.08
512.86	30288.87
513.04	30932.52
513.21	30359.09
513.38	30616.55
513.56	30988.69
513.73	30300.58
513.90	31016.78
514.08	30939.54
514.25	30939.54
514.43	31328.07
514.60	30988.69
514.77	30918.48
514.95	31171.25
515.12	31189.98
515.29	31541.06
515.47	31821.92
515.64	31660.43
515.81	31438.08
515.99	31552.76
516.16	31543.40
516.33	31737.66
516.51	31634.68
516.68	31573.83
516.85	31611.28
517.03	32016.19
517.20	32348.54
517.37	32123.85
517.54	32472.59
517.72	32472.59
517.89	32011.51
518.06	31819.58
518.24	32198.75
518.41	32011.51
518.58	32388.33
518.75	32538.13
518.93	32723.03
519.10	32666.86
519.27	32868.14
519.45	32704.31
519.62	32987.51
519.79	33221.56
519.96	33310.50
520.14	33331.57
520.31	33209.86
520.48	33455.62
520.65	33116.24
520.83	33556.26
521.00	33684.99
521.17	33827.76
521.34	33472.00
521.52	33958.83
521.69	33654.56
521.86	34005.64
522.03	33914.36
522.20	34412.90
522.38	34178.84
522.55	34595.46
522.72	34087.56
522.89	34361.40
523.07	34656.31
523.24	34333.32
523.41	34696.10
523.58	34682.06
523.75	34962.92
523.92	34969.94
524.10	34885.68
524.27	34967.60
524.44	35175.91
524.61	35253.15
524.78	35255.49
524.96	35590.19
525.13	35269.53
525.30	35379.54
525.47	35370.18
525.64	35264.85
525.81	35548.06
525.98	35805.52
526.16	35744.66
526.33	35241.45
526.50	35234.42
526.67	35260.17
526.84	35548.06
527.01	35482.52
527.18	35552.74
527.36	35819.56
527.53	35770.41
527.70	36566.19
527.87	36189.36
528.04	36065.31
528.21	36215.11
528.38	36168.30
528.55	36367.24
528.72	36226.81
528.89	36531.08
529.07	36486.61
529.24	35981.06
529.41	36584.91
529.58	36620.02
529.75	36587.25
529.92	37118.56
530.09	36952.38
530.26	36650.45
530.43	36978.12
530.60	36807.26
530.77	37207.50
530.94	37191.11
531.11	37043.66
531.28	37013.23
531.46	37223.88
531.63	37198.13
531.80	36940.68
531.97	37116.22
532.14	37380.70
532.31	37298.78
532.48	37509.43
532.65	37209.84
532.82	37326.86
532.99	37460.27
533.16	37450.91
533.33	37993.92
533.50	37635.81
533.67	38052.43
533.84	37394.74
534.01	37900.29
534.18	38150.73
534.35	37813.70
534.52	37816.04
534.69	38113.28
534.86	38174.14
535.03	37867.53
535.20	38567.35
535.37	38733.53
535.54	38316.91
535.71	38419.89
535.88	38377.76
536.05	38340.32
536.22	38440.96
536.38	38298.19
536.55	38319.25
536.72	38785.02
536.89	38785.02
537.06	38834.17
537.23	38974.60
537.40	38567.35
537.57	38934.81
537.74	38785.02
537.91	39428.66
538.08	38665.65
538.25	38824.81
538.42	38667.99
538.59	39192.27
538.75	38866.94
538.92	39108.01
539.09	38967.58
539.26	39800.81
539.43	39049.50
539.60	39236.74
539.77	39236.74
539.94	39407.60
540.11	39035.45
540.28	39508.24
540.44	39545.69
540.61	39419.30
540.78	38803.74
540.95	39658.04
541.12	39653.36
541.29	39210.99
541.46	39405.26
541.62	39548.03
541.79	39711.87
541.96	39475.48
542.13	39814.85
542.30	39700.17
542.47	39346.75
542.63	40130.83
542.80	40102.74
542.97	40678.51
543.14	40395.31
543.31	40329.77
543.48	40678.51
543.64	40474.88
543.81	40563.82
543.98	40545.10
544.15	40605.95
544.32	40657.45
544.48	40912.56
544.65	41137.26
544.82	40439.78
544.99	40804.90
545.16	40917.25
545.32	40877.46
545.49	40669.15
545.66	41308.11
545.83	41186.41
546.00	41425.14
546.16	40935.97
546.33	40673.83
546.50	40662.13
546.67	41008.53
546.83	40713.62
547.00	41134.92
547.17	40856.39
547.34	41029.59
547.50	41008.53
547.67	41619.41
547.84	41163.00
548.00	41422.80
548.17	41333.86
548.34	41542.17
548.51	41954.10
548.67	42029.00
548.84	42071.13
549.01	41680.26
549.18	41734.09
549.34	41691.96
549.51	41610.04
549.68	42178.79
549.84	42010.28
550.01	42298.16
550.18	41780.90
550.34	42122.62
550.51	41806.65
550.68	41436.84
550.84	41703.67
551.01	42316.89
551.18	41933.04
551.34	42007.94
551.51	42080.49
551.68	42113.26
551.84	42410.51
552.01	41918.99
552.18	42167.09
552.34	42059.43
552.51	42150.71
552.68	42541.58
552.84	42373.06
553.01	42567.32
553.18	42536.90
553.34	42637.54
553.51	42410.51
553.67	42363.70
553.84	42789.67
554.01	42623.50
554.17	42742.86
554.34	43037.77
554.51	42368.38
554.67	42810.74
554.84	42756.91
555.00	43007.34
555.17	42663.28
555.33	42782.65
555.50	42511.15
555.67	42918.40
555.83	42866.91
556.00	42600.09
556.16	42609.45
556.33	42857.55
556.50	42731.16
556.66	42864.57
556.83	43107.99
556.99	42878.61
557.16	42934.79
557.32	43206.29
557.49	43501.20
557.65	42658.60
557.82	43257.78
557.98	43112.67
558.15	43023.73
558.32	43016.71
558.48	43129.05
558.65	43168.84
558.81	43040.11
558.98	42850.53
559.14	43033.09
559.31	43545.67
559.47	43400.55
559.64	43395.87
559.80	43356.08
559.97	43555.03
560.13	43138.41
560.30	43388.85
560.46	43391.19
560.63	43358.42
560.79	43367.79
560.96	44116.76
561.12	43838.23
561.29	44020.80
561.45	43569.07
561.61	43440.34
561.78	43372.47
561.94	43419.28
562.11	43571.41
562.27	43679.08
562.44	43335.02
562.60	43716.53
562.77	43328.00
562.93	43138.41
563.10	43761.00
563.26	43243.74
563.42	44004.41
563.59	43342.04
563.75	43730.57
563.92	43718.87
564.08	43922.49
564.24	43931.86
564.41	43934.20
564.57	43693.12
564.74	43817.17
564.90	43842.92
565.07	43604.18
565.23	43636.95
565.39	43875.68
565.56	43962.28
565.72	43873.34
565.88	44044.20
566.05	43428.64
566.21	43798.44
566.38	44046.54
566.54	43934.20
566.70	44168.25
566.87	43992.71
567.03	44114.42
567.19	44383.58
567.36	44105.06
567.52	43728.23
567.68	44210.38
567.85	43978.67
568.01	43681.42
568.17	43744.61
568.34	44051.22
568.50	44149.53
568.66	43849.94
568.83	44161.23
568.99	43711.84
569.15	43873.34
569.32	43735.25
569.48	44058.24
569.64	44098.03
569.81	44409.32
569.97	43866.32
570.13	44196.34
570.30	43379.49
570.46	43929.51
570.62	43414.60
570.78	44020.80
570.95	43522.26
571.11	44662.10
571.27	44037.18
571.43	44020.80
571.60	44280.60
571.76	43873.34
571.92	44364.85
572.09	43978.67
572.25	44229.10
572.41	43931.86
572.57	44257.19
572.74	44509.97
572.90	44210.38
573.06	44512.31
573.22	44257.19
573.38	43863.98
573.55	43873.34
573.71	44458.48
573.87	44339.11
574.03	44388.26
574.20	44252.51
574.36	44018.46
574.52	44327.41
574.68	44219.74
574.84	43988.03
575.01	44114.42
575.17	44348.47
575.33	44011.43
575.49	43826.53
575.65	44039.52
575.82	44774.45
575.98	44081.65
576.14	44589.55
576.30	44287.62
576.46	44095.69
576.62	44315.70
576.79	44198.68
576.95	43929.51
577.11	44100.37
577.27	44526.35
577.43	43833.55
577.59	44102.71
577.75	44095.69
577.92	44226.76
578.08	44006.75
578.24	44404.64
578.40	44189.31
578.56	44442.09
578.72	44259.53
578.88	44793.17
579.04	44507.63
579.21	44189.31
579.37	44306.34
579.53	44659.76
579.69	44603.59
579.85	44676.15
580.01	44465.50
580.17	44425.71
580.33	44825.94
580.49	44311.02
580.65	44718.28
580.82	44151.87
580.98	44133.14
581.14	44477.20
581.30	44332.09
581.46	44474.86
581.62	44797.85
581.78	44388.26
581.94	44863.39
582.10	44500.61
582.26	44051.22
582.42	44521.67
582.58	44540.39
582.74	44268.89
582.90	44144.84
583.06	44952.33
583.22	44465.50
583.38	44755.72
583.54	44718.28
583.70	44233.78
583.86	44697.21
584.02	44383.58
584.18	44877.43
584.34	44289.96
584.50	44631.68
584.66	44540.39
584.82	44224.42
584.98	44830.62
585.14	44584.86
585.30	44538.05
585.46	44940.63
585.62	44772.11
585.78	44751.04
585.94	44624.65
586.10	44247.83
586.26	44395.28
586.42	44519.33
586.58	45008.50
586.74	44474.86
586.90	44505.29
587.06	44002.07
587.22	44458.48
587.38	44287.62
587.54	44580.18
587.70	45139.57
587.86	44638.70
588.02	44697.21
588.18	44713.59
588.34	44430.39
588.49	44594.23
588.65	44296.98
588.81	44388.26
588.97	44318.04
589.13	44250.17
589.29	44467.84
589.45	44285.28
589.61	44821.26
589.77	44884.45
589.93	44774.45
590.08	44570.82
590.24	44720.62
