SpectraSuite Data File
++++++++++++++++++++++++++++++++++++
Date: Fri Oct 25 11:26:35 EDT 2013
User: price-jones
Dark Spectrum Present: No
Reference Spectrum Present: No
Number of Sampled Component Spectra: 1
Spectrometers: USB2+H05261
Integration Time (usec): 100000 (USB2+H05261)
Spectra Averaged: 1 (USB2+H05261)
Boxcar Smoothing: 0 (USB2+H05261)
Correct for Electrical Dark: No (USB2+H05261)
Strobe/Lamp Enabled: No (USB2+H05261)
Correct for Detector Non-linearity: No (USB2+H05261)
Correct for Stray Light: No (USB2+H05261)
Number of Pixels in Processed Spectrum: 2048
>>>>>Begin Processed Spectral Data<<<<<
365.73	264.48
365.92	264.48
366.12	264.48
366.32	110.01
366.52	156.82
366.72	105.32
366.91	119.37
367.11	159.16
367.31	168.52
367.51	161.50
367.70	161.50
367.90	114.69
368.10	138.09
368.30	210.65
368.49	133.41
368.69	215.33
368.89	138.09
369.09	191.92
369.28	149.79
369.48	215.33
369.68	135.75
369.87	271.50
370.07	229.37
370.27	320.65
370.47	334.70
370.66	550.03
370.86	753.65
371.06	653.01
371.25	725.57
371.45	683.44
371.65	657.69
371.84	725.57
372.04	683.44
372.24	786.42
372.44	699.82
372.63	793.44
372.83	706.84
373.03	758.33
373.22	744.29
373.42	676.41
373.62	772.38
373.81	819.19
374.01	791.10
374.21	781.74
374.40	809.83
374.60	877.70
374.79	788.76
374.99	802.80
375.19	819.19
375.38	912.81
375.58	828.55
375.78	901.11
375.97	826.21
376.17	866.00
376.37	847.27
376.56	901.11
376.76	971.32
376.95	866.00
377.15	837.91
377.35	929.19
377.54	961.96
377.74	844.93
377.93	908.13
378.13	873.02
378.33	945.58
378.52	933.87
378.72	908.13
378.91	926.85
379.11	985.37
379.31	985.37
379.50	922.17
379.70	884.72
379.89	940.90
380.09	985.37
380.28	936.21
380.48	990.05
380.68	957.28
380.87	973.66
381.07	990.05
381.26	992.39
381.46	945.58
381.65	1102.39
381.85	1062.60
382.04	1034.52
382.24	1093.03
382.43	1050.90
382.63	1097.71
382.83	1006.43
383.02	1041.54
383.22	1200.69
383.41	1156.22
383.61	1158.57
383.80	1076.65
384.00	1076.65
384.19	1128.14
384.39	1142.18
384.58	1172.61
384.78	1191.33
384.97	1224.10
385.17	1107.07
385.36	1179.63
385.56	1177.29
385.75	1188.99
385.95	1217.08
386.14	1219.42
386.34	1172.61
386.53	1205.38
386.72	1146.86
386.92	1301.34
387.11	1254.53
387.31	1179.63
387.50	1235.80
387.70	1193.67
387.89	1336.45
388.09	1390.28
388.28	1259.21
388.48	1296.66
388.67	1329.42
388.86	1310.70
389.06	1364.53
389.25	1291.98
389.45	1373.89
389.64	1357.51
389.84	1465.18
390.03	1472.20
390.22	1411.34
390.42	1350.49
390.61	1425.39
390.81	1448.79
391.00	1579.86
391.19	1448.79
391.39	1406.66
391.58	1444.11
391.78	1483.90
391.97	1483.90
392.16	1437.09
392.36	1589.22
392.55	1526.03
392.75	1561.14
392.94	1629.01
393.13	1584.54
393.33	1556.46
393.52	1572.84
393.71	1666.46
393.91	1603.27
394.10	1596.25
394.29	1575.18
394.49	1643.06
394.68	1657.10
394.88	1659.44
395.07	1647.74
395.26	1614.97
395.46	1666.46
395.65	1614.97
395.84	1774.13
396.04	1788.17
396.23	1802.21
396.42	1832.64
396.62	1720.29
396.81	1785.83
397.00	1872.43
397.19	1715.61
397.39	1715.61
397.58	1799.87
397.77	1790.51
397.97	1811.57
398.16	1830.30
398.35	1919.24
398.55	1912.22
398.74	1928.60
398.93	1914.56
399.12	1952.01
399.32	1881.79
399.51	1940.30
399.70	1996.48
399.90	2052.65
400.09	1949.67
400.28	2193.08
400.47	2076.06
400.67	2134.57
400.86	1980.09
401.05	2015.20
401.24	2101.80
401.44	2155.63
401.63	2073.71
401.82	2146.27
402.01	2209.47
402.21	2218.83
402.40	2148.61
402.59	2249.25
402.78	2143.93
402.97	2335.85
403.17	2310.11
403.36	2256.28
403.55	2251.60
403.74	2429.48
403.93	2408.41
404.13	2363.94
404.32	2394.37
404.51	2452.88
404.70	2401.39
404.89	2352.24
405.09	2495.01
405.28	2574.59
405.47	2352.24
405.66	2593.31
405.85	2476.29
406.05	2499.69
406.24	2525.44
406.43	2551.18
406.62	2619.06
406.81	2663.53
407.00	2595.65
407.20	2541.82
407.39	2478.63
407.58	2649.49
407.77	2747.79
407.96	2775.88
408.15	2878.86
408.34	2780.56
408.54	2757.15
408.73	2787.58
408.92	2871.84
409.11	2939.71
409.30	2775.88
409.49	2782.90
409.68	2949.08
409.87	3012.27
410.07	2942.05
410.26	2953.76
410.45	3009.93
410.64	2998.23
410.83	3105.89
411.02	3087.17
411.21	3258.03
411.40	3040.36
411.59	3096.53
411.78	3260.37
411.98	3286.11
412.17	3258.03
412.36	3279.09
412.55	3391.44
412.74	3370.37
412.93	3496.76
413.12	3393.78
413.31	3613.79
413.50	3562.30
413.69	3503.78
413.88	3534.21
414.07	3604.42
414.26	3679.32
414.45	3716.77
414.64	3716.77
414.83	3702.73
415.02	3733.15
415.22	3875.93
415.41	3843.16
415.60	3899.33
415.79	3889.97
415.98	4072.53
416.17	3964.87
416.36	3950.82
416.55	4014.02
416.74	4074.87
416.93	4117.00
417.12	4147.43
417.31	4222.33
417.50	4208.28
417.69	4278.50
417.88	4327.65
418.07	4224.67
418.26	4290.20
418.45	4428.29
418.64	4578.09
418.83	4540.64
419.02	4325.31
419.21	4503.19
419.39	4468.08
419.58	4571.07
419.77	4568.73
419.96	4638.94
420.15	4676.39
420.34	4547.66
420.53	4573.41
420.72	4603.83
420.91	4746.61
421.10	4772.35
421.29	4842.57
421.48	4758.31
421.67	4873.00
421.86	4748.95
422.05	4676.39
422.24	4784.06
422.43	4931.51
422.61	4903.42
422.80	4926.83
422.99	4915.12
423.18	4868.31
423.37	4978.32
423.56	5008.75
423.75	4957.25
423.94	4847.25
424.13	4638.94
424.32	4858.95
424.50	4943.21
424.69	5132.79
424.88	4971.30
425.07	4952.57
425.26	4947.89
425.45	5083.64
425.64	4945.55
425.83	5160.88
426.01	5020.45
426.20	5188.97
426.39	5156.20
426.58	5060.24
426.77	5029.81
426.96	5135.14
427.15	5177.26
427.33	5268.55
427.52	5160.88
427.71	5275.57
427.90	5245.14
428.09	5305.99
428.28	5401.96
428.46	5310.68
428.65	5385.57
428.84	5509.62
429.03	5458.13
429.22	5451.11
429.40	5439.40
429.59	5420.68
429.78	5355.15
429.97	5275.57
430.16	5476.85
430.34	5490.90
430.53	5729.63
430.72	5652.39
430.91	5647.71
431.10	5453.45
431.28	5792.83
431.47	5933.26
431.66	6015.18
431.85	5891.13
432.03	5942.62
432.22	5970.71
432.41	5921.56
432.60	5956.66
432.79	6083.05
432.97	6052.63
433.16	5923.90
433.35	5970.71
433.54	6174.33
433.72	6076.03
433.91	6174.33
434.10	6141.57
434.28	6059.65
434.47	6331.15
434.66	6319.45
434.85	6415.41
435.03	6392.00
435.22	6284.34
435.41	6499.67
435.59	6399.02
435.78	6469.24
435.97	6544.14
436.16	6438.81
436.34	6441.15
436.53	6654.14
436.72	6827.34
436.90	6539.46
437.09	6796.92
437.28	6614.35
437.46	6628.40
437.65	6895.22
437.84	6635.42
438.02	6614.35
438.21	6747.76
438.40	6626.06
438.58	6970.12
438.77	7117.57
438.96	6841.39
439.14	7239.28
439.33	7016.93
439.52	7325.88
439.70	7138.63
439.89	7335.24
440.08	7344.60
440.26	7564.61
440.45	7288.43
440.63	7396.09
440.82	7691.00
441.01	7529.50
441.19	7578.65
441.38	7644.19
441.57	7700.36
441.75	7925.05
441.94	7712.07
442.12	7981.23
442.31	8107.62
442.50	8205.92
442.68	7892.29
442.87	7999.95
443.05	8243.37
443.24	8236.35
443.43	8124.00
443.61	8339.33
443.80	8393.16
443.98	8339.33
444.17	7761.22
444.35	8259.75
444.54	8280.82
444.73	8336.99
444.91	8390.82
445.10	8669.34
445.28	8439.97
445.47	8234.00
445.65	8306.56
445.84	8423.59
446.02	8500.83
446.21	8706.79
446.39	8273.79
446.58	8554.66
446.77	8517.21
446.95	8322.94
447.14	8430.61
447.32	8727.86
447.51	8461.04
447.69	8458.70
447.88	8615.51
448.06	8498.49
448.25	8491.46
448.43	8542.96
448.62	8624.87
448.80	8762.97
448.99	8596.79
449.17	8638.92
449.36	8613.17
449.54	8739.56
449.73	8915.10
449.91	9149.15
450.10	8980.64
450.28	9224.05
450.46	9151.49
450.65	9107.02
450.83	9149.15
451.02	9104.68
451.20	9195.96
451.39	9144.47
451.57	8957.23
451.76	9069.58
451.94	9193.62
452.13	9554.07
452.31	9308.31
452.49	9142.13
452.68	9273.20
452.86	9324.69
453.05	9423.00
453.23	9481.51
453.42	9378.53
453.60	9556.41
453.78	9598.54
453.97	9343.42
454.15	9565.77
454.34	9425.34
454.52	9673.43
454.70	9731.95
454.89	9764.72
455.07	9738.97
455.26	9832.59
455.44	10068.98
455.62	10073.67
455.81	9788.12
455.99	9916.85
456.17	10017.49
456.36	10106.43
456.54	10253.89
456.73	10253.89
456.91	10345.17
457.09	10455.17
457.28	10415.38
457.46	10305.38
457.64	10562.84
457.83	10384.96
458.01	10422.41
458.19	10635.39
458.38	10516.03
458.56	10874.13
458.74	10754.76
458.93	10483.26
459.11	10651.78
459.29	10602.63
459.48	10839.02
459.66	10682.20
459.84	10855.40
460.03	11218.19
460.21	11052.01
460.39	10939.66
460.57	10993.50
460.76	10909.24
460.94	11197.12
461.12	11098.82
461.31	11052.01
461.49	11138.61
461.67	11087.12
461.85	11424.15
462.04	11424.15
462.22	11566.93
462.40	11651.19
462.59	11375.00
462.77	11583.31
462.95	11580.97
463.13	11604.38
463.32	11412.45
463.50	11740.13
463.68	11838.43
463.86	11775.24
464.05	11829.07
464.23	11639.48
464.41	11838.43
464.59	11700.34
464.78	12411.86
464.96	12123.98
465.14	12028.01
465.32	12294.83
465.50	12226.96
465.69	12231.64
465.87	12088.87
466.05	12128.66
466.23	12175.47
466.41	11999.93
466.60	12493.78
466.78	12126.32
466.96	12332.28
467.14	12208.23
467.32	12645.91
467.51	12484.42
467.69	12147.38
467.87	12489.10
468.05	12430.59
468.23	12414.20
468.41	12393.14
468.60	12596.76
468.78	12856.56
468.96	12526.55
469.14	12929.12
469.32	13163.17
469.50	13001.68
469.69	12922.10
469.87	12973.59
470.05	13191.26
470.23	13214.66
470.41	13469.78
470.59	13458.08
470.77	13191.26
470.95	13315.31
471.14	13685.11
471.32	13188.92
471.50	13647.66
471.68	13678.09
471.86	13577.45
472.04	13853.63
472.22	14031.51
472.40	13907.46
472.58	13682.77
472.77	13928.53
472.95	13991.72
473.13	14534.73
473.31	13975.34
473.49	14267.91
473.67	14047.90
473.85	14361.53
474.03	14541.75
474.21	14593.24
474.39	14836.66
474.57	14766.44
474.75	14810.91
474.93	14869.42
475.12	15136.24
475.30	15051.99
475.48	14965.39
475.66	15056.67
475.84	15051.99
476.02	15360.94
476.20	15309.44
476.38	15644.14
476.56	16070.12
476.74	15925.00
476.92	16152.04
477.10	15906.28
477.28	16222.25
477.46	16219.91
477.64	16233.96
477.82	16533.54
478.00	17048.46
478.18	16926.75
478.36	16727.81
478.54	17067.19
478.72	17235.70
478.90	17102.29
479.08	17853.61
479.26	17664.02
479.44	17535.29
479.62	17891.06
479.80	18335.76
479.98	18202.35
480.16	18649.39
480.34	18218.73
480.52	18494.91
480.70	18525.34
480.88	18548.75
481.06	18693.86
481.24	18801.52
481.41	18988.77
481.59	19510.71
481.77	19604.33
481.95	19559.86
482.13	19864.13
482.31	19948.39
482.49	20250.32
482.67	20194.14
482.85	20161.37
483.03	20807.36
483.21	20449.26
483.39	21076.52
483.57	20643.52
483.74	20971.20
483.92	21792.73
484.10	21413.56
484.28	21710.81
484.46	21745.92
484.64	22342.75
484.82	22136.79
485.00	22216.36
485.18	22747.67
485.35	23278.97
485.53	22881.08
485.71	23187.69
485.89	23545.79
486.07	23498.98
486.25	23400.68
486.43	23742.39
486.61	24123.90
486.78	24126.24
486.96	24280.72
487.14	24718.40
487.32	24826.06
487.50	24828.40
487.68	24781.59
487.85	25448.64
488.03	25717.81
488.21	25649.93
488.39	26036.12
488.57	25942.50
488.75	26293.58
488.92	26618.91
489.10	26838.92
489.28	26721.90
489.46	27187.66
489.64	27126.81
489.81	27723.65
489.99	27742.37
490.17	27550.45
490.35	28346.23
490.53	27953.02
490.70	28512.41
490.88	28187.07
491.06	28467.94
491.24	28826.04
491.41	29298.83
491.59	29273.08
491.77	29237.97
491.95	29996.31
492.13	30024.39
492.30	29937.79
492.48	30141.42
492.66	30270.15
492.84	30422.28
493.01	30911.46
493.19	30735.92
493.37	31349.14
493.54	31267.22
493.72	31772.77
493.90	31524.68
494.08	31779.79
494.25	32032.57
494.43	32084.06
494.61	32472.59
494.79	32278.33
494.96	32512.38
495.14	32872.82
495.32	32971.13
495.49	33324.55
495.67	33266.03
495.85	33668.61
496.02	33383.06
496.20	34251.40
496.38	33916.70
496.55	34338.00
496.73	35047.18
496.91	34639.93
497.09	34583.76
497.26	35239.11
497.44	34649.29
497.62	35016.75
497.79	35484.86
497.97	35370.18
498.14	35847.64
498.32	36062.97
498.50	36278.30
498.67	36847.05
498.85	36383.63
499.03	36390.65
499.20	36652.79
499.38	37130.26
499.56	37521.13
499.73	36818.97
499.91	37450.91
500.08	37895.61
500.26	37441.55
500.44	37413.46
500.61	37804.33
500.79	37448.57
500.97	37787.95
501.14	38644.59
501.32	38534.58
501.49	38291.16
501.67	38904.38
501.84	39531.65
502.02	39115.03
502.20	38735.87
502.37	39028.43
502.55	39349.09
502.72	39847.62
502.90	39494.20
503.07	39618.25
503.25	39620.59
503.43	40053.59
503.60	40524.04
503.78	40451.48
503.95	40390.62
504.13	40666.81
504.30	40832.99
504.48	40538.08
504.65	40683.19
504.83	40708.94
505.01	41708.35
505.18	41137.26
505.36	41579.62
505.53	41401.74
505.71	41380.67
505.88	41696.64
506.06	41387.69
506.23	42253.69
506.41	41933.04
506.58	42698.39
506.76	41970.49
506.93	42784.99
507.11	42897.34
507.28	42616.47
507.46	43040.11
507.63	43398.21
507.81	43262.46
507.98	42773.29
508.16	42906.70
508.33	43730.57
508.50	43587.80
508.68	43910.79
508.85	43959.94
509.03	43721.21
509.20	43838.23
509.38	44835.30
509.55	44311.02
509.73	44385.92
509.90	44547.42
510.08	44699.55
510.25	44685.51
510.42	44566.14
510.60	45160.64
510.77	44935.95
510.95	45352.56
511.12	45052.97
511.30	45368.94
511.47	45598.32
511.64	45415.76
511.82	45741.09
511.99	45710.66
512.17	46127.28
512.34	46096.85
512.51	46190.47
512.69	46642.20
512.86	46522.83
513.04	46593.04
513.21	46663.26
513.38	46822.42
513.56	46766.24
513.73	46829.44
513.90	47206.26
514.08	46857.52
514.25	47407.55
514.43	47262.44
514.60	47477.77
514.77	47374.78
514.95	47594.79
515.12	47533.94
515.29	47868.64
515.47	48378.87
515.64	48093.33
515.81	48140.14
515.99	48182.27
516.16	48423.34
516.33	48673.78
516.51	48533.35
516.68	48516.96
516.85	48584.84
517.03	48863.36
517.20	49104.44
517.37	48795.49
517.54	49029.54
517.72	48891.45
517.89	48914.86
518.06	49179.34
518.24	49663.83
518.41	49504.67
518.58	49195.72
518.75	49287.00
518.93	49595.95
519.10	49495.31
519.27	49661.49
519.45	49787.88
519.62	50096.83
519.79	50110.87
519.96	50213.85
520.14	50288.75
520.31	50148.32
520.48	50279.39
520.65	50337.90
520.83	50436.20
521.00	50494.72
521.17	50827.07
521.34	50649.19
521.52	50930.06
521.69	50937.08
521.86	51203.90
522.03	51227.31
522.20	51283.48
522.38	51688.39
522.55	51264.75
522.72	51318.59
522.89	51777.33
523.07	51533.92
523.24	51447.32
523.41	52060.54
523.58	51220.28
523.75	51973.94
523.92	51709.46
524.10	52428.00
524.27	51969.26
524.44	52058.20
524.61	52222.03
524.78	51987.98
524.96	52165.86
525.13	52332.04
525.30	52521.62
525.47	52617.58
525.64	52671.42
525.81	52750.99
525.98	52926.53
526.16	52580.13
526.33	52673.76
526.50	53006.11
526.67	52907.81
526.84	53279.96
527.01	52671.42
527.18	52877.38
527.36	53228.46
527.53	53144.20
527.70	53450.81
527.87	53389.96
528.04	53354.85
528.21	53301.02
528.38	53710.61
528.55	53425.07
528.72	53698.91
528.89	53361.87
529.07	53127.82
529.24	53588.91
529.41	53837.00
529.58	53567.84
529.75	53544.44
529.92	53785.51
530.09	53998.50
530.26	54127.23
530.43	54085.10
530.60	53511.67
530.77	54101.48
530.94	54148.29
531.11	54148.29
531.28	54426.82
531.46	54120.21
531.63	54284.04
531.80	54085.10
531.97	54600.02
532.14	54621.08
532.31	54445.54
532.48	54473.63
532.65	54525.12
532.82	54747.47
532.99	54866.84
533.16	54628.10
533.33	55089.19
533.50	54918.33
533.67	54923.01
533.84	54798.96
534.01	54677.25
534.18	54955.78
534.35	54990.89
534.52	54883.22
534.69	55056.42
534.86	55360.69
535.03	54878.54
535.20	55257.71
535.37	55557.30
535.54	55510.49
535.71	55224.94
535.88	55402.82
536.05	55533.89
536.22	55760.92
536.38	55765.60
536.55	55613.47
536.72	55353.67
536.89	55405.16
537.06	55676.66
537.23	55887.31
537.40	55550.27
537.57	55622.83
537.74	55959.87
537.91	56100.30
538.08	56065.19
538.25	55969.23
538.42	56123.71
538.59	56051.15
538.75	55709.43
538.92	56044.13
539.09	56388.19
539.26	56193.92
539.43	56322.65
539.60	56390.53
539.77	56383.51
539.94	56673.73
540.11	56470.11
540.28	56683.09
540.44	56540.32
540.61	56493.51
540.78	56446.70
540.95	56442.02
541.12	56697.14
541.29	56601.18
541.46	56523.94
541.62	56685.43
541.79	56865.66
541.96	56418.61
542.13	56727.56
542.30	56647.99
542.47	57020.13
542.63	56842.25
542.80	56839.91
542.97	57333.76
543.14	57242.48
543.31	56994.39
543.48	57219.08
543.64	57464.83
543.81	57181.63
543.98	57394.62
544.15	57317.38
544.32	57556.11
544.48	57806.55
544.65	57556.11
544.82	57406.32
544.99	57551.43
545.16	57495.26
545.32	57408.66
545.49	57794.85
545.66	57696.55
545.83	57462.49
546.00	57717.61
546.16	57741.02
546.33	57513.98
546.50	57432.07
546.67	57705.91
546.83	57593.56
547.00	57759.74
547.17	57872.09
547.34	57560.79
547.50	58024.22
547.67	58265.30
547.84	58092.10
548.00	57963.37
548.17	58248.91
548.34	58197.42
548.51	58387.00
548.67	58321.47
548.84	58143.59
549.01	57935.28
549.18	58148.27
549.34	58358.92
549.51	58277.00
549.68	58277.00
549.84	58192.74
550.01	58543.82
550.18	58410.41
550.34	58522.76
550.51	58487.65
550.68	58426.79
550.84	58038.26
551.01	58452.54
551.18	58487.65
551.34	58623.40
551.51	58422.11
551.68	58630.42
551.84	58688.93
552.01	58443.18
552.18	58553.18
552.34	58536.80
552.51	58651.48
552.68	58639.78
552.84	58389.34
553.01	58993.20
553.18	58859.79
553.34	59072.78
553.51	58855.11
553.67	59016.61
553.84	59007.25
554.01	59147.68
554.17	59040.01
554.34	59182.79
554.51	58981.50
554.67	59044.69
554.84	59147.68
555.00	58948.73
555.17	58906.60
555.33	58979.16
555.50	59152.36
555.67	58908.94
555.83	59037.67
556.00	59234.28
556.16	59395.77
556.33	59194.49
556.50	59393.43
556.66	59161.72
556.83	58965.12
556.99	59351.30
557.16	59585.36
557.32	59618.13
557.49	59756.22
557.65	59355.99
557.82	59189.81
557.98	59468.33
558.15	59538.55
558.32	59475.35
558.48	59318.54
558.65	59325.56
558.81	59545.57
558.98	59625.15
559.14	59742.17
559.31	59587.70
559.47	59568.97
559.64	59700.04
559.80	59559.61
559.97	59760.90
560.13	59627.49
560.30	59772.60
560.46	59725.79
560.63	60231.35
560.79	59681.32
560.96	59898.99
561.12	59824.09
561.29	59936.44
561.45	59908.35
561.61	59863.88
561.78	59725.79
561.94	59536.21
562.11	59573.66
562.27	59924.74
562.44	60076.87
562.60	60130.70
562.77	60327.31
562.93	59622.81
563.10	60100.28
563.26	59924.74
563.42	60156.45
563.59	59959.84
563.75	59913.03
563.92	60111.98
564.08	60060.49
564.24	60102.62
564.41	60224.32
564.57	60051.12
564.74	60119.00
564.90	60367.10
565.07	60306.24
565.23	60252.41
565.39	60111.98
565.56	60458.38
565.72	60434.97
565.88	60114.32
566.05	60306.24
566.21	60142.41
566.38	60282.84
566.54	60502.85
566.70	60355.39
566.87	60320.29
567.03	60275.82
567.19	60516.89
567.36	60362.42
567.52	60385.82
567.68	60509.87
567.85	60446.68
568.01	60493.49
568.17	60413.91
568.34	60334.33
568.50	60416.25
568.66	60278.16
568.83	60294.54
568.99	60186.88
569.15	60568.38
569.32	60430.29
569.48	60605.83
569.64	60753.29
569.81	60339.01
569.97	60411.57
570.13	60493.49
570.30	60434.97
570.46	60594.13
570.62	60439.65
570.78	60615.19
570.95	60327.31
571.11	60643.28
571.27	60729.88
571.43	60371.78
571.60	60608.17
571.76	60547.32
571.92	60683.07
572.09	60584.77
572.25	60605.83
572.41	60640.94
572.57	60535.62
572.74	60708.82
572.90	60430.29
573.06	60549.66
573.22	60479.44
573.38	60683.07
573.55	60823.50
573.71	60898.40
573.87	60809.46
574.03	60636.26
574.20	60760.31
574.36	60795.42
574.52	60690.09
574.68	60884.36
574.84	60725.20
575.01	60718.18
575.17	60683.07
575.33	60673.71
575.49	60519.23
575.65	60645.62
575.82	61052.87
575.98	60706.47
576.14	61080.96
576.30	61013.08
576.46	60874.99
576.62	60659.66
576.79	60900.74
576.95	60626.90
577.11	60809.46
577.27	60804.78
577.43	60898.40
577.59	60694.77
577.75	60746.26
577.92	60633.92
578.08	60987.34
578.24	60872.65
578.40	60933.51
578.56	60938.19
578.72	60729.88
578.88	60914.78
579.04	60746.26
579.21	60795.42
579.37	60912.44
579.53	60905.42
579.69	60727.54
579.85	60837.54
580.01	61001.38
580.17	60669.03
580.33	60846.91
580.49	61027.13
580.65	60898.40
580.82	60891.38
580.98	60851.59
581.14	60802.44
581.30	60982.66
581.46	60982.66
581.62	60917.12
581.78	60753.29
581.94	60865.63
582.10	60764.99
582.26	60772.01
582.42	60905.42
582.58	60842.23
582.74	60949.89
582.90	60896.06
583.06	60837.54
583.22	60877.33
583.38	60989.68
583.54	60963.93
583.70	60954.57
583.86	61043.51
584.02	60860.95
584.18	61069.26
584.34	61050.53
584.50	60825.84
584.66	60839.89
584.82	60912.44
584.98	61066.92
585.14	61254.16
585.30	60870.31
585.46	61003.72
585.62	61055.21
585.78	61132.45
585.94	60725.20
586.10	61148.84
586.26	60926.49
586.42	61197.99
586.58	61099.68
586.74	60879.67
586.90	61200.33
587.06	61006.06
587.22	61036.49
587.38	61162.88
587.54	61113.73
587.70	61237.78
587.86	61099.68
588.02	61092.66
588.18	61296.29
588.34	61123.09
588.49	61190.97
