SpectraSuite Data File
++++++++++++++++++++++++++++++++++++
Date: Fri Oct 25 10:48:34 EDT 2013
User: price-jones
Dark Spectrum Present: No
Reference Spectrum Present: No
Number of Sampled Component Spectra: 1
Spectrometers: USB2+H05261
Integration Time (usec): 100000 (USB2+H05261)
Spectra Averaged: 1 (USB2+H05261)
Boxcar Smoothing: 0 (USB2+H05261)
Correct for Electrical Dark: No (USB2+H05261)
Strobe/Lamp Enabled: No (USB2+H05261)
Correct for Detector Non-linearity: No (USB2+H05261)
Correct for Stray Light: No (USB2+H05261)
Number of Pixels in Processed Spectrum: 2048
>>>>>Begin Processed Spectral Data<<<<<
365.73	227.03
365.92	227.03
366.12	227.03
366.32	46.81
366.52	51.49
366.72	21.06
366.91	100.64
367.11	63.19
367.31	16.38
367.51	23.41
367.70	16.38
367.90	91.28
368.10	49.15
368.30	67.88
368.49	35.11
368.69	0.00
368.89	65.54
369.09	107.66
369.28	49.15
369.48	30.43
369.68	0.00
369.87	84.26
370.07	65.54
370.27	147.45
370.47	173.20
370.66	386.19
370.86	470.45
371.06	505.56
371.25	538.32
371.45	484.49
371.65	564.07
371.84	533.64
372.04	519.60
372.24	493.85
372.44	543.00
372.63	507.90
372.83	571.09
373.03	437.68
373.22	599.18
373.42	603.86
373.62	578.11
373.81	505.56
374.01	634.29
374.21	643.65
374.40	561.73
374.60	601.52
374.79	531.30
374.99	568.75
375.19	657.69
375.38	624.92
375.58	697.48
375.78	704.50
375.97	631.94
376.17	683.44
376.37	664.71
376.56	676.41
376.76	624.92
376.95	669.39
377.15	699.82
377.35	727.91
377.54	737.27
377.74	589.82
377.93	674.07
378.13	753.65
378.33	718.54
378.52	681.10
378.72	716.20
378.91	676.41
379.11	711.52
379.31	690.46
379.50	737.27
379.70	706.84
379.89	748.97
380.09	753.65
380.28	748.97
380.48	760.67
380.68	723.23
380.87	727.91
381.07	784.08
381.26	798.12
381.46	763.01
381.65	746.63
381.85	758.33
382.04	800.46
382.24	678.76
382.43	685.78
382.63	770.04
382.83	709.18
383.02	786.42
383.22	858.98
383.41	709.18
383.61	746.63
383.80	765.36
384.00	758.33
384.19	753.65
384.39	908.13
384.58	880.04
384.78	837.91
384.97	858.98
385.17	898.77
385.36	861.32
385.56	849.61
385.75	868.34
385.95	889.40
386.14	903.45
386.34	858.98
386.53	933.87
386.72	887.06
386.92	940.90
387.11	917.49
387.31	875.36
387.50	809.83
387.70	896.43
387.89	926.85
388.09	926.85
388.28	924.51
388.48	861.32
388.67	966.64
388.86	990.05
389.06	1018.13
389.25	973.66
389.45	1071.97
389.64	952.60
389.84	1083.67
390.03	1156.22
390.22	1013.45
390.42	1076.65
390.61	1050.90
390.81	1135.16
391.00	1062.60
391.19	1125.80
391.39	1004.09
391.58	1076.65
391.78	1097.71
391.97	1151.54
392.16	1086.01
392.36	1104.73
392.55	1116.44
392.75	1060.26
392.94	1055.58
393.13	1078.99
393.33	1011.11
393.52	1025.15
393.71	1132.82
393.91	1296.66
394.10	1130.48
394.29	1163.25
394.49	1233.46
394.68	1275.59
394.88	1247.51
395.07	1313.04
395.26	1310.70
395.46	1270.91
395.65	1294.32
395.84	1238.14
396.04	1324.74
396.23	1261.55
396.42	1256.87
396.62	1331.76
396.81	1217.08
397.00	1235.80
397.19	1289.64
397.39	1322.40
397.58	1476.88
397.77	1355.17
397.97	1556.46
398.16	1516.67
398.35	1617.31
398.55	1523.69
398.74	1540.07
398.93	1687.53
399.12	1537.73
399.32	1502.62
399.51	1610.29
399.70	1619.65
399.90	1621.99
400.09	1673.48
400.28	1799.87
400.47	1699.23
400.67	1853.70
400.86	1769.44
401.05	1720.29
401.24	1694.55
401.44	1764.76
401.63	1870.09
401.82	1802.21
402.01	1729.66
402.21	1837.32
402.40	1818.60
402.59	1792.85
402.78	1809.23
402.97	1818.60
403.17	1795.19
403.36	1834.98
403.55	1874.77
403.74	1891.15
403.93	1975.41
404.13	1930.94
404.32	1907.54
404.51	1881.79
404.70	1926.26
404.89	2031.58
405.09	2040.95
405.28	2139.25
405.47	2099.46
405.66	2057.33
405.85	1937.96
406.05	2106.48
406.24	2073.71
406.43	2228.19
406.62	2003.50
406.81	2179.04
407.00	2200.10
407.20	2155.63
407.39	2188.40
407.58	2237.55
407.77	2305.43
407.96	2317.13
408.15	2394.37
408.34	2326.49
408.54	2373.30
408.73	2342.88
408.92	2396.71
409.11	2373.30
409.30	2506.71
409.49	2368.62
409.68	2525.44
409.87	2452.88
410.07	2469.27
410.26	2427.14
410.45	2429.48
410.64	2523.10
410.83	2768.85
411.02	2588.63
411.21	2708.00
411.40	2642.46
411.59	2815.66
411.78	2656.51
411.98	2558.21
412.17	2832.05
412.36	2766.51
412.55	2822.69
412.74	2789.92
412.93	2820.35
413.12	2759.49
413.31	2902.26
413.50	2949.08
413.69	2846.09
413.88	3077.80
414.07	3141.00
414.26	3101.21
414.45	3173.77
414.64	3035.67
414.83	3192.49
415.02	3197.17
415.22	3187.81
415.41	3208.87
415.60	3274.41
415.79	3330.58
415.98	3368.03
416.17	3328.24
416.36	3417.18
416.55	3361.01
416.74	3318.88
416.93	3403.14
417.12	3433.57
417.31	3468.67
417.50	3440.59
417.69	3524.85
417.88	3503.78
418.07	3529.53
418.26	3552.93
418.45	3562.30
418.64	3641.87
418.83	3609.11
419.02	3658.26
419.21	3742.52
419.39	3599.74
419.58	3733.15
419.77	3698.05
419.96	3819.75
420.15	3889.97
420.34	3866.56
420.53	3845.50
420.72	3915.72
420.91	4021.04
421.10	4070.19
421.29	3990.61
421.48	3882.95
421.67	4016.36
421.86	3985.93
422.05	3983.59
422.24	3833.80
422.43	4086.58
422.61	4058.49
422.80	3985.93
422.99	4044.45
423.18	4093.60
423.37	4016.36
423.56	4175.52
423.75	4039.76
423.94	3990.61
424.13	3847.84
424.32	3943.80
424.50	4182.54
424.69	4231.69
424.88	4131.05
425.07	4112.32
425.26	4053.81
425.45	3999.98
425.64	4002.32
425.83	4077.21
426.01	4245.73
426.20	4142.75
426.39	4189.56
426.58	4074.87
426.77	3960.19
426.96	4138.07
427.15	4451.70
427.33	4173.18
427.52	4255.09
427.71	4292.54
427.90	4241.05
428.09	4231.69
428.28	4301.90
428.46	4264.46
428.65	4416.59
428.84	4458.72
429.03	4500.85
429.22	4163.81
429.40	4337.01
429.59	4510.21
429.78	4091.26
429.97	4051.47
430.16	4187.22
430.34	4231.69
430.53	4332.33
430.72	4437.66
430.91	4400.21
431.10	4411.91
431.28	4606.17
431.47	4788.74
431.66	4922.15
431.85	4844.91
432.03	4805.12
432.22	4873.00
432.41	4795.76
432.60	4751.29
432.79	4856.61
432.97	4964.28
433.16	4884.70
433.35	4837.89
433.54	4924.49
433.72	4788.74
433.91	4802.78
434.10	5102.37
434.28	4788.74
434.47	5034.49
434.66	5088.32
434.85	4961.94
435.03	5142.16
435.22	5200.67
435.41	5273.23
435.59	5287.27
435.78	5327.06
435.97	5294.29
436.16	5348.12
436.34	5135.14
436.53	5390.25
436.72	5432.38
436.90	5270.89
437.09	5378.55
437.28	5270.89
437.46	5270.89
437.65	5303.65
437.84	5404.30
438.02	5378.55
438.21	5392.59
438.40	5329.40
438.58	5504.94
438.77	5631.33
438.96	5636.01
439.14	5722.61
439.33	5900.49
439.52	5783.46
439.70	5816.23
439.89	5982.41
440.08	6005.81
440.26	5874.74
440.45	6059.65
440.63	6218.80
440.82	6132.20
441.01	6150.93
441.19	6230.51
441.38	6169.65
441.57	6209.44
441.75	6368.60
441.94	6492.65
442.12	6612.01
442.31	6621.38
442.50	6616.69
442.68	6642.44
442.87	6574.56
443.05	6651.80
443.24	6612.01
443.43	6548.82
443.61	6731.38
443.80	6647.12
443.98	6534.78
444.17	6368.60
444.35	6850.75
444.54	6862.45
444.73	6806.28
444.91	6848.41
445.10	6703.29
445.28	6525.41
445.47	6679.89
445.65	6518.39
445.84	6635.42
446.02	6899.90
446.21	6750.10
446.39	6640.10
446.58	6991.18
446.77	6827.34
446.95	6768.83
447.14	7040.33
447.32	6958.41
447.51	6965.43
447.69	6953.73
447.88	7014.59
448.06	7040.33
448.25	6806.28
448.43	7009.90
448.62	7056.72
448.80	6773.51
448.99	6967.77
449.17	7028.63
449.36	7030.97
449.54	7136.29
449.73	7302.47
449.91	7262.68
450.10	7398.43
450.28	7365.67
450.46	7346.94
450.65	7604.40
450.83	7578.65
451.02	7461.63
451.20	7531.84
451.39	7576.31
451.57	7389.07
451.76	7440.56
451.94	7588.02
452.13	7445.24
452.31	7353.96
452.49	7426.52
452.68	7651.21
452.86	7468.65
453.05	7375.03
453.23	7901.65
453.42	7627.81
453.60	7744.83
453.78	7754.19
453.97	7538.87
454.15	7644.19
454.34	7674.62
454.52	7775.26
454.70	7878.24
454.89	7737.81
455.07	7955.48
455.26	7735.47
455.44	8060.80
455.62	8116.98
455.81	7995.27
455.99	8030.38
456.17	8423.59
456.36	8163.79
456.54	8292.52
456.73	8198.90
456.91	8458.70
457.09	8468.06
457.28	8519.55
457.46	8313.58
457.64	8528.91
457.83	8397.84
458.01	8315.92
458.19	8203.58
458.38	8304.22
458.56	8837.86
458.74	8461.04
458.93	8336.99
459.11	8393.16
459.29	8713.81
459.48	8510.19
459.66	8648.28
459.84	8779.35
460.03	8645.94
460.21	8725.52
460.39	8769.99
460.57	8681.05
460.76	8959.57
460.94	8849.57
461.12	8870.63
461.31	8919.78
461.49	8772.33
461.67	9137.45
461.85	9312.99
462.04	8898.72
462.22	9493.21
462.40	9240.44
462.59	9181.92
462.77	9205.33
462.95	9231.07
463.13	9296.61
463.32	9312.99
463.50	9287.25
463.68	9343.42
463.86	9249.80
464.05	9217.03
464.23	9200.65
464.41	9137.45
464.59	9170.22
464.78	9504.92
464.96	9549.39
465.14	9233.41
465.32	9628.96
465.50	9612.58
465.69	9753.01
465.87	9387.89
466.05	9661.73
466.23	9355.12
466.41	9444.06
466.60	9708.54
466.78	9561.09
466.96	9242.78
467.14	9678.12
467.32	9635.99
467.51	9858.34
467.69	9530.66
467.87	9689.82
468.05	9912.17
468.23	9745.99
468.41	9905.15
468.60	9888.76
468.78	9898.13
468.96	9963.66
469.14	10008.13
469.32	10097.07
469.50	9940.26
469.69	9975.36
469.87	10171.97
470.05	10251.55
470.23	10216.44
470.41	10347.51
470.59	10108.77
470.77	10373.25
470.95	10368.57
471.14	10518.37
471.32	10338.15
471.50	10534.75
471.68	10705.61
471.86	10949.03
472.04	10700.93
472.22	10906.90
472.40	10792.21
472.58	10824.98
472.77	10602.63
472.95	10740.72
473.13	11452.24
473.31	10902.22
473.49	10785.19
473.67	11040.31
473.85	10846.04
474.03	11316.49
474.21	11066.05
474.39	11255.64
474.57	11424.15
474.75	11506.07
474.93	11653.53
475.12	11597.35
475.30	11779.92
475.48	11756.51
475.66	11751.83
475.84	11655.87
476.02	11740.13
476.20	11749.49
476.38	11896.94
476.56	12203.55
476.74	12112.27
476.92	12126.32
477.10	12241.00
477.28	12362.71
477.46	12472.71
477.64	12627.19
477.82	12748.90
478.00	12996.99
478.18	12908.05
478.36	13132.75
478.54	13088.28
478.72	13181.90
478.90	13369.14
479.08	13312.97
479.26	13460.42
479.44	13404.25
479.62	13633.62
479.80	13635.96
479.98	13872.36
480.16	14141.52
480.34	14071.30
480.52	14314.72
480.70	14431.74
480.88	14291.31
481.06	14363.87
481.24	14370.89
481.41	14665.80
481.59	14888.15
481.77	14583.88
481.95	14925.60
482.13	15101.14
482.31	15183.06
482.49	15503.71
482.67	15571.58
482.85	15197.10
483.03	15543.50
483.21	15896.92
483.39	15967.13
483.57	15768.19
483.74	16224.59
483.92	16027.99
484.10	16128.63
484.28	16341.62
484.46	16950.16
484.64	16538.23
484.82	16563.97
485.00	16833.13
485.18	16905.69
485.35	16952.50
485.53	16545.25
485.71	16830.79
485.89	17029.74
486.07	16702.06
486.25	17200.60
486.43	17343.37
486.61	17465.08
486.78	17781.05
486.96	17841.90
487.14	18134.47
487.32	18214.05
487.50	18347.46
487.68	18714.92
487.85	19014.51
488.03	19119.84
488.21	19374.95
488.39	19199.41
488.57	19147.92
488.75	19620.71
488.92	19761.14
489.10	20095.84
489.28	20095.84
489.46	20306.49
489.64	20439.90
489.81	20905.66
489.99	20823.75
490.17	21018.01
490.35	21062.48
490.53	20884.60
490.70	21406.54
490.88	21209.93
491.06	21387.82
491.24	21261.43
491.41	21678.04
491.59	21666.34
491.77	21671.02
491.95	21994.01
492.13	22008.06
492.30	22412.97
492.48	22499.57
492.66	22284.24
492.84	22494.89
493.01	22953.63
493.19	22710.22
493.37	23040.23
493.54	23281.31
493.72	23260.24
493.90	23421.74
494.08	23454.51
494.25	24079.43
494.43	24374.34
494.61	24194.12
494.79	24290.08
494.96	24266.67
495.14	24233.91
495.32	24528.81
495.49	24388.38
495.67	24638.82
495.85	24900.96
496.02	25088.20
496.20	25025.01
496.38	25268.42
496.55	25380.77
496.73	25663.97
496.91	25619.50
497.09	25743.55
497.26	25844.20
497.44	26099.31
497.62	25858.24
497.79	26314.64
497.97	25734.19
498.14	26586.15
498.32	26408.26
498.50	26188.25
498.67	26845.94
498.85	26867.01
499.03	27182.98
499.20	27391.29
499.38	27178.30
499.56	27398.31
499.73	27297.67
499.91	27145.53
500.08	27122.13
500.26	27669.81
500.44	27681.52
500.61	27360.86
500.79	27520.02
500.97	27964.72
501.14	28102.81
501.32	28102.81
501.49	28180.05
501.67	28348.57
501.84	28474.96
502.02	28252.61
502.20	28608.37
502.37	28254.95
502.55	28636.45
502.72	28849.44
502.90	28917.32
503.07	28971.15
503.25	28936.04
503.43	28938.38
503.60	29048.39
503.78	29177.12
503.95	29254.36
504.13	29626.50
504.30	29486.07
504.48	29294.14
504.65	30146.10
504.83	29802.04
505.01	29965.88
505.18	29879.28
505.36	30651.66
505.53	30441.01
505.71	30953.58
505.88	30665.70
506.06	30356.75
506.23	30602.50
506.41	30504.20
506.58	30810.81
506.76	30679.74
506.93	30845.92
507.11	30787.41
507.28	31206.36
507.46	30822.51
507.63	30925.50
507.81	31150.19
507.98	31014.44
508.16	31491.91
508.33	31765.75
508.50	31782.13
508.68	31800.86
508.85	32271.31
509.03	32055.98
509.20	31641.70
509.38	32229.18
509.55	32397.70
509.73	32088.74
509.90	32053.64
510.08	31803.20
510.25	32311.10
510.42	32692.60
510.60	32844.74
510.77	32858.78
510.95	33228.59
511.12	32533.45
511.30	33015.60
511.47	33352.63
511.64	33141.99
511.82	33652.22
511.99	33153.69
512.17	33170.07
512.34	33399.44
512.51	33628.82
512.69	34066.50
512.86	33956.49
513.04	34298.21
513.21	34256.08
513.38	33799.68
513.56	33954.15
513.73	33706.05
513.90	33778.61
514.08	34321.62
514.25	34658.65
514.43	34450.35
514.60	34188.21
514.77	34546.31
514.95	34892.71
515.12	34469.07
515.29	34668.02
515.47	34773.34
515.64	35026.12
515.81	34857.60
515.99	34651.63
516.16	35103.35
516.33	34735.89
516.51	34913.77
516.68	34433.96
516.85	34227.99
517.03	34824.83
517.20	35164.21
517.37	35777.43
517.54	35637.00
517.72	34967.60
517.89	35115.06
518.06	35154.85
518.24	35136.12
518.41	35356.13
518.58	35271.87
518.75	35545.72
518.93	36212.77
519.10	36088.72
519.27	36165.96
519.45	35627.63
519.62	36641.09
519.79	36187.02
519.96	36332.14
520.14	36378.95
520.31	36538.10
520.48	36840.03
520.65	36669.17
520.83	37003.87
521.00	36690.24
521.17	36603.64
521.34	36966.42
521.52	37331.54
521.69	37333.89
521.86	37418.14
522.03	37509.43
522.20	37291.76
522.38	37198.13
522.55	37794.97
522.72	37151.32
522.89	37422.83
523.07	38061.79
523.24	37614.75
523.41	38099.24
523.58	38022.00
523.75	38253.72
523.92	38225.63
524.10	38316.91
524.27	38342.66
524.44	38396.49
524.61	38789.70
524.78	38607.14
524.96	38574.37
525.13	38651.61
525.30	38944.17
525.47	38988.64
525.64	38719.48
525.81	38827.15
525.98	38593.09
526.16	38213.93
526.33	38518.20
526.50	38653.95
526.67	38520.54
526.84	38305.21
527.01	38511.17
527.18	38799.06
527.36	39079.92
527.53	39110.35
527.70	39826.56
527.87	39409.94
528.04	39360.79
528.21	39702.51
528.38	39730.59
528.55	39976.35
528.72	39690.80
528.89	40336.79
529.07	40119.12
529.24	39660.38
529.41	40055.93
529.58	39929.54
529.75	39924.86
529.92	40416.37
530.09	40245.51
530.26	40486.59
530.43	40706.60
530.60	40027.84
530.77	40247.85
530.94	40282.96
531.11	40739.36
531.28	40257.21
531.46	40580.21
531.63	40935.97
531.80	40547.44
531.97	40402.33
532.14	40622.34
532.31	40156.57
532.48	41130.23
532.65	40662.13
532.82	40919.59
532.99	41394.71
533.16	40868.09
533.33	41038.95
533.50	41722.39
533.67	40825.96
533.84	40718.30
534.01	40884.48
534.18	41422.80
534.35	41446.21
534.52	41572.60
534.69	41808.99
534.86	41844.10
535.03	41361.95
535.20	41785.58
535.37	41762.18
535.54	41991.55
535.71	41904.95
535.88	41783.24
536.05	41933.04
536.22	41869.84
536.38	42115.60
536.55	41996.23
536.72	41675.58
536.89	41663.88
537.06	41893.25
537.23	42389.44
537.40	42560.30
537.57	42225.60
537.74	42293.48
537.91	42471.36
538.08	42396.46
538.25	42202.20
538.42	42600.09
538.59	42452.64
538.75	42192.84
538.92	42513.49
539.09	42686.69
539.26	42536.90
539.43	42588.39
539.60	42539.24
539.77	42377.74
539.94	42529.87
540.11	42665.63
540.28	42227.95
540.44	42410.51
540.61	42534.56
540.78	42560.30
540.95	42637.54
541.12	42637.54
541.29	42792.01
541.46	42836.48
541.62	42885.64
541.79	43274.16
541.96	42609.45
542.13	42944.15
542.30	43313.95
542.47	43021.39
542.63	43402.89
542.80	43267.14
542.97	43634.61
543.14	43618.22
543.31	43292.89
543.48	43632.27
543.64	44065.27
543.81	43952.92
543.98	43697.80
544.15	43772.70
544.32	44182.29
544.48	44739.34
544.65	44381.24
544.82	44151.87
544.99	43510.56
545.16	44238.47
545.32	43824.19
545.49	44500.61
545.66	44652.74
545.83	44615.29
546.00	44828.28
546.16	44109.74
546.33	44264.21
546.50	44016.11
546.67	44381.24
546.83	44002.07
547.00	44704.23
547.17	44491.24
547.34	44493.58
547.50	44531.03
547.67	44765.09
547.84	44610.61
548.00	44603.59
548.17	44814.24
548.34	44987.44
548.51	44861.05
548.67	45209.79
548.84	44706.57
549.01	44718.28
549.18	44900.84
549.34	45027.23
549.51	45132.55
549.68	45041.27
549.84	45170.00
550.01	45411.07
550.18	44905.52
550.34	45090.42
550.51	45059.99
550.68	44942.97
550.84	44701.89
551.01	44980.42
551.18	45413.41
551.34	45240.21
551.51	45270.64
551.68	45097.44
551.84	45043.61
552.01	45177.02
552.18	45289.37
552.34	45455.54
552.51	45502.35
552.68	45516.40
552.84	45523.42
553.01	45588.95
553.18	45411.07
553.34	45797.26
553.51	45228.51
553.67	45666.19
553.84	45834.71
554.01	45855.78
554.17	46099.19
554.34	46169.41
554.51	45792.58
554.67	46188.13
554.84	46014.93
555.00	46057.06
555.17	45675.55
555.33	45872.16
555.50	45626.40
555.67	46092.17
555.83	46272.39
556.00	46335.59
556.16	46244.30
556.33	46010.25
556.50	45820.67
556.66	46536.87
556.83	45705.98
556.99	46157.70
557.16	46377.72
557.32	46256.01
557.49	46424.53
557.65	46508.79
557.82	46096.85
557.98	45790.24
558.15	46309.84
558.32	46199.83
558.48	46274.73
558.65	46323.88
558.81	46176.43
558.98	46218.56
559.14	46368.35
559.31	45989.19
559.47	46344.95
559.64	46461.97
559.80	46614.11
559.97	46452.61
560.13	46279.41
560.30	46150.68
560.46	46492.40
560.63	46286.43
560.79	46834.12
560.96	46906.68
561.12	46752.20
561.29	46632.83
561.45	46265.37
561.61	46838.80
561.78	46380.06
561.94	46639.86
562.11	46663.26
562.27	46328.56
562.44	47065.83
562.60	46827.10
562.77	46562.62
562.93	46667.94
563.10	47124.35
563.26	46817.74
563.42	46674.96
563.59	46602.41
563.75	46614.11
563.92	46925.40
564.08	47058.81
564.24	46845.82
564.41	46913.70
564.57	46997.96
564.74	46653.90
564.90	47068.17
565.07	46712.41
565.23	46735.82
565.39	47110.30
565.56	46972.21
565.72	46820.08
565.88	47009.66
566.05	46906.68
566.21	47136.05
566.38	47122.01
566.54	47077.54
566.70	46939.44
566.87	47494.15
567.03	47222.65
567.19	47622.88
567.36	47304.57
567.52	47323.29
567.68	46803.69
567.85	46759.22
568.01	46740.50
568.17	46799.01
568.34	47419.25
568.50	47093.92
568.66	47056.47
568.83	46775.61
568.99	46934.76
569.15	46490.06
569.32	46747.52
569.48	47096.26
569.64	46960.51
569.81	47608.84
569.97	46710.07
570.13	47199.24
570.30	46609.43
570.46	46838.80
570.62	47033.07
570.78	46927.74
570.95	46693.69
571.11	47201.58
571.27	46679.64
571.43	47152.43
571.60	47262.44
571.76	47054.13
571.92	47203.92
572.09	47391.17
572.25	47306.91
572.41	47262.44
572.57	46995.62
572.74	47756.29
572.90	47557.35
573.06	47358.40
573.22	47498.83
573.38	46951.15
573.55	46834.12
573.71	47334.99
573.87	47470.75
574.03	47213.29
574.20	47246.05
574.36	47227.33
574.52	47370.10
574.68	47040.09
574.84	47206.26
575.01	47227.33
575.17	46918.38
575.33	47030.72
575.49	46930.08
575.65	47531.60
575.82	47232.01
575.98	47126.69
576.14	47194.56
576.30	47159.45
576.46	47332.65
576.62	47084.56
576.79	47208.61
576.95	46761.56
577.11	47189.88
577.27	47327.97
577.43	47107.96
577.59	47234.35
577.75	47416.91
577.92	46969.87
578.08	46918.38
578.24	47365.42
578.40	47363.08
578.56	47201.58
578.72	47126.69
578.88	47367.76
579.04	47037.75
579.21	46946.47
579.37	47456.70
579.53	47189.88
579.69	47206.26
579.85	47578.41
580.01	47395.85
580.17	47299.89
580.33	47330.31
580.49	47353.72
580.65	47253.08
580.82	47489.47
580.98	47079.88
581.14	47327.97
581.30	47594.79
581.46	47412.23
581.62	47529.26
581.78	47356.06
581.94	47400.53
582.10	47480.11
582.26	47789.06
582.42	47557.35
582.58	47391.17
582.74	47185.20
582.90	47496.49
583.06	47529.26
583.22	47353.72
583.38	47239.03
583.54	47657.99
583.70	47484.79
583.86	47068.17
584.02	47138.39
584.18	47232.01
584.34	47473.09
584.50	47503.51
584.66	47276.48
584.82	47412.23
584.98	47159.45
585.14	47351.38
585.30	47316.27
585.46	47569.05
585.62	47309.25
585.78	47313.93
585.94	46941.78
586.10	46862.21
586.26	47093.92
586.42	47723.52
586.58	47334.99
586.74	47356.06
586.90	47636.92
587.06	47430.96
587.22	47306.91
587.38	47290.52
587.54	47503.51
587.70	47547.98
587.86	47196.90
588.02	47140.73
588.18	47484.79
588.34	47222.65
588.49	46499.42
588.65	46873.91
588.81	47208.61
588.97	47171.16
589.13	47543.30
589.29	46993.28
589.45	46902.00
589.61	47660.33
589.77	47035.41
