SpectraSuite Data File
++++++++++++++++++++++++++++++++++++
Date: Fri Oct 25 10:47:20 EDT 2013
User: price-jones
Dark Spectrum Present: No
Reference Spectrum Present: No
Number of Sampled Component Spectra: 1
Spectrometers: USB2+H05261
Integration Time (usec): 100000 (USB2+H05261)
Spectra Averaged: 1 (USB2+H05261)
Boxcar Smoothing: 0 (USB2+H05261)
Correct for Electrical Dark: No (USB2+H05261)
Strobe/Lamp Enabled: No (USB2+H05261)
Correct for Detector Non-linearity: No (USB2+H05261)
Correct for Stray Light: No (USB2+H05261)
Number of Pixels in Processed Spectrum: 2048
>>>>>Begin Processed Spectral Data<<<<<
365.73	191.92
365.92	191.92
366.12	191.92
366.32	49.15
366.52	28.09
366.72	58.51
366.91	0.00
367.11	37.45
367.31	39.79
367.51	0.00
367.70	32.77
367.90	60.85
368.10	60.85
368.30	65.54
368.49	49.15
368.69	37.45
368.89	77.24
369.09	58.51
369.28	70.22
369.48	77.24
369.68	72.56
369.87	182.56
370.07	74.90
370.27	114.69
370.47	184.90
370.66	346.40
370.86	437.68
371.06	458.74
371.25	444.70
371.45	491.51
371.65	531.30
371.84	430.66
372.04	421.30
372.24	437.68
372.44	472.79
372.63	433.00
372.83	514.92
373.03	442.36
373.22	430.66
373.42	526.62
373.62	472.79
373.81	479.81
374.01	592.16
374.21	512.58
374.40	545.34
374.60	573.43
374.79	526.62
374.99	608.54
375.19	524.28
375.38	503.22
375.58	561.73
375.78	608.54
375.97	573.43
376.17	573.43
376.37	533.64
376.56	561.73
376.76	622.58
376.95	599.18
377.15	526.62
377.35	571.09
377.54	620.24
377.74	587.47
377.93	627.26
378.13	601.52
378.33	629.60
378.52	582.79
378.72	641.31
378.91	608.54
379.11	671.73
379.31	669.39
379.50	664.71
379.70	723.23
379.89	636.63
380.09	620.24
380.28	568.75
380.48	624.92
380.68	634.29
380.87	601.52
381.07	669.39
381.26	727.91
381.46	667.05
381.65	697.48
381.85	643.65
382.04	638.97
382.24	737.27
382.43	638.97
382.63	741.95
382.83	650.67
383.02	718.54
383.22	697.48
383.41	688.12
383.61	755.99
383.80	713.86
384.00	734.93
384.19	669.39
384.39	791.10
384.58	706.84
384.78	695.14
384.97	683.44
385.17	751.31
385.36	727.91
385.56	648.33
385.75	763.01
385.95	772.38
386.14	800.46
386.34	685.78
386.53	723.23
386.72	737.27
386.92	805.14
387.11	739.61
387.31	870.68
387.50	814.51
387.70	807.48
387.89	844.93
388.09	826.21
388.28	767.70
388.48	791.10
388.67	842.59
388.86	851.96
389.06	891.74
389.25	891.74
389.45	863.66
389.64	887.06
389.84	903.45
390.03	933.87
390.22	889.40
390.42	922.17
390.61	791.10
390.81	842.59
391.00	924.51
391.19	983.02
391.39	954.94
391.58	1001.75
391.78	912.81
391.97	938.55
392.16	933.87
392.36	1013.45
392.55	947.92
392.75	950.26
392.94	870.68
393.13	1053.24
393.33	1041.54
393.52	987.71
393.71	1006.43
393.91	1027.50
394.10	1071.97
394.29	1041.54
394.49	1027.50
394.68	1078.99
394.88	1090.69
395.07	1167.93
395.26	1090.69
395.46	1050.90
395.65	1053.24
395.84	1130.48
396.04	1177.29
396.23	1130.48
396.42	1111.75
396.62	1076.65
396.81	1132.82
397.00	1139.84
397.19	1146.86
397.39	1224.10
397.58	1177.29
397.77	1174.95
397.97	1181.97
398.16	1219.42
398.35	1289.64
398.55	1299.00
398.74	1263.89
398.93	1362.19
399.12	1240.48
399.32	1299.00
399.51	1406.66
399.70	1329.42
399.90	1294.32
400.09	1425.39
400.28	1397.30
400.47	1366.87
400.67	1409.00
400.86	1362.19
401.05	1364.53
401.24	1441.77
401.44	1413.68
401.63	1511.99
401.82	1423.05
402.01	1462.83
402.21	1540.07
402.40	1575.18
402.59	1502.62
402.78	1474.54
402.97	1453.47
403.17	1551.78
403.36	1502.62
403.55	1640.72
403.74	1528.37
403.93	1673.48
404.13	1640.72
404.32	1600.93
404.51	1570.50
404.70	1540.07
404.89	1638.38
405.09	1701.57
405.28	1739.02
405.47	1694.55
405.66	1748.38
405.85	1739.02
406.05	1727.32
406.24	1785.83
406.43	1771.79
406.62	1806.89
406.81	1863.07
407.00	1799.87
407.20	1724.97
407.39	1757.74
407.58	1816.26
407.77	1881.79
407.96	1851.36
408.15	1940.30
408.34	1872.43
408.54	1994.14
408.73	2019.88
408.92	1916.90
409.11	1947.33
409.30	2062.01
409.49	1984.77
409.68	2033.93
409.87	2026.90
410.07	2076.06
410.26	2054.99
410.45	2047.97
410.64	2090.10
410.83	2150.95
411.02	2062.01
411.21	2260.96
411.40	2174.36
411.59	2186.06
411.78	2282.02
411.98	2235.21
412.17	2333.51
412.36	2293.72
412.55	2385.01
412.74	2403.73
412.93	2328.83
413.12	2424.80
413.31	2448.20
413.50	2473.95
413.69	2567.57
413.88	2532.46
414.07	2729.06
414.26	2562.89
414.45	2633.10
414.64	2602.68
414.83	2595.65
415.02	2642.46
415.22	2635.44
415.41	2693.96
415.60	2623.74
415.79	2771.19
415.98	2818.00
416.17	2808.64
416.36	2841.41
416.55	2726.72
416.74	2827.37
416.93	2848.43
417.12	2918.65
417.31	2855.45
417.50	2930.35
417.69	3052.06
417.88	2995.89
418.07	3009.93
418.26	3033.33
418.45	3016.95
418.64	3279.09
418.83	3180.79
419.02	3007.59
419.21	3185.47
419.39	3218.24
419.58	3173.77
419.77	3192.49
419.96	3330.58
420.15	3290.79
420.34	3239.30
420.53	3346.97
420.72	3351.65
420.91	3396.12
421.10	3309.52
421.29	3328.24
421.48	3290.79
421.67	3410.16
421.86	3466.33
422.05	3304.84
422.24	3368.03
422.43	3386.76
422.61	3456.97
422.80	3421.86
422.99	3363.35
423.18	3452.29
423.37	3487.40
423.56	3370.37
423.75	3499.10
423.94	3426.54
424.13	3302.50
424.32	3302.50
424.50	3379.73
424.69	3445.27
424.88	3517.83
425.07	3487.40
425.26	3396.12
425.45	3461.65
425.64	3480.38
425.83	3478.04
426.01	3510.80
426.20	3473.36
426.39	3545.91
426.58	3658.26
426.77	3489.74
426.96	3473.36
427.15	3445.27
427.33	3747.20
427.52	3644.21
427.71	3669.96
427.90	3723.79
428.09	3686.34
428.28	3602.08
428.46	3829.12
428.65	3709.75
428.84	3686.34
429.03	3810.39
429.22	3730.81
429.40	3854.86
429.59	3770.60
429.78	3534.21
429.97	3590.38
430.16	3744.86
430.34	3726.13
430.53	3786.99
430.72	3761.24
430.91	3829.12
431.10	3871.25
431.28	4065.51
431.47	4053.81
431.66	4049.13
431.85	4208.28
432.03	4212.96
432.22	4292.54
432.41	3995.29
432.60	4044.45
432.79	4166.15
432.97	4058.49
433.16	4114.66
433.35	4250.41
433.54	4100.62
433.72	4166.15
433.91	4290.20
434.10	4376.80
434.28	4222.33
434.47	4276.16
434.66	4472.76
434.85	4416.59
435.03	4351.06
435.22	4348.72
435.41	4564.04
435.59	4571.07
435.78	4561.70
435.97	4500.85
436.16	4564.04
436.34	4550.00
436.53	4594.47
436.72	4643.62
436.90	4500.85
437.09	4634.26
437.28	4535.96
437.46	4613.20
437.65	4493.83
437.84	4725.54
438.02	4648.30
438.21	4725.54
438.40	4519.57
438.58	4802.78
438.77	4905.76
438.96	4784.06
439.14	5043.85
439.33	5165.56
439.52	4910.44
439.70	5018.11
439.89	5027.47
440.08	4936.19
440.26	5165.56
440.45	5074.28
440.63	5067.26
440.82	5376.21
441.01	5125.77
441.19	5289.61
441.38	5357.49
441.57	5476.85
441.75	5359.83
441.94	5502.60
442.12	5479.19
442.31	5497.92
442.50	5509.62
442.68	5619.63
442.87	5479.19
443.05	5654.73
443.24	5816.23
443.43	5727.29
443.61	5710.91
443.80	5996.45
443.98	5577.50
444.17	5551.75
444.35	5783.46
444.54	5687.50
444.73	5834.96
444.91	5727.29
445.10	5860.70
445.28	5668.78
445.47	5797.51
445.65	5776.44
445.84	5797.51
446.02	5769.42
446.21	5715.59
446.39	5881.77
446.58	5858.36
446.77	5806.87
446.95	5851.34
447.14	5825.59
447.32	5851.34
447.51	6113.48
447.69	5755.38
447.88	5935.60
448.06	5935.60
448.25	5727.29
448.43	6078.37
448.62	6029.22
448.80	5987.09
448.99	5996.45
449.17	6031.56
449.36	6066.67
449.54	6003.47
449.73	6193.06
449.91	6305.40
450.10	6282.00
450.28	6326.47
450.46	6387.32
450.65	6221.14
450.83	6394.34
451.02	6436.47
451.20	6377.96
451.39	6349.87
451.57	6438.81
451.76	6370.94
451.94	6293.70
452.13	6548.82
452.31	6579.25
452.49	6380.30
452.68	6399.02
452.86	6352.21
453.05	6480.94
453.23	6586.27
453.42	6380.30
453.60	6443.49
453.78	6794.58
453.97	6434.13
454.15	6525.41
454.34	6553.50
454.52	6635.42
454.70	6555.84
454.89	6778.19
455.07	6689.25
455.26	7005.22
455.44	6848.41
455.62	6658.82
455.81	7080.12
455.99	6773.51
456.17	6874.15
456.36	6911.60
456.54	7112.89
456.73	6960.75
456.91	7082.46
457.09	7138.63
457.28	7148.00
457.46	7070.76
457.64	7234.60
457.83	7255.66
458.01	6984.16
458.19	7283.75
458.38	7143.32
458.56	7288.43
458.74	7363.33
458.93	7159.70
459.11	7466.31
459.29	7346.94
459.48	7524.82
459.66	7396.09
459.84	7506.10
460.03	7487.37
460.21	7585.68
460.39	7595.04
460.57	7637.17
460.76	7578.65
460.94	7609.08
461.12	7627.81
461.31	7616.10
461.49	7669.94
461.67	7545.89
461.85	7782.28
462.04	7712.07
462.22	8194.22
462.40	7887.61
462.59	7847.82
462.77	7831.43
462.95	7988.25
463.13	7836.11
463.32	7896.97
463.50	7803.35
463.68	8065.49
463.86	7992.93
464.05	7974.21
464.23	7915.69
464.41	8177.83
464.59	7927.39
464.78	8191.88
464.96	8119.32
465.14	8142.72
465.32	8109.96
465.50	8393.16
465.69	8362.73
465.87	8140.38
466.05	8276.13
466.23	8248.05
466.41	8332.31
466.60	8437.63
466.78	8046.76
466.96	8238.69
467.14	8376.78
467.32	8439.97
467.51	8690.41
467.69	8191.88
467.87	8486.78
468.05	8521.89
468.23	8484.44
468.41	8400.18
468.60	8454.02
468.78	8510.19
468.96	8444.65
469.14	8774.67
469.32	8730.20
469.50	8449.33
469.69	8615.51
469.87	8884.67
470.05	8823.82
470.23	8828.50
470.41	8933.82
470.59	8835.52
470.77	8903.40
470.95	8980.64
471.14	9008.72
471.32	8908.08
471.50	9132.77
471.68	8961.91
471.86	9191.28
472.04	9181.92
472.22	9509.60
472.40	9088.30
472.58	9231.07
472.77	9336.40
472.95	9530.66
473.13	9715.56
473.31	9458.10
473.49	9472.15
473.67	9563.43
473.85	9703.86
474.03	9790.46
474.21	9736.63
474.39	10024.51
474.57	9753.01
474.75	9928.55
474.93	9968.34
475.12	9916.85
475.30	9982.38
475.48	10045.58
475.66	10076.01
475.84	10068.98
476.02	10347.51
476.20	10256.23
476.38	10403.68
476.56	10621.35
476.74	10593.26
476.92	10780.51
477.10	10579.22
477.28	10586.24
477.46	10761.78
477.64	10705.61
477.82	11131.59
478.00	11480.33
478.18	11232.23
478.36	11091.80
478.54	11321.17
478.72	11517.78
478.90	11494.37
479.08	11618.42
479.26	11866.52
479.44	11747.15
479.62	11756.51
479.80	12032.69
479.98	12280.79
480.16	12503.14
480.34	12156.74
480.52	12121.63
480.70	12475.06
480.88	12025.67
481.06	12343.99
481.24	12425.90
481.41	12610.81
481.59	13027.42
481.77	12842.52
481.95	12858.90
482.13	13018.06
482.31	13020.40
482.49	13348.08
482.67	13383.18
482.85	13343.39
483.03	13654.69
483.21	13834.91
483.39	13806.82
483.57	13860.65
483.74	13954.27
483.92	14080.66
484.10	13832.57
484.28	14284.29
484.46	14450.47
484.64	14867.08
484.82	14532.39
485.00	14684.52
485.18	14946.66
485.35	14979.43
485.53	14789.85
485.71	14881.13
485.89	15276.68
486.07	15145.61
486.25	15105.82
486.43	15461.58
486.61	15611.37
486.78	15616.05
486.96	15946.07
487.14	15992.88
487.32	15976.50
487.50	16203.53
487.68	16500.78
487.85	16718.45
488.03	16835.47
488.21	16868.24
488.39	16699.72
488.57	17074.21
488.75	17092.93
488.92	17200.60
489.10	17680.41
489.28	17434.65
489.46	17511.89
489.64	17785.73
489.81	18132.13
489.99	17947.23
490.17	18064.25
490.35	18541.72
490.53	18298.31
490.70	18483.21
490.88	18988.77
491.06	18834.29
491.24	18838.97
491.41	18862.38
491.59	18916.21
491.77	18977.06
491.95	19190.05
492.13	19616.03
492.30	19606.67
492.48	19810.29
492.66	19840.72
492.84	19735.40
493.01	20180.10
493.19	20177.76
493.37	20173.08
493.54	20266.70
493.72	20713.74
493.90	20704.38
494.08	20723.10
494.25	21184.19
494.43	20973.54
494.61	21172.49
494.79	21425.26
494.96	21081.21
495.14	21153.76
495.32	21542.29
495.49	21446.33
495.67	21404.20
495.85	21682.72
496.02	21778.68
496.20	22340.41
496.38	21914.44
496.55	22169.55
496.73	22651.70
496.91	22345.09
497.09	22569.79
497.26	22785.12
497.44	22885.76
497.62	22874.06
497.79	23000.44
497.97	23049.60
498.14	23229.82
498.32	23274.29
498.50	23447.49
498.67	23585.58
498.85	23304.71
499.03	23910.91
499.20	24198.80
499.38	23758.78
499.56	24259.65
499.73	24479.66
499.91	24580.31
500.08	24575.62
500.26	24353.27
500.44	24318.17
500.61	24809.68
500.79	24491.37
500.97	24865.85
501.14	24758.19
501.32	25118.63
501.49	24912.66
501.67	25186.50
501.84	24980.54
502.02	25301.19
502.20	25282.47
502.37	25572.69
502.55	25605.46
502.72	26073.57
502.90	25355.02
503.07	25413.54
503.25	25642.91
503.43	25855.90
503.60	26235.06
503.78	25872.28
503.95	25900.37
504.13	26295.92
504.30	26410.60
504.48	26183.57
504.65	26401.24
504.83	26731.26
505.01	26740.62
505.18	26822.54
505.36	27576.19
505.53	27140.85
505.71	27028.51
505.88	27714.28
506.06	26752.32
506.23	27192.34
506.41	27215.75
506.58	27225.11
506.76	27400.65
506.93	27599.60
507.11	27538.74
507.28	27906.21
507.46	27470.87
507.63	27772.80
507.81	28013.87
507.98	27779.82
508.16	28151.96
508.33	28116.86
508.50	28601.35
508.68	28271.33
508.85	28835.40
509.03	28613.05
509.20	28276.01
509.38	28844.76
509.55	28886.89
509.73	28868.17
509.90	28849.44
510.08	28650.50
510.25	29064.77
510.42	29013.28
510.60	28734.76
510.77	29252.02
510.95	29413.51
511.12	29706.08
511.30	29324.57
511.47	29916.73
511.64	30211.64
511.82	29755.23
511.99	29736.51
512.17	30089.93
512.34	29649.91
512.51	30300.58
512.69	30331.00
512.86	30483.14
513.04	30487.82
513.21	30384.83
513.38	30600.16
513.56	30494.84
513.73	30536.97
513.90	30796.77
514.08	30487.82
514.25	30831.88
514.43	30567.40
514.60	30738.26
514.77	31194.66
514.95	31016.78
515.12	30923.16
515.29	30946.56
515.47	31503.61
515.64	31873.42
515.81	31264.88
515.99	31608.93
516.16	31187.64
516.33	31372.54
516.51	31407.65
516.68	31456.80
516.85	31517.65
517.03	31356.16
517.20	31632.34
517.37	31786.82
517.54	32301.73
517.72	32133.21
517.89	32009.17
518.06	32067.68
518.24	31850.01
518.41	31983.42
518.58	32151.94
518.75	32273.65
518.93	33071.77
519.10	32278.33
519.27	32804.95
519.45	32748.78
519.62	32725.37
519.79	32671.54
519.96	32800.27
520.14	33006.23
520.31	32870.48
520.48	33088.15
520.65	33160.71
520.83	33860.53
521.00	33783.29
521.17	33724.78
521.34	33790.31
521.52	33776.27
521.69	33731.80
521.86	33888.62
522.03	33879.25
522.20	33940.11
522.38	33851.17
522.55	34227.99
522.72	33912.02
522.89	33930.75
523.07	34267.78
523.24	34188.21
523.41	33919.04
523.58	34265.44
523.75	34602.48
523.92	34450.35
524.10	34855.26
524.27	34632.91
524.44	34747.59
524.61	34803.77
524.78	34855.26
524.96	35082.29
525.13	35075.27
525.30	35140.80
525.47	35091.65
525.64	35433.37
525.81	35204.00
525.98	35175.91
526.16	35304.64
526.33	35328.05
526.50	35543.38
526.67	35023.78
526.84	35204.00
527.01	35475.50
527.18	35445.07
527.36	36112.13
527.53	35615.93
527.70	36217.45
527.87	35693.17
528.04	35922.54
528.21	35990.42
528.38	35913.18
528.55	36280.64
528.72	36133.19
528.89	36311.07
529.07	36538.10
529.24	35988.08
529.41	36360.22
529.58	36704.28
529.75	36119.15
529.92	36343.84
530.09	36273.62
530.26	36807.26
530.43	36823.65
530.60	36390.65
530.77	37062.38
530.94	36713.64
531.11	36854.08
531.28	36531.08
531.46	36690.24
531.63	37195.79
531.80	37165.37
531.97	37116.22
532.14	37041.32
532.31	36919.61
532.48	37352.61
532.65	36879.82
532.82	37301.12
532.99	37811.35
533.16	37263.67
533.33	37443.89
533.50	37228.56
533.67	37581.98
533.84	36903.23
534.01	37787.95
534.18	37736.46
534.35	38246.69
534.52	37542.19
534.69	38005.62
534.86	38127.33
535.03	37970.51
535.20	38251.38
535.37	38014.98
535.54	38450.32
535.71	38330.95
535.88	38071.15
536.05	38082.86
536.22	38508.83
536.38	38075.84
536.55	38305.21
536.72	38387.13
536.89	38323.93
537.06	38359.04
537.23	38033.71
537.40	38466.70
537.57	38447.98
537.74	38347.34
537.91	38792.04
538.08	38808.42
538.25	38560.33
538.42	38660.97
538.59	39028.43
538.75	38979.28
538.92	38983.96
539.09	38759.27
539.26	38932.47
539.43	39292.91
539.60	39054.18
539.77	39185.25
539.94	39168.87
540.11	39005.03
540.28	39388.88
540.44	39416.96
540.61	39189.93
540.78	39356.11
540.95	39367.81
541.12	39512.92
541.29	39400.58
541.46	39594.84
541.62	39878.05
541.79	39679.10
541.96	39328.02
542.13	39665.06
542.30	39463.77
542.47	40011.46
542.63	39803.15
542.80	40217.43
542.97	40133.17
543.14	40486.59
543.31	40395.31
543.48	40271.26
543.64	40502.97
543.81	40201.04
543.98	40694.89
544.15	40741.71
544.32	40617.66
544.48	40889.16
544.65	40650.42
544.82	41116.19
544.99	40076.99
545.16	40950.01
545.32	40500.63
545.49	40629.36
545.66	40376.58
545.83	41020.23
546.00	41137.26
546.16	41170.02
546.33	40605.95
546.50	40584.89
546.67	41265.99
546.83	40563.82
547.00	40847.03
547.17	40924.27
547.34	40959.38
547.50	41294.07
547.67	41270.67
547.84	41191.09
548.00	41500.04
548.17	41605.36
548.34	41237.90
548.51	41825.37
548.67	42036.02
548.84	41914.31
549.01	41186.41
549.18	41247.26
549.34	42162.41
549.51	41710.69
549.68	41862.82
549.84	41888.57
550.01	41581.96
550.18	41869.84
550.34	42047.72
550.51	41745.80
550.68	41696.64
550.84	41092.79
551.01	41584.30
551.18	41935.38
551.34	41951.76
551.51	42171.77
551.68	42291.14
551.84	42454.98
552.01	42110.92
552.18	41806.65
552.34	41911.97
552.51	42239.65
552.68	42000.91
552.84	41977.51
553.01	42766.27
553.18	42047.72
553.34	42347.31
553.51	41975.17
553.67	42190.50
553.84	42822.44
554.01	42644.56
554.17	42670.31
554.34	42913.72
554.51	42164.75
554.67	42724.14
554.84	42564.98
555.00	42831.80
555.17	42473.70
555.33	42518.17
555.50	42780.31
555.67	42632.86
555.83	42740.52
556.00	43061.18
556.16	42775.63
556.33	43077.56
556.50	42897.34
556.66	43145.44
556.83	42588.39
556.99	43297.57
557.16	42983.94
557.32	43112.67
557.49	42803.72
557.65	42902.02
557.82	42686.69
557.98	42574.34
558.15	42895.00
558.32	43285.87
558.48	43323.32
558.65	43597.16
558.81	42951.17
558.98	43168.84
559.14	43585.46
559.31	43302.25
559.47	43475.45
559.64	43519.92
559.80	43274.16
559.97	43201.61
560.13	43253.10
560.30	43428.64
560.46	42979.26
560.63	43161.82
560.79	43475.45
560.96	43548.01
561.12	43082.24
561.29	43412.26
561.45	43543.33
561.61	43363.11
561.78	43737.59
561.94	42993.30
562.11	43356.08
562.27	43313.95
562.44	43676.74
562.60	43627.59
562.77	44016.11
562.93	43826.53
563.10	43831.21
563.26	43363.11
563.42	43866.32
563.59	43620.56
563.75	43686.10
563.92	43896.75
564.08	43805.47
564.24	44201.02
564.41	44030.16
564.57	43578.43
564.74	43632.27
564.90	44275.91
565.07	44109.74
565.23	44086.33
565.39	43728.23
565.56	44100.37
565.72	43833.55
565.88	43765.68
566.05	43428.64
566.21	43735.25
566.38	43803.13
566.54	43761.00
566.70	44044.20
566.87	44161.23
567.03	43784.40
567.19	44910.20
567.36	43985.69
567.52	44023.14
567.68	44025.48
567.85	44449.11
568.01	44325.07
568.17	43889.73
568.34	43931.86
568.50	44081.65
568.66	43997.39
568.83	44009.09
568.99	44151.87
569.15	44083.99
569.32	44135.48
569.48	43683.76
569.64	44357.83
569.81	44430.39
569.97	43945.90
570.13	44210.38
570.30	43751.63
570.46	43959.94
570.62	43833.55
570.78	43728.23
570.95	43885.04
571.11	44498.26
571.27	44219.74
571.43	43927.17
571.60	44261.87
571.76	43955.26
571.92	44182.29
572.09	44463.16
572.25	44444.43
572.41	44201.02
572.57	44395.28
572.74	44975.73
572.90	44402.30
573.06	44210.38
573.22	44137.82
573.38	44411.67
573.55	44376.56
573.71	44137.82
573.87	44526.35
574.03	44217.40
574.20	43999.73
574.36	44704.23
574.52	44453.79
574.68	44205.70
574.84	44694.87
575.01	44336.77
575.17	44114.42
575.33	44184.63
575.49	44114.42
575.65	44516.99
575.82	44608.27
575.98	44701.89
576.14	45120.85
576.30	44987.44
576.46	43908.45
576.62	44098.03
576.79	44481.88
576.95	44383.58
577.11	44591.89
577.27	44722.96
577.43	44601.25
577.59	44378.90
577.75	44238.47
577.92	44280.60
578.08	43964.62
578.24	44240.81
578.40	44430.39
578.56	44034.84
578.72	44411.67
578.88	44744.02
579.04	44524.01
579.21	44327.41
579.37	44697.21
579.53	44296.98
579.69	44098.03
579.85	44446.77
580.01	44397.62
580.17	44816.58
580.33	44458.48
580.49	44891.48
580.65	44320.38
580.82	44795.51
580.98	44734.66
581.14	44339.11
581.30	44547.42
581.46	44491.24
581.62	44683.17
581.78	44603.59
581.94	44842.32
582.10	44355.49
582.26	45048.29
582.42	44615.29
582.58	44657.42
582.74	44083.99
582.90	44481.88
583.06	44596.57
583.22	44535.71
583.38	44552.10
583.54	44854.03
583.70	44652.74
583.86	44491.24
584.02	44105.06
584.18	44587.21
584.34	44648.06
584.50	44669.12
584.66	44542.74
584.82	44133.14
584.98	44884.45
585.14	44626.99
585.30	44252.51
585.46	44683.17
585.62	44479.54
585.78	44268.89
585.94	44465.50
586.10	44357.83
586.26	44329.75
586.42	44636.36
586.58	44732.32
586.74	44727.64
586.90	44531.03
587.06	44479.54
587.22	44662.10
587.38	44273.57
587.54	44814.24
587.70	44547.42
587.86	44385.92
588.02	44275.91
588.18	45127.87
588.34	44748.70
588.49	44296.98
588.65	44432.73
588.81	44350.81
588.97	44610.61
589.13	44254.85
589.29	44971.05
589.45	44540.39
589.61	44762.75
589.77	45268.30
589.93	45120.85
590.08	44776.79
590.24	45052.97
