SpectraSuite Data File
++++++++++++++++++++++++++++++++++++
Date: Fri Oct 25 11:23:00 EDT 2013
User: price-jones
Dark Spectrum Present: No
Reference Spectrum Present: No
Number of Sampled Component Spectra: 1
Spectrometers: USB2+H05261
Integration Time (usec): 100000 (USB2+H05261)
Spectra Averaged: 1 (USB2+H05261)
Boxcar Smoothing: 0 (USB2+H05261)
Correct for Electrical Dark: No (USB2+H05261)
Strobe/Lamp Enabled: No (USB2+H05261)
Correct for Detector Non-linearity: No (USB2+H05261)
Correct for Stray Light: No (USB2+H05261)
Number of Pixels in Processed Spectrum: 2048
>>>>>Begin Processed Spectral Data<<<<<
365.73	208.31
365.92	208.31
366.12	208.31
366.32	145.11
366.52	70.22
366.72	152.13
366.91	91.28
367.11	102.98
367.31	91.28
367.51	107.66
367.70	124.05
367.90	131.07
368.10	152.13
368.30	107.66
368.49	121.71
368.69	119.37
368.89	93.62
369.09	133.41
369.28	100.64
369.48	152.13
369.68	119.37
369.87	208.31
370.07	159.16
370.27	210.65
370.47	353.42
370.66	552.37
370.86	636.63
371.06	601.52
371.25	613.22
371.45	669.39
371.65	613.22
371.84	657.69
372.04	725.57
372.24	678.76
372.44	674.07
372.63	676.41
372.83	784.08
373.03	730.25
373.22	734.93
373.42	718.54
373.62	807.48
373.81	760.67
374.01	837.91
374.21	807.48
374.40	772.38
374.60	894.08
374.79	748.97
374.99	861.32
375.19	807.48
375.38	779.40
375.58	758.33
375.78	847.27
375.97	891.74
376.17	896.43
376.37	800.46
376.56	826.21
376.76	835.57
376.95	844.93
377.15	814.51
377.35	898.77
377.54	922.17
377.74	947.92
377.93	870.68
378.13	964.30
378.33	901.11
378.52	891.74
378.72	947.92
378.91	968.98
379.11	908.13
379.31	959.62
379.50	919.83
379.70	1015.79
379.89	999.41
380.09	968.98
380.28	976.00
380.48	983.02
380.68	987.71
380.87	952.60
381.07	959.62
381.26	1071.97
381.46	1041.54
381.65	1041.54
381.85	1025.15
382.04	1071.97
382.24	1032.18
382.43	1046.22
382.63	1086.01
382.83	1149.20
383.02	1146.86
383.22	1135.16
383.41	1170.27
383.61	1100.05
383.80	1100.05
384.00	1121.12
384.19	1118.78
384.39	1193.67
384.58	1086.01
384.78	1153.88
384.97	1149.20
385.17	1188.99
385.36	1167.93
385.56	1205.38
385.75	1177.29
385.95	1170.27
386.14	1228.78
386.34	1153.88
386.53	1174.95
386.72	1078.99
386.92	1172.61
387.11	1261.55
387.31	1205.38
387.50	1196.01
387.70	1191.33
387.89	1233.46
388.09	1280.27
388.28	1301.34
388.48	1238.14
388.67	1277.93
388.86	1387.94
389.06	1324.74
389.25	1254.53
389.45	1401.98
389.64	1296.66
389.84	1413.68
390.03	1380.92
390.22	1376.24
390.42	1437.09
390.61	1313.04
390.81	1390.28
391.00	1317.72
391.19	1439.43
391.39	1460.49
391.58	1488.58
391.78	1416.02
391.97	1488.58
392.16	1465.18
392.36	1607.95
392.55	1577.52
392.75	1629.01
392.94	1495.60
393.13	1561.14
393.33	1495.60
393.52	1568.16
393.71	1621.99
393.91	1605.61
394.10	1605.61
394.29	1666.46
394.49	1626.67
394.68	1715.61
394.88	1547.09
395.07	1647.74
395.26	1586.88
395.46	1661.78
395.65	1687.53
395.84	1729.66
396.04	1701.57
396.23	1732.00
396.42	1764.76
396.62	1685.19
396.81	1792.85
397.00	1825.62
397.19	1659.44
397.39	1799.87
397.58	1790.51
397.77	1874.77
397.97	1858.39
398.16	1809.23
398.35	1909.88
398.55	1874.77
398.74	1884.13
398.93	1884.13
399.12	1989.46
399.32	1902.86
399.51	1975.41
399.70	2019.88
399.90	2031.58
400.09	2085.42
400.28	2031.58
400.47	2108.82
400.67	2008.18
400.86	2111.16
401.05	2038.61
401.24	2078.40
401.44	2139.25
401.63	2279.68
401.82	2146.27
402.01	2174.36
402.21	2101.80
402.40	2153.29
402.59	2186.06
402.78	2150.95
402.97	2202.44
403.17	2307.77
403.36	2293.72
403.55	2354.58
403.74	2373.30
403.93	2389.69
404.13	2249.25
404.32	2441.18
404.51	2359.26
404.70	2513.74
404.89	2473.95
405.09	2553.52
405.28	2574.59
405.47	2506.71
405.66	2511.39
405.85	2558.21
406.05	2490.33
406.24	2581.61
406.43	2525.44
406.62	2700.98
406.81	2766.51
407.00	2658.85
407.20	2583.95
407.39	2731.41
407.58	2796.94
407.77	2717.36
407.96	2693.96
408.15	2846.09
408.34	2672.89
408.54	2878.86
408.73	2885.88
408.92	2825.03
409.11	2820.35
409.30	2878.86
409.49	2867.16
409.68	3073.12
409.87	3038.02
410.07	3096.53
410.26	2979.50
410.45	2953.76
410.64	3164.40
410.83	3059.08
411.02	3171.43
411.21	3183.13
411.40	3049.72
411.59	3372.71
411.78	3316.54
411.98	3293.13
412.17	3403.14
412.36	3300.16
412.55	3414.84
412.74	3386.76
412.93	3267.39
413.12	3456.97
413.31	3485.06
413.50	3454.63
413.69	3550.59
413.88	3581.02
414.07	3618.47
414.26	3578.68
414.45	3751.88
414.64	3669.96
414.83	3742.52
415.02	3719.11
415.22	3831.46
415.41	3826.78
415.60	3985.93
415.79	3957.85
415.98	3887.63
416.17	4032.74
416.36	4042.11
416.55	3950.82
416.74	4100.62
416.93	4159.13
417.12	4112.32
417.31	4280.84
417.50	4215.30
417.69	4367.44
417.88	4301.90
418.07	4351.06
418.26	4369.78
418.45	4311.27
418.64	4531.28
418.83	4423.61
419.02	4477.44
419.21	4601.49
419.39	4503.19
419.58	4493.83
419.77	4353.40
419.96	4519.57
420.15	4514.89
420.34	4592.13
420.53	4613.20
420.72	4638.94
420.91	4575.75
421.10	4739.58
421.29	4788.74
421.48	4760.65
421.67	4681.07
421.86	4830.87
422.05	4854.27
422.24	4922.15
422.43	4844.91
422.61	4830.87
422.80	4961.94
422.99	4975.98
423.18	4961.94
423.37	4973.64
423.56	5069.60
423.75	4891.72
423.94	4901.08
424.13	4683.41
424.32	4655.33
424.50	4961.94
424.69	5046.20
424.88	5055.56
425.07	5025.13
425.26	4994.70
425.45	4891.72
425.64	4873.00
425.83	4983.00
426.01	5095.35
426.20	5067.26
426.39	5137.48
426.58	5067.26
426.77	5135.14
426.96	5118.75
427.15	5172.58
427.33	5221.74
427.52	5170.24
427.71	5359.83
427.90	5371.53
428.09	5418.34
428.28	5509.62
428.46	5390.25
428.65	5479.19
428.84	5502.60
429.03	5486.22
429.22	5406.64
429.40	5631.33
429.59	5523.66
429.78	5294.29
429.97	5420.68
430.16	5481.53
430.34	5685.16
430.53	5654.73
430.72	5617.29
430.91	5774.10
431.10	5474.51
431.28	5570.48
431.47	5865.38
431.66	5891.13
431.85	5813.89
432.03	5973.05
432.22	6017.52
432.41	5982.41
432.60	5949.64
432.79	5900.49
432.97	6108.80
433.16	6139.23
433.35	6050.28
433.54	6059.65
433.72	6197.74
433.91	6090.07
434.10	6258.59
434.28	6303.06
434.47	6195.40
434.66	6303.06
434.85	6160.29
435.03	6359.24
435.22	6256.25
435.41	6609.67
435.59	6548.82
435.78	6450.52
435.97	6438.81
436.16	6340.51
436.34	6396.68
436.53	6464.56
436.72	6733.72
436.90	6494.99
437.09	6651.80
437.28	6473.92
437.46	6778.19
437.65	6630.74
437.84	6942.03
438.02	6785.21
438.21	6743.08
438.40	6726.70
438.58	7035.65
438.77	7023.95
438.96	6871.81
439.14	7173.74
439.33	7262.68
439.52	7302.47
439.70	7417.16
439.89	7496.74
440.08	7524.82
440.26	7328.22
440.45	7499.08
440.63	7726.11
440.82	7695.68
441.01	7545.89
441.19	7559.93
441.38	7679.30
441.57	7756.54
441.75	7943.78
441.94	8035.06
442.12	7983.57
442.31	8189.53
442.50	8105.28
442.68	7885.26
442.87	7976.55
443.05	8219.96
443.24	8287.84
443.43	8107.62
443.61	8271.45
443.80	8524.23
443.98	8226.98
444.17	7880.58
444.35	8383.80
444.54	8486.78
444.73	8367.42
444.91	8301.88
445.10	8423.59
445.28	8402.52
445.47	8369.76
445.65	8425.93
445.84	8533.59
446.02	8542.96
446.21	8458.70
446.39	8332.31
446.58	8451.67
446.77	8697.43
446.95	8353.37
447.14	8568.70
447.32	8692.75
447.51	8557.00
447.69	8416.57
447.88	8720.84
448.06	8648.28
448.25	8559.34
448.43	8676.37
448.62	8664.66
448.80	8669.34
448.99	8704.45
449.17	8879.99
449.36	8613.17
449.54	8997.02
449.73	8999.36
449.91	9067.24
450.10	9081.28
450.28	9085.96
450.46	9160.86
450.65	9116.39
450.83	9200.65
451.02	9097.66
451.20	9193.62
451.39	9055.53
451.57	9390.23
451.76	9149.15
451.94	9207.67
452.13	9509.60
452.31	9359.80
452.49	9427.68
452.68	9600.88
452.86	9298.95
453.05	9495.55
453.23	9472.15
453.42	9282.56
453.60	9231.07
453.78	9706.20
453.97	9486.19
454.15	9509.60
454.34	9626.62
454.52	9682.80
454.70	9846.63
454.89	9715.56
455.07	9879.40
455.26	9961.32
455.44	10120.48
455.62	9870.04
455.81	10071.33
455.99	10003.45
456.17	10043.24
456.36	9989.41
456.54	10094.73
456.73	10258.57
456.91	10583.90
457.09	10408.36
457.28	10761.78
457.46	10366.23
457.64	10745.40
457.83	10527.73
458.01	10235.16
458.19	10497.30
458.38	10553.48
458.56	10958.39
458.74	10717.31
458.93	10604.97
459.11	10874.13
459.29	10766.46
459.48	10782.85
459.66	10789.87
459.84	11169.04
460.03	11173.72
460.21	11110.52
460.39	10906.90
460.57	10979.45
460.76	11229.89
460.94	11375.00
461.12	11147.97
461.31	11316.49
461.49	11290.74
461.67	11407.77
461.85	11487.35
462.04	11419.47
462.22	11777.58
462.40	11632.46
462.59	11606.72
462.77	11482.67
462.95	11705.02
463.13	11690.98
463.32	11772.89
463.50	11587.99
463.68	11918.01
463.86	11978.86
464.05	11826.73
464.23	11852.47
464.41	12149.72
464.59	11728.42
464.78	12308.88
464.96	12161.42
465.14	11861.84
465.32	12138.02
465.50	12203.55
465.69	12060.78
465.87	12219.94
466.05	12189.51
466.23	12308.88
466.41	12224.62
466.60	12802.73
466.78	12493.78
466.96	12077.16
467.14	12322.92
467.32	12587.40
467.51	12805.07
467.69	12098.23
467.87	12568.68
468.05	12699.75
468.23	12252.70
468.41	12706.77
468.60	12688.04
468.78	12915.08
468.96	12643.57
469.14	12975.93
469.32	13252.11
469.50	12755.92
469.69	12840.18
469.87	13078.91
470.05	13146.79
470.23	12901.03
470.41	13252.11
470.59	13373.82
470.77	13317.65
470.95	13614.90
471.14	13657.03
471.32	13153.81
471.50	13699.16
471.68	13715.54
471.86	13654.69
472.04	13743.63
472.22	14064.28
472.40	13633.62
472.58	14083.00
472.77	13909.80
472.95	14277.27
473.13	14628.35
473.31	14354.51
473.49	14310.04
473.67	14249.18
473.85	14338.12
474.03	14642.39
474.21	14738.35
474.39	14944.32
474.57	14647.07
474.75	14923.26
474.93	15028.58
475.12	15145.61
475.30	15477.96
475.48	15370.30
475.66	15101.14
475.84	15316.47
476.02	15248.59
476.20	15410.09
476.38	15889.90
476.56	16159.06
476.74	16016.29
476.92	16004.58
477.10	16020.97
477.28	16353.32
477.46	16273.74
477.64	16608.44
477.82	16788.66
478.00	16952.50
478.18	16704.40
478.36	16987.61
478.54	17420.61
478.72	17476.78
478.90	17530.61
479.08	17586.79
479.26	17951.91
479.44	17975.31
479.62	17916.80
479.80	18267.88
479.98	18230.43
480.16	18827.27
480.34	18740.67
480.52	18874.08
480.70	19089.41
480.88	18228.09
481.06	19023.87
481.24	19016.85
481.41	19508.37
481.59	19499.00
481.77	19632.41
481.95	19669.86
482.13	20074.77
482.31	19721.35
482.49	20512.46
482.67	20325.21
482.85	20662.25
483.03	21120.99
483.21	20856.51
483.39	21048.44
483.57	21373.77
483.74	21317.60
483.92	21481.44
484.10	21228.66
484.28	21818.47
484.46	22207.00
484.64	22382.54
484.82	21743.58
485.00	22576.81
485.18	22686.81
485.35	23225.14
485.53	22824.90
485.71	23424.08
485.89	23667.50
486.07	23487.28
486.25	23367.91
486.43	24018.58
486.61	24027.94
486.78	24049.00
486.96	24072.41
487.14	24580.31
487.32	24959.47
487.50	25294.17
487.68	25177.14
487.85	25490.77
488.03	25509.50
488.21	26139.10
488.39	25792.70
488.57	26525.29
488.75	26195.28
488.92	26892.76
489.10	26761.69
489.28	26817.86
489.46	27391.29
489.64	27206.39
489.81	28147.28
489.99	28002.17
490.17	28119.20
490.35	28254.95
490.53	28292.40
490.70	28517.09
490.88	28140.26
491.06	29090.52
491.24	29116.26
491.41	29670.97
491.59	29551.60
491.77	29465.00
491.95	30087.59
492.13	29727.14
492.30	30253.76
492.48	30359.09
492.66	30408.24
492.84	30450.37
493.01	30799.11
493.19	31051.89
493.37	31185.30
493.54	31524.68
493.72	31658.09
493.90	31599.57
494.08	31999.80
494.25	32395.35
494.43	32385.99
494.61	32989.85
494.79	32882.19
494.96	32968.79
495.14	33170.07
495.32	33528.17
495.49	33378.38
495.67	33668.61
495.85	34178.84
496.02	34146.08
496.20	33900.32
496.38	34534.60
496.55	34525.24
496.73	34995.69
496.91	34803.77
497.09	35257.83
497.26	35402.94
497.44	35344.43
497.62	35456.78
497.79	36098.08
497.97	36051.27
498.14	36030.21
498.32	36598.96
498.50	36718.32
498.67	37046.00
498.85	36636.41
499.03	37156.00
499.20	37015.57
499.38	36891.52
499.56	37350.27
499.73	37642.84
499.91	37516.45
500.08	37921.36
500.26	37818.38
500.44	37991.58
500.61	38115.62
500.79	38106.26
500.97	38309.89
501.14	39068.22
501.32	38630.54
501.49	38965.24
501.67	39203.97
501.84	39002.69
502.02	39037.80
502.20	39412.28
502.37	39597.18
502.55	39541.01
502.72	39988.05
502.90	39866.34
503.07	39658.04
503.25	40100.40
503.43	40053.59
503.60	40065.29
503.78	40697.24
503.95	40938.31
504.13	40720.64
504.30	41055.34
504.48	40762.77
504.65	40711.28
504.83	41385.35
505.01	41813.67
505.18	41284.71
505.36	42029.00
505.53	41553.87
505.71	42146.03
505.88	42183.48
506.06	41783.24
506.23	42302.84
506.41	42471.36
506.58	42373.06
506.76	42850.53
506.93	42876.27
507.11	42674.99
507.28	42639.88
507.46	43323.32
507.63	43107.99
507.81	43529.28
507.98	43028.41
508.16	43484.81
508.33	44126.12
508.50	43676.74
508.68	44217.40
508.85	44261.87
509.03	44186.97
509.20	44495.92
509.38	44566.14
509.55	45064.67
509.73	45010.84
509.90	45036.59
510.08	44811.90
510.25	44753.38
510.42	45305.75
510.60	45092.76
510.77	45303.41
510.95	45670.87
511.12	45567.89
511.30	45237.87
511.47	45595.98
511.64	46263.03
511.82	46014.93
511.99	46150.68
512.17	46476.02
512.34	46424.53
512.51	46651.56
512.69	46820.08
512.86	46646.88
513.04	47058.81
513.21	47236.69
513.38	47234.35
513.56	47330.31
513.73	47302.23
513.90	47136.05
514.08	47264.78
514.25	47206.26
514.43	47725.86
514.60	47487.13
514.77	47690.76
514.95	48268.87
515.12	47878.00
515.29	47550.32
515.47	48327.38
515.64	48566.12
515.81	48252.48
515.99	48633.99
516.16	48533.35
516.33	48633.99
516.51	49270.62
516.68	48645.69
516.85	48765.06
517.03	49198.06
517.20	49382.96
517.37	49212.10
517.54	49191.04
517.72	49055.29
517.89	49528.08
518.06	49666.17
518.24	49399.35
518.41	49684.89
518.58	49684.89
518.75	49249.55
518.93	49773.83
519.10	49794.90
519.27	50389.39
519.45	49947.03
519.62	50721.75
519.79	50342.58
519.96	50466.63
520.14	50410.46
520.31	50438.54
520.48	50513.44
520.65	50628.13
520.83	51016.66
521.00	51290.50
521.17	50775.58
521.34	50927.72
521.52	51014.32
521.69	50838.78
521.86	51278.80
522.03	51271.78
522.20	51524.55
522.38	51810.10
522.55	51515.19
522.72	51664.99
522.89	51480.08
523.07	52175.22
523.24	52041.81
523.41	51929.47
523.58	51807.76
523.75	52301.61
523.92	52186.92
524.10	52374.17
524.27	52294.59
524.44	52135.43
524.61	52215.01
524.78	52367.15
524.96	52549.71
525.13	52549.71
525.30	52692.48
525.47	52697.16
525.64	52842.27
525.81	52987.39
525.98	52804.83
526.16	52788.44
526.33	53020.16
526.50	53315.06
526.67	53209.74
526.84	53340.81
527.01	53106.76
527.18	52994.41
527.36	53221.44
527.53	53380.60
527.70	53329.11
527.87	53485.92
528.04	53504.65
528.21	53883.81
528.38	53413.37
528.55	53677.85
528.72	53787.85
528.89	53628.69
529.07	53469.54
529.24	53759.76
529.41	54258.30
529.58	54080.42
529.75	54012.54
529.92	53893.18
530.09	54087.44
530.26	54087.44
530.43	54415.11
530.60	54017.22
530.77	54288.73
530.94	54279.36
531.11	54412.77
531.28	54337.88
531.46	54391.71
531.63	54485.33
531.80	54391.71
531.97	54541.50
532.14	54717.04
532.31	54770.88
532.48	54672.57
532.65	54798.96
532.82	54808.32
532.99	54644.49
533.16	54871.52
533.33	55112.59
533.50	54979.18
533.67	54885.56
533.84	55018.97
534.01	55271.75
534.18	55070.46
534.35	55531.55
534.52	55412.18
534.69	55505.80
534.86	55529.21
535.03	55398.14
535.20	55501.12
535.37	55463.67
535.54	55456.65
535.71	55283.45
535.88	55725.81
536.05	55781.99
536.22	55856.88
536.38	55742.20
536.55	55753.90
536.72	55725.81
536.89	55646.24
537.06	55786.67
537.23	56034.77
537.40	55835.82
537.57	55803.05
537.74	55866.25
537.91	56399.89
538.08	56273.50
538.25	55955.19
538.42	56044.13
538.59	56430.32
538.75	56090.94
538.92	56437.34
539.09	56528.62
539.26	56339.04
539.43	56367.12
539.60	56479.47
539.77	56435.00
539.94	56694.80
540.11	56542.66
540.28	56678.41
540.44	57015.45
540.61	56718.20
540.78	56491.17
540.95	56559.05
541.12	56537.98
541.29	56566.07
541.46	56683.09
541.62	56645.65
541.79	56912.47
541.96	56516.92
542.13	56725.22
542.30	56924.17
542.47	57123.11
542.63	57090.35
542.80	57017.79
542.97	57476.54
543.14	57359.51
543.31	57359.51
543.48	57382.91
543.64	57832.30
543.81	57705.91
543.98	57476.54
544.15	57607.61
544.32	57705.91
544.48	58038.26
544.65	57591.22
544.82	57525.69
544.99	57602.92
545.16	57731.65
545.32	57642.71
545.49	57771.44
545.66	57778.46
545.83	57715.27
546.00	57951.66
546.16	57853.36
546.33	57895.49
546.50	57705.91
546.67	58000.82
546.83	57584.20
547.00	58033.58
547.17	58183.38
547.34	57963.37
547.50	57911.88
547.67	58307.43
547.84	58202.10
548.00	58246.57
548.17	58405.73
548.34	58560.20
548.51	58506.37
548.67	58504.03
548.84	58330.83
549.01	58394.03
549.18	58351.90
549.34	58305.09
549.51	58508.71
549.68	58738.08
549.84	58719.36
550.01	58656.17
550.18	58316.79
550.34	58630.42
550.51	58782.55
550.68	58592.97
550.84	58504.03
551.01	58855.11
551.18	58506.37
551.34	58731.06
551.51	58862.13
551.68	58754.47
551.84	58679.57
552.01	58880.86
552.18	59025.97
552.34	58646.80
552.51	58920.65
552.68	58843.41
552.84	58742.77
553.01	59107.89
553.18	58901.92
553.34	59077.46
553.51	59044.69
553.67	59210.87
553.84	59105.55
554.01	59210.87
554.17	59107.89
554.34	59316.20
554.51	59374.71
554.67	59192.15
554.84	59194.49
555.00	59245.98
555.17	59096.19
555.33	59206.19
555.50	59150.02
555.67	59269.39
555.83	59353.65
556.00	59351.30
556.16	59463.65
556.33	59545.57
556.50	59599.40
556.66	59571.32
556.83	59367.69
556.99	59531.53
557.16	59758.56
557.32	59402.80
557.49	59952.82
557.65	59585.36
557.82	59522.16
557.98	59725.79
558.15	59552.59
558.32	59728.13
558.48	59503.44
558.65	59634.51
558.81	59891.97
558.98	59632.17
559.14	59770.26
559.31	59915.37
559.47	60060.49
559.64	59966.87
559.80	60009.00
559.97	59952.82
560.13	59915.37
560.30	60126.02
560.46	59948.14
560.63	59964.52
560.79	60229.01
560.96	60032.40
561.12	59990.27
561.29	59992.61
561.45	59847.50
561.61	60009.00
561.78	60048.78
561.94	60055.81
562.11	60100.28
562.27	60090.91
562.44	60165.81
562.60	60240.71
562.77	60165.81
562.93	59976.23
563.10	60191.56
563.26	60200.92
563.42	60392.84
563.59	60308.58
563.75	60278.16
563.92	60100.28
564.08	60275.82
564.24	60310.92
564.41	60552.00
564.57	60292.20
564.74	60280.50
564.90	60383.48
565.07	60217.30
565.23	60369.44
565.39	60456.04
565.56	60371.78
565.72	60135.38
565.88	60308.58
566.05	60308.58
566.21	60264.11
566.38	60523.91
566.54	60608.17
566.70	60633.92
566.87	60467.74
567.03	60289.86
567.19	60708.82
567.36	60498.17
567.52	60519.23
567.68	60706.47
567.85	60376.46
568.01	60619.88
568.17	60310.92
568.34	60559.02
568.50	60463.06
568.66	60477.10
568.83	60416.25
568.99	60559.02
569.15	60760.31
569.32	60626.90
569.48	60441.99
569.64	60884.36
569.81	60626.90
569.97	60388.16
570.13	60537.96
570.30	60441.99
570.46	60748.60
570.62	60823.50
570.78	60680.73
570.95	60795.42
571.11	60722.86
571.27	60772.01
571.43	60720.52
571.60	61001.38
571.76	60802.44
571.92	60879.67
572.09	60669.03
572.25	60676.05
572.41	60804.78
572.57	60860.95
572.74	61027.13
572.90	60783.71
573.06	60846.91
573.22	60669.03
573.38	60711.16
573.55	60839.89
573.71	61027.13
573.87	60860.95
574.03	60678.39
574.20	60940.53
574.36	60589.45
574.52	60795.42
574.68	61132.45
574.84	61001.38
575.01	60865.63
575.17	60818.82
575.33	60907.76
575.49	60795.42
575.65	61076.28
575.82	61085.64
575.98	61015.43
576.14	61200.33
576.30	61020.11
576.46	60846.91
576.62	60774.35
576.79	60842.23
576.95	60825.84
577.11	61155.86
577.27	61073.94
577.43	60760.31
577.59	60963.93
577.75	61029.47
577.92	60867.97
578.08	61034.15
578.24	61003.72
578.40	61190.97
578.56	61038.83
578.72	61013.08
578.88	61202.67
579.04	61179.26
579.21	61071.60
579.37	61195.65
579.53	61200.33
579.69	60882.02
579.85	61160.54
580.01	61130.11
580.17	60966.27
580.33	61059.90
580.49	61186.28
580.65	61111.39
580.82	60898.40
580.98	60940.53
581.14	60851.59
581.30	61099.68
581.46	61144.16
581.62	61268.20
581.78	61073.94
581.94	61310.33
582.10	61057.56
582.26	61146.50
582.42	61102.03
582.58	61050.53
582.74	61172.24
582.90	61141.81
583.06	61179.26
583.22	61162.88
583.38	61326.72
583.54	61193.31
583.70	61392.25
583.86	61104.37
584.02	61151.18
584.18	61315.01
584.34	61382.89
584.50	61223.73
584.66	61183.94
584.82	60889.04
584.98	61256.50
585.14	61305.65
585.30	60905.42
585.46	60996.70
585.62	61434.38
585.78	61413.32
585.94	61249.48
586.10	61078.62
586.26	61315.01
586.42	61249.48
586.58	61418.00
586.74	61221.39
586.90	61422.68
587.06	61118.41
587.22	61258.84
587.38	61296.29
587.54	61415.66
587.70	61586.52
587.86	61275.22
588.02	61216.71
588.18	61469.49
588.34	61279.91
588.49	61324.38
