SpectraSuite Data File
++++++++++++++++++++++++++++++++++++
Date: Fri Oct 25 11:25:27 EDT 2013
User: price-jones
Dark Spectrum Present: No
Reference Spectrum Present: No
Number of Sampled Component Spectra: 1
Spectrometers: USB2+H05261
Integration Time (usec): 100000 (USB2+H05261)
Spectra Averaged: 1 (USB2+H05261)
Boxcar Smoothing: 0 (USB2+H05261)
Correct for Electrical Dark: No (USB2+H05261)
Strobe/Lamp Enabled: No (USB2+H05261)
Correct for Detector Non-linearity: No (USB2+H05261)
Correct for Stray Light: No (USB2+H05261)
Number of Pixels in Processed Spectrum: 2048
>>>>>Begin Processed Spectral Data<<<<<
365.73	248.10
365.92	248.10
366.12	248.10
366.32	161.50
366.52	124.05
366.72	156.82
366.91	135.75
367.11	91.28
367.31	180.22
367.51	124.05
367.70	161.50
367.90	187.24
368.10	131.07
368.30	149.79
368.49	170.86
368.69	119.37
368.89	187.24
369.09	166.18
369.28	184.90
369.48	161.50
369.68	184.90
369.87	142.77
370.07	175.54
370.27	248.10
370.47	348.74
370.66	496.19
370.86	697.48
371.06	627.26
371.25	692.80
371.45	667.05
371.65	664.71
371.84	685.78
372.04	653.01
372.24	688.12
372.44	751.31
372.63	697.48
372.83	674.07
373.03	720.88
373.22	760.67
373.42	718.54
373.62	791.10
373.81	812.17
374.01	718.54
374.21	887.06
374.40	767.70
374.60	917.49
374.79	856.64
374.99	807.48
375.19	863.66
375.38	863.66
375.58	833.23
375.78	866.00
375.97	926.85
376.17	856.64
376.37	868.34
376.56	940.90
376.76	889.40
376.95	858.98
377.15	905.79
377.35	849.61
377.54	931.53
377.74	936.21
377.93	957.28
378.13	940.90
378.33	945.58
378.52	983.02
378.72	936.21
378.91	940.90
379.11	947.92
379.31	959.62
379.50	1027.50
379.70	999.41
379.89	985.37
380.09	894.08
380.28	929.19
380.48	947.92
380.68	964.30
380.87	1001.75
381.07	978.34
381.26	1020.47
381.46	1048.56
381.65	1036.86
381.85	1053.24
382.04	1064.94
382.24	964.30
382.43	997.07
382.63	1013.45
382.83	1043.88
383.02	1100.05
383.22	1139.84
383.41	1095.37
383.61	1057.92
383.80	1121.12
384.00	1069.62
384.19	1151.54
384.39	1163.25
384.58	1018.13
384.78	1151.54
384.97	1067.28
385.17	1100.05
385.36	1165.59
385.56	1135.16
385.75	1179.63
385.95	1198.35
386.14	1205.38
386.34	1219.42
386.53	1186.65
386.72	1188.99
386.92	1238.14
387.11	1240.48
387.31	1284.95
387.50	1245.16
387.70	1247.51
387.89	1310.70
388.09	1366.87
388.28	1177.29
388.48	1306.02
388.67	1308.36
388.86	1338.79
389.06	1224.10
389.25	1371.55
389.45	1301.34
389.64	1348.15
389.84	1345.81
390.03	1357.51
390.22	1369.21
390.42	1409.00
390.61	1315.38
390.81	1434.75
391.00	1385.60
391.19	1533.05
391.39	1420.71
391.58	1387.94
391.78	1432.41
391.97	1444.11
392.16	1565.82
392.36	1521.35
392.55	1591.56
392.75	1509.65
392.94	1455.81
393.13	1472.20
393.33	1481.56
393.52	1493.26
393.71	1544.75
393.91	1556.46
394.10	1551.78
394.29	1600.93
394.49	1617.31
394.68	1624.33
394.88	1645.40
395.07	1664.12
395.26	1551.78
395.46	1647.74
395.65	1659.44
395.84	1673.48
396.04	1797.53
396.23	1809.23
396.42	1760.08
396.62	1636.03
396.81	1638.38
397.00	1818.60
397.19	1783.49
397.39	1771.79
397.58	1799.87
397.77	1856.04
397.97	1802.21
398.16	1818.60
398.35	1832.64
398.55	1816.26
398.74	1872.43
398.93	1891.15
399.12	1966.05
399.32	1853.70
399.51	1933.28
399.70	2094.78
399.90	2062.01
400.09	2059.67
400.28	1975.41
400.47	2017.54
400.67	2057.33
400.86	2003.50
401.05	2129.89
401.24	2090.10
401.44	2040.95
401.63	2101.80
401.82	2143.93
402.01	2083.08
402.21	2078.40
402.40	2104.14
402.59	2090.10
402.78	2146.27
402.97	2181.38
403.17	2272.66
403.36	2256.28
403.55	2209.47
403.74	2361.60
403.93	2319.47
404.13	2331.17
404.32	2415.43
404.51	2356.92
404.70	2417.77
404.89	2410.75
405.09	2471.61
405.28	2459.90
405.47	2448.20
405.66	2408.41
405.85	2492.67
406.05	2429.48
406.24	2616.72
406.43	2506.71
406.62	2551.18
406.81	2532.46
407.00	2574.59
407.20	2649.49
407.39	2616.72
407.58	2761.83
407.77	2717.36
407.96	2764.17
408.15	2738.43
408.34	2640.12
408.54	2843.75
408.73	2778.22
408.92	2799.28
409.11	2775.88
409.30	2752.47
409.49	2862.48
409.68	2958.44
409.87	2909.29
410.07	2895.24
410.26	3030.99
410.45	2967.80
410.64	2956.10
410.83	3026.31
411.02	3096.53
411.21	3155.04
411.40	3091.85
411.59	3192.49
411.78	3276.75
411.98	3066.10
412.17	3330.58
412.36	3279.09
412.55	3363.35
412.74	3358.67
412.93	3536.55
413.12	3335.26
413.31	3562.30
413.50	3529.53
413.69	3417.18
413.88	3501.44
414.07	3616.13
414.26	3571.66
414.45	3641.87
414.64	3674.64
414.83	3637.19
415.02	3611.45
415.22	3705.07
415.41	3768.26
415.60	3864.22
415.79	3812.73
415.98	3981.25
416.17	3936.78
416.36	3967.21
416.55	3990.61
416.74	4039.76
416.93	4011.68
417.12	4056.15
417.31	4297.22
417.50	4163.81
417.69	4306.59
417.88	4245.73
418.07	4355.74
418.26	4294.88
418.45	4400.21
418.64	4320.63
418.83	4245.73
419.02	4379.14
419.21	4442.34
419.39	4465.74
419.58	4507.87
419.77	4383.82
419.96	4540.64
420.15	4542.98
420.34	4582.77
420.53	4613.20
420.72	4585.11
420.91	4594.47
421.10	4718.52
421.29	4830.87
421.48	4655.33
421.67	4667.03
421.86	4650.64
422.05	4624.90
422.24	4730.22
422.43	4840.23
422.61	4809.80
422.80	5008.75
422.99	4903.42
423.18	4770.01
423.37	5025.13
423.56	5004.07
423.75	4847.25
423.94	4725.54
424.13	4571.07
424.32	4660.01
424.50	4964.28
424.69	4910.44
424.88	5064.92
425.07	4812.14
425.26	4975.98
425.45	4854.27
425.64	4903.42
425.83	5018.11
426.01	4945.55
426.20	4924.49
426.39	4922.15
426.58	5048.54
426.77	5116.41
426.96	5205.35
427.15	4999.38
427.33	5076.62
427.52	5095.35
427.71	5184.29
427.90	5224.08
428.09	5165.56
428.28	5348.12
428.46	5111.73
428.65	5320.04
428.84	5472.17
429.03	5369.19
429.22	5252.16
429.40	5270.89
429.59	5533.03
429.78	5334.08
429.97	5153.86
430.16	5554.09
430.34	5607.92
430.53	5589.20
430.72	5507.28
430.91	5446.43
431.10	5511.96
431.28	5750.70
431.47	5813.89
431.66	5804.53
431.85	5694.52
432.03	5792.83
432.22	5954.32
432.41	5870.06
432.60	5860.70
432.79	5975.39
432.97	5963.68
433.16	5900.49
433.35	5760.06
433.54	6010.50
433.72	6019.86
433.91	6010.50
434.10	6150.93
434.28	6031.56
434.47	6162.63
434.66	6218.80
434.85	6080.71
435.03	6251.57
435.22	6244.55
435.41	6333.49
435.59	6267.95
435.78	6583.93
435.97	6380.30
436.16	6333.49
436.34	6399.02
436.53	6368.60
436.72	6555.84
436.90	6399.02
437.09	6436.47
437.28	6415.41
437.46	6537.12
437.65	6572.22
437.84	6832.02
438.02	6626.06
438.21	6654.14
438.40	6595.63
438.58	6829.68
438.77	6846.07
438.96	6827.34
439.14	7049.69
439.33	7178.42
439.52	7148.00
439.70	7339.92
439.89	7194.81
440.08	7297.79
440.26	7424.18
440.45	7250.98
440.63	7269.70
440.82	7644.19
441.01	7372.69
441.19	7576.31
441.38	7513.12
441.57	7585.68
441.75	7655.89
441.94	7864.20
442.12	7805.69
442.31	7927.39
442.50	7896.97
442.68	7868.88
442.87	7957.82
443.05	8166.13
443.24	8072.51
443.43	8212.94
443.61	8065.49
443.80	8355.71
443.98	7997.61
444.17	7927.39
444.35	8086.55
444.54	8329.97
444.73	8257.41
444.91	8266.77
445.10	8344.01
445.28	8379.12
445.47	8124.00
445.65	8142.72
445.84	8341.67
446.02	8524.23
446.21	8379.12
446.39	8292.52
446.58	8461.04
446.77	8351.03
446.95	8332.31
447.14	8627.21
447.32	8507.85
447.51	8383.80
447.69	8416.57
447.88	8257.41
448.06	8617.85
448.25	8280.82
448.43	8489.12
448.62	8439.97
448.80	8549.98
448.99	8390.82
449.17	8828.50
449.36	8432.95
449.54	8561.68
449.73	8833.18
449.91	8730.20
450.10	8819.14
450.28	9062.55
450.46	8889.35
450.65	8903.40
450.83	9060.21
451.02	8905.74
451.20	9100.00
451.39	9172.56
451.57	9011.06
451.76	8922.12
451.94	9048.51
452.13	9235.75
452.31	9284.91
452.49	9027.45
452.68	9336.40
452.86	9109.36
453.05	9401.93
453.23	9479.17
453.42	9078.94
453.60	9359.80
453.78	9371.50
453.97	9263.84
454.15	9504.92
454.34	9432.36
454.52	9441.72
454.70	9617.26
454.89	9582.15
455.07	9652.37
455.26	9755.35
455.44	9914.51
455.62	9661.73
455.81	9980.04
455.99	10026.86
456.17	9757.69
456.36	9741.31
456.54	10101.75
456.73	10061.96
456.91	10406.02
457.09	10338.15
457.28	10487.94
457.46	10181.33
457.64	10576.88
457.83	10406.02
458.01	10284.31
458.19	10731.36
458.38	10321.76
458.56	10600.29
458.74	10455.17
458.93	10476.24
459.11	10499.64
459.29	10562.84
459.48	10581.56
459.66	10670.50
459.84	10867.11
460.03	10733.70
460.21	10902.22
460.39	10764.12
460.57	10803.91
460.76	11112.86
460.94	11279.04
461.12	11250.96
461.31	10899.87
461.49	11201.80
461.67	11283.72
461.85	11428.84
462.04	11185.42
462.22	11747.15
462.40	11372.66
462.59	11433.52
462.77	11321.17
462.95	11583.31
463.13	11501.39
463.32	11421.81
463.50	11770.55
463.68	11786.94
463.86	11826.73
464.05	11634.80
464.23	11683.95
464.41	11735.45
464.59	11660.55
464.78	11967.16
464.96	11742.47
465.14	11990.56
465.32	11892.26
465.50	11957.80
465.69	12128.66
465.87	12114.61
466.05	11896.94
466.23	11918.01
466.41	12262.07
466.60	12334.62
466.78	12025.67
466.96	11985.88
467.14	12224.62
467.32	12355.69
467.51	12365.05
467.69	12060.78
467.87	12039.72
468.05	12381.43
468.23	12362.71
468.41	12341.64
468.60	12683.36
468.78	12549.95
468.96	12231.64
469.14	12390.80
469.32	12933.80
469.50	12741.88
469.69	12982.95
469.87	12849.54
470.05	13015.72
470.23	12856.56
470.41	13069.55
470.59	13280.20
470.77	13102.32
470.95	13132.75
471.14	13437.02
471.32	12929.12
471.50	13589.15
471.68	13582.13
471.86	13493.19
472.04	13575.11
472.22	13792.78
472.40	13717.88
472.58	13823.20
472.77	13769.37
472.95	13994.06
473.13	14284.29
473.31	13867.67
473.49	13987.04
473.67	14043.21
473.85	14331.10
474.03	14450.47
474.21	14391.95
474.39	14473.87
474.57	14546.43
474.75	14651.75
474.93	14745.38
475.12	14824.95
475.30	15171.35
475.48	15009.86
475.66	15026.24
475.84	15112.84
476.02	15344.55
476.20	15321.15
476.38	15510.73
476.56	15754.15
476.74	15662.86
476.92	15681.59
477.10	15712.02
477.28	16009.26
477.46	16065.44
477.64	16252.68
477.82	16390.77
478.00	16725.47
478.18	16730.15
478.36	16720.79
478.54	16872.92
478.72	16807.39
478.90	17116.34
479.08	17497.84
479.26	17479.12
479.44	17724.88
479.62	17748.28
479.80	18183.62
479.98	18134.47
480.16	18436.40
480.34	18052.55
480.52	18551.09
480.70	18607.26
480.88	18192.98
481.06	18579.17
481.24	18551.09
481.41	19037.92
481.59	19192.39
481.77	19138.56
481.95	19550.49
482.13	19463.90
482.31	19641.78
482.49	19997.54
482.67	20053.71
482.85	20009.24
483.03	20442.24
483.21	20563.95
483.39	20833.11
483.57	20889.28
483.74	20833.11
483.92	20877.58
484.10	20933.75
484.28	21345.69
484.46	21792.73
484.64	22089.98
484.82	21886.35
485.00	22010.40
485.18	22761.71
485.35	22562.76
485.53	22902.14
485.71	22944.27
485.89	22986.40
486.07	22937.25
486.25	23246.20
486.43	23529.41
486.61	23838.36
486.78	23690.90
486.96	24091.13
487.14	24400.08
487.32	24453.92
487.50	24566.26
487.68	24877.55
487.85	25205.23
488.03	24907.98
488.21	25666.31
488.39	25617.16
488.57	25893.35
488.75	26033.78
488.92	26096.97
489.10	26555.72
489.28	26331.03
489.46	26647.00
489.64	26799.13
489.81	27241.50
489.99	27356.18
490.17	27421.72
490.35	27775.14
490.53	27819.61
490.70	28093.45
490.88	28175.37
491.06	28563.90
491.24	28395.38
491.41	28678.58
491.59	29074.13
491.77	28835.40
491.95	29436.92
492.13	29347.98
492.30	29811.40
492.48	29825.45
492.66	29619.48
492.84	30038.44
493.01	30080.56
493.19	30288.87
493.37	30717.19
493.54	30707.83
493.72	31187.64
493.90	31208.70
494.08	31381.90
494.25	31573.83
494.43	31704.90
494.61	32268.97
494.79	32304.07
494.96	31777.45
495.14	32566.21
495.32	32854.10
495.49	32849.42
495.67	32779.20
495.85	33134.96
496.02	33692.01
496.20	33539.88
496.38	33713.08
496.55	33713.08
496.73	34300.55
496.91	34291.19
497.09	34342.68
497.26	34593.12
497.44	34876.32
497.62	34937.18
497.79	35503.59
497.97	35086.97
498.14	35751.68
498.32	35882.75
498.50	35667.42
498.67	36425.76
498.85	36158.94
499.03	36079.36
499.20	36268.94
499.38	36723.01
499.56	36992.17
499.73	36685.56
499.91	37167.71
500.08	37244.94
500.26	37015.57
500.44	37099.83
500.61	37280.05
500.79	37291.76
500.97	38181.16
501.14	38171.80
501.32	38211.59
501.49	38047.75
501.67	38143.71
501.84	38272.44
502.02	38457.34
502.20	38745.23
502.37	38803.74
502.55	38689.06
502.72	38948.85
502.90	39164.18
503.07	39288.23
503.25	39337.38
503.43	39152.48
503.60	39482.50
503.78	39952.94
503.95	39763.36
504.13	40603.61
504.30	40376.58
504.48	40367.22
504.65	40250.19
504.83	41130.23
505.01	40961.72
505.18	40950.01
505.36	41109.17
505.53	41001.50
505.71	41261.30
505.88	41006.19
506.06	41092.79
506.23	41633.45
506.41	41532.81
506.58	41689.62
506.76	41839.42
506.93	42213.90
507.11	42005.59
507.28	42199.86
507.46	42309.86
507.63	42272.42
507.81	42820.10
507.98	42389.44
508.16	42859.89
508.33	42948.83
508.50	42944.15
508.68	43112.67
508.85	43405.23
509.03	43473.11
509.20	43482.47
509.38	44058.24
509.55	44105.06
509.73	43978.67
509.90	43770.36
510.08	44055.90
510.25	44032.50
510.42	44203.36
510.60	44739.34
510.77	44877.43
510.95	44863.39
511.12	44683.17
511.30	44893.82
511.47	44804.88
511.64	45205.11
511.82	45368.94
511.99	45387.67
512.17	45778.54
512.34	45654.49
512.51	45902.59
512.69	45930.67
512.86	45918.97
513.04	46162.39
513.21	46223.24
513.38	46340.27
513.56	46298.14
513.73	46288.77
513.90	46574.32
514.08	46351.97
514.25	46700.71
514.43	47030.72
514.60	47030.72
514.77	47145.41
514.95	47524.58
515.12	47051.79
515.29	47239.03
515.47	47519.90
515.64	47971.62
515.81	47423.93
515.99	47927.15
516.16	48266.53
516.33	47878.00
516.51	48093.33
516.68	48205.67
516.85	48102.69
517.03	48210.35
517.20	48306.32
517.37	48736.98
517.54	48505.26
517.72	48570.80
517.89	48753.36
518.06	48788.47
518.24	48666.76
518.41	49006.14
518.58	49045.93
518.75	48961.67
518.93	49200.40
519.10	49069.33
519.27	49539.78
519.45	49544.46
519.62	49839.37
519.79	49799.58
519.96	49521.05
520.14	49640.42
520.31	49153.59
520.48	50031.29
520.65	50101.51
520.83	50160.02
521.00	50330.88
521.17	50438.54
521.34	50429.18
521.52	50557.91
521.69	50452.59
521.86	50454.93
522.03	50969.85
522.20	50986.23
522.38	51306.88
522.55	50918.35
522.72	51023.68
522.89	51164.11
523.07	51302.20
523.24	51248.37
523.41	51526.89
523.58	51199.22
523.75	51697.75
523.92	51283.48
524.10	51686.05
524.27	51456.68
524.44	51828.82
524.61	51540.94
524.78	52053.51
524.96	51676.69
525.13	51845.21
525.30	52025.43
525.47	52322.68
525.64	51793.71
525.81	52196.29
525.98	52463.11
526.16	52170.54
526.33	52182.24
526.50	52807.17
526.67	52615.24
526.84	52584.82
527.01	52428.00
527.18	52657.37
527.36	52905.47
527.53	52633.97
527.70	53205.06
527.87	53315.06
528.04	52697.16
528.21	53195.70
528.38	53268.25
528.55	53359.53
528.72	53247.19
528.89	53258.89
529.07	53031.86
529.24	53010.79
529.41	53443.79
529.58	53389.96
529.75	53432.09
529.92	53595.93
530.09	53581.88
530.26	53612.31
530.43	53818.28
530.60	53350.17
530.77	53488.26
530.94	53911.90
531.11	53668.48
531.28	53574.86
531.46	53757.42
531.63	54127.23
531.80	54054.67
531.97	54330.86
532.14	53876.79
532.31	54335.54
532.48	54227.87
532.65	54365.96
532.82	54370.64
532.99	54508.74
533.16	54129.57
533.33	54553.21
533.50	54581.29
533.67	54527.46
533.84	54419.80
534.01	54869.18
534.18	54691.30
534.35	54726.41
534.52	54808.32
534.69	55065.78
534.86	54887.90
535.03	54693.64
535.20	54794.28
535.37	55253.03
535.54	55241.32
535.71	54843.43
535.88	55018.97
536.05	55203.88
536.22	55269.41
536.38	55419.20
536.55	55419.20
536.72	55295.16
536.89	55152.38
537.06	55353.67
537.23	55274.09
537.40	55292.82
537.57	55210.90
537.74	55489.42
537.91	55760.92
538.08	55887.31
538.25	55620.49
538.42	55508.14
538.59	55859.23
538.75	55515.17
538.92	55786.67
539.09	56069.87
539.26	55917.74
539.43	55803.05
539.60	56025.40
539.77	55969.23
539.94	55962.21
540.11	56374.14
540.28	55992.64
540.44	56271.16
540.61	56147.11
540.78	56055.83
540.95	55997.32
541.12	56240.73
541.29	56212.65
541.46	56332.01
541.62	56289.88
541.79	56395.21
541.96	56224.35
542.13	56334.35
542.30	56266.48
542.47	56755.65
542.63	56495.85
542.80	56622.24
542.97	56727.56
543.14	57022.47
543.31	56708.84
543.48	57090.35
543.64	57338.44
543.81	56978.00
543.98	56868.00
544.15	56823.53
544.32	57130.14
544.48	57296.31
544.65	56996.73
544.82	57183.97
544.99	57144.18
545.16	57240.14
545.32	57123.11
545.49	57453.13
545.66	57509.30
545.83	57317.38
546.00	57511.64
546.16	57425.04
546.33	57277.59
546.50	57268.23
546.67	57626.33
546.83	57160.56
547.00	57551.43
547.17	57415.68
547.34	57537.39
547.50	57785.49
547.67	57703.57
547.84	57886.13
548.00	57874.43
548.17	57902.51
548.34	57851.02
548.51	57883.79
548.67	57958.69
548.84	57942.30
549.01	57638.03
549.18	58031.24
549.34	58056.99
549.51	58134.23
549.68	57902.51
549.84	58122.52
550.01	58075.71
550.18	57836.98
550.34	58223.17
550.51	58178.70
550.68	57942.30
550.84	57961.03
551.01	58422.11
551.18	58265.30
551.34	58323.81
551.51	58370.62
551.68	58377.64
551.84	58323.81
552.01	58298.06
552.18	58466.58
552.34	58340.19
552.51	58447.86
552.68	58033.58
552.84	58614.04
553.01	58693.61
553.18	58286.36
553.34	58749.79
553.51	58370.62
553.67	58408.07
553.84	58712.34
554.01	58838.73
554.17	58866.81
554.34	58504.03
554.51	58890.22
554.67	58836.39
554.84	58880.86
555.00	58745.11
555.17	58880.86
555.33	58850.43
555.50	58595.31
555.67	58628.08
555.83	58724.04
556.00	58836.39
556.16	59042.35
556.33	59231.94
556.50	59021.29
556.66	59379.39
556.83	58735.74
556.99	59262.36
557.16	59391.09
557.32	59236.62
557.49	59346.62
557.65	59035.33
557.82	59281.09
557.98	59381.73
558.15	59288.11
558.32	59477.69
558.48	59334.92
558.65	59344.28
558.81	59138.32
558.98	59119.59
559.14	59203.85
559.31	59470.67
559.47	59517.48
559.64	59566.63
559.80	59517.48
559.97	59667.28
560.13	59285.77
560.30	59524.50
560.46	59412.16
560.63	59629.83
560.79	59363.01
560.96	59664.94
561.12	59655.57
561.29	59526.84
561.45	59732.81
561.61	59484.72
561.78	59465.99
561.94	59538.55
562.11	59407.48
562.27	59636.85
562.44	59709.41
562.60	59695.36
562.77	59714.09
562.93	59557.27
563.10	59901.33
563.26	59765.58
563.42	59922.40
563.59	59810.05
563.75	59842.82
563.92	59831.11
564.08	59777.28
564.24	59781.96
564.41	59945.80
564.57	60104.96
564.74	59688.34
564.90	60006.65
565.07	59971.55
565.23	59985.59
565.39	59910.69
565.56	59924.74
565.72	59915.37
565.88	59959.84
566.05	59983.25
566.21	60076.87
566.38	59999.63
566.54	59985.59
566.70	60214.96
566.87	60177.51
567.03	59728.13
567.19	60144.75
567.36	59913.03
567.52	59976.23
567.68	60313.26
567.85	60102.62
568.01	60182.19
568.17	60126.02
568.34	60334.33
568.50	60051.12
568.66	60207.94
568.83	60296.88
568.99	60264.11
569.15	60247.73
569.32	60453.70
569.48	60172.83
569.64	60107.30
569.81	60301.56
569.97	60287.52
570.13	60140.07
570.30	60179.85
570.46	60233.69
570.62	60310.92
570.78	60390.50
570.95	60189.22
571.11	60432.63
571.27	60399.86
571.43	60397.52
571.60	60355.39
571.76	60285.18
571.92	60566.04
572.09	60376.46
572.25	60413.91
572.41	60308.58
572.57	60416.25
572.74	60486.46
572.90	60348.37
573.06	60619.88
573.22	60294.54
573.38	60392.84
573.55	60441.99
573.71	60673.71
573.87	60367.10
574.03	60065.17
574.20	60603.49
574.36	60420.93
574.52	60591.79
574.68	60720.52
574.84	60676.05
575.01	60458.38
575.17	60449.02
575.33	60619.88
575.49	60271.14
575.65	60736.90
575.82	60526.25
575.98	60488.80
576.14	60626.90
576.30	60556.68
576.46	60418.59
576.62	60493.49
576.79	60463.06
576.95	60458.38
577.11	60626.90
577.27	60573.06
577.43	60617.53
577.59	60411.57
577.75	60540.30
577.92	60430.29
578.08	60427.95
578.24	60769.67
578.40	60680.73
578.56	60811.80
578.72	60563.70
578.88	60685.41
579.04	60863.29
579.21	60622.22
579.37	60732.22
579.53	60563.70
579.69	60449.02
579.85	60666.69
580.01	60505.19
580.17	60516.89
580.33	60647.96
580.49	60657.32
580.65	60617.53
580.82	60486.46
580.98	60662.00
581.14	60671.37
581.30	60762.65
581.46	60666.69
581.62	60753.29
581.78	60580.09
581.94	60685.41
582.10	60837.54
582.26	60573.06
582.42	60608.17
582.58	60786.05
582.74	60657.32
582.90	60750.94
583.06	60676.05
583.22	60687.75
583.38	60781.37
583.54	60856.27
583.70	60966.27
583.86	60809.46
584.02	60687.75
584.18	60793.07
584.34	60865.63
584.50	60753.29
584.66	60654.98
584.82	60566.04
584.98	60741.58
585.14	60907.76
585.30	60664.35
585.46	60860.95
585.62	60713.50
585.78	60872.65
585.94	60659.66
586.10	60872.65
586.26	60795.42
586.42	60872.65
586.58	60949.89
586.74	61001.38
586.90	60676.05
587.06	60818.82
587.22	60860.95
587.38	60821.16
587.54	60860.95
587.70	61008.40
587.86	60750.94
588.02	60657.32
588.18	61043.51
588.34	60956.91
588.49	60849.25
