SpectraSuite Data File
++++++++++++++++++++++++++++++++++++
Date: Fri Oct 25 11:33:36 EDT 2013
User: price-jones
Dark Spectrum Present: No
Reference Spectrum Present: No
Number of Sampled Component Spectra: 1
Spectrometers: USB2+H05261
Integration Time (usec): 100000 (USB2+H05261)
Spectra Averaged: 1 (USB2+H05261)
Boxcar Smoothing: 0 (USB2+H05261)
Correct for Electrical Dark: No (USB2+H05261)
Strobe/Lamp Enabled: No (USB2+H05261)
Correct for Detector Non-linearity: No (USB2+H05261)
Correct for Stray Light: No (USB2+H05261)
Number of Pixels in Processed Spectrum: 2048
>>>>>Begin Processed Spectral Data<<<<<
365.73	208.31
365.92	208.31
366.12	208.31
366.32	229.37
366.52	215.33
366.72	156.82
366.91	205.97
367.11	248.10
367.31	203.63
367.51	112.35
367.70	187.24
367.90	203.63
368.10	159.16
368.30	163.84
368.49	170.86
368.69	149.79
368.89	163.84
369.09	156.82
369.28	184.90
369.48	205.97
369.68	229.37
369.87	243.42
370.07	308.95
370.27	269.16
370.47	337.04
370.66	440.02
370.86	535.98
371.06	447.04
371.25	610.88
371.45	559.39
371.65	528.96
371.84	505.56
372.04	538.32
372.24	533.64
372.44	585.13
372.63	594.50
372.83	634.29
373.03	617.90
373.22	594.50
373.42	650.67
373.62	641.31
373.81	608.54
374.01	648.33
374.21	685.78
374.40	610.88
374.60	624.92
374.79	664.71
374.99	606.20
375.19	582.79
375.38	667.05
375.58	620.24
375.78	709.18
375.97	641.31
376.17	704.50
376.37	695.14
376.56	674.07
376.76	732.59
376.95	629.60
377.15	702.16
377.35	671.73
377.54	657.69
377.74	650.67
377.93	678.76
378.13	674.07
378.33	697.48
378.52	739.61
378.72	837.91
378.91	767.70
379.11	660.03
379.31	596.84
379.50	683.44
379.70	746.63
379.89	765.36
380.09	727.91
380.28	763.01
380.48	793.44
380.68	711.52
380.87	760.67
381.07	746.63
381.26	809.83
381.46	702.16
381.65	746.63
381.85	767.70
382.04	807.48
382.24	788.76
382.43	760.67
382.63	788.76
382.83	697.48
383.02	833.23
383.22	753.65
383.41	795.78
383.61	819.19
383.80	812.17
384.00	835.57
384.19	828.55
384.39	814.51
384.58	765.36
384.78	779.40
384.97	873.02
385.17	833.23
385.36	882.38
385.56	786.42
385.75	795.78
385.95	800.46
386.14	800.46
386.34	875.36
386.53	823.87
386.72	833.23
386.92	868.34
387.11	898.77
387.31	915.15
387.50	866.00
387.70	828.55
387.89	805.14
388.09	875.36
388.28	866.00
388.48	880.04
388.67	938.55
388.86	910.47
389.06	868.34
389.25	990.05
389.45	917.49
389.64	896.43
389.84	992.39
390.03	985.37
390.22	940.90
390.42	1011.11
390.61	924.51
390.81	980.68
391.00	999.41
391.19	973.66
391.39	1029.84
391.58	929.19
391.78	1046.22
391.97	1006.43
392.16	938.55
392.36	1111.75
392.55	1043.88
392.75	1137.50
392.94	1083.67
393.13	1041.54
393.33	1071.97
393.52	1081.33
393.71	1100.05
393.91	1160.91
394.10	1107.07
394.29	1158.57
394.49	1114.10
394.68	1078.99
394.88	1128.14
395.07	1125.80
395.26	1130.48
395.46	1125.80
395.65	1135.16
395.84	1179.63
396.04	1252.19
396.23	1137.50
396.42	1121.12
396.62	1238.14
396.81	1247.51
397.00	1186.65
397.19	1238.14
397.39	1289.64
397.58	1233.46
397.77	1184.31
397.97	1179.63
398.16	1254.53
398.35	1294.32
398.55	1275.59
398.74	1317.72
398.93	1296.66
399.12	1327.08
399.32	1359.85
399.51	1284.95
399.70	1371.55
399.90	1387.94
400.09	1394.96
400.28	1385.60
400.47	1338.79
400.67	1427.73
400.86	1458.15
401.05	1425.39
401.24	1371.55
401.44	1490.92
401.63	1409.00
401.82	1507.30
402.01	1476.88
402.21	1474.54
402.40	1406.66
402.59	1490.92
402.78	1507.30
402.97	1570.50
403.17	1462.83
403.36	1462.83
403.55	1479.22
403.74	1610.29
403.93	1516.67
404.13	1612.63
404.32	1657.10
404.51	1657.10
404.70	1633.69
404.89	1586.88
405.09	1607.95
405.28	1624.33
405.47	1682.85
405.66	1755.40
405.85	1652.42
406.05	1710.93
406.24	1788.17
406.43	1785.83
406.62	1806.89
406.81	1811.57
407.00	1748.38
407.20	1785.83
407.39	1834.98
407.58	1837.32
407.77	1935.62
407.96	1832.64
408.15	1842.00
408.34	1844.34
408.54	1893.49
408.73	1947.33
408.92	2001.16
409.11	2132.23
409.30	2026.90
409.49	1975.41
409.68	2022.22
409.87	1963.71
410.07	2029.24
410.26	2059.67
410.45	2001.16
410.64	2047.97
410.83	2101.80
411.02	2129.89
411.21	2237.55
411.40	2101.80
411.59	2169.68
411.78	2293.72
411.98	2296.07
412.17	2200.10
412.36	2253.94
412.55	2242.23
412.74	2298.41
412.93	2387.35
413.12	2326.49
413.31	2401.39
413.50	2396.71
413.69	2373.30
413.88	2394.37
414.07	2434.16
414.26	2600.34
414.45	2532.46
414.64	2478.63
414.83	2588.63
415.02	2555.86
415.22	2518.42
415.41	2677.57
415.60	2565.23
415.79	2703.32
415.98	2782.90
416.17	2724.38
416.36	2750.13
416.55	2745.45
416.74	2738.43
416.93	2808.64
417.12	2935.03
417.31	2810.98
417.50	2796.94
417.69	3080.14
417.88	3026.31
418.07	2885.88
418.26	2953.76
418.45	2946.73
418.64	3176.11
418.83	3066.10
419.02	3068.44
419.21	3187.81
419.39	3164.40
419.58	3009.93
419.77	3042.70
419.96	2867.16
420.15	3178.45
420.34	3164.40
420.53	3344.63
420.72	3194.83
420.91	3239.30
421.10	3190.15
421.29	3290.79
421.48	3169.09
421.67	3438.25
421.86	3384.41
422.05	3187.81
422.24	3288.45
422.43	3283.77
422.61	3405.48
422.80	3384.41
422.99	3302.50
423.18	3337.60
423.37	3356.33
423.56	3361.01
423.75	3382.07
423.94	3220.58
424.13	3087.17
424.32	3229.94
424.50	3459.31
424.69	3557.61
424.88	3557.61
425.07	3407.82
425.26	3393.78
425.45	3375.05
425.64	3344.63
425.83	3487.40
426.01	3471.01
426.20	3478.04
426.39	3475.70
426.58	3328.24
426.77	3428.88
426.96	3548.25
427.15	3574.00
427.33	3456.97
427.52	3496.76
427.71	3716.77
427.90	3705.07
428.09	3637.19
428.28	3585.70
428.46	3681.66
428.65	3695.71
428.84	3817.41
429.03	3845.50
429.22	3772.94
429.40	3733.15
429.59	3836.14
429.78	3719.11
429.97	3613.79
430.16	3691.02
430.34	3810.39
430.53	3885.29
430.72	3822.09
430.91	3906.35
431.10	3775.28
431.28	3896.99
431.47	3999.98
431.66	3918.06
431.85	3957.85
432.03	4032.74
432.22	4112.32
432.41	4028.06
432.60	3934.44
432.79	4133.39
432.97	3992.95
433.16	4070.19
433.35	4063.17
433.54	4182.54
433.72	4156.79
433.91	4161.47
434.10	4229.35
434.28	4102.96
434.47	4173.18
434.66	4194.24
434.85	4327.65
435.03	4217.65
435.22	4273.82
435.41	4411.91
435.59	4353.40
435.78	4463.40
435.97	4393.19
436.16	4496.17
436.34	4425.95
436.53	4470.42
436.72	4685.75
436.90	4379.14
437.09	4582.77
437.28	4528.94
437.46	4418.93
437.65	4489.15
437.84	4550.00
438.02	4681.07
438.21	4613.20
438.40	4519.57
438.58	4760.65
438.77	4730.22
438.96	4695.11
439.14	4903.42
439.33	4830.87
439.52	4863.63
439.70	4865.97
439.89	4966.62
440.08	5067.26
440.26	5069.60
440.45	5020.45
440.63	4938.53
440.82	5144.50
441.01	5170.24
441.19	5132.79
441.38	5226.42
441.57	5310.68
441.75	5179.61
441.94	5411.32
442.12	5380.89
442.31	5387.91
442.50	5345.78
442.68	5343.44
442.87	5509.62
443.05	5483.88
443.24	5593.88
443.43	5441.75
443.61	5589.20
443.80	5720.27
443.98	5645.37
444.17	5411.32
444.35	5579.84
444.54	5542.39
444.73	5565.79
444.91	5619.63
445.10	5731.97
445.28	5710.91
445.47	5544.73
445.65	5680.48
445.84	5717.93
446.02	5689.84
446.21	5624.31
446.39	5659.42
446.58	5715.59
446.77	5849.00
446.95	5472.17
447.14	5619.63
447.32	5654.73
447.51	5717.93
447.69	5610.26
447.88	5839.64
448.06	5937.94
448.25	5706.23
448.43	5659.42
448.62	5823.25
448.80	5797.51
448.99	5884.11
449.17	5895.81
449.36	5895.81
449.54	5893.47
449.73	6148.59
449.91	5991.77
450.10	6108.80
450.28	6043.26
450.46	6232.85
450.65	6076.03
450.83	6111.14
451.02	6134.54
451.20	6186.04
451.39	6132.20
451.57	6108.80
451.76	6059.65
451.94	6045.60
452.13	6258.59
452.31	6223.48
452.49	6197.74
452.68	6363.92
452.86	6307.74
453.05	6307.74
453.23	6359.24
453.42	6387.32
453.60	6312.42
453.78	6466.90
453.97	6328.81
454.15	6654.14
454.34	6260.93
454.52	6677.55
454.70	6434.13
454.89	6415.41
455.07	6612.01
455.26	6684.57
455.44	6686.91
455.62	6689.25
455.81	6590.95
455.99	6850.75
456.17	6691.59
456.36	6752.45
456.54	6747.76
456.73	6911.60
456.91	6949.05
457.09	7035.65
457.28	7103.53
457.46	6998.20
457.64	6991.18
457.83	6967.77
458.01	6850.75
458.19	7358.64
458.38	6960.75
458.56	6986.50
458.74	7096.50
458.93	7119.91
459.11	7248.64
459.29	7255.66
459.48	7424.18
459.66	7236.94
459.84	7286.09
460.03	7496.74
460.21	7360.98
460.39	7435.88
460.57	7421.84
460.76	7449.93
460.94	7637.17
461.12	7475.67
461.31	7571.63
461.49	7454.61
461.67	7454.61
461.85	7726.11
462.04	7613.76
462.22	8135.70
462.40	7719.09
462.59	7880.58
462.77	7639.51
462.95	7889.95
463.13	7698.02
463.32	7665.25
463.50	7770.58
463.68	8079.53
463.86	7707.38
464.05	7803.35
464.23	7999.95
464.41	7852.50
464.59	7847.82
464.78	8035.06
464.96	7948.46
465.14	7676.96
465.32	8102.93
465.50	8056.12
465.69	8147.40
465.87	8077.19
466.05	8170.81
466.23	7978.89
466.41	8226.98
466.60	8374.44
466.78	8105.28
466.96	8241.03
467.14	8095.91
467.32	8262.09
467.51	8381.46
467.69	8252.73
467.87	8182.51
468.05	8507.85
468.23	8442.31
468.41	8351.03
468.60	8418.91
468.78	8439.97
468.96	8468.06
469.14	8592.11
469.32	8571.04
469.50	8542.96
469.69	8709.13
469.87	8681.05
470.05	8643.60
470.23	8758.28
470.41	8816.80
470.59	8980.64
470.77	8805.10
470.95	8830.84
471.14	9022.77
471.32	8793.39
471.50	9057.87
471.68	8875.31
471.86	9245.12
472.04	9200.65
472.22	9341.08
472.40	9205.33
472.58	9224.05
472.77	9380.87
472.95	9467.47
473.13	9727.27
473.31	9359.80
473.49	9413.63
473.67	9530.66
473.85	9399.59
474.03	9858.34
474.21	9603.22
474.39	9682.80
474.57	9926.21
474.75	9888.76
474.93	9881.74
475.12	9975.36
475.30	9923.87
475.48	9832.59
475.66	9982.38
475.84	10113.45
476.02	10040.90
476.20	10092.39
476.38	10293.68
476.56	10736.04
476.74	10576.88
476.92	10532.41
477.10	10586.24
477.28	10679.86
477.46	10483.26
477.64	10595.61
477.82	11012.22
478.00	11164.36
478.18	11005.20
478.36	11276.70
478.54	11407.77
478.72	11248.61
478.90	11494.37
479.08	11623.10
479.26	11815.02
479.44	11653.53
479.62	11833.75
479.80	11800.98
479.98	11845.45
480.16	12259.73
480.34	12159.08
480.52	12304.20
480.70	12280.79
480.88	12212.92
481.06	12212.92
481.24	12325.26
481.41	12439.95
481.59	12720.81
481.77	12767.62
481.95	12767.62
482.13	13085.94
482.31	12903.37
482.49	13481.49
482.67	13221.69
482.85	13458.08
483.03	13591.49
483.21	13659.37
483.39	13823.20
483.57	13708.52
483.74	13720.22
483.92	13940.23
484.10	13650.00
484.28	14225.78
484.46	14810.91
484.64	14824.95
484.82	14293.65
485.00	14623.67
485.18	14717.29
485.35	14855.38
485.53	15002.83
485.71	15126.88
485.89	15225.18
486.07	15447.54
486.25	15190.08
486.43	15391.36
486.61	15557.54
486.78	15857.13
486.96	15763.51
487.14	16123.95
487.32	16140.33
487.50	16563.97
487.68	16517.16
487.85	16526.52
488.03	16645.89
488.21	16968.88
488.39	16868.24
488.57	17043.78
488.75	17053.14
488.92	17436.99
489.10	17369.12
489.28	17518.91
489.46	17743.60
489.64	17652.32
489.81	17862.97
489.99	18050.21
490.17	17980.00
490.35	18698.54
490.53	18541.72
490.70	18738.33
490.88	18637.69
491.06	18897.49
491.24	19021.53
491.41	18724.29
491.59	19185.37
491.77	19171.33
491.95	19456.87
492.13	19480.28
492.30	19646.46
492.48	19578.58
492.66	19470.92
492.84	19859.45
493.01	20407.13
493.19	19864.13
493.37	20084.14
493.54	20198.82
493.72	20964.18
493.90	20570.97
494.08	20805.02
494.25	20840.13
494.43	21172.49
494.61	20968.86
494.79	21509.52
494.96	21453.35
495.14	21247.38
495.32	21912.10
495.49	21703.79
495.67	21790.39
495.85	22082.95
496.02	22150.83
496.20	22527.66
496.38	22286.58
496.55	22328.71
496.73	22941.93
496.91	22705.54
497.09	22707.88
497.26	22913.84
497.44	22951.29
497.62	23049.60
497.79	23391.31
497.97	23271.95
498.14	23688.56
498.32	23939.00
498.50	23384.29
498.67	23934.32
498.85	23786.86
499.03	24215.18
499.20	24051.34
499.38	23866.44
499.56	24456.26
499.73	24184.76
499.91	24428.17
500.08	24540.52
500.26	24601.37
500.44	24627.12
500.61	24599.03
500.79	24769.89
500.97	25039.05
501.14	25333.96
501.32	25268.42
501.49	25174.80
501.67	25160.76
501.84	25568.01
502.02	25340.98
502.20	25362.04
502.37	25729.51
502.55	25596.10
502.72	26075.91
502.90	26085.27
503.07	25792.70
503.25	26286.56
503.43	26295.92
503.60	25970.58
503.78	26316.98
503.95	26307.62
504.13	26539.33
504.30	26555.72
504.48	26771.05
504.65	27037.87
504.83	26768.71
505.01	26984.04
505.18	27180.64
505.36	27164.26
505.53	27084.68
505.71	27096.38
505.88	27714.28
506.06	27131.49
506.23	27454.48
506.41	27690.88
506.58	27623.00
506.76	27814.93
506.93	27845.35
507.11	27915.57
507.28	28294.74
507.46	27859.40
507.63	28336.87
507.81	28676.24
507.98	27878.12
508.16	28470.28
508.33	28781.57
508.50	28840.08
508.68	28617.73
508.85	28727.74
509.03	28629.43
509.20	29071.79
509.38	28989.88
509.55	29254.36
509.73	29006.26
509.90	29677.99
510.08	29418.19
510.25	29783.32
510.42	29469.69
510.60	30171.85
510.77	29579.69
510.95	30136.74
511.12	29638.20
511.30	29867.58
511.47	30174.19
511.64	30244.40
511.82	30611.87
511.99	30319.30
512.17	30265.47
512.34	30164.82
512.51	30876.35
512.69	30586.12
512.86	30813.15
513.04	31129.12
513.21	30588.46
513.38	31049.55
513.56	31356.16
513.73	30937.20
513.90	31281.26
514.08	30862.30
514.25	31655.75
514.43	31339.77
514.60	31370.20
514.77	31241.47
514.95	31990.44
515.12	31709.58
515.29	31805.54
515.47	31803.20
515.64	32051.30
515.81	32032.57
515.99	32329.82
516.16	32503.02
516.33	32669.20
516.51	32404.72
516.68	32217.47
516.85	32297.05
517.03	32739.41
517.20	33043.68
517.37	32568.55
517.54	32783.88
517.72	32655.15
517.89	32926.66
518.06	32959.42
518.24	33425.19
518.41	32816.65
518.58	32844.74
518.75	33326.89
518.93	33448.60
519.10	33404.13
519.27	33703.71
519.45	33223.90
519.62	33502.43
519.79	33455.62
519.96	33846.49
520.14	33914.36
520.31	33598.39
520.48	34012.66
520.65	34316.93
520.83	34235.02
521.00	34338.00
521.17	34660.99
521.34	34436.30
521.52	34532.26
521.69	34600.14
521.86	34930.16
522.03	34656.31
522.20	34740.57
522.38	34953.56
522.55	34951.22
522.72	34953.56
522.89	35136.12
523.07	35189.95
523.24	35164.21
523.41	35292.94
523.58	35093.99
523.75	35566.78
523.92	35309.32
524.10	35426.35
524.27	35751.68
524.44	35770.41
524.61	35747.00
524.78	36018.50
524.96	35835.94
525.13	35838.28
525.30	36114.47
525.47	36018.50
525.64	36224.47
525.81	35873.39
525.98	36730.03
526.16	36299.37
526.33	36229.15
526.50	36648.11
526.67	36517.04
526.84	36662.15
527.01	36896.20
527.18	36610.66
527.36	36676.19
527.53	36980.46
527.70	36971.10
527.87	37228.56
528.04	36982.80
528.21	37268.35
528.38	37436.87
528.55	37486.02
528.72	36886.84
528.89	37008.55
529.07	37125.58
529.24	36938.33
529.41	37223.88
529.58	37556.24
529.75	37308.14
529.92	37928.38
530.09	37638.15
530.26	37706.03
530.43	37975.19
530.60	37507.08
530.77	37408.78
530.94	38043.07
531.11	38085.20
531.28	38080.52
531.46	38155.41
531.63	38455.00
531.80	38061.79
531.97	38478.41
532.14	38696.08
532.31	38445.64
532.48	38450.32
532.65	38904.38
532.82	38513.52
532.99	38768.63
533.16	38251.38
533.33	38717.14
533.50	38888.00
533.67	38611.82
533.84	38532.24
534.01	38773.31
534.18	38705.44
534.35	39267.17
534.52	38965.24
534.69	39187.59
534.86	39349.09
535.03	39129.08
535.20	39683.78
535.37	39861.66
535.54	39707.19
535.71	39676.76
535.88	39716.55
536.05	39789.11
536.22	39629.95
536.38	39182.91
536.55	39166.52
536.72	40053.59
536.89	39625.27
537.06	39353.77
537.23	40170.61
537.40	39702.51
537.57	39714.21
537.74	39524.63
537.91	39882.73
538.08	39983.37
538.25	39887.41
538.42	40081.67
538.59	40264.24
538.75	40418.71
538.92	40657.45
539.09	40388.28
539.26	40378.92
539.43	40521.69
539.60	40325.09
539.77	40612.98
539.94	40947.67
540.11	40526.38
540.28	41083.42
540.44	40907.88
540.61	40818.94
540.78	40243.17
540.95	40973.42
541.12	40666.81
541.29	40790.86
541.46	40818.94
541.62	41008.53
541.79	41563.23
541.96	40872.78
542.13	40947.67
542.30	41085.76
542.47	41191.09
542.63	41490.68
542.80	41378.33
542.97	41652.17
543.14	42036.02
543.31	41804.31
543.48	42384.76
543.64	42080.49
543.81	42019.64
543.98	41972.83
544.15	42169.43
544.32	42220.92
544.48	42506.47
544.65	42157.73
544.82	42319.23
544.99	41736.43
545.16	42298.16
545.32	41958.78
545.49	42644.56
545.66	42588.39
545.83	42686.69
546.00	42761.59
546.16	42515.83
546.33	42270.08
546.50	42412.85
546.67	42845.85
546.83	42508.81
547.00	42293.48
547.17	42611.79
547.34	42391.78
547.50	43150.12
547.67	43131.39
547.84	42941.81
548.00	42784.99
548.17	43445.02
548.34	43330.34
548.51	43416.94
548.67	43028.41
548.84	43166.50
549.01	43302.25
549.18	43152.46
549.34	43234.38
549.51	43438.00
549.68	43342.04
549.84	43332.68
550.01	43438.00
550.18	43309.27
550.34	43260.12
550.51	43756.32
550.68	43744.61
550.84	43475.45
551.01	43896.75
551.18	43405.23
551.34	43845.26
551.51	43988.03
551.68	43892.07
551.84	43346.72
552.01	43707.16
552.18	43831.21
552.34	44147.18
552.51	43800.79
552.68	43625.25
552.84	43976.33
553.01	43990.37
553.18	43765.68
553.34	44107.40
553.51	43807.81
553.67	44224.42
553.84	44299.32
554.01	44360.17
554.17	44194.00
554.34	44425.71
554.51	44325.07
554.67	44615.29
554.84	44619.97
555.00	44669.12
555.17	44432.73
555.33	44327.41
555.50	44741.68
555.67	44182.29
555.83	44533.37
556.00	44694.87
556.16	45380.65
556.33	45144.25
556.50	45137.23
556.66	45111.49
556.83	44456.14
556.99	45230.85
557.16	45429.80
557.32	44584.86
557.49	45357.24
557.65	44940.63
557.82	44790.83
557.98	44875.09
558.15	45226.17
558.32	45214.47
558.48	44905.52
558.65	44828.28
558.81	45277.66
558.98	45017.86
559.14	45207.45
559.31	45258.94
559.47	45287.03
559.64	45603.00
559.80	45244.90
559.97	45930.67
560.13	45324.47
560.30	45509.38
560.46	45745.77
560.63	45731.73
560.79	45773.86
560.96	45696.62
561.12	45457.88
561.29	45649.81
561.45	45769.18
561.61	45918.97
561.78	45446.18
561.94	45666.19
562.11	45319.79
562.27	45900.25
562.44	45715.34
562.60	45635.77
562.77	45748.11
562.93	45834.71
563.10	45855.78
563.26	45755.13
563.42	46108.55
563.59	46349.63
563.75	45352.56
563.92	46150.68
564.08	45382.99
564.24	45528.10
564.41	46110.89
564.57	46024.29
564.74	46024.29
564.90	45783.22
565.07	46298.14
565.23	46309.84
565.39	45853.44
565.56	46340.27
565.72	45991.53
565.88	46309.84
566.05	45914.29
566.21	45921.31
566.38	46150.68
566.54	46347.29
566.70	46452.61
566.87	46232.60
567.03	46403.46
567.19	46513.47
567.36	46239.62
567.52	46131.96
567.68	46550.91
567.85	46246.65
568.01	46277.07
568.17	46501.76
568.34	46752.20
568.50	46108.55
568.66	46511.13
568.83	46209.20
568.99	46199.83
569.15	46555.60
569.32	46405.80
569.48	46555.60
569.64	46958.17
569.81	46614.11
569.97	46628.15
570.13	46813.05
570.30	46021.95
570.46	46412.82
570.62	46670.28
570.78	46487.72
570.95	46525.17
571.11	46899.65
571.27	46457.29
571.43	46838.80
571.60	46866.89
571.76	46923.06
571.92	46703.05
572.09	46607.09
572.25	46274.73
572.41	46309.84
572.57	46967.53
572.74	47157.11
572.90	46885.61
573.06	46639.86
573.22	47100.94
573.38	46995.62
573.55	47021.36
573.71	47180.52
573.87	46845.82
574.03	47292.86
574.20	47063.49
574.36	46951.15
574.52	46857.52
574.68	46838.80
574.84	47114.98
575.01	47129.03
575.17	46761.56
575.33	47047.11
575.49	46948.81
575.65	47250.74
575.82	46696.03
575.98	46836.46
576.14	47070.51
576.30	47313.93
576.46	47466.06
576.62	47337.33
576.79	47182.86
576.95	46504.10
577.11	46859.87
577.27	46871.57
577.43	47110.30
577.59	47082.22
577.75	47234.35
577.92	46579.00
578.08	47014.34
578.24	46897.31
578.40	47054.13
578.56	47126.69
578.72	47056.47
578.88	47311.59
579.04	47299.89
579.21	46920.72
579.37	47295.21
579.53	47384.15
579.69	46738.16
579.85	46880.93
580.01	46923.06
580.17	46981.57
580.33	47332.65
580.49	47253.08
580.65	47316.27
580.82	46892.63
580.98	46958.17
581.14	47093.92
581.30	47360.74
581.46	47119.66
581.62	47068.17
581.78	47035.41
581.94	47171.16
582.10	46923.06
582.26	47185.20
582.42	47246.05
582.58	47756.29
582.74	47613.52
582.90	47421.59
583.06	47697.78
583.22	46976.89
583.38	47517.56
583.54	47409.89
583.70	47342.02
583.86	47098.60
584.02	47126.69
584.18	47913.11
584.34	47529.26
584.50	47269.46
584.66	47536.28
584.82	47908.43
584.98	47847.57
585.14	47688.42
585.30	47484.79
585.46	47140.73
585.62	47381.80
585.78	47742.25
585.94	47243.71
586.10	47543.30
586.26	47002.64
586.42	47337.33
586.58	47772.67
586.74	47346.70
586.90	47285.84
587.06	47437.98
587.22	47257.76
587.38	47505.85
587.54	47681.39
587.70	47407.55
587.86	47688.42
588.02	47332.65
588.18	47402.87
588.34	47423.93
588.49	47669.69
588.65	47112.64
588.81	47377.12
588.97	47894.38
589.13	47206.26
589.29	47473.09
589.45	47592.45
589.61	47337.33
589.77	48215.04
589.93	47260.10
590.08	47894.38
