SpectraSuite Data File
++++++++++++++++++++++++++++++++++++
Date: Fri Oct 25 11:34:32 EDT 2013
User: price-jones
Dark Spectrum Present: No
Reference Spectrum Present: No
Number of Sampled Component Spectra: 1
Spectrometers: USB2+H05261
Integration Time (usec): 100000 (USB2+H05261)
Spectra Averaged: 1 (USB2+H05261)
Boxcar Smoothing: 0 (USB2+H05261)
Correct for Electrical Dark: No (USB2+H05261)
Strobe/Lamp Enabled: No (USB2+H05261)
Correct for Detector Non-linearity: No (USB2+H05261)
Correct for Stray Light: No (USB2+H05261)
Number of Pixels in Processed Spectrum: 2048
>>>>>Begin Processed Spectral Data<<<<<
365.73	266.82
365.92	266.82
366.12	266.82
366.32	182.56
366.52	217.67
366.72	215.33
366.91	112.35
367.11	154.48
367.31	191.92
367.51	170.86
367.70	175.54
367.90	163.84
368.10	79.58
368.30	154.48
368.49	152.13
368.69	205.97
368.89	215.33
369.09	205.97
369.28	191.92
369.48	222.35
369.68	168.52
369.87	224.69
370.07	264.48
370.27	252.78
370.47	346.40
370.66	564.07
370.86	521.94
371.06	566.41
371.25	592.16
371.45	498.53
371.65	617.90
371.84	535.98
372.04	606.20
372.24	596.84
372.44	510.24
372.63	543.00
372.83	510.24
373.03	587.47
373.22	543.00
373.42	657.69
373.62	578.11
373.81	706.84
374.01	636.63
374.21	678.76
374.40	601.52
374.60	613.22
374.79	571.09
374.99	620.24
375.19	608.54
375.38	660.03
375.58	662.37
375.78	650.67
375.97	627.26
376.17	681.10
376.37	657.69
376.56	594.50
376.76	638.97
376.95	638.97
377.15	592.16
377.35	634.29
377.54	690.46
377.74	716.20
377.93	648.33
378.13	671.73
378.33	650.67
378.52	671.73
378.72	634.29
378.91	641.31
379.11	653.01
379.31	774.72
379.50	697.48
379.70	739.61
379.89	786.42
380.09	716.20
380.28	770.04
380.48	770.04
380.68	730.25
380.87	674.07
381.07	730.25
381.26	763.01
381.46	847.27
381.65	833.23
381.85	741.95
382.04	718.54
382.24	751.31
382.43	734.93
382.63	821.53
382.83	720.88
383.02	741.95
383.22	819.19
383.41	746.63
383.61	702.16
383.80	800.46
384.00	737.27
384.19	812.17
384.39	781.74
384.58	851.96
384.78	779.40
384.97	777.06
385.17	971.32
385.36	765.36
385.56	798.12
385.75	826.21
385.95	833.23
386.14	861.32
386.34	830.89
386.53	833.23
386.72	812.17
386.92	821.53
387.11	856.64
387.31	884.72
387.50	835.57
387.70	844.93
387.89	877.70
388.09	863.66
388.28	826.21
388.48	863.66
388.67	983.02
388.86	936.21
389.06	891.74
389.25	863.66
389.45	950.26
389.64	812.17
389.84	947.92
390.03	919.83
390.22	908.13
390.42	901.11
390.61	851.96
390.81	954.94
391.00	976.00
391.19	1022.81
391.39	966.64
391.58	936.21
391.78	947.92
391.97	1039.20
392.16	1001.75
392.36	978.34
392.55	971.32
392.75	1064.94
392.94	980.68
393.13	999.41
393.33	1067.28
393.52	1118.78
393.71	1069.62
393.91	1043.88
394.10	1036.86
394.29	1013.45
394.49	1069.62
394.68	947.92
394.88	1064.94
395.07	1142.18
395.26	1041.54
395.46	1123.46
395.65	1074.31
395.84	1170.27
396.04	1188.99
396.23	1081.33
396.42	1160.91
396.62	1146.86
396.81	1170.27
397.00	1158.57
397.19	1179.63
397.39	1163.25
397.58	1235.80
397.77	1299.00
397.97	1153.88
398.16	1158.57
398.35	1313.04
398.55	1193.67
398.74	1294.32
398.93	1306.02
399.12	1240.48
399.32	1226.44
399.51	1315.38
399.70	1313.04
399.90	1259.21
400.09	1320.06
400.28	1387.94
400.47	1362.19
400.67	1397.30
400.86	1432.41
401.05	1366.87
401.24	1416.02
401.44	1383.26
401.63	1324.74
401.82	1427.73
402.01	1359.85
402.21	1516.67
402.40	1406.66
402.59	1441.77
402.78	1430.07
402.97	1488.58
403.17	1483.90
403.36	1556.46
403.55	1397.30
403.74	1605.61
403.93	1554.12
404.13	1659.44
404.32	1582.20
404.51	1675.82
404.70	1650.08
404.89	1561.14
405.09	1568.16
405.28	1633.69
405.47	1629.01
405.66	1675.82
405.85	1626.67
406.05	1668.80
406.24	1600.93
406.43	1657.10
406.62	1734.34
406.81	1811.57
407.00	1621.99
407.20	1673.48
407.39	1753.06
407.58	1760.08
407.77	1804.55
407.96	1767.10
408.15	1788.17
408.34	1851.36
408.54	1930.94
408.73	1895.83
408.92	1844.34
409.11	1860.73
409.30	1947.33
409.49	1902.86
409.68	1926.26
409.87	1933.28
410.07	1788.17
410.26	1961.37
410.45	2005.84
410.64	1996.48
410.83	2080.74
411.02	2134.57
411.21	2031.58
411.40	2097.12
411.59	2167.34
411.78	2111.16
411.98	2057.33
412.17	2073.71
412.36	2160.31
412.55	2160.31
412.74	2155.63
412.93	2225.85
413.12	2221.17
413.31	2305.43
413.50	2321.81
413.69	2242.23
413.88	2408.41
414.07	2375.64
414.26	2345.22
414.45	2403.73
414.64	2368.62
414.83	2527.78
415.02	2478.63
415.22	2572.25
415.41	2567.57
415.60	2605.02
415.79	2583.95
415.98	2696.30
416.17	2621.40
416.36	2626.08
416.55	2724.38
416.74	2686.94
416.93	2719.70
417.12	2670.55
417.31	2656.51
417.50	2773.53
417.69	2839.07
417.88	2787.58
418.07	2724.38
418.26	2794.60
418.45	2855.45
418.64	2965.46
418.83	3016.95
419.02	3016.95
419.21	3162.06
419.39	2911.63
419.58	3068.44
419.77	2928.01
419.96	2988.86
420.15	2935.03
420.34	3068.44
420.53	3063.76
420.72	3176.11
420.91	3218.24
421.10	3054.40
421.29	3162.06
421.48	3080.14
421.67	3192.49
421.86	3117.59
422.05	3166.74
422.24	3180.79
422.43	3145.68
422.61	3197.17
422.80	3220.58
422.99	3176.11
423.18	3208.87
423.37	3290.79
423.56	3253.34
423.75	3260.37
423.94	3241.64
424.13	3091.85
424.32	3236.96
424.50	3222.92
424.69	3267.39
424.88	3279.09
425.07	3314.20
425.26	3288.45
425.45	3251.00
425.64	3342.28
425.83	3332.92
426.01	3346.97
426.20	3293.13
426.39	3260.37
426.58	3304.84
426.77	3421.86
426.96	3487.40
427.15	3332.92
427.33	3398.46
427.52	3494.42
427.71	3524.85
427.90	3468.67
428.09	3571.66
428.28	3620.81
428.46	3428.88
428.65	3581.02
428.84	3585.70
429.03	3618.47
429.22	3431.23
429.40	3576.34
429.59	3503.78
429.78	3398.46
429.97	3571.66
430.16	3679.32
430.34	3723.79
430.53	3660.60
430.72	3714.43
430.91	3592.72
431.10	3660.60
431.28	3791.67
431.47	3648.90
431.66	3833.80
431.85	3775.28
432.03	3906.35
432.22	3932.10
432.41	3997.64
432.60	3831.46
432.79	3829.12
432.97	3908.69
433.16	4056.15
433.35	3887.63
433.54	4009.34
433.72	4028.06
433.91	4046.79
434.10	4037.42
434.28	4063.17
434.47	3950.82
434.66	4098.28
434.85	4159.13
435.03	4128.70
435.22	4102.96
435.41	4257.43
435.59	4166.15
435.78	4182.54
435.97	4273.82
436.16	4088.92
436.34	4264.46
436.53	4304.25
436.72	4346.37
436.90	4311.27
437.09	4315.95
437.28	4280.84
437.46	4285.52
437.65	4381.48
437.84	4428.29
438.02	4428.29
438.21	4353.40
438.40	4353.40
438.58	4561.70
438.77	4683.41
438.96	4500.85
439.14	4720.86
439.33	4578.09
439.52	4770.01
439.70	4767.67
439.89	4901.08
440.08	4917.47
440.26	4671.71
440.45	4725.54
440.63	4957.25
440.82	4992.36
441.01	4802.78
441.19	4858.95
441.38	5221.74
441.57	5111.73
441.75	5226.42
441.94	5093.01
442.12	5193.65
442.31	5172.58
442.50	5226.42
442.68	5064.92
442.87	5170.24
443.05	5266.21
443.24	5266.21
443.43	5310.68
443.61	5329.40
443.80	5425.36
443.98	5439.40
444.17	5247.48
444.35	5350.46
444.54	5418.34
444.73	5376.21
444.91	5479.19
445.10	5568.13
445.28	5476.85
445.47	5408.98
445.65	5444.09
445.84	5420.68
446.02	5575.16
446.21	5373.87
446.39	5533.03
446.58	5565.79
446.77	5411.32
446.95	5467.49
447.14	5488.56
447.32	5575.16
447.51	5671.12
447.69	5497.92
447.88	5488.56
448.06	5530.69
448.25	5563.45
448.43	5631.33
448.62	5518.98
448.80	5680.48
448.99	5652.39
449.17	5792.83
449.36	5481.53
449.54	5692.18
449.73	5753.04
449.91	5900.49
450.10	5778.78
450.28	5944.96
450.46	5961.34
450.65	5874.74
450.83	5944.96
451.02	5795.17
451.20	5841.98
451.39	5856.02
451.57	5813.89
451.76	5849.00
451.94	5839.64
452.13	5975.39
452.31	6003.47
452.49	5846.66
452.68	6010.50
452.86	6104.12
453.05	5968.37
453.23	6146.25
453.42	6069.01
453.60	5973.05
453.78	6183.70
453.97	5935.60
454.15	6139.23
454.34	6094.76
454.52	6242.21
454.70	6307.74
454.89	6228.17
455.07	6338.17
455.26	6342.85
455.44	6490.31
455.62	6312.42
455.81	6382.64
455.99	6487.96
456.17	6565.20
456.36	6459.88
456.54	6595.63
456.73	6513.71
456.91	6675.21
457.09	6754.79
457.28	6640.10
457.46	6604.99
457.64	6885.86
457.83	6829.68
458.01	6745.42
458.19	7129.27
458.38	6820.32
458.56	7026.29
458.74	6794.58
458.93	6752.45
459.11	6806.28
459.29	6736.06
459.48	6867.13
459.66	7049.69
459.84	6995.86
460.03	7208.85
460.21	7190.13
460.39	6974.80
460.57	7232.26
460.76	7108.21
460.94	7117.57
461.12	7344.60
461.31	7166.72
461.49	7234.60
461.67	7061.40
461.85	7201.83
462.04	7143.32
462.22	7747.17
462.40	7410.14
462.59	7267.36
462.77	7349.28
462.95	7428.86
463.13	7527.16
463.32	7396.09
463.50	7723.77
463.68	7452.27
463.86	7777.60
464.05	7524.82
464.23	7433.54
464.41	7517.80
464.59	7522.48
464.78	7524.82
464.96	7676.96
465.14	7740.15
465.32	7744.83
465.50	7786.96
465.69	7770.58
465.87	7665.25
466.05	7779.94
466.23	7714.41
466.41	7782.28
466.60	8039.74
466.78	7740.15
466.96	7756.54
467.14	8126.34
467.32	7730.79
467.51	8011.65
467.69	7812.71
467.87	8056.12
468.05	7999.95
468.23	8093.57
468.41	8044.42
468.60	8081.87
468.78	8149.75
468.96	8222.30
469.14	8255.07
469.32	8416.57
469.50	8217.62
469.69	8229.32
469.87	8510.19
470.05	8313.58
470.23	8287.84
470.41	8367.42
470.59	8468.06
470.77	8383.80
470.95	8496.14
471.14	8571.04
471.32	8449.33
471.50	8596.79
471.68	8505.51
471.86	8652.96
472.04	8816.80
472.22	8926.80
472.40	8601.47
472.58	8669.34
472.77	8879.99
472.95	8915.10
473.13	9348.10
473.31	8894.04
473.49	8903.40
473.67	8835.52
473.85	9027.45
474.03	9329.38
474.21	9343.42
474.39	9350.44
474.57	9238.09
474.75	9348.10
474.93	9568.11
475.12	9423.00
475.30	9451.08
475.48	9654.71
475.66	9783.44
475.84	9385.55
476.02	9745.99
476.20	9984.73
476.38	9872.38
476.56	10155.58
476.74	9914.51
476.92	10073.67
477.10	10031.54
477.28	10249.21
477.46	10174.31
477.64	10335.81
477.82	10260.91
478.00	10789.87
478.18	10658.80
478.36	10422.41
478.54	10850.72
478.72	10771.15
478.90	11117.54
479.08	10925.62
479.26	10965.41
479.44	11206.48
479.62	11515.44
479.80	11192.44
479.98	11332.87
480.16	11604.38
480.34	11485.01
480.52	11709.70
480.70	11737.79
480.88	11391.39
481.06	11569.27
481.24	12056.10
481.41	11964.82
481.59	12166.10
481.77	12182.49
481.95	12131.00
482.13	12468.03
482.31	12376.75
482.49	12692.73
482.67	12533.57
482.85	12819.11
483.03	12971.25
483.21	12833.16
483.39	13256.79
483.57	13153.81
483.74	13530.64
483.92	13479.15
484.10	13263.82
484.28	13514.25
484.46	13624.26
484.64	13816.18
484.82	13659.37
485.00	14104.07
485.18	14139.18
485.35	14401.32
485.53	14494.94
485.71	14492.60
485.89	14848.36
486.07	14511.32
486.25	14703.25
486.43	14747.72
486.61	15023.90
486.78	15068.37
486.96	15070.71
487.14	15517.75
487.32	15772.87
487.50	15672.23
487.68	15260.29
487.85	15630.10
488.03	16070.12
488.21	16280.77
488.39	16276.09
488.57	16257.36
488.75	16191.83
488.92	16505.46
489.10	16676.32
489.28	16741.85
489.46	17020.38
489.64	17029.74
489.81	17163.15
489.99	17294.22
490.17	17305.92
490.35	17359.75
490.53	17575.08
490.70	17736.58
490.88	17757.64
491.06	18003.40
491.24	17996.38
491.41	18043.19
491.59	18148.51
491.77	18389.59
491.95	18647.05
492.13	18719.60
492.30	18572.15
492.48	18824.93
492.66	18768.76
492.84	18906.85
493.01	19070.68
493.19	19232.18
493.37	19599.65
493.54	19733.06
493.72	19690.93
493.90	19632.41
494.08	19871.15
494.25	19922.64
494.43	20161.37
494.61	20081.80
494.79	20280.74
494.96	20060.73
495.14	20526.50
495.32	20819.07
495.49	20659.91
495.67	20950.14
495.85	21088.23
496.02	21219.30
496.20	21298.88
496.38	20936.09
496.55	21572.72
496.73	21867.63
496.91	21909.75
497.09	21766.98
497.26	21909.75
497.44	22022.10
497.62	21979.97
497.79	22417.65
497.97	22169.55
498.14	22228.07
498.32	22698.52
498.50	22562.76
498.67	23051.94
498.85	22665.75
499.03	22752.35
499.20	22890.44
499.38	23070.66
499.56	23166.62
499.73	23321.10
499.91	23723.67
500.08	23548.13
500.26	23164.28
500.44	23812.61
500.61	23419.40
500.79	23606.64
500.97	23735.37
501.14	23983.47
501.32	24166.03
501.49	23803.25
501.67	24280.72
501.84	24299.44
502.02	24414.13
502.20	24381.36
502.37	24545.20
502.55	24641.16
502.72	24760.53
502.90	24671.59
503.07	24500.73
503.25	24933.73
503.43	24765.21
503.60	25158.42
503.78	25308.21
503.95	25067.14
504.13	25186.50
504.30	25521.20
504.48	25296.51
504.65	25727.17
504.83	25469.71
505.01	25996.33
505.18	26012.71
505.36	26183.57
505.53	26307.62
505.71	26265.49
505.88	26057.18
506.06	26087.61
506.23	26295.92
506.41	26342.73
506.58	26522.95
506.76	26572.10
506.93	26848.29
507.11	26380.18
507.28	26775.73
507.46	26810.84
507.63	26632.96
507.81	27103.40
507.98	26558.06
508.16	27185.32
508.33	27349.16
508.50	27332.78
508.68	27236.81
508.85	27234.47
509.03	27264.90
509.20	27578.53
509.38	27679.18
509.55	27838.33
509.73	27857.06
509.90	28222.18
510.08	27894.50
510.25	28034.94
510.42	28458.57
510.60	28011.53
510.77	28589.64
510.95	28458.57
511.12	28411.76
511.30	28713.69
511.47	28774.55
511.64	28786.25
511.82	28886.89
511.99	28814.34
512.17	28737.10
512.34	28751.14
512.51	29308.19
512.69	29457.98
512.86	29085.84
513.04	29687.36
513.21	29593.73
513.38	29486.07
513.56	29685.01
513.73	29778.64
513.90	29970.56
514.08	29766.93
514.25	30054.82
514.43	29813.74
514.60	30101.63
514.77	29689.70
514.95	29605.44
515.12	29968.22
515.29	30307.60
515.47	30366.11
515.64	30625.91
515.81	30562.72
515.99	30071.20
516.16	31138.49
516.33	30579.10
516.51	31232.11
516.68	30539.31
516.85	31096.36
517.03	30827.20
517.20	31033.16
517.37	31431.05
517.54	31103.38
517.72	31222.75
517.89	31225.09
518.06	31363.18
518.24	31541.06
518.41	31407.65
518.58	31648.72
518.75	31440.42
518.93	31644.04
519.10	31882.78
519.27	32161.30
519.45	32034.91
519.62	32458.55
519.79	32278.33
519.96	31819.58
520.14	32006.83
520.31	32528.77
520.48	32367.27
520.65	32456.21
520.83	32360.25
521.00	32847.08
521.17	32704.31
521.34	32472.59
521.52	32931.34
521.69	32837.72
521.86	32828.35
522.03	33001.55
522.20	33127.94
522.38	33668.61
522.55	33254.33
522.72	33092.83
522.89	33369.02
523.07	34150.76
523.24	33584.35
523.41	33635.84
523.58	33242.63
523.75	33720.10
523.92	33986.92
524.10	33724.78
524.27	33958.83
524.44	34139.05
524.61	33970.54
524.78	33635.84
524.96	34120.33
525.13	34438.64
525.30	34204.59
525.47	34539.29
525.64	34473.75
525.81	34562.69
525.98	34553.33
526.16	34689.08
526.33	34347.36
526.50	35157.19
526.67	34588.44
526.84	34906.75
527.01	34553.33
527.18	35124.42
527.36	35028.46
527.53	35096.33
527.70	35473.16
527.87	35452.09
528.04	35201.66
528.21	35250.81
528.38	35311.66
528.55	35374.86
528.72	35115.06
528.89	35803.17
529.07	35365.49
529.24	35171.23
529.41	35744.66
529.58	35683.81
529.75	35709.55
529.92	35910.84
530.09	35955.31
530.26	35608.91
530.43	35728.28
530.60	35480.18
530.77	36170.64
530.94	36236.17
531.11	35997.44
531.28	36180.00
531.46	36676.19
531.63	36402.35
531.80	36458.52
531.97	36327.45
532.14	36477.25
532.31	36472.57
532.48	36739.39
532.65	36919.61
532.82	36474.91
532.99	36615.34
533.16	36503.00
533.33	36833.01
533.50	36840.03
533.67	36797.90
533.84	36863.44
534.01	36926.63
534.18	36994.51
534.35	37560.92
534.52	37174.73
534.69	37549.21
534.86	37057.70
535.03	37378.36
535.20	37156.00
535.37	37340.91
535.54	37713.05
535.71	37415.80
535.88	37635.81
536.05	37816.04
536.22	37811.35
536.38	37677.94
536.55	37921.36
536.72	37935.40
536.89	37663.90
537.06	38106.26
537.23	38457.34
537.40	38007.96
537.57	37427.51
537.74	38134.35
537.91	38321.59
538.08	38630.54
538.25	38017.32
538.42	38499.47
538.59	38459.68
538.75	38197.54
538.92	38485.43
539.09	38775.66
539.26	38752.25
539.43	38735.87
539.60	38600.12
539.77	38803.74
539.94	39000.35
540.11	38677.35
540.28	38745.23
540.44	39292.91
540.61	38934.81
540.78	38948.85
540.95	38967.58
541.12	38981.62
541.29	39033.11
541.46	38946.51
541.62	39269.51
541.79	39510.58
541.96	39084.61
542.13	39264.83
542.30	39381.85
542.47	39571.44
542.63	39349.09
542.80	39887.41
542.97	39791.45
543.14	40121.46
543.31	39564.42
543.48	39718.89
543.64	40306.37
543.81	40250.19
543.98	40378.92
544.15	40147.21
544.32	40023.16
544.48	40327.43
544.65	40467.86
544.82	40692.55
544.99	40112.10
545.16	40261.90
545.32	40311.05
545.49	40416.37
545.66	40847.03
545.83	40287.64
546.00	40348.50
546.16	40388.28
546.33	40818.94
546.50	40112.10
546.67	40430.41
546.83	40435.10
547.00	40009.12
547.17	40467.86
547.34	40594.25
547.50	41401.74
547.67	41317.48
547.84	40615.32
548.00	40722.98
548.17	41092.79
548.34	41223.86
548.51	41390.03
548.67	41404.08
548.84	41017.89
549.01	41116.19
549.18	41010.87
549.34	41560.89
549.51	41593.66
549.68	41064.70
549.84	41221.52
550.01	41443.87
550.18	41116.19
550.34	41888.57
550.51	42066.45
550.68	42029.00
550.84	41481.31
551.01	41759.84
551.18	41710.69
551.34	41940.06
551.51	41689.62
551.68	41275.35
551.84	42127.30
552.01	41383.01
552.18	41706.01
552.34	41647.49
552.51	42256.03
552.68	41811.33
552.84	41776.22
553.01	42263.05
553.18	42230.29
553.34	42267.73
553.51	42089.85
553.67	42230.29
553.84	42361.36
554.01	42476.04
554.17	42417.53
554.34	42422.21
554.51	42670.31
554.67	42934.79
554.84	42836.48
555.00	42330.93
555.17	42335.61
555.33	42803.72
555.50	42550.94
555.67	42586.05
555.83	43023.73
556.00	42710.10
556.16	42997.98
556.33	42754.57
556.50	42492.43
556.66	42911.38
556.83	42351.99
556.99	43089.26
557.16	42869.25
557.32	42983.94
557.49	43267.14
557.65	42976.92
557.82	43423.96
557.98	43049.47
558.15	42906.70
558.32	42965.21
558.48	43014.37
558.65	43192.25
558.81	43683.76
558.98	42902.02
559.14	43082.24
559.31	43395.87
559.47	43267.14
559.64	43243.74
559.80	43159.48
559.97	43292.89
560.13	43559.71
560.30	43363.11
560.46	43569.07
560.63	43632.27
560.79	43613.54
560.96	43789.08
561.12	43695.46
561.29	43353.74
561.45	43550.35
561.61	43667.37
561.78	43058.84
561.94	43782.06
562.11	43608.86
562.27	43599.50
562.44	43695.46
562.60	44100.37
562.77	44135.48
562.93	43665.03
563.10	43817.17
563.26	43768.02
563.42	44119.10
563.59	44030.16
563.75	43562.05
563.92	43863.98
564.08	43686.10
564.24	43814.83
564.41	43824.19
564.57	44273.57
564.74	44219.74
564.90	44182.29
565.07	44100.37
565.23	43873.34
565.39	44151.87
565.56	44039.52
565.72	44259.53
565.88	44243.15
566.05	43922.49
566.21	44018.46
566.38	43681.42
566.54	44091.01
566.70	44542.74
566.87	44264.21
567.03	44168.25
567.19	44357.83
567.36	44608.27
567.52	43903.77
567.68	44236.12
567.85	44486.56
568.01	44383.58
568.17	44154.21
568.34	44498.26
568.50	44470.18
568.66	44545.08
568.83	44257.19
568.99	44158.89
569.15	44266.55
569.32	44170.59
569.48	44645.72
569.64	44568.48
569.81	44690.19
569.97	44325.07
570.13	44622.31
570.30	43938.88
570.46	44488.90
570.62	44385.92
570.78	44659.76
570.95	44718.28
571.11	44685.51
571.27	44142.50
571.43	44196.34
571.60	44758.06
571.76	43981.01
571.92	44542.74
572.09	44369.54
572.25	44074.63
572.41	44189.31
572.57	44325.07
572.74	45067.02
572.90	44334.43
573.06	44713.59
573.22	44708.91
573.38	44463.16
573.55	44952.33
573.71	45181.70
573.87	44793.17
574.03	44666.78
574.20	45258.94
574.36	44465.50
574.52	44896.16
574.68	45270.64
574.84	44947.65
575.01	44765.09
575.17	45240.21
575.33	44507.63
575.49	45055.31
575.65	45123.19
575.82	44650.40
575.98	45074.04
576.14	44818.92
576.30	45095.10
576.46	44762.75
576.62	44975.73
576.79	44676.15
576.95	44938.29
577.11	44701.89
577.27	44858.71
577.43	44872.75
577.59	45261.28
577.75	44488.90
577.92	44322.72
578.08	45059.99
578.24	45113.83
578.40	45518.74
578.56	44999.14
578.72	45081.06
578.88	45284.68
579.04	44832.96
579.21	44919.56
579.37	45481.29
579.53	45340.86
579.69	44811.90
579.85	44982.76
580.01	44748.70
580.17	44500.61
580.33	44786.15
580.49	44774.45
580.65	45265.96
580.82	44849.35
580.98	44818.92
581.14	44631.68
581.30	44971.05
581.46	44711.25
581.62	45237.87
581.78	45092.76
581.94	45373.63
582.10	45099.78
582.26	45057.65
582.42	45045.95
582.58	44973.39
582.74	45095.10
582.90	45099.78
583.06	45069.36
583.22	44844.66
583.38	45148.93
583.54	45462.57
583.70	45017.86
583.86	45228.51
584.02	45160.64
584.18	45462.57
584.34	45272.98
584.50	45312.77
584.66	45130.21
584.82	45539.80
584.98	45469.59
585.14	45385.33
585.30	44809.56
585.46	45621.72
585.62	45249.58
585.78	45635.77
585.94	45151.27
586.10	45158.30
586.26	45212.13
586.42	44769.77
586.58	45366.60
586.74	45324.47
586.90	45319.79
587.06	45680.24
587.22	45151.27
587.38	45055.31
587.54	45059.99
587.70	45446.18
587.86	45619.38
588.02	45284.68
588.18	45130.21
588.34	45556.19
588.49	45067.02
588.65	45656.83
588.81	45277.66
588.97	45404.05
589.13	45483.63
589.29	45184.04
589.45	44975.73
589.61	45839.39
589.77	45106.80
589.93	45556.19
590.08	45682.58
590.24	45617.04
