SpectraSuite Data File
++++++++++++++++++++++++++++++++++++
Date: Fri Oct 25 10:47:18 EDT 2013
User: price-jones
Dark Spectrum Present: No
Reference Spectrum Present: No
Number of Sampled Component Spectra: 1
Spectrometers: USB2+H05261
Integration Time (usec): 100000 (USB2+H05261)
Spectra Averaged: 1 (USB2+H05261)
Boxcar Smoothing: 0 (USB2+H05261)
Correct for Electrical Dark: No (USB2+H05261)
Strobe/Lamp Enabled: No (USB2+H05261)
Correct for Detector Non-linearity: No (USB2+H05261)
Correct for Stray Light: No (USB2+H05261)
Number of Pixels in Processed Spectrum: 2048
>>>>>Begin Processed Spectral Data<<<<<
365.73	121.71
365.92	121.71
366.12	121.71
366.32	58.51
366.52	18.72
366.72	60.85
366.91	0.00
367.11	65.54
367.31	46.81
367.51	28.09
367.70	28.09
367.90	84.26
368.10	67.88
368.30	4.68
368.49	9.36
368.69	51.49
368.89	18.72
369.09	84.26
369.28	105.32
369.48	138.09
369.68	84.26
369.87	84.26
370.07	170.86
370.27	133.41
370.47	276.18
370.66	348.74
370.86	400.23
371.06	411.93
371.25	449.38
371.45	369.80
371.65	461.09
371.84	400.23
372.04	365.12
372.24	475.13
372.44	421.30
372.63	465.77
372.83	470.45
373.03	442.36
373.22	500.87
373.42	461.09
373.62	526.62
373.81	545.34
374.01	566.41
374.21	533.64
374.40	484.49
374.60	589.82
374.79	507.90
374.99	491.51
375.19	512.58
375.38	566.41
375.58	514.92
375.78	564.07
375.97	606.20
376.17	568.75
376.37	559.39
376.56	575.77
376.76	564.07
376.95	512.58
377.15	543.00
377.35	519.60
377.54	547.69
377.74	503.22
377.93	528.96
378.13	606.20
378.33	636.63
378.52	622.58
378.72	631.94
378.91	634.29
379.11	615.56
379.31	624.92
379.50	599.18
379.70	678.76
379.89	620.24
380.09	620.24
380.28	610.88
380.48	620.24
380.68	613.22
380.87	676.41
381.07	671.73
381.26	678.76
381.46	636.63
381.65	599.18
381.85	662.37
382.04	695.14
382.24	664.71
382.43	627.26
382.63	713.86
382.83	634.29
383.02	685.78
383.22	697.48
383.41	580.45
383.61	716.20
383.80	784.08
384.00	645.99
384.19	697.48
384.39	777.06
384.58	709.18
384.78	786.42
384.97	809.83
385.17	622.58
385.36	695.14
385.56	739.61
385.75	697.48
385.95	730.25
386.14	833.23
386.34	748.97
386.53	779.40
386.72	795.78
386.92	734.93
387.11	786.42
387.31	779.40
387.50	779.40
387.70	814.51
387.89	786.42
388.09	758.33
388.28	823.87
388.48	791.10
388.67	854.30
388.86	842.59
389.06	821.53
389.25	835.57
389.45	877.70
389.64	870.68
389.84	894.08
390.03	828.55
390.22	875.36
390.42	863.66
390.61	849.61
390.81	922.17
391.00	931.53
391.19	922.17
391.39	912.81
391.58	945.58
391.78	945.58
391.97	980.68
392.16	968.98
392.36	968.98
392.55	891.74
392.75	812.17
392.94	983.02
393.13	1027.50
393.33	884.72
393.52	933.87
393.71	1027.50
393.91	931.53
394.10	947.92
394.29	894.08
394.49	957.28
394.68	1006.43
394.88	1121.12
395.07	1153.88
395.26	1062.60
395.46	1086.01
395.65	1057.92
395.84	1053.24
396.04	1137.50
396.23	1039.20
396.42	950.26
396.62	1025.15
396.81	1116.44
397.00	1135.16
397.19	1076.65
397.39	1135.16
397.58	1170.27
397.77	1172.61
397.97	1188.99
398.16	1172.61
398.35	1186.65
398.55	1167.93
398.74	1184.31
398.93	1219.42
399.12	1226.44
399.32	1238.14
399.51	1317.72
399.70	1275.59
399.90	1268.57
400.09	1289.64
400.28	1373.89
400.47	1315.38
400.67	1366.87
400.86	1341.13
401.05	1434.75
401.24	1493.26
401.44	1411.34
401.63	1453.47
401.82	1479.22
402.01	1465.18
402.21	1476.88
402.40	1486.24
402.59	1437.09
402.78	1437.09
402.97	1511.99
403.17	1432.41
403.36	1528.37
403.55	1533.05
403.74	1584.54
403.93	1519.01
404.13	1598.59
404.32	1507.30
404.51	1533.05
404.70	1572.84
404.89	1495.60
405.09	1699.23
405.28	1540.07
405.47	1633.69
405.66	1598.59
405.85	1671.14
406.05	1696.89
406.24	1701.57
406.43	1643.06
406.62	1633.69
406.81	1722.63
407.00	1694.55
407.20	1624.33
407.39	1661.78
407.58	1790.51
407.77	1827.96
407.96	1827.96
408.15	1811.57
408.34	1879.45
408.54	1930.94
408.73	1874.77
408.92	1970.73
409.11	1975.41
409.30	1942.64
409.49	1998.82
409.68	1952.01
409.87	1937.96
410.07	1940.30
410.26	2036.27
410.45	1980.09
410.64	2071.37
410.83	2115.84
411.02	2108.82
411.21	2040.95
411.40	2010.52
411.59	2167.34
411.78	2183.72
411.98	2251.60
412.17	2172.02
412.36	2249.25
412.55	2300.75
412.74	2356.92
412.93	2258.62
413.12	2291.38
413.31	2434.16
413.50	2305.43
413.69	2415.43
413.88	2438.84
414.07	2380.32
414.26	2476.29
414.45	2593.31
414.64	2506.71
414.83	2546.50
415.02	2682.25
415.22	2541.82
415.41	2614.38
415.60	2679.91
415.79	2686.94
415.98	2635.44
416.17	2722.04
416.36	2834.39
416.55	2616.72
416.74	2768.85
416.93	2710.34
417.12	2867.16
417.31	2841.41
417.50	2766.51
417.69	3002.91
417.88	2881.20
418.07	2981.84
418.26	2876.52
418.45	2944.39
418.64	3019.29
418.83	3117.59
419.02	3103.55
419.21	2963.12
419.39	2986.52
419.58	3019.29
419.77	3087.17
419.96	3016.95
420.15	3145.68
420.34	3162.06
420.53	3201.85
420.72	3344.63
420.91	3213.56
421.10	3276.75
421.29	3368.03
421.48	3255.69
421.67	3260.37
421.86	3255.69
422.05	3243.98
422.24	3227.60
422.43	3206.53
422.61	3159.72
422.80	3365.69
422.99	3300.16
423.18	3480.38
423.37	3456.97
423.56	3307.18
423.75	3358.67
423.94	3342.28
424.13	3112.91
424.32	3323.56
424.50	3431.23
424.69	3424.20
424.88	3606.77
425.07	3337.60
425.26	3281.43
425.45	3442.93
425.64	3407.82
425.83	3255.69
426.01	3391.44
426.20	3428.88
426.39	3414.84
426.58	3356.33
426.77	3447.61
426.96	3459.31
427.15	3365.69
427.33	3492.08
427.52	3501.44
427.71	3662.94
427.90	3585.70
428.09	3609.11
428.28	3658.26
428.46	3552.93
428.65	3672.30
428.84	3686.34
429.03	3695.71
429.22	3566.98
429.40	3571.66
429.59	3660.60
429.78	3648.90
429.97	3571.66
430.16	3747.20
430.34	3758.90
430.53	3784.65
430.72	3953.16
430.91	3620.81
431.10	3826.78
431.28	3936.78
431.47	3904.01
431.66	4023.38
431.85	3735.50
432.03	4070.19
432.22	3922.74
432.41	3948.48
432.60	4011.68
432.79	4011.68
432.97	4058.49
433.16	4081.89
433.35	3985.93
433.54	4065.51
433.72	4084.23
433.91	4095.94
434.10	4067.85
434.28	4077.21
434.47	4184.88
434.66	4231.69
434.85	4229.35
435.03	4365.10
435.22	4229.35
435.41	4465.74
435.59	4255.09
435.78	4215.30
435.97	4521.92
436.16	4425.95
436.34	4337.01
436.53	4479.79
436.72	4329.99
436.90	4414.25
437.09	4512.55
437.28	4341.69
437.46	4435.32
437.65	4423.61
437.84	4486.81
438.02	4435.32
438.21	4477.44
438.40	4447.02
438.58	4676.39
438.77	4805.12
438.96	4648.30
439.14	4781.71
439.33	4770.01
439.52	4685.75
439.70	4854.27
439.89	5011.09
440.08	4945.55
440.26	5004.07
440.45	4908.10
440.63	5001.72
440.82	5015.77
441.01	4910.44
441.19	5102.37
441.38	5151.52
441.57	4987.68
441.75	5128.11
441.94	5327.06
442.12	5341.10
442.31	5275.57
442.50	5397.28
442.68	5364.51
442.87	5401.96
443.05	5441.75
443.24	5516.64
443.43	5460.47
443.61	5465.15
443.80	5647.71
443.98	5366.85
444.17	5383.23
444.35	5441.75
444.54	5542.39
444.73	5640.69
444.91	5577.50
445.10	5481.53
445.28	5610.26
445.47	5507.28
445.65	5584.52
445.84	5664.10
446.02	5701.54
446.21	5717.93
446.39	5535.37
446.58	5610.26
446.77	5708.57
446.95	5628.99
447.14	5865.38
447.32	5891.13
447.51	5806.87
447.69	5701.54
447.88	5884.11
448.06	5643.03
448.25	5715.59
448.43	5809.21
448.62	5762.40
448.80	5694.52
448.99	5804.53
449.17	5888.79
449.36	5818.57
449.54	5877.09
449.73	6008.16
449.91	6019.86
450.10	6036.24
450.28	6003.47
450.46	6101.78
450.65	6071.35
450.83	6040.92
451.02	6090.07
451.20	6073.69
451.39	6235.19
451.57	6066.67
451.76	6188.38
451.94	6347.53
452.13	6345.19
452.31	6132.20
452.49	6008.16
452.68	6190.72
452.86	6125.18
453.05	6396.68
453.23	6258.59
453.42	6150.93
453.60	6331.15
453.78	6265.61
453.97	6396.68
454.15	6441.15
454.34	6480.94
454.52	6502.01
454.70	6483.28
454.89	6523.07
455.07	6572.22
455.26	6562.86
455.44	6707.98
455.62	6445.84
455.81	6562.86
455.99	6668.19
456.17	6696.27
456.36	6726.70
456.54	6637.76
456.73	6857.77
456.91	6864.79
457.09	6773.51
457.28	7089.48
457.46	6897.56
457.64	6853.09
457.83	6958.41
458.01	6834.36
458.19	7066.08
458.38	7073.10
458.56	7129.27
458.74	7159.70
458.93	7070.76
459.11	7094.16
459.29	7023.95
459.48	7311.83
459.66	7325.88
459.84	7265.02
460.03	7515.46
460.21	7386.73
460.39	7297.79
460.57	7197.15
460.76	7309.49
460.94	7321.20
461.12	7400.77
461.31	7414.82
461.49	7435.88
461.67	7328.22
461.85	7527.16
462.04	7597.38
462.22	8051.44
462.40	7754.19
462.59	7557.59
462.77	7648.87
462.95	7585.68
463.13	7653.55
463.32	7770.58
463.50	7648.87
463.68	7852.50
463.86	7786.96
464.05	7573.97
464.23	7995.27
464.41	7662.91
464.59	7625.47
464.78	7908.67
464.96	7791.64
465.14	7829.09
465.32	7934.42
465.50	7999.95
465.69	8018.68
465.87	7868.88
466.05	8102.93
466.23	7866.54
466.41	7920.37
466.60	8336.99
466.78	7892.29
466.96	8138.04
467.14	7824.41
467.32	8224.64
467.51	8234.00
467.69	7875.90
467.87	8142.72
468.05	8219.96
468.23	8210.60
468.41	8365.07
468.60	8203.58
468.78	8542.96
468.96	8182.51
469.14	8301.88
469.32	8512.53
469.50	8332.31
469.69	8231.66
469.87	8557.00
470.05	8711.47
470.23	8730.20
470.41	8454.02
470.59	8596.79
470.77	8641.26
470.95	8674.03
471.14	8659.98
471.32	8409.54
471.50	9067.24
471.68	8748.92
471.86	9053.19
472.04	9011.06
472.22	9069.58
472.40	8947.87
472.58	9004.04
472.77	9083.62
472.95	9343.42
473.13	9408.95
473.31	9256.82
473.49	9355.12
473.67	9238.09
473.85	9076.60
474.03	9359.80
474.21	9610.24
474.39	9551.73
474.57	9497.89
474.75	9858.34
474.93	9757.69
475.12	9863.02
475.30	9973.02
475.48	9703.86
475.66	9912.17
475.84	9851.31
476.02	9827.91
476.20	9916.85
476.38	10094.73
476.56	10249.21
476.74	10434.11
476.92	10349.85
477.10	10242.18
477.28	10539.43
477.46	10394.32
477.64	10567.52
477.82	10665.82
478.00	10736.04
478.18	10726.68
478.36	11080.10
478.54	11136.27
478.72	11255.64
478.90	11239.25
479.08	11384.37
479.26	11414.79
479.44	11499.05
479.62	11705.02
479.80	11360.96
479.98	11660.55
480.16	12018.65
480.34	11674.59
480.52	11901.62
480.70	12086.53
480.88	11712.04
481.06	12142.70
481.24	11901.62
481.41	12365.05
481.59	12568.68
481.77	12575.70
481.95	12615.49
482.13	12517.18
482.31	12809.75
482.49	13046.15
482.67	12987.63
482.85	13205.30
483.03	13184.24
483.21	13294.24
483.39	13394.89
483.57	13261.48
483.74	13357.44
483.92	13764.69
484.10	13635.96
484.28	13914.48
484.46	14066.62
484.64	14459.83
484.82	14197.69
485.00	14242.16
485.18	14483.24
485.35	14485.58
485.53	14501.96
485.71	14555.79
485.89	14956.02
486.07	14941.98
486.25	15028.58
486.43	14757.08
486.61	14970.07
486.78	15311.78
486.96	15503.71
487.14	15791.59
487.32	15367.96
487.50	16187.14
487.68	15763.51
487.85	16166.08
488.03	16336.94
488.21	16521.84
488.39	16297.15
488.57	16561.63
488.75	16741.85
488.92	16737.17
489.10	16861.22
489.28	16989.95
489.46	17378.48
489.64	17294.22
489.81	17373.80
489.99	17736.58
490.17	17980.00
490.35	18331.08
490.53	17984.68
490.70	17713.17
490.88	18127.45
491.06	18607.26
491.24	18384.91
491.41	18630.66
491.59	18525.34
491.77	18565.13
491.95	18902.17
492.13	18806.20
492.30	19206.44
492.48	19389.00
492.66	19061.32
492.84	19122.18
493.01	19688.59
493.19	19360.91
493.37	19625.39
493.54	20077.12
493.72	19920.30
493.90	20142.65
494.08	20205.84
494.25	20627.14
494.43	20673.95
494.61	20589.69
494.79	20776.94
494.96	20596.71
495.14	20856.51
495.32	21240.36
495.49	20996.95
495.67	20994.61
495.85	21214.62
496.02	21537.61
496.20	21694.43
496.38	21537.61
496.55	21591.44
496.73	22136.79
496.91	21858.26
497.09	21958.91
497.26	22274.88
497.44	21954.22
497.62	22267.86
497.79	22747.67
497.97	22569.79
498.14	22955.97
498.32	23098.75
498.50	22738.30
498.67	22941.93
498.85	23484.94
499.03	23440.47
499.20	22843.63
499.38	23433.44
499.56	23445.15
499.73	23875.80
499.91	23559.83
500.08	23765.80
500.26	23880.49
500.44	23686.22
500.61	23854.74
500.79	23885.17
500.97	24343.91
501.14	24577.97
501.32	24439.87
501.49	24247.95
501.67	24575.62
501.84	24734.78
502.02	24959.47
502.20	24575.62
502.37	24905.64
502.55	24592.01
502.72	24957.13
502.90	24865.85
503.07	24905.64
503.25	25006.28
503.43	25123.31
503.60	25273.10
503.78	25507.16
503.95	25153.74
504.13	25509.50
504.30	25399.49
504.48	25652.27
504.65	25883.98
504.83	26326.35
505.01	26419.97
505.18	26113.36
505.36	26265.49
505.53	26373.16
505.71	26623.59
505.88	26167.19
506.06	26375.50
506.23	26773.39
506.41	26518.27
506.58	26417.63
506.76	26923.18
506.93	26897.44
507.11	27037.87
507.28	27049.57
507.46	27138.51
507.63	27133.83
507.81	27395.97
507.98	27154.90
508.16	27419.38
508.33	27604.28
508.50	27466.19
508.68	27648.75
508.85	27679.18
509.03	27934.29
509.20	28009.19
509.38	28271.33
509.55	28074.73
509.73	28353.25
509.90	28252.61
510.08	28149.62
510.25	28313.46
510.42	28467.94
510.60	28355.59
510.77	28769.86
510.95	28477.30
511.12	28828.38
511.30	28669.22
511.47	29481.39
511.64	28704.33
511.82	29027.32
511.99	29029.66
512.17	29350.32
512.34	29266.06
512.51	29322.23
512.69	29757.57
512.86	29614.80
513.04	29649.91
513.21	29280.10
513.38	29383.09
513.56	29738.85
513.73	29586.71
513.90	29832.47
514.08	30120.35
514.25	30204.61
514.43	30106.31
514.60	30141.42
514.77	30426.96
514.95	30469.09
515.12	30466.75
515.29	30391.86
515.47	30534.63
515.64	31005.08
515.81	30492.50
515.99	30614.21
516.16	31159.55
516.33	30677.40
516.51	30719.53
516.68	30998.06
516.85	31030.82
517.03	30920.82
517.20	31098.70
517.37	31459.14
517.54	31655.75
517.72	31140.83
517.89	30946.56
518.06	31119.76
518.24	31197.00
518.41	31323.39
518.58	31655.75
518.75	31875.76
518.93	31927.25
519.10	31992.78
519.27	32121.51
519.45	32041.93
519.62	31992.78
519.79	32065.34
519.96	32133.21
520.14	32240.88
520.31	32140.24
520.48	32701.96
520.65	32538.13
520.83	32669.20
521.00	32786.22
521.17	32926.66
521.34	32802.61
521.52	32500.68
521.69	33270.72
521.86	32641.11
522.03	33067.09
522.20	33074.11
522.38	33268.37
522.55	33584.35
522.72	33443.91
522.89	33263.69
523.07	33366.68
523.24	33230.93
523.41	33427.53
523.58	33628.82
523.75	34050.11
523.92	33703.71
524.10	34052.45
524.27	34440.98
524.44	33710.74
524.61	33982.24
524.78	34071.18
524.96	34518.22
525.13	34256.08
525.30	34330.98
525.47	34682.06
525.64	34230.33
525.81	34527.58
525.98	34738.23
526.16	34342.68
526.33	34155.44
526.50	34845.90
526.67	34396.51
526.84	34485.45
527.01	34862.28
527.18	34829.51
527.36	34948.88
527.53	35225.06
527.70	35384.22
527.87	35194.64
528.04	34625.89
528.21	35508.27
528.38	35384.22
528.55	35288.26
528.72	35517.63
528.89	35704.87
529.07	35763.39
529.24	35248.47
529.41	35395.92
529.58	35861.69
529.75	35498.91
529.92	35962.33
530.09	35810.20
530.26	35842.96
530.43	36290.01
530.60	35948.29
530.77	35833.60
530.94	35810.20
531.11	36353.20
531.28	36301.71
531.46	36098.08
531.63	36542.78
531.80	36470.23
531.97	35964.67
532.14	36170.64
532.31	36858.76
532.48	36531.08
532.65	36613.00
532.82	36613.00
532.99	36758.11
533.16	36449.16
533.33	36294.69
533.50	36868.12
533.67	36973.44
533.84	36797.90
534.01	37074.09
534.18	37015.57
534.35	37338.57
534.52	37060.04
534.69	37111.53
534.86	37439.21
535.03	36954.72
535.20	37148.98
535.37	37560.92
535.54	37694.33
535.71	37254.31
535.88	37689.65
536.05	37497.72
536.22	37399.42
536.38	37827.74
536.55	37860.51
536.72	37823.06
536.89	37195.79
537.06	37579.64
537.23	37858.17
537.40	38054.77
537.57	38026.68
537.74	37596.03
537.91	38148.39
538.08	37876.89
538.25	37139.62
538.42	37893.27
538.59	38340.32
538.75	37902.64
538.92	37982.21
539.09	38522.88
539.26	38326.27
539.43	38630.54
539.60	38499.47
539.77	38700.76
539.94	38902.04
540.11	38354.36
540.28	38288.82
540.44	38574.37
540.61	38508.83
540.78	38574.37
540.95	38431.60
541.12	39009.71
541.29	38419.89
541.46	38529.90
541.62	39454.41
541.79	38763.95
541.96	38457.34
542.13	38438.62
542.30	39115.03
542.47	39049.50
542.63	38796.72
542.80	39496.54
542.97	39400.58
543.14	39374.83
543.31	39746.98
543.48	39754.00
543.64	39906.13
543.81	39892.09
543.98	39461.43
544.15	39400.58
544.32	39957.63
544.48	40376.58
544.65	40116.78
544.82	39552.71
544.99	39667.40
545.16	40030.18
545.32	39728.25
545.49	39899.11
545.66	40568.51
545.83	40243.17
546.00	40257.21
546.16	40332.11
546.33	39798.47
546.50	39786.77
546.67	40268.92
546.83	39739.96
547.00	40105.08
547.17	40399.99
547.34	39882.73
547.50	40868.09
547.67	40694.89
547.84	40533.40
548.00	40605.95
548.17	41137.26
548.34	40554.46
548.51	40357.86
548.67	41067.04
548.84	40924.27
549.01	40898.52
549.18	40753.41
549.34	40926.61
549.51	41048.32
549.68	41109.17
549.84	40804.90
550.01	41352.58
550.18	41069.38
550.34	41102.15
550.51	41235.56
550.68	41202.79
550.84	40369.56
551.01	41127.89
551.18	41132.57
551.34	41015.55
551.51	41478.97
551.68	41298.75
551.84	41326.84
552.01	41219.17
552.18	41280.03
552.34	41104.49
552.51	41516.42
552.68	41415.78
552.84	41460.25
553.01	41813.67
553.18	41727.07
553.34	41794.95
553.51	41415.78
553.67	41652.17
553.84	41558.55
554.01	41893.25
554.17	42108.58
554.34	42096.88
554.51	41736.43
554.67	41734.09
554.84	42019.64
555.00	41731.75
555.17	41755.16
555.33	41961.12
555.50	41675.58
555.67	42014.96
555.83	42160.07
556.00	42043.04
556.16	42827.12
556.33	42319.23
556.50	42405.83
556.66	42127.30
556.83	42103.90
556.99	42480.72
557.16	41993.89
557.32	42277.10
557.49	42497.11
557.65	41773.88
557.82	42368.38
557.98	42031.34
558.15	42447.96
558.32	42487.74
558.48	42218.58
558.65	42614.13
558.81	42092.19
558.98	42588.39
559.14	42398.80
559.31	42209.22
559.47	42724.14
559.64	43091.60
559.80	42719.46
559.97	42983.94
560.13	42253.69
560.30	42363.70
560.46	42794.36
560.63	42703.07
560.79	42658.60
560.96	43454.39
561.12	42857.55
561.29	42665.63
561.45	42831.80
561.61	42637.54
561.78	42862.23
561.94	42635.20
562.11	42827.12
562.27	42869.25
562.44	42979.26
562.60	42904.36
562.77	43309.27
562.93	42852.87
563.10	42859.89
563.26	42735.84
563.42	42988.62
563.59	42792.01
563.75	42923.08
563.92	43316.29
564.08	43009.68
564.24	43386.51
564.41	43185.22
564.57	42902.02
564.74	43019.05
564.90	43063.52
565.07	43173.52
565.23	43367.79
565.39	43093.94
565.56	43180.54
565.72	42707.76
565.88	43061.18
566.05	42911.38
566.21	43115.01
566.38	43005.00
566.54	42820.10
566.70	43384.17
566.87	43620.56
567.03	43199.27
567.19	43540.99
567.36	42972.24
567.52	43325.66
567.68	43463.75
567.85	43508.22
568.01	43526.94
568.17	43454.39
568.34	43395.87
568.50	43496.52
568.66	43381.83
568.83	43166.50
568.99	43377.15
569.15	43433.32
569.32	43412.26
569.48	43217.99
569.64	43475.45
569.81	43164.16
569.97	43283.53
570.13	43854.62
570.30	43351.40
570.46	43349.06
570.62	43271.82
570.78	43323.32
570.95	43283.53
571.11	43988.03
571.27	43821.85
571.43	43590.14
571.60	43761.00
571.76	43529.28
571.92	43330.34
572.09	43276.51
572.25	43658.01
572.41	43480.13
572.57	43468.43
572.74	43863.98
572.90	43952.92
573.06	43669.72
573.22	43702.48
573.38	43599.50
573.55	43702.48
573.71	44091.01
573.87	44154.21
574.03	43299.91
574.20	43316.29
574.36	43908.45
574.52	43512.90
574.68	43761.00
574.84	44076.97
575.01	43831.21
575.17	43674.40
575.33	43489.49
575.49	43768.02
575.65	44079.31
575.82	44083.99
575.98	43854.62
576.14	43739.93
576.30	43814.83
576.46	43746.95
576.62	43615.88
576.79	43473.11
576.95	43232.04
577.11	43887.39
577.27	43763.34
577.43	43718.87
577.59	44105.06
577.75	43875.68
577.92	43463.75
578.08	43786.74
578.24	43555.03
578.40	43791.42
578.56	43725.89
578.72	44002.07
578.88	44184.63
579.04	43999.73
579.21	43782.06
579.37	43517.58
579.53	43690.78
579.69	43709.50
579.85	43693.12
580.01	44231.44
580.17	43969.30
580.33	44392.94
580.49	44184.63
580.65	43976.33
580.82	44109.74
580.98	43969.30
581.14	44191.65
581.30	43629.93
581.46	43395.87
581.62	44257.19
581.78	44027.82
581.94	44556.78
582.10	44119.10
582.26	44154.21
582.42	43955.26
582.58	43948.24
582.74	43800.79
582.90	44006.75
583.06	44107.40
583.22	44004.41
583.38	44617.63
583.54	43892.07
583.70	43580.78
583.86	43908.45
584.02	43791.42
584.18	43899.09
584.34	44109.74
584.50	43990.37
584.66	43997.39
584.82	44051.22
584.98	44301.66
585.14	44034.84
585.30	43995.05
585.46	43964.62
585.62	43957.60
585.78	43676.74
585.94	44062.93
586.10	44130.80
586.26	43988.03
586.42	43859.30
586.58	44147.18
586.74	43983.35
586.90	43498.86
587.06	43803.13
587.22	44334.43
587.38	43849.94
587.54	44282.94
587.70	44416.35
587.86	44079.31
588.02	44299.32
588.18	44224.42
588.34	44161.23
588.49	43791.42
588.65	43358.42
588.81	43936.54
588.97	43880.36
589.13	43576.09
589.29	43803.13
589.45	43814.83
589.61	43983.35
589.77	44528.69
589.93	44610.61
590.08	43978.67
590.24	44545.08
590.40	44329.75
