SpectraSuite Data File
++++++++++++++++++++++++++++++++++++
Date: Fri Oct 25 10:48:14 EDT 2013
User: price-jones
Dark Spectrum Present: No
Reference Spectrum Present: No
Number of Sampled Component Spectra: 1
Spectrometers: USB2+H05261
Integration Time (usec): 100000 (USB2+H05261)
Spectra Averaged: 1 (USB2+H05261)
Boxcar Smoothing: 0 (USB2+H05261)
Correct for Electrical Dark: No (USB2+H05261)
Strobe/Lamp Enabled: No (USB2+H05261)
Correct for Detector Non-linearity: No (USB2+H05261)
Correct for Stray Light: No (USB2+H05261)
Number of Pixels in Processed Spectrum: 2048
>>>>>Begin Processed Spectral Data<<<<<
365.73	128.73
365.92	128.73
366.12	128.73
366.32	51.49
366.52	37.45
366.72	30.43
366.91	14.04
367.11	0.00
367.31	16.38
367.51	21.06
367.70	77.24
367.90	53.83
368.10	0.00
368.30	46.81
368.49	77.24
368.69	65.54
368.89	72.56
369.09	30.43
369.28	107.66
369.48	58.51
369.68	9.36
369.87	11.70
370.07	72.56
370.27	154.48
370.47	222.35
370.66	411.93
370.86	535.98
371.06	423.64
371.25	463.43
371.45	465.77
371.65	437.68
371.84	388.53
372.04	440.02
372.24	498.53
372.44	461.09
372.63	491.51
372.83	521.94
373.03	552.37
373.22	489.17
373.42	409.59
373.62	540.66
373.81	566.41
374.01	589.82
374.21	596.84
374.40	550.03
374.60	601.52
374.79	486.83
374.99	475.13
375.19	573.43
375.38	557.05
375.58	643.65
375.78	575.77
375.97	655.35
376.17	589.82
376.37	589.82
376.56	573.43
376.76	561.73
376.95	500.87
377.15	650.67
377.35	575.77
377.54	669.39
377.74	561.73
377.93	610.88
378.13	730.25
378.33	660.03
378.52	568.75
378.72	704.50
378.91	660.03
379.11	648.33
379.31	676.41
379.50	615.56
379.70	662.37
379.89	683.44
380.09	692.80
380.28	664.71
380.48	697.48
380.68	641.31
380.87	613.22
381.07	655.35
381.26	713.86
381.46	634.29
381.65	695.14
381.85	660.03
382.04	718.54
382.24	650.67
382.43	704.50
382.63	580.45
382.83	634.29
383.02	706.84
383.22	711.52
383.41	730.25
383.61	699.82
383.80	748.97
384.00	741.95
384.19	767.70
384.39	828.55
384.58	730.25
384.78	692.80
384.97	837.91
385.17	795.78
385.36	763.01
385.56	795.78
385.75	788.76
385.95	805.14
386.14	807.48
386.34	779.40
386.53	723.23
386.72	844.93
386.92	828.55
387.11	917.49
387.31	767.70
387.50	755.99
387.70	784.08
387.89	861.32
388.09	842.59
388.28	929.19
388.48	877.70
388.67	863.66
388.86	863.66
389.06	866.00
389.25	947.92
389.45	910.47
389.64	901.11
389.84	938.55
390.03	851.96
390.22	931.53
390.42	940.90
390.61	926.85
390.81	968.98
391.00	980.68
391.19	994.73
391.39	976.00
391.58	1020.47
391.78	997.07
391.97	1029.84
392.16	985.37
392.36	947.92
392.55	1004.09
392.75	1004.09
392.94	924.51
393.13	898.77
393.33	973.66
393.52	968.98
393.71	961.96
393.91	1132.82
394.10	1004.09
394.29	1053.24
394.49	1086.01
394.68	1125.80
394.88	1090.69
395.07	1170.27
395.26	1100.05
395.46	1088.35
395.65	1111.75
395.84	1163.25
396.04	1067.28
396.23	1069.62
396.42	1104.73
396.62	1242.82
396.81	1130.48
397.00	1167.93
397.19	1114.10
397.39	1109.41
397.58	1275.59
397.77	1263.89
397.97	1287.29
398.16	1350.49
398.35	1329.42
398.55	1217.08
398.74	1289.64
398.93	1338.79
399.12	1357.51
399.32	1364.53
399.51	1399.64
399.70	1481.56
399.90	1474.54
400.09	1430.07
400.28	1521.35
400.47	1394.96
400.67	1455.81
400.86	1493.26
401.05	1481.56
401.24	1624.33
401.44	1554.12
401.63	1547.09
401.82	1420.71
402.01	1547.09
402.21	1465.18
402.40	1561.14
402.59	1659.44
402.78	1511.99
402.97	1558.80
403.17	1640.72
403.36	1657.10
403.55	1636.03
403.74	1619.65
403.93	1729.66
404.13	1696.89
404.32	1661.78
404.51	1636.03
404.70	1755.40
404.89	1593.90
405.09	1870.09
405.28	1762.42
405.47	1741.36
405.66	1776.47
405.85	1874.77
406.05	1811.57
406.24	1832.64
406.43	1825.62
406.62	1771.79
406.81	1905.20
407.00	1921.58
407.20	1877.11
407.39	1912.22
407.58	1900.52
407.77	2059.67
407.96	2015.20
408.15	2033.93
408.34	2078.40
408.54	2092.44
408.73	2017.54
408.92	2038.61
409.11	1996.48
409.30	2043.29
409.49	2085.42
409.68	2047.97
409.87	2052.65
410.07	2211.81
410.26	2136.91
410.45	2183.72
410.64	2218.83
410.83	2270.32
411.02	2188.40
411.21	2298.41
411.40	2326.49
411.59	2417.77
411.78	2370.96
411.98	2399.05
412.17	2345.22
412.36	2445.86
412.55	2417.77
412.74	2417.77
412.93	2642.46
413.12	2471.61
413.31	2579.27
413.50	2476.29
413.69	2462.24
413.88	2640.12
414.07	2719.70
414.26	2583.95
414.45	2633.10
414.64	2698.64
414.83	2799.28
415.02	2654.17
415.22	2967.80
415.41	2836.73
415.60	2766.51
415.79	2899.92
415.98	2850.77
416.17	2953.76
416.36	2827.37
416.55	2970.14
416.74	3098.87
416.93	3016.95
417.12	3047.38
417.31	3108.23
417.50	3087.17
417.69	3194.83
417.88	3108.23
418.07	3016.95
418.26	3068.44
418.45	3218.24
418.64	3169.09
418.83	3234.62
419.02	3204.19
419.21	3262.71
419.39	3246.32
419.58	3122.27
419.77	3248.66
419.96	3293.13
420.15	3393.78
420.34	3398.46
420.53	3363.35
420.72	3536.55
420.91	3405.48
421.10	3379.73
421.29	3482.72
421.48	3368.03
421.67	3499.10
421.86	3529.53
422.05	3480.38
422.24	3468.67
422.43	3545.91
422.61	3536.55
422.80	3541.23
422.99	3581.02
423.18	3475.70
423.37	3655.92
423.56	3639.53
423.75	3602.08
423.94	3613.79
424.13	3274.41
424.32	3461.65
424.50	3578.68
424.69	3712.09
424.88	3737.84
425.07	3513.14
425.26	3552.93
425.45	3576.34
425.64	3616.13
425.83	3468.67
426.01	3597.40
426.20	3653.58
426.39	3559.95
426.58	3562.30
426.77	3660.60
426.96	3819.75
427.15	3758.90
427.33	3786.99
427.52	3735.50
427.71	3684.00
427.90	3847.84
428.09	3833.80
428.28	3847.84
428.46	3751.88
428.65	3992.95
428.84	3971.89
429.03	3889.97
429.22	3822.09
429.40	3850.18
429.59	3873.59
429.78	3768.26
429.97	3728.47
430.16	3763.58
430.34	3805.71
430.53	3983.59
430.72	3997.64
430.91	3920.40
431.10	4030.40
431.28	4154.45
431.47	4241.05
431.66	4154.45
431.85	4105.30
432.03	4264.46
432.22	4224.67
432.41	4241.05
432.60	4311.27
432.79	4196.58
432.97	4294.88
433.16	4287.86
433.35	4325.31
433.54	4379.14
433.72	4404.89
433.91	4252.75
434.10	4329.99
434.28	4390.84
434.47	4519.57
434.66	4463.40
434.85	4582.77
435.03	4437.66
435.22	4594.47
435.41	4706.82
435.59	4620.22
435.78	4727.88
435.97	4758.31
436.16	4542.98
436.34	4458.72
436.53	4650.64
436.72	4905.76
436.90	4681.07
437.09	4702.14
437.28	4713.84
437.46	4681.07
437.65	4877.68
437.84	4887.04
438.02	4667.03
438.21	4746.61
438.40	4922.15
438.58	5004.07
438.77	4912.78
438.96	4943.21
439.14	5130.45
439.33	5088.32
439.52	5149.18
439.70	5149.18
439.89	5153.86
440.08	5167.90
440.26	5219.39
440.45	5362.17
440.63	5392.59
440.82	5448.77
441.01	5558.77
441.19	5495.58
441.38	5614.95
441.57	5638.35
441.75	5678.14
441.94	5589.20
442.12	5708.57
442.31	5785.80
442.50	5743.67
442.68	5863.04
442.87	5802.19
443.05	5930.92
443.24	6026.88
443.43	5591.54
443.61	5858.36
443.80	6069.01
443.98	5851.34
444.17	5769.42
444.35	5891.13
444.54	6057.31
444.73	5785.80
444.91	6087.73
445.10	5963.68
445.28	6104.12
445.47	5708.57
445.65	5788.14
445.84	5865.38
446.02	6073.69
446.21	5799.85
446.39	5928.58
446.58	6015.18
446.77	6061.99
446.95	5846.66
447.14	6225.82
447.32	6111.14
447.51	5959.00
447.69	6050.28
447.88	6010.50
448.06	6150.93
448.25	6235.19
448.43	6090.07
448.62	6303.06
448.80	6356.90
448.99	6143.91
449.17	6340.51
449.36	6043.26
449.54	6150.93
449.73	6349.87
449.91	6305.40
450.10	6473.92
450.28	6525.41
450.46	6595.63
450.65	6490.31
450.83	6473.92
451.02	6525.41
451.20	6532.44
451.39	6651.80
451.57	6665.85
451.76	6555.84
451.94	6471.58
452.13	6609.67
452.31	6576.91
452.49	6373.28
452.68	6712.66
452.86	6628.40
453.05	6504.35
453.23	6834.36
453.42	6780.53
453.60	6581.59
453.78	6698.61
453.97	6715.00
454.15	6848.41
454.34	6750.10
454.52	6785.21
454.70	6977.14
454.89	6827.34
455.07	7002.88
455.26	7000.54
455.44	7157.36
455.62	7040.33
455.81	7103.53
455.99	6963.09
456.17	7178.42
456.36	7140.97
456.54	7068.42
456.73	7152.68
456.91	7461.63
457.09	7428.86
457.28	7419.50
457.46	7124.59
457.64	7368.01
457.83	7496.74
458.01	7258.00
458.19	7279.07
458.38	7407.80
458.56	7550.57
458.74	7627.81
458.93	7459.29
459.11	7515.46
459.29	7557.59
459.48	7749.51
459.66	7487.37
459.84	7604.40
460.03	7634.83
460.21	7688.66
460.39	7691.00
460.57	7754.19
460.76	7871.22
460.94	8028.04
461.12	8079.53
461.31	7908.67
461.49	7920.37
461.67	7934.42
461.85	8074.85
462.04	7920.37
462.22	8542.96
462.40	8280.82
462.59	8212.94
462.77	8215.28
462.95	8046.76
463.13	8051.44
463.32	8084.21
463.50	8285.50
463.68	8400.18
463.86	8294.86
464.05	8194.22
464.23	8257.41
464.41	8372.10
464.59	8084.21
464.78	8641.26
464.96	8458.70
465.14	8318.26
465.32	8472.74
465.50	8463.38
465.69	8512.53
465.87	8454.02
466.05	8510.19
466.23	8561.68
466.41	8566.36
466.60	8851.91
466.78	8369.76
466.96	8638.92
467.14	8561.68
467.32	8674.03
467.51	8727.86
467.69	8493.80
467.87	8748.92
468.05	8760.63
468.23	8594.45
468.41	8575.72
468.60	8837.86
468.78	9020.42
468.96	8837.86
469.14	8879.99
469.32	9074.26
469.50	8718.50
469.69	8980.64
469.87	8966.59
470.05	9111.71
470.23	9067.24
470.41	9095.32
470.59	9142.13
470.77	8992.34
470.95	9160.86
471.14	9315.33
471.32	9060.21
471.50	9460.45
471.68	9327.03
471.86	9277.88
472.04	9544.70
472.22	9682.80
472.40	9331.72
472.58	9757.69
472.77	9612.58
472.95	9736.63
473.13	10038.56
473.31	9664.07
473.49	9769.40
473.67	9661.73
473.85	9898.13
474.03	10047.92
474.21	10031.54
474.39	10085.37
474.57	10303.04
474.75	10207.08
474.93	10298.36
475.12	10420.06
475.30	10565.18
475.48	10310.06
475.66	10464.54
475.84	10452.83
476.02	10448.15
476.20	10721.99
476.38	10731.36
476.56	10967.75
476.74	10951.37
476.92	10904.56
477.10	11028.60
477.28	11213.51
477.46	11162.01
477.64	11344.58
477.82	11522.46
478.00	11595.01
478.18	11426.50
478.36	11798.64
478.54	11742.47
478.72	11665.23
478.90	11737.79
479.08	11861.84
479.26	12100.57
479.44	12013.97
479.62	12367.39
479.80	12402.50
479.98	12809.75
480.16	12519.53
480.34	12498.46
480.52	12765.28
480.70	12711.45
480.88	12549.95
481.06	12641.23
481.24	12690.38
481.41	12971.25
481.59	13121.04
481.77	13429.99
481.95	13181.90
482.13	13514.25
482.31	13437.02
482.49	13565.74
482.67	13607.87
482.85	13760.01
483.03	13762.35
483.21	14120.45
483.39	14422.38
483.57	14314.72
483.74	14406.00
483.92	14626.01
484.10	14387.27
484.28	14518.34
484.46	14944.32
484.64	14984.11
484.82	14738.35
485.00	15007.52
485.18	15126.88
485.35	15445.20
485.53	15241.57
485.71	15173.69
485.89	15295.40
486.07	15382.00
486.25	15871.17
486.43	15775.21
486.61	15978.84
486.78	16252.68
486.96	15985.86
487.14	16470.35
487.32	16173.10
487.50	16744.19
487.68	16657.59
487.85	16889.31
488.03	17158.47
488.21	17116.34
488.39	17153.79
488.57	17535.29
488.75	17547.00
488.92	17652.32
489.10	17795.09
489.28	17949.57
489.46	18223.41
489.64	18148.51
489.81	18490.23
489.99	18766.42
490.17	18853.02
490.35	19051.96
490.53	18974.72
490.70	18904.51
490.88	19061.32
491.06	19491.98
491.24	19435.81
491.41	19349.21
491.59	19709.65
491.77	19452.19
491.95	19391.34
492.13	20084.14
492.30	20046.69
492.48	20107.54
492.66	20348.62
492.84	20135.63
493.01	20414.15
493.19	20381.38
493.37	20561.61
493.54	20765.23
493.72	21177.17
493.90	21181.85
494.08	21221.64
494.25	21523.57
494.43	21469.73
494.61	21708.47
494.79	21900.39
494.96	21706.13
495.14	21666.34
495.32	22078.27
495.49	22239.77
495.67	22174.24
495.85	22443.40
496.02	22532.34
496.20	22651.70
496.38	22909.16
496.55	22977.04
496.73	23330.46
496.91	22965.34
497.09	23559.83
497.26	23225.14
497.44	23428.76
497.62	23482.59
497.79	23566.85
497.97	23597.28
498.14	24147.31
498.32	23777.50
498.50	24166.03
498.67	24095.82
498.85	24304.12
499.03	24339.23
499.20	24404.77
499.38	24496.05
499.56	25013.31
499.73	24748.82
499.91	24863.51
500.08	24919.68
500.26	24819.04
500.44	25130.33
500.61	25025.01
500.79	25069.48
500.97	25331.62
501.14	25682.70
501.32	25703.76
501.49	25865.26
501.67	25923.77
501.84	25764.62
502.02	25591.42
502.20	26040.80
502.37	26033.78
502.55	26319.32
502.72	25940.16
502.90	26120.38
503.07	26265.49
503.25	26347.41
503.43	26478.48
503.60	26686.79
503.78	26267.83
503.95	26434.01
504.13	27159.58
504.30	26855.31
504.48	26850.63
504.65	27065.96
504.83	27138.51
505.01	27243.84
505.18	27281.28
505.36	27534.06
505.53	27569.17
505.71	27646.41
505.88	28048.98
506.06	27627.68
506.23	27803.22
506.41	27725.99
506.58	27831.31
506.76	28425.81
506.93	28381.34
507.11	28444.53
507.28	27997.49
507.46	28327.50
507.63	28226.86
507.81	28135.58
507.98	28423.47
508.16	28533.47
508.33	28603.69
508.50	29109.24
508.68	28959.45
508.85	29373.72
509.03	29324.57
509.20	29036.69
509.38	29539.90
509.55	29549.26
509.73	29514.16
509.90	29252.02
510.08	29343.30
510.25	29715.44
510.42	29614.80
510.60	29710.76
510.77	30157.80
510.95	30314.62
511.12	30082.91
511.30	30574.42
511.47	30677.40
511.64	30684.42
511.82	30618.89
511.99	29998.65
512.17	30810.81
512.34	30169.51
512.51	30614.21
512.69	31002.74
512.86	30911.46
513.04	30969.97
513.21	30953.58
513.38	30876.35
513.56	31087.00
513.73	30733.57
513.90	31204.02
514.08	31339.77
514.25	31330.41
514.43	31578.51
514.60	31470.84
514.77	31491.91
514.95	31868.73
515.12	31845.33
515.29	31585.53
515.47	32098.11
515.64	32222.16
515.81	31386.58
515.99	31941.29
516.16	32322.80
516.33	31442.76
516.51	32503.02
516.68	31941.29
516.85	31676.81
517.03	31960.02
517.20	32215.13
517.37	32222.16
517.54	33001.55
517.72	32650.47
517.89	32472.59
518.06	32449.19
518.24	32788.56
518.41	32643.45
518.58	32694.94
518.75	32854.10
518.93	33053.05
519.10	32957.08
519.27	33226.24
519.45	33347.95
519.62	33677.97
519.79	33469.66
519.96	33549.24
520.14	33701.37
520.31	33167.73
520.48	33790.31
520.65	34012.66
520.83	34220.97
521.00	33577.33
521.17	33780.95
521.34	34036.07
521.52	34443.32
521.69	34298.21
521.86	34508.86
522.03	34597.80
522.20	34286.51
522.38	34815.47
522.55	34422.26
522.72	34258.42
522.89	34696.10
523.07	35178.25
523.24	34555.67
523.41	35140.80
523.58	34801.43
523.75	35213.36
523.92	35393.58
524.10	35098.67
524.27	35189.95
524.44	35512.95
524.61	35243.79
524.78	35695.51
524.96	35503.59
525.13	35763.39
525.30	36009.14
525.47	35770.41
525.64	35758.70
525.81	36072.34
525.98	35732.96
526.16	35681.47
526.33	35557.42
526.50	36144.89
526.67	35374.86
526.84	35950.63
527.01	35983.40
527.18	35885.09
527.36	36093.40
527.53	36542.78
527.70	36704.28
527.87	36584.91
528.04	36589.59
528.21	36662.15
528.38	36449.16
528.55	36744.07
528.72	36755.77
528.89	37076.43
529.07	36865.78
529.24	36744.07
529.41	36680.88
529.58	36339.16
529.75	36540.44
529.92	37200.47
530.09	37181.75
530.26	37411.12
530.43	37425.17
530.60	37221.54
530.77	37413.46
530.94	37624.11
531.11	37652.20
531.28	37511.77
531.46	37350.27
531.63	37708.37
531.80	37570.28
531.97	37661.56
532.14	37598.37
532.31	37682.62
532.48	37886.25
532.65	37942.42
532.82	38113.28
532.99	37956.47
533.16	37972.85
533.33	38157.75
533.50	38089.88
533.67	38089.88
533.84	37890.93
534.01	38405.85
534.18	38017.32
534.35	38560.33
534.52	38288.82
534.69	38600.12
534.86	38649.27
535.03	38770.97
535.20	38848.21
535.37	38944.17
535.54	39213.34
535.71	38852.89
535.88	38824.81
536.05	38728.84
536.22	38773.31
536.38	38946.51
536.55	39210.99
536.72	38974.60
536.89	39136.10
537.06	39342.06
537.23	39323.34
537.40	39108.01
537.57	39173.55
537.74	38958.22
537.91	39571.44
538.08	39728.25
538.25	39236.74
538.42	39325.68
538.59	39690.80
538.75	39253.12
538.92	39611.23
539.09	39971.67
539.26	39419.30
539.43	39459.09
539.60	39611.23
539.77	39784.43
539.94	39662.72
540.11	39592.50
540.28	40091.04
540.44	39976.35
540.61	39906.13
540.78	39807.83
540.95	39590.16
541.12	39945.92
541.29	39962.31
541.46	39819.53
541.62	39892.09
541.79	40612.98
541.96	40018.48
542.13	40013.80
542.30	40376.58
542.47	40591.91
542.63	40243.17
542.80	40467.86
542.97	40889.16
543.14	40964.06
543.31	41027.25
543.48	41071.72
543.64	41258.96
543.81	41148.96
543.98	41099.81
544.15	41207.47
544.32	41340.88
544.48	41450.89
544.65	41116.19
544.82	41141.94
544.99	40964.06
545.16	41160.66
545.32	40945.33
545.49	41607.70
545.66	41298.75
545.83	41598.34
546.00	41605.36
546.16	41684.94
546.33	41617.07
546.50	40907.88
546.67	41467.27
546.83	40971.08
547.00	41619.41
547.17	41336.20
547.34	41720.05
547.50	41631.11
547.67	41911.97
547.84	42082.83
548.00	42127.30
548.17	42014.96
548.34	41804.31
548.51	42153.05
548.67	42234.97
548.84	42120.28
549.01	42410.51
549.18	42412.85
549.34	41872.18
549.51	41872.18
549.68	41933.04
549.84	42813.08
550.01	42354.33
550.18	42398.80
550.34	42349.65
550.51	42422.21
550.68	42223.26
550.84	42136.66
551.01	42579.03
551.18	42658.60
551.34	42553.28
551.51	42382.42
551.68	42724.14
551.84	42586.05
552.01	42487.74
552.18	42354.33
552.34	42176.45
552.51	42782.65
552.68	42515.83
552.84	43187.56
553.01	42976.92
553.18	42883.30
553.34	42747.54
553.51	42691.37
553.67	43093.94
553.84	42916.06
554.01	43210.97
554.17	42983.94
554.34	43178.20
554.51	43000.32
554.67	42976.92
554.84	43538.65
555.00	43271.82
555.17	42810.74
555.33	43398.21
555.50	43459.07
555.67	43325.66
555.83	43042.45
556.00	43079.90
556.16	44027.82
556.33	43201.61
556.50	43782.06
556.66	43297.57
556.83	42855.21
556.99	43524.60
557.16	44163.57
557.32	43873.34
557.49	43952.92
557.65	43449.70
557.82	43604.18
557.98	43662.69
558.15	43866.32
558.32	43660.35
558.48	43571.41
558.65	43613.54
558.81	43178.20
558.98	43997.39
559.14	43702.48
559.31	43768.02
559.47	43852.28
559.64	43903.77
559.80	43817.17
559.97	43594.82
560.13	43761.00
560.30	43622.90
560.46	43753.97
560.63	43842.92
560.79	43917.81
560.96	44292.30
561.12	44095.69
561.29	43625.25
561.45	44229.10
561.61	43803.13
561.78	43983.35
561.94	43852.28
562.11	44556.78
562.27	43943.56
562.44	43856.96
562.60	44119.10
562.77	44320.38
562.93	43955.26
563.10	44514.65
563.26	43665.03
563.42	43810.15
563.59	44341.45
563.75	44296.98
563.92	44364.85
564.08	44385.92
564.24	44556.78
564.41	44282.94
564.57	44423.37
564.74	44222.08
564.90	44336.77
565.07	44423.37
565.23	44247.83
565.39	44175.27
565.56	44577.84
565.72	44170.59
565.88	44278.25
566.05	44123.78
566.21	44339.11
566.38	44315.70
566.54	44179.95
566.70	44966.37
566.87	45055.31
567.03	45127.87
567.19	44535.71
567.36	44856.37
567.52	44493.58
567.68	44601.25
567.85	44369.54
568.01	44046.54
568.17	44484.22
568.34	44744.02
568.50	44687.85
568.66	44737.00
568.83	44844.66
568.99	44505.29
569.15	44524.01
569.32	44851.69
569.48	44409.32
569.64	44790.83
569.81	44477.20
569.97	44554.44
570.13	44847.00
570.30	44390.60
570.46	44018.46
570.62	44250.17
570.78	44406.98
570.95	44367.20
571.11	44570.82
571.27	44404.64
571.43	44847.00
571.60	44861.05
571.76	44605.93
571.92	44435.07
572.09	44657.42
572.25	45099.78
572.41	45186.38
572.57	45069.36
572.74	44975.73
572.90	45071.70
573.06	44769.77
573.22	44760.40
573.38	44769.77
573.55	44577.84
573.71	45071.70
573.87	45062.33
574.03	44362.51
574.20	44999.14
574.36	44535.71
574.52	44884.45
574.68	45078.72
574.84	45017.86
575.01	45174.68
575.17	44575.50
575.33	44706.57
575.49	44905.52
575.65	45467.25
575.82	44828.28
575.98	44985.10
576.14	45317.45
576.30	44694.87
576.46	44727.64
576.62	44755.72
576.79	44322.72
576.95	44683.17
577.11	44765.09
577.27	45165.32
577.43	44978.07
577.59	45057.65
577.75	44683.17
577.92	44196.34
578.08	44942.97
578.24	44638.70
578.40	44418.69
578.56	45102.12
578.72	45057.65
578.88	45275.32
579.04	44912.54
579.21	44788.49
579.37	44924.24
579.53	44935.95
579.69	44397.62
579.85	45331.50
580.01	44926.58
580.17	44610.61
580.33	45221.49
580.49	44830.62
580.65	45343.20
580.82	45338.52
580.98	44713.59
581.14	44641.04
581.30	45062.33
581.46	44748.70
581.62	44690.19
581.78	44741.68
581.94	45382.99
582.10	45111.49
582.26	45162.98
582.42	45085.74
582.58	45162.98
582.74	44807.22
582.90	44746.36
583.06	45373.63
583.22	45404.05
583.38	45474.27
583.54	45270.64
583.70	44891.48
583.86	45109.14
584.02	44924.24
584.18	44971.05
584.34	45195.74
584.50	44957.01
584.66	44949.99
584.82	45109.14
584.98	45507.04
585.14	45544.48
585.30	45212.13
585.46	44889.13
585.62	44882.11
585.78	44615.29
585.94	44729.98
586.10	44664.44
586.26	45127.87
586.42	45570.23
586.58	45528.10
586.74	45406.39
586.90	44825.94
587.06	44886.79
587.22	45045.95
587.38	45006.16
587.54	45272.98
587.70	45170.00
587.86	45118.51
588.02	45357.24
588.18	45350.22
588.34	45010.84
588.49	44900.84
588.65	44559.12
588.81	44404.64
588.97	44694.87
589.13	44722.96
589.29	45003.82
589.45	44758.06
589.61	44928.92
589.77	45448.52
589.93	45172.34
590.08	45280.00
590.24	45427.46
