SpectraSuite Data File
++++++++++++++++++++++++++++++++++++
Date: Fri Oct 25 11:22:46 EDT 2013
User: price-jones
Dark Spectrum Present: No
Reference Spectrum Present: No
Number of Sampled Component Spectra: 1
Spectrometers: USB2+H05261
Integration Time (usec): 100000 (USB2+H05261)
Spectra Averaged: 1 (USB2+H05261)
Boxcar Smoothing: 0 (USB2+H05261)
Correct for Electrical Dark: No (USB2+H05261)
Strobe/Lamp Enabled: No (USB2+H05261)
Correct for Detector Non-linearity: No (USB2+H05261)
Correct for Stray Light: No (USB2+H05261)
Number of Pixels in Processed Spectrum: 2048
>>>>>Begin Processed Spectral Data<<<<<
365.73	227.03
365.92	227.03
366.12	227.03
366.32	70.22
366.52	142.77
366.72	135.75
366.91	63.19
367.11	156.82
367.31	163.84
367.51	88.94
367.70	74.90
367.90	105.32
368.10	107.66
368.30	177.88
368.49	126.39
368.69	173.20
368.89	93.62
369.09	187.24
369.28	166.18
369.48	117.03
369.68	131.07
369.87	238.73
370.07	229.37
370.27	203.63
370.47	283.20
370.66	603.86
370.86	627.26
371.06	683.44
371.25	641.31
371.45	713.86
371.65	713.86
371.84	697.48
372.04	690.46
372.24	711.52
372.44	741.95
372.63	765.36
372.83	681.10
373.03	805.14
373.22	732.59
373.42	753.65
373.62	795.78
373.81	805.14
374.01	805.14
374.21	821.53
374.40	779.40
374.60	924.51
374.79	809.83
374.99	868.34
375.19	830.89
375.38	809.83
375.58	791.10
375.78	823.87
375.97	861.32
376.17	947.92
376.37	770.04
376.56	901.11
376.76	875.36
376.95	826.21
377.15	854.30
377.35	812.17
377.54	880.04
377.74	812.17
377.93	950.26
378.13	894.08
378.33	896.43
378.52	877.70
378.72	990.05
378.91	994.73
379.11	861.32
379.31	950.26
379.50	936.21
379.70	940.90
379.89	919.83
380.09	924.51
380.28	976.00
380.48	936.21
380.68	945.58
380.87	873.02
381.07	1046.22
381.26	997.07
381.46	1029.84
381.65	983.02
381.85	1034.52
382.04	1029.84
382.24	1034.52
382.43	1004.09
382.63	976.00
382.83	999.41
383.02	1081.33
383.22	1100.05
383.41	1128.14
383.61	1095.37
383.80	1205.38
384.00	1139.84
384.19	1081.33
384.39	1135.16
384.58	1167.93
384.78	1039.20
384.97	1174.95
385.17	1128.14
385.36	1128.14
385.56	1165.59
385.75	1200.69
385.95	1132.82
386.14	1163.25
386.34	1179.63
386.53	1231.12
386.72	1287.29
386.92	1273.25
387.11	1188.99
387.31	1231.12
387.50	1233.46
387.70	1263.89
387.89	1341.13
388.09	1296.66
388.28	1196.01
388.48	1203.04
388.67	1268.57
388.86	1345.81
389.06	1350.49
389.25	1294.32
389.45	1366.87
389.64	1348.15
389.84	1425.39
390.03	1411.34
390.22	1301.34
390.42	1423.05
390.61	1308.36
390.81	1329.42
391.00	1416.02
391.19	1409.00
391.39	1500.28
391.58	1441.77
391.78	1455.81
391.97	1605.61
392.16	1373.89
392.36	1568.16
392.55	1507.30
392.75	1516.67
392.94	1589.22
393.13	1486.24
393.33	1603.27
393.52	1497.94
393.71	1533.05
393.91	1558.80
394.10	1556.46
394.29	1596.25
394.49	1617.31
394.68	1708.59
394.88	1535.39
395.07	1568.16
395.26	1657.10
395.46	1638.38
395.65	1675.82
395.84	1750.72
396.04	1783.49
396.23	1788.17
396.42	1715.61
396.62	1797.53
396.81	1788.17
397.00	1682.85
397.19	1743.70
397.39	1771.79
397.58	1867.75
397.77	1804.55
397.97	1785.83
398.16	1811.57
398.35	1919.24
398.55	1834.98
398.74	1970.73
398.93	2001.16
399.12	1977.75
399.32	1928.60
399.51	1916.90
399.70	2022.22
399.90	1956.69
400.09	2066.69
400.28	2066.69
400.47	2052.65
400.67	2038.61
400.86	2099.46
401.05	2087.76
401.24	2115.84
401.44	2064.35
401.63	2207.13
401.82	2101.80
402.01	2062.01
402.21	2305.43
402.40	2310.11
402.59	2097.12
402.78	2289.04
402.97	2209.47
403.17	2340.54
403.36	2218.83
403.55	2256.28
403.74	2359.26
403.93	2375.64
404.13	2396.71
404.32	2473.95
404.51	2478.63
404.70	2408.41
404.89	2354.58
405.09	2511.39
405.28	2445.86
405.47	2502.03
405.66	2574.59
405.85	2661.19
406.05	2504.37
406.24	2541.82
406.43	2569.91
406.62	2574.59
406.81	2733.75
407.00	2548.84
407.20	2614.38
407.39	2663.53
407.58	2773.53
407.77	2642.46
407.96	2775.88
408.15	2822.69
408.34	2810.98
408.54	2906.95
408.73	2773.53
408.92	2839.07
409.11	2920.99
409.30	2939.71
409.49	2888.22
409.68	2876.52
409.87	2960.78
410.07	2986.52
410.26	3047.38
410.45	3082.49
410.64	3056.74
410.83	3091.85
411.02	3035.67
411.21	3222.92
411.40	3206.53
411.59	3281.43
411.78	3183.13
411.98	3197.17
412.17	3332.92
412.36	3288.45
412.55	3321.22
412.74	3365.69
412.93	3258.03
413.12	3412.50
413.31	3562.30
413.50	3440.59
413.69	3562.30
413.88	3604.42
414.07	3529.53
414.26	3571.66
414.45	3770.60
414.64	3726.13
414.83	3719.11
415.02	3719.11
415.22	3784.65
415.41	3901.67
415.60	3847.84
415.79	3960.19
415.98	4044.45
416.17	3978.91
416.36	3859.54
416.55	4072.53
416.74	4166.15
416.93	4159.13
417.12	4175.52
417.31	4154.45
417.50	4173.18
417.69	4245.73
417.88	4486.81
418.07	4215.30
418.26	4255.09
418.45	4472.76
418.64	4386.16
418.83	4554.68
419.02	4535.96
419.21	4421.27
419.39	4573.41
419.58	4545.32
419.77	4484.47
419.96	4608.51
420.15	4589.79
420.34	4561.70
420.53	4624.90
420.72	4650.64
420.91	4823.84
421.10	4770.01
421.29	4828.53
421.48	4683.41
421.67	4812.14
421.86	4812.14
422.05	4889.38
422.24	4858.95
422.43	4819.16
422.61	5015.77
422.80	5029.81
422.99	4966.62
423.18	5001.72
423.37	5032.15
423.56	4950.23
423.75	5081.30
423.94	4861.29
424.13	4578.09
424.32	4613.20
424.50	5111.73
424.69	5111.73
424.88	5130.45
425.07	4975.98
425.26	4861.29
425.45	5039.17
425.64	4966.62
425.83	4882.36
426.01	5085.98
426.20	5088.32
426.39	4992.36
426.58	4985.34
426.77	5013.43
426.96	5144.50
427.15	4994.70
427.33	5172.58
427.52	5093.01
427.71	5352.81
427.90	5165.56
428.09	5294.29
428.28	5235.78
428.46	5394.93
428.65	5282.59
428.84	5439.40
429.03	5689.84
429.22	5509.62
429.40	5605.58
429.59	5591.54
429.78	5331.74
429.97	5411.32
430.16	5476.85
430.34	5701.54
430.53	5617.29
430.72	5633.67
430.91	5652.39
431.10	5731.97
431.28	5933.26
431.47	5650.05
431.66	5926.24
431.85	5830.27
432.03	5959.00
432.22	6064.33
432.41	6033.90
432.60	5928.58
432.79	6090.07
432.97	5977.73
433.16	6125.18
433.35	6019.86
433.54	6073.69
433.72	6200.08
433.91	6054.97
434.10	6230.51
434.28	6174.33
434.47	6094.76
434.66	6291.36
434.85	6265.61
435.03	6399.02
435.22	6380.30
435.41	6614.35
435.59	6764.15
435.78	6394.34
435.97	6509.03
436.16	6572.22
436.34	6349.87
436.53	6569.88
436.72	6684.57
436.90	6612.01
437.09	6817.98
437.28	6532.44
437.46	6717.34
437.65	6715.00
437.84	6759.47
438.02	6682.23
438.21	6890.54
438.40	6850.75
438.58	6984.16
438.77	7117.57
438.96	6869.47
439.14	7236.94
439.33	7190.13
439.52	7276.73
439.70	7197.15
439.89	7541.21
440.08	7400.77
440.26	7386.73
440.45	7321.20
440.63	7456.95
440.82	7506.10
441.01	7470.99
441.19	7541.21
441.38	7754.19
441.57	7686.32
441.75	7878.24
441.94	7936.76
442.12	7941.44
442.31	8013.99
442.50	7981.23
442.68	8116.98
442.87	8018.68
443.05	8360.39
443.24	8236.35
443.43	8114.64
443.61	8147.40
443.80	8423.59
443.98	8107.62
444.17	7901.65
444.35	8390.82
444.54	8379.12
444.73	8259.75
444.91	8273.79
445.10	8365.07
445.28	8573.38
445.47	8638.92
445.65	8416.57
445.84	8423.59
446.02	8615.51
446.21	8606.15
446.39	8493.80
446.58	8493.80
446.77	8571.04
446.95	8454.02
447.14	8767.65
447.32	8533.59
447.51	8622.53
447.69	8468.06
447.88	8690.41
448.06	8711.47
448.25	8535.93
448.43	8545.30
448.62	8622.53
448.80	8498.49
448.99	8901.06
449.17	8655.30
449.36	8664.66
449.54	8809.78
449.73	8952.55
449.91	8971.27
450.10	9057.87
450.28	9097.66
450.46	9088.30
450.65	9085.96
450.83	9013.40
451.02	9165.54
451.20	9291.93
451.39	9088.30
451.57	9193.62
451.76	9046.17
451.94	9095.32
452.13	9434.70
452.31	9352.78
452.49	9205.33
452.68	9336.40
452.86	9294.27
453.05	9525.98
453.23	9605.56
453.42	9427.68
453.60	9289.59
453.78	9535.34
453.97	9362.14
454.15	9460.45
454.34	9638.33
454.52	9762.37
454.70	9696.84
454.89	9731.95
455.07	9823.23
455.26	9792.80
455.44	10083.03
455.62	10230.48
455.81	10057.28
455.99	9989.41
456.17	10284.31
456.36	10286.65
456.54	10300.70
456.73	10331.12
456.91	10413.04
457.09	10408.36
457.28	10651.78
457.46	10242.18
457.64	10600.29
457.83	10712.63
458.01	10565.18
458.19	10883.49
458.38	10691.57
458.56	10834.34
458.74	10883.49
458.93	10490.28
459.11	10684.55
459.29	10916.26
459.48	10904.56
459.66	10839.02
459.84	10960.73
460.03	10993.50
460.21	11150.31
460.39	11307.13
460.57	11068.39
460.76	11087.12
460.94	11337.56
461.12	11337.56
461.31	11206.48
461.49	11033.29
461.67	11199.46
461.85	11679.27
462.04	11426.50
462.22	11847.79
462.40	11683.95
462.59	11449.90
462.77	11639.48
462.95	11674.59
463.13	11695.66
463.32	11576.29
463.50	11812.68
463.68	11871.20
463.86	11833.75
464.05	11871.20
464.23	11723.74
464.41	11887.58
464.59	11698.00
464.78	12156.74
464.96	12072.48
465.14	12072.48
465.32	12084.19
465.50	12081.85
465.69	12107.59
465.87	12201.21
466.05	12313.56
466.23	12269.09
466.41	12252.70
466.60	12407.18
466.78	12519.53
466.96	12177.81
467.14	12320.58
467.32	12578.04
467.51	12573.36
467.69	12418.88
467.87	12442.29
468.05	12844.86
468.23	12622.51
468.41	12531.23
468.60	12765.28
468.78	12980.61
468.96	12718.47
469.14	12774.64
469.32	12879.97
469.50	12753.58
469.69	13102.32
469.87	13181.90
470.05	13149.13
470.23	13156.15
470.41	13184.24
470.59	13338.71
470.77	13149.13
470.95	13474.46
471.14	13575.11
471.32	13195.94
471.50	13488.51
471.68	13563.40
471.86	13769.37
472.04	13841.93
472.22	14129.81
472.40	13673.41
472.58	13956.61
472.77	13879.38
472.95	14246.84
473.13	14609.62
473.31	14211.73
473.49	14303.01
473.67	14127.47
473.85	14513.66
474.03	14628.35
474.21	14544.09
474.39	14853.04
474.57	14679.84
474.75	14918.57
474.93	15229.87
475.12	15201.78
475.30	15260.29
475.48	15410.09
475.66	14946.66
475.84	15281.36
476.02	15583.29
476.20	15477.96
476.38	15793.94
476.56	15791.59
476.74	15896.92
476.92	16030.33
477.10	15955.43
477.28	16482.05
477.46	16170.76
477.64	16681.00
477.82	16512.48
478.00	16659.93
478.18	17029.74
478.36	16952.50
478.54	17284.86
478.72	17252.09
478.90	17818.50
479.08	17568.06
479.26	17795.09
479.44	17750.62
479.62	18246.82
479.80	17881.69
479.98	18340.44
480.16	18576.83
480.34	18352.14
480.52	18813.23
480.70	18801.52
480.88	18321.71
481.06	18801.52
481.24	19103.45
481.41	19300.06
481.59	19477.94
481.77	19782.21
481.95	19791.57
482.13	19772.85
482.31	20027.96
482.49	20460.96
482.67	20245.63
482.85	20547.56
483.03	20762.89
483.21	20858.85
483.39	21041.42
483.57	21266.11
483.74	21429.94
483.92	21598.46
484.10	21179.51
484.28	21914.44
484.46	22263.18
484.64	22562.76
484.82	22059.55
485.00	22403.61
485.18	22632.98
485.35	23255.56
485.53	23047.26
485.71	23124.49
485.89	23728.35
486.07	23206.41
486.25	23470.89
486.43	23461.53
486.61	24067.73
486.78	24320.51
486.96	24528.81
487.14	24491.37
487.32	24879.89
487.50	25027.35
487.68	25097.56
487.85	25539.93
488.03	25720.15
488.21	26202.30
488.39	26272.51
488.57	26176.55
488.75	26508.91
488.92	26536.99
489.10	26977.01
489.28	26705.51
489.46	27250.86
489.64	27321.07
489.81	27854.72
489.99	27948.34
490.17	28250.27
490.35	28205.80
490.53	28893.91
490.70	28580.28
490.88	28481.98
491.06	28833.06
491.24	28840.08
491.41	29408.83
491.59	29738.85
491.77	29305.85
491.95	29736.51
492.13	30167.16
492.30	30228.02
492.48	30188.23
492.66	30529.95
492.84	30515.90
493.01	31103.38
493.19	30810.81
493.37	31402.97
493.54	31711.92
493.72	31915.54
493.90	31882.78
494.08	31828.95
494.25	31749.37
494.43	32343.86
494.61	32648.13
494.79	32400.04
494.96	32687.92
495.14	32842.40
495.32	33546.90
495.49	33186.46
495.67	33497.75
495.85	33710.74
496.02	33741.16
496.20	34176.50
496.38	34197.57
496.55	34691.42
496.73	35484.86
496.91	34597.80
497.09	35295.28
497.26	35299.96
497.44	35054.20
497.62	35709.55
497.79	36013.82
497.97	35564.44
498.14	36528.74
498.32	36790.88
498.50	36226.81
498.67	37263.67
498.85	36793.22
499.03	36748.75
499.20	36886.84
499.38	37212.18
499.56	36704.28
499.73	37457.93
499.91	37640.50
500.08	37659.22
500.26	37682.62
500.44	37984.55
500.61	37806.67
500.79	38078.18
500.97	38155.41
501.14	39058.86
501.32	38567.35
501.49	38974.60
501.67	38539.26
501.84	39218.02
502.02	39201.63
502.20	39136.10
502.37	39786.77
502.55	39494.20
502.72	39754.00
502.90	40004.44
503.07	39620.59
503.25	40226.79
503.43	39625.27
503.60	40416.37
503.78	40474.88
503.95	41022.57
504.13	40961.72
504.30	40861.07
504.48	40823.62
504.65	40865.75
504.83	41443.87
505.01	41553.87
505.18	41729.41
505.36	41748.14
505.53	41514.08
505.71	41776.22
505.88	42714.78
506.06	41801.97
506.23	42134.32
506.41	42447.96
506.58	42637.54
506.76	42597.75
506.93	42934.79
507.11	42852.87
507.28	42745.20
507.46	43189.91
507.63	43540.99
507.81	43489.49
507.98	43510.56
508.16	43548.01
508.33	43681.42
508.50	43648.65
508.68	43910.79
508.85	44098.03
509.03	44093.35
509.20	44545.08
509.38	45045.95
509.55	44729.98
509.73	44648.06
509.90	44816.58
510.08	44760.40
510.25	45102.12
510.42	44680.83
510.60	45308.09
510.77	45916.63
510.95	45759.81
511.12	45329.16
511.30	45764.49
511.47	45694.28
511.64	45921.31
511.82	46358.99
511.99	46225.58
512.17	46419.84
512.34	46014.93
512.51	46639.86
512.69	46607.09
512.86	46731.14
513.04	46831.78
513.21	46925.40
513.38	46983.91
513.56	47377.12
513.73	46969.87
513.90	47571.39
514.08	46857.52
514.25	47559.69
514.43	47697.78
514.60	48175.25
514.77	47657.99
514.95	47744.59
515.12	47543.30
515.29	47908.43
515.47	48598.88
515.64	48650.38
515.81	48156.52
515.99	48521.65
516.16	48858.68
516.33	48858.68
516.51	48802.51
516.68	48671.44
516.85	48718.25
517.03	49085.72
517.20	49221.47
517.37	49207.42
517.54	49066.99
517.72	49212.10
517.89	49088.06
518.06	49593.61
518.24	49406.37
518.41	49663.83
518.58	49567.87
518.75	49624.04
518.93	49666.17
519.10	49858.09
519.27	50426.84
519.45	49979.80
519.62	50298.11
519.79	50171.72
519.96	50057.04
520.14	50234.92
520.31	50267.69
520.48	50843.46
520.65	50798.99
520.83	51117.30
521.00	51147.73
521.17	50630.47
521.34	50880.91
521.52	50988.57
521.69	51213.26
521.86	51316.25
522.03	51332.63
522.20	51765.63
522.38	51877.97
522.55	51676.69
522.72	51782.01
522.89	51512.85
523.07	51742.22
523.24	51711.80
523.41	52016.07
523.58	51688.39
523.75	52264.16
523.92	51894.36
524.10	52289.91
524.27	52154.16
524.44	52341.40
524.61	52388.21
524.78	52523.96
524.96	52509.92
525.13	52680.78
525.30	52624.60
525.47	53059.94
525.64	52903.13
525.81	52861.00
525.98	53062.29
526.16	52662.05
526.33	52830.57
526.50	53216.76
526.67	52807.17
526.84	53113.78
527.01	53104.41
527.18	53268.25
527.36	53167.61
527.53	53141.86
527.70	53600.61
527.87	53549.12
528.04	53343.15
528.21	53928.28
528.38	53743.38
528.55	54049.99
528.72	53609.97
528.89	53827.64
529.07	53778.49
529.24	53631.04
529.41	53998.50
529.58	53661.46
529.75	53909.56
529.92	53883.81
530.09	54206.81
530.26	54206.81
530.43	54138.93
530.60	53996.16
530.77	54057.01
530.94	54225.53
531.11	54281.70
531.28	54244.26
531.46	54417.46
531.63	54468.95
531.80	54480.65
531.97	54850.45
532.14	54824.71
532.31	54813.01
532.48	54770.88
532.65	54855.14
532.82	54557.89
532.99	54899.61
533.16	54841.09
533.33	54897.27
533.50	54993.23
533.67	55178.13
533.84	54997.91
534.01	55091.53
534.18	55175.79
534.35	55533.89
534.52	55435.59
534.69	55519.85
534.86	55515.17
535.03	55344.31
535.20	55332.60
535.37	55531.55
535.54	55489.42
535.71	55526.87
535.88	55725.81
536.05	55599.43
536.22	55704.75
536.38	55877.95
536.55	55791.35
536.72	55770.28
536.89	55679.00
537.06	55901.36
537.23	55924.76
537.40	55632.19
537.57	55880.29
537.74	56140.09
537.91	56062.85
538.08	56053.49
538.25	55772.63
538.42	56257.12
538.59	56334.35
538.75	56074.55
538.92	56250.09
539.09	56371.80
539.26	56285.20
539.43	56378.82
539.60	56610.54
539.77	56430.32
539.94	56645.65
540.11	56474.79
540.28	56479.47
540.44	56725.22
540.61	56633.94
540.78	56722.88
540.95	56629.26
541.12	56811.82
541.29	56388.19
541.46	56921.83
541.62	56748.63
541.79	57031.83
541.96	56580.11
542.13	56879.70
542.30	57017.79
542.47	57022.47
542.63	57158.22
542.80	57270.57
542.97	57258.87
543.14	57293.97
543.31	57521.01
543.48	57380.57
543.64	57633.35
543.81	57497.60
543.98	57518.67
544.15	57446.11
544.32	57820.59
544.48	57654.42
544.65	57680.16
544.82	57804.21
544.99	57588.88
545.16	57513.98
545.32	57755.06
545.49	57904.85
545.66	57897.83
545.83	57581.86
546.00	58010.18
546.16	57883.79
546.33	57696.55
546.50	57766.76
546.67	58054.65
546.83	57588.88
547.00	57858.04
547.17	57808.89
547.34	58007.84
547.50	58202.10
547.67	58438.50
547.84	58166.99
548.00	58354.24
548.17	58340.19
548.34	58298.06
548.51	58452.54
548.67	58492.33
548.84	58372.96
549.01	58251.25
549.18	58426.79
549.34	58239.55
549.51	58482.97
549.68	58590.63
549.84	58607.01
550.01	58759.15
550.18	58555.52
550.34	58529.78
550.51	58653.82
550.68	58749.79
550.84	58635.10
551.01	58843.41
551.18	58915.96
551.34	58852.77
551.51	58532.12
551.68	58820.00
551.84	58805.96
552.01	58672.55
552.18	58890.22
552.34	58787.24
552.51	59023.63
552.68	58670.21
552.84	58824.68
553.01	59192.15
553.18	59037.67
553.34	59119.59
553.51	58805.96
553.67	59047.04
553.84	59072.78
554.01	59311.52
554.17	59054.06
554.34	59281.09
554.51	59292.79
554.67	59449.61
554.84	59243.64
555.00	59346.62
555.17	58986.18
555.33	59126.61
555.50	58871.49
555.67	59159.38
555.83	59187.47
556.00	59199.17
556.16	59566.63
556.33	59461.31
556.50	59447.27
556.66	59618.13
556.83	59199.17
556.99	59533.87
557.16	59728.13
557.32	59639.19
557.49	59653.23
557.65	59664.94
557.82	59482.37
557.98	59568.97
558.15	59529.19
558.32	59671.96
558.48	59482.37
558.65	59529.19
558.81	59618.13
558.98	59746.86
559.14	59695.36
559.31	59756.22
559.47	59856.86
559.64	59985.59
559.80	59849.84
559.97	59767.92
560.13	59852.18
560.30	59671.96
560.46	60058.15
560.63	59929.42
560.79	59887.29
560.96	60119.00
561.12	60097.94
561.29	60186.88
561.45	60016.02
561.61	59962.18
561.78	59950.48
561.94	59976.23
562.11	60280.50
562.27	60179.85
562.44	60364.76
562.60	60027.72
562.77	60315.61
562.93	60116.66
563.10	60240.71
563.26	60037.08
563.42	60402.21
563.59	60161.13
563.75	60282.84
563.92	60107.30
564.08	60189.22
564.24	60374.12
564.41	60451.36
564.57	60364.76
564.74	60161.13
564.90	60294.54
565.07	60374.12
565.23	60512.21
565.39	60317.95
565.56	60320.29
565.72	60193.90
565.88	60343.69
566.05	60444.33
566.21	60413.91
566.38	60423.27
566.54	60645.62
566.70	60369.44
566.87	60495.83
567.03	60458.38
567.19	60708.82
567.36	60530.93
567.52	60523.91
567.68	60727.54
567.85	60605.83
568.01	60516.89
568.17	60219.64
568.34	60631.58
568.50	60603.49
568.66	60523.91
568.83	60676.05
568.99	60385.82
569.15	60498.17
569.32	60540.30
569.48	60491.15
569.64	60683.07
569.81	60727.54
569.97	60589.45
570.13	60807.12
570.30	60647.96
570.46	60687.75
570.62	60807.12
570.78	60526.25
570.95	60711.16
571.11	60825.84
571.27	60750.94
571.43	60912.44
571.60	61031.81
571.76	60769.67
571.92	60851.59
572.09	60690.09
572.25	60870.31
572.41	60697.11
572.57	60732.22
572.74	60956.91
572.90	60760.31
573.06	60825.84
573.22	60804.78
573.38	60870.31
573.55	60849.25
573.71	60844.57
573.87	60821.16
574.03	60617.53
574.20	60867.97
574.36	60514.55
574.52	60914.78
574.68	60814.14
574.84	60999.04
575.01	60975.64
575.17	60996.70
575.33	60867.97
575.49	60807.12
575.65	61165.22
575.82	60907.76
575.98	60985.00
576.14	61116.07
576.30	61055.21
576.46	60809.46
576.62	60982.66
576.79	60828.18
576.95	60832.86
577.11	61024.79
577.27	61123.09
577.43	61069.26
577.59	60882.02
577.75	60912.44
577.92	60954.57
578.08	60865.63
578.24	60996.70
578.40	61036.49
578.56	61123.09
578.72	60832.86
578.88	61090.32
579.04	61120.75
579.21	61057.56
579.37	60898.40
579.53	61282.25
579.69	60750.94
579.85	61010.74
580.01	61134.79
580.17	60793.07
580.33	61071.60
580.49	61085.64
580.65	61230.75
580.82	61003.72
580.98	61052.87
581.14	60938.19
581.30	61146.50
581.46	61080.96
581.62	61123.09
581.78	61176.92
581.94	61073.94
582.10	61144.16
582.26	61034.15
582.42	60985.00
582.58	61116.07
582.74	61113.73
582.90	61193.31
583.06	61179.26
583.22	61010.74
583.38	61265.86
583.54	61275.22
583.70	61221.39
583.86	61207.35
584.02	61048.19
584.18	61176.92
584.34	60999.04
584.50	61001.38
584.66	61087.98
584.82	60874.99
584.98	61186.28
585.14	61179.26
585.30	60999.04
585.46	61141.81
585.62	61158.20
585.78	61347.78
585.94	61106.71
586.10	61268.20
586.26	61193.31
586.42	61279.91
586.58	61160.54
586.74	61123.09
586.90	61352.46
587.06	61155.86
587.22	61230.75
587.38	61181.60
587.54	61460.13
587.70	61258.84
587.86	61312.67
588.02	61263.52
588.18	61291.61
588.34	61282.25
588.49	61523.32
