SpectraSuite Data File
++++++++++++++++++++++++++++++++++++
Date: Fri Oct 25 11:25:38 EDT 2013
User: price-jones
Dark Spectrum Present: No
Reference Spectrum Present: No
Number of Sampled Component Spectra: 1
Spectrometers: USB2+H05261
Integration Time (usec): 100000 (USB2+H05261)
Spectra Averaged: 1 (USB2+H05261)
Boxcar Smoothing: 0 (USB2+H05261)
Correct for Electrical Dark: No (USB2+H05261)
Strobe/Lamp Enabled: No (USB2+H05261)
Correct for Detector Non-linearity: No (USB2+H05261)
Correct for Stray Light: No (USB2+H05261)
Number of Pixels in Processed Spectrum: 2048
>>>>>Begin Processed Spectral Data<<<<<
365.73	245.76
365.92	245.76
366.12	245.76
366.32	187.24
366.52	191.92
366.72	145.11
366.91	126.39
367.11	140.43
367.31	156.82
367.51	65.54
367.70	119.37
367.90	182.56
368.10	154.48
368.30	126.39
368.49	154.48
368.69	198.95
368.89	140.43
369.09	79.58
369.28	173.20
369.48	196.60
369.68	166.18
369.87	236.39
370.07	231.71
370.27	276.18
370.47	325.33
370.66	575.77
370.86	601.52
371.06	638.97
371.25	674.07
371.45	709.18
371.65	641.31
371.84	699.82
372.04	681.10
372.24	725.57
372.44	741.95
372.63	730.25
372.83	629.60
373.03	727.91
373.22	720.88
373.42	858.98
373.62	713.86
373.81	706.84
374.01	758.33
374.21	905.79
374.40	840.25
374.60	863.66
374.79	725.57
374.99	774.72
375.19	819.19
375.38	894.08
375.58	856.64
375.78	887.06
375.97	837.91
376.17	819.19
376.37	805.14
376.56	912.81
376.76	961.96
376.95	873.02
377.15	1015.79
377.35	861.32
377.54	835.57
377.74	800.46
377.93	868.34
378.13	915.15
378.33	929.19
378.52	994.73
378.72	1027.50
378.91	959.62
379.11	964.30
379.31	938.55
379.50	854.30
379.70	999.41
379.89	1008.77
380.09	924.51
380.28	966.64
380.48	976.00
380.68	1050.90
380.87	1050.90
381.07	994.73
381.26	990.05
381.46	994.73
381.65	1174.95
381.85	1046.22
382.04	971.32
382.24	1083.67
382.43	990.05
382.63	1076.65
382.83	973.66
383.02	1001.75
383.22	1125.80
383.41	1104.73
383.61	1130.48
383.80	1062.60
384.00	1125.80
384.19	1123.46
384.39	1128.14
384.58	1179.63
384.78	1139.84
384.97	1212.40
385.17	1111.75
385.36	1156.22
385.56	1186.65
385.75	1198.35
385.95	1249.85
386.14	1188.99
386.34	1196.01
386.53	1196.01
386.72	1163.25
386.92	1294.32
387.11	1268.57
387.31	1306.02
387.50	1275.59
387.70	1261.55
387.89	1172.61
388.09	1200.69
388.28	1291.98
388.48	1289.64
388.67	1364.53
388.86	1266.23
389.06	1273.25
389.25	1303.68
389.45	1256.87
389.64	1329.42
389.84	1336.45
390.03	1369.21
390.22	1331.76
390.42	1275.59
390.61	1413.68
390.81	1446.45
391.00	1444.11
391.19	1385.60
391.39	1458.15
391.58	1401.98
391.78	1430.07
391.97	1427.73
392.16	1420.71
392.36	1554.12
392.55	1451.13
392.75	1401.98
392.94	1563.48
393.13	1516.67
393.33	1554.12
393.52	1612.63
393.71	1556.46
393.91	1547.09
394.10	1554.12
394.29	1607.95
394.49	1516.67
394.68	1619.65
394.88	1603.27
395.07	1657.10
395.26	1694.55
395.46	1614.97
395.65	1715.61
395.84	1713.27
396.04	1802.21
396.23	1757.74
396.42	1696.89
396.62	1846.68
396.81	1771.79
397.00	1797.53
397.19	1689.87
397.39	1804.55
397.58	1842.00
397.77	1799.87
397.97	1858.39
398.16	1795.19
398.35	1895.83
398.55	1914.56
398.74	1830.30
398.93	1891.15
399.12	1893.49
399.32	1942.64
399.51	1893.49
399.70	2059.67
399.90	1970.73
400.09	1877.11
400.28	1956.69
400.47	2050.31
400.67	2097.12
400.86	1987.11
401.05	2073.71
401.24	2179.04
401.44	2111.16
401.63	2132.23
401.82	2176.70
402.01	2165.00
402.21	2176.70
402.40	2204.78
402.59	2129.89
402.78	2221.17
402.97	2195.42
403.17	2162.66
403.36	2246.91
403.55	2314.79
403.74	2209.47
403.93	2298.41
404.13	2342.88
404.32	2385.01
404.51	2368.62
404.70	2436.50
404.89	2356.92
405.09	2464.58
405.28	2583.95
405.47	2513.74
405.66	2569.91
405.85	2434.16
406.05	2581.61
406.24	2644.81
406.43	2548.84
406.62	2607.36
406.81	2682.25
407.00	2607.36
407.20	2558.21
407.39	2621.40
407.58	2588.63
407.77	2799.28
407.96	2801.62
408.15	2813.32
408.34	2700.98
408.54	2782.90
408.73	2715.02
408.92	2752.47
409.11	2778.22
409.30	2892.90
409.49	2878.86
409.68	2904.60
409.87	3026.31
410.07	3063.76
410.26	2918.65
410.45	3073.12
410.64	3077.80
410.83	2932.69
411.02	3206.53
411.21	3157.38
411.40	3141.00
411.59	3258.03
411.78	3185.47
411.98	3073.12
412.17	3316.54
412.36	3286.11
412.55	3190.15
412.74	3349.31
412.93	3213.56
413.12	3356.33
413.31	3461.65
413.50	3471.01
413.69	3382.07
413.88	3576.34
414.07	3576.34
414.26	3700.39
414.45	3545.91
414.64	3676.98
414.83	3667.62
415.02	3754.22
415.22	3700.39
415.41	3815.07
415.60	3712.09
415.79	3779.97
415.98	3939.12
416.17	3873.59
416.36	3969.55
416.55	3932.10
416.74	4044.45
416.93	4046.79
417.12	4231.69
417.31	4037.42
417.50	4201.26
417.69	4138.07
417.88	4259.78
418.07	4191.90
418.26	4313.61
418.45	4360.42
418.64	4507.87
418.83	4372.12
419.02	4416.59
419.21	4421.27
419.39	4643.62
419.58	4402.55
419.77	4414.25
419.96	4540.64
420.15	4599.15
420.34	4461.06
420.53	4648.30
420.72	4718.52
420.91	4702.14
421.10	4674.05
421.29	4730.22
421.48	4564.04
421.67	4802.78
421.86	4788.74
422.05	4870.65
422.24	4791.08
422.43	4842.57
422.61	4788.74
422.80	4779.37
422.99	4945.55
423.18	4865.97
423.37	5083.64
423.56	4884.70
423.75	4856.61
423.94	4861.29
424.13	4652.98
424.32	4660.01
424.50	4798.10
424.69	5013.43
424.88	5034.49
425.07	4840.23
425.26	4910.44
425.45	4870.65
425.64	4903.42
425.83	5020.45
426.01	5128.11
426.20	4985.34
426.39	4931.51
426.58	4975.98
426.77	4936.19
426.96	5093.01
427.15	5015.77
427.33	5139.82
427.52	5116.41
427.71	5177.26
427.90	5261.52
428.09	5291.95
428.28	5369.19
428.46	5467.49
428.65	5313.02
428.84	5472.17
429.03	5582.18
429.22	5341.10
429.40	5448.77
429.59	5500.26
429.78	5240.46
429.97	5238.12
430.16	5455.79
430.34	5476.85
430.53	5689.84
430.72	5523.66
430.91	5570.48
431.10	5678.14
431.28	5666.44
431.47	5776.44
431.66	5809.21
431.85	5809.21
432.03	5926.24
432.22	5928.58
432.41	5959.00
432.60	5687.50
432.79	5907.51
432.97	5942.62
433.16	6099.44
433.35	6012.84
433.54	5977.73
433.72	6099.44
433.91	6040.92
434.10	6162.63
434.28	6101.78
434.47	6174.33
434.66	6415.41
434.85	6209.44
435.03	6239.87
435.22	6232.85
435.41	6338.17
435.59	6370.94
435.78	6408.39
435.97	6422.43
436.16	6303.06
436.34	6422.43
436.53	6459.88
436.72	6675.21
436.90	6445.84
437.09	6483.28
437.28	6319.45
437.46	6572.22
437.65	6562.86
437.84	6754.79
438.02	6864.79
438.21	6689.25
438.40	6548.82
438.58	7007.56
438.77	7140.97
438.96	7030.97
439.14	6988.84
439.33	7040.33
439.52	7199.49
439.70	7131.61
439.89	7162.04
440.08	7452.27
440.26	7321.20
440.45	7363.33
440.63	7372.69
440.82	7480.35
441.01	7503.76
441.19	7667.60
441.38	7719.09
441.57	7691.00
441.75	7871.22
441.94	7850.16
442.12	7817.39
442.31	8086.55
442.50	8028.04
442.68	7831.43
442.87	7943.78
443.05	7981.23
443.24	8095.91
443.43	8198.90
443.61	8163.79
443.80	8379.12
443.98	7934.42
444.17	7744.83
444.35	8161.45
444.54	8325.29
444.73	8327.63
444.91	8325.29
445.10	8362.73
445.28	8301.88
445.47	8234.00
445.65	8386.14
445.84	8245.71
446.02	8397.84
446.21	8458.70
446.39	8166.13
446.58	8610.83
446.77	8442.31
446.95	8318.26
447.14	8514.87
447.32	8739.56
447.51	8549.98
447.69	8486.78
447.88	8564.02
448.06	8421.25
448.25	8411.89
448.43	8617.85
448.62	8542.96
448.80	8545.30
448.99	8617.85
449.17	8678.71
449.36	8425.93
449.54	8999.36
449.73	8802.75
449.91	9029.79
450.10	8985.32
450.28	9156.18
450.46	8933.82
450.65	8929.14
450.83	9139.79
451.02	8964.25
451.20	8961.91
451.39	9130.43
451.57	8940.85
451.76	8952.55
451.94	9170.22
452.13	9439.38
452.31	9263.84
452.49	9149.15
452.68	9202.99
452.86	9247.46
453.05	9231.07
453.23	9334.06
453.42	9275.54
453.60	9153.84
453.78	9373.85
453.97	9411.29
454.15	9523.64
454.34	9350.44
454.52	9638.33
454.70	9612.58
454.89	9708.54
455.07	9762.37
455.26	9914.51
455.44	9750.67
455.62	9919.19
455.81	9818.55
455.99	9923.87
456.17	10001.11
456.36	9982.38
456.54	10012.81
456.73	10408.36
456.91	10340.49
457.09	10178.99
457.28	10310.06
457.46	10342.83
457.64	10354.53
457.83	10340.49
458.01	10328.78
458.19	10640.08
458.38	10459.85
458.56	10668.16
458.74	10832.00
458.93	10403.68
459.11	10787.53
459.29	10721.99
459.48	10796.89
459.66	10839.02
459.84	10913.92
460.03	10972.43
460.21	10876.47
460.39	10775.83
460.57	11126.91
460.76	11206.48
460.94	11133.93
461.12	11084.78
461.31	11066.05
461.49	11126.91
461.67	11197.12
461.85	11332.87
462.04	11199.46
462.22	11726.08
462.40	11466.28
462.59	11466.28
462.77	11393.73
462.95	11770.55
463.13	11318.83
463.32	11459.26
463.50	11550.54
463.68	11810.34
463.86	11651.19
464.05	11653.53
464.23	11644.17
464.41	11723.74
464.59	11569.27
464.78	12013.97
464.96	11861.84
465.14	11793.96
465.32	11768.21
465.50	11826.73
465.69	12168.45
465.87	12114.61
466.05	12053.76
466.23	11946.09
466.41	11969.50
466.60	12175.47
466.78	12044.40
466.96	11988.22
467.14	12224.62
467.32	12407.18
467.51	12479.74
467.69	11978.86
467.87	12479.74
468.05	12400.16
468.23	12308.88
468.41	12327.60
468.60	12606.13
468.78	12786.35
468.96	12535.91
469.14	12587.40
469.32	13034.44
469.50	12561.66
469.69	13149.13
469.87	12809.75
470.05	13238.07
470.23	13095.30
470.41	12989.97
470.59	13151.47
470.77	13200.62
470.95	13282.54
471.14	13556.38
471.32	13221.69
471.50	13437.02
471.68	13565.74
471.86	13659.37
472.04	13488.51
472.22	13968.32
472.40	13521.27
472.58	14043.21
472.77	13891.08
472.95	13916.83
473.13	14406.00
473.31	14050.24
473.49	13919.17
473.67	14059.60
473.85	14162.58
474.03	14356.85
474.21	14504.30
474.39	14647.07
474.57	14684.52
474.75	14895.17
474.93	15126.88
475.12	14965.39
475.30	15147.95
475.48	14829.63
475.66	15157.31
475.84	15005.17
476.02	15602.01
476.20	15159.65
476.38	15506.05
476.56	15716.70
476.74	15901.60
476.92	15754.15
477.10	15648.82
477.28	16058.42
477.46	15859.47
477.64	16407.16
477.82	16304.17
478.00	17071.87
478.18	16531.20
478.36	16657.59
478.54	17231.02
478.72	17139.74
478.90	17453.37
479.08	17224.00
479.26	17500.19
479.44	17385.50
479.62	17755.30
479.80	17790.41
479.98	17844.24
480.16	18253.84
480.34	18195.32
480.52	18396.61
480.70	18490.23
480.88	18380.23
481.06	18597.90
481.24	18754.71
481.41	18693.86
481.59	19066.00
481.77	19358.57
481.95	19159.63
482.13	19707.31
482.31	19510.71
482.49	20147.33
482.67	19906.26
482.85	20451.60
483.03	20613.10
483.21	20482.03
483.39	20622.46
483.57	21034.39
483.74	21032.05
483.92	21373.77
484.10	21214.62
484.28	21291.85
484.46	21645.27
484.64	22171.89
484.82	21874.65
485.00	22052.53
485.18	22415.31
485.35	22916.19
485.53	22911.50
485.71	22904.48
485.89	23604.30
486.07	23330.46
486.25	23293.01
486.43	23576.22
486.61	23871.12
486.78	23953.04
486.96	23761.12
487.14	24474.98
487.32	24334.55
487.50	24709.04
487.68	24606.05
487.85	25055.43
488.03	25165.44
488.21	25743.55
488.39	25895.69
488.57	25778.66
488.75	26258.47
488.92	26417.63
489.10	26890.41
489.28	26789.77
489.46	26941.91
489.64	27122.13
489.81	27693.22
489.99	27419.38
490.17	27360.86
490.35	27981.10
490.53	27927.27
490.70	28147.28
490.88	27784.50
491.06	28542.83
491.24	28772.21
491.41	28606.03
491.59	29230.95
491.77	28975.83
491.95	29530.54
492.13	29841.83
492.30	29979.92
492.48	29759.91
492.66	30068.86
492.84	30129.72
493.01	30492.50
493.19	30623.57
493.37	31016.78
493.54	31419.35
493.72	31391.26
493.90	31161.89
494.08	31311.69
494.25	31548.08
494.43	31831.29
494.61	32105.13
494.79	32147.26
494.96	32261.94
495.14	32613.02
495.32	33181.77
495.49	32774.52
495.67	33244.97
495.85	33462.64
496.02	33654.56
496.20	33694.35
496.38	33692.01
496.55	34146.08
496.73	34548.65
496.91	34408.22
497.09	34637.59
497.26	34897.39
497.44	34562.69
497.62	35178.25
497.79	35751.68
497.97	35431.03
498.14	35683.81
498.32	35597.21
498.50	35611.25
498.67	36236.17
498.85	35999.78
499.03	36842.37
499.20	36266.60
499.38	36804.92
499.56	37174.73
499.73	37130.26
499.91	37233.24
500.08	37488.36
500.26	37191.11
500.44	37586.66
500.61	37720.07
500.79	37376.01
500.97	37886.25
501.14	38328.61
501.32	38267.76
501.49	38040.73
501.67	38965.24
501.84	38731.18
502.02	38490.11
502.20	38902.04
502.37	39398.24
502.55	38817.78
502.72	39330.36
502.90	39381.85
503.07	39007.37
503.25	39152.48
503.43	39679.10
503.60	39810.17
503.78	40107.42
503.95	40041.88
504.13	40360.20
504.30	40395.31
504.48	40491.27
504.65	40018.48
504.83	40760.43
505.01	41214.49
505.18	40802.56
505.36	41532.81
505.53	40893.84
505.71	41207.47
505.88	41216.83
506.06	41057.68
506.23	41855.80
506.41	41453.23
506.58	41811.33
506.76	41923.68
506.93	42506.47
507.11	41797.29
507.28	42190.50
507.46	42607.11
507.63	42450.30
507.81	42710.10
507.98	42705.41
508.16	42815.42
508.33	43166.50
508.50	43194.59
508.68	43302.25
508.85	43524.60
509.03	43138.41
509.20	43426.30
509.38	44135.48
509.55	43636.95
509.73	43875.68
509.90	44465.50
510.08	44516.99
510.25	44783.81
510.42	44479.54
510.60	44975.73
510.77	44917.22
510.95	45357.24
511.12	44996.80
511.30	45111.49
511.47	45003.82
511.64	45106.80
511.82	45617.04
511.99	45151.27
512.17	45457.88
512.34	45354.90
512.51	45888.54
512.69	46127.28
512.86	46237.28
513.04	46349.63
513.21	46504.10
513.38	46532.19
513.56	46766.24
513.73	46419.84
513.90	46763.90
514.08	46696.03
514.25	46789.65
514.43	46855.18
514.60	47334.99
514.77	47058.81
514.95	47384.15
515.12	47306.91
515.29	47679.05
515.47	47868.64
515.64	48233.76
515.81	47512.88
515.99	47957.58
516.16	48301.64
516.33	48219.72
516.51	48378.87
516.68	48095.67
516.85	48409.30
517.03	48505.26
517.20	48736.98
517.37	48671.44
517.54	48912.52
517.72	49139.55
517.89	48935.92
518.06	49289.34
518.24	49329.13
518.41	48952.30
518.58	49151.25
518.75	49336.15
518.93	49331.47
519.10	49485.95
519.27	49579.57
519.45	49659.15
519.62	49712.98
519.79	49794.90
519.96	49984.48
520.14	49820.64
520.31	49443.82
520.48	50234.92
520.65	50255.98
520.83	50438.54
521.00	50553.23
521.17	50124.91
521.34	50265.34
521.52	50492.38
521.69	50705.37
521.86	50618.77
522.03	50831.75
522.20	50990.91
522.38	51463.70
522.55	50869.20
522.72	51192.20
522.89	50862.18
523.07	51480.08
523.24	51091.55
523.41	51477.74
523.58	51297.52
523.75	51585.41
523.92	51519.87
524.10	51810.10
524.27	52046.49
524.44	51915.42
524.61	51978.62
524.78	51936.49
524.96	51613.49
525.13	51828.82
525.30	52467.79
525.47	52097.98
525.64	52128.41
525.81	52296.93
525.98	52317.99
526.16	52603.54
526.33	52622.26
526.50	52741.63
526.67	52591.84
526.84	52905.47
527.01	52535.66
527.18	52886.74
527.36	52608.22
527.53	53076.33
527.70	53464.86
527.87	53162.93
528.04	52985.05
528.21	53118.46
528.38	53193.36
528.55	53418.05
528.72	53102.07
528.89	53071.65
529.07	53139.52
529.24	53027.18
529.41	53525.71
529.58	53516.35
529.75	53745.72
529.92	53616.99
530.09	53820.62
530.26	53837.00
530.43	53645.08
530.60	53614.65
530.77	53710.61
530.94	53607.63
531.11	54066.38
531.28	53783.17
531.46	53860.41
531.63	54117.87
531.80	54005.52
531.97	54127.23
532.14	54468.95
532.31	54160.00
532.48	54506.40
532.65	54480.65
532.82	54471.29
532.99	54593.00
533.16	54358.94
533.33	54543.84
533.50	54913.65
533.67	54901.95
533.84	54358.94
534.01	54677.25
534.18	54979.18
534.35	55096.21
534.52	54829.39
534.69	55157.06
534.86	55072.81
535.03	54981.52
535.20	55077.49
535.37	55145.36
535.54	55124.30
535.71	55327.92
535.88	55274.09
536.05	55421.55
536.22	55341.97
536.38	55409.84
536.55	55545.59
536.72	55524.53
536.89	54850.45
537.06	55655.60
537.23	55503.46
537.40	55351.33
537.57	55540.91
537.74	55613.47
537.91	55592.40
538.08	55592.40
538.25	55707.09
538.42	55639.22
538.59	55908.38
538.75	55482.40
538.92	55690.71
539.09	56147.11
539.26	55945.83
539.43	56039.45
539.60	55880.29
539.77	56107.32
539.94	56231.37
540.11	56158.81
540.28	56147.11
540.44	56399.89
540.61	56357.76
540.78	56048.81
540.95	56449.04
541.12	56097.96
541.29	56156.47
541.46	56240.73
541.62	56336.69
541.79	56587.13
541.96	56177.54
542.13	56479.47
542.30	56863.32
542.47	56505.21
542.63	56636.28
542.80	56882.04
542.97	57003.75
543.14	56956.94
543.31	56940.55
543.48	57057.58
543.64	57446.11
543.81	57153.54
543.98	57401.64
544.15	57057.58
544.32	57478.88
544.48	57481.22
544.65	57240.14
544.82	57469.51
544.99	57066.94
545.16	57523.35
545.32	57205.03
545.49	57558.45
545.66	57560.79
545.83	57518.67
546.00	57567.82
546.16	57396.96
546.33	57396.96
546.50	57336.10
546.67	57523.35
546.83	57268.23
547.00	57546.75
547.17	57492.92
547.34	57567.82
547.50	57822.93
547.67	57790.17
547.84	57996.13
548.00	58014.86
548.17	58042.95
548.34	58064.01
548.51	58078.05
548.67	58319.13
548.84	58136.57
549.01	58082.73
549.18	58082.73
549.34	58230.19
549.51	58038.26
549.68	58061.67
549.84	58307.43
550.01	58277.00
550.18	57991.45
550.34	58258.27
550.51	58452.54
550.68	58291.04
550.84	58061.67
551.01	58354.24
551.18	58286.36
551.34	58258.27
551.51	58508.71
551.68	58410.41
551.84	58536.80
552.01	58328.49
552.18	58298.06
552.34	58389.34
552.51	58492.33
552.68	58440.84
552.84	58518.07
553.01	58693.61
553.18	58614.04
553.34	58805.96
553.51	58583.61
553.67	58841.07
553.84	58913.62
554.01	58590.63
554.17	58979.16
554.34	58918.31
554.51	58784.90
554.67	58890.22
554.84	59004.91
555.00	58948.73
555.17	58901.92
555.33	59112.57
555.50	58738.08
555.67	58717.02
555.83	58983.84
556.00	59093.85
556.16	59236.62
556.33	59110.23
556.50	59131.29
556.66	59257.68
556.83	59147.68
556.99	59196.83
557.16	59545.57
557.32	59351.30
557.49	59447.27
557.65	59096.19
557.82	59166.40
557.98	59292.79
558.15	59302.15
558.32	59206.19
558.48	59124.27
558.65	59498.76
558.81	59325.56
558.98	59477.69
559.14	59274.07
559.31	59208.53
559.47	59423.86
559.64	59470.67
559.80	59657.91
559.97	59566.63
560.13	59545.57
560.30	59515.14
560.46	59620.47
560.63	59615.79
560.79	59700.04
560.96	59838.14
561.12	59812.39
561.29	59695.36
561.45	59730.47
561.61	59636.85
561.78	59683.66
561.94	59456.63
562.11	59700.04
562.27	59718.77
562.44	59987.93
562.60	59941.12
562.77	59877.93
562.93	59707.07
563.10	60069.85
563.26	59683.66
563.42	60079.21
563.59	60018.36
563.75	59739.83
563.92	59906.01
564.08	59875.58
564.24	60135.38
564.41	59983.25
564.57	60142.41
564.74	59784.30
564.90	59770.26
565.07	60030.06
565.23	59725.79
565.39	59983.25
565.56	60018.36
565.72	60001.97
565.88	59994.95
566.05	60055.81
566.21	59901.33
566.38	60154.11
566.54	60158.79
566.70	60324.97
566.87	60130.70
567.03	60013.68
567.19	60327.31
567.36	60189.22
567.52	60107.30
567.68	60416.25
567.85	60065.17
568.01	60453.70
568.17	60268.79
568.34	60301.56
568.50	60107.30
568.66	60259.43
568.83	60308.58
568.99	60214.96
569.15	60261.77
569.32	60299.22
569.48	60076.87
569.64	60477.10
569.81	60210.28
569.97	60238.37
570.13	60367.10
570.30	59966.87
570.46	60418.59
570.62	60556.68
570.78	60559.02
570.95	60219.64
571.11	60577.75
571.27	60236.03
571.43	60420.93
571.60	60453.70
571.76	60467.74
571.92	60317.95
572.09	60610.51
572.25	60444.33
572.41	60484.12
572.57	60374.12
572.74	60329.65
572.90	60399.86
573.06	60530.93
573.22	60439.65
573.38	60493.49
573.55	60376.46
573.71	60643.28
573.87	60793.07
574.03	60509.87
574.20	60559.02
574.36	60657.32
574.52	60718.18
574.68	60713.50
574.84	60746.26
575.01	60521.57
575.17	60561.36
575.33	60516.89
575.49	60467.74
575.65	60783.71
575.82	60715.84
575.98	60757.97
576.14	60713.50
576.30	60570.72
576.46	60570.72
576.62	60570.72
576.79	60573.06
576.95	60561.36
577.11	60659.66
577.27	60814.14
577.43	60671.37
577.59	60477.10
577.75	60807.12
577.92	60563.70
578.08	60741.58
578.24	60629.24
578.40	60903.08
578.56	60764.99
578.72	60769.67
578.88	60760.31
579.04	60795.42
579.21	60554.34
579.37	60999.04
579.53	60996.70
579.69	60617.53
579.85	60509.87
580.01	60673.71
580.17	60659.66
580.33	60823.50
580.49	60699.45
580.65	60743.92
580.82	60739.24
580.98	60629.24
581.14	60760.31
581.30	60795.42
581.46	60643.28
581.62	60851.59
581.78	60549.66
581.94	60926.49
582.10	60793.07
582.26	60825.84
582.42	60617.53
582.58	60683.07
582.74	60893.72
582.90	60804.78
583.06	60753.29
583.22	60739.24
583.38	60825.84
583.54	60842.23
583.70	60772.01
583.86	60814.14
584.02	60694.77
584.18	60963.93
584.34	60912.44
584.50	60842.23
584.66	60748.60
584.82	60631.58
584.98	61127.77
585.14	60959.25
585.30	60687.75
585.46	60949.89
585.62	60893.72
585.78	61139.47
585.94	60671.37
586.10	60804.78
586.26	61017.77
586.42	60935.85
586.58	61097.34
586.74	60938.19
586.90	60715.84
587.06	60814.14
587.22	61104.37
587.38	60994.36
587.54	60966.27
587.70	61069.26
587.86	60715.84
588.02	60790.73
588.18	60977.98
588.34	60853.93
588.49	60961.59
