SpectraSuite Data File
++++++++++++++++++++++++++++++++++++
Date: Fri Oct 25 11:23:25 EDT 2013
User: price-jones
Dark Spectrum Present: No
Reference Spectrum Present: No
Number of Sampled Component Spectra: 1
Spectrometers: USB2+H05261
Integration Time (usec): 100000 (USB2+H05261)
Spectra Averaged: 1 (USB2+H05261)
Boxcar Smoothing: 0 (USB2+H05261)
Correct for Electrical Dark: No (USB2+H05261)
Strobe/Lamp Enabled: No (USB2+H05261)
Correct for Detector Non-linearity: No (USB2+H05261)
Correct for Stray Light: No (USB2+H05261)
Number of Pixels in Processed Spectrum: 2048
>>>>>Begin Processed Spectral Data<<<<<
365.73	205.97
365.92	205.97
366.12	205.97
366.32	149.79
366.52	121.71
366.72	236.39
366.91	65.54
367.11	173.20
367.31	65.54
367.51	138.09
367.70	124.05
367.90	84.26
368.10	86.60
368.30	100.64
368.49	170.86
368.69	135.75
368.89	86.60
369.09	114.69
369.28	159.16
369.48	112.35
369.68	224.69
369.87	231.71
370.07	191.92
370.27	220.01
370.47	346.40
370.66	608.54
370.86	592.16
371.06	653.01
371.25	702.16
371.45	674.07
371.65	636.63
371.84	734.93
372.04	631.94
372.24	763.01
372.44	655.35
372.63	772.38
372.83	746.63
373.03	662.37
373.22	753.65
373.42	812.17
373.62	781.74
373.81	798.12
374.01	807.48
374.21	837.91
374.40	809.83
374.60	854.30
374.79	723.23
374.99	814.51
375.19	753.65
375.38	821.53
375.58	929.19
375.78	880.04
375.97	868.34
376.17	840.25
376.37	821.53
376.56	861.32
376.76	875.36
376.95	891.74
377.15	882.38
377.35	924.51
377.54	961.96
377.74	947.92
377.93	947.92
378.13	936.21
378.33	896.43
378.52	875.36
378.72	980.68
378.91	912.81
379.11	933.87
379.31	987.71
379.50	922.17
379.70	961.96
379.89	1018.13
380.09	1039.20
380.28	894.08
380.48	910.47
380.68	973.66
380.87	997.07
381.07	1027.50
381.26	1025.15
381.46	1011.11
381.65	961.96
381.85	976.00
382.04	1006.43
382.24	1064.94
382.43	1057.92
382.63	1064.94
382.83	1071.97
383.02	1128.14
383.22	1109.41
383.41	1095.37
383.61	1064.94
383.80	1135.16
384.00	1153.88
384.19	1097.71
384.39	1057.92
384.58	1102.39
384.78	1217.08
384.97	1158.57
385.17	1128.14
385.36	1186.65
385.56	1149.20
385.75	1165.59
385.95	1167.93
386.14	1156.22
386.34	1240.48
386.53	1409.00
386.72	1221.76
386.92	1284.95
387.11	1196.01
387.31	1306.02
387.50	1219.42
387.70	1233.46
387.89	1214.74
388.09	1320.06
388.28	1303.68
388.48	1320.06
388.67	1369.21
388.86	1240.48
389.06	1394.96
389.25	1401.98
389.45	1261.55
389.64	1277.93
389.84	1341.13
390.03	1497.94
390.22	1289.64
390.42	1378.58
390.61	1348.15
390.81	1348.15
391.00	1357.51
391.19	1416.02
391.39	1427.73
391.58	1446.45
391.78	1462.83
391.97	1465.18
392.16	1493.26
392.36	1542.41
392.55	1469.86
392.75	1582.20
392.94	1586.88
393.13	1500.28
393.33	1612.63
393.52	1516.67
393.71	1565.82
393.91	1495.60
394.10	1617.31
394.29	1598.59
394.49	1591.56
394.68	1636.03
394.88	1659.44
395.07	1692.21
395.26	1666.46
395.46	1671.14
395.65	1776.47
395.84	1792.85
396.04	1792.85
396.23	1802.21
396.42	1736.68
396.62	1799.87
396.81	1881.79
397.00	1734.34
397.19	1771.79
397.39	1849.02
397.58	1743.70
397.77	1872.43
397.97	1928.60
398.16	1746.04
398.35	1947.33
398.55	1872.43
398.74	1834.98
398.93	1961.37
399.12	1912.22
399.32	1895.83
399.51	2029.24
399.70	1952.01
399.90	1898.17
400.09	2038.61
400.28	2097.12
400.47	1970.73
400.67	2064.35
400.86	2054.99
401.05	2066.69
401.24	2108.82
401.44	2085.42
401.63	2059.67
401.82	2125.21
402.01	2129.89
402.21	2253.94
402.40	2354.58
402.59	2150.95
402.78	2216.49
402.97	2244.57
403.17	2225.85
403.36	2267.98
403.55	2275.00
403.74	2413.09
403.93	2408.41
404.13	2370.96
404.32	2265.64
404.51	2300.75
404.70	2410.75
404.89	2363.94
405.09	2574.59
405.28	2415.43
405.47	2509.05
405.66	2457.56
405.85	2555.86
406.05	2534.80
406.24	2581.61
406.43	2544.16
406.62	2518.42
406.81	2614.38
407.00	2647.15
407.20	2661.19
407.39	2628.42
407.58	2696.30
407.77	2700.98
407.96	2768.85
408.15	2740.77
408.34	2724.38
408.54	2649.49
408.73	2745.45
408.92	2780.56
409.11	2944.39
409.30	2827.37
409.49	2932.69
409.68	3000.57
409.87	2974.82
410.07	2963.12
410.26	2918.65
410.45	2881.20
410.64	2944.39
410.83	3162.06
411.02	3063.76
411.21	3096.53
411.40	3185.47
411.59	3110.57
411.78	3105.89
411.98	3194.83
412.17	3229.94
412.36	3304.84
412.55	3365.69
412.74	3368.03
412.93	3445.27
413.12	3349.31
413.31	3492.08
413.50	3508.46
413.69	3428.88
413.88	3672.30
414.07	3737.84
414.26	3662.94
414.45	3665.28
414.64	3651.24
414.83	3742.52
415.02	3817.41
415.22	3840.82
415.41	3864.22
415.60	3866.56
415.79	3850.18
415.98	3964.87
416.17	3995.29
416.36	4014.02
416.55	4002.32
416.74	4138.07
416.93	4095.94
417.12	4044.45
417.31	4161.47
417.50	4191.90
417.69	4404.89
417.88	4294.88
418.07	4170.83
418.26	4327.65
418.45	4180.20
418.64	4566.39
418.83	4461.06
419.02	4381.48
419.21	4561.70
419.39	4491.49
419.58	4414.25
419.77	4491.49
419.96	4526.60
420.15	4606.17
420.34	4622.56
420.53	4542.98
420.72	4739.58
420.91	4779.37
421.10	4648.30
421.29	4901.08
421.48	4545.32
421.67	4681.07
421.86	4880.02
422.05	4898.74
422.24	4786.40
422.43	4908.10
422.61	5020.45
422.80	5036.83
422.99	4926.83
423.18	4966.62
423.37	5050.88
423.56	5043.85
423.75	5060.24
423.94	4830.87
424.13	4634.26
424.32	4875.34
424.50	5043.85
424.69	5191.31
424.88	5001.72
425.07	5088.32
425.26	4943.21
425.45	4887.04
425.64	4959.60
425.83	4896.40
426.01	5221.74
426.20	5008.75
426.39	5128.11
426.58	5093.01
426.77	5046.20
426.96	5071.94
427.15	5085.98
427.33	5240.46
427.52	5137.48
427.71	5357.49
427.90	5373.87
428.09	5348.12
428.28	5406.64
428.46	5427.70
428.65	5394.93
428.84	5612.60
429.03	5734.31
429.22	5359.83
429.40	5486.22
429.59	5561.11
429.78	5296.63
429.97	5287.27
430.16	5556.43
430.34	5533.03
430.53	5654.73
430.72	5626.65
430.91	5614.95
431.10	5652.39
431.28	5916.87
431.47	5774.10
431.66	5823.25
431.85	5722.61
432.03	5933.26
432.22	5858.36
432.41	6026.88
432.60	5980.07
432.79	6087.73
432.97	6005.81
433.16	6022.20
433.35	6171.99
433.54	6143.91
433.72	6164.97
433.91	6019.86
434.10	6157.95
434.28	6249.23
434.47	6267.95
434.66	6216.46
434.85	6265.61
435.03	6223.48
435.22	6384.98
435.41	6548.82
435.59	6384.98
435.78	6518.39
435.97	6656.48
436.16	6399.02
436.34	6317.11
436.53	6509.03
436.72	6525.41
436.90	6389.66
437.09	6670.53
437.28	6555.84
437.46	6516.05
437.65	6668.19
437.84	6752.45
438.02	6855.43
438.21	6754.79
438.40	6747.76
438.58	7070.76
438.77	6925.65
438.96	6857.77
439.14	7258.00
439.33	7166.72
439.52	7281.41
439.70	7304.81
439.89	7585.68
440.08	7475.67
440.26	7447.58
440.45	7274.38
440.63	7676.96
440.82	7777.60
441.01	7599.72
441.19	7637.17
441.38	7693.34
441.57	7754.19
441.75	7777.60
441.94	7922.71
442.12	7831.43
442.31	7960.16
442.50	8187.19
442.68	8049.10
442.87	7988.25
443.05	8205.92
443.24	8283.16
443.43	8175.49
443.61	8168.47
443.80	8442.31
443.98	8198.90
444.17	7953.14
444.35	8201.24
444.54	8327.63
444.73	8451.67
444.91	8358.05
445.10	8395.50
445.28	8344.01
445.47	8374.44
445.65	8383.80
445.84	8355.71
446.02	8629.56
446.21	8465.72
446.39	8489.12
446.58	8482.10
446.77	8643.60
446.95	8271.45
447.14	8514.87
447.32	8629.56
447.51	8580.40
447.69	8638.92
447.88	8451.67
448.06	8594.45
448.25	8437.63
448.43	8826.16
448.62	8627.21
448.80	8428.27
448.99	8723.18
449.17	8741.90
449.36	8713.81
449.54	8889.35
449.73	8896.38
449.91	8980.64
450.10	8879.99
450.28	9132.77
450.46	8982.98
450.65	8952.55
450.83	9200.65
451.02	9338.74
451.20	9100.00
451.39	9235.75
451.57	9092.98
451.76	9069.58
451.94	9188.94
452.13	9303.63
452.31	9280.22
452.49	9214.69
452.68	9256.82
452.86	9301.29
453.05	9556.41
453.23	9378.53
453.42	9345.76
453.60	9266.18
453.78	9556.41
453.97	9575.13
454.15	9645.35
454.34	9437.04
454.52	9771.74
454.70	9682.80
454.89	9781.10
455.07	9937.91
455.26	9877.06
455.44	10017.49
455.62	9881.74
455.81	9898.13
455.99	9841.95
456.17	10148.56
456.36	10071.33
456.54	10286.65
456.73	10237.50
456.91	10401.34
457.09	10263.25
457.28	10611.99
457.46	10296.02
457.64	10754.76
457.83	10581.56
458.01	10633.05
458.19	10658.80
458.38	10494.96
458.56	10677.52
458.74	10635.39
458.93	10803.91
459.11	10677.52
459.29	10752.42
459.48	10979.45
459.66	10747.74
459.84	10876.47
460.03	11328.19
460.21	11000.52
460.39	11173.72
460.57	11101.16
460.76	11098.82
460.94	11211.17
461.12	11267.34
461.31	11173.72
461.49	11290.74
461.67	11080.10
461.85	11599.70
462.04	11318.83
462.22	11344.58
462.40	11634.80
462.59	11407.77
462.77	11545.86
462.95	11662.89
463.13	11786.94
463.32	11585.65
463.50	11995.25
463.68	11805.66
463.86	11936.73
464.05	11613.74
464.23	11620.76
464.41	11903.96
464.59	11707.36
464.78	12170.79
464.96	12147.38
465.14	11948.43
465.32	12131.00
465.50	12219.94
465.69	12149.72
465.87	12269.09
466.05	12114.61
466.23	12276.11
466.41	12219.94
466.60	12472.71
466.78	12301.86
466.96	12081.85
467.14	12161.42
467.32	12292.49
467.51	12414.20
467.69	12063.12
467.87	12816.77
468.05	12865.92
468.23	12498.46
468.41	12407.18
468.60	12571.02
468.78	12828.48
468.96	12505.48
469.14	12894.01
469.32	13102.32
469.50	12634.21
469.69	13074.23
469.87	12964.23
470.05	13193.60
470.23	13261.48
470.41	13322.33
470.59	13420.63
470.77	13308.29
470.95	13415.95
471.14	13481.49
471.32	13277.86
471.50	13565.74
471.68	13708.52
471.86	13760.01
472.04	14040.87
472.22	13783.41
472.40	13577.45
472.58	13722.56
472.77	14115.77
472.95	14054.92
473.13	14658.78
473.31	14118.11
473.49	14202.37
473.67	13914.48
473.85	14410.68
474.03	14808.57
474.21	14600.26
474.39	14974.75
474.57	14853.04
474.75	15246.25
474.93	14867.08
475.12	14916.23
475.30	15279.02
475.48	15023.90
475.66	15391.36
475.84	15204.12
476.02	15609.03
476.20	15351.57
476.38	15880.53
476.56	16180.12
476.74	15829.04
476.92	16248.00
477.10	15915.64
477.28	16130.97
477.46	16142.67
477.64	16409.50
477.82	16975.91
478.00	17036.76
478.18	16896.33
478.36	16872.92
478.54	17064.85
478.72	17245.07
478.90	17500.19
479.08	17795.09
479.26	17771.69
479.44	17804.46
479.62	18162.56
479.80	18244.48
479.98	18441.08
480.16	18799.18
480.34	18616.62
480.52	18801.52
480.70	18735.99
480.88	18412.99
481.06	18693.86
481.24	18871.74
481.41	19211.12
481.59	19557.52
481.77	19625.39
481.95	19496.66
482.13	19939.02
482.31	19571.56
482.49	20196.48
482.67	20362.66
482.85	20697.36
483.03	20517.14
483.21	20940.77
483.39	21010.99
483.57	20893.96
483.74	21158.44
483.92	21528.25
484.10	21401.86
484.28	21907.41
484.46	22230.41
484.64	22476.16
484.82	22015.08
485.00	22551.06
485.18	22677.45
485.35	22850.65
485.53	22867.03
485.71	23171.30
485.89	23679.20
486.07	23459.19
486.25	23620.69
486.43	23836.02
486.61	24116.88
486.78	24041.98
486.96	24254.97
487.14	24779.25
487.32	24706.70
487.50	24975.86
487.68	24966.49
487.85	25394.81
488.03	25790.36
488.21	25757.60
488.39	25773.98
488.57	26071.23
488.75	26501.89
488.92	26490.18
489.10	26726.58
489.28	26904.46
489.46	27187.66
489.64	27117.45
489.81	27718.96
489.99	27536.40
490.17	27782.16
490.35	27824.29
490.53	28519.43
490.70	28287.71
490.88	28350.91
491.06	28882.21
491.24	28879.87
491.41	29364.36
491.59	29223.93
491.77	29329.25
491.95	29858.21
492.13	29825.45
492.30	30136.74
492.48	30005.67
492.66	29926.09
492.84	30668.04
493.01	30686.76
493.19	30836.56
493.37	31175.94
493.54	31480.21
493.72	31512.97
493.90	31683.83
494.08	31938.95
494.25	32273.65
494.43	32053.64
494.61	32268.97
494.79	32496.00
494.96	32788.56
495.14	33104.54
495.32	33209.86
495.49	33401.79
495.67	33277.74
495.85	33874.57
496.02	33879.25
496.20	33993.94
496.38	34253.74
496.55	34031.39
496.73	34588.44
496.91	34822.49
497.09	35276.55
497.26	34958.24
497.44	35065.91
497.62	35803.17
497.79	36123.83
497.97	35751.68
498.14	35950.63
498.32	36400.01
498.50	36360.22
498.67	36680.88
498.85	36580.23
499.03	36919.61
499.20	36783.86
499.38	36741.73
499.56	37193.45
499.73	37528.15
499.91	37502.40
500.08	37958.81
500.26	37724.75
500.44	37937.74
500.61	38024.34
500.79	37982.21
500.97	38567.35
501.14	38745.23
501.32	38813.10
501.49	38686.71
501.67	38740.55
501.84	39498.88
502.02	39103.33
502.20	39243.76
502.37	39505.90
502.55	39730.59
502.72	39615.91
502.90	39454.41
503.07	39578.46
503.25	39894.43
503.43	40179.98
503.60	40449.14
503.78	40275.94
503.95	40666.81
504.13	40814.26
504.30	41060.02
504.48	40947.67
504.65	40996.82
504.83	41338.54
505.01	41003.85
505.18	41368.97
505.36	41516.42
505.53	40980.44
505.71	41841.76
505.88	41808.99
506.06	41607.70
506.23	42176.45
506.41	42157.73
506.58	42588.39
506.76	42148.37
506.93	43124.37
507.11	42515.83
507.28	42707.76
507.46	42887.98
507.63	43115.01
507.81	43346.72
507.98	43012.02
508.16	43065.86
508.33	43461.41
508.50	44189.31
508.68	43758.66
508.85	43992.71
509.03	43950.58
509.20	44189.31
509.38	44580.18
509.55	44381.24
509.73	44697.21
509.90	44706.57
510.08	44622.31
510.25	45177.02
510.42	44292.30
510.60	45359.58
510.77	45441.50
510.95	45640.45
511.12	45333.84
511.30	45382.99
511.47	45553.85
511.64	45682.58
511.82	46181.11
511.99	45900.25
512.17	46211.54
512.34	46504.10
512.51	46801.35
512.69	46450.27
512.86	46483.04
513.04	46555.60
513.21	46679.64
513.38	46649.22
513.56	47388.83
513.73	46904.34
513.90	47189.88
514.08	47157.11
514.25	47229.67
514.43	47346.70
514.60	47641.60
514.77	47674.37
514.95	47772.67
515.12	47690.76
515.29	47875.66
515.47	48268.87
515.64	48186.95
515.81	48044.18
515.99	48243.12
516.16	48760.38
516.33	48732.29
516.51	48872.73
516.68	48664.42
516.85	48683.14
517.03	48940.60
517.20	49193.38
517.37	48762.72
517.54	49041.24
517.72	49322.11
517.89	49471.90
518.06	49319.77
518.24	49212.10
518.41	49535.10
518.58	49610.00
518.75	49279.98
518.93	49944.69
519.10	49785.54
519.27	50050.02
519.45	49949.37
519.62	49918.95
519.79	49689.57
519.96	50057.04
520.14	50307.47
520.31	50532.17
520.48	50649.19
520.65	50333.22
520.83	50712.39
521.00	50447.91
521.17	50581.32
521.34	50698.34
521.52	50925.38
521.69	50965.17
521.86	51363.06
522.03	51480.08
522.20	51524.55
522.38	51620.52
522.55	51697.75
522.72	51372.42
522.89	51564.34
523.07	52090.96
523.24	51980.96
523.41	51868.61
523.58	51487.10
523.75	51985.64
523.92	51805.42
524.10	52172.88
524.27	52142.45
524.44	52521.62
524.61	52493.54
524.78	52367.15
524.96	52435.02
525.13	52240.76
525.30	52472.47
525.47	52245.44
525.64	52584.82
525.81	52629.29
525.98	52839.93
526.16	52800.15
526.33	52877.38
526.50	52954.62
526.67	52978.03
526.84	53151.23
527.01	53270.59
527.18	53155.91
527.36	53038.88
527.53	53268.25
527.70	53460.18
527.87	53268.25
528.04	53176.97
528.21	53577.20
528.38	53584.22
528.55	53652.10
528.72	53354.85
528.89	53799.55
529.07	53558.48
529.24	53404.00
529.41	53902.54
529.58	53956.37
529.75	54071.06
529.92	53918.92
530.09	54152.97
530.26	54124.89
530.43	54120.21
530.60	54160.00
530.77	53837.00
530.94	53963.39
531.11	54115.53
531.28	54307.45
531.46	54557.89
531.63	54270.00
531.80	54475.97
531.97	54218.51
532.14	54534.48
532.31	54927.69
532.48	54375.33
532.65	54745.13
532.82	54534.48
532.99	54745.13
533.16	54466.61
533.33	54937.05
533.50	55126.64
533.67	54831.73
533.84	54609.38
534.01	54993.23
534.18	55136.00
534.35	55496.44
534.52	55133.66
534.69	55215.58
534.86	55569.00
535.03	54981.52
535.20	55379.42
535.37	55554.96
535.54	55540.91
535.71	55290.48
535.88	55592.40
536.05	55580.70
536.22	55646.24
536.38	55697.73
536.55	55634.53
536.72	55728.16
536.89	55770.28
537.06	55770.28
537.23	55732.84
537.40	55749.22
537.57	55994.98
537.74	55650.92
537.91	56137.75
538.08	55990.30
538.25	56069.87
538.42	55948.17
538.59	56133.07
538.75	56205.62
538.92	56250.09
539.09	56378.82
539.26	55978.59
539.43	56123.71
539.60	56285.20
539.77	56472.45
539.94	56610.54
540.11	56500.53
540.28	56598.83
540.44	56559.05
540.61	56563.73
540.78	56655.01
540.95	56640.96
541.12	56626.92
541.29	56664.37
541.46	57006.09
541.62	56727.56
541.79	56746.29
541.96	56369.46
542.13	56788.42
542.30	56629.26
542.47	56926.51
542.63	57088.01
542.80	57106.73
542.97	57331.42
543.14	57303.34
543.31	57453.13
543.48	57165.24
543.64	57396.96
543.81	57312.70
543.98	57581.86
544.15	57581.86
544.32	57654.42
544.48	57663.78
544.65	57457.81
544.82	57542.07
544.99	57195.67
545.16	57593.56
545.32	57490.58
545.49	57616.97
545.66	57916.56
545.83	57818.25
546.00	57834.64
546.16	57832.30
546.33	57619.31
546.50	57642.71
546.67	57890.81
546.83	57687.18
547.00	57736.34
547.17	57890.81
547.34	57881.45
547.50	58045.29
547.67	58190.40
547.84	58232.53
548.00	58202.10
548.17	58372.96
548.34	58225.51
548.51	58190.40
548.67	58024.22
548.84	58372.96
549.01	58216.14
549.18	58305.09
549.34	58298.06
549.51	58454.88
549.68	58628.08
549.84	58454.88
550.01	58445.52
550.18	58307.43
550.34	58688.93
550.51	58787.24
550.68	58630.42
550.84	58164.65
551.01	58710.00
551.18	58752.13
551.34	58639.78
551.51	58546.16
551.68	58763.83
551.84	58834.05
552.01	58454.88
552.18	58852.77
552.34	58607.01
552.51	58838.73
552.68	58672.55
552.84	58747.45
553.01	58981.50
553.18	58693.61
553.34	58990.86
553.51	58841.07
553.67	59007.25
553.84	59175.76
554.01	59103.21
554.17	59180.45
554.34	59075.12
554.51	59131.29
554.67	59388.75
554.84	59171.08
555.00	59035.33
555.17	59168.74
555.33	59297.47
555.50	58864.47
555.67	59220.23
555.83	59133.63
556.00	59028.31
556.16	59564.29
556.33	59330.24
556.50	59519.82
556.66	59426.20
556.83	59124.27
556.99	59519.82
557.16	59660.26
557.32	59503.44
557.49	59788.98
557.65	59306.83
557.82	59419.18
557.98	59473.01
558.15	59501.10
558.32	59671.96
558.48	59370.03
558.65	59636.85
558.81	59592.38
558.98	59536.21
559.14	59592.38
559.31	59632.17
559.47	59690.68
559.64	59835.80
559.80	59536.21
559.97	59955.16
560.13	59936.44
560.30	59690.68
560.46	59798.35
560.63	60100.28
560.79	59845.16
560.96	59978.57
561.12	59903.67
561.29	59920.05
561.45	59896.65
561.61	59887.29
561.78	60053.47
561.94	59973.89
562.11	60067.51
562.27	59875.58
562.44	59985.59
562.60	60123.68
562.77	59971.55
562.93	59803.03
563.10	60147.09
563.26	59938.78
563.42	60303.90
563.59	60102.62
563.75	60324.97
563.92	60182.19
564.08	60367.10
564.24	60322.63
564.41	60133.04
564.57	60149.43
564.74	60388.16
564.90	60205.60
565.07	60303.90
565.23	60121.34
565.39	60257.09
565.56	60177.51
565.72	60217.30
565.88	60329.65
566.05	60264.11
566.21	60392.84
566.38	60285.18
566.54	60285.18
566.70	60406.89
566.87	60301.56
567.03	60446.68
567.19	60591.79
567.36	60374.12
567.52	60184.54
567.68	60465.40
567.85	60341.35
568.01	60385.82
568.17	60413.91
568.34	60608.17
568.50	60439.65
568.66	60341.35
568.83	60453.70
568.99	60198.58
569.15	60446.68
569.32	60547.32
569.48	60374.12
569.64	60690.09
569.81	60519.23
569.97	60535.62
570.13	60645.62
570.30	60453.70
570.46	60362.42
570.62	60547.32
570.78	60643.28
570.95	60643.28
571.11	60772.01
571.27	60519.23
571.43	60636.26
571.60	60821.16
571.76	60713.50
571.92	60596.47
572.09	60734.56
572.25	60720.52
572.41	60823.50
572.57	60882.02
572.74	60989.68
572.90	60912.44
573.06	60816.48
573.22	60605.83
573.38	60774.35
573.55	60664.35
573.71	60872.65
573.87	60783.71
574.03	60767.33
574.20	60835.20
574.36	60669.03
574.52	60706.47
574.68	60790.73
574.84	60914.78
575.01	60837.54
575.17	60736.90
575.33	60992.02
575.49	60659.66
575.65	60879.67
575.82	60914.78
575.98	60989.68
576.14	61029.47
576.30	60987.34
576.46	60863.29
576.62	60877.33
576.79	60795.42
576.95	60896.06
577.11	60947.55
577.27	60877.33
577.43	60823.50
577.59	60598.81
577.75	60865.63
577.92	60804.78
578.08	60769.67
578.24	60830.52
578.40	60828.18
578.56	60842.23
578.72	60914.78
578.88	61284.59
579.04	61188.63
579.21	60837.54
579.37	61022.45
579.53	61048.19
579.69	60900.74
579.85	60973.30
580.01	60970.96
580.17	60795.42
580.33	60959.25
580.49	61087.98
580.65	61064.58
580.82	60947.55
580.98	60851.59
581.14	60992.02
581.30	61181.60
581.46	60856.27
581.62	60882.02
581.78	60823.50
581.94	61008.40
582.10	61027.13
582.26	61080.96
582.42	61109.05
582.58	60949.89
582.74	61052.87
582.90	61104.37
583.06	61207.35
583.22	60853.93
583.38	61013.08
583.54	61190.97
583.70	61279.91
583.86	61202.67
584.02	61041.17
584.18	61190.97
584.34	61059.90
584.50	61015.43
584.66	60720.52
584.82	60814.14
584.98	61132.45
585.14	61003.72
585.30	60940.53
585.46	61066.92
585.62	61090.32
585.78	61146.50
585.94	60912.44
586.10	61020.11
586.26	61013.08
586.42	61221.39
586.58	61219.05
586.74	61176.92
586.90	60980.32
587.06	61244.80
587.22	61235.44
587.38	61193.31
587.54	61408.64
587.70	61315.01
587.86	61104.37
588.02	61167.56
588.18	61254.16
588.34	61076.28
588.49	61366.51
