SpectraSuite Data File
++++++++++++++++++++++++++++++++++++
Date: Fri Oct 25 11:22:28 EDT 2013
User: price-jones
Dark Spectrum Present: No
Reference Spectrum Present: No
Number of Sampled Component Spectra: 1
Spectrometers: USB2+H05261
Integration Time (usec): 100000 (USB2+H05261)
Spectra Averaged: 1 (USB2+H05261)
Boxcar Smoothing: 0 (USB2+H05261)
Correct for Electrical Dark: No (USB2+H05261)
Strobe/Lamp Enabled: No (USB2+H05261)
Correct for Detector Non-linearity: No (USB2+H05261)
Correct for Stray Light: No (USB2+H05261)
Number of Pixels in Processed Spectrum: 2048
>>>>>Begin Processed Spectral Data<<<<<
365.73	222.35
365.92	222.35
366.12	222.35
366.32	121.71
366.52	110.01
366.72	138.09
366.91	95.96
367.11	105.32
367.31	37.45
367.51	149.79
367.70	77.24
367.90	114.69
368.10	159.16
368.30	163.84
368.49	182.56
368.69	166.18
368.89	159.16
369.09	84.26
369.28	124.05
369.48	154.48
369.68	159.16
369.87	147.45
370.07	145.11
370.27	138.09
370.47	327.68
370.66	561.73
370.86	531.30
371.06	667.05
371.25	674.07
371.45	641.31
371.65	653.01
371.84	741.95
372.04	664.71
372.24	709.18
372.44	709.18
372.63	821.53
372.83	699.82
373.03	793.44
373.22	753.65
373.42	770.04
373.62	816.85
373.81	833.23
374.01	814.51
374.21	814.51
374.40	809.83
374.60	835.57
374.79	828.55
374.99	730.25
375.19	842.59
375.38	844.93
375.58	830.89
375.78	854.30
375.97	887.06
376.17	889.40
376.37	863.66
376.56	835.57
376.76	828.55
376.95	814.51
377.15	826.21
377.35	777.06
377.54	826.21
377.74	866.00
377.93	1015.79
378.13	873.02
378.33	945.58
378.52	1004.09
378.72	997.07
378.91	954.94
379.11	950.26
379.31	1025.15
379.50	1027.50
379.70	947.92
379.89	1015.79
380.09	940.90
380.28	1022.81
380.48	973.66
380.68	973.66
380.87	966.64
381.07	947.92
381.26	1104.73
381.46	1022.81
381.65	1069.62
381.85	1001.75
382.04	1123.46
382.24	1118.78
382.43	1093.03
382.63	1118.78
382.83	1095.37
383.02	1093.03
383.22	1156.22
383.41	1057.92
383.61	1020.47
383.80	1149.20
384.00	1090.69
384.19	1153.88
384.39	1093.03
384.58	1109.41
384.78	1144.52
384.97	1163.25
385.17	1184.31
385.36	1121.12
385.56	1184.31
385.75	1203.04
385.95	1149.20
386.14	1184.31
386.34	1207.72
386.53	1184.31
386.72	1240.48
386.92	1343.47
387.11	1247.51
387.31	1263.89
387.50	1196.01
387.70	1261.55
387.89	1252.19
388.09	1273.25
388.28	1364.53
388.48	1256.87
388.67	1249.85
388.86	1324.74
389.06	1282.61
389.25	1310.70
389.45	1343.47
389.64	1306.02
389.84	1411.34
390.03	1397.30
390.22	1371.55
390.42	1394.96
390.61	1383.26
390.81	1355.17
391.00	1488.58
391.19	1516.67
391.39	1495.60
391.58	1387.94
391.78	1472.20
391.97	1584.54
392.16	1502.62
392.36	1467.52
392.55	1540.07
392.75	1556.46
392.94	1511.99
393.13	1509.65
393.33	1493.26
393.52	1629.01
393.71	1568.16
393.91	1650.08
394.10	1537.73
394.29	1682.85
394.49	1629.01
394.68	1673.48
394.88	1636.03
395.07	1708.59
395.26	1631.35
395.46	1542.41
395.65	1671.14
395.84	1685.19
396.04	1701.57
396.23	1703.91
396.42	1732.00
396.62	1727.32
396.81	1710.93
397.00	1767.10
397.19	1792.85
397.39	1774.13
397.58	1923.92
397.77	1717.95
397.97	1877.11
398.16	1863.07
398.35	1823.28
398.55	1849.02
398.74	1806.89
398.93	1898.17
399.12	1928.60
399.32	1952.01
399.51	1928.60
399.70	1973.07
399.90	1994.14
400.09	1982.43
400.28	2033.93
400.47	2031.58
400.67	2090.10
400.86	2040.95
401.05	2071.37
401.24	2101.80
401.44	2223.51
401.63	2169.68
401.82	2129.89
402.01	2036.27
402.21	2167.34
402.40	2108.82
402.59	2239.89
402.78	2209.47
402.97	2242.23
403.17	2282.02
403.36	2209.47
403.55	2277.34
403.74	2293.72
403.93	2429.48
404.13	2375.64
404.32	2375.64
404.51	2373.30
404.70	2354.58
404.89	2424.80
405.09	2406.07
405.28	2455.22
405.47	2464.58
405.66	2499.69
405.85	2504.37
406.05	2574.59
406.24	2471.61
406.43	2558.21
406.62	2665.87
406.81	2640.12
407.00	2738.43
407.20	2600.34
407.39	2693.96
407.58	2602.68
407.77	2708.00
407.96	2825.03
408.15	2839.07
408.34	2729.06
408.54	2869.50
408.73	2818.00
408.92	2843.75
409.11	2928.01
409.30	2956.10
409.49	2902.26
409.68	2970.14
409.87	2937.37
410.07	2967.80
410.26	3187.81
410.45	2988.86
410.64	3080.14
410.83	3201.85
411.02	3136.32
411.21	3222.92
411.40	3073.12
411.59	3176.11
411.78	3389.10
411.98	3253.34
412.17	3353.99
412.36	3358.67
412.55	3403.14
412.74	3531.87
412.93	3424.20
413.12	3379.73
413.31	3545.91
413.50	3578.68
413.69	3534.21
413.88	3604.42
414.07	3679.32
414.26	3723.79
414.45	3730.81
414.64	3695.71
414.83	3763.58
415.02	3686.34
415.22	3873.59
415.41	4016.36
415.60	3941.46
415.79	4023.38
415.98	3950.82
416.17	4014.02
416.36	4091.26
416.55	3946.14
416.74	4105.30
416.93	4234.03
417.12	4058.49
417.31	4285.52
417.50	4252.75
417.69	4266.80
417.88	4248.07
418.07	4222.33
418.26	4353.40
418.45	4402.55
418.64	4589.79
418.83	4341.69
419.02	4430.63
419.21	4479.79
419.39	4559.36
419.58	4472.76
419.77	4454.04
419.96	4631.92
420.15	4503.19
420.34	4540.64
420.53	4842.57
420.72	4795.76
420.91	4779.37
421.10	4777.03
421.29	4870.65
421.48	4779.37
421.67	4875.34
421.86	4943.21
422.05	4807.46
422.24	4805.12
422.43	4966.62
422.61	4912.78
422.80	4987.68
422.99	4922.15
423.18	4917.47
423.37	5142.16
423.56	5039.17
423.75	4959.60
423.94	4901.08
424.13	4732.56
424.32	4863.63
424.50	5085.98
424.69	5170.24
424.88	5025.13
425.07	5029.81
425.26	4968.96
425.45	5062.58
425.64	5018.11
425.83	4966.62
426.01	4997.04
426.20	5165.56
426.39	5055.56
426.58	5022.79
426.77	5053.22
426.96	4968.96
427.15	5252.16
427.33	5191.31
427.52	5254.50
427.71	5254.50
427.90	5139.82
428.09	5416.00
428.28	5472.17
428.46	5416.00
428.65	5364.51
428.84	5497.92
429.03	5561.11
429.22	5303.65
429.40	5575.16
429.59	5437.06
429.78	5411.32
429.97	5193.65
430.16	5537.71
430.34	5570.48
430.53	5785.80
430.72	5650.05
430.91	5647.71
431.10	5596.22
431.28	5661.76
431.47	5825.59
431.66	5891.13
431.85	5621.97
432.03	6061.99
432.22	5975.39
432.41	6057.31
432.60	5916.87
432.79	5870.06
432.97	6087.73
433.16	6066.67
433.35	5935.60
433.54	6005.81
433.72	6162.63
433.91	6134.54
434.10	6260.93
434.28	6111.14
434.47	6267.95
434.66	6478.60
434.85	6361.58
435.03	6373.28
435.22	6291.36
435.41	6609.67
435.59	6497.33
435.78	6539.46
435.97	6604.99
436.16	6406.05
436.34	6642.44
436.53	6546.48
436.72	6810.96
436.90	6520.73
437.09	6628.40
437.28	6494.99
437.46	6656.48
437.65	6773.51
437.84	6853.09
438.02	6743.08
438.21	6787.55
438.40	6492.65
438.58	7157.36
438.77	7056.72
438.96	7105.87
439.14	7222.89
439.33	7241.62
439.52	7325.88
439.70	7349.28
439.89	7531.84
440.08	7414.82
440.26	7522.48
440.45	7459.29
440.63	7573.97
440.82	7648.87
441.01	7674.62
441.19	7676.96
441.38	7740.15
441.57	7922.71
441.75	7843.14
441.94	7976.55
442.12	7929.74
442.31	8121.66
442.50	7878.24
442.68	8037.40
442.87	8285.50
443.05	8379.12
443.24	8346.35
443.43	8114.64
443.61	8229.32
443.80	8437.63
443.98	8198.90
444.17	7899.31
444.35	8262.09
444.54	8355.71
444.73	8236.35
444.91	8290.18
445.10	8566.36
445.28	8351.03
445.47	8348.69
445.65	8369.76
445.84	8580.40
446.02	8585.08
446.21	8280.82
446.39	8552.32
446.58	8624.87
446.77	8503.17
446.95	8287.84
447.14	8524.23
447.32	8709.13
447.51	8547.64
447.69	8692.75
447.88	8709.13
448.06	8608.49
448.25	8507.85
448.43	8702.11
448.62	8709.13
448.80	8564.02
448.99	8566.36
449.17	8648.28
449.36	8910.42
449.54	8840.20
449.73	9081.28
449.91	9081.28
450.10	9170.22
450.28	9043.83
450.46	9247.46
450.65	9097.66
450.83	9041.49
451.02	9207.67
451.20	9170.22
451.39	9350.44
451.57	9228.73
451.76	9195.96
451.94	9123.41
452.13	9446.40
452.31	9511.94
452.49	9336.40
452.68	9423.00
452.86	9495.55
453.05	9556.41
453.23	9678.12
453.42	9497.89
453.60	9376.19
453.78	9621.94
453.97	9591.52
454.15	9657.05
454.34	9563.43
454.52	9692.16
454.70	10001.11
454.89	9853.66
455.07	10031.54
455.26	10026.86
455.44	9926.21
455.62	10022.17
455.81	10036.22
455.99	9909.83
456.17	10167.29
456.36	10209.42
456.54	10347.51
456.73	10312.40
456.91	10551.14
457.09	10452.83
457.28	10588.58
457.46	10438.79
457.64	10745.40
457.83	10626.03
458.01	10487.94
458.19	10775.83
458.38	10754.76
458.56	10932.64
458.74	10853.06
458.93	10846.04
459.11	10707.95
459.29	10813.28
459.48	10993.50
459.66	10862.43
459.84	10970.09
460.03	11023.92
460.21	11138.61
460.39	11157.33
460.57	11154.99
460.76	11035.63
460.94	11377.34
461.12	11452.24
461.31	11236.91
461.49	11337.56
461.67	11456.92
461.85	11527.14
462.04	11351.60
462.22	11573.95
462.40	11810.34
462.59	11435.86
462.77	11370.32
462.95	11606.72
463.13	11779.92
463.32	11793.96
463.50	11768.21
463.68	11791.62
463.86	11967.16
464.05	11871.20
464.23	11819.71
464.41	12053.76
464.59	11866.52
464.78	12318.24
464.96	11999.93
465.14	12009.29
465.32	12238.66
465.50	12159.08
465.69	12243.34
465.87	12271.43
466.05	12095.89
466.23	12348.67
466.41	12325.26
466.60	12657.62
466.78	12233.98
466.96	12409.52
467.14	12458.67
467.32	12374.41
467.51	12365.05
467.69	12159.08
467.87	12503.14
468.05	12697.41
468.23	12482.08
468.41	12648.26
468.60	12835.50
468.78	12666.98
468.96	12606.13
469.14	12973.59
469.32	13111.68
469.50	12678.68
469.69	13060.19
469.87	13167.85
470.05	13345.73
470.23	13263.82
470.41	13603.19
470.59	13345.73
470.77	13617.24
470.95	13544.68
471.14	13865.33
471.32	13554.04
471.50	13591.49
471.68	13785.76
471.86	13633.62
472.04	13825.54
472.22	14200.03
472.40	13970.66
472.58	13870.01
472.77	14085.34
472.95	14335.78
473.13	14876.44
473.31	14146.20
473.49	14281.95
473.67	14249.18
473.85	14281.95
474.03	14630.69
474.21	14555.79
474.39	14712.61
474.57	15063.69
474.75	14958.36
474.93	15063.69
475.12	15108.16
475.30	15353.91
475.48	15300.08
475.66	15370.30
475.84	15232.21
476.02	15229.87
476.20	15522.43
476.38	15903.94
476.56	16226.93
476.74	16137.99
476.92	16130.97
477.10	16065.44
477.28	16358.00
477.46	16145.02
477.64	16439.92
477.82	16629.51
478.00	17259.11
478.18	16865.90
478.36	17219.32
478.54	17427.63
478.72	17362.09
478.90	17298.90
479.08	17834.88
479.26	17865.31
479.44	18099.36
479.62	18029.15
479.80	18106.38
479.98	18394.27
480.16	18972.38
480.34	18466.83
480.52	18977.06
480.70	18761.73
480.88	18967.70
481.06	19058.98
481.24	19161.97
481.41	19199.41
481.59	19676.88
481.77	19793.91
481.95	19686.25
482.13	19857.10
482.31	19826.68
482.49	20423.51
482.67	20524.16
482.85	20718.42
483.03	20725.44
483.21	20826.09
483.39	21181.85
483.57	20905.66
483.74	21422.92
483.92	21507.18
484.10	21546.97
484.28	21813.79
484.46	22464.46
484.64	22532.34
484.82	22338.07
485.00	22354.46
485.18	22831.93
485.35	23208.75
485.53	23136.20
485.71	23105.77
485.89	23723.67
486.07	23573.88
486.25	23665.16
486.43	23906.23
486.61	24334.55
486.78	24037.30
486.96	24292.42
487.14	24545.20
487.32	25050.75
487.50	25207.57
487.68	24985.22
487.85	25624.18
488.03	25905.05
488.21	25895.69
488.39	25989.31
488.57	26459.76
488.75	26628.27
488.92	26850.63
489.10	26897.44
489.28	26850.63
489.46	27311.71
489.64	27300.01
489.81	27613.64
489.99	28376.66
490.17	28002.17
490.35	28645.82
490.53	28474.96
490.70	28973.49
490.88	28489.00
491.06	29280.10
491.24	28947.75
491.41	29319.89
491.59	29937.79
491.77	29851.19
491.95	30022.05
492.13	30066.52
492.30	30316.96
492.48	30497.18
492.66	30331.00
492.84	30501.86
493.01	30815.49
493.19	30939.54
493.37	30764.00
493.54	31505.95
493.72	31903.84
493.90	31480.21
494.08	32037.25
494.25	32189.39
494.43	32500.68
494.61	32830.69
494.79	33003.89
494.96	33071.77
495.14	32917.29
495.32	33668.61
495.49	33256.67
495.67	33722.44
495.85	33628.82
496.02	34342.68
496.20	34167.14
496.38	34183.52
496.55	34412.90
496.73	35351.45
496.91	34873.98
497.09	35274.21
497.26	35491.88
497.44	35431.03
497.62	35644.02
497.79	36247.88
497.97	35782.11
498.14	36374.27
498.32	36556.83
498.50	36659.81
498.67	36767.48
498.85	36903.23
499.03	36933.65
499.20	37359.63
499.38	37390.06
499.56	37537.51
499.73	37633.47
499.91	37858.17
500.08	38057.11
500.26	38040.73
500.44	38330.95
500.61	38794.38
500.79	38337.98
500.97	38515.86
501.14	38909.07
501.32	38852.89
501.49	38986.30
501.67	38883.32
501.84	39178.23
502.02	39035.45
502.20	39587.82
502.37	39688.46
502.55	39725.91
502.72	39927.20
502.90	39660.38
503.07	40215.08
503.25	40018.48
503.43	40032.52
503.60	40612.98
503.78	40842.35
503.95	40718.30
504.13	40584.89
504.30	41244.92
504.48	40975.76
504.65	40989.80
504.83	41315.14
505.01	41530.47
505.18	41340.88
505.36	41818.35
505.53	41928.36
505.71	41958.78
505.88	42241.99
506.06	41808.99
506.23	42260.71
506.41	42459.66
506.58	42880.95
506.76	42857.55
506.93	42974.58
507.11	42644.56
507.28	42679.67
507.46	43234.38
507.63	43562.05
507.81	44205.70
507.98	43168.84
508.16	43533.96
508.33	44065.27
508.50	44133.14
508.68	43683.76
508.85	44151.87
509.03	44491.24
509.20	44781.47
509.38	45303.41
509.55	44142.50
509.73	45102.12
509.90	44886.79
510.08	44666.78
510.25	44807.22
510.42	45221.49
510.60	45308.09
510.77	45626.40
510.95	45832.37
511.12	45762.15
511.30	45565.55
511.47	45841.73
511.64	46136.64
511.82	46192.81
511.99	45872.16
512.17	46738.16
512.34	46354.31
512.51	46600.07
512.69	46373.03
512.86	46384.74
513.04	46848.16
513.21	46820.08
513.38	46782.63
513.56	47346.70
513.73	46967.53
513.90	47842.89
514.08	47524.58
514.25	47814.80
514.43	47936.51
514.60	48105.03
514.77	48004.39
514.95	48093.33
515.12	48282.91
515.29	47964.60
515.47	47988.00
515.64	48584.84
515.81	48261.85
515.99	48631.65
516.16	48879.75
516.33	48907.83
516.51	49092.74
516.68	48732.29
516.85	49200.40
517.03	49209.76
517.20	49326.79
517.37	49191.04
517.54	49324.45
517.72	49207.42
517.89	49380.62
518.06	49762.13
518.24	49467.22
518.41	49544.46
518.58	49570.21
518.75	49457.86
518.93	50225.56
519.10	49738.72
519.27	50103.85
519.45	50134.28
519.62	50368.33
519.79	50396.42
519.96	50422.16
520.14	50457.27
520.31	50539.19
520.48	50876.22
520.65	50363.65
520.83	50937.08
521.00	51152.41
521.17	50885.59
521.34	50948.78
521.52	51290.50
521.69	50986.23
521.86	51454.34
522.03	51356.03
522.20	51648.60
522.38	51767.97
522.55	51875.63
522.72	51433.27
522.89	51716.48
523.07	52215.01
523.24	51983.30
523.41	52126.07
523.58	51929.47
523.75	52336.72
523.92	52226.71
524.10	52182.24
524.27	52378.85
524.44	52236.08
524.61	52456.09
524.78	52332.04
524.96	52556.73
525.13	52556.73
525.30	52577.79
525.47	52896.11
525.64	52910.15
525.81	53083.35
525.98	53052.92
526.16	53010.79
526.33	53001.43
526.50	53134.84
526.67	53029.52
526.84	53455.50
527.01	53291.66
527.18	53291.66
527.36	53207.40
527.53	53254.21
527.70	53612.31
527.87	53614.65
528.04	53237.83
528.21	53876.79
528.38	53600.61
528.55	53797.21
528.72	53811.26
528.89	53935.30
529.07	53577.20
529.24	53734.02
529.41	54145.95
529.58	53759.76
529.75	53970.41
529.92	54122.55
530.09	54262.98
530.26	54487.67
530.43	54082.76
530.60	54148.29
530.77	54267.66
530.94	54817.69
531.11	54148.29
531.28	54562.57
531.46	54770.88
531.63	54763.85
531.80	54724.07
531.97	54635.13
532.14	54894.92
532.31	54993.23
532.48	54925.35
532.65	55070.46
532.82	54796.62
532.99	55023.65
533.16	54955.78
533.33	55140.68
533.50	55182.81
533.67	55157.06
533.84	55194.51
534.01	55269.41
534.18	55386.44
534.35	55283.45
534.52	55416.86
534.69	55325.58
534.86	55529.21
535.03	55353.67
535.20	55632.19
535.37	55679.00
535.54	55632.19
535.71	55557.30
535.88	55826.46
536.05	55655.60
536.22	55774.97
536.38	55941.14
536.55	55681.34
536.72	55906.04
536.89	55838.16
537.06	56156.47
537.23	56055.83
537.40	56088.60
537.57	55861.57
537.74	56191.58
537.91	56243.07
538.08	56374.14
538.25	55955.19
538.42	56128.39
538.59	56451.38
538.75	56161.15
538.92	56310.95
539.09	56624.58
539.26	56465.42
539.43	56526.28
539.60	56357.76
539.77	56519.26
539.94	56774.37
540.11	56652.67
540.28	56610.54
540.44	56556.70
540.61	56481.81
540.78	56769.69
540.95	56807.14
541.12	56673.73
541.29	56657.35
541.46	56645.65
541.62	56828.21
541.79	57113.75
541.96	56608.20
542.13	56814.16
542.30	56938.21
542.47	57202.69
542.63	57092.69
542.80	57139.50
542.97	57418.02
543.14	57600.58
543.31	57453.13
543.48	57432.07
543.64	57467.17
543.81	57701.23
543.98	57457.81
544.15	57691.86
544.32	57616.97
544.48	57684.84
544.65	57675.48
544.82	57748.04
544.99	57499.94
545.16	57595.90
545.32	57738.68
545.49	57867.40
545.66	57977.41
545.83	57851.02
546.00	58174.02
546.16	57984.43
546.33	57705.91
546.50	57638.03
546.67	58040.60
546.83	57750.38
547.00	57958.69
547.17	58239.55
547.34	58239.55
547.50	58169.33
547.67	58321.47
547.84	58085.07
548.00	58279.34
548.17	58649.14
548.34	58286.36
548.51	58459.56
548.67	58515.73
548.84	58513.39
549.01	58258.27
549.18	58258.27
549.34	58536.80
549.51	58602.33
549.68	58635.10
549.84	58628.08
550.01	58796.60
550.18	58618.72
550.34	58628.08
550.51	58578.93
550.68	58672.55
550.84	58564.88
551.01	58829.37
551.18	58766.17
551.34	58897.24
551.51	58834.05
551.68	59042.35
551.84	58843.41
552.01	58869.15
552.18	58897.24
552.34	58962.78
552.51	58922.99
552.68	58864.47
552.84	58869.15
553.01	59384.07
553.18	59032.99
553.34	59143.00
553.51	59192.15
553.67	59135.98
553.84	59297.47
554.01	59051.72
554.17	59283.43
554.34	59187.47
554.51	59199.17
554.67	59522.16
554.84	59320.88
555.00	59363.01
555.17	59274.07
555.33	59150.02
555.50	59241.30
555.67	59271.73
555.83	59416.84
556.00	59367.69
556.16	59711.75
556.33	59512.80
556.50	59475.35
556.66	59756.22
556.83	59437.90
556.99	59583.02
557.16	59660.26
557.32	59742.17
557.49	59770.26
557.65	59688.34
557.82	59522.16
557.98	59716.43
558.15	59807.71
558.32	59849.84
558.48	59568.97
558.65	59554.93
558.81	59594.72
558.98	59697.70
559.14	59849.84
559.31	60039.42
559.47	59739.83
559.64	59987.93
559.80	59828.77
559.97	59924.74
560.13	59744.51
560.30	59920.05
560.46	59969.21
560.63	59994.95
560.79	59908.35
560.96	60151.77
561.12	60044.10
561.29	60177.51
561.45	59964.52
561.61	60027.72
561.78	60170.49
561.94	60156.45
562.11	59978.57
562.27	60076.87
562.44	60135.38
562.60	60147.09
562.77	60273.48
562.93	60191.56
563.10	60392.84
563.26	60189.22
563.42	60544.98
563.59	60111.98
563.75	60282.84
563.92	60285.18
564.08	60193.90
564.24	60329.65
564.41	60226.66
564.57	60472.42
564.74	60381.14
564.90	60371.78
565.07	60378.80
565.23	60350.71
565.39	60385.82
565.56	60439.65
565.72	60430.29
565.88	60516.89
566.05	60388.16
566.21	60500.51
566.38	60706.47
566.54	60481.78
566.70	60395.18
566.87	60657.32
567.03	60308.58
567.19	60842.23
567.36	60367.10
567.52	60537.96
567.68	60905.42
567.85	60591.79
568.01	60687.75
568.17	60500.51
568.34	60636.26
568.50	60402.21
568.66	60566.04
568.83	60544.98
568.99	60556.68
569.15	60676.05
569.32	60603.49
569.48	60570.72
569.64	60912.44
569.81	60678.39
569.97	60514.55
570.13	60528.59
570.30	60638.60
570.46	60797.76
570.62	60874.99
570.78	60659.66
570.95	60797.76
571.11	60711.16
571.27	60645.62
571.43	60823.50
571.60	61006.06
571.76	60924.14
571.92	60615.19
572.09	60755.63
572.25	60816.48
572.41	60896.06
572.57	60842.23
572.74	61221.39
572.90	60891.38
573.06	60860.95
573.22	60652.64
573.38	60802.44
573.55	60849.25
573.71	61113.73
573.87	60970.96
574.03	60879.67
574.20	60825.84
574.36	60767.33
574.52	61001.38
574.68	61034.15
574.84	60987.34
575.01	61027.13
575.17	60889.04
575.33	60968.61
575.49	61085.64
575.65	61031.81
575.82	61097.34
575.98	61111.39
576.14	61013.08
576.30	60956.91
576.46	60849.25
576.62	61071.60
576.79	61099.68
576.95	61045.85
577.11	61111.39
577.27	61251.82
577.43	60980.32
577.59	61069.26
577.75	61076.28
577.92	61013.08
578.08	61095.00
578.24	61181.60
578.40	61130.11
578.56	61055.21
578.72	61162.88
578.88	61216.71
579.04	61186.28
579.21	61160.54
579.37	61382.89
579.53	61120.75
579.69	60963.93
579.85	61022.45
580.01	60963.93
580.17	61095.00
580.33	61352.46
580.49	61167.56
580.65	61113.73
580.82	61113.73
580.98	61219.05
581.14	61006.06
581.30	61256.50
581.46	61010.74
581.62	60992.02
581.78	61226.07
581.94	61155.86
582.10	61106.71
582.26	61141.81
582.42	61378.21
582.58	61155.86
582.74	61202.67
582.90	61240.12
583.06	61148.84
583.22	61279.91
583.38	61329.06
583.54	61249.48
583.70	61268.20
583.86	61116.07
584.02	61024.79
584.18	61207.35
584.34	61272.88
584.50	61265.86
584.66	61183.94
584.82	61085.64
584.98	61357.14
585.14	61296.29
585.30	61195.65
585.46	61249.48
585.62	61265.86
585.78	61441.40
585.94	61345.44
586.10	61197.99
586.26	61197.99
586.42	61212.03
586.58	61181.60
586.74	61331.40
586.90	61055.21
587.06	61120.75
587.22	61378.21
587.38	61403.95
587.54	61511.62
587.70	61698.86
587.86	61352.46
588.02	61193.31
588.18	61413.32
588.34	61450.77
