SpectraSuite Data File
++++++++++++++++++++++++++++++++++++
Date: Fri Oct 25 10:48:03 EDT 2013
User: price-jones
Dark Spectrum Present: No
Reference Spectrum Present: No
Number of Sampled Component Spectra: 1
Spectrometers: USB2+H05261
Integration Time (usec): 100000 (USB2+H05261)
Spectra Averaged: 1 (USB2+H05261)
Boxcar Smoothing: 0 (USB2+H05261)
Correct for Electrical Dark: No (USB2+H05261)
Strobe/Lamp Enabled: No (USB2+H05261)
Correct for Detector Non-linearity: No (USB2+H05261)
Correct for Stray Light: No (USB2+H05261)
Number of Pixels in Processed Spectrum: 2048
>>>>>Begin Processed Spectral Data<<<<<
365.73	154.48
365.92	154.48
366.12	154.48
366.32	0.00
366.52	25.75
366.72	84.26
366.91	16.38
367.11	35.11
367.31	44.47
367.51	95.96
367.70	0.00
367.90	37.45
368.10	18.72
368.30	9.36
368.49	88.94
368.69	46.81
368.89	39.79
369.09	9.36
369.28	63.19
369.48	91.28
369.68	121.71
369.87	138.09
370.07	98.30
370.27	131.07
370.47	131.07
370.66	313.63
370.86	404.91
371.06	465.77
371.25	472.79
371.45	395.55
371.65	416.62
371.84	505.56
372.04	489.17
372.24	449.38
372.44	486.83
372.63	468.11
372.83	510.24
373.03	482.15
373.22	447.04
373.42	514.92
373.62	552.37
373.81	491.51
374.01	540.66
374.21	580.45
374.40	514.92
374.60	545.34
374.79	601.52
374.99	528.96
375.19	505.56
375.38	540.66
375.58	517.26
375.78	524.28
375.97	643.65
376.17	582.79
376.37	594.50
376.56	603.86
376.76	554.71
376.95	606.20
377.15	620.24
377.35	564.07
377.54	547.69
377.74	662.37
377.93	657.69
378.13	608.54
378.33	631.94
378.52	592.16
378.72	528.96
378.91	681.10
379.11	603.86
379.31	603.86
379.50	648.33
379.70	585.13
379.89	660.03
380.09	662.37
380.28	610.88
380.48	655.35
380.68	739.61
380.87	634.29
381.07	713.86
381.26	650.67
381.46	585.13
381.65	617.90
381.85	667.05
382.04	617.90
382.24	748.97
382.43	711.52
382.63	592.16
382.83	716.20
383.02	713.86
383.22	706.84
383.41	702.16
383.61	711.52
383.80	737.27
384.00	709.18
384.19	746.63
384.39	753.65
384.58	706.84
384.78	737.27
384.97	751.31
385.17	688.12
385.36	662.37
385.56	767.70
385.75	744.29
385.95	753.65
386.14	830.89
386.34	772.38
386.53	866.00
386.72	821.53
386.92	866.00
387.11	772.38
387.31	741.95
387.50	741.95
387.70	781.74
387.89	833.23
388.09	798.12
388.28	793.44
388.48	805.14
388.67	777.06
388.86	833.23
389.06	851.96
389.25	957.28
389.45	898.77
389.64	959.62
389.84	882.38
390.03	901.11
390.22	983.02
390.42	922.17
390.61	863.66
390.81	947.92
391.00	945.58
391.19	875.36
391.39	905.79
391.58	992.39
391.78	912.81
391.97	952.60
392.16	915.15
392.36	980.68
392.55	1013.45
392.75	919.83
392.94	926.85
393.13	938.55
393.33	905.79
393.52	987.71
393.71	1088.35
393.91	1041.54
394.10	1043.88
394.29	1001.75
394.49	1025.15
394.68	1055.58
394.88	1053.24
395.07	1139.84
395.26	1128.14
395.46	1083.67
395.65	1128.14
395.84	1137.50
396.04	1174.95
396.23	1170.27
396.42	980.68
396.62	1153.88
396.81	1186.65
397.00	1102.39
397.19	1179.63
397.39	1160.91
397.58	1186.65
397.77	1259.21
397.97	1231.12
398.16	1289.64
398.35	1235.80
398.55	1198.35
398.74	1207.72
398.93	1317.72
399.12	1280.27
399.32	1261.55
399.51	1317.72
399.70	1310.70
399.90	1397.30
400.09	1348.15
400.28	1380.92
400.47	1308.36
400.67	1397.30
400.86	1397.30
401.05	1448.79
401.24	1497.94
401.44	1355.17
401.63	1497.94
401.82	1479.22
402.01	1406.66
402.21	1441.77
402.40	1479.22
402.59	1500.28
402.78	1526.03
402.97	1507.30
403.17	1579.86
403.36	1481.56
403.55	1584.54
403.74	1575.18
403.93	1568.16
404.13	1666.46
404.32	1629.01
404.51	1572.84
404.70	1605.61
404.89	1600.93
405.09	1612.63
405.28	1577.52
405.47	1657.10
405.66	1727.32
405.85	1657.10
406.05	1706.25
406.24	1755.40
406.43	1788.17
406.62	1699.23
406.81	1825.62
407.00	1806.89
407.20	1692.21
407.39	1865.41
407.58	1853.70
407.77	1811.57
407.96	1891.15
408.15	1853.70
408.34	1877.11
408.54	1905.20
408.73	1956.69
408.92	1928.60
409.11	2143.93
409.30	2003.50
409.49	1970.73
409.68	1914.56
409.87	1956.69
410.07	2090.10
410.26	2062.01
410.45	1977.75
410.64	2122.87
410.83	2057.33
411.02	2127.55
411.21	2221.17
411.40	2066.69
411.59	2059.67
411.78	2310.11
411.98	2221.17
412.17	2349.90
412.36	2359.26
412.55	2190.74
412.74	2380.32
412.93	2406.07
413.12	2408.41
413.31	2464.58
413.50	2377.98
413.69	2399.05
413.88	2450.54
414.07	2525.44
414.26	2436.50
414.45	2541.82
414.64	2593.31
414.83	2661.19
415.02	2750.13
415.22	2705.66
415.41	2766.51
415.60	2698.64
415.79	2839.07
415.98	2850.77
416.17	2796.94
416.36	2740.77
416.55	2897.58
416.74	2738.43
416.93	2855.45
417.12	2822.69
417.31	2902.26
417.50	2974.82
417.69	3012.27
417.88	2970.14
418.07	2888.22
418.26	2920.99
418.45	3042.70
418.64	3197.17
418.83	3185.47
419.02	3110.57
419.21	3234.62
419.39	3094.19
419.58	3169.09
419.77	3126.96
419.96	3248.66
420.15	3325.90
420.34	3248.66
420.53	3243.98
420.72	3255.69
420.91	3255.69
421.10	3133.98
421.29	3290.79
421.48	3318.88
421.67	3295.47
421.86	3389.10
422.05	3382.07
422.24	3297.81
422.43	3293.13
422.61	3391.44
422.80	3555.27
422.99	3363.35
423.18	3487.40
423.37	3506.12
423.56	3517.83
423.75	3499.10
423.94	3243.98
424.13	3232.28
424.32	3346.97
424.50	3548.25
424.69	3599.74
424.88	3658.26
425.07	3510.80
425.26	3414.84
425.45	3288.45
425.64	3478.04
425.83	3581.02
426.01	3480.38
426.20	3548.25
426.39	3606.77
426.58	3543.57
426.77	3508.46
426.96	3578.68
427.15	3466.33
427.33	3557.61
427.52	3513.14
427.71	3674.64
427.90	3571.66
428.09	3700.39
428.28	3616.13
428.46	3648.90
428.65	3719.11
428.84	3941.46
429.03	3889.97
429.22	3686.34
429.40	3765.92
429.59	3639.53
429.78	3574.00
429.97	3707.41
430.16	3758.90
430.34	3665.28
430.53	3878.27
430.72	3847.84
430.91	3824.44
431.10	3871.25
431.28	3941.46
431.47	4182.54
431.66	4100.62
431.85	3887.63
432.03	4086.58
432.22	4105.30
432.41	4002.32
432.60	4191.90
432.79	4070.19
432.97	4250.41
433.16	4184.88
433.35	4046.79
433.54	4182.54
433.72	4269.14
433.91	4273.82
434.10	4205.94
434.28	4191.90
434.47	4189.56
434.66	4435.32
434.85	4381.48
435.03	4264.46
435.22	4365.10
435.41	4500.85
435.59	4259.78
435.78	4367.44
435.97	4493.83
436.16	4409.57
436.34	4463.40
436.53	4535.96
436.72	4437.66
436.90	4552.34
437.09	4519.57
437.28	4535.96
437.46	4601.49
437.65	4493.83
437.84	4629.58
438.02	4596.81
438.21	4671.71
438.40	4667.03
438.58	4865.97
438.77	4753.63
438.96	4725.54
439.14	4938.53
439.33	4828.53
439.52	4905.76
439.70	4978.32
439.89	5043.85
440.08	5057.90
440.26	5053.22
440.45	5111.73
440.63	5137.48
440.82	5186.63
441.01	5228.76
441.19	5341.10
441.38	5298.97
441.57	5406.64
441.75	5317.70
441.94	5397.28
442.12	5420.68
442.31	5561.11
442.50	5565.79
442.68	5537.71
442.87	5448.77
443.05	5387.91
443.24	5661.76
443.43	5348.12
443.61	5645.37
443.80	5937.94
443.98	5490.90
444.17	5486.22
444.35	5823.25
444.54	5783.46
444.73	5844.32
444.91	5755.38
445.10	5659.42
445.28	5809.21
445.47	5685.16
445.65	5675.80
445.84	5799.85
446.02	5687.50
446.21	5788.14
446.39	5720.27
446.58	5844.32
446.77	5877.09
446.95	5720.27
447.14	5902.83
447.32	5860.70
447.51	5839.64
447.69	5804.53
447.88	5809.21
448.06	5851.34
448.25	5975.39
448.43	5909.85
448.62	5973.05
448.80	5879.43
448.99	5870.06
449.17	6085.39
449.36	5923.90
449.54	6218.80
449.73	6303.06
449.91	6221.14
450.10	6319.45
450.28	6342.85
450.46	6265.61
450.65	6267.95
450.83	6223.48
451.02	6305.40
451.20	6380.30
451.39	6370.94
451.57	6305.40
451.76	6256.25
451.94	6384.98
452.13	6305.40
452.31	6406.05
452.49	6303.06
452.68	6366.26
452.86	6506.69
453.05	6560.52
453.23	6462.22
453.42	6340.51
453.60	6396.68
453.78	6581.59
453.97	6527.75
454.15	6445.84
454.34	6438.81
454.52	6703.29
454.70	6635.42
454.89	6703.29
455.07	6612.01
455.26	6658.82
455.44	6925.65
455.62	6661.16
455.81	6663.51
455.99	6841.39
456.17	6967.77
456.36	6918.62
456.54	7066.08
456.73	7136.29
456.91	7056.72
457.09	6923.30
457.28	7082.46
457.46	7162.04
457.64	7197.15
457.83	7176.08
458.01	7042.67
458.19	7311.83
458.38	7136.29
458.56	7246.30
458.74	7325.88
458.93	6970.12
459.11	7316.51
459.29	7140.97
459.48	7339.92
459.66	7227.57
459.84	7419.50
460.03	7571.63
460.21	7485.03
460.39	7562.27
460.57	7513.12
460.76	7360.98
460.94	7482.69
461.12	7520.14
461.31	7489.71
461.49	7581.00
461.67	7641.85
461.85	7889.95
462.04	7632.49
462.22	8259.75
462.40	8016.33
462.59	7768.24
462.77	7791.64
462.95	7925.05
463.13	7744.83
463.32	7962.50
463.50	7845.48
463.68	7969.52
463.86	8037.40
464.05	7903.99
464.23	7754.19
464.41	8086.55
464.59	7808.03
464.78	8287.84
464.96	8128.68
465.14	8006.97
465.32	8046.76
465.50	8217.62
465.69	8297.20
465.87	8086.55
466.05	8156.77
466.23	8163.79
466.41	8280.82
466.60	8390.82
466.78	8280.82
466.96	8308.90
467.14	8411.89
467.32	8306.56
467.51	8498.49
467.69	8126.34
467.87	8351.03
468.05	8524.23
468.23	8381.46
468.41	8414.23
468.60	8456.36
468.78	8615.51
468.96	8351.03
469.14	8582.74
469.32	8690.41
469.50	8327.63
469.69	8608.49
469.87	8723.18
470.05	8496.14
470.23	8737.22
470.41	8678.71
470.59	9092.98
470.77	8718.50
470.95	8990.00
471.14	9107.02
471.32	8868.29
471.50	9036.81
471.68	9200.65
471.86	9097.66
472.04	9036.81
472.22	9200.65
472.40	8992.34
472.58	9137.45
472.77	9359.80
472.95	9362.14
473.13	9713.22
473.31	9490.87
473.49	9263.84
473.67	9533.00
473.85	9437.04
474.03	9441.72
474.21	9802.16
474.39	9848.97
474.57	9797.48
474.75	9879.40
474.93	9961.32
475.12	9853.66
475.30	10097.07
475.48	9951.96
475.66	10118.14
475.84	9916.85
476.02	10214.10
476.20	10071.33
476.38	10303.04
476.56	10427.09
476.74	10527.73
476.92	10466.88
477.10	10541.77
477.28	10661.14
477.46	10534.75
477.64	10640.08
477.82	11007.54
478.00	11166.70
478.18	11061.37
478.36	11190.10
478.54	11232.23
478.72	11407.77
478.90	11288.40
479.08	11836.09
479.26	11721.40
479.44	11674.59
479.62	11742.47
479.80	11920.35
479.98	11896.94
480.16	12060.78
480.34	12334.62
480.52	12161.42
480.70	12468.03
480.88	12245.68
481.06	12053.76
481.24	12486.76
481.41	12580.38
481.59	12809.75
481.77	12849.54
481.95	12730.17
482.13	13036.78
482.31	13055.51
482.49	13172.54
482.67	13322.33
482.85	13373.82
483.03	13561.06
483.21	13696.82
483.39	13963.64
483.57	13778.73
483.74	13923.85
483.92	13956.61
484.10	13823.20
484.28	14232.80
484.46	14462.17
484.64	14497.28
484.82	14487.92
485.00	14452.81
485.18	14768.78
485.35	14834.32
485.53	14684.52
485.71	14801.55
485.89	15119.86
486.07	15187.74
486.25	15180.71
486.43	15382.00
486.61	15676.91
486.78	15679.25
486.96	15772.87
487.14	15676.91
487.32	15880.53
487.50	15892.24
487.68	16397.79
487.85	16512.48
488.03	16545.25
488.21	16971.22
488.39	16734.83
488.57	17055.48
488.75	16980.59
488.92	17387.84
489.10	17212.30
489.28	17514.23
489.46	17734.24
489.64	17535.29
489.81	18066.60
489.99	18059.57
490.17	18075.96
490.35	18237.45
490.53	18040.85
490.70	18359.16
490.88	18600.24
491.06	18806.20
491.24	18939.62
491.41	18686.84
491.59	18700.88
491.77	19026.21
491.95	18941.96
492.13	19304.74
492.30	19197.07
492.48	19651.14
492.66	19578.58
492.84	19564.54
493.01	19988.18
493.19	19782.21
493.37	20147.33
493.54	20152.01
493.72	20208.19
493.90	20191.80
494.08	20589.69
494.25	21069.50
494.43	20540.54
494.61	20669.27
494.79	20910.35
494.96	20819.07
495.14	21336.32
495.32	21270.79
495.49	21460.37
495.67	21532.93
495.85	21778.68
496.02	21799.75
496.20	22073.59
496.38	21848.90
496.55	22352.12
496.73	22757.03
496.91	22146.15
497.09	22637.66
497.26	22703.20
497.44	22363.82
497.62	23108.11
497.79	22881.08
497.97	22803.84
498.14	23496.64
498.32	23438.12
498.50	23316.42
498.67	23576.22
498.85	23590.26
499.03	23854.74
499.20	23784.52
499.38	23702.61
499.56	23754.10
499.73	23828.99
499.91	24163.69
500.08	24362.64
500.26	23761.12
500.44	24458.60
500.61	24596.69
500.79	24411.79
500.97	24287.74
501.14	24772.23
501.32	24545.20
501.49	24933.73
501.67	24580.31
501.84	25216.93
502.02	25010.96
502.20	25085.86
502.37	25553.97
502.55	25228.63
502.72	25635.89
502.90	25689.72
503.07	25483.75
503.25	25589.08
503.43	25671.00
503.60	25841.85
503.78	25790.36
503.95	25867.60
504.13	26003.35
504.30	26387.20
504.48	26157.83
504.65	26387.20
504.83	26583.80
505.01	26693.81
505.18	26455.08
505.36	26862.33
505.53	26548.70
505.71	26768.71
505.88	26913.82
506.06	26780.41
506.23	27234.47
506.41	27213.41
506.58	27374.91
506.76	27517.68
506.93	27236.81
507.11	27503.64
507.28	27929.61
507.46	27669.81
507.63	27608.96
507.81	27798.54
507.98	27021.48
508.16	28065.36
508.33	27917.91
508.50	28039.62
508.68	28011.53
508.85	28376.66
509.03	28182.39
509.20	28458.57
509.38	29048.39
509.55	28329.84
509.73	28879.87
509.90	28882.21
510.08	28957.11
510.25	29039.03
510.42	28804.97
510.60	28840.08
510.77	29242.65
510.95	29202.86
511.12	29092.86
511.30	29252.02
511.47	29532.88
511.64	29947.15
511.82	29940.13
511.99	29865.24
512.17	29663.95
512.34	29502.45
512.51	30155.46
512.69	30036.09
512.86	30040.78
513.04	30459.73
513.21	30274.83
513.38	30506.54
513.56	30263.13
513.73	30366.11
513.90	31016.78
514.08	30560.37
514.25	30625.91
514.43	30775.70
514.60	30368.45
514.77	30747.62
514.95	30789.75
515.12	30752.30
515.29	31393.61
515.47	31119.76
515.64	31285.94
515.81	31414.67
515.99	30981.67
516.16	31321.05
516.33	31225.09
516.51	31318.71
516.68	31204.02
516.85	31197.00
517.03	31377.22
517.20	31929.59
517.37	31559.78
517.54	31700.22
517.72	31672.13
517.89	32030.23
518.06	31983.42
518.24	31821.92
518.41	32009.17
518.58	31988.10
518.75	32034.91
518.93	32568.55
519.10	32243.22
519.27	32577.92
519.45	32622.39
519.62	32465.57
519.79	32683.24
519.96	32849.42
520.14	33167.73
520.31	33319.87
520.48	32737.07
520.65	33172.41
520.83	33022.62
521.00	33228.59
521.17	33202.84
521.34	33677.97
521.52	33191.14
521.69	33457.96
521.86	33621.80
522.03	33841.81
522.20	33659.24
522.38	34298.21
522.55	34040.75
522.72	33923.72
522.89	33734.14
523.07	33692.01
523.24	33881.60
523.41	33837.12
523.58	34073.52
523.75	34239.70
523.92	34738.23
524.10	34216.29
524.27	34260.76
524.44	34092.24
524.61	34691.42
524.78	34932.50
524.96	34653.97
525.13	34866.96
525.30	35056.54
525.47	35002.71
525.64	34864.62
525.81	34955.90
525.98	34682.06
526.16	34820.15
526.33	34864.62
526.50	35655.72
526.67	35093.99
526.84	34979.31
527.01	35370.18
527.18	35075.27
527.36	35428.69
527.53	35728.28
527.70	35950.63
527.87	36205.75
528.04	35566.78
528.21	35857.01
528.38	35782.11
528.55	36287.67
528.72	36067.66
528.89	36149.57
529.07	36147.23
529.24	35782.11
529.41	36287.67
529.58	36397.67
529.75	36095.74
529.92	36556.83
530.09	36357.88
530.26	36718.32
530.43	36079.36
530.60	36437.46
530.77	36437.46
530.94	36882.16
531.11	36694.92
531.28	36488.95
531.46	36795.56
531.63	36938.33
531.80	36400.01
531.97	36875.14
532.14	36453.84
532.31	36671.51
532.48	36842.37
532.65	37420.48
532.82	37254.31
532.99	37392.40
533.16	36891.52
533.33	37427.51
533.50	37663.90
533.67	37256.65
533.84	37195.79
534.01	37640.50
534.18	37376.01
534.35	38068.81
534.52	37755.18
534.69	37771.57
534.86	37764.54
535.03	37996.26
535.20	37706.03
535.37	37996.26
535.54	38176.48
535.71	38213.93
535.88	37993.92
536.05	37794.97
536.22	38064.13
536.38	38099.24
536.55	37846.46
536.72	38181.16
536.89	37893.27
537.06	38225.63
537.23	38450.32
537.40	38043.07
537.57	38440.96
537.74	38370.74
537.91	39019.07
538.08	38850.55
538.25	38515.86
538.42	38733.53
538.59	39042.48
538.75	39012.05
538.92	38630.54
539.09	38497.13
539.26	39005.03
539.43	38895.02
539.60	39274.19
539.77	38724.16
539.94	38845.87
540.11	39091.63
540.28	38724.16
540.44	38895.02
540.61	39550.37
540.78	38682.03
540.95	38902.04
541.12	39250.78
541.29	39407.60
541.46	39302.28
541.62	39374.83
541.79	39459.09
541.96	38990.98
542.13	39526.97
542.30	39533.99
542.47	39772.72
542.63	39454.41
542.80	39459.09
542.97	39943.58
543.14	39739.96
543.31	40198.70
543.48	40343.81
543.64	40158.91
543.81	40435.10
543.98	40081.67
544.15	40229.13
544.32	40701.92
544.48	40467.86
544.65	40662.13
544.82	40266.58
544.99	40102.74
545.16	40430.41
545.32	40446.80
545.49	41008.53
545.66	40835.33
545.83	40830.65
546.00	41036.61
546.16	40765.11
546.33	40334.45
546.50	40297.00
546.67	40659.79
546.83	40407.01
547.00	41155.98
547.17	40950.01
547.34	41041.29
547.50	41202.79
547.67	41017.89
547.84	40753.41
548.00	41219.17
548.17	41181.73
548.34	41317.48
548.51	41607.70
548.67	41340.88
548.84	41296.41
549.01	41696.64
549.18	41483.66
549.34	41207.47
549.51	41441.53
549.68	41422.80
549.84	41383.01
550.01	41776.22
550.18	41738.77
550.34	41635.79
550.51	41315.14
550.68	41659.20
550.84	41123.21
551.01	41462.59
551.18	41621.75
551.34	41869.84
551.51	41488.34
551.68	42017.30
551.84	41876.86
552.01	41801.97
552.18	41862.82
552.34	41436.84
552.51	42014.96
552.68	42045.38
552.84	42562.64
553.01	42340.29
553.18	41830.05
553.34	42082.83
553.51	41895.59
553.67	42192.84
553.84	42667.97
554.01	42134.32
554.17	42394.12
554.34	42237.31
554.51	41869.84
554.67	42361.36
554.84	42197.52
555.00	42567.32
555.17	42246.67
555.33	42354.33
555.50	42761.59
555.67	42506.47
555.83	42735.84
556.00	42733.50
556.16	43084.58
556.33	42710.10
556.50	42883.30
556.66	42632.86
556.83	42384.76
556.99	42759.25
557.16	42541.58
557.32	42820.10
557.49	43040.11
557.65	42279.44
557.82	42635.20
557.98	42581.37
558.15	42707.76
558.32	43194.59
558.48	43150.12
558.65	42925.42
558.81	42803.72
558.98	43042.45
559.14	42742.86
559.31	42766.27
559.47	43124.37
559.64	43126.71
559.80	43498.86
559.97	43358.42
560.13	42997.98
560.30	43295.23
560.46	42972.24
560.63	43192.25
560.79	43428.64
560.96	43435.66
561.12	43164.16
561.29	43819.51
561.45	43173.52
561.61	43566.73
561.78	43206.29
561.94	43093.94
562.11	43412.26
562.27	43325.66
562.44	43571.41
562.60	43566.73
562.77	43627.59
562.93	43665.03
563.10	43564.39
563.26	43416.94
563.42	43648.65
563.59	43540.99
563.75	43679.08
563.92	43803.13
564.08	43236.72
564.24	43688.44
564.41	43976.33
564.57	43316.29
564.74	43576.09
564.90	43821.85
565.07	43543.33
565.23	43187.56
565.39	43632.27
565.56	44257.19
565.72	43650.99
565.88	43845.26
566.05	43721.21
566.21	43950.58
566.38	43725.89
566.54	43634.61
566.70	43543.33
566.87	44287.62
567.03	43655.67
567.19	44421.03
567.36	44147.18
567.52	43761.00
567.68	43735.25
567.85	43526.94
568.01	43899.09
568.17	43578.43
568.34	44222.08
568.50	43803.13
568.66	43784.40
568.83	43571.41
568.99	43770.36
569.15	44140.16
569.32	43849.94
569.48	43386.51
569.64	44364.85
569.81	44051.22
569.97	44142.50
570.13	44201.02
570.30	43936.54
570.46	44198.68
570.62	43990.37
570.78	44114.42
570.95	43636.95
571.11	44339.11
571.27	43622.90
571.43	43964.62
571.60	44240.81
571.76	44006.75
571.92	43817.17
572.09	43896.75
572.25	44217.40
572.41	43859.30
572.57	44175.27
572.74	44753.38
572.90	44114.42
573.06	44336.77
573.22	44196.34
573.38	43878.02
573.55	43578.43
573.71	44172.93
573.87	43929.51
574.03	44018.46
574.20	43962.28
574.36	44004.41
574.52	44395.28
574.68	44385.92
574.84	44624.65
575.01	44065.27
575.17	44147.18
575.33	43847.60
575.49	43929.51
575.65	44547.42
575.82	44404.64
575.98	44582.52
576.14	44856.37
576.30	44369.54
576.46	43976.33
576.62	44151.87
576.79	44168.25
576.95	43796.10
577.11	44243.15
577.27	44442.09
577.43	44362.51
577.59	44055.90
577.75	44446.77
577.92	43847.60
578.08	43889.73
578.24	43981.01
578.40	44175.27
578.56	44039.52
578.72	44404.64
578.88	44519.33
579.04	44182.29
579.21	43751.63
579.37	44121.44
579.53	44374.22
579.69	44149.53
579.85	44212.72
580.01	43892.07
580.17	44130.80
580.33	44467.84
580.49	44830.62
580.65	44364.85
580.82	44250.17
580.98	44109.74
581.14	44285.28
581.30	44280.60
581.46	44268.89
581.62	44208.04
581.78	44006.75
581.94	44493.58
582.10	44313.36
582.26	44060.58
582.42	44561.46
582.58	44641.04
582.74	44023.14
582.90	44257.19
583.06	44453.79
583.22	44589.55
583.38	44561.46
583.54	44725.30
583.70	44673.81
583.86	44275.91
584.02	44194.00
584.18	44292.30
584.34	44725.30
584.50	44594.23
584.66	44233.78
584.82	44589.55
584.98	44769.77
585.14	44699.55
585.30	44156.55
585.46	44531.03
585.62	44093.35
585.78	44325.07
585.94	43742.27
586.10	44191.65
586.26	44280.60
586.42	44474.86
586.58	44814.24
586.74	44622.31
586.90	44442.09
587.06	44659.76
587.22	44231.44
587.38	43901.43
587.54	44622.31
587.70	44666.78
587.86	44357.83
588.02	44575.50
588.18	44638.70
588.34	44245.49
588.49	44484.22
588.65	43885.04
588.81	43929.51
588.97	44177.61
589.13	44149.53
589.29	44229.10
589.45	44659.76
589.61	44287.62
589.77	44622.31
589.93	44933.60
590.08	44947.65
590.24	44493.58
590.40	45031.91
