SpectraSuite Data File
++++++++++++++++++++++++++++++++++++
Date: Fri Oct 25 10:43:48 EDT 2013
User: price-jones
Dark Spectrum Present: No
Reference Spectrum Present: No
Number of Sampled Component Spectra: 1
Spectrometers: USB2+H05261
Integration Time (usec): 100000 (USB2+H05261)
Spectra Averaged: 1 (USB2+H05261)
Boxcar Smoothing: 0 (USB2+H05261)
Correct for Electrical Dark: No (USB2+H05261)
Strobe/Lamp Enabled: No (USB2+H05261)
Correct for Detector Non-linearity: No (USB2+H05261)
Correct for Stray Light: No (USB2+H05261)
Number of Pixels in Processed Spectrum: 2048
>>>>>Begin Processed Spectral Data<<<<<
365.73	63.19
365.92	63.19
366.12	63.19
366.32	4.68
366.52	58.51
366.72	88.94
366.91	18.72
367.11	65.54
367.31	0.00
367.51	37.45
367.70	53.83
367.90	14.04
368.10	53.83
368.30	72.56
368.49	32.77
368.69	77.24
368.89	67.88
369.09	16.38
369.28	42.13
369.48	60.85
369.68	49.15
369.87	102.98
370.07	18.72
370.27	140.43
370.47	212.99
370.66	360.44
370.86	418.96
371.06	512.58
371.25	496.19
371.45	463.43
371.65	416.62
371.84	388.53
372.04	435.34
372.24	493.85
372.44	531.30
372.63	456.40
372.83	482.15
373.03	608.54
373.22	587.47
373.42	435.34
373.62	543.00
373.81	510.24
374.01	545.34
374.21	608.54
374.40	559.39
374.60	587.47
374.79	521.94
374.99	599.18
375.19	587.47
375.38	554.71
375.58	535.98
375.78	638.97
375.97	564.07
376.17	690.46
376.37	575.77
376.56	578.11
376.76	575.77
376.95	681.10
377.15	641.31
377.35	683.44
377.54	674.07
377.74	634.29
377.93	657.69
378.13	596.84
378.33	699.82
378.52	585.13
378.72	657.69
378.91	702.16
379.11	627.26
379.31	669.39
379.50	718.54
379.70	674.07
379.89	723.23
380.09	713.86
380.28	699.82
380.48	657.69
380.68	713.86
380.87	704.50
381.07	720.88
381.26	727.91
381.46	636.63
381.65	695.14
381.85	770.04
382.04	720.88
382.24	723.23
382.43	720.88
382.63	777.06
382.83	645.99
383.02	711.52
383.22	786.42
383.41	774.72
383.61	793.44
383.80	802.80
384.00	706.84
384.19	727.91
384.39	760.67
384.58	763.01
384.78	805.14
384.97	798.12
385.17	777.06
385.36	814.51
385.56	765.36
385.75	767.70
385.95	793.44
386.14	847.27
386.34	774.72
386.53	877.70
386.72	819.19
386.92	840.25
387.11	849.61
387.31	891.74
387.50	823.87
387.70	884.72
387.89	847.27
388.09	863.66
388.28	875.36
388.48	816.85
388.67	915.15
388.86	959.62
389.06	957.28
389.25	999.41
389.45	1053.24
389.64	868.34
389.84	1057.92
390.03	957.28
390.22	950.26
390.42	1008.77
390.61	999.41
390.81	1071.97
391.00	1011.11
391.19	1102.39
391.39	1015.79
391.58	1116.44
391.78	1069.62
391.97	1088.35
392.16	1029.84
392.36	1062.60
392.55	933.87
392.75	898.77
392.94	1039.20
393.13	936.21
393.33	966.64
393.52	1055.58
393.71	1095.37
393.91	1107.07
394.10	1160.91
394.29	1093.03
394.49	1128.14
394.68	1177.29
394.88	1137.50
395.07	1228.78
395.26	1146.86
395.46	1179.63
395.65	1233.46
395.84	1118.78
396.04	1219.42
396.23	1207.72
396.42	1228.78
396.62	1245.16
396.81	1188.99
397.00	1245.16
397.19	1203.04
397.39	1394.96
397.58	1313.04
397.77	1338.79
397.97	1359.85
398.16	1411.34
398.35	1537.73
398.55	1486.24
398.74	1409.00
398.93	1596.25
399.12	1509.65
399.32	1439.43
399.51	1437.09
399.70	1507.30
399.90	1631.35
400.09	1598.59
400.28	1593.90
400.47	1565.82
400.67	1619.65
400.86	1516.67
401.05	1593.90
401.24	1682.85
401.44	1722.63
401.63	1757.74
401.82	1614.97
402.01	1722.63
402.21	1715.61
402.40	1750.72
402.59	1678.16
402.78	1675.82
402.97	1832.64
403.17	1820.94
403.36	1858.39
403.55	1820.94
403.74	1877.11
403.93	1844.34
404.13	1905.20
404.32	1809.23
404.51	1795.19
404.70	1914.56
404.89	1968.39
405.09	2031.58
405.28	1968.39
405.47	1991.80
405.66	1902.86
405.85	1937.96
406.05	1959.03
406.24	2017.54
406.43	1973.07
406.62	2069.03
406.81	2104.14
407.00	1926.26
407.20	2066.69
407.39	2115.84
407.58	2024.56
407.77	2120.53
407.96	2225.85
408.15	2328.83
408.34	2218.83
408.54	2183.72
408.73	2181.38
408.92	2263.30
409.11	2408.41
409.30	2300.75
409.49	2263.30
409.68	2221.17
409.87	2272.66
410.07	2347.56
410.26	2387.35
410.45	2420.11
410.64	2279.68
410.83	2448.20
411.02	2457.56
411.21	2473.95
411.40	2455.22
411.59	2539.48
411.78	2534.80
411.98	2590.97
412.17	2738.43
412.36	2696.30
412.55	2745.45
412.74	2752.47
412.93	2670.55
413.12	2642.46
413.31	2825.03
413.50	2719.70
413.69	2939.71
413.88	2960.78
414.07	2984.18
414.26	2916.31
414.45	2960.78
414.64	2963.12
414.83	2977.16
415.02	3030.99
415.22	3087.17
415.41	3136.32
415.60	3138.66
415.79	3213.56
415.98	3197.17
416.17	3141.00
416.36	3279.09
416.55	3225.26
416.74	3368.03
416.93	3183.13
417.12	3307.18
417.31	3351.65
417.50	3267.39
417.69	3492.08
417.88	3361.01
418.07	3445.27
418.26	3344.63
418.45	3405.48
418.64	3548.25
418.83	3625.49
419.02	3524.85
419.21	3618.47
419.39	3684.00
419.58	3503.78
419.77	3494.42
419.96	3581.02
420.15	3791.67
420.34	3747.20
420.53	3630.17
420.72	3889.97
420.91	3817.41
421.10	3751.88
421.29	3892.31
421.48	3796.35
421.67	3857.20
421.86	3639.53
422.05	3847.84
422.24	3808.05
422.43	3840.82
422.61	3779.97
422.80	3889.97
422.99	3836.14
423.18	4032.74
423.37	3971.89
423.56	4007.00
423.75	3850.18
423.94	3847.84
424.13	3775.28
424.32	3894.65
424.50	3929.76
424.69	4098.28
424.88	4039.76
425.07	3896.99
425.26	3976.57
425.45	3861.88
425.64	3913.38
425.83	3899.33
426.01	4037.42
426.20	4114.66
426.39	3957.85
426.58	4126.36
426.77	3988.27
426.96	3969.55
427.15	3936.78
427.33	4053.81
427.52	4098.28
427.71	4105.30
427.90	4091.26
428.09	4098.28
428.28	4124.02
428.46	4126.36
428.65	4152.11
428.84	4208.28
429.03	4245.73
429.22	4126.36
429.40	4161.47
429.59	4065.51
429.78	3904.01
429.97	3964.87
430.16	4156.79
430.34	4060.83
430.53	4142.75
430.72	4184.88
430.91	4248.07
431.10	4344.03
431.28	4512.55
431.47	4643.62
431.66	4746.61
431.85	4542.98
432.03	4655.33
432.22	4615.54
432.41	4622.56
432.60	4531.28
432.79	4802.78
432.97	4657.67
433.16	4840.23
433.35	4688.09
433.54	4765.33
433.72	4550.00
433.91	4685.75
434.10	4765.33
434.28	4812.14
434.47	4737.24
434.66	4929.17
434.85	4849.59
435.03	4915.12
435.22	4891.72
435.41	5195.99
435.59	4980.66
435.78	5032.15
435.97	5128.11
436.16	5095.35
436.34	4952.57
436.53	5144.50
436.72	5156.20
436.90	5006.41
437.09	5071.94
437.28	5025.13
437.46	5107.05
437.65	5135.14
437.84	5111.73
438.02	5317.70
438.21	5226.42
438.40	5090.67
438.58	5348.12
438.77	5345.78
438.96	5315.36
439.14	5628.99
439.33	5554.09
439.52	5500.26
439.70	5610.26
439.89	5577.50
440.08	5563.45
440.26	5795.17
440.45	5696.86
440.63	5942.62
440.82	6097.10
441.01	5951.98
441.19	5851.34
441.38	6171.99
441.57	6019.86
441.75	6225.82
441.94	6291.36
442.12	6345.19
442.31	6209.44
442.50	6410.73
442.68	6293.70
442.87	6356.90
443.05	6382.64
443.24	6296.04
443.43	6431.79
443.61	6492.65
443.80	6572.22
443.98	6375.62
444.17	6256.25
444.35	6487.96
444.54	6562.86
444.73	6525.41
444.91	6408.39
445.10	6403.71
445.28	6380.30
445.47	6387.32
445.65	6380.30
445.84	6370.94
446.02	6504.35
446.21	6525.41
446.39	6502.01
446.58	6647.12
446.77	6719.68
446.95	6506.69
447.14	6717.34
447.32	6944.37
447.51	6665.85
447.69	6719.68
447.88	6633.08
448.06	6841.39
448.25	6700.95
448.43	6478.60
448.62	6740.74
448.80	6651.80
448.99	6738.40
449.17	6822.66
449.36	6773.51
449.54	6932.67
449.73	6878.83
449.91	6930.33
450.10	7176.08
450.28	7052.03
450.46	7316.51
450.65	7309.49
450.83	7173.74
451.02	7087.14
451.20	7119.91
451.39	7190.13
451.57	7218.21
451.76	7126.93
451.94	7059.06
452.13	7403.11
452.31	7138.63
452.49	6860.11
452.68	7094.16
452.86	7073.10
453.05	7297.79
453.23	7358.64
453.42	7351.62
453.60	7192.47
453.78	7389.07
453.97	7227.57
454.15	7541.21
454.34	7318.86
454.52	7522.48
454.70	7407.80
454.89	7508.44
455.07	7339.92
455.26	7550.57
455.44	7691.00
455.62	7716.75
455.81	7665.25
455.99	7730.79
456.17	7798.66
456.36	7581.00
456.54	7999.95
456.73	8039.74
456.91	8074.85
457.09	8170.81
457.28	8098.25
457.46	7932.08
457.64	7981.23
457.83	8077.19
458.01	7808.03
458.19	8231.66
458.38	8208.26
458.56	8156.77
458.74	8259.75
458.93	8212.94
459.11	8311.24
459.29	8278.47
459.48	8259.75
459.66	8241.03
459.84	8383.80
460.03	8278.47
460.21	8315.92
460.39	8542.96
460.57	8451.67
460.76	8599.13
460.94	8620.19
461.12	8697.43
461.31	8631.90
461.49	8678.71
461.67	8718.50
461.85	8709.13
462.04	8821.48
462.22	9015.74
462.40	8851.91
462.59	8898.72
462.77	8870.63
462.95	8856.59
463.13	8793.39
463.32	8887.01
463.50	8903.40
463.68	8915.10
463.86	9074.26
464.05	8788.71
464.23	8833.18
464.41	9116.39
464.59	8924.46
464.78	9114.05
464.96	8994.68
465.14	8964.25
465.32	9263.84
465.50	9280.22
465.69	9404.27
465.87	9111.71
466.05	9172.56
466.23	9062.55
466.41	9074.26
466.60	9348.10
466.78	9048.51
466.96	9210.01
467.14	9359.80
467.32	9226.39
467.51	9357.46
467.69	9224.05
467.87	9444.06
468.05	9474.49
468.23	9303.63
468.41	9348.10
468.60	9490.87
468.78	9509.60
468.96	9509.60
469.14	9465.13
469.32	9713.22
469.50	9341.08
469.69	9846.63
469.87	9720.24
470.05	9659.39
470.23	9762.37
470.41	9692.16
470.59	9811.53
470.77	9886.42
470.95	9870.04
471.14	10071.33
471.32	9799.82
471.50	10174.31
471.68	10125.16
471.86	10438.79
472.04	10218.78
472.22	10611.99
472.40	10061.96
472.58	10345.17
472.77	10347.51
472.95	10530.07
473.13	10696.25
473.31	10544.11
473.49	10450.49
473.67	10628.37
473.85	10752.42
474.03	10747.74
474.21	10923.28
474.39	10918.60
474.57	11063.71
474.75	11138.61
474.93	11185.42
475.12	10932.64
475.30	11449.90
475.48	11328.19
475.66	11309.47
475.84	11265.00
476.02	11365.64
476.20	11358.62
476.38	11587.99
476.56	11880.56
476.74	11562.25
476.92	11763.53
477.10	11824.39
477.28	12067.80
477.46	12067.80
477.64	12248.02
477.82	12442.29
478.00	12589.74
478.18	12414.20
478.36	12559.31
478.54	12861.24
478.72	12851.88
478.90	12805.07
479.08	12922.10
479.26	13254.45
479.44	13006.36
479.62	13088.28
479.80	13170.19
479.98	13069.55
480.16	13507.23
480.34	13668.73
480.52	13500.21
480.70	13720.22
480.88	13762.35
481.06	13769.37
481.24	13738.94
481.41	14155.56
481.59	13980.02
481.77	14160.24
481.95	14033.85
482.13	14469.19
482.31	14359.19
482.49	14747.72
482.67	14862.40
482.85	15019.22
483.03	14967.73
483.21	15297.74
483.39	15323.49
483.57	15068.37
483.74	15419.45
483.92	15506.05
484.10	15707.34
484.28	15552.86
484.46	15953.09
484.64	16250.34
484.82	15892.24
485.00	16264.38
485.18	16362.69
485.35	16587.38
485.53	16004.58
485.71	15953.09
485.89	16135.65
486.07	16219.91
486.25	16596.74
486.43	16805.05
486.61	17289.54
486.78	17074.21
486.96	17458.06
487.14	17755.30
487.32	17586.79
487.50	18012.76
487.68	18050.21
487.85	18078.30
488.03	18410.65
488.21	18256.18
488.39	18232.77
488.57	18689.18
488.75	18420.02
488.92	18780.46
489.10	19400.70
489.28	19297.72
489.46	19730.72
489.64	19611.35
489.81	20027.96
489.99	20322.87
490.17	19934.34
490.35	20102.86
490.53	20203.50
490.70	20360.32
490.88	20313.51
491.06	20898.64
491.24	20573.31
491.41	20765.23
491.59	20767.57
491.77	20793.32
491.95	21453.35
492.13	21025.03
492.30	21177.17
492.48	21685.06
492.66	21790.39
492.84	21830.18
493.01	21935.50
493.19	21937.84
493.37	22045.51
493.54	22209.34
493.72	22249.13
493.90	22459.78
494.08	22647.02
494.25	23304.71
494.43	22955.97
494.61	23358.55
494.79	23431.10
494.96	23300.03
495.14	23197.05
495.32	23733.03
495.49	23447.49
495.67	23623.03
495.85	23894.53
496.02	24149.65
496.20	24079.43
496.38	24016.24
496.55	24346.25
496.73	24870.53
496.91	24680.95
497.09	24783.93
497.26	25336.30
497.44	24627.12
497.62	25142.03
497.79	25364.39
497.97	25366.73
498.14	25158.42
498.32	25556.31
498.50	25717.81
498.67	25984.63
498.85	25614.82
499.03	26387.20
499.20	26347.41
499.38	26120.38
499.56	26157.83
499.73	26490.18
499.91	26445.71
500.08	26794.45
500.26	26380.18
500.44	26654.02
500.61	26415.29
500.79	26457.42
500.97	26735.94
501.14	27161.92
501.32	26906.80
501.49	26885.73
501.67	27300.01
501.84	27335.12
502.02	27201.71
502.20	27468.53
502.37	27768.12
502.55	27625.34
502.72	28044.30
502.90	27812.59
503.07	28018.55
503.25	28041.96
503.43	27740.03
503.60	28266.65
503.78	28114.52
503.95	28250.27
504.13	28591.98
504.30	28718.37
504.48	28353.25
504.65	28966.47
504.83	29214.57
505.01	28989.88
505.18	29228.61
505.36	29441.60
505.53	28821.36
505.71	29738.85
505.88	29532.88
506.06	29074.13
506.23	29357.34
506.41	29666.29
506.58	29596.07
506.76	29706.08
506.93	29982.26
507.11	30096.95
507.28	30169.51
507.46	29673.31
507.63	29792.68
507.81	29947.15
507.98	29827.79
508.16	30288.87
508.33	30628.25
508.50	30904.43
508.68	30717.19
508.85	31094.02
509.03	30628.25
509.20	30953.58
509.38	31075.29
509.55	31096.36
509.73	31276.58
509.90	31405.31
510.08	31019.12
510.25	31070.61
510.42	31405.31
510.60	31936.61
510.77	31686.17
510.95	31889.80
511.12	31857.03
511.30	31955.33
511.47	31927.25
511.64	32184.71
511.82	32407.06
511.99	31929.59
512.17	31934.27
512.34	31852.35
512.51	32065.34
512.69	32453.87
512.86	32652.81
513.04	32598.98
513.21	32299.39
513.38	32643.45
513.56	32996.87
513.73	32435.14
513.90	32720.69
514.08	32807.29
514.25	33336.25
514.43	33326.89
514.60	33476.68
514.77	33050.70
514.95	33586.69
515.12	33392.42
515.29	33773.93
515.47	33647.54
515.64	33970.54
515.81	33516.47
515.99	33479.02
516.16	33340.93
516.33	33228.59
516.51	33935.43
516.68	33041.34
516.85	33186.46
517.03	33415.83
517.20	33979.90
517.37	34141.39
517.54	34653.97
517.72	34242.04
517.89	33998.62
518.06	34007.98
518.24	33914.36
518.41	34260.76
518.58	34724.19
518.75	34672.70
518.93	34586.10
519.10	34349.70
519.27	35086.97
519.45	34948.88
519.62	35330.39
519.79	35276.55
519.96	35222.72
520.14	35248.47
520.31	35363.15
520.48	35030.80
520.65	35061.22
520.83	35824.24
521.00	35716.58
521.17	35672.10
521.34	35842.96
521.52	36282.98
521.69	35639.34
521.86	36140.21
522.03	36495.97
522.20	36488.95
522.38	36278.30
522.55	36170.64
522.72	36498.31
522.89	36161.28
523.07	36552.15
523.24	36776.84
523.41	36758.11
523.58	36474.91
523.75	37125.58
523.92	37034.30
524.10	36994.51
524.27	37347.93
524.44	37296.44
524.61	36893.86
524.78	37373.67
524.96	37509.43
525.13	37418.14
525.30	37441.55
525.47	37844.12
525.64	37521.13
525.81	37816.04
525.98	37359.63
526.16	37013.23
526.33	37275.37
526.50	37420.48
526.67	36739.39
526.84	37031.96
527.01	37331.54
527.18	37741.14
527.36	38230.31
527.53	38288.82
527.70	38017.32
527.87	38335.63
528.04	38195.20
528.21	38328.61
528.38	38326.27
528.55	38609.48
528.72	38562.67
528.89	38902.04
529.07	38494.79
529.24	38368.40
529.41	38543.94
529.58	38433.94
529.75	38452.66
529.92	39255.46
530.09	39070.56
530.26	39232.06
530.43	39145.46
530.60	38719.48
530.77	38616.50
530.94	39161.84
531.11	39220.36
531.28	39023.75
531.46	39662.72
531.63	39721.23
531.80	39445.05
531.97	39529.31
532.14	39016.73
532.31	38810.76
532.48	39306.96
532.65	39442.71
532.82	39571.44
532.99	39702.51
533.16	39288.23
533.33	39730.59
533.50	40175.30
533.67	39945.92
533.84	40032.52
534.01	39826.56
534.18	39992.73
534.35	40233.81
534.52	39974.01
534.69	40519.35
534.86	40093.38
535.03	40348.50
535.20	40830.65
535.37	40893.84
535.54	40879.80
535.71	40212.74
535.88	40517.01
536.05	40563.82
536.22	40383.60
536.38	40985.12
536.55	40407.01
536.72	40521.69
536.89	40517.01
537.06	40563.82
537.23	40985.12
537.40	40840.01
537.57	41010.87
537.74	41071.72
537.91	40961.72
538.08	40872.78
538.25	41006.19
538.42	41097.47
538.59	40914.90
538.75	40732.34
538.92	41216.83
539.09	41237.90
539.26	41022.57
539.43	41242.58
539.60	41296.41
539.77	41088.10
539.94	41607.70
540.11	41380.67
540.28	41317.48
540.44	41240.24
540.61	41586.64
540.78	41574.94
540.95	41139.60
541.12	41624.09
541.29	42075.81
541.46	41738.77
541.62	41708.35
541.79	41771.54
541.96	41345.56
542.13	41874.52
542.30	41804.31
542.47	41670.90
542.63	42157.73
542.80	42085.17
542.97	42246.67
543.14	42614.13
543.31	42574.34
543.48	42349.65
543.64	42932.45
543.81	42618.81
543.98	42363.70
544.15	42775.63
544.32	43070.54
544.48	43000.32
544.65	43147.78
544.82	43271.82
544.99	42440.93
545.16	42803.72
545.32	42588.39
545.49	43533.96
545.66	43051.81
545.83	43072.88
546.00	43243.74
546.16	42843.51
546.33	43166.50
546.50	42927.77
546.67	42923.08
546.83	42990.96
547.00	42820.10
547.17	43110.33
547.34	43054.15
547.50	43047.13
547.67	43433.32
547.84	43393.53
548.00	43784.40
548.17	43742.27
548.34	43250.76
548.51	43672.06
548.67	43487.15
548.84	43650.99
549.01	43419.28
549.18	43538.65
549.34	43358.42
549.51	43641.63
549.68	43866.32
549.84	43693.12
550.01	44196.34
550.18	44051.22
550.34	44065.27
550.51	43445.02
550.68	43484.81
550.84	43271.82
551.01	44332.09
551.18	43669.72
551.34	43819.51
551.51	44406.98
551.68	44318.04
551.84	44191.65
552.01	44086.33
552.18	44074.63
552.34	43739.93
552.51	44346.13
552.68	44123.78
552.84	43976.33
553.01	44481.88
553.18	44226.76
553.34	44587.21
553.51	44332.09
553.67	44229.10
553.84	44299.32
554.01	44584.86
554.17	45057.65
554.34	44781.47
554.51	44795.51
554.67	44973.39
554.84	44849.35
555.00	44051.22
555.17	44921.90
555.33	44460.82
555.50	44797.85
555.67	44816.58
555.83	44746.36
556.00	44566.14
556.16	45134.89
556.33	44694.87
556.50	44797.85
556.66	44945.31
556.83	44758.06
556.99	45144.25
557.16	45148.93
557.32	44933.60
557.49	45045.95
557.65	45069.36
557.82	44917.22
557.98	44926.58
558.15	44837.64
558.32	45010.84
558.48	45008.50
558.65	44664.44
558.81	44760.40
558.98	44659.76
559.14	44938.29
559.31	45015.52
559.47	45390.01
559.64	45291.71
559.80	45097.44
559.97	45097.44
560.13	45174.68
560.30	45027.23
560.46	45179.36
560.63	45230.85
560.79	45713.00
560.96	45516.40
561.12	45184.04
561.29	45301.07
561.45	45265.96
561.61	45188.72
561.78	44891.48
561.94	45083.40
562.11	45132.55
562.27	45289.37
562.44	45645.13
562.60	45394.69
562.77	45385.33
562.93	45528.10
563.10	45862.80
563.26	45354.90
563.42	45509.38
563.59	45399.37
563.75	45593.64
563.92	45830.03
564.08	45443.84
564.24	45663.85
564.41	45212.13
564.57	45743.43
564.74	45572.57
564.90	45460.23
565.07	45628.74
565.23	45525.76
565.39	45242.56
565.56	45698.96
565.72	45666.19
565.88	45853.44
566.05	45666.19
566.21	45429.80
566.38	45485.97
566.54	45380.65
566.70	46068.76
566.87	45958.76
567.03	45617.04
567.19	45790.24
567.36	45794.92
567.52	45551.51
567.68	45752.79
567.85	45773.86
568.01	45858.12
568.17	45757.47
568.34	45813.65
568.50	45619.38
568.66	45612.36
568.83	45230.85
568.99	45514.06
569.15	45366.60
569.32	45448.52
569.48	45607.68
569.64	45954.08
569.81	45837.05
569.97	45603.00
570.13	45656.83
570.30	45661.51
570.46	45818.33
570.62	45759.81
570.78	45591.30
570.95	45549.17
571.11	45893.22
571.27	45916.63
571.43	45837.05
571.60	46183.45
571.76	45876.84
571.92	45713.00
572.09	45933.01
572.25	45804.28
572.41	46146.00
572.57	45780.88
572.74	46263.03
572.90	45806.62
573.06	45968.12
573.22	46316.86
573.38	45785.56
573.55	45979.82
573.71	46031.32
573.87	46043.02
574.03	46120.26
574.20	45485.97
574.36	45890.88
574.52	45696.62
574.68	45911.95
574.84	45886.20
575.01	45876.84
575.17	45837.05
575.33	45933.01
575.49	45682.58
575.65	45886.20
575.82	46288.77
575.98	46232.60
576.14	46267.71
576.30	46021.95
576.46	45947.06
576.62	45804.28
576.79	46064.08
576.95	45652.15
577.11	45940.04
577.27	45710.66
577.43	46181.11
577.59	45504.70
577.75	46047.70
577.92	45734.07
578.08	45799.60
578.24	45319.79
578.40	45485.97
578.56	46061.74
578.72	46337.93
578.88	46075.79
579.04	46401.12
579.21	45897.91
579.37	46302.82
579.53	45895.56
579.69	46054.72
579.85	46115.58
580.01	45879.18
580.17	45713.00
580.33	45979.82
580.49	46216.22
580.65	45844.07
580.82	45801.94
580.98	46014.93
581.14	46188.13
581.30	46028.98
581.46	46183.45
581.62	46354.31
581.78	45921.31
581.94	46171.75
582.10	46335.59
582.26	46478.36
582.42	46375.37
582.58	46511.13
582.74	46174.09
582.90	46265.37
583.06	46085.15
583.22	46117.92
583.38	46157.70
583.54	46230.26
583.70	46075.79
583.86	46405.80
584.02	46253.67
584.18	46117.92
584.34	46064.08
584.50	46096.85
584.66	46003.23
584.82	45734.07
584.98	46246.65
585.14	46141.32
585.30	45729.39
585.46	46316.86
585.62	45734.07
585.78	46066.42
585.94	45645.13
586.10	45940.04
586.26	45883.86
586.42	46253.67
586.58	45858.12
586.74	46178.77
586.90	46370.69
587.06	46005.57
587.22	46258.35
587.38	45989.19
587.54	46408.14
587.70	46108.55
587.86	45965.78
588.02	46426.87
588.18	46548.57
588.34	46082.81
588.49	45930.67
588.65	45457.88
588.81	45682.58
588.97	45759.81
589.13	45935.35
589.29	45759.81
589.45	46047.70
589.61	46295.80
589.77	46038.34
589.93	46326.22
590.08	46398.78
