SpectraSuite Data File
++++++++++++++++++++++++++++++++++++
Date: Fri Oct 25 10:43:48 EDT 2013
User: price-jones
Dark Spectrum Present: No
Reference Spectrum Present: No
Number of Sampled Component Spectra: 1
Spectrometers: USB2+H05261
Integration Time (usec): 100000 (USB2+H05261)
Spectra Averaged: 1 (USB2+H05261)
Boxcar Smoothing: 0 (USB2+H05261)
Correct for Electrical Dark: No (USB2+H05261)
Strobe/Lamp Enabled: No (USB2+H05261)
Correct for Detector Non-linearity: No (USB2+H05261)
Correct for Stray Light: No (USB2+H05261)
Number of Pixels in Processed Spectrum: 2048
>>>>>Begin Processed Spectral Data<<<<<
365.73	98.30
365.92	98.30
366.12	98.30
366.32	0.00
366.52	0.00
366.72	74.90
366.91	25.75
367.11	0.00
367.31	28.09
367.51	42.13
367.70	0.00
367.90	74.90
368.10	42.13
368.30	42.13
368.49	11.70
368.69	51.49
368.89	56.17
369.09	0.00
369.28	4.68
369.48	0.00
369.68	0.00
369.87	175.54
370.07	32.77
370.27	112.35
370.47	180.22
370.66	411.93
370.86	447.04
371.06	376.83
371.25	528.96
371.45	463.43
371.65	440.02
371.84	454.06
372.04	454.06
372.24	475.13
372.44	458.74
372.63	514.92
372.83	496.19
373.03	486.83
373.22	535.98
373.42	599.18
373.62	463.43
373.81	568.75
374.01	559.39
374.21	533.64
374.40	594.50
374.60	653.01
374.79	554.71
374.99	643.65
375.19	606.20
375.38	559.39
375.58	641.31
375.78	580.45
375.97	580.45
376.17	613.22
376.37	589.82
376.56	540.66
376.76	624.92
376.95	629.60
377.15	662.37
377.35	631.94
377.54	697.48
377.74	667.05
377.93	622.58
378.13	636.63
378.33	706.84
378.52	634.29
378.72	596.84
378.91	688.12
379.11	650.67
379.31	603.86
379.50	692.80
379.70	645.99
379.89	662.37
380.09	727.91
380.28	608.54
380.48	720.88
380.68	683.44
380.87	779.40
381.07	667.05
381.26	702.16
381.46	641.31
381.65	734.93
381.85	755.99
382.04	734.93
382.24	688.12
382.43	702.16
382.63	667.05
382.83	770.04
383.02	685.78
383.22	734.93
383.41	706.84
383.61	699.82
383.80	732.59
384.00	709.18
384.19	765.36
384.39	781.74
384.58	821.53
384.78	793.44
384.97	816.85
385.17	753.65
385.36	805.14
385.56	805.14
385.75	861.32
385.95	791.10
386.14	833.23
386.34	816.85
386.53	849.61
386.72	823.87
386.92	870.68
387.11	903.45
387.31	884.72
387.50	812.17
387.70	896.43
387.89	856.64
388.09	968.98
388.28	887.06
388.48	873.02
388.67	1004.09
388.86	908.13
389.06	875.36
389.25	978.34
389.45	961.96
389.64	936.21
389.84	947.92
390.03	1069.62
390.22	945.58
390.42	954.94
390.61	950.26
390.81	1004.09
391.00	1001.75
391.19	1076.65
391.39	1036.86
391.58	1022.81
391.78	985.37
391.97	1078.99
392.16	1027.50
392.36	1078.99
392.55	1107.07
392.75	1032.18
392.94	1053.24
393.13	1008.77
393.33	983.02
393.52	1116.44
393.71	1074.31
393.91	1184.31
394.10	1088.35
394.29	1118.78
394.49	1081.33
394.68	1219.42
394.88	1121.12
395.07	1219.42
395.26	1186.65
395.46	1287.29
395.65	1233.46
395.84	1284.95
396.04	1224.10
396.23	1188.99
396.42	1193.67
396.62	1226.44
396.81	1093.03
397.00	1123.46
397.19	1196.01
397.39	1226.44
397.58	1369.21
397.77	1324.74
397.97	1380.92
398.16	1427.73
398.35	1437.09
398.55	1453.47
398.74	1401.98
398.93	1490.92
399.12	1465.18
399.32	1434.75
399.51	1458.15
399.70	1493.26
399.90	1584.54
400.09	1537.73
400.28	1502.62
400.47	1467.52
400.67	1549.43
400.86	1617.31
401.05	1603.27
401.24	1696.89
401.44	1666.46
401.63	1774.13
401.82	1682.85
402.01	1753.06
402.21	1619.65
402.40	1732.00
402.59	1668.80
402.78	1652.42
402.97	1832.64
403.17	1753.06
403.36	1753.06
403.55	1905.20
403.74	1825.62
403.93	1746.04
404.13	1870.09
404.32	1729.66
404.51	1799.87
404.70	1881.79
404.89	1809.23
405.09	2019.88
405.28	1923.92
405.47	1823.28
405.66	1961.37
405.85	1900.52
406.05	2003.50
406.24	2008.18
406.43	1987.11
406.62	2045.63
406.81	2040.95
407.00	2078.40
407.20	2031.58
407.39	2139.25
407.58	2188.40
407.77	2076.06
407.96	2197.76
408.15	2237.55
408.34	2202.44
408.54	2265.64
408.73	2289.04
408.92	2352.24
409.11	2293.72
409.30	2237.55
409.49	2214.15
409.68	2324.15
409.87	2172.02
410.07	2211.81
410.26	2410.75
410.45	2331.17
410.64	2349.90
410.83	2455.22
411.02	2548.84
411.21	2665.87
411.40	2525.44
411.59	2532.46
411.78	2583.95
411.98	2651.83
412.17	2616.72
412.36	2586.29
412.55	2740.77
412.74	2651.83
412.93	2757.15
413.12	2719.70
413.31	2913.97
413.50	2764.17
413.69	2904.60
413.88	2958.44
414.07	2902.26
414.26	2867.16
414.45	2937.37
414.64	3012.27
414.83	3016.95
415.02	3159.72
415.22	2988.86
415.41	3094.19
415.60	3073.12
415.79	3073.12
415.98	3166.74
416.17	3164.40
416.36	3234.62
416.55	3232.28
416.74	3265.05
416.93	3262.71
417.12	3150.36
417.31	3164.40
417.50	3353.99
417.69	3478.04
417.88	3356.33
418.07	3300.16
418.26	3513.14
418.45	3442.93
418.64	3655.92
418.83	3609.11
419.02	3592.72
419.21	3456.97
419.39	3452.29
419.58	3503.78
419.77	3559.95
419.96	3618.47
420.15	3726.13
420.34	3590.38
420.53	3585.70
420.72	3695.71
420.91	3772.94
421.10	3808.05
421.29	3772.94
421.48	3829.12
421.67	3911.04
421.86	3815.07
422.05	3824.44
422.24	3791.67
422.43	3623.15
422.61	3723.79
422.80	3712.09
422.99	3885.29
423.18	3927.42
423.37	3920.40
423.56	3904.01
423.75	3967.21
423.94	3908.69
424.13	3644.21
424.32	3674.64
424.50	3948.48
424.69	3978.91
424.88	4009.34
425.07	3845.50
425.26	3880.61
425.45	3880.61
425.64	3911.04
425.83	3990.61
426.01	4030.40
426.20	4035.08
426.39	3990.61
426.58	3904.01
426.77	4070.19
426.96	3936.78
427.15	3845.50
427.33	4109.98
427.52	3915.72
427.71	4114.66
427.90	3995.29
428.09	3985.93
428.28	4145.09
428.46	4135.73
428.65	4095.94
428.84	4142.75
429.03	4250.41
429.22	4065.51
429.40	4124.02
429.59	4124.02
429.78	4021.04
429.97	3988.27
430.16	4004.66
430.34	4229.35
430.53	4042.11
430.72	4217.65
430.91	4287.86
431.10	4290.20
431.28	4571.07
431.47	4589.79
431.66	4741.93
431.85	4458.72
432.03	4561.70
432.22	4601.49
432.41	4528.94
432.60	4645.96
432.79	4624.90
432.97	4734.90
433.16	4744.27
433.35	4554.68
433.54	4713.84
433.72	4620.22
433.91	4674.05
434.10	4681.07
434.28	4631.92
434.47	4901.08
434.66	4931.51
434.85	5050.88
435.03	4891.72
435.22	4739.58
435.41	5109.39
435.59	4975.98
435.78	5144.50
435.97	5123.43
436.16	5071.94
436.34	5240.46
436.53	5104.71
436.72	5137.48
436.90	4994.70
437.09	5130.45
437.28	5022.79
437.46	5074.28
437.65	5207.69
437.84	5432.38
438.02	5118.75
438.21	5219.39
438.40	5025.13
438.58	5289.61
438.77	5343.44
438.96	5238.12
439.14	5418.34
439.33	5544.73
439.52	5734.31
439.70	5645.37
439.89	5720.27
440.08	5507.28
440.26	5713.25
440.45	5647.71
440.63	5816.23
440.82	5991.77
441.01	5717.93
441.19	6125.18
441.38	6148.59
441.57	6078.37
441.75	5989.43
441.94	6333.49
442.12	6340.51
442.31	6480.94
442.50	6296.04
442.68	6249.23
442.87	6258.59
443.05	6251.57
443.24	6368.60
443.43	6417.75
443.61	6382.64
443.80	6513.71
443.98	6359.24
444.17	6338.17
444.35	6579.25
444.54	6590.95
444.73	6366.26
444.91	6527.75
445.10	6384.98
445.28	6370.94
445.47	6244.55
445.65	6532.44
445.84	6499.67
446.02	6609.67
446.21	6675.21
446.39	6424.77
446.58	6506.69
446.77	6810.96
446.95	6487.96
447.14	6640.10
447.32	6675.21
447.51	6651.80
447.69	6661.16
447.88	6623.72
448.06	6677.55
448.25	6857.77
448.43	6677.55
448.62	6590.95
448.80	6565.20
448.99	6665.85
449.17	6960.75
449.36	6705.63
449.54	6937.35
449.73	7091.82
449.91	7126.93
450.10	7201.83
450.28	7178.42
450.46	7148.00
450.65	7176.08
450.83	7176.08
451.02	7112.89
451.20	7248.64
451.39	7332.90
451.57	7096.50
451.76	7187.79
451.94	7204.17
452.13	7098.84
452.31	7185.44
452.49	7045.01
452.68	7087.14
452.86	7108.21
453.05	7339.92
453.23	7133.95
453.42	7148.00
453.60	7379.71
453.78	7211.19
453.97	7335.24
454.15	7208.85
454.34	7337.58
454.52	7431.20
454.70	7475.67
454.89	7538.87
455.07	7536.52
455.26	7487.37
455.44	7763.56
455.62	7651.21
455.81	7681.64
455.99	7740.15
456.17	7824.41
456.36	7829.09
456.54	7885.26
456.73	7985.91
456.91	8086.55
457.09	8009.31
457.28	8180.17
457.46	7894.63
457.64	8030.38
457.83	8100.59
458.01	7868.88
458.19	8353.37
458.38	8098.25
458.56	8212.94
458.74	8013.99
458.93	8105.28
459.11	8318.26
459.29	8243.37
459.48	8332.31
459.66	8322.94
459.84	8224.64
460.03	8535.93
460.21	8372.10
460.39	8566.36
460.57	8648.28
460.76	8505.51
460.94	8720.84
461.12	8512.53
461.31	8624.87
461.49	8554.66
461.67	8725.52
461.85	8990.00
462.04	8571.04
462.22	8917.44
462.40	8688.07
462.59	8809.78
462.77	8697.43
462.95	8830.84
463.13	8816.80
463.32	8865.95
463.50	8975.95
463.68	8975.95
463.86	8877.65
464.05	9020.42
464.23	8922.12
464.41	9053.19
464.59	8887.01
464.78	9226.39
464.96	8922.12
465.14	9231.07
465.32	9078.94
465.50	9219.37
465.69	9193.62
465.87	9394.91
466.05	9305.97
466.23	9301.29
466.41	9188.94
466.60	9210.01
466.78	9151.49
466.96	9413.63
467.14	9373.85
467.32	9364.48
467.51	9572.79
467.69	9123.41
467.87	9455.76
468.05	9437.04
468.23	9460.45
468.41	9486.19
468.60	9565.77
468.78	9844.29
468.96	9217.03
469.14	9596.20
469.32	9617.26
469.50	9355.12
469.69	9767.06
469.87	9825.57
470.05	9598.54
470.23	9647.69
470.41	9675.77
470.59	9933.23
470.77	9895.78
470.95	10157.92
471.14	10157.92
471.32	9984.73
471.50	10125.16
471.68	10211.76
471.86	10068.98
472.04	10459.85
472.22	10476.24
472.40	10139.20
472.58	10260.91
472.77	10403.68
472.95	10466.88
473.13	10644.76
473.31	10431.77
473.49	10373.25
473.67	10583.90
473.85	10775.83
474.03	10782.85
474.21	10974.77
474.39	11023.92
474.57	10839.02
474.75	11037.97
474.93	11379.68
475.12	11150.31
475.30	11171.38
475.48	11164.36
475.66	11040.31
475.84	11201.80
476.02	11499.05
476.20	11330.53
476.38	11477.99
476.56	11737.79
476.74	11768.21
476.92	11836.09
477.10	11740.13
477.28	12135.68
477.46	11875.88
477.64	12093.55
477.82	12339.30
478.00	12634.21
478.18	12358.03
478.36	12463.35
478.54	12381.43
478.72	12706.77
478.90	12908.05
479.08	13099.98
479.26	12994.65
479.44	13041.46
479.62	13219.35
479.80	13305.95
479.98	13406.59
480.16	13418.29
480.34	13322.33
480.52	13881.72
480.70	13752.99
480.88	13774.05
481.06	13757.67
481.24	14019.81
481.41	14148.54
481.59	14387.27
481.77	14373.23
481.95	14361.53
482.13	14438.76
482.31	14431.74
482.49	14761.76
482.67	14846.02
482.85	14682.18
483.03	15250.93
483.21	15370.30
483.39	15178.37
483.57	15206.46
483.74	15742.44
483.92	15674.57
484.10	15311.78
484.28	15665.21
484.46	15929.69
484.64	16049.05
484.82	15936.71
485.00	15976.50
485.18	16505.46
485.35	16229.27
485.53	16318.22
485.71	16060.76
485.89	16358.00
486.07	16334.60
486.25	16662.27
486.43	16901.01
486.61	16854.20
486.78	17114.00
486.96	17252.09
487.14	17458.06
487.32	17909.78
487.50	18052.55
487.68	18118.09
487.85	18228.09
488.03	18377.89
488.21	18539.38
488.39	18085.32
488.57	18342.78
488.75	18532.36
488.92	19042.60
489.10	19054.30
489.28	19424.11
489.46	19541.13
489.64	19386.66
489.81	19880.51
489.99	19924.98
490.17	20100.52
490.35	20533.52
490.53	19997.54
490.70	20470.33
490.88	20121.59
491.06	20636.50
491.24	20816.72
491.41	20720.76
491.59	20592.03
491.77	20629.48
491.95	20879.92
492.13	21341.00
492.30	21469.73
492.48	21390.16
492.66	21680.38
492.84	21752.94
493.01	21731.87
493.19	21930.82
493.37	22120.40
493.54	22352.12
493.72	22059.55
493.90	22717.24
494.08	22885.76
494.25	22874.06
494.43	23002.78
494.61	23311.74
494.79	23077.68
494.96	23248.54
495.14	23218.11
495.32	23534.09
495.49	23695.58
495.67	23690.90
495.85	23873.46
496.02	24023.26
496.20	24210.50
496.38	24570.94
496.55	24379.02
496.73	24854.15
496.91	24837.76
497.09	24940.75
497.26	25034.37
497.44	24706.70
497.62	24826.06
497.79	24936.07
497.97	24945.43
498.14	25462.69
498.32	25282.47
498.50	25783.34
498.67	26106.34
498.85	25893.35
499.03	25860.58
499.20	26419.97
499.38	25912.07
499.56	26541.68
499.73	26391.88
499.91	26682.11
500.08	26572.10
500.26	26431.67
500.44	26569.76
500.61	26478.48
500.79	26649.34
500.97	26801.47
501.14	26764.03
501.32	27178.30
501.49	27096.38
501.67	27278.94
501.84	27208.73
502.02	27346.82
502.20	27864.08
502.37	27775.14
502.55	27674.49
502.72	27637.05
502.90	28144.94
503.07	27950.68
503.25	27950.68
503.43	28084.09
503.60	28037.28
503.78	27906.21
503.95	28126.22
504.13	28362.61
504.30	28868.17
504.48	28421.13
504.65	29015.62
504.83	28449.21
505.01	29219.25
505.18	28814.34
505.36	29443.94
505.53	29336.27
505.71	29509.47
505.88	29855.87
506.06	29280.10
506.23	29572.67
506.41	29755.23
506.58	29921.41
506.76	29607.78
506.93	29914.39
507.11	29670.97
507.28	29876.94
507.46	29441.60
507.63	30302.92
507.81	29937.79
507.98	30118.01
508.16	30115.67
508.33	30431.65
508.50	31063.59
508.68	30679.74
508.85	31047.21
509.03	30845.92
509.20	31166.57
509.38	31115.08
509.55	31405.31
509.73	31175.94
509.90	31096.36
510.08	31185.30
510.25	31192.32
510.42	31274.24
510.60	31480.21
510.77	31498.93
510.95	31945.97
511.12	31693.19
511.30	32032.57
511.47	32149.60
511.64	32212.79
511.82	32369.61
511.99	32165.98
512.17	32163.64
512.34	32109.81
512.51	32425.78
512.69	32833.04
512.86	32556.85
513.04	32680.90
513.21	32535.79
513.38	32816.65
513.56	32818.99
513.73	32727.71
513.90	32905.59
514.08	32758.14
514.25	33263.69
514.43	33104.54
514.60	32989.85
514.77	33376.04
514.95	33481.36
515.12	32973.47
515.29	33261.35
515.47	33851.17
515.64	33593.71
515.81	33448.60
515.99	33900.32
516.16	34073.52
516.33	33741.16
516.51	33745.84
516.68	33603.07
516.85	32793.25
517.03	33455.62
517.20	33989.26
517.37	34274.80
517.54	34366.09
517.72	34176.50
517.89	33860.53
518.06	33539.88
518.24	34541.63
518.41	34405.88
518.58	34712.49
518.75	34656.31
518.93	35009.73
519.10	34871.64
519.27	35442.73
519.45	34693.76
519.62	35351.45
519.79	35288.26
519.96	35264.85
520.14	35126.76
520.31	35000.37
520.48	35414.65
520.65	35559.76
520.83	36039.57
521.00	35917.86
521.17	35683.81
521.34	35587.85
521.52	35763.39
521.69	36189.36
521.86	36137.87
522.03	36027.87
522.20	36062.97
522.38	36233.83
522.55	36395.33
522.72	36308.73
522.89	36465.55
523.07	36376.61
523.24	36416.40
523.41	36793.22
523.58	36748.75
523.75	37029.62
523.92	37123.24
524.10	37361.97
524.27	37022.59
524.44	37366.65
524.61	37383.04
524.78	37560.92
524.96	37476.66
525.13	37476.66
525.30	37504.74
525.47	37837.10
525.64	37549.21
525.81	37558.58
525.98	37331.54
526.16	37106.85
526.33	36584.91
526.50	37404.10
526.67	37256.65
526.84	37581.98
527.01	37233.24
527.18	37806.67
527.36	37727.10
527.53	38321.59
527.70	38422.23
527.87	37900.29
528.04	37675.60
528.21	38174.14
528.38	38586.07
528.55	38658.63
528.72	38653.95
528.89	39232.06
529.07	38630.54
529.24	38829.49
529.41	38923.11
529.58	38813.10
529.75	38363.72
529.92	38995.67
530.09	38948.85
530.26	38993.32
530.43	39005.03
530.60	39089.29
530.77	39091.63
530.94	39311.64
531.11	39601.86
531.28	39531.65
531.46	39157.16
531.63	39304.62
531.80	39079.92
531.97	39161.84
532.14	39035.45
532.31	39037.80
532.48	39239.08
532.65	39346.75
532.82	39667.40
532.99	39751.66
533.16	39541.01
533.33	40018.48
533.50	39847.62
533.67	40091.04
533.84	40046.57
534.01	39945.92
534.18	39758.68
534.35	40336.79
534.52	40018.48
534.69	40315.73
534.86	40259.55
535.03	40142.53
535.20	40470.20
535.37	40968.74
535.54	41134.92
535.71	40556.80
535.88	40863.41
536.05	40069.97
536.22	40774.47
536.38	41024.91
536.55	40381.26
536.72	40811.92
536.89	40486.59
537.06	40109.76
537.23	40711.28
537.40	40772.13
537.57	41172.36
537.74	40959.38
537.91	41153.64
538.08	41102.15
538.25	40996.82
538.42	40942.99
538.59	41214.49
538.75	40818.94
538.92	41127.89
539.09	41219.17
539.26	41233.22
539.43	41043.63
539.60	41429.82
539.77	40697.24
539.94	41275.35
540.11	41474.29
540.28	40985.12
540.44	41230.88
540.61	41422.80
540.78	41247.26
540.95	41738.77
541.12	41338.54
541.29	41687.28
541.46	41783.24
541.62	41823.03
541.79	41830.05
541.96	41780.90
542.13	42129.64
542.30	41881.55
542.47	41893.25
542.63	41895.59
542.80	41902.61
542.97	42082.83
543.14	42777.97
543.31	42274.76
543.48	42651.58
543.64	42642.22
543.81	42562.64
543.98	42672.65
544.15	42642.22
544.32	42761.59
544.48	43562.05
544.65	43246.08
544.82	42937.13
544.99	42752.23
545.16	42918.40
545.32	42462.00
545.49	43068.20
545.66	43185.22
545.83	43494.18
546.00	43164.16
546.16	42873.93
546.33	42665.63
546.50	42932.45
546.67	43374.81
546.83	42845.85
547.00	43007.34
547.17	43077.56
547.34	42920.74
547.50	43264.80
547.67	43665.03
547.84	43089.26
548.00	43707.16
548.17	43770.36
548.34	43065.86
548.51	43540.99
548.67	43730.57
548.84	43856.96
549.01	43489.49
549.18	43178.20
549.34	43959.94
549.51	43412.26
549.68	43648.65
549.84	43819.51
550.01	44158.89
550.18	44002.07
550.34	44098.03
550.51	43842.92
550.68	43803.13
550.84	43662.69
551.01	44065.27
551.18	43779.72
551.34	44247.83
551.51	44093.35
551.68	44261.87
551.84	44474.86
552.01	43922.49
552.18	43948.24
552.34	43863.98
552.51	43990.37
552.68	44350.81
552.84	44266.55
553.01	44456.14
553.18	44271.23
553.34	44278.25
553.51	44360.17
553.67	44353.15
553.84	44591.89
554.01	44472.52
554.17	44856.37
554.34	44758.06
554.51	44467.84
554.67	44362.51
554.84	44629.34
555.00	44580.18
555.17	44252.51
555.33	44554.44
555.50	44964.03
555.67	44746.36
555.83	44509.97
556.00	44996.80
556.16	44921.90
556.33	44514.65
556.50	44823.60
556.66	44807.22
556.83	44715.93
556.99	44552.10
557.16	45177.02
557.32	44842.32
557.49	44868.07
557.65	44793.17
557.82	44861.05
557.98	44994.46
558.15	44954.67
558.32	45312.77
558.48	45146.59
558.65	44900.84
558.81	45045.95
558.98	45052.97
559.14	44989.78
559.31	45050.63
559.47	45013.18
559.64	45563.21
559.80	45397.03
559.97	45483.63
560.13	45340.86
560.30	44877.43
560.46	45076.38
560.63	45392.35
560.79	45024.89
560.96	45612.36
561.12	45017.86
561.29	45134.89
561.45	45340.86
561.61	44947.65
561.78	45427.46
561.94	45188.72
562.11	45516.40
562.27	45291.71
562.44	45153.62
562.60	45244.90
562.77	45532.78
562.93	45120.85
563.10	45532.78
563.26	45298.73
563.42	45432.14
563.59	45654.49
563.75	45598.32
563.92	45645.13
564.08	45275.32
564.24	45837.05
564.41	45998.55
564.57	45408.73
564.74	45265.96
564.90	45638.11
565.07	45951.74
565.23	45710.66
565.39	45797.26
565.56	45418.10
565.72	45240.21
565.88	45530.44
566.05	45191.06
566.21	45551.51
566.38	45619.38
566.54	45670.87
566.70	45673.21
566.87	45867.48
567.03	45385.33
567.19	45951.74
567.36	46101.53
567.52	45752.79
567.68	45614.70
567.85	45425.12
568.01	46059.40
568.17	45645.13
568.34	45703.64
568.50	46110.89
568.66	45813.65
568.83	45684.92
568.99	45366.60
569.15	45813.65
569.32	45509.38
569.48	45563.21
569.64	45827.69
569.81	45682.58
569.97	45757.47
570.13	45427.46
570.30	44921.90
570.46	45322.13
570.62	45275.32
570.78	45485.97
570.95	45436.82
571.11	45874.50
571.27	45928.33
571.43	45867.48
571.60	45823.01
571.76	46120.26
571.92	45820.67
572.09	45614.70
572.25	45600.66
572.41	45989.19
572.57	45708.32
572.74	46330.90
572.90	46033.66
573.06	45724.71
573.22	46057.06
573.38	46026.63
573.55	45563.21
573.71	45848.75
573.87	46129.62
574.03	45982.16
574.20	46078.13
574.36	46115.58
574.52	45588.95
574.68	45977.48
574.84	45507.04
575.01	45961.10
575.17	46038.34
575.33	45673.21
575.49	45619.38
575.65	46089.83
575.82	46066.42
575.98	45663.85
576.14	46188.13
576.30	46415.16
576.46	45705.98
576.62	45556.19
576.79	46124.94
576.95	46202.18
577.11	46466.66
577.27	46066.42
577.43	45689.60
577.59	45525.76
577.75	45794.92
577.92	45752.79
578.08	45560.87
578.24	45801.94
578.40	45787.90
578.56	45605.34
578.72	45972.80
578.88	46344.95
579.04	46204.52
579.21	46274.73
579.37	45942.38
579.53	45820.67
579.69	45881.52
579.85	45900.25
580.01	46134.30
580.17	46220.90
580.33	46518.15
580.49	45965.78
580.65	45902.59
580.82	45853.44
580.98	45567.89
581.14	45633.42
581.30	45806.62
581.46	46031.32
581.62	45858.12
581.78	46190.47
581.94	46450.27
582.10	45818.33
582.26	46108.55
582.42	45909.61
582.58	46017.27
582.74	46085.15
582.90	46415.16
583.06	46768.58
583.22	46192.81
583.38	46351.97
583.54	46492.40
583.70	46333.24
583.86	46246.65
584.02	46019.61
584.18	45975.14
584.34	46209.20
584.50	46068.76
584.66	46096.85
584.82	45958.76
584.98	46305.16
585.14	46476.02
585.30	45890.88
585.46	46401.12
585.62	46239.62
585.78	45918.97
585.94	45902.59
586.10	45958.76
586.26	45539.80
586.42	46298.14
586.58	45984.51
586.74	46017.27
586.90	46080.47
587.06	46363.67
587.22	46340.27
587.38	45993.87
587.54	46492.40
587.70	46122.60
587.86	46192.81
588.02	45954.08
588.18	46520.49
588.34	45787.90
588.49	45549.17
588.65	45614.70
588.81	45773.86
588.97	45610.02
589.13	45729.39
589.29	46174.09
589.45	45982.16
589.61	45956.42
589.77	46263.03
589.93	46263.03
590.08	46408.14
