SpectraSuite Data File
++++++++++++++++++++++++++++++++++++
Date: Fri Oct 25 10:43:17 EDT 2013
User: price-jones
Dark Spectrum Present: No
Reference Spectrum Present: No
Number of Sampled Component Spectra: 1
Spectrometers: USB2+H05261
Integration Time (usec): 100000 (USB2+H05261)
Spectra Averaged: 1 (USB2+H05261)
Boxcar Smoothing: 0 (USB2+H05261)
Correct for Electrical Dark: No (USB2+H05261)
Strobe/Lamp Enabled: No (USB2+H05261)
Correct for Detector Non-linearity: No (USB2+H05261)
Correct for Stray Light: No (USB2+H05261)
Number of Pixels in Processed Spectrum: 2048
>>>>>Begin Processed Spectral Data<<<<<
365.73	166.18
365.92	166.18
366.12	166.18
366.32	21.06
366.52	0.00
366.72	0.00
366.91	4.68
367.11	79.58
367.31	18.72
367.51	0.00
367.70	18.72
367.90	11.70
368.10	16.38
368.30	4.68
368.49	0.00
368.69	81.92
368.89	67.88
369.09	0.00
369.28	21.06
369.48	7.02
369.68	119.37
369.87	74.90
370.07	126.39
370.27	131.07
370.47	182.56
370.66	365.12
370.86	414.27
371.06	521.94
371.25	470.45
371.45	521.94
371.65	484.49
371.84	444.70
372.04	517.26
372.24	433.00
372.44	557.05
372.63	507.90
372.83	585.13
373.03	486.83
373.22	521.94
373.42	470.45
373.62	559.39
373.81	512.58
374.01	533.64
374.21	580.45
374.40	533.64
374.60	622.58
374.79	566.41
374.99	566.41
375.19	510.24
375.38	624.92
375.58	592.16
375.78	580.45
375.97	631.94
376.17	678.76
376.37	566.41
376.56	678.76
376.76	599.18
376.95	631.94
377.15	585.13
377.35	566.41
377.54	601.52
377.74	587.47
377.93	706.84
378.13	641.31
378.33	667.05
378.52	685.78
378.72	730.25
378.91	704.50
379.11	585.13
379.31	674.07
379.50	702.16
379.70	702.16
379.89	709.18
380.09	662.37
380.28	753.65
380.48	690.46
380.68	760.67
380.87	690.46
381.07	608.54
381.26	650.67
381.46	744.29
381.65	697.48
381.85	683.44
382.04	557.05
382.24	695.14
382.43	662.37
382.63	636.63
382.83	657.69
383.02	737.27
383.22	758.33
383.41	711.52
383.61	734.93
383.80	798.12
384.00	706.84
384.19	732.59
384.39	863.66
384.58	842.59
384.78	849.61
384.97	887.06
385.17	741.95
385.36	826.21
385.56	854.30
385.75	765.36
385.95	835.57
386.14	809.83
386.34	842.59
386.53	807.48
386.72	781.74
386.92	919.83
387.11	861.32
387.31	844.93
387.50	877.70
387.70	833.23
387.89	849.61
388.09	940.90
388.28	1004.09
388.48	971.32
388.67	931.53
388.86	936.21
389.06	945.58
389.25	945.58
389.45	912.81
389.64	851.96
389.84	992.39
390.03	1001.75
390.22	950.26
390.42	1074.31
390.61	929.19
390.81	1022.81
391.00	999.41
391.19	1076.65
391.39	929.19
391.58	1011.11
391.78	994.73
391.97	1032.18
392.16	1050.90
392.36	1069.62
392.55	994.73
392.75	957.28
392.94	917.49
393.13	983.02
393.33	1081.33
393.52	1034.52
393.71	1055.58
393.91	1041.54
394.10	1132.82
394.29	1193.67
394.49	1135.16
394.68	1252.19
394.88	1210.06
395.07	1163.25
395.26	1219.42
395.46	1179.63
395.65	1174.95
395.84	1207.72
396.04	1160.91
396.23	1207.72
396.42	1172.61
396.62	1247.51
396.81	1224.10
397.00	1249.85
397.19	1296.66
397.39	1268.57
397.58	1404.32
397.77	1460.49
397.97	1359.85
398.16	1423.05
398.35	1441.77
398.55	1542.41
398.74	1617.31
398.93	1544.75
399.12	1474.54
399.32	1540.07
399.51	1497.94
399.70	1544.75
399.90	1568.16
400.09	1612.63
400.28	1521.35
400.47	1582.20
400.67	1643.06
400.86	1657.10
401.05	1661.78
401.24	1717.95
401.44	1624.33
401.63	1640.72
401.82	1621.99
402.01	1746.04
402.21	1671.14
402.40	1799.87
402.59	1734.34
402.78	1797.53
402.97	1671.14
403.17	1879.45
403.36	1724.97
403.55	1736.68
403.74	1863.07
403.93	1954.35
404.13	1898.17
404.32	1860.73
404.51	1930.94
404.70	1900.52
404.89	1860.73
405.09	2059.67
405.28	2012.86
405.47	2083.08
405.66	1853.70
405.85	1928.60
406.05	1895.83
406.24	2038.61
406.43	1973.07
406.62	2101.80
406.81	2059.67
407.00	1973.07
407.20	2050.31
407.39	2047.97
407.58	2132.23
407.77	2190.74
407.96	2267.98
408.15	2190.74
408.34	2141.59
408.54	2333.51
408.73	2223.51
408.92	2279.68
409.11	2342.88
409.30	2375.64
409.49	2277.34
409.68	2249.25
409.87	2312.45
410.07	2347.56
410.26	2312.45
410.45	2342.88
410.64	2424.80
410.83	2452.88
411.02	2513.74
411.21	2471.61
411.40	2607.36
411.59	2548.84
411.78	2579.27
411.98	2548.84
412.17	2546.50
412.36	2846.09
412.55	2712.68
412.74	2722.04
412.93	2789.92
413.12	2649.49
413.31	2801.62
413.50	2801.62
413.69	2836.73
413.88	2906.95
414.07	2928.01
414.26	2846.09
414.45	2937.37
414.64	2867.16
414.83	2991.20
415.02	3124.62
415.22	2958.44
415.41	3173.77
415.60	3141.00
415.79	3080.14
415.98	3253.34
416.17	3318.88
416.36	3279.09
416.55	3356.33
416.74	3213.56
416.93	3143.34
417.12	3407.82
417.31	3251.00
417.50	3363.35
417.69	3463.99
417.88	3370.37
418.07	3463.99
418.26	3468.67
418.45	3487.40
418.64	3529.53
418.83	3552.93
419.02	3515.48
419.21	3618.47
419.39	3538.89
419.58	3421.86
419.77	3581.02
419.96	3524.85
420.15	3770.60
420.34	3691.02
420.53	3728.47
420.72	3756.56
420.91	3871.25
421.10	3721.45
421.29	3794.01
421.48	3861.88
421.67	3922.74
421.86	3815.07
422.05	3756.56
422.24	3616.13
422.43	3794.01
422.61	3796.35
422.80	3939.12
422.99	3838.48
423.18	4025.72
423.37	4086.58
423.56	3927.42
423.75	3873.59
423.94	3864.22
424.13	3672.30
424.32	3784.65
424.50	3906.35
424.69	3939.12
424.88	4049.13
425.07	3873.59
425.26	3686.34
425.45	3674.64
425.64	3967.21
425.83	3992.95
426.01	3911.04
426.20	4053.81
426.39	3913.38
426.58	3896.99
426.77	3861.88
426.96	3911.04
427.15	3957.85
427.33	3957.85
427.52	3946.14
427.71	4049.13
427.90	4100.62
428.09	4311.27
428.28	4093.60
428.46	4084.23
428.65	4131.05
428.84	4269.14
429.03	4210.62
429.22	4163.81
429.40	4009.34
429.59	4063.17
429.78	4032.74
429.97	3950.82
430.16	4058.49
430.34	4007.00
430.53	4163.81
430.72	4009.34
430.91	4065.51
431.10	4301.90
431.28	4489.15
431.47	4528.94
431.66	4624.90
431.85	4650.64
432.03	4667.03
432.22	4788.74
432.41	4435.32
432.60	4692.77
432.79	4781.71
432.97	4755.97
433.16	4870.65
433.35	4657.67
433.54	4528.94
433.72	4601.49
433.91	4542.98
434.10	4788.74
434.28	4697.46
434.47	4830.87
434.66	4863.63
434.85	4968.96
435.03	4997.04
435.22	4840.23
435.41	4919.81
435.59	5011.09
435.78	5226.42
435.97	5193.65
436.16	5121.09
436.34	5100.03
436.53	5074.28
436.72	5287.27
436.90	5043.85
437.09	5123.43
437.28	4950.23
437.46	4929.17
437.65	5001.72
437.84	5142.16
438.02	5090.67
438.21	5085.98
438.40	5102.37
438.58	5401.96
438.77	5324.72
438.96	5394.93
439.14	5521.32
439.33	5645.37
439.52	5664.10
439.70	5530.69
439.89	5572.82
440.08	5671.12
440.26	5701.54
440.45	5631.33
440.63	5830.27
440.82	5849.00
441.01	5989.43
441.19	5898.15
441.38	5973.05
441.57	6026.88
441.75	6097.10
441.94	6141.57
442.12	6279.66
442.31	6218.80
442.50	6251.57
442.68	6354.55
442.87	6384.98
443.05	6314.77
443.24	6450.52
443.43	6401.37
443.61	6307.74
443.80	6492.65
443.98	6164.97
444.17	6239.87
444.35	6424.77
444.54	6548.82
444.73	6675.21
444.91	6478.60
445.10	6345.19
445.28	6455.20
445.47	6284.34
445.65	6307.74
445.84	6485.62
446.02	6511.37
446.21	6565.20
446.39	6588.61
446.58	6576.91
446.77	6675.21
446.95	6562.86
447.14	6644.78
447.32	6656.48
447.51	6604.99
447.69	6490.31
447.88	6623.72
448.06	6661.16
448.25	6665.85
448.43	6691.59
448.62	6668.19
448.80	6799.26
448.99	6808.62
449.17	6857.77
449.36	6670.53
449.54	6993.52
449.73	6988.84
449.91	7187.79
450.10	7178.42
450.28	7318.86
450.46	7250.98
450.65	7250.98
450.83	7150.34
451.02	7094.16
451.20	7119.91
451.39	7426.52
451.57	7215.87
451.76	7145.66
451.94	7194.81
452.13	7138.63
452.31	7232.26
452.49	7045.01
452.68	7183.10
452.86	7236.94
453.05	7321.20
453.23	7307.15
453.42	7260.34
453.60	7309.49
453.78	7368.01
453.97	7232.26
454.15	7288.43
454.34	7288.43
454.52	7606.74
454.70	7449.93
454.89	7529.50
455.07	7571.63
455.26	7503.76
455.44	7763.56
455.62	7751.85
455.81	7747.17
455.99	7744.83
456.17	7852.50
456.36	7831.43
456.54	7997.61
456.73	7969.52
456.91	8056.12
457.09	8131.02
457.28	8177.83
457.46	8046.76
457.64	8021.02
457.83	8105.28
458.01	7946.12
458.19	8128.68
458.38	8156.77
458.56	8215.28
458.74	8077.19
458.93	8245.71
459.11	8332.31
459.29	8126.34
459.48	8229.32
459.66	8173.15
459.84	8397.84
460.03	8397.84
460.21	8423.59
460.39	8407.20
460.57	8479.76
460.76	8390.82
460.94	8442.31
461.12	8580.40
461.31	8662.32
461.49	8596.79
461.67	8559.34
461.85	8769.99
462.04	8659.98
462.22	9284.91
462.40	8936.17
462.59	8786.37
462.77	8826.16
462.95	8748.92
463.13	8777.01
463.32	9039.15
463.50	8926.80
463.68	8835.52
463.86	9008.72
464.05	8800.41
464.23	8931.48
464.41	9151.49
464.59	8896.38
464.78	9011.06
464.96	8889.35
465.14	9008.72
465.32	9186.60
465.50	9289.59
465.69	9355.12
465.87	9228.73
466.05	9207.67
466.23	9184.26
466.41	9217.03
466.60	9383.21
466.78	9228.73
466.96	9399.59
467.14	9270.86
467.32	9247.46
467.51	9460.45
467.69	9001.70
467.87	9364.48
468.05	9160.86
468.23	9451.08
468.41	9390.23
468.60	9383.21
468.78	9212.35
468.96	9516.62
469.14	9547.05
469.32	9884.08
469.50	9387.89
469.69	9706.20
469.87	9692.16
470.05	9745.99
470.23	9790.46
470.41	10118.14
470.59	9715.56
470.77	9596.20
470.95	9774.08
471.14	10015.15
471.32	9781.10
471.50	10202.40
471.68	10221.12
471.86	10296.02
472.04	10239.84
472.22	10338.15
472.40	10345.17
472.58	10363.89
472.77	10359.21
472.95	10368.57
473.13	10834.34
473.31	10413.04
473.49	10574.54
473.67	10499.64
473.85	10342.83
474.03	10736.04
474.21	10733.70
474.39	11117.54
474.57	10860.09
474.75	11094.14
474.93	11122.23
475.12	11274.36
475.30	11337.56
475.48	11157.33
475.66	11215.85
475.84	11190.10
476.02	11199.46
476.20	11477.99
476.38	11447.56
476.56	11910.99
476.74	11857.15
476.92	11686.29
477.10	11885.24
477.28	12063.12
477.46	12140.36
477.64	12177.81
477.82	12219.94
478.00	12507.82
478.18	12482.08
478.36	12400.16
478.54	12461.01
478.72	12634.21
478.90	12849.54
479.08	12940.82
479.26	13165.51
479.44	13200.62
479.62	13104.66
479.80	13231.05
479.98	13397.23
480.16	13755.33
480.34	13364.46
480.52	13610.22
480.70	13575.11
480.88	13432.33
481.06	13694.47
481.24	13774.05
481.41	14104.07
481.59	14333.44
481.77	14249.18
481.95	14277.27
482.13	14406.00
482.31	14394.29
482.49	14761.76
482.67	15056.67
482.85	14911.55
483.03	15094.11
483.21	15192.42
483.39	15332.85
483.57	15194.76
483.74	15393.70
483.92	15688.61
484.10	15484.98
484.28	15719.04
484.46	16016.29
484.64	16264.38
484.82	15882.88
485.00	16030.33
485.18	16311.19
485.35	16257.36
485.53	16198.85
485.71	16119.27
485.89	16243.32
486.07	16250.34
486.25	16585.04
486.43	16716.11
486.61	17193.58
486.78	17174.85
486.96	17170.17
487.14	17479.12
487.32	17816.16
487.50	18104.04
487.68	17975.31
487.85	18366.18
488.03	18398.95
488.21	18459.81
488.39	18518.32
488.57	18363.84
488.75	18733.65
488.92	18876.42
489.10	19082.39
489.28	19227.50
489.46	19693.27
489.64	19550.49
489.81	20182.44
489.99	20037.33
490.17	20437.56
490.35	20287.76
490.53	20039.67
490.70	20369.68
490.88	20453.94
491.06	20727.78
491.24	20643.52
491.41	20428.20
491.59	20781.62
491.77	20463.30
491.95	20793.32
492.13	21209.93
492.30	21362.07
492.48	21570.38
492.66	21603.14
492.84	21795.07
493.01	22256.15
493.19	21886.35
493.37	22099.34
493.54	22176.58
493.72	22434.03
493.90	22665.75
494.08	23047.26
494.25	22984.06
494.43	23229.82
494.61	23108.11
494.79	23339.82
494.96	23452.17
495.14	23281.31
495.32	23323.44
495.49	23571.54
495.67	23697.92
495.85	23721.33
496.02	24105.18
496.20	24056.03
496.38	24013.90
496.55	24259.65
496.73	24929.05
496.91	24521.79
497.09	24858.83
497.26	25006.28
497.44	25102.25
497.62	25219.27
497.79	25558.65
497.97	24915.00
498.14	24950.11
498.32	25205.23
498.50	25315.23
498.67	25458.01
498.85	25905.05
499.03	25874.62
499.20	26052.50
499.38	26066.55
499.56	26469.12
499.73	26345.07
499.91	26333.37
500.08	26356.77
500.26	26384.86
500.44	26469.12
500.61	26469.12
500.79	26305.28
500.97	26672.74
501.14	26838.92
501.32	27175.96
501.49	26967.65
501.67	27026.17
501.84	27281.28
502.02	27473.21
502.20	27442.78
502.37	27566.83
502.55	27751.73
502.72	27608.96
502.90	27733.01
503.07	27641.73
503.25	27646.41
503.43	27725.99
503.60	27936.63
503.78	27508.32
503.95	28004.51
504.13	28027.92
504.30	28327.50
504.48	28758.16
504.65	28634.11
504.83	28863.49
505.01	29032.00
505.18	28833.06
505.36	29329.25
505.53	28980.51
505.71	29287.12
505.88	29626.50
506.06	29312.87
506.23	29500.11
506.41	29406.49
506.58	29720.12
506.76	29567.99
506.93	30085.25
507.11	29511.81
507.28	30232.70
507.46	29759.91
507.63	29902.68
507.81	29991.62
507.98	29923.75
508.16	30471.43
508.33	30242.06
508.50	30553.35
508.68	30541.65
508.85	31047.21
509.03	30394.20
509.20	31000.40
509.38	31056.57
509.55	31082.31
509.73	30752.30
509.90	31000.40
510.08	31192.32
510.25	30829.54
510.42	31208.70
510.60	31880.44
510.77	31817.24
510.95	31941.29
511.12	31508.29
511.30	32086.40
511.47	32280.67
511.64	32151.94
511.82	32404.72
511.99	31828.95
512.17	32041.93
512.34	32105.13
512.51	32250.24
512.69	32664.52
512.86	32636.43
513.04	32858.78
513.21	32409.40
513.38	32535.79
513.56	32690.26
513.73	32938.36
513.90	32758.14
514.08	32982.83
514.25	32858.78
514.43	33153.69
514.60	33020.28
514.77	33280.08
514.95	33497.75
515.12	33127.94
515.29	33326.89
515.47	33462.64
515.64	33919.04
515.81	33596.05
515.99	33099.86
516.16	33315.19
516.33	33345.61
516.51	33551.58
516.68	33090.49
516.85	32966.45
517.03	32943.04
517.20	33591.37
517.37	33954.15
517.54	34452.69
517.72	34022.03
517.89	33649.88
518.06	33743.50
518.24	34007.98
518.41	34078.20
518.58	33907.34
518.75	34316.93
518.93	34541.63
519.10	34307.57
519.27	34822.49
519.45	34965.26
519.62	34986.33
519.79	35370.18
519.96	35360.81
520.14	35215.70
520.31	35070.59
520.48	35079.95
520.65	35215.70
520.83	35913.18
521.00	35381.88
521.17	35793.81
521.34	35714.23
521.52	35873.39
521.69	35686.15
521.86	36339.16
522.03	35992.76
522.20	36020.84
522.38	36088.72
522.55	36030.21
522.72	36163.62
522.89	36189.36
523.07	36589.59
523.24	36474.91
523.41	36739.39
523.58	36519.38
523.75	37296.44
523.92	36833.01
524.10	36790.88
524.27	37270.69
524.44	37289.42
524.61	37282.39
524.78	37249.63
524.96	37537.51
525.13	37357.29
525.30	37799.65
525.47	37331.54
525.64	37310.48
525.81	37228.56
525.98	37380.70
526.16	37209.84
526.33	36849.39
526.50	37195.79
526.67	36896.20
526.84	36933.65
527.01	37163.03
527.18	37551.56
527.36	37670.92
527.53	37993.92
527.70	38410.53
527.87	37897.95
528.04	37965.83
528.21	38192.86
528.38	38132.01
528.55	38686.71
528.72	38775.66
528.89	38616.50
529.07	38597.77
529.24	38066.47
529.41	38717.14
529.58	38487.77
529.75	38707.78
529.92	38665.65
530.09	38595.43
530.26	39332.70
530.43	39119.71
530.60	38677.35
530.77	38852.89
530.94	39316.32
531.11	38913.75
531.28	39220.36
531.46	39138.44
531.63	39117.37
531.80	39651.02
531.97	39225.04
532.14	39075.24
532.31	38841.19
532.48	39337.38
532.65	39166.52
532.82	38981.62
532.99	39683.78
533.16	39658.04
533.33	39840.60
533.50	39746.98
533.67	39538.67
533.84	39742.30
534.01	39618.25
534.18	39517.60
534.35	40350.84
534.52	39910.82
534.69	40086.36
534.86	40407.01
535.03	40292.32
535.20	40659.79
535.37	40648.08
535.54	40538.08
535.71	40268.92
535.88	40751.07
536.05	40268.92
536.22	40634.04
536.38	40556.80
536.55	40720.64
536.72	40165.93
536.89	40275.94
537.06	40343.81
537.23	41165.34
537.40	40638.72
537.57	40634.04
537.74	40620.00
537.91	41380.67
538.08	41375.99
538.25	41090.44
538.42	40725.32
538.59	41329.18
538.75	40715.96
538.92	41001.50
539.09	40996.82
539.26	41041.29
539.43	41177.04
539.60	40842.35
539.77	41078.74
539.94	40966.40
540.11	41378.33
540.28	41385.35
540.44	41209.81
540.61	41240.24
540.78	40947.67
540.95	41647.49
541.12	41352.58
541.29	41469.61
541.46	41258.96
541.62	41495.36
541.79	41532.81
541.96	41420.46
542.13	41832.39
542.30	41818.35
542.47	41366.63
542.63	41638.13
542.80	41940.06
542.97	42148.37
543.14	42293.48
543.31	41909.63
543.48	42167.09
543.64	42728.82
543.81	42672.65
543.98	42857.55
544.15	42433.91
544.32	42848.19
544.48	42948.83
544.65	42370.72
544.82	42614.13
544.99	42618.81
545.16	42588.39
545.32	42410.51
545.49	43173.52
545.66	43255.44
545.83	42759.25
546.00	42749.88
546.16	43115.01
546.33	42902.02
546.50	42548.60
546.67	42824.78
546.83	42314.55
547.00	43154.80
547.17	42600.09
547.34	42789.67
547.50	42974.58
547.67	43304.59
547.84	43023.73
548.00	43873.34
548.17	43749.29
548.34	43278.85
548.51	43735.25
548.67	43540.99
548.84	43669.72
549.01	43412.26
549.18	43564.39
549.34	43182.88
549.51	43288.21
549.68	43817.17
549.84	43248.42
550.01	43435.66
550.18	43072.88
550.34	43503.54
550.51	43835.89
550.68	43407.58
550.84	43243.74
551.01	43707.16
551.18	43871.00
551.34	43782.06
551.51	43997.39
551.68	43849.94
551.84	44032.50
552.01	43871.00
552.18	43658.01
552.34	43548.01
552.51	44364.85
552.68	43871.00
552.84	44521.67
553.01	44069.95
553.18	44072.29
553.34	44224.42
553.51	43964.62
553.67	43901.43
553.84	44287.62
554.01	44521.67
554.17	44446.77
554.34	44453.79
554.51	44720.62
554.67	44626.99
554.84	44278.25
555.00	44524.01
555.17	44273.57
555.33	44659.76
555.50	44790.83
555.67	44619.97
555.83	44259.53
556.00	44615.29
556.16	45048.29
556.33	44533.37
556.50	44961.69
556.66	44795.51
556.83	44098.03
556.99	44439.75
557.16	44912.54
557.32	44617.63
557.49	44519.33
557.65	44914.88
557.82	44519.33
557.98	44596.57
558.15	44875.09
558.32	45120.85
558.48	44219.74
558.65	44587.21
558.81	44891.48
558.98	44769.77
559.14	44648.06
559.31	44224.42
559.47	44605.93
559.64	45083.40
559.80	45488.31
559.97	44996.80
560.13	44472.52
560.30	44830.62
560.46	45165.32
560.63	44959.35
560.79	44987.44
560.96	45418.10
561.12	45118.51
561.29	44346.13
561.45	44994.46
561.61	44891.48
561.78	44987.44
561.94	45148.93
562.11	45036.59
562.27	45024.89
562.44	45181.70
562.60	44708.91
562.77	45584.27
562.93	45310.43
563.10	45647.47
563.26	45123.19
563.42	45577.25
563.59	45485.97
563.75	44928.92
563.92	45282.34
564.08	45141.91
564.24	45591.30
564.41	45408.73
564.57	44975.73
564.74	45310.43
564.90	45394.69
565.07	45808.96
565.23	45340.86
565.39	45146.59
565.56	45151.27
565.72	44825.94
565.88	45345.54
566.05	45050.63
566.21	44957.01
566.38	45069.36
566.54	45074.04
566.70	45551.51
566.87	45394.69
567.03	45635.77
567.19	45944.72
567.36	45783.22
567.52	45605.34
567.68	45303.41
567.85	45207.45
568.01	45879.18
568.17	45521.08
568.34	45720.02
568.50	45457.88
568.66	45408.73
568.83	46005.57
568.99	45495.33
569.15	45785.56
569.32	45394.69
569.48	45296.39
569.64	45617.04
569.81	45478.95
569.97	45722.37
570.13	45904.93
570.30	45120.85
570.46	45125.53
570.62	45017.86
570.78	45165.32
570.95	45041.27
571.11	45572.57
571.27	45153.62
571.43	45406.39
571.60	45940.04
571.76	45155.96
571.92	45734.07
572.09	45450.86
572.25	45476.61
572.41	45839.39
572.57	45984.51
572.74	45958.76
572.90	45631.08
573.06	45610.02
573.22	45818.33
573.38	45567.89
573.55	45233.19
573.71	46333.24
573.87	46209.20
574.03	45455.54
574.20	45764.49
574.36	45560.87
574.52	45771.52
574.68	45305.75
574.84	45661.51
575.01	45848.75
575.17	45762.15
575.33	45500.01
575.49	45102.12
575.65	46068.76
575.82	45860.46
575.98	45879.18
576.14	45808.96
576.30	45993.87
576.46	45560.87
576.62	45516.40
576.79	45806.62
576.95	45998.55
577.11	45879.18
577.27	46000.89
577.43	45710.66
577.59	45427.46
577.75	46068.76
577.92	45507.04
578.08	45390.01
578.24	45319.79
578.40	45352.56
578.56	45390.01
578.72	46021.95
578.88	45731.73
579.04	45617.04
579.21	45392.35
579.37	45647.47
579.53	45492.99
579.69	45605.34
579.85	45670.87
580.01	45652.15
580.17	45687.26
580.33	45876.84
580.49	45902.59
580.65	46012.59
580.82	45853.44
580.98	45485.97
581.14	45617.04
581.30	45883.86
581.46	45909.61
581.62	45668.53
581.78	45783.22
581.94	46120.26
582.10	45820.67
582.26	45951.74
582.42	45844.07
582.58	45539.80
582.74	45825.35
582.90	45933.01
583.06	46141.32
583.22	46103.87
583.38	45907.27
583.54	46047.70
583.70	45755.13
583.86	46340.27
584.02	45633.42
584.18	46066.42
584.34	45572.57
584.50	46155.36
584.66	46010.25
584.82	45918.97
584.98	46192.81
585.14	46328.56
585.30	45677.90
585.46	45687.26
585.62	45633.42
585.78	45876.84
585.94	45626.40
586.10	45911.95
586.26	45420.44
586.42	45764.49
586.58	45991.53
586.74	45930.67
586.90	45607.68
587.06	45549.17
587.22	45551.51
587.38	45801.94
587.54	46000.89
587.70	45923.65
587.86	45989.19
588.02	45984.51
588.18	46085.15
588.34	45823.01
588.49	45492.99
588.65	45390.01
588.81	45668.53
588.97	45532.78
589.13	45322.13
589.29	45284.68
589.45	45860.46
589.61	45607.68
589.77	46085.15
589.93	46040.68
590.08	45874.50
