SpectraSuite Data File
++++++++++++++++++++++++++++++++++++
Date: Fri Oct 25 10:47:22 EDT 2013
User: price-jones
Dark Spectrum Present: No
Reference Spectrum Present: No
Number of Sampled Component Spectra: 1
Spectrometers: USB2+H05261
Integration Time (usec): 100000 (USB2+H05261)
Spectra Averaged: 1 (USB2+H05261)
Boxcar Smoothing: 0 (USB2+H05261)
Correct for Electrical Dark: No (USB2+H05261)
Strobe/Lamp Enabled: No (USB2+H05261)
Correct for Detector Non-linearity: No (USB2+H05261)
Correct for Stray Light: No (USB2+H05261)
Number of Pixels in Processed Spectrum: 2048
>>>>>Begin Processed Spectral Data<<<<<
365.73	156.82
365.92	156.82
366.12	156.82
366.32	79.58
366.52	42.13
366.72	128.73
366.91	37.45
367.11	46.81
367.31	0.00
367.51	51.49
367.70	72.56
367.90	126.39
368.10	37.45
368.30	49.15
368.49	117.03
368.69	72.56
368.89	28.09
369.09	9.36
369.28	74.90
369.48	9.36
369.68	91.28
369.87	102.98
370.07	100.64
370.27	191.92
370.47	126.39
370.66	397.89
370.86	421.30
371.06	416.62
371.25	489.17
371.45	456.40
371.65	395.55
371.84	421.30
372.04	447.04
372.24	365.12
372.44	458.74
372.63	437.68
372.83	491.51
373.03	416.62
373.22	414.27
373.42	580.45
373.62	484.49
373.81	514.92
374.01	545.34
374.21	512.58
374.40	645.99
374.60	526.62
374.79	528.96
374.99	510.24
375.19	554.71
375.38	622.58
375.58	592.16
375.78	554.71
375.97	592.16
376.17	608.54
376.37	617.90
376.56	592.16
376.76	531.30
376.95	538.32
377.15	545.34
377.35	603.86
377.54	538.32
377.74	531.30
377.93	622.58
378.13	627.26
378.33	725.57
378.52	622.58
378.72	674.07
378.91	706.84
379.11	643.65
379.31	641.31
379.50	620.24
379.70	643.65
379.89	674.07
380.09	606.20
380.28	657.69
380.48	695.14
380.68	720.88
380.87	641.31
381.07	713.86
381.26	739.61
381.46	753.65
381.65	669.39
381.85	645.99
382.04	716.20
382.24	671.73
382.43	645.99
382.63	650.67
382.83	697.48
383.02	732.59
383.22	718.54
383.41	692.80
383.61	734.93
383.80	809.83
384.00	739.61
384.19	720.88
384.39	779.40
384.58	807.48
384.78	730.25
384.97	737.27
385.17	774.72
385.36	863.66
385.56	770.04
385.75	753.65
385.95	770.04
386.14	821.53
386.34	800.46
386.53	774.72
386.72	751.31
386.92	828.55
387.11	791.10
387.31	805.14
387.50	819.19
387.70	849.61
387.89	849.61
388.09	863.66
388.28	849.61
388.48	816.85
388.67	826.21
388.86	870.68
389.06	828.55
389.25	898.77
389.45	912.81
389.64	901.11
389.84	882.38
390.03	936.21
390.22	950.26
390.42	861.32
390.61	807.48
390.81	915.15
391.00	915.15
391.19	912.81
391.39	924.51
391.58	926.85
391.78	1048.56
391.97	1036.86
392.16	1008.77
392.36	1015.79
392.55	912.81
392.75	910.47
392.94	1029.84
393.13	926.85
393.33	915.15
393.52	999.41
393.71	976.00
393.91	980.68
394.10	954.94
394.29	1100.05
394.49	1132.82
394.68	1153.88
394.88	1093.03
395.07	1191.33
395.26	1146.86
395.46	1107.07
395.65	1114.10
395.84	1102.39
396.04	1027.50
396.23	1107.07
396.42	1076.65
396.62	1158.57
396.81	1107.07
397.00	1128.14
397.19	1156.22
397.39	1224.10
397.58	1329.42
397.77	1228.78
397.97	1249.85
398.16	1277.93
398.35	1357.51
398.55	1336.45
398.74	1343.47
398.93	1352.83
399.12	1275.59
399.32	1343.47
399.51	1394.96
399.70	1364.53
399.90	1364.53
400.09	1425.39
400.28	1572.84
400.47	1413.68
400.67	1448.79
400.86	1437.09
401.05	1467.52
401.24	1479.22
401.44	1404.32
401.63	1528.37
401.82	1544.75
402.01	1425.39
402.21	1549.43
402.40	1526.03
402.59	1554.12
402.78	1558.80
402.97	1528.37
403.17	1504.96
403.36	1488.58
403.55	1619.65
403.74	1636.03
403.93	1708.59
404.13	1724.97
404.32	1549.43
404.51	1675.82
404.70	1816.26
404.89	1638.38
405.09	1708.59
405.28	1682.85
405.47	1661.78
405.66	1764.76
405.85	1748.38
406.05	1741.36
406.24	1811.57
406.43	1802.21
406.62	1987.11
406.81	1907.54
407.00	1846.68
407.20	1863.07
407.39	1846.68
407.58	2031.58
407.77	1907.54
407.96	1930.94
408.15	1930.94
408.34	1966.05
408.54	2139.25
408.73	2043.29
408.92	2064.35
409.11	2094.78
409.30	2087.76
409.49	2054.99
409.68	2059.67
409.87	2071.37
410.07	2176.70
410.26	2083.08
410.45	2232.87
410.64	2122.87
410.83	2246.91
411.02	2263.30
411.21	2310.11
411.40	2202.44
411.59	2324.15
411.78	2363.94
411.98	2403.73
412.17	2356.92
412.36	2455.22
412.55	2354.58
412.74	2452.88
412.93	2385.01
413.12	2347.56
413.31	2555.86
413.50	2558.21
413.69	2562.89
413.88	2551.18
414.07	2576.93
414.26	2576.93
414.45	2544.16
414.64	2658.85
414.83	2710.34
415.02	2635.44
415.22	2794.60
415.41	2768.85
415.60	2785.24
415.79	2806.30
415.98	2974.82
416.17	3014.61
416.36	2839.07
416.55	2860.13
416.74	3012.27
416.93	2920.99
417.12	2960.78
417.31	2970.14
417.50	2841.41
417.69	2949.08
417.88	3084.83
418.07	3166.74
418.26	3241.64
418.45	3141.00
418.64	3197.17
418.83	3103.55
419.02	3138.66
419.21	3253.34
419.39	3201.85
419.58	3152.70
419.77	3204.19
419.96	3283.77
420.15	3339.94
420.34	3332.92
420.53	3433.57
420.72	3365.69
420.91	3346.97
421.10	3328.24
421.29	3616.13
421.48	3426.54
421.67	3478.04
421.86	3480.38
422.05	3517.83
422.24	3440.59
422.43	3473.36
422.61	3569.32
422.80	3599.74
422.99	3555.27
423.18	3639.53
423.37	3611.45
423.56	3606.77
423.75	3646.55
423.94	3639.53
424.13	3330.58
424.32	3445.27
424.50	3569.32
424.69	3726.13
424.88	3662.94
425.07	3494.42
425.26	3485.06
425.45	3574.00
425.64	3559.95
425.83	3630.17
426.01	3581.02
426.20	3658.26
426.39	3618.47
426.58	3541.23
426.77	3737.84
426.96	3637.19
427.15	3569.32
427.33	3700.39
427.52	3721.45
427.71	3707.41
427.90	3810.39
428.09	3880.61
428.28	3852.52
428.46	3819.75
428.65	3922.74
428.84	3896.99
429.03	3889.97
429.22	3866.56
429.40	3871.25
429.59	3868.91
429.78	3693.37
429.97	3676.98
430.16	3786.99
430.34	3815.07
430.53	3824.44
430.72	3957.85
430.91	3920.40
431.10	3978.91
431.28	4028.06
431.47	4088.92
431.66	4287.86
431.85	4014.02
432.03	4154.45
432.22	4257.43
432.41	4173.18
432.60	4173.18
432.79	4348.72
432.97	4348.72
433.16	4248.07
433.35	4149.77
433.54	4315.95
433.72	4259.78
433.91	4341.69
434.10	4430.63
434.28	4320.63
434.47	4479.79
434.66	4491.49
434.85	4580.43
435.03	4507.87
435.22	4489.15
435.41	4667.03
435.59	4505.53
435.78	4582.77
435.97	4667.03
436.16	4660.01
436.34	4667.03
436.53	4568.73
436.72	4819.16
436.90	4685.75
437.09	4819.16
437.28	4695.11
437.46	4657.67
437.65	4732.56
437.84	4802.78
438.02	4833.21
438.21	4690.43
438.40	4550.00
438.58	4809.80
438.77	5025.13
438.96	4952.57
439.14	4837.89
439.33	5179.61
439.52	5139.82
439.70	5029.81
439.89	5179.61
440.08	5315.36
440.26	5217.05
440.45	5165.56
440.63	5200.67
440.82	5481.53
441.01	5460.47
441.19	5418.34
441.38	5570.48
441.57	5416.00
441.75	5547.07
441.94	5654.73
442.12	5762.40
442.31	5729.63
442.50	5668.78
442.68	5710.91
442.87	5523.66
443.05	5813.89
443.24	5720.27
443.43	5809.21
443.61	5792.83
443.80	6026.88
443.98	5757.72
444.17	5624.31
444.35	5818.57
444.54	5937.94
444.73	5914.53
444.91	5954.32
445.10	5977.73
445.28	5944.96
445.47	5764.74
445.65	5851.34
445.84	6033.90
446.02	5982.41
446.21	6054.97
446.39	5781.12
446.58	5982.41
446.77	5919.21
446.95	6005.81
447.14	6221.14
447.32	6162.63
447.51	6031.56
447.69	5900.49
447.88	6097.10
448.06	6106.46
448.25	6078.37
448.43	6106.46
448.62	6080.71
448.80	6029.22
448.99	5963.68
449.17	6209.44
449.36	6164.97
449.54	6258.59
449.73	6284.34
449.91	6462.22
450.10	6581.59
450.28	6506.69
450.46	6263.27
450.65	6406.05
450.83	6417.75
451.02	6356.90
451.20	6485.62
451.39	6396.68
451.57	6537.12
451.76	6380.30
451.94	6438.81
452.13	6403.71
452.31	6455.20
452.49	6298.38
452.68	6424.77
452.86	6518.39
453.05	6672.87
453.23	6654.14
453.42	6593.29
453.60	6525.41
453.78	6796.92
453.97	6698.61
454.15	6651.80
454.34	6656.48
454.52	6766.49
454.70	6906.92
454.89	6979.48
455.07	6768.83
455.26	6981.82
455.44	6904.58
455.62	6827.34
455.81	7037.99
455.99	6972.46
456.17	7026.29
456.36	7037.99
456.54	7239.28
456.73	7222.89
456.91	7384.39
457.09	7265.02
457.28	7325.88
457.46	7328.22
457.64	7222.89
457.83	7316.51
458.01	7372.69
458.19	7557.59
458.38	7438.22
458.56	7583.34
458.74	7602.06
458.93	7356.30
459.11	7562.27
459.29	7389.07
459.48	7531.84
459.66	7651.21
459.84	7431.20
460.03	7515.46
460.21	7667.60
460.39	7681.64
460.57	7756.54
460.76	7831.43
460.94	7730.79
461.12	7878.24
461.31	7674.62
461.49	7831.43
461.67	7824.41
461.85	7826.75
462.04	7815.05
462.22	8404.86
462.40	8109.96
462.59	8159.11
462.77	8070.17
462.95	8304.22
463.13	8100.59
463.32	7960.16
463.50	8119.32
463.68	8182.51
463.86	8446.99
464.05	8205.92
464.23	8156.77
464.41	8231.66
464.59	7967.18
464.78	8262.09
464.96	8308.90
465.14	8212.94
465.32	8212.94
465.50	8475.08
465.69	8456.36
465.87	8437.63
466.05	8351.03
466.23	8439.97
466.41	8439.97
466.60	8477.42
466.78	8423.59
466.96	8510.19
467.14	8470.40
467.32	8561.68
467.51	8404.86
467.69	8290.18
467.87	8514.87
468.05	8631.90
468.23	8353.37
468.41	8545.30
468.60	8652.96
468.78	8706.79
468.96	8795.73
469.14	8842.54
469.32	9104.68
469.50	8648.28
469.69	8964.25
469.87	8954.89
470.05	8894.04
470.23	9008.72
470.41	8891.70
470.59	9095.32
470.77	8987.66
470.95	9259.16
471.14	9186.60
471.32	9123.41
471.50	9444.06
471.68	9247.46
471.86	9434.70
472.04	9540.02
472.22	9797.48
472.40	9411.29
472.58	9605.56
472.77	9488.53
472.95	9502.58
473.13	10038.56
473.31	9790.46
473.49	9570.45
473.67	9769.40
473.85	9811.53
474.03	9886.42
474.21	10092.39
474.39	10171.97
474.57	10136.86
474.75	10148.56
474.93	10061.96
475.12	10317.08
475.30	10391.98
475.48	10132.18
475.66	10244.52
475.84	10054.94
476.02	10492.62
476.20	10534.75
476.38	10417.72
476.56	10743.06
476.74	10916.26
476.92	10829.66
477.10	10785.19
477.28	10963.07
477.46	11068.39
477.64	11222.87
477.82	11180.74
478.00	11351.60
478.18	11489.69
478.36	11293.08
478.54	11508.41
478.72	11758.85
478.90	11775.24
479.08	11925.03
479.26	12262.07
479.44	12095.89
479.62	12210.57
479.80	12280.79
479.98	12624.85
480.16	12404.84
480.34	12273.77
480.52	12475.06
480.70	12732.51
480.88	12278.45
481.06	12594.42
481.24	12704.43
481.41	12971.25
481.59	13118.70
481.77	13107.00
481.95	13069.55
482.13	13329.35
482.31	13397.23
482.49	13640.64
482.67	13610.22
482.85	14092.37
483.03	13741.29
483.21	14031.51
483.39	14022.15
483.57	13928.53
483.74	14260.88
483.92	14197.69
484.10	14185.99
484.28	14759.42
484.46	14831.97
484.64	14881.13
484.82	14801.55
485.00	14923.26
485.18	15124.54
485.35	15293.06
485.53	14993.47
485.71	15220.50
485.89	15295.40
486.07	15211.14
486.25	15594.99
486.43	15597.33
486.61	15964.79
486.78	16018.63
486.96	16140.33
487.14	16498.44
487.32	16549.93
487.50	16617.80
487.68	16521.84
487.85	16994.63
488.03	17008.67
488.21	17432.31
488.39	17015.69
488.57	17338.69
488.75	17523.59
488.92	18024.47
489.10	17617.21
489.28	17909.78
489.46	18125.11
489.64	18176.60
489.81	18401.29
489.99	18405.97
490.17	18267.88
490.35	18738.33
490.53	18892.80
490.70	18855.36
490.88	18710.24
491.06	19084.73
491.24	19286.01
491.41	19445.17
491.59	19389.00
491.77	19304.74
491.95	19627.73
492.13	19854.76
492.30	19913.28
492.48	20121.59
492.66	19943.70
492.84	20439.90
493.01	20421.17
493.19	20247.97
493.37	20842.47
493.54	20858.85
493.72	20809.70
493.90	20943.11
494.08	21113.97
494.25	21378.45
494.43	21528.25
494.61	21240.36
494.79	21820.81
494.96	21614.85
495.14	21429.94
495.32	22005.72
495.49	21881.67
495.67	22265.52
495.85	22272.54
496.02	22487.87
496.20	22256.15
496.38	22588.51
496.55	22869.37
496.73	23023.85
496.91	23021.51
497.09	23112.79
497.26	23021.51
497.44	23143.22
497.62	23503.66
497.79	23304.71
497.97	23482.59
498.14	23819.63
498.32	23665.16
498.50	23833.68
498.67	23950.70
498.85	23630.05
499.03	24121.56
499.20	24482.00
499.38	24451.58
499.56	24283.06
499.73	24376.68
499.91	24451.58
500.08	25010.96
500.26	24540.52
500.44	25120.97
500.61	25460.35
500.79	24926.71
500.97	25474.39
501.14	25216.93
501.32	25458.01
501.49	25692.06
501.67	25301.19
501.84	25439.28
502.02	25256.72
502.20	25694.40
502.37	25968.24
502.55	26024.42
502.72	26026.76
502.90	26256.13
503.07	26031.44
503.25	26621.25
503.43	25972.92
503.60	26405.92
503.78	26139.10
503.95	26492.52
504.13	26799.13
504.30	26871.69
504.48	26740.62
504.65	27068.30
504.83	27229.79
505.01	27040.21
505.18	27386.61
505.36	27548.11
505.53	27218.09
505.71	27686.20
505.88	27936.63
506.06	27311.71
506.23	27655.77
506.41	27793.86
506.58	27611.30
506.76	27838.33
506.93	28212.82
507.11	27821.95
507.28	28208.14
507.46	27910.89
507.63	27826.63
507.81	28364.95
507.98	28381.34
508.16	28395.38
508.33	28472.62
508.50	28739.44
508.68	28814.34
508.85	28751.14
509.03	28814.34
509.20	29195.84
509.38	28964.13
509.55	29259.04
509.73	29200.52
509.90	29413.51
510.08	29270.74
510.25	29528.20
510.42	29865.24
510.60	29673.31
510.77	29972.90
510.95	29844.17
511.12	29708.42
511.30	30199.93
511.47	30024.39
511.64	30366.11
511.82	30677.40
511.99	30183.55
512.17	30422.28
512.34	30164.82
512.51	30630.59
512.69	30529.95
512.86	30384.83
513.04	30749.96
513.21	30768.68
513.38	30576.76
513.56	30553.35
513.73	30637.61
513.90	31138.49
514.08	30911.46
514.25	31426.37
514.43	31227.43
514.60	31438.08
514.77	31229.77
514.95	31323.39
515.12	31260.20
515.29	31615.96
515.47	31777.45
515.64	32077.04
515.81	31789.16
515.99	31887.46
516.16	31957.67
516.33	31735.32
516.51	32044.27
516.68	31793.84
516.85	31316.37
517.03	31929.59
517.20	32320.46
517.37	32180.03
517.54	32631.75
517.72	32498.34
517.89	32212.79
518.06	32301.73
518.24	32360.25
518.41	32266.63
518.58	33085.81
518.75	32716.01
518.93	32924.32
519.10	32673.88
519.27	33036.66
519.45	33144.33
519.62	33095.18
519.79	33338.59
519.96	33504.77
520.14	33401.79
520.31	33422.85
520.48	33663.93
520.65	33422.85
520.83	33619.46
521.00	33869.89
521.17	33677.97
521.34	34057.14
521.52	34396.51
521.69	33720.10
521.86	34258.42
522.03	34550.99
522.20	34483.11
522.38	34506.52
522.55	34464.39
522.72	34356.72
522.89	34536.94
523.07	34871.64
523.24	34218.63
523.41	34651.63
523.58	34639.93
523.75	35115.06
523.92	34934.84
524.10	34747.59
524.27	35211.02
524.44	35185.27
524.61	35211.02
524.78	35243.79
524.96	35342.09
525.13	35283.58
525.30	35700.19
525.47	35658.06
525.64	35564.44
525.81	35606.57
525.98	35655.72
526.16	35470.82
526.33	34920.79
526.50	35945.95
526.67	35501.25
526.84	35639.34
527.01	35407.62
527.18	36144.89
527.36	35976.37
527.53	36070.00
527.70	36486.61
527.87	36577.89
528.04	36215.11
528.21	36524.06
528.38	36545.12
528.55	36816.63
528.72	36395.33
528.89	37053.02
529.07	36891.52
529.24	36425.76
529.41	36760.45
529.58	36966.42
529.75	36687.90
529.92	36844.71
530.09	37163.03
530.26	36985.15
530.43	37177.07
530.60	37193.45
530.77	36980.46
530.94	37268.35
531.11	37549.21
531.28	37294.10
531.46	37488.36
531.63	37607.73
531.80	37738.80
531.97	37560.92
532.14	37450.91
532.31	37518.79
532.48	37467.30
532.65	37467.30
532.82	37867.53
532.99	38122.65
533.16	37750.50
533.33	37706.03
533.50	38127.33
533.67	38270.10
533.84	38057.11
534.01	38045.41
534.18	38288.82
534.35	38590.75
534.52	38113.28
534.69	37965.83
534.86	38852.89
535.03	38092.22
535.20	38639.90
535.37	38871.62
535.54	39089.29
535.71	39030.77
535.88	38644.59
536.05	38590.75
536.22	39058.86
536.38	39070.56
536.55	38693.74
536.72	38501.81
536.89	38827.15
537.06	38515.86
537.23	38953.54
537.40	38763.95
537.57	39122.05
537.74	39084.61
537.91	39700.17
538.08	39402.92
538.25	39342.06
538.42	39285.89
538.59	39641.65
538.75	38689.06
538.92	39718.89
539.09	40002.10
539.26	39309.30
539.43	39725.91
539.60	39746.98
539.77	39737.62
539.94	39452.07
540.11	39255.46
540.28	40027.84
540.44	39910.82
540.61	39627.61
540.78	40058.27
540.95	39894.43
541.12	39672.08
541.29	40233.81
541.46	40004.44
541.62	39920.18
541.79	40142.53
541.96	39423.98
542.13	40067.63
542.30	40149.55
542.47	39754.00
542.63	40023.16
542.80	40259.55
542.97	41134.92
543.14	40849.37
543.31	40320.41
543.48	40641.06
543.64	41301.09
543.81	41345.56
543.98	40678.51
544.15	40793.20
544.32	40715.96
544.48	41041.29
544.65	40950.01
544.82	41071.72
544.99	40596.59
545.16	40840.01
545.32	41200.45
545.49	41460.25
545.66	41235.56
545.83	41364.29
546.00	41773.88
546.16	41914.31
546.33	41109.17
546.50	40914.90
546.67	41319.82
546.83	41041.29
547.00	41453.23
547.17	41076.40
547.34	40989.80
547.50	41684.94
547.67	41605.36
547.84	41439.18
548.00	42148.37
548.17	41883.89
548.34	41642.81
548.51	42085.17
548.67	42225.60
548.84	42012.62
549.01	42045.38
549.18	42241.99
549.34	42157.73
549.51	41937.72
549.68	42321.57
549.84	42370.72
550.01	42459.66
550.18	41914.31
550.34	41935.38
550.51	41558.55
550.68	41844.10
550.84	41918.99
551.01	42527.53
551.18	42323.91
551.34	42230.29
551.51	42150.71
551.68	42209.22
551.84	42209.22
552.01	42476.04
552.18	42211.56
552.34	42525.19
552.51	42836.48
552.68	42642.22
552.84	42511.15
553.01	43215.65
553.18	42838.83
553.34	42417.53
553.51	42384.76
553.67	42499.45
553.84	42852.87
554.01	42834.14
554.17	43040.11
554.34	43676.74
554.51	42728.82
554.67	43342.04
554.84	42824.78
555.00	42895.00
555.17	42829.46
555.33	43124.37
555.50	43302.25
555.67	42934.79
555.83	43129.05
556.00	43051.81
556.16	43536.30
556.33	43332.68
556.50	43442.68
556.66	43627.59
556.83	43115.01
556.99	43318.64
557.16	43107.99
557.32	43187.56
557.49	43426.30
557.65	43290.55
557.82	43306.93
557.98	43353.74
558.15	43548.01
558.32	43433.32
558.48	43824.19
558.65	43611.20
558.81	43873.34
558.98	43449.70
559.14	43145.44
559.31	43215.65
559.47	43491.83
559.64	43658.01
559.80	43709.50
559.97	44105.06
560.13	43639.29
560.30	43871.00
560.46	43803.13
560.63	43920.15
560.79	43746.95
560.96	44165.91
561.12	43697.80
561.29	43725.89
561.45	43653.33
561.61	43730.57
561.78	43880.36
561.94	43936.54
562.11	44051.22
562.27	43768.02
562.44	44018.46
562.60	43903.77
562.77	44088.67
562.93	43964.62
563.10	44044.20
563.26	43639.29
563.42	43913.13
563.59	43700.14
563.75	44292.30
563.92	43786.74
564.08	44327.41
564.24	44025.48
564.41	44004.41
564.57	44336.77
564.74	44163.57
564.90	44051.22
565.07	44121.44
565.23	44168.25
565.39	43819.51
565.56	44076.97
565.72	44161.23
565.88	44320.38
566.05	44201.02
566.21	44591.89
566.38	43941.22
566.54	44367.20
566.70	44406.98
566.87	44381.24
567.03	44112.08
567.19	44734.66
567.36	44739.34
567.52	44116.76
567.68	44430.39
567.85	44226.76
568.01	44219.74
568.17	44093.35
568.34	44549.76
568.50	44622.31
568.66	44013.77
568.83	44133.14
568.99	44135.48
569.15	44280.60
569.32	44245.49
569.48	44385.92
569.64	44561.46
569.81	44868.07
569.97	44210.38
570.13	44430.39
570.30	44219.74
570.46	44039.52
570.62	44318.04
570.78	44360.17
570.95	44318.04
571.11	44912.54
571.27	44201.02
571.43	44306.34
571.60	44818.92
571.76	45003.82
571.92	44804.88
572.09	44203.36
572.25	44509.97
572.41	44182.29
572.57	44381.24
572.74	44659.76
572.90	44442.09
573.06	44411.67
573.22	44697.21
573.38	44566.14
573.55	44334.43
573.71	44781.47
573.87	44744.02
574.03	44392.94
574.20	44926.58
574.36	44404.64
574.52	44652.74
574.68	44940.63
574.84	44671.46
575.01	44629.34
575.17	44360.17
575.33	44563.80
575.49	44533.37
575.65	44552.10
575.82	45083.40
575.98	44521.67
576.14	45340.86
576.30	45160.64
576.46	44512.31
576.62	44383.58
576.79	44479.54
576.95	44186.97
577.11	44582.52
577.27	45090.42
577.43	45088.08
577.59	44514.65
577.75	44685.51
577.92	44549.76
578.08	44423.37
578.24	44800.19
578.40	44739.34
578.56	44535.71
578.72	44626.99
578.88	44973.39
579.04	45209.79
579.21	45076.38
579.37	44582.52
579.53	44886.79
579.69	44318.04
579.85	44507.63
580.01	44182.29
580.17	45015.52
580.33	44818.92
580.49	45074.04
580.65	45020.20
580.82	44891.48
580.98	44985.10
581.14	44816.58
581.30	45090.42
581.46	44914.88
581.62	44823.60
581.78	44732.32
581.94	45177.02
582.10	45170.00
582.26	44886.79
582.42	44690.19
582.58	44744.02
582.74	45027.23
582.90	44708.91
583.06	45076.38
583.22	45219.15
583.38	45308.09
583.54	45076.38
583.70	44999.14
583.86	44772.11
584.02	44622.31
584.18	44912.54
584.34	44903.18
584.50	44982.76
584.66	44837.64
584.82	44844.66
584.98	45272.98
585.14	45193.40
585.30	44594.23
585.46	44767.43
585.62	44664.44
585.78	44556.78
585.94	44521.67
586.10	44678.49
586.26	44809.56
586.42	45144.25
586.58	45263.62
586.74	45050.63
586.90	44891.48
587.06	44966.37
587.22	44957.01
587.38	44809.56
587.54	45191.06
587.70	45137.23
587.86	45123.19
588.02	44727.64
588.18	45549.17
588.34	44818.92
588.49	44690.19
588.65	44589.55
588.81	44357.83
588.97	44636.36
589.13	44776.79
589.29	45090.42
589.45	45041.27
589.61	45045.95
589.77	44809.56
589.93	44715.93
590.08	44989.78
590.24	45350.22
