SpectraSuite Data File
++++++++++++++++++++++++++++++++++++
Date: Fri Oct 25 11:25:12 EDT 2013
User: price-jones
Dark Spectrum Present: No
Reference Spectrum Present: No
Number of Sampled Component Spectra: 1
Spectrometers: USB2+H05261
Integration Time (usec): 100000 (USB2+H05261)
Spectra Averaged: 1 (USB2+H05261)
Boxcar Smoothing: 0 (USB2+H05261)
Correct for Electrical Dark: No (USB2+H05261)
Strobe/Lamp Enabled: No (USB2+H05261)
Correct for Detector Non-linearity: No (USB2+H05261)
Correct for Stray Light: No (USB2+H05261)
Number of Pixels in Processed Spectrum: 2048
>>>>>Begin Processed Spectral Data<<<<<
365.73	227.03
365.92	227.03
366.12	227.03
366.32	212.99
366.52	112.35
366.72	140.43
366.91	138.09
367.11	196.60
367.31	180.22
367.51	166.18
367.70	147.45
367.90	149.79
368.10	124.05
368.30	168.52
368.49	72.56
368.69	124.05
368.89	166.18
369.09	142.77
369.28	63.19
369.48	159.16
369.68	224.69
369.87	175.54
370.07	217.67
370.27	266.82
370.47	313.63
370.66	596.84
370.86	596.84
371.06	739.61
371.25	702.16
371.45	645.99
371.65	688.12
371.84	624.92
372.04	631.94
372.24	711.52
372.44	732.59
372.63	716.20
372.83	791.10
373.03	718.54
373.22	763.01
373.42	741.95
373.62	823.87
373.81	863.66
374.01	816.85
374.21	842.59
374.40	786.42
374.60	816.85
374.79	802.80
374.99	863.66
375.19	847.27
375.38	880.04
375.58	866.00
375.78	856.64
375.97	863.66
376.17	968.98
376.37	772.38
376.56	814.51
376.76	851.96
376.95	929.19
377.15	901.11
377.35	922.17
377.54	950.26
377.74	903.45
377.93	875.36
378.13	866.00
378.33	917.49
378.52	943.24
378.72	926.85
378.91	901.11
379.11	912.81
379.31	968.98
379.50	887.06
379.70	894.08
379.89	973.66
380.09	933.87
380.28	954.94
380.48	919.83
380.68	1018.13
380.87	926.85
381.07	1074.31
381.26	1011.11
381.46	999.41
381.65	1043.88
381.85	1020.47
382.04	1067.28
382.24	1095.37
382.43	1074.31
382.63	1029.84
382.83	1032.18
383.02	1104.73
383.22	1135.16
383.41	1071.97
383.61	1111.75
383.80	1142.18
384.00	1137.50
384.19	1062.60
384.39	1156.22
384.58	1128.14
384.78	1188.99
384.97	1139.84
385.17	1139.84
385.36	1184.31
385.56	1219.42
385.75	1146.86
385.95	1219.42
386.14	1217.08
386.34	1310.70
386.53	1219.42
386.72	1205.38
386.92	1217.08
387.11	1303.68
387.31	1217.08
387.50	1263.89
387.70	1231.12
387.89	1198.35
388.09	1235.80
388.28	1235.80
388.48	1254.53
388.67	1383.26
388.86	1240.48
389.06	1303.68
389.25	1371.55
389.45	1299.00
389.64	1413.68
389.84	1364.53
390.03	1404.32
390.22	1362.19
390.42	1277.93
390.61	1301.34
390.81	1252.19
391.00	1399.64
391.19	1451.13
391.39	1430.07
391.58	1462.83
391.78	1432.41
391.97	1439.43
392.16	1427.73
392.36	1554.12
392.55	1509.65
392.75	1509.65
392.94	1577.52
393.13	1500.28
393.33	1544.75
393.52	1694.55
393.71	1699.23
393.91	1654.76
394.10	1652.42
394.29	1584.54
394.49	1699.23
394.68	1614.97
394.88	1596.25
395.07	1666.46
395.26	1659.44
395.46	1570.50
395.65	1781.15
395.84	1708.59
396.04	1785.83
396.23	1708.59
396.42	1792.85
396.62	1844.34
396.81	1727.32
397.00	1657.10
397.19	1891.15
397.39	1856.04
397.58	1837.32
397.77	1795.19
397.97	1846.68
398.16	1818.60
398.35	1949.67
398.55	1863.07
398.74	1839.66
398.93	1879.45
399.12	1856.04
399.32	2015.20
399.51	1963.71
399.70	1989.46
399.90	2024.56
400.09	1989.46
400.28	2047.97
400.47	1975.41
400.67	2080.74
400.86	2097.12
401.05	2071.37
401.24	2090.10
401.44	2054.99
401.63	2062.01
401.82	2069.03
402.01	2076.06
402.21	2101.80
402.40	2211.81
402.59	2195.42
402.78	2183.72
402.97	2246.91
403.17	2181.38
403.36	2338.20
403.55	2256.28
403.74	2450.54
403.93	2408.41
404.13	2429.48
404.32	2392.03
404.51	2459.90
404.70	2466.92
404.89	2403.73
405.09	2551.18
405.28	2504.37
405.47	2375.64
405.66	2406.07
405.85	2413.09
406.05	2499.69
406.24	2520.76
406.43	2581.61
406.62	2574.59
406.81	2595.65
407.00	2513.74
407.20	2672.89
407.39	2525.44
407.58	2635.44
407.77	2670.55
407.96	2733.75
408.15	2677.57
408.34	2689.28
408.54	2806.30
408.73	2815.66
408.92	2789.92
409.11	2836.73
409.30	2789.92
409.49	2874.18
409.68	2890.56
409.87	2883.54
410.07	2998.23
410.26	3145.68
410.45	2988.86
410.64	2892.90
410.83	3019.29
411.02	3143.34
411.21	3187.81
411.40	3133.98
411.59	3239.30
411.78	3089.51
411.98	3220.58
412.17	3159.72
412.36	3101.21
412.55	3234.62
412.74	3377.39
412.93	3449.95
413.12	3225.26
413.31	3552.93
413.50	3379.73
413.69	3501.44
413.88	3555.27
414.07	3669.96
414.26	3588.04
414.45	3625.49
414.64	3665.28
414.83	3674.64
415.02	3651.24
415.22	3829.12
415.41	3927.42
415.60	3920.40
415.79	3929.76
415.98	3892.31
416.17	3901.67
416.36	3904.01
416.55	4086.58
416.74	3967.21
416.93	3981.25
417.12	4175.52
417.31	4212.96
417.50	4147.43
417.69	4198.92
417.88	4219.99
418.07	4161.47
418.26	4320.63
418.45	4484.47
418.64	4411.91
418.83	4376.80
419.02	4299.56
419.21	4521.92
419.39	4362.76
419.58	4381.48
419.77	4332.33
419.96	4482.13
420.15	4634.26
420.34	4578.09
420.53	4711.50
420.72	4550.00
420.91	4662.35
421.10	4540.64
421.29	4732.56
421.48	4772.35
421.67	4781.71
421.86	4767.67
422.05	4891.72
422.24	4880.02
422.43	4894.06
422.61	4741.93
422.80	4926.83
422.99	5011.09
423.18	4887.04
423.37	5043.85
423.56	4875.34
423.75	4858.95
423.94	4779.37
424.13	4578.09
424.32	4667.03
424.50	4915.12
424.69	5078.96
424.88	5074.28
425.07	5064.92
425.26	4961.94
425.45	4954.91
425.64	4908.10
425.83	4929.17
426.01	5085.98
426.20	5165.56
426.39	4971.30
426.58	4858.95
426.77	5062.58
426.96	5083.64
427.15	5076.62
427.33	5144.50
427.52	5118.75
427.71	5310.68
427.90	5181.95
428.09	5320.04
428.28	5329.40
428.46	5308.34
428.65	5214.71
428.84	5495.58
429.03	5378.55
429.22	5193.65
429.40	5561.11
429.59	5507.28
429.78	5224.08
429.97	5355.15
430.16	5420.68
430.34	5600.90
430.53	5764.74
430.72	5687.50
430.91	5558.77
431.10	5511.96
431.28	5783.46
431.47	5617.29
431.66	5919.21
431.85	5696.86
432.03	5788.14
432.22	5968.37
432.41	5916.87
432.60	5867.72
432.79	5905.17
432.97	5895.81
433.16	6026.88
433.35	5947.30
433.54	6015.18
433.72	6099.44
433.91	6057.31
434.10	6026.88
434.28	6022.20
434.47	6209.44
434.66	6076.03
434.85	6389.66
435.03	6282.00
435.22	6335.83
435.41	6450.52
435.59	6349.87
435.78	6293.70
435.97	6551.16
436.16	6384.98
436.34	6333.49
436.53	6289.02
436.72	6504.35
436.90	6476.26
437.09	6576.91
437.28	6572.22
437.46	6740.74
437.65	6614.35
437.84	6750.10
438.02	6754.79
438.21	6724.36
438.40	6574.56
438.58	6939.69
438.77	7045.01
438.96	6902.24
439.14	6956.07
439.33	7063.74
439.52	7084.80
439.70	7206.51
439.89	7166.72
440.08	7290.77
440.26	7253.32
440.45	7290.77
440.63	7391.41
440.82	7393.75
441.01	7478.01
441.19	7625.47
441.38	7707.38
441.57	7604.40
441.75	7911.01
441.94	7976.55
442.12	7974.21
442.31	7971.86
442.50	7889.95
442.68	7903.99
442.87	7932.08
443.05	8182.51
443.24	8170.81
443.43	8114.64
443.61	8161.45
443.80	8336.99
443.98	7929.74
444.17	7805.69
444.35	8320.60
444.54	8346.35
444.73	8039.74
444.91	8229.32
445.10	8299.54
445.28	8308.90
445.47	8334.65
445.65	8456.36
445.84	8390.82
446.02	8360.39
446.21	8318.26
446.39	8124.00
446.58	8353.37
446.77	8439.97
446.95	8245.71
447.14	8589.77
447.32	8564.02
447.51	8442.31
447.69	8552.32
447.88	8463.38
448.06	8400.18
448.25	8552.32
448.43	8638.92
448.62	8580.40
448.80	8479.76
448.99	8585.08
449.17	8627.21
449.36	8601.47
449.54	8784.03
449.73	8814.46
449.91	8800.41
450.10	8943.19
450.28	9018.08
450.46	9076.60
450.65	8975.95
450.83	8980.64
451.02	9029.79
451.20	8994.68
451.39	9137.45
451.57	9027.45
451.76	9022.77
451.94	9078.94
452.13	9221.71
452.31	9036.81
452.49	9156.18
452.68	9266.18
452.86	9195.96
453.05	9418.32
453.23	9514.28
453.42	9500.23
453.60	9240.44
453.78	9467.47
453.97	9397.25
454.15	9467.47
454.34	9399.59
454.52	9666.41
454.70	9483.85
454.89	9568.11
455.07	9703.86
455.26	9614.92
455.44	9802.16
455.62	10024.51
455.81	9825.57
455.99	9841.95
456.17	10010.47
456.36	9977.70
456.54	10197.71
456.73	10221.12
456.91	10314.74
457.09	10464.54
457.28	10630.71
457.46	10356.87
457.64	10314.74
457.83	10420.06
458.01	10476.24
458.19	10740.72
458.38	10413.04
458.56	10679.86
458.74	10574.54
458.93	10359.21
459.11	10822.64
459.29	10670.50
459.48	10839.02
459.66	10824.98
459.84	10684.55
460.03	11059.03
460.21	10855.40
460.39	10993.50
460.57	10916.26
460.76	10965.41
460.94	10824.98
461.12	11152.65
461.31	11136.27
461.49	10986.47
461.67	11140.95
461.85	11641.82
462.04	11173.72
462.22	11808.00
462.40	11316.49
462.59	11300.11
462.77	11403.09
462.95	11527.14
463.13	11620.76
463.32	11335.21
463.50	11770.55
463.68	11770.55
463.86	11763.53
464.05	11468.62
464.23	11627.78
464.41	11742.47
464.59	11616.08
464.78	11932.05
464.96	11819.71
465.14	11735.45
465.32	11920.35
465.50	12093.55
465.69	11934.39
465.87	12037.38
466.05	11829.07
466.23	11997.59
466.41	12395.48
466.60	12365.05
466.78	11936.73
466.96	12189.51
467.14	12283.13
467.32	12484.42
467.51	12510.16
467.69	12011.63
467.87	12491.44
468.05	12477.40
468.23	12484.42
468.41	12102.91
468.60	12732.51
468.78	12662.30
468.96	12442.29
469.14	12650.60
469.32	12821.45
469.50	12613.15
469.69	13027.42
469.87	13132.75
470.05	12994.65
470.23	13226.37
470.41	12910.40
470.59	13387.86
470.77	13179.56
470.95	13329.35
471.14	13401.91
471.32	13151.47
471.50	13327.01
471.68	13490.85
471.86	13699.16
472.04	13507.23
472.22	13724.90
472.40	13764.69
472.58	13809.16
472.77	13951.93
472.95	13912.14
473.13	14303.01
473.31	13996.40
473.49	14167.26
473.67	14221.10
473.85	14312.38
474.03	14532.39
474.21	14303.01
474.39	14712.61
474.57	14532.39
474.75	14757.08
474.93	14899.85
475.12	14565.15
475.30	14958.36
475.48	15073.05
475.66	15150.29
475.84	14913.89
476.02	15222.84
476.20	15335.19
476.38	15599.67
476.56	15873.51
476.74	15927.35
476.92	15726.06
477.10	15939.05
477.28	16077.14
477.46	16042.03
477.64	16320.56
477.82	16320.56
478.00	16849.52
478.18	16776.96
478.36	16978.25
478.54	16915.05
478.72	17008.67
478.90	17125.70
479.08	17731.90
479.26	17621.89
479.44	17397.20
479.62	17699.13
479.80	17818.50
479.98	18300.65
480.16	18408.31
480.34	18349.80
480.52	18277.24
480.70	18684.50
480.88	18506.62
481.06	18735.99
481.24	18501.93
481.41	19281.33
481.59	19117.50
481.77	19253.25
481.95	19098.77
482.13	19365.59
482.31	19534.11
482.49	20011.58
482.67	19976.47
482.85	20109.88
483.03	20393.09
483.21	20652.89
483.39	21067.16
483.57	20863.54
483.74	21102.27
483.92	21308.24
484.10	21116.31
484.28	21275.47
484.46	21876.99
484.64	22120.40
484.82	22031.46
485.00	22038.48
485.18	22670.43
485.35	23098.75
485.53	22693.83
485.71	23229.82
485.89	23360.89
486.07	23342.16
486.25	23328.12
486.43	23463.87
486.61	23737.71
486.78	23828.99
486.96	23868.78
487.14	24304.12
487.32	24460.94
487.50	24627.12
487.68	24774.57
487.85	25198.21
488.03	25198.21
488.21	25411.20
488.39	25722.49
488.57	26038.46
488.75	25883.98
488.92	26436.35
489.10	26555.72
489.28	26471.46
489.46	26995.74
489.64	26703.17
489.81	27824.29
489.99	27213.41
490.17	27611.30
490.35	28367.29
490.53	27985.79
490.70	28355.59
490.88	28060.68
491.06	29022.64
491.24	28636.45
491.41	29221.59
491.59	29193.50
491.77	28800.29
491.95	29427.56
492.13	29439.26
492.30	29748.21
492.48	29694.38
492.66	30183.55
492.84	30326.32
493.01	30228.02
493.19	30429.30
493.37	30869.33
493.54	30967.63
493.72	31178.28
493.90	31264.88
494.08	31419.35
494.25	31964.70
494.43	31910.86
494.61	31995.12
494.79	32203.43
494.96	32215.13
495.14	32568.55
495.32	32594.30
495.49	33247.31
495.67	32884.53
495.85	33308.16
496.02	33790.31
496.20	33432.21
496.38	33916.70
496.55	33706.05
496.73	34864.62
496.91	34431.62
497.09	34738.23
497.26	35021.44
497.44	34682.06
497.62	35159.53
497.79	36051.27
497.97	35187.61
498.14	36037.23
498.32	35569.12
498.50	36341.50
498.67	36297.03
498.85	36418.74
499.03	36437.46
499.20	36456.18
499.38	36821.31
499.56	36746.41
499.73	36968.76
499.91	37113.87
500.08	37479.00
500.26	37280.05
500.44	36992.17
500.61	37923.70
500.79	37359.63
500.97	38110.94
501.14	38246.69
501.32	38295.85
501.49	38213.93
501.67	38366.06
501.84	38565.01
502.02	38536.92
502.20	38724.16
502.37	38813.10
502.55	39189.93
502.72	39866.34
502.90	39091.63
503.07	39131.42
503.25	39721.23
503.43	39388.88
503.60	40018.48
503.78	40315.73
503.95	40376.58
504.13	40072.31
504.30	40432.75
504.48	40425.73
504.65	40437.44
504.83	40622.34
505.01	41050.66
505.18	40947.67
505.36	41310.46
505.53	41380.67
505.71	41504.72
505.88	41797.29
506.06	41493.02
506.23	41991.55
506.41	41509.40
506.58	41762.18
506.76	42160.07
506.93	42712.44
507.11	42164.75
507.28	42649.24
507.46	42440.93
507.63	42656.26
507.81	42932.45
507.98	42836.48
508.16	42745.20
508.33	43283.53
508.50	43255.44
508.68	43316.29
508.85	43725.89
509.03	43648.65
509.20	43351.40
509.38	44058.24
509.55	44020.80
509.73	44589.55
509.90	43999.73
510.08	44596.57
510.25	44437.41
510.42	44589.55
510.60	44741.68
510.77	44718.28
510.95	45277.66
511.12	44814.24
511.30	44832.96
511.47	45151.27
511.64	45350.22
511.82	45883.86
511.99	45010.84
512.17	45837.05
512.34	45797.26
512.51	46050.04
512.69	45986.85
512.86	46028.98
513.04	47068.17
513.21	46419.84
513.38	46415.16
513.56	46616.45
513.73	46564.96
513.90	47093.92
514.08	46518.15
514.25	47019.02
514.43	47082.22
514.60	47210.95
514.77	47166.48
514.95	47583.09
515.12	47430.96
515.29	47178.18
515.47	47578.41
515.64	47978.64
515.81	47353.72
515.99	48112.05
516.16	48271.21
516.33	48275.89
516.51	48318.02
516.68	48336.74
516.85	48018.43
517.03	48498.24
517.20	48477.18
517.37	48629.31
517.54	48435.05
517.72	48666.76
517.89	48875.07
518.06	49146.57
518.24	49219.13
518.41	49305.73
518.58	49090.40
518.75	49216.78
518.93	49296.36
519.10	49090.40
519.27	49471.90
519.45	49535.10
519.62	49855.75
519.79	49848.73
519.96	49932.99
520.14	49979.80
520.31	49797.24
520.48	50258.32
520.65	49979.80
520.83	50555.57
521.00	50740.47
521.17	50522.80
521.34	50391.73
521.52	50705.37
521.69	50679.62
521.86	51091.55
522.03	50838.78
522.20	51077.51
522.38	51346.67
522.55	51285.82
522.72	50890.27
522.89	51107.94
523.07	51381.78
523.24	51442.63
523.41	51325.61
523.58	51543.28
523.75	51554.98
523.92	51435.61
524.10	51758.61
524.27	51707.12
524.44	51833.50
524.61	52161.18
524.78	52222.03
524.96	52088.62
525.13	52154.16
525.30	52252.46
525.47	52317.99
525.64	52046.49
525.81	52589.50
525.98	52488.85
526.16	52608.22
526.33	52526.30
526.50	52903.13
526.67	52535.66
526.84	52769.72
527.01	52657.37
527.18	52811.85
527.36	52828.23
527.53	52800.15
527.70	52870.36
527.87	53109.10
528.04	53111.44
528.21	53200.38
528.38	53137.18
528.55	53453.15
528.72	53315.06
528.89	53242.51
529.07	53249.53
529.24	53092.71
529.41	53595.93
529.58	53687.21
529.75	53394.64
529.92	53670.82
530.09	53621.67
530.26	53755.08
530.43	53748.06
530.60	53640.40
530.77	53794.87
530.94	54000.84
531.11	53820.62
531.28	54057.01
531.46	53895.52
531.63	53928.28
531.80	53839.34
531.97	54202.13
532.14	54396.39
532.31	54047.65
532.48	54333.20
532.65	54555.55
532.82	54291.07
532.99	54433.84
533.16	54424.48
533.33	54937.05
533.50	54712.36
533.67	54749.81
533.84	54700.66
534.01	54726.41
534.18	55025.99
534.35	55128.98
534.52	54967.48
534.69	54714.70
534.86	54883.22
535.03	54899.61
535.20	55161.75
535.37	55192.17
535.54	55255.37
535.71	54866.84
535.88	55463.67
536.05	55360.69
536.22	55442.61
536.38	55384.10
536.55	55297.50
536.72	55533.89
536.89	55281.11
537.06	55288.13
537.23	55639.22
537.40	55426.23
537.57	55421.55
537.74	55690.71
537.91	55744.54
538.08	55721.13
538.25	55384.10
538.42	55845.18
538.59	55945.83
538.75	55812.41
538.92	55786.67
539.09	55992.64
539.26	56055.83
539.43	55877.95
539.60	56303.93
539.77	55929.44
539.94	56315.63
540.11	56217.33
540.28	56191.58
540.44	56507.55
540.61	56378.82
540.78	56460.74
540.95	56119.02
541.12	56172.86
541.29	56268.82
541.46	56341.38
541.62	56409.25
541.79	56444.36
541.96	56151.79
542.13	56329.67
542.30	56528.62
542.47	56713.52
542.63	56652.67
542.80	56474.79
542.97	57090.35
543.14	57216.74
543.31	57219.08
543.48	57134.82
543.64	57251.84
543.81	57085.67
543.98	57198.01
544.15	57036.51
544.32	57237.80
544.48	57401.64
544.65	57059.92
544.82	57116.09
544.99	57193.33
545.16	57160.56
545.32	57387.60
545.49	57715.27
545.66	57532.71
545.83	57677.82
546.00	57600.58
546.16	57612.29
546.33	57282.27
546.50	57062.26
546.67	57750.38
546.83	57221.42
547.00	57759.74
547.17	57530.37
547.34	57811.23
547.50	57790.17
547.67	57970.39
547.84	57900.17
548.00	57961.03
548.17	58136.57
548.34	58010.18
548.51	58054.65
548.67	58183.38
548.84	57827.62
549.01	57666.12
549.18	57958.69
549.34	57911.88
549.51	58265.30
549.68	58178.70
549.84	58192.74
550.01	58454.88
550.18	58305.09
550.34	58389.34
550.51	58335.51
550.68	58237.21
550.84	58197.42
551.01	58344.87
551.18	58454.88
551.34	58239.55
551.51	58117.84
551.68	58447.86
551.84	58639.78
552.01	58300.40
552.18	58651.48
552.34	58288.70
552.51	58501.69
552.68	58274.66
552.84	58590.63
553.01	58702.98
553.18	58595.31
553.34	58761.49
553.51	58803.62
553.67	58541.48
553.84	58838.73
554.01	58962.78
554.17	59014.27
554.34	58918.31
554.51	58915.96
554.67	59152.36
554.84	58899.58
555.00	58777.87
555.17	58941.71
555.33	58962.78
555.50	58899.58
555.67	58904.26
555.83	58857.45
556.00	59018.95
556.16	59332.58
556.33	59143.00
556.50	59028.31
556.66	59318.54
556.83	59007.25
556.99	59154.70
557.16	59522.16
557.32	59348.96
557.49	59428.54
557.65	59222.58
557.82	59264.70
557.98	59100.87
558.15	59075.12
558.32	59681.32
558.48	59299.81
558.65	59140.66
558.81	59489.40
558.98	59304.49
559.14	59480.03
559.31	59477.69
559.47	59473.01
559.64	59585.36
559.80	59316.20
559.97	59564.29
560.13	59587.70
560.30	59498.76
560.46	59587.70
560.63	59517.48
560.79	59568.97
560.96	59671.96
561.12	59681.32
561.29	59622.81
561.45	59868.56
561.61	59676.64
561.78	59601.74
561.94	59482.37
562.11	59749.20
562.27	59683.66
562.44	59786.64
562.60	59929.42
562.77	59676.64
562.93	59667.28
563.10	59985.59
563.26	59702.38
563.42	59859.20
563.59	60023.04
563.75	59955.16
563.92	59861.54
564.08	59756.22
564.24	60158.79
564.41	59835.80
564.57	60149.43
564.74	59945.80
564.90	59992.61
565.07	60001.97
565.23	60053.47
565.39	60133.04
565.56	60067.51
565.72	60104.96
565.88	60161.13
566.05	59866.22
566.21	59931.76
566.38	60079.21
566.54	60184.54
566.70	60135.38
566.87	60100.28
567.03	60109.64
567.19	60200.92
567.36	60154.11
567.52	60170.49
567.68	60481.78
567.85	60301.56
568.01	60142.41
568.17	60027.72
568.34	60315.61
568.50	60196.24
568.66	60287.52
568.83	60126.02
568.99	60203.26
569.15	60547.32
569.32	60264.11
569.48	60217.30
569.64	60516.89
569.81	60633.92
569.97	60182.19
570.13	60271.14
570.30	60140.07
570.46	60402.21
570.62	60280.50
570.78	60519.23
570.95	60343.69
571.11	60472.42
571.27	60519.23
571.43	60406.89
571.60	60449.02
571.76	60444.33
571.92	60458.38
572.09	60252.41
572.25	60523.91
572.41	60441.99
572.57	60472.42
572.74	60652.64
572.90	60622.22
573.06	60367.10
573.22	60324.97
573.38	60505.19
573.55	60477.10
573.71	60795.42
573.87	60535.62
574.03	60247.73
574.20	60439.65
574.36	60346.03
574.52	60556.68
574.68	60559.02
574.84	60556.68
575.01	60727.54
575.17	60559.02
575.33	60573.06
575.49	60413.91
575.65	60683.07
575.82	60704.13
575.98	60622.22
576.14	60743.92
576.30	60779.03
576.46	60596.47
576.62	60615.19
576.79	60748.60
576.95	60388.16
577.11	60750.94
577.27	60975.64
577.43	60816.48
577.59	60568.38
577.75	60495.83
577.92	60427.95
578.08	60505.19
578.24	60722.86
578.40	60729.88
578.56	60736.90
578.72	60715.84
578.88	60893.72
579.04	60863.29
579.21	60704.13
579.37	60910.10
579.53	60996.70
579.69	60488.80
579.85	60566.04
580.01	60683.07
580.17	60554.34
580.33	60992.02
580.49	60856.27
580.65	60762.65
580.82	60760.31
580.98	60818.82
581.14	60697.11
581.30	60769.67
581.46	60650.30
581.62	60921.80
581.78	60676.05
581.94	60729.88
582.10	60786.05
582.26	60727.54
582.42	60720.52
582.58	60860.95
582.74	60664.35
582.90	60938.19
583.06	60676.05
583.22	60683.07
583.38	60891.38
583.54	60872.65
583.70	60919.46
583.86	61017.77
584.02	60701.79
584.18	61036.49
584.34	60926.49
584.50	60933.51
584.66	60645.62
584.82	60769.67
584.98	61062.24
585.14	60914.78
585.30	60678.39
585.46	60996.70
585.62	61050.53
585.78	61013.08
585.94	60739.24
586.10	60877.33
586.26	60851.59
586.42	60980.32
586.58	60842.23
586.74	60856.27
586.90	60877.33
587.06	60757.97
587.22	61031.81
587.38	60942.87
587.54	60989.68
587.70	61118.41
587.86	60896.06
588.02	60945.21
588.18	61071.60
588.34	60907.76
588.49	61057.56
