SpectraSuite Data File
++++++++++++++++++++++++++++++++++++
Date: Fri Oct 25 11:22:46 EDT 2013
User: price-jones
Dark Spectrum Present: No
Reference Spectrum Present: No
Number of Sampled Component Spectra: 1
Spectrometers: USB2+H05261
Integration Time (usec): 100000 (USB2+H05261)
Spectra Averaged: 1 (USB2+H05261)
Boxcar Smoothing: 0 (USB2+H05261)
Correct for Electrical Dark: No (USB2+H05261)
Strobe/Lamp Enabled: No (USB2+H05261)
Correct for Detector Non-linearity: No (USB2+H05261)
Correct for Stray Light: No (USB2+H05261)
Number of Pixels in Processed Spectrum: 2048
>>>>>Begin Processed Spectral Data<<<<<
365.73	194.26
365.92	194.26
366.12	194.26
366.32	166.18
366.52	35.11
366.72	154.48
366.91	84.26
367.11	140.43
367.31	91.28
367.51	124.05
367.70	131.07
367.90	74.90
368.10	121.71
368.30	154.48
368.49	114.69
368.69	138.09
368.89	114.69
369.09	161.50
369.28	154.48
369.48	95.96
369.68	208.31
369.87	231.71
370.07	208.31
370.27	215.33
370.47	311.29
370.66	573.43
370.86	685.78
371.06	702.16
371.25	683.44
371.45	650.67
371.65	755.99
371.84	634.29
372.04	622.58
372.24	713.86
372.44	671.73
372.63	723.23
372.83	645.99
373.03	753.65
373.22	692.80
373.42	690.46
373.62	732.59
373.81	779.40
374.01	748.97
374.21	760.67
374.40	777.06
374.60	826.21
374.79	723.23
374.99	854.30
375.19	851.96
375.38	901.11
375.58	844.93
375.78	812.17
375.97	795.78
376.17	877.70
376.37	866.00
376.56	868.34
376.76	866.00
376.95	779.40
377.15	833.23
377.35	854.30
377.54	915.15
377.74	873.02
377.93	861.32
378.13	910.47
378.33	947.92
378.52	924.51
378.72	896.43
378.91	901.11
379.11	898.77
379.31	922.17
379.50	994.73
379.70	1006.43
379.89	1018.13
380.09	1008.77
380.28	938.55
380.48	1004.09
380.68	1018.13
380.87	992.39
381.07	990.05
381.26	1011.11
381.46	987.71
381.65	961.96
381.85	1011.11
382.04	1041.54
382.24	980.68
382.43	999.41
382.63	1050.90
382.83	1086.01
383.02	1046.22
383.22	1146.86
383.41	1053.24
383.61	1064.94
383.80	1137.50
384.00	1032.18
384.19	1100.05
384.39	1196.01
384.58	1196.01
384.78	1100.05
384.97	1149.20
385.17	1151.54
385.36	1118.78
385.56	1102.39
385.75	1118.78
385.95	1261.55
386.14	1137.50
386.34	1217.08
386.53	1165.59
386.72	1214.74
386.92	1275.59
387.11	1317.72
387.31	1186.65
387.50	1233.46
387.70	1249.85
387.89	1266.23
388.09	1247.51
388.28	1259.21
388.48	1313.04
388.67	1315.38
388.86	1313.04
389.06	1301.34
389.25	1299.00
389.45	1357.51
389.64	1324.74
389.84	1434.75
390.03	1343.47
390.22	1371.55
390.42	1399.64
390.61	1387.94
390.81	1460.49
391.00	1357.51
391.19	1530.71
391.39	1488.58
391.58	1392.62
391.78	1376.24
391.97	1444.11
392.16	1376.24
392.36	1514.33
392.55	1465.18
392.75	1439.43
392.94	1458.15
393.13	1483.90
393.33	1495.60
393.52	1504.96
393.71	1666.46
393.91	1589.22
394.10	1633.69
394.29	1509.65
394.49	1540.07
394.68	1547.09
394.88	1561.14
395.07	1624.33
395.26	1659.44
395.46	1511.99
395.65	1673.48
395.84	1884.13
396.04	1781.15
396.23	1729.66
396.42	1687.53
396.62	1830.30
396.81	1689.87
397.00	1778.81
397.19	1781.15
397.39	1849.02
397.58	1867.75
397.77	1734.34
397.97	1900.52
398.16	1863.07
398.35	1863.07
398.55	1863.07
398.74	1879.45
398.93	1820.94
399.12	1907.54
399.32	1849.02
399.51	1823.28
399.70	2031.58
399.90	2001.16
400.09	1998.82
400.28	2106.48
400.47	2033.93
400.67	2101.80
400.86	1987.11
401.05	1994.14
401.24	2036.27
401.44	2024.56
401.63	2169.68
401.82	2200.10
402.01	2143.93
402.21	2202.44
402.40	2172.02
402.59	2305.43
402.78	2157.97
402.97	2251.60
403.17	2214.15
403.36	2310.11
403.55	2242.23
403.74	2331.17
403.93	2305.43
404.13	2333.51
404.32	2307.77
404.51	2366.28
404.70	2495.01
404.89	2293.72
405.09	2537.14
405.28	2448.20
405.47	2450.54
405.66	2436.50
405.85	2382.67
406.05	2576.93
406.24	2490.33
406.43	2427.14
406.62	2567.57
406.81	2668.21
407.00	2523.10
407.20	2588.63
407.39	2616.72
407.58	2665.87
407.77	2672.89
407.96	2853.11
408.15	2754.81
408.34	2752.47
408.54	2836.73
408.73	2642.46
408.92	2705.66
409.11	2888.22
409.30	2956.10
409.49	2864.82
409.68	2876.52
409.87	2848.43
410.07	3019.29
410.26	2958.44
410.45	2974.82
410.64	3009.93
410.83	3082.49
411.02	3183.13
411.21	3204.19
411.40	3073.12
411.59	3295.47
411.78	3171.43
411.98	3236.96
412.17	3229.94
412.36	3389.10
412.55	3349.31
412.74	3466.33
412.93	3349.31
413.12	3386.76
413.31	3620.81
413.50	3445.27
413.69	3618.47
413.88	3538.89
414.07	3339.94
414.26	3630.17
414.45	3716.77
414.64	3625.49
414.83	3777.62
415.02	3747.20
415.22	3896.99
415.41	3810.39
415.60	3943.80
415.79	3829.12
415.98	3908.69
416.17	3889.97
416.36	3953.16
416.55	3955.51
416.74	4091.26
416.93	4049.13
417.12	4145.09
417.31	4133.39
417.50	4189.56
417.69	4348.72
417.88	4198.92
418.07	4329.99
418.26	4313.61
418.45	4369.78
418.64	4461.06
418.83	4304.25
419.02	4432.97
419.21	4664.69
419.39	4514.89
419.58	4479.79
419.77	4461.06
419.96	4493.83
420.15	4575.75
420.34	4594.47
420.53	4641.28
420.72	4655.33
420.91	4777.03
421.10	4631.92
421.29	4767.67
421.48	4706.82
421.67	4762.99
421.86	4664.69
422.05	4805.12
422.24	4910.44
422.43	4863.63
422.61	4816.82
422.80	4865.97
422.99	4882.36
423.18	5013.43
423.37	4978.32
423.56	5107.05
423.75	4896.40
423.94	4816.82
424.13	4571.07
424.32	4809.80
424.50	4952.57
424.69	5041.51
424.88	5015.77
425.07	4844.91
425.26	5062.58
425.45	4931.51
425.64	5006.41
425.83	5032.15
426.01	5001.72
426.20	4924.49
426.39	5128.11
426.58	4992.36
426.77	4917.47
426.96	5153.86
427.15	5011.09
427.33	5195.99
427.52	5020.45
427.71	5240.46
427.90	5277.91
428.09	5207.69
428.28	5392.59
428.46	5390.25
428.65	5338.76
428.84	5549.41
429.03	5526.00
429.22	5282.59
429.40	5516.64
429.59	5413.66
429.78	5439.40
429.97	5219.39
430.16	5472.17
430.34	5671.12
430.53	5717.93
430.72	5858.36
430.91	5706.23
431.10	5893.47
431.28	5701.54
431.47	5692.18
431.66	5785.80
431.85	5783.46
432.03	6003.47
432.22	5989.43
432.41	5947.30
432.60	5956.66
432.79	5884.11
432.97	6010.50
433.16	5994.11
433.35	6031.56
433.54	6092.41
433.72	6129.86
433.91	6171.99
434.10	6312.42
434.28	6101.78
434.47	6232.85
434.66	6258.59
434.85	6155.61
435.03	6244.55
435.22	6286.68
435.41	6459.88
435.59	6373.28
435.78	6502.01
435.97	6368.60
436.16	6420.09
436.34	6443.49
436.53	6429.45
436.72	6733.72
436.90	6553.50
437.09	6445.84
437.28	6546.48
437.46	6651.80
437.65	6675.21
437.84	6562.86
438.02	6766.49
438.21	6843.73
438.40	6656.48
438.58	6817.98
438.77	7042.67
438.96	6899.90
439.14	7084.80
439.33	7260.34
439.52	7178.42
439.70	7201.83
439.89	7330.56
440.08	7318.86
440.26	7330.56
440.45	7426.52
440.63	7346.94
440.82	7541.21
441.01	7665.25
441.19	7726.11
441.38	7639.51
441.57	7740.15
441.75	7779.94
441.94	7999.95
442.12	8126.34
442.31	8138.04
442.50	8116.98
442.68	8128.68
442.87	8060.80
443.05	8278.47
443.24	8208.26
443.43	8154.43
443.61	8095.91
443.80	8727.86
443.98	8166.13
444.17	8025.70
444.35	8341.67
444.54	8348.69
444.73	8266.77
444.91	8147.40
445.10	8304.22
445.28	8454.02
445.47	8346.35
445.65	8086.55
445.84	8402.52
446.02	8308.90
446.21	8423.59
446.39	8402.52
446.58	8411.89
446.77	8439.97
446.95	8262.09
447.14	8734.88
447.32	8568.70
447.51	8491.46
447.69	8528.91
447.88	8484.44
448.06	8531.25
448.25	8542.96
448.43	8587.43
448.62	8652.96
448.80	8458.70
448.99	8571.04
449.17	8788.71
449.36	8674.03
449.54	8924.46
449.73	8849.57
449.91	9006.38
450.10	8835.52
450.28	9221.71
450.46	9268.52
450.65	9046.17
450.83	9025.11
451.02	8999.36
451.20	9310.65
451.39	9142.13
451.57	9233.41
451.76	9224.05
451.94	9050.85
452.13	9488.53
452.31	9390.23
452.49	9312.99
452.68	9242.78
452.86	9432.36
453.05	9535.34
453.23	9645.35
453.42	9451.08
453.60	9497.89
453.78	9542.36
453.97	9563.43
454.15	9554.07
454.34	9324.69
454.52	9837.27
454.70	9652.37
454.89	9874.72
455.07	9893.44
455.26	9865.36
455.44	9853.66
455.62	9891.10
455.81	10012.81
455.99	9991.75
456.17	10097.07
456.36	10202.40
456.54	10216.44
456.73	10321.76
456.91	10242.18
457.09	10450.49
457.28	10260.91
457.46	10483.26
457.64	10225.80
457.83	10649.44
458.01	10450.49
458.19	10647.10
458.38	10476.24
458.56	10757.10
458.74	10530.07
458.93	10506.66
459.11	10626.03
459.29	10518.37
459.48	10731.36
459.66	10759.44
459.84	10963.07
460.03	11119.89
460.21	10949.03
460.39	11126.91
460.57	11037.97
460.76	11110.52
460.94	11318.83
461.12	11176.06
461.31	11119.89
461.49	10963.07
461.67	11424.15
461.85	11239.25
462.04	11215.85
462.22	11819.71
462.40	11726.08
462.59	11693.32
462.77	11473.31
462.95	12009.29
463.13	11735.45
463.32	11707.36
463.50	11716.72
463.68	11709.70
463.86	11810.34
464.05	11590.33
464.23	11609.06
464.41	11927.37
464.59	11779.92
464.78	12360.37
464.96	11880.56
465.14	11882.90
465.32	12116.95
465.50	12163.76
465.69	12255.04
465.87	12135.68
466.05	12212.92
466.23	12013.97
466.41	12400.16
466.60	12264.41
466.78	12217.60
466.96	12334.62
467.14	12058.44
467.32	12489.10
467.51	12599.10
467.69	12088.87
467.87	12477.40
468.05	12540.59
468.23	12432.93
468.41	12486.76
468.60	12566.34
468.78	12657.62
468.96	12608.47
469.14	13020.40
469.32	13029.76
469.50	12489.10
469.69	12931.46
469.87	12901.03
470.05	13221.69
470.23	13020.40
470.41	13099.98
470.59	13315.31
470.77	13385.52
470.95	13420.63
471.14	13446.38
471.32	13200.62
471.50	13298.92
471.68	13465.10
471.86	13703.84
472.04	13738.94
472.22	13933.21
472.40	13647.66
472.58	13940.23
472.77	13907.46
472.95	14153.22
473.13	14745.38
473.31	14260.88
473.49	14174.28
473.67	14279.61
473.85	14129.81
474.03	14415.36
474.21	14806.23
474.39	14782.82
474.57	14710.27
474.75	14836.66
474.93	14963.04
475.12	14801.55
475.30	15080.07
475.48	15440.51
475.66	15276.68
475.84	14998.15
476.02	15494.35
476.20	15234.55
476.38	15950.75
476.56	16093.52
476.74	16037.35
476.92	15859.47
477.10	15646.48
477.28	16116.93
477.46	16219.91
477.64	16278.43
477.82	16498.44
478.00	16987.61
478.18	17081.23
478.36	16938.46
478.54	17240.39
478.72	17085.91
478.90	17383.16
479.08	17767.01
479.26	17788.07
479.44	17537.63
479.62	17968.29
479.80	18033.83
479.98	18038.51
480.16	18675.13
480.34	18312.35
480.52	18380.23
480.70	18602.58
480.88	18225.75
481.06	18445.76
481.24	19161.97
481.41	19253.25
481.59	19323.46
481.77	19421.77
481.95	19461.55
482.13	20086.48
482.31	19763.48
482.49	20669.27
482.67	20168.40
482.85	20304.15
483.03	20463.30
483.21	20800.34
483.39	20603.74
483.57	21013.33
483.74	21205.25
483.92	21383.13
484.10	21310.58
484.28	21678.04
484.46	22218.71
484.64	22593.19
484.82	22026.78
485.00	22565.10
485.18	22696.17
485.35	23077.68
485.53	22977.04
485.71	22941.93
485.89	23569.19
486.07	23379.61
486.25	23686.22
486.43	23501.32
486.61	23995.17
486.78	24175.39
486.96	24177.73
487.14	24526.47
487.32	24439.87
487.50	24936.07
487.68	25144.38
487.85	25235.66
488.03	25703.76
488.21	26218.68
488.39	25788.02
488.57	26155.49
488.75	26153.15
488.92	26906.80
489.10	26595.51
489.28	26843.60
489.46	27646.41
489.64	26881.05
489.81	27859.40
489.99	27857.06
490.17	27749.39
490.35	28322.82
490.53	28566.24
490.70	28491.34
490.88	28273.67
491.06	28872.85
491.24	28884.55
491.41	28828.38
491.59	29156.05
491.77	29322.23
491.95	29771.61
492.13	30054.82
492.30	29916.73
492.48	30033.75
492.66	30216.32
492.84	30574.42
493.01	30941.88
493.19	30799.11
493.37	31119.76
493.54	31409.99
493.72	31644.04
493.90	31189.98
494.08	32006.83
494.25	32013.85
494.43	31779.79
494.61	32577.92
494.79	32091.09
494.96	32650.47
495.14	32814.31
495.32	33095.18
495.49	33572.64
495.67	33205.18
495.85	33209.86
496.02	33640.52
496.20	34277.15
496.38	34106.29
496.55	34157.78
496.73	34876.32
496.91	34602.48
497.09	35007.39
497.26	35435.71
497.44	34803.77
497.62	35524.65
497.79	35892.12
497.97	35756.36
498.14	36079.36
498.32	36690.24
498.50	36168.30
498.67	36610.66
498.85	36435.12
499.03	37383.04
499.20	36907.91
499.38	37015.57
499.56	36788.54
499.73	37406.44
499.91	37298.78
500.08	37919.02
500.26	37830.08
500.44	37689.65
500.61	38206.90
500.79	37689.65
500.97	37909.66
501.14	38686.71
501.32	38937.15
501.49	39033.11
501.67	38962.90
501.84	39381.85
502.02	38831.83
502.20	39285.89
502.37	39023.75
502.55	39470.79
502.72	39763.36
502.90	39440.37
503.07	39641.65
503.25	39845.28
503.43	39789.11
503.60	39899.11
503.78	40502.97
503.95	40439.78
504.13	40570.85
504.30	40730.00
504.48	40912.56
504.65	40950.01
504.83	41357.27
505.01	41516.42
505.18	41631.11
505.36	41823.03
505.53	41319.82
505.71	41511.74
505.88	42131.98
506.06	41605.36
506.23	42256.03
506.41	41794.95
506.58	42124.96
506.76	42497.11
506.93	42621.16
507.11	42387.10
507.28	42494.77
507.46	42777.97
507.63	43077.56
507.81	43445.02
507.98	43042.45
508.16	42906.70
508.33	43686.10
508.50	43723.55
508.68	43648.65
508.85	44009.09
509.03	43973.98
509.20	44418.69
509.38	44301.66
509.55	44582.52
509.73	44692.53
509.90	44580.18
510.08	44638.70
510.25	44818.92
510.42	45137.23
510.60	45109.14
510.77	45352.56
510.95	45382.99
511.12	45172.34
511.30	45921.31
511.47	45710.66
511.64	45591.30
511.82	45958.76
511.99	45792.58
512.17	46260.69
512.34	45972.80
512.51	46337.93
512.69	46143.66
512.86	46990.94
513.04	46473.68
513.21	46904.34
513.38	46770.93
513.56	47033.07
513.73	46689.01
513.90	46801.35
514.08	47239.03
514.25	47515.22
514.43	47775.02
514.60	47667.35
514.77	47150.09
514.95	47812.46
515.12	47473.09
515.29	47913.11
515.47	48126.10
515.64	47852.25
515.81	47566.71
515.99	48360.15
516.16	48306.32
516.33	48598.88
516.51	48725.27
516.68	48542.71
516.85	48493.56
517.03	48898.47
517.20	49279.98
517.37	49062.31
517.54	48968.69
517.72	49113.80
517.89	49354.88
518.06	49202.74
518.24	49375.94
518.41	49191.04
518.58	49317.43
518.75	49329.13
518.93	49633.40
519.10	49418.07
519.27	49588.93
519.45	49975.12
519.62	50148.32
519.79	50071.08
519.96	49900.22
520.14	50253.64
520.31	50389.39
520.48	50576.64
520.65	50309.82
520.83	51065.81
521.00	51049.42
521.17	50571.96
521.34	50644.51
521.52	50562.59
521.69	50841.12
521.86	51250.71
522.03	51192.20
522.20	51320.93
522.38	51655.62
522.55	51618.17
522.72	51421.57
522.89	51774.99
523.07	51789.03
523.24	51863.93
523.41	51770.31
523.58	51351.35
523.75	52030.11
523.92	51980.96
524.10	52238.42
524.27	52086.28
524.44	51744.56
524.61	52039.47
524.78	52135.43
524.96	52491.19
525.13	52458.43
525.30	52823.55
525.47	52540.35
525.64	52526.30
525.81	52767.38
525.98	52739.29
526.16	52734.61
526.33	52809.51
526.50	53174.63
526.67	52921.85
526.84	53008.45
527.01	52727.59
527.18	53069.31
527.36	52975.69
527.53	53242.51
527.70	53448.47
527.87	53492.94
528.04	53216.76
528.21	53310.38
528.38	53375.92
528.55	53717.64
528.72	53352.51
528.89	53790.19
529.07	53214.42
529.24	53289.32
529.41	53691.89
529.58	53895.52
529.75	53656.78
529.92	53708.27
530.09	54122.55
530.26	54157.66
530.43	54115.53
530.60	53820.62
530.77	54078.08
530.94	54372.99
531.11	54307.45
531.28	54267.66
531.46	54192.76
531.63	54464.27
531.80	54253.62
531.97	54466.61
532.14	54693.64
532.31	54691.30
532.48	54660.87
532.65	54862.16
532.82	54202.13
532.99	54801.30
533.16	54686.62
533.33	54873.86
533.50	55238.98
533.67	54955.78
533.84	54759.17
534.01	54960.46
534.18	54813.01
534.35	55253.03
534.52	55203.88
534.69	55173.45
534.86	55274.09
535.03	55159.41
535.20	55444.95
535.37	55276.43
535.54	55517.51
535.71	55473.04
535.88	55580.70
536.05	55604.11
536.22	55716.45
536.38	55737.52
536.55	55414.52
536.72	55760.92
536.89	55735.18
537.06	55688.37
537.23	55880.29
537.40	55753.90
537.57	55906.04
537.74	55826.46
537.91	56231.37
538.08	55971.57
538.25	55980.93
538.42	55744.54
538.59	56144.77
538.75	55891.99
538.92	56470.11
539.09	56151.79
539.26	56322.65
539.43	56142.43
539.60	56254.78
539.77	56112.00
539.94	56589.47
540.11	56617.56
540.28	56467.76
540.44	56453.72
540.61	56498.19
540.78	56633.94
540.95	56502.87
541.12	56556.70
541.29	56229.03
541.46	56638.62
541.62	56713.52
541.79	56875.02
541.96	56287.54
542.13	56659.69
542.30	56842.25
542.47	56839.91
542.63	56933.53
542.80	57022.47
542.97	56994.39
543.14	57235.46
543.31	57303.34
543.48	57256.53
543.64	57528.03
543.81	57556.11
543.98	57340.78
544.15	57457.81
544.32	57432.07
544.48	57733.99
544.65	57631.01
544.82	57638.03
544.99	57565.48
545.16	57593.56
545.32	57399.30
545.49	57703.57
545.66	57939.96
545.83	57535.05
546.00	57771.44
546.16	57822.93
546.33	57698.89
546.50	57565.48
546.67	57792.51
546.83	57549.09
547.00	58028.90
547.17	57925.92
547.34	58089.76
547.50	58085.07
547.67	58181.04
547.84	58035.92
548.00	58117.84
548.17	58342.53
548.34	58241.89
548.51	58450.20
548.67	58166.99
548.84	58302.74
549.01	58218.49
549.18	58246.57
549.34	58396.37
549.51	58335.51
549.68	58375.30
549.84	58375.30
550.01	58361.26
550.18	58305.09
550.34	58445.52
550.51	58499.35
550.68	58564.88
550.84	58494.67
551.01	58548.50
551.18	58742.77
551.34	58688.93
551.51	58614.04
551.68	58450.20
551.84	58550.84
552.01	58307.43
552.18	58850.43
552.34	58679.57
552.51	58897.24
552.68	58712.34
552.84	58773.19
553.01	59040.01
553.18	58768.51
553.34	58892.56
553.51	58742.77
553.67	58719.36
553.84	59161.72
554.01	59243.64
554.17	58997.88
554.34	59243.64
554.51	59360.67
554.67	59119.59
554.84	59082.14
555.00	59278.75
555.17	58981.50
555.33	59147.68
555.50	59089.16
555.67	59112.57
555.83	59009.59
556.00	59189.81
556.16	59650.89
556.33	59440.24
556.50	59428.54
556.66	59299.81
556.83	59304.49
556.99	59494.08
557.16	59512.80
557.32	59700.04
557.49	59557.27
557.65	59601.74
557.82	59489.40
557.98	59330.24
558.15	59634.51
558.32	59662.60
558.48	59358.33
558.65	59674.30
558.81	59568.97
558.98	59662.60
559.14	59723.45
559.31	59920.05
559.47	59718.77
559.64	59997.29
559.80	59730.47
559.97	59833.46
560.13	59526.84
560.30	59751.54
560.46	59716.43
560.63	59812.39
560.79	59688.34
560.96	59957.50
561.12	59948.14
561.29	59732.81
561.45	59985.59
561.61	59884.95
561.78	59917.71
561.94	59751.54
562.11	59861.54
562.27	59936.44
562.44	60055.81
562.60	59913.03
562.77	59781.96
562.93	59917.71
563.10	60259.43
563.26	59966.87
563.42	60346.03
563.59	59983.25
563.75	60065.17
563.92	60114.32
564.08	60076.87
564.24	60273.48
564.41	60065.17
564.57	60317.95
564.74	60259.43
564.90	60451.36
565.07	60259.43
565.23	60191.56
565.39	60299.22
565.56	60271.14
565.72	60186.88
565.88	60329.65
566.05	60292.20
566.21	60544.98
566.38	60416.25
566.54	60364.76
566.70	60308.58
566.87	60378.80
567.03	60257.09
567.19	60760.31
567.36	60619.88
567.52	60259.43
567.68	60570.72
567.85	60500.51
568.01	60481.78
568.17	60357.74
568.34	60580.09
568.50	60446.68
568.66	60425.61
568.83	60549.66
568.99	60474.76
569.15	60449.02
569.32	60509.87
569.48	60411.57
569.64	60654.98
569.81	60540.30
569.97	60430.29
570.13	60687.75
570.30	60526.25
570.46	60659.66
570.62	60708.82
570.78	60612.85
570.95	60654.98
571.11	60760.31
571.27	60608.17
571.43	60676.05
571.60	60671.37
571.76	60636.26
571.92	60725.20
572.09	60650.30
572.25	60577.75
572.41	60673.71
572.57	60788.39
572.74	60697.11
572.90	60671.37
573.06	60697.11
573.22	60647.96
573.38	60860.95
573.55	60786.05
573.71	60975.64
573.87	60715.84
574.03	60603.49
574.20	60666.69
574.36	60603.49
574.52	61050.53
574.68	60896.06
574.84	60774.35
575.01	60947.55
575.17	60654.98
575.33	60664.35
575.49	60832.86
575.65	60935.85
575.82	60970.96
575.98	60889.04
576.14	61193.31
576.30	60886.70
576.46	60753.29
576.62	60753.29
576.79	60711.16
576.95	60619.88
577.11	60968.61
577.27	60884.36
577.43	60776.69
577.59	60652.64
577.75	60970.96
577.92	60584.77
578.08	60982.66
578.24	60949.89
578.40	60987.34
578.56	61113.73
578.72	61160.54
578.88	61186.28
579.04	60900.74
579.21	60919.46
579.37	61069.26
579.53	60926.49
579.69	60921.80
579.85	60870.31
580.01	60945.21
580.17	60837.54
580.33	61202.67
580.49	61209.69
580.65	60961.59
580.82	60933.51
580.98	60870.31
581.14	60931.17
581.30	60900.74
581.46	61010.74
581.62	60891.38
581.78	61001.38
581.94	61099.68
582.10	60921.80
582.26	61181.60
582.42	61069.26
582.58	61001.38
582.74	61015.43
582.90	60975.64
583.06	61120.75
583.22	60898.40
583.38	60968.61
583.54	61132.45
583.70	61113.73
583.86	61132.45
584.02	60870.31
584.18	61256.50
584.34	60949.89
584.50	61071.60
584.66	61190.97
584.82	60804.78
584.98	61188.63
585.14	60865.63
585.30	61151.18
585.46	61036.49
585.62	61087.98
585.78	61237.78
585.94	60914.78
586.10	60917.12
586.26	61123.09
586.42	61315.01
586.58	61109.05
586.74	61090.32
586.90	61148.84
587.06	60954.57
587.22	61158.20
587.38	61092.66
587.54	61132.45
587.70	61293.95
587.86	61258.84
588.02	61141.81
588.18	61282.25
588.34	61197.99
588.49	61275.22
