SpectraSuite Data File
++++++++++++++++++++++++++++++++++++
Date: Fri Oct 25 11:26:17 EDT 2013
User: price-jones
Dark Spectrum Present: No
Reference Spectrum Present: No
Number of Sampled Component Spectra: 1
Spectrometers: USB2+H05261
Integration Time (usec): 100000 (USB2+H05261)
Spectra Averaged: 1 (USB2+H05261)
Boxcar Smoothing: 0 (USB2+H05261)
Correct for Electrical Dark: No (USB2+H05261)
Strobe/Lamp Enabled: No (USB2+H05261)
Correct for Detector Non-linearity: No (USB2+H05261)
Correct for Stray Light: No (USB2+H05261)
Number of Pixels in Processed Spectrum: 2048
>>>>>Begin Processed Spectral Data<<<<<
365.73	210.65
365.92	210.65
366.12	210.65
366.32	98.30
366.52	128.73
366.72	180.22
366.91	152.13
367.11	102.98
367.31	140.43
367.51	177.88
367.70	140.43
367.90	215.33
368.10	107.66
368.30	100.64
368.49	161.50
368.69	119.37
368.89	175.54
369.09	140.43
369.28	182.56
369.48	147.45
369.68	229.37
369.87	163.84
370.07	198.95
370.27	191.92
370.47	355.76
370.66	538.32
370.86	645.99
371.06	615.56
371.25	709.18
371.45	634.29
371.65	678.76
371.84	732.59
372.04	601.52
372.24	667.05
372.44	608.54
372.63	788.76
372.83	688.12
373.03	765.36
373.22	751.31
373.42	709.18
373.62	760.67
373.81	863.66
374.01	744.29
374.21	821.53
374.40	821.53
374.60	926.85
374.79	856.64
374.99	802.80
375.19	795.78
375.38	807.48
375.58	889.40
375.78	870.68
375.97	873.02
376.17	912.81
376.37	823.87
376.56	793.44
376.76	940.90
376.95	931.53
377.15	861.32
377.35	856.64
377.54	898.77
377.74	887.06
377.93	905.79
378.13	912.81
378.33	917.49
378.52	903.45
378.72	936.21
378.91	931.53
379.11	936.21
379.31	952.60
379.50	1036.86
379.70	1018.13
379.89	1020.47
380.09	1004.09
380.28	968.98
380.48	997.07
380.68	1048.56
380.87	933.87
381.07	983.02
381.26	1067.28
381.46	1022.81
381.65	992.39
381.85	1011.11
382.04	1013.45
382.24	1034.52
382.43	999.41
382.63	1053.24
382.83	1093.03
383.02	1093.03
383.22	1132.82
383.41	1076.65
383.61	1128.14
383.80	1060.26
384.00	1128.14
384.19	1203.04
384.39	1174.95
384.58	1104.73
384.78	1086.01
384.97	1228.78
385.17	1097.71
385.36	1210.06
385.56	1146.86
385.75	1146.86
385.95	1078.99
386.14	1184.31
386.34	1280.27
386.53	1299.00
386.72	1203.04
386.92	1191.33
387.11	1254.53
387.31	1259.21
387.50	1263.89
387.70	1245.16
387.89	1315.38
388.09	1299.00
388.28	1228.78
388.48	1310.70
388.67	1341.13
388.86	1376.24
389.06	1306.02
389.25	1345.81
389.45	1387.94
389.64	1455.81
389.84	1451.13
390.03	1432.41
390.22	1376.24
390.42	1434.75
390.61	1423.05
390.81	1322.40
391.00	1355.17
391.19	1446.45
391.39	1373.89
391.58	1462.83
391.78	1460.49
391.97	1490.92
392.16	1394.96
392.36	1451.13
392.55	1462.83
392.75	1462.83
392.94	1533.05
393.13	1558.80
393.33	1542.41
393.52	1455.81
393.71	1542.41
393.91	1551.78
394.10	1519.01
394.29	1533.05
394.49	1671.14
394.68	1636.03
394.88	1603.27
395.07	1666.46
395.26	1685.19
395.46	1612.63
395.65	1692.21
395.84	1661.78
396.04	1720.29
396.23	1727.32
396.42	1790.51
396.62	1720.29
396.81	1689.87
397.00	1788.17
397.19	1816.26
397.39	1767.10
397.58	1909.88
397.77	1762.42
397.97	1865.41
398.16	1771.79
398.35	1900.52
398.55	1832.64
398.74	1886.47
398.93	1989.46
399.12	1888.81
399.32	1912.22
399.51	1919.24
399.70	1998.82
399.90	1923.92
400.09	2143.93
400.28	2026.90
400.47	1973.07
400.67	2036.27
400.86	2111.16
401.05	1980.09
401.24	2047.97
401.44	2120.53
401.63	2064.35
401.82	2122.87
402.01	2181.38
402.21	2108.82
402.40	2190.74
402.59	2190.74
402.78	2139.25
402.97	2235.21
403.17	2279.68
403.36	2277.34
403.55	2342.88
403.74	2352.24
403.93	2354.58
404.13	2375.64
404.32	2284.36
404.51	2277.34
404.70	2321.81
404.89	2408.41
405.09	2394.37
405.28	2424.80
405.47	2413.09
405.66	2396.71
405.85	2534.80
406.05	2562.89
406.24	2546.50
406.43	2546.50
406.62	2567.57
406.81	2700.98
407.00	2492.67
407.20	2450.54
407.39	2616.72
407.58	2736.09
407.77	2846.09
407.96	2668.21
408.15	2722.04
408.34	2675.23
408.54	2782.90
408.73	2787.58
408.92	2820.35
409.11	2956.10
409.30	2925.67
409.49	2984.18
409.68	2874.18
409.87	2911.63
410.07	2972.48
410.26	2958.44
410.45	2984.18
410.64	3012.27
410.83	3045.04
411.02	3019.29
411.21	3187.81
411.40	3112.91
411.59	3272.07
411.78	3068.44
411.98	3234.62
412.17	3269.73
412.36	3260.37
412.55	3351.65
412.74	3286.11
412.93	3396.12
413.12	3365.69
413.31	3487.40
413.50	3466.33
413.69	3433.57
413.88	3517.83
414.07	3499.10
414.26	3513.14
414.45	3574.00
414.64	3695.71
414.83	3693.37
415.02	3669.96
415.22	3833.80
415.41	3868.91
415.60	3852.52
415.79	3854.86
415.98	3997.64
416.17	4030.40
416.36	3885.29
416.55	3864.22
416.74	3974.23
416.93	4093.60
417.12	4105.30
417.31	4168.49
417.50	4194.24
417.69	4306.59
417.88	4257.43
418.07	4117.00
418.26	4191.90
418.45	4203.60
418.64	4425.95
418.83	4243.39
419.02	4383.82
419.21	4533.62
419.39	4566.39
419.58	4444.68
419.77	4498.51
419.96	4526.60
420.15	4482.13
420.34	4550.00
420.53	4468.08
420.72	4528.94
420.91	4610.86
421.10	4709.16
421.29	4826.18
421.48	4709.16
421.67	4723.20
421.86	4737.24
422.05	4798.10
422.24	4720.86
422.43	4835.55
422.61	4725.54
422.80	4999.38
422.99	4858.95
423.18	4793.42
423.37	4933.85
423.56	4870.65
423.75	4964.28
423.94	4880.02
424.13	4617.88
424.32	4908.10
424.50	5027.47
424.69	5100.03
424.88	5034.49
425.07	4844.91
425.26	4861.29
425.45	4971.30
425.64	4929.17
425.83	5100.03
426.01	5149.18
426.20	5011.09
426.39	4975.98
426.58	5071.94
426.77	5043.85
426.96	4990.02
427.15	5132.79
427.33	5167.90
427.52	5135.14
427.71	5212.37
427.90	5039.17
428.09	5259.18
428.28	5266.21
428.46	5228.76
428.65	5277.91
428.84	5420.68
429.03	5556.43
429.22	5469.83
429.40	5455.79
429.59	5554.09
429.78	5200.67
429.97	5191.31
430.16	5430.04
430.34	5514.30
430.53	5518.98
430.72	5628.99
430.91	5547.07
431.10	5582.18
431.28	5769.42
431.47	5643.03
431.66	5685.16
431.85	5813.89
432.03	5696.86
432.22	5926.24
432.41	5954.32
432.60	5928.58
432.79	5912.19
432.97	5792.83
433.16	6085.39
433.35	6019.86
433.54	6090.07
433.72	6050.28
433.91	6043.26
434.10	6019.86
434.28	6106.46
434.47	6108.80
434.66	6190.72
434.85	6279.66
435.03	6387.32
435.22	6251.57
435.41	6303.06
435.59	6422.43
435.78	6356.90
435.97	6431.79
436.16	6274.98
436.34	6314.77
436.53	6289.02
436.72	6525.41
436.90	6459.88
437.09	6679.89
437.28	6399.02
437.46	6595.63
437.65	6558.18
437.84	6562.86
438.02	6752.45
438.21	6839.05
438.40	6696.27
438.58	6937.35
438.77	7019.27
438.96	6738.40
439.14	7084.80
439.33	7232.26
439.52	7201.83
439.70	7159.70
439.89	7335.24
440.08	7150.34
440.26	7375.03
440.45	7368.01
440.63	7419.50
440.82	7480.35
441.01	7440.56
441.19	7562.27
441.38	7648.87
441.57	7634.83
441.75	7698.02
441.94	7899.31
442.12	8025.70
442.31	7990.59
442.50	7999.95
442.68	7861.86
442.87	8109.96
443.05	7929.74
443.24	8238.69
443.43	8152.09
443.61	8013.99
443.80	8304.22
443.98	7939.10
444.17	7852.50
444.35	8198.90
444.54	8285.50
444.73	8182.51
444.91	8168.47
445.10	8173.15
445.28	8386.14
445.47	8245.71
445.65	8212.94
445.84	8351.03
446.02	8322.94
446.21	8276.13
446.39	8320.60
446.58	8367.42
446.77	8320.60
446.95	7918.03
447.14	8264.43
447.32	8575.72
447.51	8613.17
447.69	8409.54
447.88	8358.05
448.06	8369.76
448.25	8486.78
448.43	8383.80
448.62	8498.49
448.80	8435.29
448.99	8751.26
449.17	8681.05
449.36	8655.30
449.54	8833.18
449.73	8896.38
449.91	9020.42
450.10	8889.35
450.28	9130.43
450.46	9200.65
450.65	8896.38
450.83	9034.47
451.02	8884.67
451.20	9057.87
451.39	9163.20
451.57	9158.52
451.76	9034.47
451.94	8940.85
452.13	9329.38
452.31	9233.41
452.49	9055.53
452.68	9348.10
452.86	8966.59
453.05	9481.51
453.23	9298.95
453.42	9387.89
453.60	9441.72
453.78	9713.22
453.97	9385.55
454.15	9533.00
454.34	9423.00
454.52	9870.04
454.70	9507.26
454.89	9745.99
455.07	9870.04
455.26	9816.21
455.44	9818.55
455.62	9778.76
455.81	9727.27
455.99	10076.01
456.17	9963.66
456.36	9998.77
456.54	10296.02
456.73	10232.82
456.91	10511.35
457.09	10450.49
457.28	10586.24
457.46	10396.66
457.64	10506.66
457.83	10450.49
458.01	10333.47
458.19	10761.78
458.38	10602.63
458.56	10626.03
458.74	10579.22
458.93	10724.33
459.11	10682.20
459.29	10607.31
459.48	10764.12
459.66	10705.61
459.84	10792.21
460.03	11023.92
460.21	11080.10
460.39	10846.04
460.57	10977.11
460.76	11035.63
460.94	11145.63
461.12	11021.58
461.31	11288.40
461.49	11218.19
461.67	11187.76
461.85	11157.33
462.04	11267.34
462.22	11477.99
462.40	11536.50
462.59	11609.06
462.77	11442.88
462.95	11548.20
463.13	11496.71
463.32	11599.70
463.50	11712.04
463.68	11810.34
463.86	11517.78
464.05	11548.20
464.23	11714.38
464.41	12053.76
464.59	11831.41
464.78	12049.08
464.96	11777.58
465.14	11632.46
465.32	11850.13
465.50	12126.32
465.69	12035.03
465.87	11981.20
466.05	11960.14
466.23	12102.91
466.41	12233.98
466.60	12358.03
466.78	12016.31
466.96	12259.73
467.14	12070.14
467.32	12311.22
467.51	12374.41
467.69	12135.68
467.87	12367.39
468.05	12610.81
468.23	12088.87
468.41	12453.99
468.60	12329.94
468.78	12870.61
468.96	12681.02
469.14	12776.98
469.32	12959.55
469.50	12423.56
469.69	12877.63
469.87	12971.25
470.05	12924.44
470.23	12931.46
470.41	13081.25
470.59	13156.15
470.77	13181.90
470.95	12968.91
471.14	13322.33
471.32	12999.34
471.50	13315.31
471.68	13451.06
471.86	13500.21
472.04	13664.05
472.22	13757.67
472.40	13619.58
472.58	13743.63
472.77	13846.61
472.95	14251.52
473.13	14408.34
473.31	14038.53
473.49	14059.60
473.67	14026.83
473.85	14200.03
474.03	14558.13
474.21	14574.52
474.39	14853.04
474.57	14499.62
474.75	14724.31
474.93	14892.83
475.12	15110.50
475.30	14937.30
475.48	14923.26
475.66	14881.13
475.84	14834.32
476.02	15070.71
476.20	15307.10
476.38	15379.66
476.56	15896.92
476.74	15786.91
476.92	15662.86
477.10	15772.87
477.28	15953.09
477.46	16301.83
477.64	15803.30
477.82	16435.24
478.00	16706.74
478.18	16505.46
478.36	16690.36
478.54	17188.89
478.72	16994.63
478.90	17261.45
479.08	17511.89
479.26	17397.20
479.44	17568.06
479.62	17741.26
479.80	17797.43
479.98	18012.76
480.16	18293.63
480.34	18216.39
480.52	18515.98
480.70	18532.36
480.88	18513.64
481.06	18530.02
481.24	18602.58
481.41	18850.67
481.59	18906.85
481.77	19569.22
481.95	19384.32
482.13	19850.08
482.31	19335.17
482.49	20032.65
482.67	19871.15
482.85	20079.46
483.03	20533.52
483.21	20402.45
483.39	20819.07
483.57	20500.75
483.74	20774.60
483.92	21371.43
484.10	21259.09
484.28	21591.44
484.46	21916.78
484.64	22059.55
484.82	21745.92
485.00	22141.47
485.18	22551.06
485.35	22436.38
485.53	22462.12
485.71	22726.60
485.89	23449.83
486.07	23388.97
486.25	23447.49
486.43	23569.19
486.61	23644.09
486.78	23552.81
486.96	24123.90
487.14	24472.64
487.32	24484.34
487.50	24781.59
487.68	24577.97
487.85	25095.22
488.03	25041.39
488.21	25514.18
488.39	25383.11
488.57	26167.19
488.75	26134.42
488.92	26008.03
489.10	26555.72
489.28	26101.65
489.46	26874.03
489.64	26862.33
489.81	27105.74
489.99	27377.25
490.17	27630.02
490.35	27660.45
490.53	27828.97
490.70	28086.43
490.88	28184.73
491.06	28577.94
491.24	28706.67
491.41	28774.55
491.59	29020.30
491.77	29181.80
491.95	29113.92
492.13	29521.18
492.30	29762.25
492.48	29977.58
492.66	29907.37
492.84	29785.66
493.01	30176.53
493.19	30403.56
493.37	30775.70
493.54	30703.15
493.72	31372.54
493.90	31232.11
494.08	31461.48
494.25	31768.09
494.43	31709.58
494.61	31910.86
494.79	32435.14
494.96	32205.77
495.14	32617.71
495.32	32931.34
495.49	32898.57
495.67	32781.54
495.85	33022.62
496.02	33432.21
496.20	33488.38
496.38	33392.42
496.55	33792.65
496.73	34670.36
496.91	34305.23
497.09	34497.16
497.26	34663.33
497.44	34703.12
497.62	35222.72
497.79	35232.08
497.97	34876.32
498.14	35653.38
498.32	35747.00
498.50	35833.60
498.67	36226.81
498.85	36708.96
499.03	36070.00
499.20	36470.23
499.38	36409.37
499.56	36870.46
499.73	36779.18
499.91	37099.83
500.08	37053.02
500.26	37165.37
500.44	37336.23
500.61	37404.10
500.79	37776.25
500.97	38036.05
501.14	38476.07
501.32	38204.56
501.49	38469.04
501.67	38607.14
501.84	38375.42
502.02	38712.46
502.20	38473.73
502.37	39108.01
502.55	38782.68
502.72	39459.09
502.90	39100.99
503.07	39309.30
503.25	39880.39
503.43	39150.14
503.60	39821.87
503.78	39906.13
503.95	39793.79
504.13	40273.60
504.30	40369.56
504.48	39737.62
504.65	40076.99
504.83	40687.87
505.01	40669.15
505.18	41249.60
505.36	41340.88
505.53	41027.25
505.71	41010.87
505.88	41478.97
506.06	41280.03
506.23	41958.78
506.41	41383.01
506.58	41926.02
506.76	42094.53
506.93	42115.60
507.11	42052.41
507.28	41979.85
507.46	42305.18
507.63	42349.65
507.81	42784.99
507.98	42487.74
508.16	42485.40
508.33	42829.46
508.50	42878.61
508.68	43112.67
508.85	43524.60
509.03	43438.00
509.20	44006.75
509.38	43889.73
509.55	44018.46
509.73	43971.64
509.90	44320.38
510.08	44397.62
510.25	44170.59
510.42	44418.69
510.60	44598.91
510.77	44940.63
510.95	45371.28
511.12	44715.93
511.30	44797.85
511.47	44898.50
511.64	44856.37
511.82	45703.64
511.99	45380.65
512.17	45656.83
512.34	45305.75
512.51	46110.89
512.69	46138.98
512.86	46143.66
513.04	46045.36
513.21	46368.35
513.38	46316.86
513.56	46424.53
513.73	46522.83
513.90	46674.96
514.08	46520.49
514.25	47110.30
514.43	47185.20
514.60	47107.96
514.77	47430.96
514.95	47295.21
515.12	47423.93
515.29	47150.09
515.47	47136.05
515.64	47831.19
515.81	47597.13
515.99	47955.24
516.16	47952.90
516.33	48205.67
516.51	48186.95
516.68	47927.15
516.85	48292.27
517.03	48882.09
517.20	48718.25
517.37	48575.48
517.54	48676.12
517.72	48568.46
517.89	48725.27
518.06	48973.37
518.24	48332.06
518.41	48725.27
518.58	49191.04
518.75	48928.90
518.93	49317.43
519.10	49366.58
519.27	49397.01
519.45	49415.73
519.62	49282.32
519.79	49698.94
519.96	49890.86
520.14	49961.08
520.31	49467.22
520.48	49968.10
520.65	50052.36
520.83	50092.15
521.00	50560.25
521.17	50361.31
521.34	50515.78
521.52	50412.80
521.69	50431.52
521.86	50536.85
522.03	50932.40
522.20	51363.06
522.38	50789.62
522.55	51461.36
522.72	51222.62
522.89	50876.22
523.07	51295.18
523.24	50887.93
523.41	51365.40
523.58	51070.49
523.75	52034.79
523.92	51604.13
524.10	51599.45
524.27	51655.62
524.44	51636.90
524.61	51920.10
524.78	51679.03
524.96	51838.18
525.13	52053.51
525.30	51903.72
525.47	52079.26
525.64	52299.27
525.81	52437.36
525.98	52416.30
526.16	52306.29
526.33	52505.24
526.50	52577.79
526.67	52306.29
526.84	52650.35
527.01	52673.76
527.18	52711.20
527.36	52528.64
527.53	52683.12
527.70	53338.47
527.87	53022.50
528.04	52952.28
528.21	52982.71
528.38	53130.16
528.55	53364.21
528.72	53027.18
528.89	53481.24
529.07	52996.75
529.24	53261.23
529.41	53364.21
529.58	53446.13
529.75	53638.06
529.92	53310.38
530.09	53265.91
530.26	53432.09
530.43	53535.07
530.60	53399.32
530.77	53687.21
530.94	53991.48
531.11	53710.61
531.28	54136.59
531.46	54031.27
531.63	53968.07
531.80	53827.64
531.97	54174.04
532.14	54169.36
532.31	54059.35
532.48	54267.66
532.65	54307.45
532.82	54052.33
532.99	54457.24
533.16	54188.08
533.33	54550.87
533.50	54801.30
533.67	54548.53
533.84	54745.13
534.01	54782.58
534.18	54649.17
534.35	54878.54
534.52	54719.38
534.69	54843.43
534.86	55215.58
535.03	54628.10
535.20	55025.99
535.37	54948.76
535.54	55248.35
535.71	55021.31
535.88	55360.69
536.05	55002.59
536.22	55559.64
536.38	55098.55
536.55	55217.92
536.72	55246.00
536.89	55121.96
537.06	55407.50
537.23	55419.20
537.40	55339.63
537.57	55561.98
537.74	55515.17
537.91	55620.49
538.08	55814.76
538.25	55517.51
538.42	55793.69
538.59	55999.66
538.75	55625.17
538.92	55910.72
539.09	56126.05
539.26	56048.81
539.43	56032.42
539.60	56023.06
539.77	55920.08
539.94	56332.01
540.11	56266.48
540.28	56137.75
540.44	56172.86
540.61	56006.68
540.78	56346.06
540.95	56137.75
541.12	55973.91
541.29	56343.72
541.46	56437.34
541.62	56467.76
541.79	56388.19
541.96	56285.20
542.13	56280.52
542.30	56652.67
542.47	56540.32
542.63	56598.83
542.80	56332.01
542.97	56882.04
543.14	56884.38
543.31	57153.54
543.48	56954.60
543.64	57279.93
543.81	57125.46
543.98	57151.20
544.15	57134.82
544.32	57127.80
544.48	57286.95
544.65	57249.50
544.82	57263.55
544.99	57186.31
545.16	57240.14
545.32	57172.27
545.49	57439.09
545.66	57570.16
545.83	57443.77
546.00	57350.15
546.16	57577.18
546.33	57247.16
546.50	57265.89
546.67	57485.90
546.83	57160.56
547.00	57469.51
547.17	57476.54
547.34	57670.80
547.50	57731.65
547.67	58038.26
547.84	57829.96
548.00	57710.59
548.17	57923.58
548.34	57811.23
548.51	57963.37
548.67	57778.46
548.84	58068.69
549.01	57876.77
549.18	58122.52
549.34	58042.95
549.51	58150.61
549.68	58099.12
549.84	58056.99
550.01	58225.51
550.18	58010.18
550.34	58312.11
550.51	58478.28
550.68	58169.33
550.84	58113.16
551.01	58379.98
551.18	58319.13
551.34	58335.51
551.51	58454.88
551.68	58358.92
551.84	58288.70
552.01	58342.53
552.18	58424.45
552.34	58326.15
552.51	58344.87
552.68	58155.29
552.84	58571.91
553.01	58557.86
553.18	58504.03
553.34	58815.32
553.51	58548.50
553.67	58745.11
553.84	58677.23
554.01	58805.96
554.17	58801.28
554.34	58784.90
554.51	58880.86
554.67	58803.62
554.84	58995.54
555.00	58745.11
555.17	58972.14
555.33	58827.02
555.50	59009.59
555.67	58770.85
555.83	58796.60
556.00	58740.42
556.16	59103.21
556.33	59114.91
556.50	59000.22
556.66	58962.78
556.83	58836.39
556.99	59150.02
557.16	59241.30
557.32	59189.81
557.49	59384.07
557.65	59112.57
557.82	59274.07
557.98	59260.02
558.15	59079.80
558.32	59264.70
558.48	59360.67
558.65	59245.98
558.81	59346.62
558.98	59107.89
559.14	59355.99
559.31	59477.69
559.47	59559.61
559.64	59693.02
559.80	59543.23
559.97	59412.16
560.13	59295.13
560.30	59470.67
560.46	59737.49
560.63	59538.55
560.79	59601.74
560.96	59461.31
561.12	59625.15
561.29	59599.40
561.45	59566.63
561.61	59618.13
561.78	59543.23
561.94	59564.29
562.11	59709.41
562.27	59767.92
562.44	59709.41
562.60	59873.24
562.77	59898.99
562.93	59676.64
563.10	59924.74
563.26	59531.53
563.42	59866.22
563.59	59812.39
563.75	59695.36
563.92	59842.82
564.08	59625.15
564.24	59798.35
564.41	59896.65
564.57	59877.93
564.74	59882.61
564.90	60207.94
565.07	59845.16
565.23	59828.77
565.39	59861.54
565.56	59798.35
565.72	59966.87
565.88	59845.16
566.05	59791.33
566.21	60219.64
566.38	60051.12
566.54	59987.93
566.70	60184.54
566.87	60109.64
567.03	60018.36
567.19	60198.58
567.36	60004.31
567.52	60102.62
567.68	60231.35
567.85	60027.72
568.01	60217.30
568.17	59973.89
568.34	60423.27
568.50	60116.66
568.66	60217.30
568.83	60411.57
568.99	59964.52
569.15	60182.19
569.32	60310.92
569.48	60116.66
569.64	60308.58
569.81	60177.51
569.97	60114.32
570.13	60137.72
570.30	60076.87
570.46	60240.71
570.62	60402.21
570.78	60381.14
570.95	60367.10
571.11	60383.48
571.27	60362.42
571.43	60296.88
571.60	60397.52
571.76	60324.97
571.92	60346.03
572.09	60514.55
572.25	60289.86
572.41	60406.89
572.57	60432.63
572.74	60582.43
572.90	60481.78
573.06	60491.15
573.22	60549.66
573.38	60493.49
573.55	60416.25
573.71	60694.77
573.87	60470.08
574.03	60299.22
574.20	60467.74
574.36	60470.08
574.52	60741.58
574.68	60566.04
574.84	60615.19
575.01	60729.88
575.17	60687.75
575.33	60353.05
575.49	60427.95
575.65	60647.96
575.82	60774.35
575.98	60612.85
576.14	60734.56
576.30	60610.51
576.46	60505.19
576.62	60498.17
576.79	60465.40
576.95	60631.58
577.11	60552.00
577.27	60619.88
577.43	60741.58
577.59	60638.60
577.75	60720.52
577.92	60594.13
578.08	60528.59
578.24	60603.49
578.40	60722.86
578.56	60779.03
578.72	60610.51
578.88	60673.71
579.04	60788.39
579.21	60589.45
579.37	60800.10
579.53	60743.92
579.69	60491.15
579.85	60772.01
580.01	60587.11
580.17	60570.72
580.33	60725.20
580.49	60753.29
580.65	60727.54
580.82	60594.13
580.98	60732.22
581.14	60669.03
581.30	60772.01
581.46	60884.36
581.62	60582.43
581.78	60575.40
581.94	60797.76
582.10	60624.56
582.26	60521.57
582.42	60640.94
582.58	60779.03
582.74	60807.12
582.90	60755.63
583.06	60860.95
583.22	60633.92
583.38	60739.24
583.54	60643.28
583.70	60914.78
583.86	60828.18
584.02	60636.26
584.18	60830.52
584.34	60755.63
584.50	60823.50
584.66	60844.57
584.82	60612.85
584.98	60823.50
585.14	61076.28
585.30	60687.75
585.46	60743.92
585.62	60886.70
585.78	60975.64
585.94	60762.65
586.10	60718.18
586.26	60931.17
586.42	60921.80
586.58	60814.14
586.74	60760.31
586.90	60919.46
587.06	60729.88
587.22	61036.49
587.38	60926.49
587.54	60891.38
587.70	61031.81
587.86	60804.78
588.02	60938.19
588.18	61268.20
588.34	60673.71
588.49	61052.87
