SpectraSuite Data File
++++++++++++++++++++++++++++++++++++
Date: Fri Oct 25 10:44:47 EDT 2013
User: price-jones
Dark Spectrum Present: No
Reference Spectrum Present: No
Number of Sampled Component Spectra: 1
Spectrometers: USB2+H05261
Integration Time (usec): 100000 (USB2+H05261)
Spectra Averaged: 1 (USB2+H05261)
Boxcar Smoothing: 0 (USB2+H05261)
Correct for Electrical Dark: No (USB2+H05261)
Strobe/Lamp Enabled: No (USB2+H05261)
Correct for Detector Non-linearity: No (USB2+H05261)
Correct for Stray Light: No (USB2+H05261)
Number of Pixels in Processed Spectrum: 2048
>>>>>Begin Processed Spectral Data<<<<<
365.73	100.64
365.92	100.64
366.12	100.64
366.32	37.45
366.52	44.47
366.72	0.00
366.91	0.00
367.11	7.02
367.31	0.00
367.51	0.00
367.70	23.41
367.90	0.00
368.10	70.22
368.30	11.70
368.49	7.02
368.69	74.90
368.89	18.72
369.09	74.90
369.28	60.85
369.48	25.75
369.68	42.13
369.87	93.62
370.07	88.94
370.27	65.54
370.47	95.96
370.66	369.80
370.86	393.21
371.06	468.11
371.25	507.90
371.45	414.27
371.65	454.06
371.84	470.45
372.04	416.62
372.24	430.66
372.44	381.51
372.63	472.79
372.83	500.87
373.03	475.13
373.22	528.96
373.42	498.53
373.62	528.96
373.81	503.22
374.01	510.24
374.21	493.85
374.40	409.59
374.60	552.37
374.79	608.54
374.99	559.39
375.19	491.51
375.38	493.85
375.58	465.77
375.78	496.19
375.97	463.43
376.17	540.66
376.37	526.62
376.56	653.01
376.76	554.71
376.95	636.63
377.15	638.97
377.35	617.90
377.54	641.31
377.74	610.88
377.93	564.07
378.13	664.71
378.33	596.84
378.52	641.31
378.72	596.84
378.91	688.12
379.11	580.45
379.31	538.32
379.50	594.50
379.70	634.29
379.89	697.48
380.09	660.03
380.28	645.99
380.48	709.18
380.68	681.10
380.87	596.84
381.07	643.65
381.26	643.65
381.46	683.44
381.65	650.67
381.85	676.41
382.04	603.86
382.24	629.60
382.43	631.94
382.63	620.24
382.83	718.54
383.02	741.95
383.22	720.88
383.41	688.12
383.61	723.23
383.80	748.97
384.00	674.07
384.19	784.08
384.39	667.05
384.58	678.76
384.78	751.31
384.97	739.61
385.17	767.70
385.36	807.48
385.56	770.04
385.75	828.55
385.95	751.31
386.14	718.54
386.34	737.27
386.53	826.21
386.72	816.85
386.92	896.43
387.11	819.19
387.31	765.36
387.50	727.91
387.70	823.87
387.89	816.85
388.09	917.49
388.28	793.44
388.48	924.51
388.67	889.40
388.86	842.59
389.06	870.68
389.25	866.00
389.45	943.24
389.64	856.64
389.84	959.62
390.03	889.40
390.22	922.17
390.42	908.13
390.61	901.11
390.81	971.32
391.00	833.23
391.19	987.71
391.39	959.62
391.58	947.92
391.78	940.90
391.97	912.81
392.16	961.96
392.36	1060.26
392.55	875.36
392.75	966.64
392.94	945.58
393.13	971.32
393.33	924.51
393.52	849.61
393.71	1139.84
393.91	1001.75
394.10	1039.20
394.29	1015.79
394.49	1034.52
394.68	1050.90
394.88	1165.59
395.07	1177.29
395.26	1177.29
395.46	1083.67
395.65	1219.42
395.84	1104.73
396.04	1196.01
396.23	1048.56
396.42	1064.94
396.62	1109.41
396.81	1142.18
397.00	1114.10
397.19	1137.50
397.39	1158.57
397.58	1296.66
397.77	1322.40
397.97	1280.27
398.16	1320.06
398.35	1270.91
398.55	1336.45
398.74	1266.23
398.93	1434.75
399.12	1277.93
399.32	1352.83
399.51	1334.11
399.70	1362.19
399.90	1313.04
400.09	1399.64
400.28	1427.73
400.47	1387.94
400.67	1575.18
400.86	1432.41
401.05	1378.58
401.24	1423.05
401.44	1465.18
401.63	1483.90
401.82	1528.37
402.01	1514.33
402.21	1629.01
402.40	1568.16
402.59	1614.97
402.78	1521.35
402.97	1509.65
403.17	1507.30
403.36	1537.73
403.55	1650.08
403.74	1673.48
403.93	1657.10
404.13	1664.12
404.32	1638.38
404.51	1659.44
404.70	1720.29
404.89	1710.93
405.09	1757.74
405.28	1741.36
405.47	1713.27
405.66	1741.36
405.85	1767.10
406.05	1818.60
406.24	1863.07
406.43	1771.79
406.62	1856.04
406.81	1867.75
407.00	1799.87
407.20	1771.79
407.39	1797.53
407.58	1884.13
407.77	1966.05
407.96	1888.81
408.15	1980.09
408.34	1982.43
408.54	2026.90
408.73	2017.54
408.92	2059.67
409.11	2029.24
409.30	2010.52
409.49	2127.55
409.68	2019.88
409.87	2064.35
410.07	2097.12
410.26	2076.06
410.45	2134.57
410.64	2115.84
410.83	2204.78
411.02	2265.64
411.21	2328.83
411.40	2307.77
411.59	2349.90
411.78	2441.18
411.98	2275.00
412.17	2293.72
412.36	2333.51
412.55	2389.69
412.74	2459.90
412.93	2574.59
413.12	2448.20
413.31	2497.35
413.50	2593.31
413.69	2605.02
413.88	2567.57
414.07	2530.12
414.26	2600.34
414.45	2658.85
414.64	2661.19
414.83	2792.26
415.02	2796.94
415.22	2745.45
415.41	2808.64
415.60	2808.64
415.79	2913.97
415.98	2944.39
416.17	2995.89
416.36	2906.95
416.55	2953.76
416.74	2944.39
416.93	2874.18
417.12	2981.84
417.31	2958.44
417.50	3000.57
417.69	3052.06
417.88	2967.80
418.07	3136.32
418.26	3098.87
418.45	3056.74
418.64	3108.23
418.83	3246.32
419.02	3143.34
419.21	3171.43
419.39	3211.22
419.58	3091.85
419.77	3227.60
419.96	3222.92
420.15	3255.69
420.34	3274.41
420.53	3234.62
420.72	3353.99
420.91	3330.58
421.10	3368.03
421.29	3421.86
421.48	3358.67
421.67	3557.61
421.86	3375.05
422.05	3440.59
422.24	3384.41
422.43	3653.58
422.61	3323.56
422.80	3421.86
422.99	3447.61
423.18	3449.95
423.37	3620.81
423.56	3585.70
423.75	3508.46
423.94	3482.72
424.13	3201.85
424.32	3370.37
424.50	3571.66
424.69	3606.77
424.88	3786.99
425.07	3419.52
425.26	3431.23
425.45	3545.91
425.64	3545.91
425.83	3646.55
426.01	3662.94
426.20	3637.19
426.39	3669.96
426.58	3487.40
426.77	3648.90
426.96	3744.86
427.15	3674.64
427.33	3705.07
427.52	3744.86
427.71	3688.68
427.90	3737.84
428.09	3707.41
428.28	3838.48
428.46	3728.47
428.65	3726.13
428.84	3868.91
429.03	3852.52
429.22	3754.22
429.40	3817.41
429.59	3831.46
429.78	3688.68
429.97	3606.77
430.16	3742.52
430.34	3646.55
430.53	3913.38
430.72	3866.56
430.91	3875.93
431.10	3964.87
431.28	4152.11
431.47	4067.85
431.66	4205.94
431.85	4007.00
432.03	4175.52
432.22	4189.56
432.41	4156.79
432.60	4210.62
432.79	4203.60
432.97	4348.72
433.16	4376.80
433.35	4241.05
433.54	4273.82
433.72	4318.29
433.91	4243.39
434.10	4449.36
434.28	4435.32
434.47	4353.40
434.66	4580.43
434.85	4479.79
435.03	4542.98
435.22	4456.38
435.41	4566.39
435.59	4685.75
435.78	4685.75
435.97	4510.21
436.16	4550.00
436.34	4720.86
436.53	4674.05
436.72	4566.39
436.90	4636.60
437.09	4699.80
437.28	4599.15
437.46	4643.62
437.65	4746.61
437.84	4695.11
438.02	4648.30
438.21	4760.65
438.40	4671.71
438.58	4830.87
438.77	4933.85
438.96	4777.03
439.14	5004.07
439.33	5053.22
439.52	5125.77
439.70	5095.35
439.89	4992.36
440.08	5111.73
440.26	5193.65
440.45	5132.79
440.63	5322.38
440.82	5376.21
441.01	5380.89
441.19	5404.30
441.38	5544.73
441.57	5472.17
441.75	5427.70
441.94	5603.24
442.12	5717.93
442.31	5699.20
442.50	5500.26
442.68	5652.39
442.87	5687.50
443.05	5778.78
443.24	5785.80
443.43	5638.35
443.61	5823.25
443.80	5975.39
443.98	5748.36
444.17	5511.96
444.35	5797.51
444.54	5966.03
444.73	5846.66
444.91	5760.06
445.10	5905.17
445.28	5743.67
445.47	5774.10
445.65	5776.44
445.84	5891.13
446.02	6024.54
446.21	5926.24
446.39	5717.93
446.58	6033.90
446.77	6059.65
446.95	5851.34
447.14	6087.73
447.32	6087.73
447.51	5930.92
447.69	5935.60
447.88	6069.01
448.06	6066.67
448.25	6157.95
448.43	6031.56
448.62	6031.56
448.80	6008.16
448.99	5909.85
449.17	6190.72
449.36	6197.74
449.54	6221.14
449.73	6502.01
449.91	6408.39
450.10	6427.11
450.28	6466.90
450.46	6431.79
450.65	6380.30
450.83	6431.79
451.02	6382.64
451.20	6471.58
451.39	6628.40
451.57	6384.98
451.76	6361.58
451.94	6480.94
452.13	6562.86
452.31	6368.60
452.49	6410.73
452.68	6338.17
452.86	6502.01
453.05	6715.00
453.23	6595.63
453.42	6516.05
453.60	6740.74
453.78	6801.60
453.97	6740.74
454.15	6516.05
454.34	6581.59
454.52	6736.06
454.70	6822.66
454.89	6778.19
455.07	6829.68
455.26	6766.49
455.44	6860.11
455.62	6963.09
455.81	7136.29
455.99	7124.59
456.17	7068.42
456.36	7009.90
456.54	7155.02
456.73	7148.00
456.91	7258.00
457.09	7304.81
457.28	7384.39
457.46	7274.38
457.64	7391.41
457.83	7330.56
458.01	7227.57
458.19	7548.23
458.38	7473.33
458.56	7557.59
458.74	7573.97
458.93	7541.21
459.11	7293.11
459.29	7428.86
459.48	7520.14
459.66	7541.21
459.84	7658.23
460.03	7775.26
460.21	7578.65
460.39	7634.83
460.57	7801.01
460.76	7950.80
460.94	7672.28
461.12	7740.15
461.31	7782.28
461.49	7693.34
461.67	7700.36
461.85	8053.78
462.04	7737.81
462.22	7943.78
462.40	8084.21
462.59	7901.65
462.77	8070.17
462.95	8039.74
463.13	8002.29
463.32	8112.30
463.50	8109.96
463.68	8011.65
463.86	8114.64
464.05	8145.06
464.23	8009.31
464.41	8191.88
464.59	8009.31
464.78	8383.80
464.96	8367.42
465.14	8145.06
465.32	8470.40
465.50	8528.91
465.69	8311.24
465.87	8367.42
466.05	8407.20
466.23	8407.20
466.41	8262.09
466.60	8613.17
466.78	8301.88
466.96	8271.45
467.14	8542.96
467.32	8676.37
467.51	8542.96
467.69	8327.63
467.87	8667.00
468.05	8620.19
468.23	8538.27
468.41	8580.40
468.60	8454.02
468.78	8695.09
468.96	8528.91
469.14	8940.85
469.32	8877.65
469.50	8655.30
469.69	8830.84
469.87	8938.51
470.05	9085.96
470.23	9013.40
470.41	8931.48
470.59	9149.15
470.77	9048.51
470.95	9004.04
471.14	9198.31
471.32	9219.37
471.50	9282.56
471.68	9439.38
471.86	9303.63
472.04	9444.06
472.22	9652.37
472.40	9425.34
472.58	9420.66
472.77	9600.88
472.95	9708.54
473.13	9767.06
473.31	9423.00
473.49	9572.79
473.67	9558.75
473.85	9792.80
474.03	9867.70
474.21	10162.61
474.39	10066.64
474.57	10001.11
474.75	10113.45
474.93	10256.23
475.12	10239.84
475.30	10370.91
475.48	10153.24
475.66	10321.76
475.84	10178.99
476.02	10251.55
476.20	10740.72
476.38	10714.97
476.56	10714.97
476.74	10932.64
476.92	10703.27
477.10	10630.71
477.28	11117.54
477.46	10960.73
477.64	11075.42
477.82	11311.81
478.00	11482.67
478.18	11262.66
478.36	11543.52
478.54	11438.20
478.72	11356.28
478.90	11826.73
479.08	11894.60
479.26	12063.12
479.44	11871.20
479.62	11758.85
479.80	11875.88
479.98	12365.05
480.16	12533.57
480.34	12498.46
480.52	12669.32
480.70	12552.29
480.88	12402.50
481.06	12587.40
481.24	12671.66
481.41	12950.18
481.59	13153.81
481.77	13221.69
481.95	13074.23
482.13	13355.10
482.31	13305.95
482.49	13788.10
482.67	13811.50
482.85	13659.37
483.03	13855.97
483.21	14033.85
483.39	14036.19
483.57	13930.87
483.74	14246.84
483.92	14340.46
484.10	14073.64
484.28	14281.95
484.46	14899.85
484.64	14768.78
484.82	14850.70
485.00	15009.86
485.18	14754.74
485.35	15094.11
485.53	14951.34
485.71	14721.97
485.89	15346.89
486.07	15400.72
486.25	15520.09
486.43	15604.35
486.61	15646.48
486.78	15850.11
486.96	15859.47
487.14	16332.26
487.32	16248.00
487.50	16709.08
487.68	16341.62
487.85	16940.80
488.03	17041.44
488.21	17071.87
488.39	16912.71
488.57	17348.05
488.75	17427.63
488.92	17486.14
489.10	17727.22
489.28	18036.17
489.46	17865.31
489.64	17998.72
489.81	18796.84
489.99	18558.11
490.17	18466.83
490.35	18829.61
490.53	18609.60
490.70	18679.82
490.88	18668.11
491.06	19414.74
491.24	19255.59
491.41	18993.45
491.59	19197.07
491.77	19330.48
491.95	19321.12
492.13	19648.80
492.30	19838.38
492.48	19836.04
492.66	19955.41
492.84	20084.14
493.01	20081.80
493.19	19836.04
493.37	20425.86
493.54	20482.03
493.72	21055.46
493.90	20519.48
494.08	20912.69
494.25	21411.22
494.43	21128.02
494.61	21518.89
494.79	21268.45
494.96	21441.65
495.14	21439.31
495.32	21656.98
495.49	22005.72
495.67	21937.84
495.85	22106.36
496.02	22162.53
496.20	22162.53
496.38	22794.48
496.55	22761.71
496.73	23084.70
496.91	23147.90
497.09	22810.86
497.26	22986.40
497.44	22974.70
497.62	23384.29
497.79	23410.04
497.97	23288.33
498.14	23440.47
498.32	23709.63
498.50	23782.18
498.67	24156.67
498.85	24067.73
499.03	24425.83
499.20	23992.83
499.38	24416.47
499.56	24140.29
499.73	24360.30
499.91	24472.64
500.08	24556.90
500.26	24519.45
500.44	24664.57
500.61	24711.38
500.79	24931.39
500.97	24425.83
501.14	25518.86
501.32	25287.15
501.49	25458.01
501.67	25516.52
501.84	25343.32
502.02	25383.11
502.20	25745.89
502.37	25605.46
502.55	25741.21
502.72	25942.50
502.90	26141.44
503.07	25832.49
503.25	25844.20
503.43	25886.32
503.60	26047.82
503.78	26438.69
503.95	26169.53
504.13	26202.30
504.30	26661.04
504.48	26410.60
504.65	26562.74
504.83	27077.66
505.01	27091.70
505.18	26691.47
505.36	26888.07
505.53	26960.63
505.71	27264.90
505.88	27522.36
506.06	27267.24
506.23	27651.09
506.41	27297.67
506.58	27410.01
506.76	27707.26
506.93	27758.75
507.11	27995.15
507.28	27810.25
507.46	27625.34
507.63	28137.92
507.81	28081.75
507.98	28226.86
508.16	28294.74
508.33	28697.31
508.50	28652.84
508.68	28589.64
508.85	28664.54
509.03	28687.95
509.20	29013.28
509.38	28823.70
509.55	28891.57
509.73	29022.64
509.90	28903.28
510.08	29294.14
510.25	29500.11
510.42	29242.65
510.60	29425.22
510.77	29474.37
510.95	29996.31
511.12	29546.92
511.30	29883.96
511.47	30019.71
511.64	30342.70
511.82	29947.15
511.99	29773.95
512.17	30326.32
512.34	30211.64
512.51	30487.82
512.69	30478.46
512.86	30892.73
513.04	30499.52
513.21	30501.86
513.38	30558.03
513.56	30813.15
513.73	30806.13
513.90	30986.35
514.08	30548.67
514.25	30897.41
514.43	30864.64
514.60	30897.41
514.77	31227.43
514.95	31634.68
515.12	31281.26
515.29	31168.91
515.47	31651.06
515.64	31562.12
515.81	31601.91
515.99	31199.34
516.16	31740.00
516.33	31503.61
516.51	31838.31
516.68	31496.59
516.85	31714.26
517.03	31936.61
517.20	32135.56
517.37	32428.12
517.54	32673.88
517.72	32079.38
517.89	32084.06
518.06	31859.37
518.24	32149.60
518.41	32219.81
518.58	32397.70
518.75	32308.76
518.93	32493.66
519.10	32493.66
519.27	32620.05
519.45	32641.11
519.62	33151.35
519.79	33057.73
519.96	33345.61
520.14	33195.82
520.31	33184.12
520.48	33254.33
520.65	33078.79
520.83	33839.47
521.00	34057.14
521.17	33715.42
521.34	33268.37
521.52	33624.14
521.69	33724.78
521.86	34274.80
522.03	33773.93
522.20	33970.54
522.38	34146.08
522.55	34370.77
522.72	34157.78
522.89	34066.50
523.07	34335.66
523.24	34036.07
523.41	34429.28
523.58	34195.23
523.75	35091.65
523.92	34831.85
524.10	35065.91
524.27	35112.72
524.44	35037.82
524.61	35051.86
524.78	35543.38
524.96	35402.94
525.13	35173.57
525.30	35381.88
525.47	35077.61
525.64	35571.46
525.81	35615.93
525.98	35449.75
526.16	35667.42
526.33	35271.87
526.50	35562.10
526.67	35381.88
526.84	35543.38
527.01	35620.61
527.18	35798.49
527.36	35952.97
527.53	36240.86
527.70	36360.22
527.87	36767.48
528.04	36142.55
528.21	36058.29
528.38	36126.17
528.55	36559.17
528.72	36701.94
528.89	36692.58
529.07	36648.11
529.24	35873.39
529.41	36542.78
529.58	36217.45
529.75	36737.05
529.92	37127.92
530.09	36755.77
530.26	36947.70
530.43	37198.13
530.60	36741.73
530.77	36884.50
530.94	36919.61
531.11	37111.53
531.28	36797.90
531.46	37263.67
531.63	37055.36
531.80	36985.15
531.97	37167.71
532.14	37507.08
532.31	37184.09
532.48	37083.45
532.65	37691.99
532.82	37418.14
532.99	37331.54
533.16	37181.75
533.33	37846.46
533.50	38043.07
533.67	37778.59
533.84	37890.93
534.01	37874.55
534.18	37315.16
534.35	38312.23
534.52	37759.86
534.69	38588.41
534.86	38398.83
535.03	38115.62
535.20	38536.92
535.37	38508.83
535.54	38370.74
535.71	38595.43
535.88	38127.33
536.05	38405.85
536.22	38689.06
536.38	38616.50
536.55	38883.32
536.72	38452.66
536.89	38452.66
537.06	38852.89
537.23	38410.53
537.40	38829.49
537.57	38761.61
537.74	38707.78
537.91	38735.87
538.08	38808.42
538.25	38370.74
538.42	38958.22
538.59	39344.41
538.75	38625.86
538.92	39005.03
539.09	39196.95
539.26	38974.60
539.43	38946.51
539.60	38789.70
539.77	39019.07
539.94	38974.60
540.11	39360.79
540.28	39297.59
540.44	39538.67
540.61	39601.86
540.78	39559.73
540.95	39328.02
541.12	39342.06
541.29	39456.75
541.46	39849.96
541.62	39597.18
541.79	39688.46
541.96	39112.69
542.13	39803.15
542.30	39571.44
542.47	39896.77
542.63	39604.20
542.80	40411.69
542.97	40587.23
543.14	40538.08
543.31	40076.99
543.48	40502.97
543.64	40669.15
543.81	40821.28
543.98	40620.00
544.15	40538.08
544.32	40828.30
544.48	40767.45
544.65	40629.36
544.82	40673.83
544.99	40261.90
545.16	40851.71
545.32	40666.81
545.49	41090.44
545.66	41521.10
545.83	40692.55
546.00	41530.47
546.16	41071.72
546.33	41104.49
546.50	40685.53
546.67	41237.90
546.83	41078.74
547.00	41237.90
547.17	40905.54
547.34	41036.61
547.50	41020.23
547.67	41265.99
547.84	41277.69
548.00	41811.33
548.17	41689.62
548.34	41708.35
548.51	41680.26
548.67	41748.14
548.84	41958.78
549.01	41446.21
549.18	41694.30
549.34	41853.46
549.51	41776.22
549.68	41979.85
549.84	41895.59
550.01	41691.96
550.18	41720.05
550.34	42471.36
550.51	41851.12
550.68	41900.27
550.84	41942.40
551.01	42230.29
551.18	41975.17
551.34	42085.17
551.51	41851.12
551.68	42366.04
551.84	42576.69
552.01	41968.15
552.18	41860.48
552.34	42033.68
552.51	42124.96
552.68	42480.72
552.84	42616.47
553.01	42574.34
553.18	42644.56
553.34	42431.57
553.51	42335.61
553.67	42651.58
553.84	42452.64
554.01	42885.64
554.17	42869.25
554.34	42581.37
554.51	42829.46
554.67	42649.24
554.84	42862.23
555.00	42700.73
555.17	42843.51
555.33	42831.80
555.50	42337.95
555.67	42700.73
555.83	42813.08
556.00	42703.07
556.16	43477.79
556.33	42485.40
556.50	42871.59
556.66	43225.01
556.83	42848.19
556.99	43196.93
557.16	43028.41
557.32	42906.70
557.49	42967.55
557.65	43313.95
557.82	43566.73
557.98	43283.53
558.15	43381.83
558.32	43246.08
558.48	43203.95
558.65	43117.35
558.81	43182.88
558.98	43367.79
559.14	43021.39
559.31	42822.44
559.47	42862.23
559.64	43789.08
559.80	43313.95
559.97	43674.40
560.13	43442.68
560.30	42995.64
560.46	43477.79
560.63	43342.04
560.79	43910.79
560.96	43430.98
561.12	43686.10
561.29	43545.67
561.45	43594.82
561.61	43494.18
561.78	43445.02
561.94	43611.20
562.11	43695.46
562.27	43503.54
562.44	43388.85
562.60	43456.73
562.77	43889.73
562.93	43393.53
563.10	44563.80
563.26	43491.83
563.42	43826.53
563.59	43379.49
563.75	43529.28
563.92	43498.86
564.08	43412.26
564.24	44016.11
564.41	43517.58
564.57	44041.86
564.74	43782.06
564.90	44105.06
565.07	43988.03
565.23	43941.22
565.39	43388.85
565.56	43896.75
565.72	44004.41
565.88	43901.43
566.05	43693.12
566.21	43669.72
566.38	43929.51
566.54	43824.19
566.70	44215.06
566.87	44109.74
567.03	44116.76
567.19	44622.31
567.36	43702.48
567.52	43824.19
567.68	43789.08
567.85	44189.31
568.01	44179.95
568.17	44278.25
568.34	44406.98
568.50	44226.76
568.66	43791.42
568.83	44098.03
568.99	43690.78
569.15	43934.20
569.32	43988.03
569.48	43718.87
569.64	44353.15
569.81	44348.47
569.97	43973.98
570.13	44275.91
570.30	43985.69
570.46	43929.51
570.62	44088.67
570.78	44030.16
570.95	43950.58
571.11	44460.82
571.27	44186.97
571.43	44423.37
571.60	44020.80
571.76	44114.42
571.92	44009.09
572.09	44353.15
572.25	44458.48
572.41	44086.33
572.57	44280.60
572.74	44542.74
572.90	44336.77
573.06	44725.30
573.22	44460.82
573.38	44472.52
573.55	44222.08
573.71	44542.74
573.87	44165.91
574.03	44395.28
574.20	44039.52
574.36	44107.40
574.52	44580.18
574.68	44236.12
574.84	44285.28
575.01	44114.42
575.17	43983.35
575.33	44140.16
575.49	44598.91
575.65	44666.78
575.82	44507.63
575.98	44364.85
576.14	44119.10
576.30	44341.45
576.46	44264.21
576.62	44294.64
576.79	44123.78
576.95	44079.31
577.11	44350.81
577.27	44315.70
577.43	44694.87
577.59	44631.68
577.75	43871.00
577.92	44353.15
578.08	44179.95
578.24	43899.09
578.40	44311.02
578.56	44229.10
578.72	44406.98
578.88	44425.71
579.04	44535.71
579.21	44123.78
579.37	44685.51
579.53	44645.72
579.69	44687.85
579.85	44486.56
580.01	44858.71
580.17	44790.83
580.33	44882.11
580.49	44687.85
580.65	44095.69
580.82	45048.29
580.98	44383.58
581.14	44357.83
581.30	44514.65
581.46	44589.55
581.62	44416.35
581.78	44631.68
581.94	44729.98
582.10	44189.31
582.26	45015.52
582.42	44619.97
582.58	44694.87
582.74	44870.41
582.90	44493.58
583.06	44645.72
583.22	44545.08
583.38	44685.51
583.54	44381.24
583.70	44189.31
583.86	44755.72
584.02	44444.43
584.18	45010.84
584.34	44481.88
584.50	44477.20
584.66	45064.67
584.82	44577.84
584.98	44996.80
585.14	44751.04
585.30	44648.06
585.46	44720.62
585.62	44280.60
585.78	44428.05
585.94	43950.58
586.10	44636.36
586.26	44697.21
586.42	44460.82
586.58	44875.09
586.74	44893.82
586.90	44664.44
587.06	44074.63
587.22	44470.18
587.38	44374.22
587.54	44556.78
587.70	44495.92
587.86	44856.37
588.02	44994.46
588.18	44786.15
588.34	44519.33
588.49	44217.40
588.65	44247.83
588.81	44086.33
588.97	44708.91
589.13	44446.77
589.29	44168.25
589.45	44304.00
589.61	44547.42
589.77	44711.25
589.93	44732.32
590.08	44905.52
590.24	44521.67
590.40	44903.18
