SpectraSuite Data File
++++++++++++++++++++++++++++++++++++
Date: Fri Oct 25 11:34:10 EDT 2013
User: price-jones
Dark Spectrum Present: No
Reference Spectrum Present: No
Number of Sampled Component Spectra: 1
Spectrometers: USB2+H05261
Integration Time (usec): 100000 (USB2+H05261)
Spectra Averaged: 1 (USB2+H05261)
Boxcar Smoothing: 0 (USB2+H05261)
Correct for Electrical Dark: No (USB2+H05261)
Strobe/Lamp Enabled: No (USB2+H05261)
Correct for Detector Non-linearity: No (USB2+H05261)
Correct for Stray Light: No (USB2+H05261)
Number of Pixels in Processed Spectrum: 2048
>>>>>Begin Processed Spectral Data<<<<<
365.73	278.52
365.92	278.52
366.12	278.52
366.32	222.35
366.52	184.90
366.72	222.35
366.91	175.54
367.11	217.67
367.31	117.03
367.51	140.43
367.70	184.90
367.90	212.99
368.10	220.01
368.30	252.78
368.49	102.98
368.69	163.84
368.89	208.31
369.09	217.67
369.28	161.50
369.48	163.84
369.68	224.69
369.87	201.29
370.07	252.78
370.27	229.37
370.47	348.74
370.66	512.58
370.86	519.60
371.06	503.22
371.25	538.32
371.45	538.32
371.65	568.75
371.84	580.45
372.04	510.24
372.24	634.29
372.44	552.37
372.63	587.47
372.83	603.86
373.03	641.31
373.22	552.37
373.42	610.88
373.62	550.03
373.81	634.29
374.01	744.29
374.21	676.41
374.40	610.88
374.60	589.82
374.79	660.03
374.99	685.78
375.19	695.14
375.38	629.60
375.58	690.46
375.78	636.63
375.97	620.24
376.17	713.86
376.37	690.46
376.56	676.41
376.76	617.90
376.95	648.33
377.15	718.54
377.35	692.80
377.54	641.31
377.74	617.90
377.93	643.65
378.13	699.82
378.33	723.23
378.52	685.78
378.72	730.25
378.91	676.41
379.11	683.44
379.31	692.80
379.50	627.26
379.70	674.07
379.89	732.59
380.09	763.01
380.28	702.16
380.48	688.12
380.68	704.50
380.87	699.82
381.07	730.25
381.26	739.61
381.46	746.63
381.65	795.78
381.85	751.31
382.04	748.97
382.24	739.61
382.43	725.57
382.63	734.93
382.83	758.33
383.02	821.53
383.22	727.91
383.41	802.80
383.61	777.06
383.80	791.10
384.00	821.53
384.19	837.91
384.39	760.67
384.58	814.51
384.78	837.91
384.97	779.40
385.17	770.04
385.36	805.14
385.56	842.59
385.75	741.95
385.95	823.87
386.14	849.61
386.34	779.40
386.53	784.08
386.72	784.08
386.92	896.43
387.11	835.57
387.31	858.98
387.50	826.21
387.70	877.70
387.89	833.23
388.09	833.23
388.28	877.70
388.48	978.34
388.67	908.13
388.86	880.04
389.06	889.40
389.25	936.21
389.45	795.78
389.64	954.94
389.84	912.81
390.03	861.32
390.22	983.02
390.42	954.94
390.61	929.19
390.81	954.94
391.00	980.68
391.19	983.02
391.39	976.00
391.58	1036.86
391.78	985.37
391.97	971.32
392.16	1029.84
392.36	1062.60
392.55	1142.18
392.75	1074.31
392.94	1060.26
393.13	1050.90
393.33	940.90
393.52	1046.22
393.71	1055.58
393.91	994.73
394.10	1071.97
394.29	1032.18
394.49	1032.18
394.68	1139.84
394.88	1153.88
395.07	1081.33
395.26	1076.65
395.46	1055.58
395.65	1100.05
395.84	1156.22
396.04	1219.42
396.23	1226.44
396.42	1097.71
396.62	1221.76
396.81	1224.10
397.00	1207.72
397.19	1193.67
397.39	1226.44
397.58	1249.85
397.77	1235.80
397.97	1184.31
398.16	1160.91
398.35	1172.61
398.55	1198.35
398.74	1256.87
398.93	1242.82
399.12	1238.14
399.32	1252.19
399.51	1252.19
399.70	1277.93
399.90	1294.32
400.09	1380.92
400.28	1427.73
400.47	1373.89
400.67	1399.64
400.86	1385.60
401.05	1350.49
401.24	1362.19
401.44	1399.64
401.63	1357.51
401.82	1465.18
402.01	1444.11
402.21	1357.51
402.40	1446.45
402.59	1528.37
402.78	1535.39
402.97	1504.96
403.17	1519.01
403.36	1565.82
403.55	1540.07
403.74	1561.14
403.93	1502.62
404.13	1547.09
404.32	1598.59
404.51	1584.54
404.70	1629.01
404.89	1593.90
405.09	1668.80
405.28	1673.48
405.47	1610.29
405.66	1762.42
405.85	1727.32
406.05	1652.42
406.24	1708.59
406.43	1605.61
406.62	1806.89
406.81	1809.23
407.00	1795.19
407.20	1790.51
407.39	1842.00
407.58	1813.92
407.77	1806.89
407.96	1912.22
408.15	1872.43
408.34	1785.83
408.54	1879.45
408.73	1870.09
408.92	1865.41
409.11	1893.49
409.30	2026.90
409.49	1867.75
409.68	1926.26
409.87	1902.86
410.07	2017.54
410.26	2033.93
410.45	2022.22
410.64	2017.54
410.83	1968.39
411.02	2134.57
411.21	2099.46
411.40	2122.87
411.59	2120.53
411.78	2157.97
411.98	2244.57
412.17	2244.57
412.36	2249.25
412.55	2310.11
412.74	2230.53
412.93	2373.30
413.12	2307.77
413.31	2305.43
413.50	2239.89
413.69	2438.84
413.88	2490.33
414.07	2410.75
414.26	2392.03
414.45	2436.50
414.64	2509.05
414.83	2527.78
415.02	2520.76
415.22	2586.29
415.41	2558.21
415.60	2612.04
415.79	2506.71
415.98	2747.79
416.17	2771.19
416.36	2581.61
416.55	2796.94
416.74	2722.04
416.93	2682.25
417.12	2780.56
417.31	2881.20
417.50	2689.28
417.69	2857.79
417.88	2881.20
418.07	2862.48
418.26	2930.35
418.45	2885.88
418.64	3110.57
418.83	2988.86
419.02	3045.04
419.21	3122.27
419.39	2988.86
419.58	2981.84
419.77	3005.25
419.96	2991.20
420.15	3019.29
420.34	3101.21
420.53	3141.00
420.72	3052.06
420.91	3206.53
421.10	3178.45
421.29	3239.30
421.48	3269.73
421.67	3246.32
421.86	3248.66
422.05	3234.62
422.24	3267.39
422.43	3234.62
422.61	3321.22
422.80	3309.52
422.99	3300.16
423.18	3356.33
423.37	3356.33
423.56	3304.84
423.75	3480.38
423.94	3199.51
424.13	3138.66
424.32	3218.24
424.50	3321.22
424.69	3489.74
424.88	3384.41
425.07	3234.62
425.26	3346.97
425.45	3346.97
425.64	3339.94
425.83	3274.41
426.01	3405.48
426.20	3325.90
426.39	3414.84
426.58	3351.65
426.77	3365.69
426.96	3480.38
427.15	3515.48
427.33	3590.38
427.52	3492.08
427.71	3487.40
427.90	3651.24
428.09	3562.30
428.28	3482.72
428.46	3660.60
428.65	3609.11
428.84	3688.68
429.03	3707.41
429.22	3592.72
429.40	3733.15
429.59	3632.51
429.78	3606.77
429.97	3534.21
430.16	3578.68
430.34	3709.75
430.53	3761.24
430.72	3784.65
430.91	3674.64
431.10	3775.28
431.28	3894.65
431.47	3866.56
431.66	3873.59
431.85	3794.01
432.03	3988.27
432.22	3978.91
432.41	3999.98
432.60	4023.38
432.79	3997.64
432.97	3932.10
433.16	3969.55
433.35	3866.56
433.54	4044.45
433.72	4004.66
433.91	3988.27
434.10	3950.82
434.28	4084.23
434.47	4070.19
434.66	4332.33
434.85	4135.73
435.03	4346.37
435.22	4124.02
435.41	4217.65
435.59	4252.75
435.78	4287.86
435.97	4430.63
436.16	4287.86
436.34	4341.69
436.53	4348.72
436.72	4435.32
436.90	4294.88
437.09	4292.54
437.28	4332.33
437.46	4372.12
437.65	4442.34
437.84	4491.49
438.02	4379.14
438.21	4489.15
438.40	4573.41
438.58	4587.45
438.77	4648.30
438.96	4566.39
439.14	4774.69
439.33	4795.76
439.52	4863.63
439.70	4765.33
439.89	4915.12
440.08	4931.51
440.26	4814.48
440.45	4952.57
440.63	4901.08
440.82	5041.51
441.01	4910.44
441.19	5144.50
441.38	5102.37
441.57	5172.58
441.75	5184.29
441.94	5261.52
442.12	5181.95
442.31	5282.59
442.50	5219.39
442.68	5303.65
442.87	5331.74
443.05	5270.89
443.24	5291.95
443.43	5270.89
443.61	5495.58
443.80	5558.77
443.98	5294.29
444.17	5165.56
444.35	5408.98
444.54	5476.85
444.73	5385.57
444.91	5423.02
445.10	5476.85
445.28	5462.81
445.47	5423.02
445.65	5535.37
445.84	5390.25
446.02	5734.31
446.21	5624.31
446.39	5488.56
446.58	5650.05
446.77	5486.22
446.95	5465.15
447.14	5603.24
447.32	5640.69
447.51	5701.54
447.69	5603.24
447.88	5598.56
448.06	5703.89
448.25	5472.17
448.43	5636.01
448.62	5696.86
448.80	5708.57
448.99	5734.31
449.17	5696.86
449.36	5687.50
449.54	5834.96
449.73	6076.03
449.91	6047.94
450.10	5867.72
450.28	5998.79
450.46	6008.16
450.65	5916.87
450.83	5886.45
451.02	5909.85
451.20	6106.46
451.39	6071.35
451.57	6080.71
451.76	6024.54
451.94	5888.79
452.13	6148.59
452.31	6169.65
452.49	6015.18
452.68	6104.12
452.86	6076.03
453.05	6122.84
453.23	6289.02
453.42	6282.00
453.60	6223.48
453.78	6314.77
453.97	6289.02
454.15	6129.86
454.34	6141.57
454.52	6389.66
454.70	6207.10
454.89	6370.94
455.07	6342.85
455.26	6415.41
455.44	6551.16
455.62	6567.54
455.81	6553.50
455.99	6724.36
456.17	6621.38
456.36	6651.80
456.54	6553.50
456.73	6775.85
456.91	6876.49
457.09	6754.79
457.28	6813.30
457.46	6850.75
457.64	6825.00
457.83	6909.26
458.01	7000.54
458.19	6881.18
458.38	6836.70
458.56	7197.15
458.74	7133.95
458.93	6951.39
459.11	7028.63
459.29	7211.19
459.48	7234.60
459.66	7201.83
459.84	7045.01
460.03	7297.79
460.21	7185.44
460.39	7136.29
460.57	7218.21
460.76	7187.79
460.94	7339.92
461.12	7456.95
461.31	7393.75
461.49	7391.41
461.67	7363.33
461.85	7508.44
462.04	7290.77
462.22	7953.14
462.40	7538.87
462.59	7620.78
462.77	7728.45
462.95	7646.53
463.13	7555.25
463.32	7538.87
463.50	7433.54
463.68	7761.22
463.86	7789.30
464.05	7602.06
464.23	7826.75
464.41	7761.22
464.59	7660.57
464.78	7925.05
464.96	7784.62
465.14	7683.98
465.32	7878.24
465.50	7948.46
465.69	8100.59
465.87	8006.97
466.05	7847.82
466.23	7812.71
466.41	7824.41
466.60	8021.02
466.78	8166.13
466.96	7866.54
467.14	8011.65
467.32	8154.43
467.51	8102.93
467.69	7873.56
467.87	8109.96
468.05	8280.82
468.23	8177.83
468.41	8189.53
468.60	8248.05
468.78	8439.97
468.96	8198.90
469.14	8428.27
469.32	8208.26
469.50	8276.13
469.69	8418.91
469.87	8325.29
470.05	8627.21
470.23	8435.29
470.41	8547.64
470.59	8863.61
470.77	8397.84
470.95	8774.67
471.14	8725.52
471.32	8627.21
471.50	8961.91
471.68	8781.69
471.86	8753.60
472.04	8868.29
472.22	9069.58
472.40	8896.38
472.58	8887.01
472.77	9018.08
472.95	9186.60
473.13	9554.07
473.31	9160.86
473.49	9100.00
473.67	9233.41
473.85	9383.21
474.03	9638.33
474.21	9420.66
474.39	9493.21
474.57	9614.92
474.75	9762.37
474.93	9879.40
475.12	9661.73
475.30	9745.99
475.48	9771.74
475.66	9865.36
475.84	9685.14
476.02	9804.50
476.20	9930.89
476.38	9942.60
476.56	10391.98
476.74	10354.53
476.92	10354.53
477.10	10249.21
477.28	10438.79
477.46	10539.43
477.64	10658.80
477.82	10874.13
478.00	10942.00
478.18	10787.53
478.36	10743.06
478.54	11115.20
478.72	11243.93
478.90	11257.98
479.08	11307.13
479.26	11557.57
479.44	11346.92
479.62	11349.26
479.80	11569.27
479.98	11644.17
480.16	11868.86
480.34	11550.54
480.52	12114.61
480.70	11889.92
480.88	11847.79
481.06	12086.53
481.24	12168.45
481.41	12418.88
481.59	12475.06
481.77	12437.61
481.95	12475.06
482.13	12393.14
482.31	12671.66
482.49	13198.28
482.67	12854.22
482.85	13055.51
483.03	13139.77
483.21	13207.64
483.39	13441.70
483.57	13605.53
483.74	13638.30
483.92	13521.27
484.10	13322.33
484.28	13853.63
484.46	14328.76
484.64	14401.32
484.82	14230.46
485.00	14288.97
485.18	14295.99
485.35	14501.96
485.53	14766.44
485.71	14679.84
485.89	14939.64
486.07	14979.43
486.25	15049.64
486.43	15094.11
486.61	15061.35
486.78	15602.01
486.96	15492.01
487.14	15922.66
487.32	15765.85
487.50	15941.39
487.68	16060.76
487.85	16156.72
488.03	16453.97
488.21	16517.16
488.39	16666.95
488.57	16599.08
488.75	16594.40
488.92	16905.69
489.10	17128.04
489.28	17001.65
489.46	17118.68
489.64	17458.06
489.81	17504.87
489.99	17874.67
490.17	17645.30
490.35	17827.86
490.53	17914.46
490.70	17989.36
490.88	18157.88
491.06	18291.29
491.24	18263.20
491.41	18677.48
491.59	18663.43
491.77	18890.46
491.95	18902.17
492.13	18967.70
492.30	19246.23
492.48	19241.54
492.66	19190.05
492.84	19339.85
493.01	19751.78
493.19	19468.58
493.37	19847.74
493.54	19866.47
493.72	19983.49
493.90	20070.09
494.08	20161.37
494.25	20271.38
494.43	20095.84
494.61	20627.14
494.79	20774.60
494.96	20655.23
495.14	20802.68
495.32	21294.19
495.49	20870.56
495.67	21088.23
495.85	21338.66
496.02	21446.33
496.20	21331.64
496.38	21671.02
496.55	21827.84
496.73	22281.90
496.91	22029.12
497.09	21830.18
497.26	22204.66
497.44	22075.93
497.62	22370.84
497.79	22970.02
497.97	22354.46
498.14	23138.54
498.32	23096.41
498.50	22944.27
498.67	23199.39
498.85	22984.06
499.03	23604.30
499.20	23604.30
499.38	23616.01
499.56	23747.08
499.73	23920.28
499.91	23892.19
500.08	23934.32
500.26	23812.61
500.44	24034.96
500.61	23943.68
500.79	23922.62
500.97	24627.12
501.14	24620.10
501.32	24460.94
501.49	24830.74
501.67	24903.30
501.84	25200.55
502.02	24704.35
502.20	24957.13
502.37	24802.66
502.55	24940.75
502.72	25607.80
502.90	25184.16
503.07	25104.59
503.25	25647.59
503.43	25282.47
503.60	25575.03
503.78	26106.34
503.95	25879.30
504.13	25757.60
504.30	26209.32
504.48	25883.98
504.65	26026.76
504.83	26389.54
505.01	26677.43
505.18	26363.79
505.36	26073.57
505.53	26668.06
505.71	26813.18
505.88	26806.16
506.06	26387.20
506.23	26888.07
506.41	26731.26
506.58	27122.13
506.76	26934.88
506.93	27054.25
507.11	27267.24
507.28	27599.60
507.46	27175.96
507.63	27510.66
507.81	27861.74
507.98	27559.81
508.16	27709.60
508.33	27845.35
508.50	28098.13
508.68	28079.41
508.85	28016.21
509.03	27662.79
509.20	27901.53
509.38	28535.81
509.55	28531.13
509.73	28830.72
509.90	28662.20
510.08	28393.04
510.25	28594.32
510.42	28711.35
510.60	29167.76
510.77	29237.97
510.95	29668.63
511.12	28891.57
511.30	29427.56
511.47	29266.06
511.64	29535.22
511.82	29252.02
511.99	29825.45
512.17	29560.97
512.34	29490.75
512.51	29902.68
512.69	29862.90
512.86	30057.16
513.04	29926.09
513.21	29944.81
513.38	30497.18
513.56	30244.40
513.73	30246.74
513.90	30206.95
514.08	30438.67
514.25	30878.69
514.43	30661.02
514.60	30787.41
514.77	30679.74
514.95	31002.74
515.12	30923.16
515.29	30866.98
515.47	31152.53
515.64	31026.14
515.81	30979.33
515.99	30855.28
516.16	31578.51
516.33	31248.49
516.51	31651.06
516.68	31480.21
516.85	31721.28
517.03	31646.38
517.20	31868.73
517.37	31833.63
517.54	32070.02
517.72	32245.56
517.89	32109.81
518.06	32259.60
518.24	32271.31
518.41	31880.44
518.58	31718.94
518.75	32542.81
518.93	32631.75
519.10	32514.72
519.27	32318.12
519.45	32479.61
519.62	32900.91
519.79	32914.95
519.96	32912.61
520.14	32961.76
520.31	32767.50
520.48	33090.49
520.65	33092.83
520.83	33619.46
521.00	33333.91
521.17	33544.56
521.34	33331.57
521.52	33930.75
521.69	33790.31
521.86	33944.79
522.03	34132.03
522.20	34003.30
522.38	34249.06
522.55	33677.97
522.72	33694.35
522.89	34204.59
523.07	34305.23
523.24	34225.65
523.41	34359.06
523.58	34167.14
523.75	34815.47
523.92	34059.48
524.10	34579.07
524.27	34906.75
524.44	34803.77
524.61	34696.10
524.78	35257.83
524.96	35072.93
525.13	34960.58
525.30	35412.31
525.47	34927.81
525.64	35489.54
525.81	35267.19
525.98	34864.62
526.16	35306.98
526.33	35412.31
526.50	35491.88
526.67	35311.66
526.84	35693.17
527.01	35482.52
527.18	36091.06
527.36	36203.41
527.53	35735.30
527.70	36390.65
527.87	36346.18
528.04	35957.65
528.21	36168.30
528.38	36067.66
528.55	36772.16
528.72	36020.84
528.89	36299.37
529.07	35988.08
529.24	36093.40
529.41	36940.68
529.58	36268.94
529.75	36432.78
529.92	36657.47
530.09	36519.38
530.26	36921.95
530.43	36938.33
530.60	36385.97
530.77	36481.93
530.94	37095.15
531.11	36818.97
531.28	37357.29
531.46	37165.37
531.63	37081.11
531.80	37315.16
531.97	37242.60
532.14	37170.05
532.31	37436.87
532.48	37670.92
532.65	37869.87
532.82	37589.00
532.99	37516.45
533.16	37331.54
533.33	37825.40
533.50	37968.17
533.67	37436.87
533.84	37486.02
534.01	37902.64
534.18	37886.25
534.35	38078.18
534.52	37708.37
534.69	38059.45
534.86	38099.24
535.03	38146.05
535.20	38218.61
535.37	38717.14
535.54	38323.93
535.71	38476.07
535.88	38473.73
536.05	38576.71
536.22	38455.00
536.38	38714.80
536.55	38609.48
536.72	39040.14
536.89	38405.85
537.06	38981.62
537.23	39400.58
537.40	38745.23
537.57	38969.92
537.74	38852.89
537.91	39089.29
538.08	38967.58
538.25	38550.96
538.42	39218.02
538.59	39899.11
538.75	39115.03
538.92	39100.99
539.09	40030.18
539.26	39814.85
539.43	39150.14
539.60	39651.02
539.77	39545.69
539.94	39803.15
540.11	39475.48
540.28	39962.31
540.44	39313.98
540.61	39791.45
540.78	39482.50
540.95	39711.87
541.12	39700.17
541.29	39742.30
541.46	39651.02
541.62	40051.25
541.79	39517.60
541.96	39526.97
542.13	39636.97
542.30	39871.03
542.47	40341.47
542.63	40226.79
542.80	40566.16
542.97	40512.33
543.14	40608.29
543.31	40430.41
543.48	40311.05
543.64	41104.49
543.81	41242.58
543.98	40762.77
544.15	40755.75
544.32	41280.03
544.48	41516.42
544.65	41064.70
544.82	41022.57
544.99	40924.27
545.16	41219.17
545.32	41069.38
545.49	41326.84
545.66	41722.39
545.83	41640.47
546.00	41722.39
546.16	41593.66
546.33	41315.14
546.50	41315.14
546.67	41399.40
546.83	40758.09
547.00	41324.50
547.17	41273.01
547.34	41619.41
547.50	41647.49
547.67	41839.42
547.84	41900.27
548.00	41801.97
548.17	42335.61
548.34	42218.58
548.51	42328.59
548.67	42087.51
548.84	42171.77
549.01	42169.43
549.18	42611.79
549.34	42263.05
549.51	42417.53
549.68	42361.36
549.84	42873.93
550.01	42623.50
550.18	42314.55
550.34	42120.28
550.51	42740.52
550.68	42801.38
550.84	42169.43
551.01	42864.57
551.18	42279.44
551.34	42625.84
551.51	42452.64
551.68	42494.77
551.84	42614.13
552.01	42618.81
552.18	42796.70
552.34	42621.16
552.51	43009.68
552.68	42815.42
552.84	42871.59
553.01	42799.04
553.18	42738.18
553.34	42803.72
553.51	43150.12
553.67	43047.13
553.84	43515.24
554.01	43456.73
554.17	43320.98
554.34	43826.53
554.51	43159.48
554.67	43393.53
554.84	43753.97
555.00	43077.56
555.17	43019.05
555.33	43669.72
555.50	43503.54
555.67	43732.91
555.83	43302.25
556.00	43744.61
556.16	43955.26
556.33	43721.21
556.50	43880.36
556.66	43756.32
556.83	43824.19
556.99	43988.03
557.16	44357.83
557.32	44116.76
557.49	44091.01
557.65	44116.76
557.82	43875.68
557.98	43985.69
558.15	44076.97
558.32	44023.14
558.48	43824.19
558.65	44107.40
558.81	43655.67
558.98	44051.22
559.14	44304.00
559.31	44502.95
559.47	44233.78
559.64	44327.41
559.80	44275.91
559.97	44624.65
560.13	44186.97
560.30	43880.36
560.46	44332.09
560.63	44828.28
560.79	44229.10
560.96	44797.85
561.12	44451.45
561.29	44664.44
561.45	44144.84
561.61	44130.80
561.78	44383.58
561.94	44615.29
562.11	44589.55
562.27	44479.54
562.44	44704.23
562.60	45057.65
562.77	44659.76
562.93	44526.35
563.10	45242.56
563.26	44769.77
563.42	45329.16
563.59	44589.55
563.75	44849.35
563.92	44896.16
564.08	44788.49
564.24	44828.28
564.41	45153.62
564.57	44720.62
564.74	45186.38
564.90	45092.76
565.07	44961.69
565.23	44683.17
565.39	44872.75
565.56	45352.56
565.72	44673.81
565.88	45291.71
566.05	45429.80
566.21	45116.17
566.38	44884.45
566.54	45247.24
566.70	45099.78
566.87	45516.40
567.03	45118.51
567.19	45497.67
567.36	45116.17
567.52	45219.15
567.68	45663.85
567.85	45406.39
568.01	45415.76
568.17	44811.90
568.34	45748.11
568.50	45476.61
568.66	45387.67
568.83	45500.01
568.99	45095.10
569.15	45305.75
569.32	45305.75
569.48	45354.90
569.64	45682.58
569.81	45270.64
569.97	45277.66
570.13	45397.03
570.30	45184.04
570.46	45354.90
570.62	45453.20
570.78	45659.17
570.95	45123.19
571.11	45368.94
571.27	45907.27
571.43	44975.73
571.60	45537.46
571.76	45380.65
571.92	45315.11
572.09	45600.66
572.25	45570.23
572.41	45212.13
572.57	45727.05
572.74	46122.60
572.90	45832.37
573.06	45806.62
573.22	45890.88
573.38	46220.90
573.55	45666.19
573.71	45928.33
573.87	45970.46
574.03	45696.62
574.20	45823.01
574.36	45614.70
574.52	45694.28
574.68	45607.68
574.84	45848.75
575.01	46169.41
575.17	45780.88
575.33	45808.96
575.49	45563.21
575.65	46040.68
575.82	46150.68
575.98	45497.67
576.14	46131.96
576.30	46258.35
576.46	45911.95
576.62	45900.25
576.79	45794.92
576.95	45624.06
577.11	45441.50
577.27	45698.96
577.43	46075.79
577.59	45752.79
577.75	45544.48
577.92	45689.60
578.08	45804.28
578.24	45911.95
578.40	45708.32
578.56	46265.37
578.72	45907.27
578.88	45991.53
579.04	45911.95
579.21	46141.32
579.37	46181.11
579.53	46143.66
579.69	45918.97
579.85	46225.58
580.01	46012.59
580.17	46403.46
580.33	45888.54
580.49	45963.44
580.65	45918.97
580.82	46188.13
580.98	46087.49
581.14	45764.49
581.30	46181.11
581.46	45787.90
581.62	46017.27
581.78	46148.34
581.94	46113.23
582.10	46284.09
582.26	45998.55
582.42	46267.71
582.58	46038.34
582.74	46075.79
582.90	46312.18
583.06	46511.13
583.22	45853.44
583.38	46284.09
583.54	46340.27
583.70	46277.07
583.86	46459.63
584.02	46518.15
584.18	46466.66
584.34	46653.90
584.50	46642.20
584.66	46075.79
584.82	46356.65
584.98	46529.85
585.14	46513.47
585.30	46143.66
585.46	46370.69
585.62	46206.86
585.78	46082.81
585.94	46307.50
586.10	46354.31
586.26	46220.90
586.42	46096.85
586.58	46408.14
586.74	46267.71
586.90	46300.48
587.06	46012.59
587.22	46066.42
587.38	46429.21
587.54	46513.47
587.70	46911.36
587.86	46550.91
588.02	46211.54
588.18	46335.59
588.34	46564.96
588.49	46300.48
588.65	45993.87
588.81	46024.29
588.97	46452.61
589.13	46391.76
589.29	46274.73
589.45	46939.44
589.61	46398.78
589.77	46497.08
589.93	46298.14
590.08	46534.53
