SpectraSuite Data File
++++++++++++++++++++++++++++++++++++
Date: Fri Oct 25 11:25:59 EDT 2013
User: price-jones
Dark Spectrum Present: No
Reference Spectrum Present: No
Number of Sampled Component Spectra: 1
Spectrometers: USB2+H05261
Integration Time (usec): 100000 (USB2+H05261)
Spectra Averaged: 1 (USB2+H05261)
Boxcar Smoothing: 0 (USB2+H05261)
Correct for Electrical Dark: No (USB2+H05261)
Strobe/Lamp Enabled: No (USB2+H05261)
Correct for Detector Non-linearity: No (USB2+H05261)
Correct for Stray Light: No (USB2+H05261)
Number of Pixels in Processed Spectrum: 2048
>>>>>Begin Processed Spectral Data<<<<<
365.73	241.08
365.92	241.08
366.12	241.08
366.32	161.50
366.52	121.71
366.72	238.73
366.91	173.20
367.11	220.01
367.31	124.05
367.51	154.48
367.70	114.69
367.90	163.84
368.10	124.05
368.30	131.07
368.49	58.51
368.69	170.86
368.89	42.13
369.09	100.64
369.28	163.84
369.48	217.67
369.68	217.67
369.87	173.20
370.07	208.31
370.27	250.44
370.47	344.06
370.66	575.77
370.86	653.01
371.06	664.71
371.25	720.88
371.45	634.29
371.65	765.36
371.84	683.44
372.04	662.37
372.24	667.05
372.44	723.23
372.63	737.27
372.83	737.27
373.03	758.33
373.22	784.08
373.42	765.36
373.62	774.72
373.81	840.25
374.01	819.19
374.21	812.17
374.40	727.91
374.60	819.19
374.79	786.42
374.99	819.19
375.19	943.24
375.38	791.10
375.58	884.72
375.78	816.85
375.97	884.72
376.17	894.08
376.37	814.51
376.56	896.43
376.76	854.30
376.95	863.66
377.15	936.21
377.35	767.70
377.54	917.49
377.74	903.45
377.93	882.38
378.13	887.06
378.33	1022.81
378.52	947.92
378.72	936.21
378.91	924.51
379.11	837.91
379.31	929.19
379.50	912.81
379.70	915.15
379.89	1020.47
380.09	910.47
380.28	884.72
380.48	915.15
380.68	945.58
380.87	990.05
381.07	980.68
381.26	1027.50
381.46	945.58
381.65	1036.86
381.85	1011.11
382.04	1034.52
382.24	1088.35
382.43	1025.15
382.63	1041.54
382.83	1062.60
383.02	1186.65
383.22	1146.86
383.41	1048.56
383.61	1076.65
383.80	1125.80
384.00	1022.81
384.19	1046.22
384.39	1074.31
384.58	1149.20
384.78	1071.97
384.97	1128.14
385.17	1198.35
385.36	1128.14
385.56	1158.57
385.75	1142.18
385.95	1086.01
386.14	1203.04
386.34	1146.86
386.53	1181.97
386.72	1224.10
386.92	1228.78
387.11	1284.95
387.31	1160.91
387.50	1193.67
387.70	1224.10
387.89	1249.85
388.09	1188.99
388.28	1200.69
388.48	1179.63
388.67	1385.60
388.86	1352.83
389.06	1301.34
389.25	1282.61
389.45	1315.38
389.64	1296.66
389.84	1348.15
390.03	1390.28
390.22	1483.90
390.42	1357.51
390.61	1334.11
390.81	1411.34
391.00	1366.87
391.19	1397.30
391.39	1497.94
391.58	1467.52
391.78	1509.65
391.97	1535.39
392.16	1561.14
392.36	1568.16
392.55	1446.45
392.75	1533.05
392.94	1547.09
393.13	1605.61
393.33	1486.24
393.52	1570.50
393.71	1624.33
393.91	1547.09
394.10	1565.82
394.29	1537.73
394.49	1558.80
394.68	1671.14
394.88	1699.23
395.07	1638.38
395.26	1694.55
395.46	1755.40
395.65	1696.89
395.84	1713.27
396.04	1750.72
396.23	1783.49
396.42	1802.21
396.62	1842.00
396.81	1739.02
397.00	1820.94
397.19	1771.79
397.39	1722.63
397.58	1895.83
397.77	1778.81
397.97	1746.04
398.16	1778.81
398.35	1930.94
398.55	1944.99
398.74	1881.79
398.93	1977.75
399.12	1952.01
399.32	1867.75
399.51	1912.22
399.70	1940.30
399.90	1914.56
400.09	2017.54
400.28	2040.95
400.47	2015.20
400.67	2120.53
400.86	2087.76
401.05	1996.48
401.24	2064.35
401.44	2031.58
401.63	2129.89
401.82	2118.18
402.01	2143.93
402.21	2200.10
402.40	2059.67
402.59	2122.87
402.78	2190.74
402.97	2223.51
403.17	2242.23
403.36	2317.13
403.55	2249.25
403.74	2272.66
403.93	2370.96
404.13	2450.54
404.32	2373.30
404.51	2406.07
404.70	2387.35
404.89	2338.20
405.09	2487.99
405.28	2581.61
405.47	2469.27
405.66	2485.65
405.85	2553.52
406.05	2445.86
406.24	2492.67
406.43	2708.00
406.62	2612.04
406.81	2715.02
407.00	2565.23
407.20	2633.10
407.39	2455.22
407.58	2623.74
407.77	2796.94
407.96	2747.79
408.15	2834.39
408.34	2696.30
408.54	2775.88
408.73	2848.43
408.92	2789.92
409.11	2890.56
409.30	2818.00
409.49	2885.88
409.68	2848.43
409.87	2906.95
410.07	3045.04
410.26	2888.22
410.45	2923.33
410.64	3054.40
410.83	2970.14
411.02	3110.57
411.21	3276.75
411.40	3197.17
411.59	3274.41
411.78	3187.81
411.98	3133.98
412.17	3087.17
412.36	3267.39
412.55	3356.33
412.74	3342.28
412.93	3492.08
413.12	3487.40
413.31	3442.93
413.50	3585.70
413.69	3468.67
413.88	3597.40
414.07	3555.27
414.26	3571.66
414.45	3550.59
414.64	3616.13
414.83	3590.38
415.02	3751.88
415.22	3812.73
415.41	3906.35
415.60	3882.95
415.79	3812.73
415.98	3889.97
416.17	3941.46
416.36	3936.78
416.55	3964.87
416.74	4060.83
416.93	3985.93
417.12	4124.02
417.31	4135.73
417.50	4161.47
417.69	4325.31
417.88	4297.22
418.07	4187.22
418.26	4245.73
418.45	4332.33
418.64	4500.85
418.83	4369.78
419.02	4393.19
419.21	4465.74
419.39	4379.14
419.58	4369.78
419.77	4451.70
419.96	4571.07
420.15	4526.60
420.34	4610.86
420.53	4601.49
420.72	4826.18
420.91	4786.40
421.10	4772.35
421.29	4753.63
421.48	4697.46
421.67	4662.35
421.86	4564.04
422.05	4877.68
422.24	4861.29
422.43	4908.10
422.61	4802.78
422.80	4807.46
422.99	5018.11
423.18	4978.32
423.37	5050.88
423.56	4975.98
423.75	4919.81
423.94	4837.89
424.13	4667.03
424.32	4774.69
424.50	4961.94
424.69	5095.35
424.88	5111.73
425.07	4968.96
425.26	4812.14
425.45	5001.72
425.64	4882.36
425.83	4983.00
426.01	4950.23
426.20	4978.32
426.39	4964.28
426.58	5064.92
426.77	5083.64
426.96	5104.71
427.15	5142.16
427.33	5195.99
427.52	5172.58
427.71	5296.63
427.90	5188.97
428.09	5071.94
428.28	5231.10
428.46	5467.49
428.65	5289.61
428.84	5427.70
429.03	5404.30
429.22	5301.31
429.40	5458.13
429.59	5483.88
429.78	5308.34
429.97	5284.93
430.16	5551.75
430.34	5692.18
430.53	5722.61
430.72	5638.35
430.91	5640.69
431.10	5687.50
431.28	5748.36
431.47	5727.29
431.66	5811.55
431.85	5668.78
432.03	5907.51
432.22	6045.60
432.41	5767.08
432.60	5928.58
432.79	5860.70
432.97	6052.63
433.16	5949.64
433.35	5921.56
433.54	6022.20
433.72	6218.80
433.91	6001.13
434.10	6237.53
434.28	6080.71
434.47	6406.05
434.66	6188.38
434.85	6345.19
435.03	6284.34
435.22	6265.61
435.41	6480.94
435.59	6338.17
435.78	6424.77
435.97	6394.34
436.16	6377.96
436.34	6331.15
436.53	6464.56
436.72	6539.46
436.90	6326.47
437.09	6733.72
437.28	6483.28
437.46	6574.56
437.65	6637.76
437.84	6815.64
438.02	6923.30
438.21	6848.41
438.40	6661.16
438.58	6963.09
438.77	7061.40
438.96	6815.64
439.14	7045.01
439.33	7068.42
439.52	7129.27
439.70	7012.24
439.89	7201.83
440.08	7400.77
440.26	7309.49
440.45	7435.88
440.63	7405.46
440.82	7655.89
441.01	7391.41
441.19	7662.91
441.38	7672.28
441.57	7576.31
441.75	7672.28
441.94	7983.57
442.12	7857.18
442.31	7948.46
442.50	8138.04
442.68	7786.96
442.87	8042.08
443.05	8074.85
443.24	8121.66
443.43	8173.15
443.61	8173.15
443.80	8393.16
443.98	7896.97
444.17	7735.47
444.35	8271.45
444.54	8355.71
444.73	8271.45
444.91	8442.31
445.10	8344.01
445.28	8351.03
445.47	8170.81
445.65	8175.49
445.84	8507.85
446.02	8341.67
446.21	8294.86
446.39	8425.93
446.58	8461.04
446.77	8365.07
446.95	8278.47
447.14	8547.64
447.32	8416.57
447.51	8542.96
447.69	8449.33
447.88	8568.70
448.06	8610.83
448.25	8388.48
448.43	8596.79
448.62	8503.17
448.80	8444.65
448.99	8535.93
449.17	8662.32
449.36	8669.34
449.54	8762.97
449.73	8908.08
449.91	8917.44
450.10	8821.48
450.28	8851.91
450.46	8982.98
450.65	9282.56
450.83	8999.36
451.02	8936.17
451.20	9132.77
451.39	9032.13
451.57	9057.87
451.76	9172.56
451.94	9284.91
452.13	9284.91
452.31	9144.47
452.49	9261.50
452.68	9240.44
452.86	9348.10
453.05	9373.85
453.23	9535.34
453.42	9214.69
453.60	9291.93
453.78	9373.85
453.97	9423.00
454.15	9451.08
454.34	9460.45
454.52	9533.00
454.70	9834.93
454.89	9893.44
455.07	9598.54
455.26	9755.35
455.44	9926.21
455.62	9771.74
455.81	9799.82
455.99	9923.87
456.17	10101.75
456.36	9961.32
456.54	10118.14
456.73	10228.14
456.91	10237.50
457.09	10370.91
457.28	10586.24
457.46	10223.46
457.64	10394.32
457.83	10651.78
458.01	10548.79
458.19	10691.57
458.38	10445.81
458.56	10527.73
458.74	10370.91
458.93	10593.26
459.11	10712.63
459.29	10626.03
459.48	10740.72
459.66	10604.97
459.84	10934.98
460.03	11033.29
460.21	10813.28
460.39	11000.52
460.57	10911.58
460.76	10995.84
460.94	11040.31
461.12	11239.25
461.31	11349.26
461.49	11049.67
461.67	11199.46
461.85	11609.06
462.04	11309.47
462.22	11920.35
462.40	11447.56
462.59	11653.53
462.77	11377.34
462.95	11358.62
463.13	11508.41
463.32	11838.43
463.50	11824.39
463.68	11698.00
463.86	11566.93
464.05	11330.53
464.23	11798.64
464.41	11838.43
464.59	11686.29
464.78	11969.50
464.96	11864.18
465.14	11910.99
465.32	11899.28
465.50	12142.70
465.69	12177.81
465.87	12105.25
466.05	11927.37
466.23	12219.94
466.41	12175.47
466.60	12451.65
466.78	11969.50
466.96	12411.86
467.14	12269.09
467.32	12498.46
467.51	12744.22
467.69	12278.45
467.87	12496.12
468.05	12526.55
468.23	12470.37
468.41	12503.14
468.60	12636.55
468.78	12383.77
468.96	12477.40
469.14	12886.99
469.32	12924.44
469.50	12416.54
469.69	12971.25
469.87	12985.29
470.05	13036.78
470.23	13107.00
470.41	13048.49
470.59	13263.82
470.77	13275.52
470.95	13441.70
471.14	13500.21
471.32	12975.93
471.50	13596.17
471.68	13540.00
471.86	13549.36
472.04	13664.05
472.22	13912.14
472.40	13348.08
472.58	13937.89
472.77	14157.90
472.95	14059.60
473.13	14436.42
473.31	14057.26
473.49	14125.13
473.67	13984.70
473.85	14232.80
474.03	14567.49
474.21	14485.58
474.39	14677.50
474.57	14508.98
474.75	14579.20
474.93	14815.59
475.12	14895.17
475.30	15096.46
475.48	14993.47
475.66	15351.57
475.84	14960.70
476.02	14927.94
476.20	15431.15
476.38	15819.68
476.56	15957.77
476.74	16081.82
476.92	15978.84
477.10	15983.52
477.28	15917.98
477.46	16004.58
477.64	16372.05
477.82	16549.93
478.00	16767.60
478.18	16582.70
478.36	16779.30
478.54	17048.46
478.72	17167.83
478.90	17341.03
479.08	17671.04
479.26	17708.49
479.44	17343.37
479.62	17989.36
479.80	17874.67
479.98	17862.97
480.16	18480.87
480.34	18256.18
480.52	18677.48
480.70	18567.47
480.88	18569.81
481.06	18654.07
481.24	18923.23
481.41	18927.91
481.59	19389.00
481.77	19374.95
481.95	19309.42
482.13	19517.73
482.31	19590.28
482.49	20222.23
482.67	20130.95
482.85	20493.73
483.03	20650.55
483.21	20308.83
483.39	20854.17
483.57	20786.30
483.74	21179.51
483.92	21387.82
484.10	21130.36
484.28	21443.99
484.46	21837.20
484.64	21876.99
484.82	21769.32
485.00	22335.73
485.18	22768.73
485.35	22586.17
485.53	22890.44
485.71	22824.90
485.89	23433.44
486.07	23342.16
486.25	23304.71
486.43	23204.07
486.61	24058.37
486.78	24278.38
486.96	23688.56
487.14	24584.99
487.32	24779.25
487.50	24760.53
487.68	24907.98
487.85	25523.54
488.03	25542.27
488.21	25413.54
488.39	25708.44
488.57	26010.37
488.75	26387.20
488.92	26333.37
489.10	26780.41
489.28	26955.95
489.46	27014.46
489.64	26799.13
489.81	27529.38
489.99	27065.96
490.17	27508.32
490.35	27953.02
490.53	28149.62
490.70	28205.80
490.88	28315.80
491.06	28507.72
491.24	28554.54
491.41	28830.72
491.59	29378.40
491.77	29376.06
491.95	29310.53
492.13	29263.72
492.30	29811.40
492.48	29469.69
492.66	30199.93
492.84	30202.27
493.01	30473.78
493.19	30625.91
493.37	30710.17
493.54	30991.03
493.72	31424.03
493.90	31463.82
494.08	31952.99
494.25	31889.80
494.43	31840.65
494.61	32072.36
494.79	32451.53
494.96	32514.72
495.14	32800.27
495.32	33277.74
495.49	33193.48
495.67	33170.07
495.85	33919.04
496.02	33944.79
496.20	33888.62
496.38	34061.82
496.55	33993.94
496.73	34464.39
496.91	34693.76
497.09	34845.90
497.26	34623.54
497.44	34457.37
497.62	34916.11
497.79	35625.29
497.97	35178.25
498.14	35683.81
498.32	35964.67
498.50	35669.76
498.67	36245.54
498.85	36271.28
499.03	36418.74
499.20	36446.82
499.38	36779.18
499.56	36943.02
499.73	37024.93
499.91	37296.44
500.08	37261.33
500.26	37294.10
500.44	38242.01
500.61	37642.84
500.79	37532.83
500.97	37801.99
501.14	38597.77
501.32	38560.33
501.49	38766.29
501.67	38485.43
501.84	38897.36
502.02	38871.62
502.20	39234.40
502.37	39026.09
502.55	38667.99
502.72	39138.44
502.90	39480.16
503.07	39800.81
503.25	39353.77
503.43	39686.12
503.60	39651.02
503.78	40334.45
503.95	40016.14
504.13	40512.33
504.30	40329.77
504.48	40046.57
504.65	40411.69
504.83	40776.81
505.01	41546.85
505.18	41125.55
505.36	41539.83
505.53	41013.21
505.71	41387.69
505.88	41715.37
506.06	41127.89
506.23	41823.03
506.41	41785.58
506.58	41633.45
506.76	42403.49
506.93	42164.75
507.11	41930.70
507.28	42621.16
507.46	42569.66
507.63	42703.07
507.81	43037.77
507.98	42703.07
508.16	43353.74
508.33	43540.99
508.50	43349.06
508.68	43496.52
508.85	43917.81
509.03	43367.79
509.20	43791.42
509.38	44442.09
509.55	43959.94
509.73	44566.14
509.90	44516.99
510.08	44247.83
510.25	44605.93
510.42	44587.21
510.60	44664.44
510.77	44821.26
510.95	45322.13
511.12	44975.73
511.30	45247.24
511.47	45399.37
511.64	45593.64
511.82	46216.22
511.99	45776.20
512.17	45705.98
512.34	45500.01
512.51	46129.62
512.69	46511.13
512.86	46452.61
513.04	46511.13
513.21	46408.14
513.38	46838.80
513.56	46829.44
513.73	46569.64
513.90	47021.36
514.08	46838.80
514.25	47356.06
514.43	47468.40
514.60	47608.84
514.77	46817.74
514.95	47749.27
515.12	47393.51
515.29	47655.65
515.47	47400.53
515.64	47732.89
515.81	47454.36
515.99	48488.88
516.16	48498.24
516.33	47978.64
516.51	48416.32
516.68	48545.05
516.85	48222.06
517.03	48896.13
517.20	48619.95
517.37	48671.44
517.54	48706.55
517.72	49045.93
517.89	48767.40
518.06	49169.97
518.24	49354.88
518.41	48877.41
518.58	49088.06
518.75	48999.12
518.93	49504.67
519.10	49212.10
519.27	49729.36
519.45	49474.24
519.62	49694.25
519.79	49862.77
519.96	49846.39
520.14	50017.25
520.31	50103.85
520.48	50052.36
520.65	50213.85
520.83	50686.64
521.00	50412.80
521.17	50176.40
521.34	50487.70
521.52	50801.33
521.69	50700.68
521.86	50913.67
522.03	50955.80
522.20	51222.62
522.38	50939.42
522.55	50974.53
522.72	50838.78
522.89	51037.72
523.07	51573.70
523.24	51468.38
523.41	51547.96
523.58	51412.21
523.75	51716.48
523.92	51664.99
524.10	51870.95
524.27	51971.60
524.44	51941.17
524.61	52086.28
524.78	52219.69
524.96	52116.71
525.13	52027.77
525.30	52346.08
525.47	52711.20
525.64	52355.44
525.81	52353.10
525.98	52612.90
526.16	52177.56
526.33	52556.73
526.50	52954.62
526.67	52699.50
526.84	53038.88
527.01	52715.89
527.18	52781.42
527.36	52985.05
527.53	52917.17
527.70	53434.43
527.87	53483.58
528.04	53008.45
528.21	53319.74
528.38	53289.32
528.55	53418.05
528.72	53462.52
528.89	53467.20
529.07	53251.87
529.24	53525.71
529.41	53586.57
529.58	53303.36
529.75	53888.49
529.92	53628.69
530.09	53572.52
530.26	53654.44
530.43	53904.88
530.60	53832.32
530.77	53867.43
530.94	54176.38
531.11	53862.75
531.28	54024.25
531.46	54080.42
531.63	54157.66
531.80	53965.73
531.97	54375.33
532.14	54417.46
532.31	54340.22
532.48	54424.48
532.65	54639.81
532.82	54536.82
532.99	54326.17
533.16	54548.53
533.33	54721.72
533.50	54876.20
533.67	54686.62
533.84	54623.42
534.01	54850.45
534.18	54637.47
534.35	55093.87
534.52	54761.51
534.69	55035.36
534.86	55056.42
535.03	54859.82
535.20	54780.24
535.37	55344.31
535.54	55372.39
535.71	55016.63
535.88	55260.05
536.05	55470.70
536.22	55470.70
536.38	55653.26
536.55	55498.78
536.72	55819.44
536.89	55458.99
537.06	55351.33
537.23	55650.92
537.40	55664.96
537.57	55824.12
537.74	55803.05
537.91	55927.10
538.08	55667.30
538.25	55606.45
538.42	55856.88
538.59	55903.70
538.75	55735.18
538.92	56058.17
539.09	56088.60
539.26	56128.39
539.43	56048.81
539.60	56086.26
539.77	56294.56
539.94	56364.78
540.11	56313.29
540.28	56320.31
540.44	56299.25
540.61	56240.73
540.78	56177.54
540.95	56427.98
541.12	56144.77
541.29	56385.85
541.46	56556.70
541.62	56470.11
541.79	56456.06
541.96	56200.94
542.13	56516.92
542.30	56484.15
542.47	56767.35
542.63	56884.38
542.80	56774.37
542.97	56952.26
543.14	57305.68
543.31	57237.80
543.48	57095.03
543.64	57329.08
543.81	57249.50
543.98	57221.42
544.15	57361.85
544.32	57265.89
544.48	57560.79
544.65	57301.00
544.82	57141.84
544.99	57345.47
545.16	57518.67
545.32	57228.44
545.49	57687.18
545.66	57528.03
545.83	57602.92
546.00	57790.17
546.16	57525.69
546.33	57570.16
546.50	57432.07
546.67	57865.06
546.83	57308.02
547.00	57755.06
547.17	57811.23
547.34	57719.95
547.50	57848.68
547.67	58042.95
547.84	57954.00
548.00	58099.12
548.17	58281.68
548.34	58068.69
548.51	58026.56
548.67	58047.63
548.84	58071.03
549.01	58078.05
549.18	57984.43
549.34	58403.39
549.51	58178.70
549.68	58258.27
549.84	58253.59
550.01	58445.52
550.18	58115.50
550.34	58326.15
550.51	58426.79
550.68	58394.03
550.84	58066.35
551.01	58560.20
551.18	58412.75
551.34	58452.54
551.51	58489.99
551.68	58522.76
551.84	58447.86
552.01	58504.03
552.18	58501.69
552.34	58429.13
552.51	58784.90
552.68	58677.23
552.84	58761.49
553.01	58756.81
553.18	58742.77
553.34	59018.95
553.51	58602.33
553.67	58859.79
553.84	58986.18
554.01	58838.73
554.17	58890.22
554.34	59049.38
554.51	58820.00
554.67	59171.08
554.84	58948.73
555.00	58911.28
555.17	58904.26
555.33	59047.04
555.50	58857.45
555.67	59056.40
555.83	59119.59
556.00	59054.06
556.16	59355.99
556.33	59194.49
556.50	59255.34
556.66	59269.39
556.83	59075.12
556.99	59269.39
557.16	59505.78
557.32	59264.70
557.49	59536.21
557.65	59358.33
557.82	59173.42
557.98	59208.53
558.15	59510.46
558.32	59339.60
558.48	59355.99
558.65	59278.75
558.81	59355.99
558.98	59358.33
559.14	59508.12
559.31	59604.08
559.47	59618.13
559.64	59594.72
559.80	59566.63
559.97	59599.40
560.13	59639.19
560.30	59824.09
560.46	59599.40
560.63	59594.72
560.79	59721.11
560.96	59704.73
561.12	59861.54
561.29	59739.83
561.45	59973.89
561.61	59833.46
561.78	59693.02
561.94	59756.22
562.11	59784.30
562.27	59655.57
562.44	59924.74
562.60	59772.60
562.77	60009.00
562.93	59739.83
563.10	59976.23
563.26	59756.22
563.42	60023.04
563.59	59842.82
563.75	59859.20
563.92	59927.08
564.08	59868.56
564.24	59971.55
564.41	60020.70
564.57	59894.31
564.74	60130.70
564.90	60175.17
565.07	59847.50
565.23	60212.62
565.39	59994.95
565.56	60111.98
565.72	59957.50
565.88	60210.28
566.05	59985.59
566.21	60109.64
566.38	60156.45
566.54	60186.88
566.70	60095.60
566.87	60315.61
567.03	60172.83
567.19	60451.36
567.36	60196.24
567.52	60142.41
567.68	60544.98
567.85	60425.61
568.01	60367.10
568.17	60378.80
568.34	60437.31
568.50	60271.14
568.66	60299.22
568.83	60254.75
568.99	60320.29
569.15	60397.52
569.32	60411.57
569.48	60296.88
569.64	60460.72
569.81	60313.26
569.97	60268.79
570.13	60392.84
570.30	60367.10
570.46	60310.92
570.62	60479.44
570.78	60317.95
570.95	60561.36
571.11	60535.62
571.27	60308.58
571.43	60339.01
571.60	60498.17
571.76	60392.84
571.92	60477.10
572.09	60463.06
572.25	60561.36
572.41	60561.36
572.57	60549.66
572.74	60687.75
572.90	60542.64
573.06	60596.47
573.22	60521.57
573.38	60636.26
573.55	60556.68
573.71	60687.75
573.87	60561.36
574.03	60505.19
574.20	60589.45
574.36	60566.04
574.52	60645.62
574.68	60554.34
574.84	60617.53
575.01	60662.00
575.17	60610.51
575.33	60598.81
575.49	60559.02
575.65	60725.20
575.82	60601.15
575.98	60666.69
576.14	60872.65
576.30	60870.31
576.46	60617.53
576.62	60626.90
576.79	60795.42
576.95	60495.83
577.11	60603.49
577.27	60849.25
577.43	60739.24
577.59	60767.33
577.75	60596.47
577.92	60608.17
578.08	60781.37
578.24	60563.70
578.40	60753.29
578.56	61052.87
578.72	60729.88
578.88	60828.18
579.04	60963.93
579.21	60926.49
579.37	60839.89
579.53	61020.11
579.69	60544.98
579.85	60626.90
580.01	60807.12
580.17	60608.17
580.33	60762.65
580.49	60809.46
580.65	60893.72
580.82	60713.50
580.98	60835.20
581.14	60762.65
581.30	60846.91
581.46	60872.65
581.62	61050.53
581.78	60488.80
581.94	60853.93
582.10	60657.32
582.26	60863.29
582.42	60753.29
582.58	60849.25
582.74	60795.42
582.90	60837.54
583.06	60699.45
583.22	60741.58
583.38	60907.76
583.54	60825.84
583.70	60919.46
583.86	60849.25
584.02	60823.50
584.18	60999.04
584.34	61078.62
584.50	61064.58
584.66	60851.59
584.82	60626.90
584.98	60917.12
585.14	60966.27
585.30	60727.54
585.46	60938.19
585.62	61137.13
585.78	61169.90
585.94	60828.18
586.10	60853.93
586.26	60987.34
586.42	60816.48
586.58	61071.60
586.74	60905.42
586.90	60856.27
587.06	60921.80
587.22	61045.85
587.38	60793.07
587.54	61186.28
587.70	61111.39
587.86	60928.83
588.02	61066.92
588.18	61139.47
588.34	61048.19
588.49	61020.11
