SpectraSuite Data File
++++++++++++++++++++++++++++++++++++
Date: Fri Oct 25 11:22:30 EDT 2013
User: price-jones
Dark Spectrum Present: No
Reference Spectrum Present: No
Number of Sampled Component Spectra: 1
Spectrometers: USB2+H05261
Integration Time (usec): 100000 (USB2+H05261)
Spectra Averaged: 1 (USB2+H05261)
Boxcar Smoothing: 0 (USB2+H05261)
Correct for Electrical Dark: No (USB2+H05261)
Strobe/Lamp Enabled: No (USB2+H05261)
Correct for Detector Non-linearity: No (USB2+H05261)
Correct for Stray Light: No (USB2+H05261)
Number of Pixels in Processed Spectrum: 2048
>>>>>Begin Processed Spectral Data<<<<<
365.73	259.80
365.92	259.80
366.12	259.80
366.32	110.01
366.52	74.90
366.72	166.18
366.91	166.18
367.11	107.66
367.31	110.01
367.51	112.35
367.70	170.86
367.90	156.82
368.10	184.90
368.30	95.96
368.49	51.49
368.69	194.26
368.89	142.77
369.09	105.32
369.28	191.92
369.48	168.52
369.68	142.77
369.87	203.63
370.07	191.92
370.27	203.63
370.47	273.84
370.66	543.00
370.86	664.71
371.06	620.24
371.25	751.31
371.45	671.73
371.65	699.82
371.84	627.26
372.04	688.12
372.24	814.51
372.44	692.80
372.63	692.80
372.83	847.27
373.03	697.48
373.22	727.91
373.42	788.76
373.62	716.20
373.81	763.01
374.01	835.57
374.21	795.78
374.40	809.83
374.60	781.74
374.79	866.00
374.99	809.83
375.19	875.36
375.38	779.40
375.58	905.79
375.78	915.15
375.97	826.21
376.17	908.13
376.37	863.66
376.56	889.40
376.76	868.34
376.95	873.02
377.15	929.19
377.35	938.55
377.54	901.11
377.74	884.72
377.93	896.43
378.13	957.28
378.33	992.39
378.52	877.70
378.72	966.64
378.91	997.07
379.11	936.21
379.31	945.58
379.50	985.37
379.70	976.00
379.89	992.39
380.09	898.77
380.28	917.49
380.48	978.34
380.68	980.68
380.87	1013.45
381.07	1018.13
381.26	1018.13
381.46	1027.50
381.65	990.05
381.85	1001.75
382.04	1083.67
382.24	1107.07
382.43	1036.86
382.63	1015.79
382.83	1078.99
383.02	1107.07
383.22	1116.44
383.41	1067.28
383.61	1132.82
383.80	1050.90
384.00	1137.50
384.19	1165.59
384.39	1153.88
384.58	1196.01
384.78	1111.75
384.97	1174.95
385.17	1177.29
385.36	1177.29
385.56	1118.78
385.75	1177.29
385.95	1219.42
386.14	1242.82
386.34	1203.04
386.53	1294.32
386.72	1266.23
386.92	1294.32
387.11	1266.23
387.31	1291.98
387.50	1172.61
387.70	1224.10
387.89	1303.68
388.09	1301.34
388.28	1324.74
388.48	1242.82
388.67	1315.38
388.86	1266.23
389.06	1263.89
389.25	1313.04
389.45	1390.28
389.64	1385.60
389.84	1390.28
390.03	1397.30
390.22	1359.85
390.42	1451.13
390.61	1373.89
390.81	1399.64
391.00	1444.11
391.19	1439.43
391.39	1441.77
391.58	1533.05
391.78	1537.73
391.97	1479.22
392.16	1392.62
392.36	1561.14
392.55	1577.52
392.75	1537.73
392.94	1521.35
393.13	1523.69
393.33	1650.08
393.52	1584.54
393.71	1561.14
393.91	1650.08
394.10	1486.24
394.29	1593.90
394.49	1610.29
394.68	1640.72
394.88	1549.43
395.07	1720.29
395.26	1755.40
395.46	1727.32
395.65	1659.44
395.84	1825.62
396.04	1703.91
396.23	1750.72
396.42	1703.91
396.62	1748.38
396.81	1846.68
397.00	1760.08
397.19	1788.17
397.39	1872.43
397.58	1820.94
397.77	1839.66
397.97	1853.70
398.16	1952.01
398.35	1933.28
398.55	1825.62
398.74	1781.15
398.93	1966.05
399.12	1937.96
399.32	2026.90
399.51	1963.71
399.70	1930.94
399.90	1926.26
400.09	1994.14
400.28	2050.31
400.47	2129.89
400.67	2132.23
400.86	1998.82
401.05	2005.84
401.24	2174.36
401.44	2165.00
401.63	2153.29
401.82	2207.13
402.01	2136.91
402.21	2211.81
402.40	2216.49
402.59	2148.61
402.78	2235.21
402.97	2326.49
403.17	2146.27
403.36	2073.71
403.55	2267.98
403.74	2317.13
403.93	2333.51
404.13	2443.52
404.32	2394.37
404.51	2462.24
404.70	2562.89
404.89	2469.27
405.09	2389.69
405.28	2499.69
405.47	2429.48
405.66	2555.86
405.85	2572.25
406.05	2492.67
406.24	2619.06
406.43	2555.86
406.62	2684.59
406.81	2747.79
407.00	2525.44
407.20	2672.89
407.39	2534.80
407.58	2825.03
407.77	2876.52
407.96	2853.11
408.15	2782.90
408.34	2759.49
408.54	2820.35
408.73	2876.52
408.92	2883.54
409.11	2843.75
409.30	2864.82
409.49	3009.93
409.68	3054.40
409.87	2949.08
410.07	3061.42
410.26	3073.12
410.45	3023.97
410.64	3150.36
410.83	3000.57
411.02	3080.14
411.21	3183.13
411.40	3185.47
411.59	3358.67
411.78	3246.32
411.98	3108.23
412.17	3274.41
412.36	3428.88
412.55	3426.54
412.74	3459.31
412.93	3353.99
413.12	3309.52
413.31	3648.90
413.50	3480.38
413.69	3478.04
413.88	3576.34
414.07	3627.83
414.26	3777.62
414.45	3777.62
414.64	3721.45
414.83	3721.45
415.02	3906.35
415.22	3887.63
415.41	3873.59
415.60	3932.10
415.79	3871.25
415.98	4084.23
416.17	4039.76
416.36	3990.61
416.55	4032.74
416.74	4262.12
416.93	4063.17
417.12	4224.67
417.31	4095.94
417.50	4346.37
417.69	4402.55
417.88	4337.01
418.07	4360.42
418.26	4423.61
418.45	4358.08
418.64	4652.98
418.83	4512.55
419.02	4517.23
419.21	4526.60
419.39	4566.39
419.58	4615.54
419.77	4540.64
419.96	4634.26
420.15	4652.98
420.34	4702.14
420.53	4660.01
420.72	4755.97
420.91	4744.27
421.10	4772.35
421.29	4947.89
421.48	4816.82
421.67	4781.71
421.86	4882.36
422.05	4870.65
422.24	4814.48
422.43	4802.78
422.61	5032.15
422.80	4964.28
422.99	5111.73
423.18	4896.40
423.37	5018.11
423.56	4973.64
423.75	4959.60
423.94	4854.27
424.13	4741.93
424.32	4887.04
424.50	5156.20
424.69	5055.56
424.88	5015.77
425.07	5118.75
425.26	4975.98
425.45	5146.84
425.64	5069.60
425.83	5055.56
426.01	5181.95
426.20	5083.64
426.39	5118.75
426.58	5125.77
426.77	5151.52
426.96	5226.42
427.15	5305.99
427.33	5195.99
427.52	5294.29
427.71	5345.78
427.90	5233.44
428.09	5298.97
428.28	5439.40
428.46	5514.30
428.65	5181.95
428.84	5568.13
429.03	5570.48
429.22	5317.70
429.40	5572.82
429.59	5549.41
429.78	5284.93
429.97	5284.93
430.16	5575.16
430.34	5659.42
430.53	5827.93
430.72	5727.29
430.91	5563.45
431.10	5731.97
431.28	5825.59
431.47	5827.93
431.66	5888.79
431.85	5942.62
432.03	6073.69
432.22	5980.07
432.41	5951.98
432.60	5973.05
432.79	5944.96
432.97	6019.86
433.16	6092.41
433.35	5921.56
433.54	6141.57
433.72	6228.17
433.91	6260.93
434.10	6197.74
434.28	6246.89
434.47	6375.62
434.66	6214.12
434.85	6368.60
435.03	6282.00
435.22	6469.24
435.41	6640.10
435.59	6417.75
435.78	6651.80
435.97	6530.09
436.16	6504.35
436.34	6466.90
436.53	6548.82
436.72	6745.42
436.90	6424.77
437.09	6553.50
437.28	6623.72
437.46	6808.62
437.65	6551.16
437.84	6836.70
438.02	6686.91
438.21	6876.49
438.40	6656.48
438.58	7089.48
438.77	7133.95
438.96	6939.69
439.14	7290.77
439.33	7358.64
439.52	7283.75
439.70	7323.54
439.89	7288.43
440.08	7538.87
440.26	7468.65
440.45	7424.18
440.63	7637.17
440.82	7660.57
441.01	7627.81
441.19	7688.66
441.38	7723.77
441.57	7791.64
441.75	7840.79
441.94	8006.97
442.12	8140.38
442.31	7960.16
442.50	8023.36
442.68	7988.25
442.87	8056.12
443.05	8177.83
443.24	8339.33
443.43	8107.62
443.61	8217.62
443.80	8610.83
443.98	7978.89
444.17	7803.35
444.35	8353.37
444.54	8482.10
444.73	8521.89
444.91	8425.93
445.10	8344.01
445.28	8507.85
445.47	8355.71
445.65	8409.54
445.84	8582.74
446.02	8601.47
446.21	8617.85
446.39	8582.74
446.58	8517.21
446.77	8559.34
446.95	8285.50
447.14	8479.76
447.32	8624.87
447.51	8599.13
447.69	8732.54
447.88	8664.66
448.06	8643.60
448.25	8526.57
448.43	8594.45
448.62	8725.52
448.80	8746.58
448.99	8870.63
449.17	8617.85
449.36	8636.58
449.54	8938.51
449.73	9006.38
449.91	9050.85
450.10	9025.11
450.28	9167.88
450.46	9114.05
450.65	9151.49
450.83	8959.57
451.02	8982.98
451.20	9324.69
451.39	9085.96
451.57	9256.82
451.76	9245.12
451.94	9270.86
452.13	9584.49
452.31	9486.19
452.49	9294.27
452.68	9359.80
452.86	9317.67
453.05	9537.68
453.23	9561.09
453.42	9495.55
453.60	9397.25
453.78	9799.82
453.97	9638.33
454.15	9568.11
454.34	9558.75
454.52	9748.33
454.70	9729.61
454.89	9856.00
455.07	9851.31
455.26	10005.79
455.44	10108.77
455.62	10127.50
455.81	10260.91
455.99	10073.67
456.17	10459.85
456.36	10202.40
456.54	10473.90
456.73	10249.21
456.91	10621.35
457.09	10377.94
457.28	10733.70
457.46	10494.96
457.64	10609.65
457.83	10675.18
458.01	10551.14
458.19	10794.55
458.38	10717.31
458.56	10995.84
458.74	10817.96
458.93	10794.55
459.11	10810.93
459.29	10717.31
459.48	10785.19
459.66	10946.69
459.84	10956.05
460.03	11250.96
460.21	11133.93
460.39	11215.85
460.57	11215.85
460.76	11241.59
460.94	11190.10
461.12	11297.77
461.31	11414.79
461.49	11405.43
461.67	11274.36
461.85	11800.98
462.04	11573.95
462.22	11782.26
462.40	11531.82
462.59	11393.73
462.77	11723.74
462.95	11843.11
463.13	11693.32
463.32	11761.19
463.50	11800.98
463.68	11936.73
463.86	11948.43
464.05	11634.80
464.23	11939.07
464.41	12058.44
464.59	11962.48
464.78	12184.83
464.96	12079.50
465.14	11962.48
465.32	12159.08
465.50	12573.36
465.69	12369.73
465.87	12039.72
466.05	12060.78
466.23	12519.53
466.41	12297.17
466.60	12858.90
466.78	12400.16
466.96	12512.50
467.14	12542.93
467.32	12556.97
467.51	12688.04
467.69	12287.81
467.87	12582.72
468.05	12814.43
468.23	12601.44
468.41	12657.62
468.60	12767.62
468.78	13048.49
468.96	12791.03
469.14	13015.72
469.32	13153.81
469.50	12957.21
469.69	13151.47
469.87	13383.18
470.05	13446.38
470.23	13411.27
470.41	13558.72
470.59	13479.15
470.77	13579.79
470.95	13343.39
471.14	13628.94
471.32	13317.65
471.50	13652.34
471.68	13762.35
471.86	13563.40
472.04	13870.01
472.22	14148.54
472.40	13689.79
472.58	13951.93
472.77	14022.15
472.95	14445.79
473.13	14693.88
473.31	14324.08
473.49	14387.27
473.67	14434.08
473.85	14445.79
474.03	14923.26
474.21	14637.71
474.39	14991.13
474.57	14867.08
474.75	15087.09
474.93	15009.86
475.12	15133.90
475.30	15143.27
475.48	15342.21
475.66	15356.25
475.84	15218.16
476.02	15922.66
476.20	15550.52
476.38	15892.24
476.56	16271.40
476.74	16137.99
476.92	16121.61
477.10	16226.93
477.28	16358.00
477.46	16285.45
477.64	16606.10
477.82	16739.51
478.00	17053.14
478.18	16622.48
478.36	16968.88
478.54	17207.62
478.72	17352.73
478.90	17759.98
479.08	17699.13
479.26	17825.52
479.44	17818.50
479.62	18043.19
479.80	18059.57
479.98	18286.61
480.16	18796.84
480.34	18611.94
480.52	18808.54
480.70	19070.68
480.88	18799.18
481.06	18899.83
481.24	19023.87
481.41	19269.63
481.59	19723.69
481.77	19520.07
481.95	19665.18
482.13	19850.08
482.31	19824.34
482.49	20320.53
482.67	20582.67
482.85	20676.29
483.03	20844.81
483.21	20884.60
483.39	21123.33
483.57	20940.77
483.74	21556.33
483.92	21607.83
484.10	21500.16
484.28	22127.42
484.46	21947.20
484.64	22642.34
484.82	21799.75
485.00	22806.18
485.18	22831.93
485.35	23267.27
485.53	23159.60
485.71	23126.83
485.89	23800.91
486.07	23929.64
486.25	23594.94
486.43	24044.32
486.61	23967.09
486.78	24526.47
486.96	24325.19
487.14	24931.39
487.32	25008.62
487.50	25230.98
487.68	25064.80
487.85	25371.41
488.03	26036.12
488.21	26043.14
488.39	26061.87
488.57	26319.32
488.75	26761.69
488.92	26930.20
489.10	27164.26
489.28	27300.01
489.46	27442.78
489.64	27349.16
489.81	27716.62
489.99	28119.20
490.17	28231.54
490.35	28554.54
490.53	28439.85
490.70	28854.12
490.88	28797.95
491.06	29174.78
491.24	29355.00
491.41	29661.61
491.59	29862.90
491.77	29790.34
491.95	30057.16
492.13	29982.26
492.30	30164.82
492.48	30532.29
492.66	30602.50
492.84	30953.58
493.01	31009.76
493.19	31201.68
493.37	31150.19
493.54	31625.32
493.72	31826.60
493.90	31573.83
494.08	32102.79
494.25	32676.22
494.43	32320.46
494.61	32666.86
494.79	32910.27
494.96	33006.23
495.14	33434.55
495.32	33387.74
495.49	33394.76
495.67	33413.49
495.85	34073.52
496.02	33993.94
496.20	34277.15
496.38	34375.45
496.55	34497.16
496.73	35061.22
496.91	35086.97
497.09	35115.06
497.26	35653.38
497.44	35306.98
497.62	35793.81
497.79	35885.09
497.97	35868.71
498.14	36617.68
498.32	36769.82
498.50	36510.02
498.67	36975.78
498.85	36971.10
499.03	37432.19
499.20	37031.96
499.38	37163.03
499.56	37804.33
499.73	37308.14
499.91	38242.01
500.08	37998.60
500.26	38080.52
500.44	37773.91
500.61	38340.32
500.79	38679.69
500.97	38565.01
501.14	39440.37
501.32	39185.25
501.49	39033.11
501.67	39145.46
501.84	39463.77
502.02	39604.20
502.20	39416.96
502.37	39746.98
502.55	39894.43
502.72	39737.62
502.90	39966.99
503.07	40062.95
503.25	40282.96
503.43	40254.87
503.60	40676.17
503.78	40807.24
503.95	40722.98
504.13	41209.81
504.30	41305.77
504.48	40849.37
504.65	41282.37
504.83	41668.56
505.01	41883.89
505.18	41530.47
505.36	42171.77
505.53	41385.35
505.71	42302.84
505.88	42593.07
506.06	42071.13
506.23	42471.36
506.41	42258.37
506.58	42726.48
506.76	42890.32
506.93	43079.90
507.11	42981.60
507.28	43110.33
507.46	43250.76
507.63	43526.94
507.81	43744.61
507.98	43171.18
508.16	43576.09
508.33	44252.51
508.50	44322.72
508.68	44172.93
508.85	44739.34
509.03	44458.48
509.20	44540.39
509.38	45118.51
509.55	44619.97
509.73	45258.94
509.90	44809.56
510.08	45315.11
510.25	44926.58
510.42	44837.64
510.60	45668.53
510.77	45476.61
510.95	46401.12
511.12	45785.56
511.30	45989.19
511.47	45808.96
511.64	45778.54
511.82	46810.71
511.99	46178.77
512.17	47014.34
512.34	46380.06
512.51	46705.39
512.69	47370.10
512.86	46691.35
513.04	46920.72
513.21	46981.57
513.38	47079.88
513.56	47456.70
513.73	47531.60
513.90	47758.63
514.08	47473.09
514.25	47618.20
514.43	47962.26
514.60	47995.03
514.77	47845.23
514.95	48271.21
515.12	48336.74
515.29	48133.12
515.47	48507.60
515.64	48641.01
515.81	48451.43
515.99	48458.45
516.16	48861.02
516.33	48921.88
516.51	48961.67
516.68	49282.32
516.85	49118.48
517.03	49272.96
517.20	49511.69
517.37	49530.42
517.54	49584.25
517.72	49256.57
517.89	49778.51
518.06	49727.02
518.24	49806.60
518.41	49670.85
518.58	49542.12
518.75	49392.33
518.93	50103.85
519.10	49722.34
519.27	50452.59
519.45	50225.56
519.62	50712.39
519.79	50576.64
519.96	50604.72
520.14	50639.83
520.31	50380.03
520.48	51058.79
520.65	50890.27
520.83	51292.84
521.00	51011.98
521.17	51224.96
521.34	51264.75
521.52	51299.86
521.69	51304.54
521.86	51459.02
522.03	51463.70
522.20	51782.01
522.38	52090.96
522.55	51723.50
522.72	51807.76
522.89	51807.76
523.07	52226.71
523.24	52100.32
523.41	51976.28
523.58	51966.91
523.75	52512.26
523.92	52240.76
524.10	52308.63
524.27	52610.56
524.44	52612.90
524.61	52498.22
524.78	52296.93
524.96	52357.78
525.13	52704.18
525.30	53027.18
525.47	53123.14
525.64	52896.11
525.81	52907.81
525.98	53214.42
526.16	52856.32
526.33	52963.98
526.50	53205.06
526.67	53193.36
526.84	53258.89
527.01	52917.17
527.18	53312.72
527.36	53553.80
527.53	53523.37
527.70	53635.72
527.87	53790.19
528.04	53277.61
528.21	53846.36
528.38	53928.28
528.55	53839.34
528.72	53797.21
528.89	53872.11
529.07	53872.11
529.24	53776.15
529.41	54298.09
529.58	53989.14
529.75	54225.53
529.92	54073.40
530.09	54199.79
530.26	54384.69
530.43	54490.01
530.60	54277.02
530.77	54113.19
530.94	54391.71
531.11	54356.60
531.28	54550.87
531.46	54487.67
531.63	54707.68
531.80	54738.11
531.97	54899.61
532.14	54941.74
532.31	55103.23
532.48	55084.51
532.65	55040.04
532.82	54798.96
532.99	54934.71
533.16	55288.13
533.33	55299.84
533.50	55477.72
533.67	55288.13
533.84	55107.91
534.01	55299.84
534.18	54997.91
534.35	55576.02
534.52	55416.86
534.69	55341.97
534.86	55643.90
535.03	55358.35
535.20	55618.15
535.37	55765.60
535.54	55592.40
535.71	55643.90
535.88	55842.84
536.05	56027.74
536.22	55896.67
536.38	55997.32
536.55	55889.65
536.72	56067.53
536.89	55847.52
537.06	56203.28
537.23	56289.88
537.40	55952.85
537.57	55966.89
537.74	56296.91
537.91	56580.11
538.08	56086.26
538.25	56041.79
538.42	56289.88
538.59	56495.85
538.75	56294.56
538.92	56388.19
539.09	56612.88
539.26	56327.33
539.43	56495.85
539.60	56573.09
539.77	56624.58
539.94	56891.40
540.11	56666.71
540.28	56786.08
540.44	56676.07
540.61	56868.00
540.78	56772.03
540.95	56804.80
541.12	56669.05
541.29	56872.68
541.46	56896.08
541.62	56793.10
541.79	56982.68
541.96	56940.55
542.13	56832.89
542.30	57359.51
542.47	57151.20
542.63	57003.75
542.80	57190.99
542.97	57418.02
543.14	57553.77
543.31	57434.41
543.48	57640.37
543.64	57865.06
543.81	57766.76
543.98	57724.63
544.15	57895.49
544.32	57848.68
544.48	57841.66
544.65	57748.04
544.82	57769.10
544.99	57549.09
545.16	57968.05
545.32	57719.95
545.49	57986.77
545.66	58185.72
545.83	58005.50
546.00	57944.64
546.16	58269.98
546.33	57844.00
546.50	57771.44
546.67	58213.80
546.83	57932.94
547.00	58017.20
547.17	58059.33
547.34	58099.12
547.50	58333.17
547.67	58595.31
547.84	58375.30
548.00	58447.86
548.17	58590.63
548.34	58457.22
548.51	58618.72
548.67	58468.92
548.84	58604.67
549.01	58403.39
549.18	58562.54
549.34	58459.56
549.51	58693.61
549.68	58653.82
549.84	58532.12
550.01	58731.06
550.18	58536.80
550.34	58749.79
550.51	58986.18
550.68	58777.87
550.84	58548.50
551.01	58855.11
551.18	58930.01
551.34	58876.18
551.51	59023.63
551.68	59110.23
551.84	59051.72
552.01	58761.49
552.18	59049.38
552.34	58866.81
552.51	59367.69
552.68	59004.91
552.84	58948.73
553.01	59372.37
553.18	59215.55
553.34	59178.10
553.51	58918.31
553.67	59283.43
553.84	59220.23
554.01	59187.47
554.17	59391.09
554.34	59435.56
554.51	59231.94
554.67	59171.08
554.84	59011.93
555.00	59229.60
555.17	59201.51
555.33	59334.92
555.50	59440.24
555.67	59220.23
555.83	59192.15
556.00	59435.56
556.16	59730.47
556.33	59664.94
556.50	59519.82
556.66	59702.38
556.83	59311.52
556.99	59533.87
557.16	59573.66
557.32	59756.22
557.49	59896.65
557.65	59798.35
557.82	59746.86
557.98	59683.66
558.15	59901.33
558.32	59739.83
558.48	59655.57
558.65	59952.82
558.81	59697.70
558.98	59807.71
559.14	59955.16
559.31	59917.71
559.47	59950.48
559.64	60189.22
559.80	60055.81
559.97	60055.81
560.13	59987.93
560.30	59910.69
560.46	60100.28
560.63	60133.04
560.79	60170.49
560.96	60163.47
561.12	60119.00
561.29	60121.34
561.45	60004.31
561.61	60184.54
561.78	60182.19
561.94	60158.79
562.11	60264.11
562.27	60116.66
562.44	60217.30
562.60	60278.16
562.77	60320.29
562.93	60156.45
563.10	60133.04
563.26	59924.74
563.42	60423.27
563.59	60397.52
563.75	60299.22
563.92	60310.92
564.08	60205.60
564.24	60573.06
564.41	60346.03
564.57	60507.53
564.74	60229.01
564.90	60427.95
565.07	60355.39
565.23	60385.82
565.39	60498.17
565.56	60266.45
565.72	60296.88
565.88	60526.25
566.05	60390.50
566.21	60467.74
566.38	60453.70
566.54	60516.89
566.70	60587.11
566.87	60603.49
567.03	60481.78
567.19	60575.40
567.36	60507.53
567.52	60561.36
567.68	60914.78
567.85	60591.79
568.01	60612.85
568.17	60516.89
568.34	60720.52
568.50	60734.56
568.66	60589.45
568.83	60746.26
568.99	60746.26
569.15	60587.11
569.32	60830.52
569.48	60657.32
569.64	60835.20
569.81	60762.65
569.97	60748.60
570.13	60704.13
570.30	60664.35
570.46	60720.52
570.62	60940.53
570.78	60685.41
570.95	60739.24
571.11	60898.40
571.27	60690.09
571.43	60886.70
571.60	61052.87
571.76	60839.89
571.92	60912.44
572.09	60853.93
572.25	61179.26
572.41	60973.30
572.57	60966.27
572.74	61024.79
572.90	60910.10
573.06	60919.46
573.22	60987.34
573.38	60870.31
573.55	61003.72
573.71	61055.21
573.87	60938.19
574.03	60746.26
574.20	61001.38
574.36	60905.42
574.52	61113.73
574.68	60926.49
574.84	61298.63
575.01	60914.78
575.17	60968.61
575.33	61069.26
575.49	61050.53
575.65	61155.86
575.82	61275.22
575.98	60956.91
576.14	61230.75
576.30	61263.52
576.46	61078.62
576.62	60947.55
576.79	60966.27
576.95	61066.92
577.11	61174.58
577.27	61006.06
577.43	61036.49
577.59	61120.75
577.75	60877.33
577.92	61090.32
578.08	60989.68
578.24	61155.86
578.40	61205.01
578.56	61165.22
578.72	61174.58
578.88	61223.73
579.04	61298.63
579.21	61048.19
579.37	61359.48
579.53	61357.14
579.69	61137.13
579.85	61197.99
580.01	61244.80
580.17	61141.81
580.33	61275.22
580.49	61300.97
580.65	61226.07
580.82	61261.18
580.98	61076.28
581.14	61062.24
581.30	61219.05
581.46	61148.84
581.62	61312.67
581.78	61179.26
581.94	61371.19
582.10	61219.05
582.26	61073.94
582.42	61050.53
582.58	61069.26
582.74	61209.69
582.90	61286.93
583.06	61123.09
583.22	60949.89
583.38	61396.93
583.54	61202.67
583.70	61141.81
583.86	61317.35
584.02	61071.60
584.18	61286.93
584.34	61275.22
584.50	61408.64
584.66	61202.67
584.82	61169.90
584.98	61455.45
585.14	61340.76
585.30	61343.10
585.46	61410.98
585.62	61291.61
585.78	61385.23
585.94	61258.84
586.10	61406.30
586.26	61272.88
586.42	61373.53
586.58	61504.60
586.74	61509.28
586.90	61106.71
587.06	61382.89
587.22	61509.28
587.38	61432.04
587.54	61579.49
587.70	61460.13
587.86	61446.08
588.02	61336.08
588.18	61509.28
588.34	61286.93
588.49	61153.52
