SpectraSuite Data File
++++++++++++++++++++++++++++++++++++
Date: Fri Oct 25 11:33:11 EDT 2013
User: price-jones
Dark Spectrum Present: No
Reference Spectrum Present: No
Number of Sampled Component Spectra: 1
Spectrometers: USB2+H05261
Integration Time (usec): 100000 (USB2+H05261)
Spectra Averaged: 1 (USB2+H05261)
Boxcar Smoothing: 0 (USB2+H05261)
Correct for Electrical Dark: No (USB2+H05261)
Strobe/Lamp Enabled: No (USB2+H05261)
Correct for Detector Non-linearity: No (USB2+H05261)
Correct for Stray Light: No (USB2+H05261)
Number of Pixels in Processed Spectrum: 2048
>>>>>Begin Processed Spectral Data<<<<<
365.73	224.69
365.92	224.69
366.12	224.69
366.32	201.29
366.52	173.20
366.72	163.84
366.91	102.98
367.11	191.92
367.31	205.97
367.51	234.05
367.70	173.20
367.90	269.16
368.10	154.48
368.30	180.22
368.49	149.79
368.69	177.88
368.89	135.75
369.09	196.60
369.28	198.95
369.48	191.92
369.68	210.65
369.87	168.52
370.07	276.18
370.27	360.44
370.47	374.49
370.66	533.64
370.86	503.22
371.06	521.94
371.25	589.82
371.45	589.82
371.65	571.09
371.84	564.07
372.04	540.66
372.24	575.77
372.44	540.66
372.63	578.11
372.83	571.09
373.03	587.47
373.22	599.18
373.42	599.18
373.62	578.11
373.81	617.90
374.01	657.69
374.21	617.90
374.40	648.33
374.60	697.48
374.79	671.73
374.99	638.97
375.19	662.37
375.38	674.07
375.58	660.03
375.78	704.50
375.97	697.48
376.17	692.80
376.37	664.71
376.56	704.50
376.76	758.33
376.95	725.57
377.15	669.39
377.35	683.44
377.54	725.57
377.74	671.73
377.93	725.57
378.13	648.33
378.33	723.23
378.52	713.86
378.72	620.24
378.91	688.12
379.11	716.20
379.31	739.61
379.50	800.46
379.70	718.54
379.89	821.53
380.09	720.88
380.28	753.65
380.48	671.73
380.68	802.80
380.87	753.65
381.07	664.71
381.26	763.01
381.46	730.25
381.65	667.05
381.85	702.16
382.04	751.31
382.24	770.04
382.43	702.16
382.63	763.01
382.83	812.17
383.02	779.40
383.22	809.83
383.41	758.33
383.61	802.80
383.80	828.55
384.00	751.31
384.19	777.06
384.39	751.31
384.58	821.53
384.78	777.06
384.97	870.68
385.17	819.19
385.36	837.91
385.56	821.53
385.75	809.83
385.95	887.06
386.14	819.19
386.34	802.80
386.53	875.36
386.72	851.96
386.92	889.40
387.11	870.68
387.31	788.76
387.50	851.96
387.70	873.02
387.89	912.81
388.09	882.38
388.28	873.02
388.48	901.11
388.67	929.19
388.86	1008.77
389.06	943.24
389.25	926.85
389.45	919.83
389.64	954.94
389.84	1050.90
390.03	980.68
390.22	887.06
390.42	945.58
390.61	997.07
390.81	894.08
391.00	1090.69
391.19	1036.86
391.39	1013.45
391.58	1060.26
391.78	1032.18
391.97	964.30
392.16	1029.84
392.36	1088.35
392.55	1071.97
392.75	1121.12
392.94	1018.13
393.13	1132.82
393.33	1114.10
393.52	1086.01
393.71	1158.57
393.91	1121.12
394.10	1102.39
394.29	1104.73
394.49	1025.15
394.68	1109.41
394.88	1128.14
395.07	1121.12
395.26	1090.69
395.46	1165.59
395.65	1088.35
395.84	1212.40
396.04	1327.08
396.23	1212.40
396.42	1158.57
396.62	1160.91
396.81	1160.91
397.00	1242.82
397.19	1153.88
397.39	1303.68
397.58	1268.57
397.77	1277.93
397.97	1254.53
398.16	1294.32
398.35	1275.59
398.55	1249.85
398.74	1238.14
398.93	1481.56
399.12	1362.19
399.32	1247.51
399.51	1268.57
399.70	1380.92
399.90	1385.60
400.09	1362.19
400.28	1364.53
400.47	1369.21
400.67	1394.96
400.86	1420.71
401.05	1420.71
401.24	1401.98
401.44	1448.79
401.63	1528.37
401.82	1476.88
402.01	1497.94
402.21	1530.71
402.40	1493.26
402.59	1423.05
402.78	1561.14
402.97	1497.94
403.17	1504.96
403.36	1605.61
403.55	1614.97
403.74	1591.56
403.93	1593.90
404.13	1650.08
404.32	1591.56
404.51	1722.63
404.70	1516.67
404.89	1692.21
405.09	1694.55
405.28	1708.59
405.47	1694.55
405.66	1764.76
405.85	1736.68
406.05	1732.00
406.24	1792.85
406.43	1853.70
406.62	1750.72
406.81	1781.15
407.00	1832.64
407.20	1774.13
407.39	1825.62
407.58	1895.83
407.77	1849.02
407.96	1991.80
408.15	1996.48
408.34	1909.88
408.54	1900.52
408.73	1881.79
408.92	1984.77
409.11	2045.63
409.30	1956.69
409.49	1975.41
409.68	2026.90
409.87	2108.82
410.07	2085.42
410.26	2078.40
410.45	2033.93
410.64	2134.57
410.83	2141.59
411.02	2120.53
411.21	2176.70
411.40	2225.85
411.59	2228.19
411.78	2200.10
411.98	2188.40
412.17	2282.02
412.36	2193.08
412.55	2457.56
412.74	2326.49
412.93	2331.17
413.12	2455.22
413.31	2459.90
413.50	2459.90
413.69	2307.77
413.88	2530.12
414.07	2347.56
414.26	2495.01
414.45	2553.52
414.64	2520.76
414.83	2595.65
415.02	2544.16
415.22	2689.28
415.41	2731.41
415.60	2616.72
415.79	2789.92
415.98	2717.36
416.17	2698.64
416.36	2862.48
416.55	2864.82
416.74	2836.73
416.93	2696.30
417.12	2902.26
417.31	2904.60
417.50	2848.43
417.69	2967.80
417.88	2970.14
418.07	2988.86
418.26	2946.73
418.45	3056.74
418.64	3215.90
418.83	3021.63
419.02	3047.38
419.21	3124.62
419.39	3129.30
419.58	3059.08
419.77	3091.85
419.96	3265.05
420.15	3164.40
420.34	3251.00
420.53	3213.56
420.72	3321.22
420.91	3382.07
421.10	3304.84
421.29	3384.41
421.48	3332.92
421.67	3396.12
421.86	3342.28
422.05	3276.75
422.24	3342.28
422.43	3391.44
422.61	3398.46
422.80	3482.72
422.99	3428.88
423.18	3520.17
423.37	3510.80
423.56	3485.06
423.75	3391.44
423.94	3480.38
424.13	3176.11
424.32	3253.34
424.50	3564.64
424.69	3531.87
424.88	3548.25
425.07	3475.70
425.26	3342.28
425.45	3403.14
425.64	3482.72
425.83	3599.74
426.01	3632.51
426.20	3548.25
426.39	3552.93
426.58	3606.77
426.77	3501.44
426.96	3592.72
427.15	3583.36
427.33	3602.08
427.52	3604.42
427.71	3651.24
427.90	3522.51
428.09	3641.87
428.28	3758.90
428.46	3705.07
428.65	3679.32
428.84	3770.60
429.03	3875.93
429.22	3756.56
429.40	3758.90
429.59	3796.35
429.78	3707.41
429.97	3737.84
430.16	3765.92
430.34	3758.90
430.53	3904.01
430.72	3985.93
430.91	3845.50
431.10	3815.07
431.28	3953.16
431.47	3833.80
431.66	4227.01
431.85	3976.57
432.03	4072.53
432.22	4095.94
432.41	4016.36
432.60	4030.40
432.79	4077.21
432.97	4196.58
433.16	4154.45
433.35	4042.11
433.54	4264.46
433.72	4255.09
433.91	4320.63
434.10	4163.81
434.28	4243.39
434.47	4238.71
434.66	4196.58
434.85	4358.08
435.03	4278.50
435.22	4444.68
435.41	4620.22
435.59	4362.76
435.78	4421.27
435.97	4493.83
436.16	4493.83
436.34	4484.47
436.53	4486.81
436.72	4699.80
436.90	4435.32
437.09	4564.04
437.28	4477.44
437.46	4599.15
437.65	4599.15
437.84	4674.05
438.02	4606.17
438.21	4767.67
438.40	4547.66
438.58	4880.02
438.77	4896.40
438.96	4688.09
439.14	5006.41
439.33	4971.30
439.52	5015.77
439.70	4823.84
439.89	5144.50
440.08	5172.58
440.26	5118.75
440.45	5107.05
440.63	5139.82
440.82	5320.04
441.01	5200.67
441.19	5151.52
441.38	5310.68
441.57	5149.18
441.75	5210.03
441.94	5383.23
442.12	5664.10
442.31	5530.69
442.50	5561.11
442.68	5460.47
442.87	5678.14
443.05	5568.13
443.24	5708.57
443.43	5558.77
443.61	5706.23
443.80	5771.76
443.98	5640.69
444.17	5465.15
444.35	5518.98
444.54	5886.45
444.73	5713.25
444.91	5657.07
445.10	5654.73
445.28	5785.80
445.47	5685.16
445.65	5722.61
445.84	5832.62
446.02	5820.91
446.21	5706.23
446.39	5720.27
446.58	5844.32
446.77	5846.66
446.95	5643.03
447.14	5809.21
447.32	5783.46
447.51	5720.27
447.69	5966.03
447.88	5841.98
448.06	5895.81
448.25	5790.49
448.43	5839.64
448.62	5849.00
448.80	5951.98
448.99	5841.98
449.17	5956.66
449.36	5795.17
449.54	6097.10
449.73	6239.87
449.91	6181.35
450.10	6120.50
450.28	6305.40
450.46	6129.86
450.65	6193.06
450.83	6033.90
451.02	6162.63
451.20	6345.19
451.39	6253.91
451.57	6209.44
451.76	6211.78
451.94	6202.42
452.13	6314.77
452.31	6300.72
452.49	6202.42
452.68	6459.88
452.86	6293.70
453.05	6434.13
453.23	6574.56
453.42	6424.77
453.60	6356.90
453.78	6595.63
453.97	6422.43
454.15	6471.58
454.34	6576.91
454.52	6590.95
454.70	6637.76
454.89	6677.55
455.07	6803.94
455.26	6719.68
455.44	6778.19
455.62	6726.70
455.81	6565.20
455.99	6780.53
456.17	6972.46
456.36	6766.49
456.54	7007.56
456.73	7066.08
456.91	7180.76
457.09	7194.81
457.28	7105.87
457.46	6960.75
457.64	7056.72
457.83	7145.66
458.01	7094.16
458.19	7428.86
458.38	7250.98
458.56	7323.54
458.74	7126.93
458.93	7269.70
459.11	7325.88
459.29	7389.07
459.48	7496.74
459.66	7454.61
459.84	7332.90
460.03	7475.67
460.21	7405.46
460.39	7407.80
460.57	7613.76
460.76	7564.61
460.94	7468.65
461.12	7648.87
461.31	7470.99
461.49	7461.63
461.67	7679.30
461.85	7751.85
462.04	7875.90
462.22	8154.43
462.40	7822.07
462.59	7714.41
462.77	7707.38
462.95	7756.54
463.13	7742.49
463.32	7779.94
463.50	7906.33
463.68	7955.48
463.86	8100.59
464.05	8060.80
464.23	7955.48
464.41	8032.72
464.59	7976.55
464.78	8058.46
464.96	8042.08
465.14	8077.19
465.32	8088.89
465.50	8135.70
465.69	8182.51
465.87	8355.71
466.05	8280.82
466.23	8262.09
466.41	8456.36
466.60	8446.99
466.78	8358.05
466.96	8238.69
467.14	8219.96
467.32	8353.37
467.51	8428.27
467.69	8461.04
467.87	8423.59
468.05	8458.70
468.23	8454.02
468.41	8549.98
468.60	8571.04
468.78	8528.91
468.96	8446.99
469.14	8568.70
469.32	8739.56
469.50	8585.08
469.69	8767.65
469.87	8840.20
470.05	8816.80
470.23	8994.68
470.41	8858.93
470.59	9156.18
470.77	9100.00
470.95	8924.46
471.14	9135.11
471.32	8807.44
471.50	9186.60
471.68	9179.58
471.86	9170.22
472.04	9181.92
472.22	9359.80
472.40	9041.49
472.58	9366.82
472.77	9373.85
472.95	9518.96
473.13	9785.78
473.31	9486.19
473.49	9514.28
473.67	9551.73
473.85	9731.95
474.03	9778.76
474.21	9865.36
474.39	9909.83
474.57	9881.74
474.75	10052.60
474.93	10012.81
475.12	10176.65
475.30	10209.42
475.48	10228.14
475.66	10267.93
475.84	10310.06
476.02	10338.15
476.20	10235.16
476.38	10518.37
476.56	10689.23
476.74	10654.12
476.92	10644.76
477.10	10672.84
477.28	10951.37
477.46	10836.68
477.64	10897.53
477.82	11199.46
478.00	11377.34
478.18	11445.22
478.36	11468.62
478.54	11424.15
478.72	11391.39
478.90	11784.60
479.08	11665.23
479.26	11981.20
479.44	11721.40
479.62	12067.80
479.80	12163.76
479.98	11999.93
480.16	12449.31
480.34	12437.61
480.52	12348.67
480.70	12475.06
480.88	12320.58
481.06	12549.95
481.24	12674.00
481.41	12709.11
481.59	12861.24
481.77	12919.76
481.95	13032.10
482.13	13263.82
482.31	12938.48
482.49	13488.51
482.67	13284.88
482.85	13521.27
483.03	13734.26
483.21	13905.12
483.39	13886.40
483.57	14052.58
483.74	14022.15
483.92	14391.95
484.10	14284.29
484.28	14618.99
484.46	14497.28
484.64	14867.08
484.82	14506.64
485.00	14785.16
485.18	14885.81
485.35	15204.12
485.53	15262.63
485.71	15330.51
485.89	15756.49
486.07	15587.97
486.25	15604.35
486.43	15915.64
486.61	15620.74
486.78	16224.59
486.96	16163.74
487.14	16018.63
487.32	16311.19
487.50	16798.02
487.68	16746.53
487.85	16814.41
488.03	17025.06
488.21	17085.91
488.39	17186.55
488.57	17631.26
488.75	17362.09
488.92	17530.61
489.10	17563.38
489.28	17610.19
489.46	17806.80
489.64	18148.51
489.81	18122.77
489.99	18389.59
490.17	18361.50
490.35	18663.43
490.53	18621.30
490.70	18726.63
490.88	18981.74
491.06	19054.30
491.24	19012.17
491.41	19325.80
491.59	19538.79
491.77	19496.66
491.95	19609.01
492.13	19812.63
492.30	20255.00
492.48	20018.60
492.66	19981.15
492.84	20149.67
493.01	20596.71
493.19	20357.98
493.37	20432.88
493.54	20566.29
493.72	20947.79
493.90	21104.61
494.08	20865.88
494.25	21050.78
494.43	21240.36
494.61	21465.05
494.79	21579.74
494.96	21514.20
495.14	21762.30
495.32	22129.77
495.49	22073.59
495.67	22101.68
495.85	22129.77
496.02	22012.74
496.20	22590.85
496.38	22450.42
496.55	22862.35
496.73	23257.90
496.91	23063.64
497.09	22792.14
497.26	23199.39
497.44	22965.34
497.62	23508.34
497.79	23381.95
497.97	23400.68
498.14	23747.08
498.32	23824.31
498.50	23850.06
498.67	24411.79
498.85	24013.90
499.03	24173.05
499.20	24168.37
499.38	24357.96
499.56	24835.42
499.73	24409.45
499.91	24823.72
500.08	25027.35
500.26	24805.00
500.44	24898.62
500.61	25207.57
500.79	25326.94
500.97	25420.56
501.14	26010.37
501.32	25853.56
501.49	25434.60
501.67	25631.21
501.84	25575.03
502.02	26073.57
502.20	25984.63
502.37	25961.22
502.55	26038.46
502.72	26118.04
502.90	26031.44
503.07	26291.24
503.25	26436.35
503.43	26553.38
503.60	26590.83
503.78	26923.18
503.95	26703.17
504.13	27049.57
504.30	27243.84
504.48	27035.53
504.65	26871.69
504.83	27049.57
505.01	27578.53
505.18	27559.81
505.36	27576.19
505.53	27314.05
505.71	27744.71
505.88	28065.36
506.06	27510.66
506.23	27957.70
506.41	27496.61
506.58	27997.49
506.76	28219.84
506.93	28563.90
507.11	28273.67
507.28	28765.18
507.46	28353.25
507.63	28760.50
507.81	28582.62
507.98	28350.91
508.16	29081.16
508.33	28943.06
508.50	29043.71
508.68	28905.62
508.85	29195.84
509.03	29163.08
509.20	29532.88
509.38	29535.22
509.55	29825.45
509.73	29869.92
509.90	29596.07
510.08	29811.40
510.25	29855.87
510.42	30169.51
510.60	30237.38
510.77	30235.04
510.95	30485.48
511.12	30167.16
511.30	30157.80
511.47	30452.71
511.64	30527.61
511.82	30696.13
511.99	30611.87
512.17	30724.21
512.34	30836.56
512.51	31517.65
512.69	31342.11
512.86	31316.37
513.04	31314.03
513.21	31187.64
513.38	31648.72
513.56	31524.68
513.73	31529.36
513.90	31599.57
514.08	31243.81
514.25	31913.20
514.43	31915.54
514.60	31721.28
514.77	32355.57
514.95	32222.16
515.12	32170.66
515.29	32126.19
515.47	32271.31
515.64	32830.69
515.81	32254.92
515.99	32561.53
516.16	32730.05
516.33	32823.67
516.51	32573.24
516.68	32496.00
516.85	32837.72
517.03	32905.59
517.20	33596.05
517.37	33057.73
517.54	32891.55
517.72	32758.14
517.89	33244.97
518.06	33687.33
518.24	33399.44
518.41	33251.99
518.58	33537.54
518.75	33441.57
518.93	33436.89
519.10	33982.24
519.27	34153.10
519.45	33507.11
519.62	33977.56
519.79	33923.72
519.96	34195.23
520.14	34380.13
520.31	33940.11
520.48	34562.69
520.65	34382.47
520.83	34848.24
521.00	34618.86
521.17	34717.17
521.34	35014.41
521.52	35047.18
521.69	34918.45
521.86	35363.15
522.03	34962.92
522.20	34969.94
522.38	35833.60
522.55	35178.25
522.72	35501.25
522.89	35686.15
523.07	35510.61
523.24	35512.95
523.41	35913.18
523.58	35749.34
523.75	35964.67
523.92	35449.75
524.10	36077.02
524.27	35786.79
524.44	36271.28
524.61	36308.73
524.78	36011.48
524.96	36458.52
525.13	36823.65
525.30	36884.50
525.47	36788.54
525.64	36664.49
525.81	36613.00
525.98	36762.79
526.16	36797.90
526.33	36741.73
526.50	37034.30
526.67	36723.01
526.84	37046.00
527.01	37095.15
527.18	37226.22
527.36	37310.48
527.53	37034.30
527.70	37865.19
527.87	37963.49
528.04	37682.62
528.21	37446.23
528.38	37853.48
528.55	37982.21
528.72	37539.85
528.89	37563.26
529.07	37546.87
529.24	38242.01
529.41	37684.97
529.58	37614.75
529.75	38263.08
529.92	38319.25
530.09	37818.38
530.26	37991.58
530.43	38103.92
530.60	37846.46
530.77	38096.90
530.94	37998.60
531.11	38630.54
531.28	38600.12
531.46	38197.54
531.63	38660.97
531.80	38305.21
531.97	38747.57
532.14	39054.18
532.31	38724.16
532.48	38827.15
532.65	39278.87
532.82	38693.74
532.99	39325.68
533.16	38785.02
533.33	39452.07
533.50	39313.98
533.67	38813.10
533.84	38909.07
534.01	39407.60
534.18	39494.20
534.35	39835.92
534.52	39587.82
534.69	39459.09
534.86	40030.18
535.03	39496.54
535.20	39716.55
535.37	39681.44
535.54	40046.57
535.71	39866.34
535.88	39782.09
536.05	40079.33
536.22	40116.78
536.38	40123.80
536.55	40236.15
536.72	39892.09
536.89	39718.89
537.06	40170.61
537.23	40608.29
537.40	40016.14
537.57	40460.84
537.74	40060.61
537.91	40369.56
538.08	40554.46
538.25	40437.44
538.42	40893.84
538.59	40739.36
538.75	41053.00
538.92	40959.38
539.09	41148.96
539.26	41291.73
539.43	40751.07
539.60	41111.51
539.77	41141.94
539.94	41364.29
540.11	40872.78
540.28	41214.49
540.44	41268.33
540.61	41329.18
540.78	41153.64
540.95	41375.99
541.12	41146.62
541.29	41486.00
541.46	41687.28
541.62	41816.01
541.79	41677.92
541.96	41387.69
542.13	41574.94
542.30	41469.61
542.47	41684.94
542.63	41837.08
542.80	41766.86
542.97	42623.50
543.14	42387.10
543.31	42293.48
543.48	42281.78
543.64	42508.81
543.81	42497.11
543.98	42096.88
544.15	42494.77
544.32	42548.60
544.48	42637.54
544.65	42618.81
544.82	42831.80
544.99	42462.00
545.16	42831.80
545.32	42880.95
545.49	43105.65
545.66	43473.11
545.83	43079.90
546.00	43370.13
546.16	43028.41
546.33	43033.09
546.50	42869.25
546.67	43035.43
546.83	42733.50
547.00	43372.47
547.17	42508.81
547.34	43381.83
547.50	43398.21
547.67	44018.46
547.84	43646.31
548.00	43344.38
548.17	44112.08
548.34	43679.08
548.51	43667.37
548.67	43866.32
548.84	43669.72
549.01	43210.97
549.18	43611.20
549.34	43796.10
549.51	44308.68
549.68	44112.08
549.84	43955.26
550.01	44098.03
550.18	43805.47
550.34	43852.28
550.51	43997.39
550.68	44322.72
550.84	43789.08
551.01	44154.21
551.18	44055.90
551.34	44217.40
551.51	44357.83
551.68	44502.95
551.84	44341.45
552.01	44114.42
552.18	44332.09
552.34	44025.48
552.51	44636.36
552.68	44013.77
552.84	44327.41
553.01	44790.83
553.18	44549.76
553.34	44467.84
553.51	44699.55
553.67	44893.82
553.84	44889.13
554.01	44652.74
554.17	44629.34
554.34	44781.47
554.51	44645.72
554.67	45001.48
554.84	45315.11
555.00	44783.81
555.17	45043.61
555.33	44737.00
555.50	45263.62
555.67	45574.91
555.83	44964.03
556.00	45418.10
556.16	45511.72
556.33	45390.01
556.50	45359.58
556.66	45464.91
556.83	44898.50
556.99	45876.84
557.16	45453.20
557.32	45476.61
557.49	45359.58
557.65	45155.96
557.82	45591.30
557.98	45464.91
558.15	45745.77
558.32	45785.56
558.48	45460.23
558.65	45581.93
558.81	45865.14
558.98	45574.91
559.14	45359.58
559.31	45783.22
559.47	45464.91
559.64	45675.55
559.80	45911.95
559.97	45935.35
560.13	45368.94
560.30	46396.44
560.46	45916.63
560.63	46454.95
560.79	46284.09
560.96	46410.48
561.12	46078.13
561.29	45717.68
561.45	46270.05
561.61	46148.34
561.78	45867.48
561.94	45972.80
562.11	46291.12
562.27	46302.82
562.44	46553.26
562.60	46721.77
562.77	46492.40
562.93	46209.20
563.10	46476.02
563.26	45893.22
563.42	46787.31
563.59	46258.35
563.75	46394.10
563.92	46005.57
564.08	45996.21
564.24	46843.48
564.41	46326.22
564.57	46567.30
564.74	46363.67
564.90	46363.67
565.07	46506.44
565.23	46759.22
565.39	46754.54
565.56	47217.97
565.72	46436.23
565.88	46691.35
566.05	46717.09
566.21	46632.83
566.38	46403.46
566.54	46845.82
566.70	46649.22
566.87	46646.88
567.03	46520.49
567.19	46937.10
567.36	46923.06
567.52	46899.65
567.68	47227.33
567.85	46979.23
568.01	47072.85
568.17	46925.40
568.34	47344.36
568.50	46890.29
568.66	46923.06
568.83	47065.83
568.99	46864.55
569.15	46625.81
569.32	46656.24
569.48	46703.05
569.64	47175.84
569.81	47433.30
569.97	46925.40
570.13	47072.85
570.30	46974.55
570.46	46916.04
570.62	47107.96
570.78	47246.05
570.95	46733.48
571.11	47175.84
571.27	46967.53
571.43	46986.25
571.60	46990.94
571.76	46960.51
571.92	46841.14
572.09	47409.89
572.25	47194.56
572.41	47159.45
572.57	47199.24
572.74	47540.96
572.90	46972.21
573.06	47730.54
573.22	47426.28
573.38	47510.53
573.55	47459.04
573.71	47973.96
573.87	47388.83
574.03	47515.22
574.20	47559.69
574.36	47346.70
574.52	47248.39
574.68	47459.04
574.84	47098.60
575.01	47524.58
575.17	47737.57
575.33	47374.78
575.49	47178.18
575.65	47388.83
575.82	47519.90
575.98	47531.60
576.14	47880.34
576.30	48032.47
576.46	47604.16
576.62	47735.23
576.79	47414.57
576.95	47445.00
577.11	47522.24
577.27	47430.96
577.43	47257.76
577.59	47442.66
577.75	47334.99
577.92	47271.80
578.08	47517.56
578.24	47337.33
578.40	47562.03
578.56	47550.32
578.72	47805.44
578.88	47690.76
579.04	47562.03
579.21	47372.44
579.37	47524.58
579.53	47569.05
579.69	47555.00
579.85	47669.69
580.01	47501.17
580.17	47772.67
580.33	47526.92
580.49	47838.21
580.65	47800.76
580.82	47505.85
580.98	47650.97
581.14	47346.70
581.30	47711.82
581.46	47718.84
581.62	47590.11
581.78	47667.35
581.94	47325.63
582.10	47667.35
582.26	47634.58
582.42	47938.85
582.58	47695.44
582.74	48114.39
582.90	48278.23
583.06	47739.91
583.22	47814.80
583.38	47718.84
583.54	47835.87
583.70	48409.30
583.86	48156.52
584.02	48013.75
584.18	47936.51
584.34	48041.84
584.50	48039.50
584.66	47959.92
584.82	48065.24
584.98	48081.63
585.14	47690.76
585.30	47374.78
585.46	47943.53
585.62	47367.76
585.78	47995.03
585.94	47503.51
586.10	47763.31
586.26	47894.38
586.42	47957.58
586.58	47913.11
586.74	48065.24
586.90	47854.59
587.06	47655.65
587.22	48025.45
587.38	48287.59
587.54	47885.02
587.70	48399.94
587.86	47899.06
588.02	47831.19
588.18	48137.80
588.34	47824.17
588.49	48257.17
588.65	47927.15
588.81	48409.30
588.97	47924.81
589.13	47892.04
589.29	47838.21
589.45	48676.12
589.61	48341.42
589.77	48233.76
589.93	48186.95
