SpectraSuite Data File
++++++++++++++++++++++++++++++++++++
Date: Fri Oct 25 10:43:36 EDT 2013
User: price-jones
Dark Spectrum Present: No
Reference Spectrum Present: No
Number of Sampled Component Spectra: 1
Spectrometers: USB2+H05261
Integration Time (usec): 100000 (USB2+H05261)
Spectra Averaged: 1 (USB2+H05261)
Boxcar Smoothing: 0 (USB2+H05261)
Correct for Electrical Dark: No (USB2+H05261)
Strobe/Lamp Enabled: No (USB2+H05261)
Correct for Detector Non-linearity: No (USB2+H05261)
Correct for Stray Light: No (USB2+H05261)
Number of Pixels in Processed Spectrum: 2048
>>>>>Begin Processed Spectral Data<<<<<
365.73	110.01
365.92	110.01
366.12	110.01
366.32	46.81
366.52	28.09
366.72	37.45
366.91	49.15
367.11	0.00
367.31	7.02
367.51	35.11
367.70	37.45
367.90	51.49
368.10	65.54
368.30	51.49
368.49	4.68
368.69	30.43
368.89	44.47
369.09	0.00
369.28	42.13
369.48	0.00
369.68	74.90
369.87	77.24
370.07	100.64
370.27	126.39
370.47	170.86
370.66	386.19
370.86	423.64
371.06	428.32
371.25	489.17
371.45	442.36
371.65	456.40
371.84	440.02
372.04	444.70
372.24	472.79
372.44	491.51
372.63	496.19
372.83	491.51
373.03	433.00
373.22	484.49
373.42	550.03
373.62	505.56
373.81	582.79
374.01	603.86
374.21	580.45
374.40	526.62
374.60	634.29
374.79	519.60
374.99	580.45
375.19	613.22
375.38	606.20
375.58	594.50
375.78	664.71
375.97	629.60
376.17	613.22
376.37	606.20
376.56	631.94
376.76	540.66
376.95	592.16
377.15	683.44
377.35	657.69
377.54	610.88
377.74	634.29
377.93	655.35
378.13	575.77
378.33	748.97
378.52	667.05
378.72	681.10
378.91	573.43
379.11	650.67
379.31	650.67
379.50	674.07
379.70	720.88
379.89	695.14
380.09	737.27
380.28	657.69
380.48	713.86
380.68	702.16
380.87	725.57
381.07	737.27
381.26	692.80
381.46	741.95
381.65	758.33
381.85	737.27
382.04	692.80
382.24	758.33
382.43	788.76
382.63	746.63
382.83	678.76
383.02	711.52
383.22	763.01
383.41	699.82
383.61	671.73
383.80	800.46
384.00	791.10
384.19	847.27
384.39	809.83
384.58	748.97
384.78	814.51
384.97	812.17
385.17	779.40
385.36	725.57
385.56	774.72
385.75	812.17
385.95	748.97
386.14	819.19
386.34	844.93
386.53	908.13
386.72	849.61
386.92	896.43
387.11	903.45
387.31	917.49
387.50	922.17
387.70	894.08
387.89	905.79
388.09	898.77
388.28	924.51
388.48	854.30
388.67	919.83
388.86	961.96
389.06	957.28
389.25	968.98
389.45	1034.52
389.64	924.51
389.84	940.90
390.03	985.37
390.22	1060.26
390.42	983.02
390.61	940.90
390.81	1057.92
391.00	997.07
391.19	1062.60
391.39	1041.54
391.58	1088.35
391.78	1046.22
391.97	1104.73
392.16	959.62
392.36	1067.28
392.55	1076.65
392.75	980.68
392.94	990.05
393.13	1034.52
393.33	1027.50
393.52	1004.09
393.71	1071.97
393.91	1104.73
394.10	1191.33
394.29	1167.93
394.49	1245.16
394.68	1270.91
394.88	1212.40
395.07	1280.27
395.26	1207.72
395.46	1165.59
395.65	1242.82
395.84	1228.78
396.04	1191.33
396.23	1207.72
396.42	1139.84
396.62	1196.01
396.81	1242.82
397.00	1256.87
397.19	1259.21
397.39	1284.95
397.58	1268.57
397.77	1444.11
397.97	1413.68
398.16	1451.13
398.35	1561.14
398.55	1430.07
398.74	1500.28
398.93	1561.14
399.12	1481.56
399.32	1507.30
399.51	1500.28
399.70	1537.73
399.90	1502.62
400.09	1631.35
400.28	1577.52
400.47	1607.95
400.67	1621.99
400.86	1593.90
401.05	1636.03
401.24	1675.82
401.44	1722.63
401.63	1797.53
401.82	1771.79
402.01	1734.34
402.21	1809.23
402.40	1792.85
402.59	1760.08
402.78	1675.82
402.97	1872.43
403.17	1863.07
403.36	1764.76
403.55	1860.73
403.74	1832.64
403.93	1937.96
404.13	1956.69
404.32	1872.43
404.51	1905.20
404.70	1959.03
404.89	1935.62
405.09	1987.11
405.28	2022.22
405.47	1970.73
405.66	2008.18
405.85	2101.80
406.05	1937.96
406.24	2029.24
406.43	2001.16
406.62	2150.95
406.81	2090.10
407.00	2052.65
407.20	1994.14
407.39	2157.97
407.58	2246.91
407.77	2190.74
407.96	2193.08
408.15	2366.28
408.34	2331.17
408.54	2338.20
408.73	2277.34
408.92	2385.01
409.11	2312.45
409.30	2387.35
409.49	2326.49
409.68	2326.49
409.87	2326.49
410.07	2293.72
410.26	2406.07
410.45	2427.14
410.64	2324.15
410.83	2520.76
411.02	2539.48
411.21	2665.87
411.40	2747.79
411.59	2668.21
411.78	2647.15
411.98	2703.32
412.17	2719.70
412.36	2670.55
412.55	2782.90
412.74	2787.58
412.93	2829.71
413.12	2839.07
413.31	2890.56
413.50	2869.50
413.69	2832.05
413.88	3075.46
414.07	2918.65
414.26	3059.08
414.45	3028.65
414.64	2942.05
414.83	3054.40
415.02	3063.76
415.22	3229.94
415.41	3141.00
415.60	3178.45
415.79	3290.79
415.98	3396.12
416.17	3227.60
416.36	3332.92
416.55	3290.79
416.74	3236.96
416.93	3300.16
417.12	3311.86
417.31	3419.52
417.50	3478.04
417.69	3396.12
417.88	3468.67
418.07	3534.21
418.26	3482.72
418.45	3463.99
418.64	3613.79
418.83	3634.85
419.02	3763.58
419.21	3779.97
419.39	3721.45
419.58	3529.53
419.77	3503.78
419.96	3632.51
420.15	3751.88
420.34	3730.81
420.53	3744.86
420.72	3871.25
420.91	3815.07
421.10	3854.86
421.29	3955.51
421.48	3747.20
421.67	3960.19
421.86	3915.72
422.05	3943.80
422.24	3904.01
422.43	3885.29
422.61	3913.38
422.80	4028.06
422.99	3911.04
423.18	4028.06
423.37	4044.45
423.56	3892.31
423.75	3983.59
423.94	3934.44
424.13	3592.72
424.32	3723.79
424.50	3995.29
424.69	4283.18
424.88	4112.32
425.07	3967.21
425.26	4119.34
425.45	3988.27
425.64	3927.42
425.83	3990.61
426.01	4142.75
426.20	4035.08
426.39	4091.26
426.58	4046.79
426.77	4002.32
426.96	4201.26
427.15	4152.11
427.33	4187.22
427.52	4194.24
427.71	4217.65
427.90	4084.23
428.09	4154.45
428.28	4210.62
428.46	4227.01
428.65	4184.88
428.84	4358.08
429.03	4301.90
429.22	4166.15
429.40	4161.47
429.59	4315.95
429.78	3955.51
429.97	4016.36
430.16	4042.11
430.34	4184.88
430.53	4318.29
430.72	4180.20
430.91	4379.14
431.10	4348.72
431.28	4456.38
431.47	4505.53
431.66	4891.72
431.85	4671.71
432.03	4699.80
432.22	4784.06
432.41	4660.01
432.60	4833.21
432.79	4903.42
432.97	4767.67
433.16	4861.29
433.35	4634.26
433.54	4627.24
433.72	4641.28
433.91	4877.68
434.10	4856.61
434.28	4842.57
434.47	4994.70
434.66	4966.62
434.85	5097.69
435.03	5083.64
435.22	4940.87
435.41	5139.82
435.59	5273.23
435.78	5219.39
435.97	5177.26
436.16	5008.75
436.34	5046.20
436.53	5083.64
436.72	5266.21
436.90	5245.14
437.09	5235.78
437.28	5172.58
437.46	5186.63
437.65	5226.42
437.84	5198.33
438.02	5315.36
438.21	5210.03
438.40	5149.18
438.58	5465.15
438.77	5497.92
438.96	5462.81
439.14	5586.86
439.33	5692.18
439.52	5743.67
439.70	5598.56
439.89	5631.33
440.08	5802.19
440.26	5788.14
440.45	5762.40
440.63	6061.99
440.82	6134.54
441.01	6057.31
441.19	6160.29
441.38	6204.76
441.57	6228.17
441.75	6305.40
441.94	6361.58
442.12	6209.44
442.31	6436.47
442.50	6347.53
442.68	6321.79
442.87	6232.85
443.05	6399.02
443.24	6717.34
443.43	6511.37
443.61	6429.45
443.80	6707.98
443.98	6499.67
444.17	6408.39
444.35	6551.16
444.54	6651.80
444.73	6637.76
444.91	6677.55
445.10	6541.80
445.28	6768.83
445.47	6438.81
445.65	6476.26
445.84	6710.32
446.02	6731.38
446.21	6621.38
446.39	6675.21
446.58	6623.72
446.77	6642.44
446.95	6593.29
447.14	6792.23
447.32	6920.96
447.51	6796.92
447.69	6799.26
447.88	6864.79
448.06	6754.79
448.25	6799.26
448.43	6707.98
448.62	6937.35
448.80	6874.15
448.99	7016.93
449.17	6810.96
449.36	6988.84
449.54	7077.78
449.73	7140.97
449.91	7241.62
450.10	7274.38
450.28	7145.66
450.46	7353.96
450.65	7307.15
450.83	7283.75
451.02	7197.15
451.20	7424.18
451.39	7349.28
451.57	7428.86
451.76	7250.98
451.94	7269.70
452.13	7480.35
452.31	7459.29
452.49	6993.52
452.68	7424.18
452.86	7377.37
453.05	7426.52
453.23	7375.03
453.42	7372.69
453.60	7541.21
453.78	7555.25
453.97	7468.65
454.15	7389.07
454.34	7496.74
454.52	7599.72
454.70	7634.83
454.89	7700.36
455.07	7630.15
455.26	7765.90
455.44	7850.16
455.62	7950.80
455.81	7793.98
455.99	7964.84
456.17	7878.24
456.36	8100.59
456.54	8044.42
456.73	8023.36
456.91	8177.83
457.09	8217.62
457.28	8505.51
457.46	8140.38
457.64	8393.16
457.83	8203.58
458.01	7997.61
458.19	8456.36
458.38	8147.40
458.56	8468.06
458.74	8327.63
458.93	8201.24
459.11	8367.42
459.29	8372.10
459.48	8720.84
459.66	8346.35
459.84	8407.20
460.03	8840.20
460.21	8704.45
460.39	8510.19
460.57	8674.03
460.76	8720.84
460.94	8592.11
461.12	8652.96
461.31	8819.14
461.49	8709.13
461.67	8772.33
461.85	9050.85
462.04	8772.33
462.22	9273.20
462.40	8992.34
462.59	8964.25
462.77	8786.37
462.95	8975.95
463.13	8896.38
463.32	9083.62
463.50	9034.47
463.68	8964.25
463.86	9032.13
464.05	8954.89
464.23	8968.93
464.41	9135.11
464.59	8945.53
464.78	9535.34
464.96	9317.67
465.14	9266.18
465.32	9261.50
465.50	9680.46
465.69	9610.24
465.87	9394.91
466.05	9535.34
466.23	9364.48
466.41	9408.95
466.60	9617.26
466.78	9186.60
466.96	9411.29
467.14	9495.55
467.32	9664.07
467.51	9535.34
467.69	9413.63
467.87	9530.66
468.05	9518.96
468.23	9626.62
468.41	9511.94
468.60	9582.15
468.78	9596.20
468.96	9771.74
469.14	9734.29
469.32	9846.63
469.50	9654.71
469.69	9830.25
469.87	10106.43
470.05	9942.60
470.23	9870.04
470.41	9968.34
470.59	10024.51
470.77	10076.01
470.95	10068.98
471.14	10377.94
471.32	10136.86
471.50	10132.18
471.68	10438.79
471.86	10401.34
472.04	10562.84
472.22	10754.76
472.40	10303.04
472.58	10518.37
472.77	10567.52
472.95	10747.74
473.13	10871.79
473.31	10548.79
473.49	10626.03
473.67	10719.65
473.85	10963.07
474.03	11204.14
474.21	11000.52
474.39	11377.34
474.57	11147.97
474.75	11098.82
474.93	11585.65
475.12	11337.56
475.30	11389.05
475.48	11456.92
475.66	11569.27
475.84	11564.59
476.02	11606.72
476.20	11330.53
476.38	11705.02
476.56	11927.37
476.74	11873.54
476.92	11997.59
477.10	12035.03
477.28	12175.47
477.46	12259.73
477.64	12428.24
477.82	12383.77
478.00	12779.32
478.18	12819.11
478.36	12676.34
478.54	13013.38
478.72	12992.31
478.90	13172.54
479.08	13163.17
479.26	13369.14
479.44	13680.43
479.62	13441.70
479.80	13523.62
479.98	13680.43
480.16	14064.28
480.34	13771.71
480.52	14127.47
480.70	13977.68
480.88	13551.70
481.06	13951.93
481.24	14230.46
481.41	14253.86
481.59	14815.59
481.77	14541.75
481.95	14520.68
482.13	14843.68
482.31	14874.10
482.49	15208.80
482.67	15101.14
482.85	15152.63
483.03	15470.94
483.21	15515.41
483.39	15606.69
483.57	15236.89
483.74	15871.17
483.92	16030.33
484.10	15534.14
484.28	15953.09
484.46	16418.86
484.64	16842.50
484.82	16184.80
485.00	16271.40
485.18	16685.68
485.35	16912.71
485.53	16252.68
485.71	16250.34
485.89	16758.24
486.07	16453.97
486.25	16929.09
486.43	16886.97
486.61	17415.93
486.78	17390.18
486.96	17481.46
487.14	18129.79
487.32	17834.88
487.50	18195.32
487.68	18450.44
487.85	18848.33
488.03	18633.00
488.21	18747.69
488.39	18415.34
488.57	18838.97
488.75	18946.64
488.92	19300.06
489.10	19356.23
489.28	19587.94
489.46	20238.61
489.64	19747.10
489.81	20533.52
489.99	20278.40
490.17	20133.29
490.35	20592.03
490.53	20570.97
490.70	20814.38
490.88	20765.23
491.06	21179.51
491.24	20856.51
491.41	21010.99
491.59	20875.24
491.77	21333.98
491.95	21369.09
492.13	21518.89
492.30	21759.96
492.48	21937.84
492.66	22263.18
492.84	22169.55
493.01	22260.84
493.19	22258.49
493.37	22452.76
493.54	22328.71
493.72	22698.52
493.90	22831.93
494.08	23042.57
494.25	23630.05
494.43	23377.27
494.61	23613.66
494.79	23761.12
494.96	23449.83
495.14	23655.79
495.32	24166.03
495.49	24088.79
495.67	24020.92
495.85	24393.06
496.02	24776.91
496.20	24484.34
496.38	24741.80
496.55	25006.28
496.73	25350.34
496.91	25151.40
497.09	25008.62
497.26	25558.65
497.44	25617.16
497.62	25556.31
497.79	25537.59
497.97	25355.02
498.14	25717.81
498.32	25795.04
498.50	25914.41
498.67	26249.11
498.85	26235.06
499.03	26616.57
499.20	26436.35
499.38	26815.52
499.56	26490.18
499.73	26544.02
499.91	27037.87
500.08	26937.23
500.26	26668.06
500.44	26829.56
500.61	27030.85
500.79	26745.30
500.97	27005.10
501.14	27419.38
501.32	27562.15
501.49	27314.05
501.67	27569.17
501.84	27725.99
502.02	27971.74
502.20	27960.04
502.37	28229.20
502.55	28137.92
502.72	28222.18
502.90	28589.64
503.07	28297.08
503.25	28114.52
503.43	28240.90
503.60	28315.80
503.78	28453.89
503.95	28166.01
504.13	28851.78
504.30	28882.21
504.48	29163.08
504.65	29109.24
504.83	29256.70
505.01	29546.92
505.18	29399.47
505.36	29970.56
505.53	29525.86
505.71	30040.78
505.88	30258.45
506.06	29832.47
506.23	29993.97
506.41	29680.33
506.58	30518.25
506.76	30005.67
506.93	30096.95
507.11	30448.03
507.28	30113.33
507.46	30459.73
507.63	30532.29
507.81	30623.57
507.98	30363.77
508.16	30712.51
508.33	30719.53
508.50	30836.56
508.68	30909.11
508.85	31835.97
509.03	31295.30
509.20	31035.50
509.38	31667.45
509.55	31770.43
509.73	31543.40
509.90	31578.51
510.08	31461.48
510.25	31964.70
510.42	31702.56
510.60	32002.14
510.77	32194.07
510.95	32147.26
511.12	32318.12
511.30	32367.27
511.47	32587.28
511.64	32966.45
511.82	32697.28
511.99	32430.46
512.17	32877.51
512.34	32521.74
512.51	33020.28
512.69	33158.37
512.86	33251.99
513.04	32999.21
513.21	33256.67
513.38	32765.16
513.56	33256.67
513.73	32973.47
513.90	33078.79
514.08	33448.60
514.25	33764.57
514.43	33586.69
514.60	33649.88
514.77	33666.27
514.95	33717.76
515.12	33795.00
515.29	33968.19
515.47	34377.79
515.64	34499.50
515.81	34029.05
515.99	33965.85
516.16	33979.90
516.33	34022.03
516.51	33577.33
516.68	33769.25
516.85	33567.96
517.03	34038.41
517.20	34036.07
517.37	34892.71
517.54	35007.39
517.72	34642.27
517.89	33989.26
518.06	33881.60
518.24	34543.97
518.41	34710.14
518.58	34920.79
518.75	34707.80
518.93	35323.36
519.10	34815.47
519.27	35250.81
519.45	35438.05
519.62	35770.41
519.79	35557.42
519.96	35440.39
520.14	35892.12
520.31	35693.17
520.48	35744.66
520.65	35660.40
520.83	36470.23
521.00	36217.45
521.17	36521.72
521.34	36233.83
521.52	36741.73
521.69	36737.05
521.86	36615.34
522.03	36521.72
522.20	36804.92
522.38	36493.63
522.55	36697.26
522.72	36657.47
522.89	36882.16
523.07	37111.53
523.24	37113.87
523.41	37394.74
523.58	37551.56
523.75	37598.37
523.92	37284.73
524.10	37720.07
524.27	37443.89
524.44	37244.94
524.61	37312.82
524.78	37699.01
524.96	38047.75
525.13	37497.72
525.30	38321.59
525.47	38106.26
525.64	38045.41
525.81	37914.34
525.98	37764.54
526.16	37380.70
526.33	37394.74
526.50	37825.40
526.67	37752.84
526.84	37558.58
527.01	37752.84
527.18	38141.37
527.36	38728.84
527.53	38572.03
527.70	38419.89
527.87	38492.45
528.04	38483.09
528.21	38703.10
528.38	38862.26
528.55	39255.46
528.72	39206.31
528.89	39335.04
529.07	39313.98
529.24	38974.60
529.41	39192.27
529.58	39119.71
529.75	39016.73
529.92	39056.52
530.09	39360.79
530.26	39260.15
530.43	39590.16
530.60	39501.22
530.77	39414.62
530.94	39889.75
531.11	39899.11
531.28	39658.04
531.46	39833.58
531.63	39555.05
531.80	39426.32
531.97	40079.33
532.14	39440.37
532.31	39646.33
532.48	39819.53
532.65	39983.37
532.82	39758.68
532.99	40437.44
533.16	40032.52
533.33	39938.90
533.50	40430.41
533.67	40187.00
533.84	40308.71
534.01	40521.69
534.18	40608.29
534.35	40886.82
534.52	40346.15
534.69	40460.84
534.86	40428.07
535.03	40414.03
535.20	41174.70
535.37	41116.19
535.54	41514.08
535.71	40617.66
535.88	41020.23
536.05	40978.10
536.22	41368.97
536.38	41265.99
536.55	41319.82
536.72	40795.54
536.89	40811.92
537.06	40868.09
537.23	41462.59
537.40	41078.74
537.57	40919.59
537.74	41233.22
537.91	42117.94
538.08	41418.12
538.25	41186.41
538.42	41717.71
538.59	41691.96
538.75	41453.23
538.92	41387.69
539.09	41914.31
539.26	41797.29
539.43	41574.94
539.60	41731.75
539.77	41759.84
539.94	41900.27
540.11	41364.29
540.28	42202.20
540.44	41776.22
540.61	41904.95
540.78	41345.56
540.95	41577.28
541.12	41596.00
541.29	41483.66
541.46	41895.59
541.62	42017.30
541.79	42506.47
541.96	42293.48
542.13	42431.57
542.30	42237.31
542.47	42653.92
542.63	42220.92
542.80	42440.93
542.97	43145.44
543.14	42714.78
543.31	42981.60
543.48	42880.95
543.64	43175.86
543.81	43107.99
543.98	43262.46
544.15	42667.97
544.32	43002.66
544.48	43419.28
544.65	43470.77
544.82	43084.58
544.99	42902.02
545.16	42993.30
545.32	42719.46
545.49	43271.82
545.66	43505.88
545.83	43770.36
546.00	43337.36
546.16	43264.80
546.33	43232.04
546.50	43255.44
546.67	43782.06
546.83	42873.93
547.00	43435.66
547.17	43545.67
547.34	43550.35
547.50	43723.55
547.67	43859.30
547.84	44039.52
548.00	44168.25
548.17	44189.31
548.34	43716.53
548.51	44278.25
548.67	44128.46
548.84	44137.82
549.01	43871.00
549.18	43821.85
549.34	43555.03
549.51	44030.16
549.68	44156.55
549.84	43934.20
550.01	44425.71
550.18	44313.36
550.34	44201.02
550.51	44112.08
550.68	44364.85
550.84	43688.44
551.01	44673.81
551.18	44610.61
551.34	44067.61
551.51	44900.84
551.68	45031.91
551.84	44533.37
552.01	44704.23
552.18	44268.89
552.34	44261.87
552.51	44516.99
552.68	44119.10
552.84	44746.36
553.01	44978.07
553.18	44245.49
553.34	44458.48
553.51	44711.25
553.67	44692.53
553.84	45076.38
554.01	45179.36
554.17	45120.85
554.34	45193.40
554.51	45162.98
554.67	45191.06
554.84	45247.24
555.00	44580.18
555.17	44652.74
555.33	44868.07
555.50	45214.47
555.67	45177.02
555.83	45083.40
556.00	44643.38
556.16	45600.66
556.33	45125.53
556.50	45144.25
556.66	45015.52
556.83	44713.59
556.99	45485.97
557.16	45352.56
557.32	45392.35
557.49	45734.07
557.65	45064.67
557.82	45106.80
557.98	45305.75
558.15	45303.41
558.32	45352.56
558.48	45064.67
558.65	45244.90
558.81	45705.98
558.98	45537.46
559.14	45003.82
559.31	45462.57
559.47	45507.04
559.64	45523.42
559.80	45240.21
559.97	45565.55
560.13	45216.81
560.30	45474.27
560.46	45914.29
560.63	45806.62
560.79	45797.26
560.96	45923.65
561.12	45521.08
561.29	45345.54
561.45	45698.96
561.61	45872.16
561.78	45689.60
561.94	45654.49
562.11	45120.85
562.27	45652.15
562.44	45635.77
562.60	45708.32
562.77	45607.68
562.93	45984.51
563.10	46117.92
563.26	45757.47
563.42	46061.74
563.59	45989.19
563.75	46295.80
563.92	45820.67
564.08	45701.30
564.24	45914.29
564.41	45429.80
564.57	45769.18
564.74	45839.39
564.90	46012.59
565.07	45823.01
565.23	46033.66
565.39	45565.55
565.56	45684.92
565.72	45617.04
565.88	45808.96
566.05	46274.73
566.21	45591.30
566.38	45670.87
566.54	45675.55
566.70	46080.47
566.87	46361.33
567.03	46342.61
567.19	46358.99
567.36	45951.74
567.52	46085.15
567.68	45633.42
567.85	45736.41
568.01	46075.79
568.17	46155.36
568.34	46164.73
568.50	45874.50
568.66	46162.39
568.83	46546.23
568.99	46183.45
569.15	46127.28
569.32	46183.45
569.48	46256.01
569.64	46391.76
569.81	46319.20
569.97	46150.68
570.13	46160.05
570.30	46014.93
570.46	46113.23
570.62	46138.98
570.78	45743.43
570.95	46085.15
571.11	46110.89
571.27	45677.90
571.43	46330.90
571.60	46026.63
571.76	45872.16
571.92	45888.54
572.09	46553.26
572.25	46340.27
572.41	45867.48
572.57	46562.62
572.74	46663.26
572.90	46293.46
573.06	45902.59
573.22	46560.28
573.38	46319.20
573.55	46169.41
573.71	46410.48
573.87	46239.62
574.03	45916.63
574.20	46263.03
574.36	46244.30
574.52	46316.86
574.68	46012.59
574.84	46167.07
575.01	46134.30
575.17	46031.32
575.33	46295.80
575.49	45820.67
575.65	46366.01
575.82	46391.76
575.98	46167.07
576.14	46628.15
576.30	46588.36
576.46	46206.86
576.62	46368.35
576.79	46080.47
576.95	46277.07
577.11	46335.59
577.27	46429.21
577.43	46265.37
577.59	45982.16
577.75	45895.56
577.92	46021.95
578.08	45799.60
578.24	45846.41
578.40	46195.15
578.56	46450.27
578.72	46415.16
578.88	46754.54
579.04	46162.39
579.21	45691.94
579.37	46183.45
579.53	46445.59
579.69	46026.63
579.85	46120.26
580.01	46366.01
580.17	45940.04
580.33	46197.49
580.49	46263.03
580.65	46094.51
580.82	46625.81
580.98	45979.82
581.14	46258.35
581.30	46614.11
581.46	46138.98
581.62	46443.25
581.78	46312.18
581.94	46389.42
582.10	46143.66
582.26	46160.05
582.42	46576.66
582.58	46532.19
582.74	47004.98
582.90	46396.44
583.06	46473.68
583.22	46391.76
583.38	46946.47
583.54	46307.50
583.70	46593.04
583.86	46415.16
584.02	46270.05
584.18	46382.40
584.34	46110.89
584.50	46681.98
584.66	46075.79
584.82	46265.37
584.98	46579.00
585.14	46752.20
585.30	46450.27
585.46	46277.07
585.62	46134.30
585.78	46234.94
585.94	46024.29
586.10	46124.94
586.26	46403.46
586.42	46417.50
586.58	46476.02
586.74	46082.81
586.90	46557.94
587.06	46490.06
587.22	46433.89
587.38	46087.49
587.54	46174.09
587.70	46644.54
587.86	46218.56
588.02	46253.67
588.18	46815.40
588.34	46178.77
588.49	45890.88
588.65	45764.49
588.81	45921.31
588.97	46087.49
589.13	45855.78
589.29	46108.55
589.45	46211.54
589.61	46527.51
589.77	47014.34
589.93	46436.23
