SpectraSuite Data File
++++++++++++++++++++++++++++++++++++
Date: Fri Oct 25 11:23:24 EDT 2013
User: price-jones
Dark Spectrum Present: No
Reference Spectrum Present: No
Number of Sampled Component Spectra: 1
Spectrometers: USB2+H05261
Integration Time (usec): 100000 (USB2+H05261)
Spectra Averaged: 1 (USB2+H05261)
Boxcar Smoothing: 0 (USB2+H05261)
Correct for Electrical Dark: No (USB2+H05261)
Strobe/Lamp Enabled: No (USB2+H05261)
Correct for Detector Non-linearity: No (USB2+H05261)
Correct for Stray Light: No (USB2+H05261)
Number of Pixels in Processed Spectrum: 2048
>>>>>Begin Processed Spectral Data<<<<<
365.73	173.20
365.92	173.20
366.12	173.20
366.32	168.52
366.52	147.45
366.72	184.90
366.91	84.26
367.11	42.13
367.31	95.96
367.51	163.84
367.70	126.39
367.90	77.24
368.10	138.09
368.30	147.45
368.49	152.13
368.69	161.50
368.89	107.66
369.09	173.20
369.28	217.67
369.48	140.43
369.68	95.96
369.87	180.22
370.07	102.98
370.27	222.35
370.47	299.59
370.66	585.13
370.86	638.97
371.06	552.37
371.25	631.94
371.45	613.22
371.65	660.03
371.84	613.22
372.04	667.05
372.24	695.14
372.44	732.59
372.63	683.44
372.83	744.29
373.03	732.59
373.22	746.63
373.42	763.01
373.62	716.20
373.81	781.74
374.01	847.27
374.21	791.10
374.40	814.51
374.60	840.25
374.79	716.20
374.99	851.96
375.19	915.15
375.38	842.59
375.58	861.32
375.78	828.55
375.97	807.48
376.17	870.68
376.37	791.10
376.56	917.49
376.76	968.98
376.95	816.85
377.15	877.70
377.35	947.92
377.54	802.80
377.74	894.08
377.93	805.14
378.13	847.27
378.33	898.77
378.52	936.21
378.72	880.04
378.91	968.98
379.11	947.92
379.31	924.51
379.50	903.45
379.70	1053.24
379.89	1025.15
380.09	896.43
380.28	999.41
380.48	1057.92
380.68	983.02
380.87	922.17
381.07	971.32
381.26	1029.84
381.46	936.21
381.65	1008.77
381.85	1062.60
382.04	1006.43
382.24	1060.26
382.43	1041.54
382.63	1081.33
382.83	1116.44
383.02	1156.22
383.22	1144.52
383.41	1121.12
383.61	1093.03
383.80	1111.75
384.00	1062.60
384.19	1109.41
384.39	1109.41
384.58	1128.14
384.78	1219.42
384.97	1100.05
385.17	1181.97
385.36	1156.22
385.56	1205.38
385.75	1203.04
385.95	1226.44
386.14	1226.44
386.34	1149.20
386.53	1238.14
386.72	1193.67
386.92	1249.85
387.11	1186.65
387.31	1315.38
387.50	1231.12
387.70	1233.46
387.89	1193.67
388.09	1277.93
388.28	1245.16
388.48	1252.19
388.67	1348.15
388.86	1306.02
389.06	1348.15
389.25	1313.04
389.45	1320.06
389.64	1299.00
389.84	1390.28
390.03	1397.30
390.22	1373.89
390.42	1334.11
390.61	1390.28
390.81	1383.26
391.00	1476.88
391.19	1455.81
391.39	1418.36
391.58	1584.54
391.78	1366.87
391.97	1472.20
392.16	1493.26
392.36	1535.39
392.55	1528.37
392.75	1441.77
392.94	1584.54
393.13	1549.43
393.33	1547.09
393.52	1575.18
393.71	1533.05
393.91	1535.39
394.10	1619.65
394.29	1612.63
394.49	1596.25
394.68	1593.90
394.88	1570.50
395.07	1640.72
395.26	1750.72
395.46	1572.84
395.65	1652.42
395.84	1764.76
396.04	1661.78
396.23	1748.38
396.42	1760.08
396.62	1799.87
396.81	1790.51
397.00	1816.26
397.19	1750.72
397.39	1764.76
397.58	1851.36
397.77	1785.83
397.97	1888.81
398.16	1769.44
398.35	1919.24
398.55	1895.83
398.74	1900.52
398.93	1982.43
399.12	1863.07
399.32	1994.14
399.51	1907.54
399.70	2008.18
399.90	1928.60
400.09	2033.93
400.28	2040.95
400.47	1996.48
400.67	2101.80
400.86	2106.48
401.05	2071.37
401.24	2118.18
401.44	2143.93
401.63	2127.55
401.82	2190.74
402.01	2134.57
402.21	2167.34
402.40	2108.82
402.59	2139.25
402.78	2307.77
402.97	2165.00
403.17	2293.72
403.36	2275.00
403.55	2197.76
403.74	2415.43
403.93	2354.58
404.13	2368.62
404.32	2235.21
404.51	2326.49
404.70	2359.26
404.89	2403.73
405.09	2438.84
405.28	2394.37
405.47	2504.37
405.66	2546.50
405.85	2434.16
406.05	2509.05
406.24	2590.97
406.43	2569.91
406.62	2635.44
406.81	2747.79
407.00	2600.34
407.20	2537.14
407.39	2698.64
407.58	2668.21
407.77	2717.36
407.96	2778.22
408.15	2745.45
408.34	2626.08
408.54	2771.19
408.73	2869.50
408.92	2881.20
409.11	2944.39
409.30	2925.67
409.49	2869.50
409.68	2869.50
409.87	2904.60
410.07	3052.06
410.26	3056.74
410.45	3077.80
410.64	2960.78
410.83	2974.82
411.02	3063.76
411.21	3115.25
411.40	3171.43
411.59	3346.97
411.78	3185.47
411.98	3330.58
412.17	3265.05
412.36	3356.33
412.55	3337.60
412.74	3384.41
412.93	3384.41
413.12	3356.33
413.31	3538.89
413.50	3569.32
413.69	3475.70
413.88	3531.87
414.07	3618.47
414.26	3597.40
414.45	3595.06
414.64	3822.09
414.83	3791.67
415.02	3744.86
415.22	3833.80
415.41	3868.91
415.60	3936.78
415.79	4011.68
415.98	3922.74
416.17	4088.92
416.36	3878.27
416.55	4025.72
416.74	4105.30
416.93	4117.00
417.12	4203.60
417.31	4175.52
417.50	4266.80
417.69	4360.42
417.88	4367.44
418.07	4245.73
418.26	4243.39
418.45	4315.95
418.64	4550.00
418.83	4465.74
419.02	4542.98
419.21	4540.64
419.39	4397.87
419.58	4421.27
419.77	4325.31
419.96	4624.90
420.15	4671.71
420.34	4613.20
420.53	4603.83
420.72	4835.55
420.91	4889.38
421.10	4786.40
421.29	4894.06
421.48	4751.29
421.67	4924.49
421.86	4833.21
422.05	4961.94
422.24	4966.62
422.43	4868.31
422.61	4910.44
422.80	4952.57
422.99	4877.68
423.18	5085.98
423.37	5043.85
423.56	4924.49
423.75	4994.70
423.94	4863.63
424.13	4561.70
424.32	4865.97
424.50	5093.01
424.69	5163.22
424.88	5093.01
425.07	4924.49
425.26	5039.17
425.45	5027.47
425.64	4964.28
425.83	5071.94
426.01	4945.55
426.20	5107.05
426.39	5034.49
426.58	5071.94
426.77	5100.03
426.96	5167.90
427.15	5043.85
427.33	5266.21
427.52	5184.29
427.71	5420.68
427.90	5263.86
428.09	5366.85
428.28	5481.53
428.46	5394.93
428.65	5327.06
428.84	5645.37
429.03	5313.02
429.22	5315.36
429.40	5458.13
429.59	5530.69
429.78	5195.99
429.97	5200.67
430.16	5636.01
430.34	5614.95
430.53	5626.65
430.72	5687.50
430.91	5664.10
431.10	5617.29
431.28	5783.46
431.47	5895.81
431.66	6017.52
431.85	5771.76
432.03	5909.85
432.22	5872.40
432.41	5935.60
432.60	5970.71
432.79	5919.21
432.97	6059.65
433.16	6003.47
433.35	6057.31
433.54	6289.02
433.72	6118.16
433.91	6207.10
434.10	6197.74
434.28	6164.97
434.47	6312.42
434.66	6279.66
434.85	6286.68
435.03	6410.73
435.22	6455.20
435.41	6567.54
435.59	6530.09
435.78	6422.43
435.97	6555.84
436.16	6349.87
436.34	6551.16
436.53	6752.45
436.72	6593.29
436.90	6452.86
437.09	6717.34
437.28	6604.99
437.46	6698.61
437.65	6541.80
437.84	6876.49
438.02	6726.70
438.21	6810.96
438.40	6801.60
438.58	6986.50
438.77	7084.80
438.96	6925.65
439.14	7061.40
439.33	7215.87
439.52	7290.77
439.70	7339.92
439.89	7435.88
440.08	7377.37
440.26	7466.31
440.45	7398.43
440.63	7606.74
440.82	7524.82
441.01	7604.40
441.19	7761.22
441.38	7581.00
441.57	7705.04
441.75	7822.07
441.94	7918.03
442.12	8131.02
442.31	8049.10
442.50	8159.11
442.68	8086.55
442.87	8152.09
443.05	8245.71
443.24	8374.44
443.43	8325.29
443.61	8105.28
443.80	8390.82
443.98	7857.18
444.17	7983.57
444.35	8465.72
444.54	8421.25
444.73	8297.20
444.91	8404.86
445.10	8442.31
445.28	8437.63
445.47	8423.59
445.65	8276.13
445.84	8636.58
446.02	8617.85
446.21	8531.25
446.39	8561.68
446.58	8620.19
446.77	8552.32
446.95	8311.24
447.14	8325.29
447.32	8557.00
447.51	8634.24
447.69	8585.08
447.88	8510.19
448.06	8599.13
448.25	8758.28
448.43	8718.50
448.62	8524.23
448.80	8557.00
448.99	8823.82
449.17	8720.84
449.36	8739.56
449.54	8711.47
449.73	9088.30
449.91	8959.57
450.10	9109.36
450.28	9394.91
450.46	9104.68
450.65	9383.21
450.83	9151.49
451.02	9366.82
451.20	9160.86
451.39	9198.31
451.57	9275.54
451.76	9249.80
451.94	9242.78
452.13	9312.99
452.31	9472.15
452.49	9338.74
452.68	9453.42
452.86	9434.70
453.05	9572.79
453.23	9577.47
453.42	9327.03
453.60	9598.54
453.78	9521.30
453.97	9542.36
454.15	9619.60
454.34	9617.26
454.52	10017.49
454.70	9661.73
454.89	9696.84
455.07	9912.17
455.26	9954.30
455.44	10071.33
455.62	9963.66
455.81	10066.64
455.99	10157.92
456.17	10249.21
456.36	10029.20
456.54	10251.55
456.73	10375.59
456.91	10576.88
457.09	10380.28
457.28	10581.56
457.46	10335.81
457.64	10679.86
457.83	10506.66
458.01	10548.79
458.19	10511.35
458.38	10689.23
458.56	10658.80
458.74	10796.89
458.93	10611.99
459.11	10724.33
459.29	10860.09
459.48	10824.98
459.66	10736.04
459.84	10986.47
460.03	11365.64
460.21	11257.98
460.39	11162.01
460.57	11295.43
460.76	11318.83
460.94	11183.08
461.12	11220.53
461.31	11288.40
461.49	11304.79
461.67	11311.81
461.85	11779.92
462.04	11269.68
462.22	11864.18
462.40	11726.08
462.59	11550.54
462.77	11545.86
462.95	11815.02
463.13	11744.81
463.32	11840.77
463.50	11667.57
463.68	11845.45
463.86	11840.77
464.05	11826.73
464.23	11737.79
464.41	12205.89
464.59	11761.19
464.78	12379.09
464.96	11950.78
465.14	12077.16
465.32	12030.35
465.50	11927.37
465.69	12521.87
465.87	12238.66
466.05	12264.41
466.23	12266.75
466.41	12348.67
466.60	12706.77
466.78	12379.09
466.96	12308.88
467.14	12243.34
467.32	12404.84
467.51	12641.23
467.69	12196.53
467.87	12409.52
468.05	12610.81
468.23	12453.99
468.41	12629.53
468.60	12671.66
468.78	12526.55
468.96	12814.43
469.14	12781.67
469.32	13060.19
469.50	12989.97
469.69	12996.99
469.87	13015.72
470.05	13046.15
470.23	13233.39
470.41	13554.04
470.59	13568.09
470.77	13034.44
470.95	13284.88
471.14	13797.46
471.32	13245.09
471.50	13678.09
471.68	13837.25
471.86	13687.45
472.04	13748.31
472.22	14038.53
472.40	13635.96
472.58	13996.40
472.77	14064.28
472.95	14349.82
473.13	14675.16
473.31	14258.54
473.49	14324.08
473.67	14291.31
473.85	14438.76
474.03	14909.21
474.21	14759.42
474.39	14810.91
474.57	14806.23
474.75	15229.87
474.93	15133.90
475.12	15159.65
475.30	15506.05
475.48	15377.32
475.66	15131.56
475.84	15173.69
476.02	15232.21
476.20	15398.38
476.38	15859.47
476.56	16086.50
476.74	15941.39
476.92	16070.12
477.10	15674.57
477.28	16046.71
477.46	16135.65
477.64	16463.33
477.82	17102.29
478.00	16767.60
478.18	16578.01
478.36	17092.93
478.54	17076.55
478.72	17212.30
478.90	17465.08
479.08	17886.37
479.26	17694.45
479.44	17984.68
479.62	18073.62
479.80	18127.45
479.98	18497.25
480.16	19026.21
480.34	18387.25
480.52	18841.31
480.70	18864.72
480.88	18640.03
481.06	18937.27
481.24	18761.73
481.41	19604.33
481.59	19257.93
481.77	19719.01
481.95	19658.16
482.13	19990.52
482.31	19838.38
482.49	20631.82
482.67	20486.71
482.85	20772.25
483.03	20552.24
483.21	21048.44
483.39	21233.34
483.57	21109.29
483.74	21460.37
483.92	21762.30
484.10	21298.88
484.28	21710.81
484.46	22188.28
484.64	22396.59
484.82	21891.03
485.00	22733.62
485.18	22955.97
485.35	23344.50
485.53	22958.31
485.71	23234.50
485.89	23718.99
486.07	23442.81
486.25	23510.68
486.43	23782.18
486.61	24166.03
486.78	24460.94
486.96	24044.32
487.14	25242.68
487.32	24606.05
487.50	24915.00
487.68	25376.09
487.85	25305.87
488.03	25783.34
488.21	25923.77
488.39	25928.45
488.57	26361.45
488.75	26324.01
488.92	26590.83
489.10	26740.62
489.28	27117.45
489.46	27405.33
489.64	27211.07
489.81	27957.70
489.99	28278.35
490.17	28191.75
490.35	28088.77
490.53	28290.06
490.70	28819.02
490.88	28613.05
491.06	28980.51
491.24	29046.05
491.41	29078.82
491.59	29752.89
491.77	29682.67
491.95	29935.45
492.13	30106.31
492.30	29830.13
492.48	30546.33
492.66	30586.12
492.84	30354.41
493.01	30881.03
493.19	30869.33
493.37	31578.51
493.54	31381.90
493.72	31768.09
493.90	31796.18
494.08	31999.80
494.25	31974.06
494.43	32374.29
494.61	32566.21
494.79	32547.49
494.96	32793.25
495.14	33031.98
495.32	33675.63
495.49	33612.43
495.67	33156.03
495.85	33998.62
496.02	34036.07
496.20	34237.36
496.38	34029.05
496.55	34712.49
496.73	34855.26
496.91	34796.74
497.09	35112.72
497.26	35351.45
497.44	35180.59
497.62	35538.69
497.79	35690.83
497.97	35330.39
498.14	36222.13
498.32	36582.57
498.50	36376.61
498.67	36605.98
498.85	36694.92
499.03	37151.32
499.20	36828.33
499.38	37251.97
499.56	37191.11
499.73	37596.03
499.91	37928.38
500.08	37785.61
500.26	37715.39
500.44	37694.33
500.61	38040.73
500.79	38132.01
500.97	38157.75
501.14	38691.40
501.32	38567.35
501.49	39016.73
501.67	39138.44
501.84	38937.15
502.02	39047.16
502.20	39541.01
502.37	39374.83
502.55	39124.40
502.72	39826.56
502.90	40088.70
503.07	39660.38
503.25	39880.39
503.43	39995.07
503.60	40634.04
503.78	40502.97
503.95	40912.56
504.13	40954.69
504.30	40952.35
504.48	40872.78
504.65	40996.82
504.83	41118.53
505.01	41553.87
505.18	41483.66
505.36	41488.34
505.53	41713.03
505.71	42150.71
505.88	41696.64
506.06	41902.61
506.23	42363.70
506.41	41954.10
506.58	42557.96
506.76	42429.23
506.93	42557.96
507.11	42693.71
507.28	42852.87
507.46	43086.92
507.63	43381.83
507.81	44002.07
507.98	43278.85
508.16	43639.29
508.33	43878.02
508.50	43786.74
508.68	43725.89
508.85	44474.86
509.03	44390.60
509.20	44514.65
509.38	44577.84
509.55	44772.11
509.73	44718.28
509.90	44910.20
510.08	44542.74
510.25	44776.79
510.42	45151.27
510.60	45401.71
510.77	45565.55
510.95	45626.40
511.12	45563.21
511.30	45525.76
511.47	45776.20
511.64	46171.75
511.82	46202.18
511.99	46068.76
512.17	46354.31
512.34	46094.51
512.51	46513.47
512.69	47012.00
512.86	46574.32
513.04	46969.87
513.21	46817.74
513.38	47430.96
513.56	47309.25
513.73	47452.02
513.90	47409.89
514.08	47323.29
514.25	47590.11
514.43	47992.68
514.60	47746.93
514.77	48088.65
514.95	48243.12
515.12	48072.26
515.29	47557.35
515.47	48486.54
515.64	48446.75
515.81	48488.88
515.99	48809.53
516.16	48851.66
516.33	48526.33
516.51	48851.66
516.68	48956.99
516.85	48629.31
517.03	48959.33
517.20	49375.94
517.37	49319.77
517.54	49064.65
517.72	49172.31
517.89	49614.68
518.06	49640.42
518.24	49680.21
518.41	49455.52
518.58	49909.58
518.75	49766.81
518.93	49839.37
519.10	49710.64
519.27	49577.23
519.45	50120.23
519.62	50071.08
519.79	50593.02
519.96	49993.84
520.14	50546.21
520.31	50356.63
520.48	50546.21
520.65	50295.77
520.83	50829.41
521.00	50962.82
521.17	50997.93
521.34	50852.82
521.52	51068.15
521.69	51007.29
521.86	51187.52
522.03	50967.51
522.20	51489.45
522.38	52236.08
522.55	51742.22
522.72	51910.74
522.89	51739.88
523.07	51503.49
523.24	51877.97
523.41	51938.83
523.58	51669.67
523.75	52016.07
523.92	52109.69
524.10	52353.10
524.27	52243.10
524.44	52388.21
524.61	52097.98
524.78	52404.59
524.96	52636.31
525.13	52687.80
525.30	52776.74
525.47	52760.36
525.64	52699.50
525.81	52861.00
525.98	52966.32
526.16	52823.55
526.33	52982.71
526.50	53172.29
526.67	53209.74
526.84	53160.59
527.01	52842.27
527.18	53078.67
527.36	53214.42
527.53	53132.50
527.70	53762.11
527.87	53537.41
528.04	53382.94
528.21	53827.64
528.38	53537.41
528.55	54028.93
528.72	53680.19
528.89	53783.17
529.07	53851.05
529.24	53855.73
529.41	53886.15
529.58	53993.82
529.75	53736.36
529.92	54014.88
530.09	54096.80
530.26	54347.24
530.43	54335.54
530.60	54047.65
530.77	54234.89
530.94	54277.02
531.11	54431.50
531.28	54466.61
531.46	54319.15
531.63	54412.77
531.80	54546.18
531.97	54480.65
532.14	54789.60
532.31	54859.82
532.48	54852.80
532.65	54824.71
532.82	54600.02
532.99	55126.64
533.16	54859.82
533.33	55164.09
533.50	55164.09
533.67	54869.18
533.84	54901.95
534.01	54983.86
534.18	55189.83
534.35	55276.43
534.52	55210.90
534.69	55372.39
534.86	55660.28
535.03	55594.74
535.20	55484.74
535.37	55480.06
535.54	55580.70
535.71	55199.19
535.88	55674.32
536.05	55627.51
536.22	55718.79
536.38	55777.31
536.55	55803.05
536.72	55948.17
536.89	55732.84
537.06	55646.24
537.23	56044.13
537.40	55826.46
537.57	56100.30
537.74	56165.84
537.91	56404.57
538.08	56191.58
538.25	55962.21
538.42	56079.24
538.59	56289.88
538.75	56203.28
538.92	56238.39
539.09	56409.25
539.26	56381.16
539.43	56322.65
539.60	56456.06
539.77	56577.77
539.94	56577.77
540.11	56409.25
540.28	56835.23
540.44	56622.24
540.61	56537.98
540.78	56809.48
540.95	56629.26
541.12	56711.18
541.29	56573.09
541.46	56903.10
541.62	56772.03
541.79	56828.21
541.96	56619.90
542.13	56746.29
542.30	56959.28
542.47	56961.62
542.63	57137.16
542.80	57205.03
542.97	57251.84
543.14	57396.96
543.31	57270.57
543.48	57322.06
543.64	57736.34
543.81	57595.90
543.98	57268.23
544.15	57506.96
544.32	57633.35
544.48	57879.11
544.65	57769.10
544.82	57546.75
544.99	57483.56
545.16	57888.47
545.32	57584.20
545.49	57860.38
545.66	58071.03
545.83	57958.69
546.00	58101.46
546.16	57890.81
546.33	57769.10
546.50	57839.32
546.67	58012.52
546.83	57825.28
547.00	58038.26
547.17	58054.65
547.34	58078.05
547.50	58103.80
547.67	58316.79
547.84	58073.37
548.00	58410.41
548.17	58511.05
548.34	58227.85
548.51	58405.73
548.67	58576.59
548.84	58408.07
549.01	58494.67
549.18	58564.88
549.34	58482.97
549.51	58506.37
549.68	58618.72
549.84	58642.12
550.01	58525.10
550.18	58347.21
550.34	58454.88
550.51	58700.64
550.68	58642.12
550.84	58506.37
551.01	58939.37
551.18	58672.55
551.34	58665.53
551.51	58831.71
551.68	58721.70
551.84	58672.55
552.01	58630.42
552.18	58927.67
552.34	58766.17
552.51	58836.39
552.68	58686.59
552.84	58829.37
553.01	59339.60
553.18	58803.62
553.34	58953.41
553.51	58908.94
553.67	58869.15
553.84	59072.78
554.01	59105.55
554.17	59400.46
554.34	59110.23
554.51	59189.81
554.67	59290.45
554.84	58892.56
555.00	59264.70
555.17	59049.38
555.33	59192.15
555.50	59271.73
555.67	59238.96
555.83	59084.48
556.00	59164.06
556.16	59657.91
556.33	59428.54
556.50	59313.86
556.66	59760.90
556.83	59267.05
556.99	59533.87
557.16	59681.32
557.32	59690.68
557.49	59983.25
557.65	59533.87
557.82	59454.29
557.98	59578.34
558.15	59613.44
558.32	59594.72
558.48	59540.89
558.65	59653.23
558.81	59863.88
558.98	59636.85
559.14	59915.37
559.31	59852.18
559.47	59634.51
559.64	59796.01
559.80	59765.58
559.97	59927.08
560.13	59753.88
560.30	59854.52
560.46	60060.49
560.63	59821.75
560.79	60100.28
560.96	60009.00
561.12	60121.34
561.29	59894.31
561.45	60151.77
561.61	60006.65
561.78	60088.57
561.94	60088.57
562.11	59901.33
562.27	60224.32
562.44	60074.53
562.60	60273.48
562.77	59994.95
562.93	59910.69
563.10	60308.58
563.26	60240.71
563.42	60247.73
563.59	60191.56
563.75	60203.26
563.92	60205.60
564.08	60437.31
564.24	60594.13
564.41	60430.29
564.57	60259.43
564.74	60437.31
564.90	60493.49
565.07	60158.79
565.23	60179.85
565.39	60488.80
565.56	60336.67
565.72	60243.05
565.88	60411.57
566.05	60278.16
566.21	60439.65
566.38	60219.64
566.54	60217.30
566.70	60549.66
566.87	60713.50
567.03	60191.56
567.19	60748.60
567.36	60662.00
567.52	60516.89
567.68	60804.78
567.85	60584.77
568.01	60678.39
568.17	60669.03
568.34	60708.82
568.50	60596.47
568.66	60313.26
568.83	60636.26
568.99	60556.68
569.15	60537.96
569.32	60521.57
569.48	60360.08
569.64	60786.05
569.81	60697.11
569.97	60687.75
570.13	60772.01
570.30	60441.99
570.46	60746.26
570.62	60750.94
570.78	60587.11
570.95	60734.56
571.11	60954.57
571.27	60743.92
571.43	60779.03
571.60	60617.53
571.76	60647.96
571.92	60781.37
572.09	60676.05
572.25	60837.54
572.41	60582.43
572.57	60804.78
572.74	61017.77
572.90	60858.61
573.06	60949.89
573.22	60713.50
573.38	60910.10
573.55	60729.88
573.71	60982.66
573.87	60898.40
574.03	60842.23
574.20	60931.17
574.36	60856.27
574.52	60839.89
574.68	60893.72
574.84	60938.19
575.01	61001.38
575.17	60989.68
575.33	60938.19
575.49	60896.06
575.65	60982.66
575.82	61048.19
575.98	61087.98
576.14	60935.85
576.30	61073.94
576.46	61118.41
576.62	61027.13
576.79	60849.25
576.95	60952.23
577.11	61073.94
577.27	61078.62
577.43	60985.00
577.59	60650.30
577.75	60809.46
577.92	60704.13
578.08	61010.74
578.24	61090.32
578.40	61139.47
578.56	60856.27
578.72	61160.54
578.88	61064.58
579.04	61148.84
579.21	61090.32
579.37	61099.68
579.53	61200.33
579.69	60891.38
579.85	61050.53
580.01	61123.09
580.17	60818.82
580.33	61169.90
580.49	61338.42
580.65	61052.87
580.82	60898.40
580.98	60966.27
581.14	61066.92
581.30	61092.66
581.46	60945.21
581.62	61172.24
581.78	60804.78
581.94	61155.86
582.10	61038.83
582.26	61151.18
582.42	61186.28
582.58	61183.94
582.74	61160.54
582.90	60963.93
583.06	61048.19
583.22	60846.91
583.38	61134.79
583.54	61214.37
583.70	61436.72
583.86	61205.01
584.02	60867.97
584.18	61144.16
584.34	61223.73
584.50	61307.99
584.66	61270.54
584.82	61059.90
584.98	61378.21
585.14	61296.29
585.30	61092.66
585.46	61230.75
585.62	61228.41
585.78	61443.74
585.94	60961.59
586.10	61111.39
586.26	61300.97
586.42	61244.80
586.58	61230.75
586.74	61240.12
586.90	61202.67
587.06	61165.22
587.22	61333.74
587.38	61315.01
587.54	61413.32
587.70	61284.59
587.86	61242.46
588.02	61003.72
588.18	61333.74
588.34	61242.46
588.49	61179.26
