SpectraSuite Data File
++++++++++++++++++++++++++++++++++++
Date: Fri Oct 25 11:33:11 EDT 2013
User: price-jones
Dark Spectrum Present: No
Reference Spectrum Present: No
Number of Sampled Component Spectra: 1
Spectrometers: USB2+H05261
Integration Time (usec): 100000 (USB2+H05261)
Spectra Averaged: 1 (USB2+H05261)
Boxcar Smoothing: 0 (USB2+H05261)
Correct for Electrical Dark: No (USB2+H05261)
Strobe/Lamp Enabled: No (USB2+H05261)
Correct for Detector Non-linearity: No (USB2+H05261)
Correct for Stray Light: No (USB2+H05261)
Number of Pixels in Processed Spectrum: 2048
>>>>>Begin Processed Spectral Data<<<<<
365.73	264.48
365.92	264.48
366.12	264.48
366.32	159.16
366.52	149.79
366.72	170.86
366.91	159.16
367.11	191.92
367.31	138.09
367.51	208.31
367.70	187.24
367.90	145.11
368.10	175.54
368.30	224.69
368.49	210.65
368.69	135.75
368.89	194.26
369.09	194.26
369.28	159.16
369.48	201.29
369.68	215.33
369.87	203.63
370.07	252.78
370.27	287.89
370.47	287.89
370.66	433.00
370.86	463.43
371.06	507.90
371.25	601.52
371.45	538.32
371.65	543.00
371.84	568.75
372.04	613.22
372.24	559.39
372.44	552.37
372.63	587.47
372.83	606.20
373.03	573.43
373.22	622.58
373.42	550.03
373.62	660.03
373.81	552.37
374.01	641.31
374.21	681.10
374.40	601.52
374.60	643.65
374.79	582.79
374.99	631.94
375.19	671.73
375.38	692.80
375.58	636.63
375.78	699.82
375.97	676.41
376.17	718.54
376.37	772.38
376.56	730.25
376.76	589.82
376.95	669.39
377.15	725.57
377.35	734.93
377.54	779.40
377.74	653.01
377.93	709.18
378.13	748.97
378.33	770.04
378.52	706.84
378.72	760.67
378.91	751.31
379.11	751.31
379.31	748.97
379.50	734.93
379.70	732.59
379.89	744.29
380.09	772.38
380.28	660.03
380.48	767.70
380.68	711.52
380.87	821.53
381.07	730.25
381.26	720.88
381.46	777.06
381.65	765.36
381.85	732.59
382.04	746.63
382.24	753.65
382.43	828.55
382.63	777.06
382.83	720.88
383.02	833.23
383.22	823.87
383.41	763.01
383.61	847.27
383.80	795.78
384.00	835.57
384.19	835.57
384.39	819.19
384.58	809.83
384.78	800.46
384.97	856.64
385.17	851.96
385.36	891.74
385.56	795.78
385.75	833.23
385.95	798.12
386.14	861.32
386.34	894.08
386.53	877.70
386.72	826.21
386.92	919.83
387.11	978.34
387.31	842.59
387.50	922.17
387.70	858.98
387.89	917.49
388.09	868.34
388.28	922.17
388.48	922.17
388.67	849.61
388.86	814.51
389.06	887.06
389.25	994.73
389.45	994.73
389.64	952.60
389.84	961.96
390.03	971.32
390.22	976.00
390.42	1013.45
390.61	952.60
390.81	957.28
391.00	940.90
391.19	985.37
391.39	1027.50
391.58	964.30
391.78	999.41
391.97	1053.24
392.16	1046.22
392.36	1116.44
392.55	1142.18
392.75	1050.90
392.94	1116.44
393.13	1067.28
393.33	1018.13
393.52	1074.31
393.71	1036.86
393.91	1109.41
394.10	1170.27
394.29	1088.35
394.49	1067.28
394.68	1137.50
394.88	1125.80
395.07	1200.69
395.26	1118.78
395.46	1076.65
395.65	1214.74
395.84	1191.33
396.04	1315.38
396.23	1107.07
396.42	1139.84
396.62	1315.38
396.81	1228.78
397.00	1149.20
397.19	1188.99
397.39	1313.04
397.58	1231.12
397.77	1249.85
397.97	1221.76
398.16	1240.48
398.35	1240.48
398.55	1336.45
398.74	1263.89
398.93	1310.70
399.12	1308.36
399.32	1336.45
399.51	1228.78
399.70	1315.38
399.90	1430.07
400.09	1308.36
400.28	1404.32
400.47	1371.55
400.67	1427.73
400.86	1427.73
401.05	1434.75
401.24	1427.73
401.44	1465.18
401.63	1465.18
401.82	1397.30
402.01	1486.24
402.21	1530.71
402.40	1528.37
402.59	1589.22
402.78	1502.62
402.97	1519.01
403.17	1509.65
403.36	1540.07
403.55	1572.84
403.74	1664.12
403.93	1687.53
404.13	1689.87
404.32	1636.03
404.51	1605.61
404.70	1732.00
404.89	1589.22
405.09	1713.27
405.28	1717.95
405.47	1678.16
405.66	1769.44
405.85	1696.89
406.05	1825.62
406.24	1776.47
406.43	1682.85
406.62	1900.52
406.81	1858.39
407.00	1900.52
407.20	1837.32
407.39	1729.66
407.58	1827.96
407.77	1792.85
407.96	1846.68
408.15	1888.81
408.34	1816.26
408.54	1914.56
408.73	1863.07
408.92	1916.90
409.11	1944.99
409.30	1970.73
409.49	1996.48
409.68	2064.35
409.87	2127.55
410.07	1982.43
410.26	2015.20
410.45	1998.82
410.64	2197.76
410.83	2153.29
411.02	2200.10
411.21	2129.89
411.40	2172.02
411.59	2228.19
411.78	2179.04
411.98	2239.89
412.17	2377.98
412.36	2272.66
412.55	2331.17
412.74	2338.20
412.93	2387.35
413.12	2312.45
413.31	2490.33
413.50	2403.73
413.69	2487.99
413.88	2614.38
414.07	2642.46
414.26	2450.54
414.45	2628.42
414.64	2649.49
414.83	2637.78
415.02	2576.93
415.22	2689.28
415.41	2708.00
415.60	2640.12
415.79	2691.62
415.98	2782.90
416.17	2796.94
416.36	2806.30
416.55	2675.23
416.74	2818.00
416.93	2806.30
417.12	2813.32
417.31	2939.71
417.50	2967.80
417.69	3103.55
417.88	2995.89
418.07	3005.25
418.26	3115.25
418.45	2993.55
418.64	3183.13
418.83	3098.87
419.02	3049.72
419.21	3185.47
419.39	3070.78
419.58	3197.17
419.77	3131.64
419.96	3126.96
420.15	3176.11
420.34	3206.53
420.53	3290.79
420.72	3239.30
420.91	3325.90
421.10	3300.16
421.29	3325.90
421.48	3286.11
421.67	3323.56
421.86	3389.10
422.05	3241.64
422.24	3307.18
422.43	3361.01
422.61	3316.54
422.80	3382.07
422.99	3389.10
423.18	3433.57
423.37	3417.18
423.56	3356.33
423.75	3365.69
423.94	3386.76
424.13	3215.90
424.32	3323.56
424.50	3428.88
424.69	3527.19
424.88	3548.25
425.07	3449.95
425.26	3330.58
425.45	3466.33
425.64	3405.48
425.83	3456.97
426.01	3606.77
426.20	3557.61
426.39	3527.19
426.58	3510.80
426.77	3508.46
426.96	3524.85
427.15	3492.08
427.33	3616.13
427.52	3611.45
427.71	3658.26
427.90	3590.38
428.09	3721.45
428.28	3730.81
428.46	3611.45
428.65	3770.60
428.84	3723.79
429.03	3857.20
429.22	3681.66
429.40	3756.56
429.59	3859.54
429.78	3634.85
429.97	3709.75
430.16	3815.07
430.34	3983.59
430.53	3960.19
430.72	3939.12
430.91	3960.19
431.10	3861.88
431.28	3950.82
431.47	4095.94
431.66	3997.64
431.85	4124.02
432.03	4049.13
432.22	4124.02
432.41	4166.15
432.60	4112.32
432.79	4044.45
432.97	4016.36
433.16	4236.37
433.35	4140.41
433.54	4079.55
433.72	4098.28
433.91	4091.26
434.10	4114.66
434.28	4224.67
434.47	4182.54
434.66	4379.14
434.85	4241.05
435.03	4262.12
435.22	4250.41
435.41	4561.70
435.59	4458.72
435.78	4479.79
435.97	4341.69
436.16	4189.56
436.34	4264.46
436.53	4528.94
436.72	4519.57
436.90	4519.57
437.09	4531.28
437.28	4566.39
437.46	4538.30
437.65	4594.47
437.84	4634.26
438.02	4737.24
438.21	4601.49
438.40	4662.35
438.58	4807.46
438.77	4849.59
438.96	4802.78
439.14	5004.07
439.33	4873.00
439.52	4947.89
439.70	5060.24
439.89	5055.56
440.08	5118.75
440.26	5146.84
440.45	4887.04
440.63	4954.91
440.82	5174.92
441.01	5135.14
441.19	5291.95
441.38	5322.38
441.57	5270.89
441.75	5394.93
441.94	5535.37
442.12	5399.62
442.31	5628.99
442.50	5399.62
442.68	5425.36
442.87	5476.85
443.05	5497.92
443.24	5591.54
443.43	5474.51
443.61	5561.11
443.80	5769.42
443.98	5497.92
444.17	5483.88
444.35	5680.48
444.54	5717.93
444.73	5603.24
444.91	5694.52
445.10	5788.14
445.28	5877.09
445.47	5518.98
445.65	5715.59
445.84	5832.62
446.02	5734.31
446.21	5626.65
446.39	5785.80
446.58	5617.29
446.77	5909.85
446.95	5584.52
447.14	5818.57
447.32	5757.72
447.51	5797.51
447.69	5806.87
447.88	5781.12
448.06	6031.56
448.25	5856.02
448.43	5820.91
448.62	5795.17
448.80	5774.10
448.99	5858.36
449.17	6057.31
449.36	5996.45
449.54	6047.94
449.73	6092.41
449.91	6099.44
450.10	6155.61
450.28	6239.87
450.46	6176.67
450.65	6146.25
450.83	6244.55
451.02	6122.84
451.20	6202.42
451.39	6267.95
451.57	6307.74
451.76	6221.14
451.94	6324.13
452.13	6443.49
452.31	6305.40
452.49	6317.11
452.68	6223.48
452.86	6258.59
453.05	6317.11
453.23	6438.81
453.42	6401.37
453.60	6485.62
453.78	6487.96
453.97	6434.13
454.15	6534.78
454.34	6427.11
454.52	6602.65
454.70	6658.82
454.89	6698.61
455.07	6621.38
455.26	6759.47
455.44	6860.11
455.62	6820.32
455.81	6813.30
455.99	6853.09
456.17	6817.98
456.36	6815.64
456.54	6892.88
456.73	6918.62
456.91	7021.61
457.09	7133.95
457.28	7204.17
457.46	6991.18
457.64	7241.62
457.83	7136.29
458.01	6988.84
458.19	7314.17
458.38	7325.88
458.56	7309.49
458.74	7346.94
458.93	7279.07
459.11	7180.76
459.29	7199.49
459.48	7267.36
459.66	7337.58
459.84	7346.94
460.03	7473.33
460.21	7339.92
460.39	7400.77
460.57	7475.67
460.76	7590.36
460.94	7754.19
461.12	7618.44
461.31	7356.30
461.49	7405.46
461.67	7588.02
461.85	7840.79
462.04	7639.51
462.22	8124.00
462.40	7765.90
462.59	7843.14
462.77	7929.74
462.95	7829.09
463.13	7840.79
463.32	7770.58
463.50	7840.79
463.68	7962.50
463.86	8002.29
464.05	8042.08
464.23	7964.84
464.41	8131.02
464.59	7925.05
464.78	8238.69
464.96	8236.35
465.14	7967.18
465.32	8112.30
465.50	8091.23
465.69	8318.26
465.87	8189.53
466.05	8257.41
466.23	8219.96
466.41	8409.54
466.60	8416.57
466.78	8304.22
466.96	8320.60
467.14	8212.94
467.32	8325.29
467.51	8659.98
467.69	8318.26
467.87	8603.81
468.05	8348.69
468.23	8521.89
468.41	8472.74
468.60	8489.12
468.78	8751.26
468.96	8421.25
469.14	8781.69
469.32	8655.30
469.50	8446.99
469.69	8643.60
469.87	8594.45
470.05	8730.20
470.23	9043.83
470.41	8929.14
470.59	8938.51
470.77	9074.26
470.95	8959.57
471.14	9085.96
471.32	8868.29
471.50	9284.91
471.68	9158.52
471.86	9266.18
472.04	9125.75
472.22	9423.00
472.40	9240.44
472.58	9336.40
472.77	9397.25
472.95	9516.62
473.13	9638.33
473.31	9444.06
473.49	9441.72
473.67	9516.62
473.85	9544.70
474.03	9785.78
474.21	10064.30
474.39	9973.02
474.57	10104.09
474.75	10005.79
474.93	10115.80
475.12	10050.26
475.30	10045.58
475.48	10307.72
475.66	10235.16
475.84	10244.52
476.02	10237.50
476.20	10296.02
476.38	10501.98
476.56	10640.08
476.74	10822.64
476.92	10602.63
477.10	10607.31
477.28	10862.43
477.46	11166.70
477.64	10785.19
477.82	11115.20
478.00	11349.26
478.18	11040.31
478.36	11477.99
478.54	11501.39
478.72	11440.54
478.90	11367.98
479.08	11836.09
479.26	11852.47
479.44	11719.06
479.62	12063.12
479.80	11983.54
479.98	12100.57
480.16	12449.31
480.34	12175.47
480.52	12372.07
480.70	12475.06
480.88	12217.60
481.06	12648.26
481.24	12517.18
481.41	12688.04
481.59	13006.36
481.77	12940.82
481.95	12929.12
482.13	13102.32
482.31	13064.87
482.49	13504.89
482.67	13561.06
482.85	13565.74
483.03	13671.07
483.21	14057.26
483.39	13928.53
483.57	13855.97
483.74	14106.41
483.92	14106.41
484.10	14244.50
484.28	14438.76
484.46	14780.48
484.64	14831.97
484.82	14513.66
485.00	14925.60
485.18	15014.54
485.35	15494.35
485.53	15440.51
485.71	15449.88
485.89	15845.43
486.07	15805.64
486.25	15527.11
486.43	15777.55
486.61	15807.98
486.78	15995.22
486.96	16067.78
487.14	16250.34
487.32	16133.31
487.50	16578.01
487.68	16570.99
487.85	16791.00
488.03	16901.01
488.21	16847.18
488.39	17053.14
488.57	17383.16
488.75	17380.82
488.92	17554.02
489.10	17530.61
489.28	17701.47
489.46	17905.10
489.64	17977.65
489.81	18253.84
489.99	18354.48
490.17	18300.65
490.35	18590.88
490.53	18441.08
490.70	18937.27
490.88	18745.35
491.06	18981.74
491.24	19178.35
491.41	19215.80
491.59	19414.74
491.77	19545.81
491.95	19601.99
492.13	19845.40
492.30	19702.63
492.48	20315.85
492.66	20009.24
492.84	20042.01
493.01	20357.98
493.19	20374.36
493.37	20650.55
493.54	20592.03
493.72	20683.31
493.90	21001.63
494.08	21132.70
494.25	21177.17
494.43	21207.59
494.61	21504.84
494.79	21607.83
494.96	21425.26
495.14	21825.50
495.32	21797.41
495.49	21844.22
495.67	22061.89
495.85	22300.62
496.02	22314.67
496.20	22794.48
496.38	22595.53
496.55	22546.38
496.73	22951.29
496.91	22820.22
497.09	23019.17
497.26	22981.72
497.44	22967.68
497.62	23370.25
497.79	23449.83
497.97	23323.44
498.14	23639.41
498.32	23709.63
498.50	23660.48
498.67	24187.10
498.85	23997.51
499.03	24713.72
499.20	24196.46
499.38	24322.85
499.56	24587.33
499.73	24816.70
499.91	24912.66
500.08	25113.95
500.26	25301.19
500.44	25130.33
500.61	24772.23
500.79	24830.74
500.97	25230.98
501.14	25577.37
501.32	25635.89
501.49	25228.63
501.67	25678.02
501.84	26010.37
502.02	25846.54
502.20	25933.14
502.37	25537.59
502.55	25989.31
502.72	26108.68
502.90	26473.80
503.07	26345.07
503.25	26419.97
503.43	26333.37
503.60	26813.18
503.78	26808.50
503.95	26630.62
504.13	27080.00
504.30	27257.88
504.48	26721.90
504.65	26796.79
504.83	27019.14
505.01	27168.94
505.18	27232.13
505.36	27866.42
505.53	27695.56
505.71	27587.89
505.88	27917.91
506.06	27393.63
506.23	27697.90
506.41	27847.69
506.58	28276.01
506.76	28276.01
506.93	28009.19
507.11	28166.01
507.28	28301.76
507.46	28659.86
507.63	28650.50
507.81	28489.00
507.98	28397.72
508.16	28809.65
508.33	29062.43
508.50	29158.39
508.68	29055.41
508.85	29436.92
509.03	29116.26
509.20	29352.66
509.38	29406.49
509.55	29816.08
509.73	29586.71
509.90	29612.46
510.08	29764.59
510.25	29783.32
510.42	29853.53
510.60	29979.92
510.77	30253.76
510.95	30611.87
511.12	30265.47
511.30	30082.91
511.47	30494.84
511.64	30401.22
511.82	30433.99
511.99	30883.37
512.17	31124.44
512.34	30644.63
512.51	30836.56
512.69	31241.47
512.86	31019.12
513.04	31164.23
513.21	31250.83
513.38	31531.70
513.56	31541.06
513.73	31438.08
513.90	31194.66
514.08	31510.63
514.25	31791.50
514.43	31873.42
514.60	31906.18
514.77	31580.85
514.95	32247.90
515.12	31831.29
515.29	32119.17
515.47	32191.73
515.64	32367.27
515.81	32144.92
515.99	32669.20
516.16	32739.41
516.33	33235.61
516.51	33046.02
516.68	32538.13
516.85	32912.61
517.03	33303.48
517.20	33163.05
517.37	32992.19
517.54	32989.85
517.72	33462.64
517.89	32964.10
518.06	33240.29
518.24	32982.83
518.41	33560.94
518.58	33497.75
518.75	33244.97
518.93	33675.63
519.10	33743.50
519.27	33809.04
519.45	33832.44
519.62	33909.68
519.79	34220.97
519.96	34171.82
520.14	34433.96
520.31	33951.81
520.48	34258.42
520.65	34639.93
520.83	34679.72
521.00	35054.20
521.17	34628.23
521.34	34705.46
521.52	34962.92
521.69	34834.19
521.86	35005.05
522.03	34906.75
522.20	35131.44
522.38	35620.61
522.55	35292.94
522.72	35342.09
522.89	35381.88
523.07	35857.01
523.24	35541.03
523.41	35974.03
523.58	35709.55
523.75	35772.75
523.92	35466.14
524.10	35658.06
524.27	35934.24
524.44	36308.73
524.61	36062.97
524.78	36088.72
524.96	36556.83
525.13	36308.73
525.30	36629.38
525.47	36456.18
525.64	36460.87
525.81	36797.90
525.98	36620.02
526.16	36823.65
526.33	36474.91
526.50	37008.55
526.67	36201.07
526.84	36856.42
527.01	36971.10
527.18	36711.30
527.36	36858.76
527.53	36828.33
527.70	37233.24
527.87	37577.30
528.04	37020.25
528.21	37532.83
528.38	37411.12
528.55	37851.14
528.72	37600.71
528.89	37635.81
529.07	37600.71
529.24	37642.84
529.41	38082.86
529.58	37979.87
529.75	37872.21
529.92	37745.82
530.09	38057.11
530.26	38099.24
530.43	38295.85
530.60	37848.80
530.77	38199.88
530.94	37958.81
531.11	38239.67
531.28	38363.72
531.46	38452.66
531.63	38827.15
531.80	38366.06
531.97	38700.76
532.14	38663.31
532.31	38813.10
532.48	39072.90
532.65	39442.71
532.82	38714.80
532.99	39105.67
533.16	38864.60
533.33	39161.84
533.50	39133.76
533.67	38983.96
533.84	38667.99
534.01	39089.29
534.18	39594.84
534.35	39819.53
534.52	39318.66
534.69	39662.72
534.86	40058.27
535.03	39786.77
535.20	39721.23
535.37	39772.72
535.54	39730.59
535.71	39257.81
535.88	40053.59
536.05	39978.69
536.22	40383.60
536.38	40098.06
536.55	39793.79
536.72	40201.04
536.89	40294.66
537.06	40161.25
537.23	40484.25
537.40	40402.33
537.57	40339.13
537.74	40261.90
537.91	40388.28
538.08	40545.10
538.25	40404.67
538.42	40650.42
538.59	40631.70
538.75	40587.23
538.92	41287.05
539.09	40856.39
539.26	40697.24
539.43	40942.99
539.60	41106.83
539.77	40968.74
539.94	41532.81
540.11	40919.59
540.28	41420.46
540.44	41361.95
540.61	41368.97
540.78	41371.31
540.95	41556.21
541.12	41282.37
541.29	41516.42
541.46	41879.21
541.62	41715.37
541.79	41816.01
541.96	41670.90
542.13	41368.97
542.30	41928.36
542.47	41729.41
542.63	41748.14
542.80	42267.73
542.97	42080.49
543.14	42232.63
543.31	42277.10
543.48	41900.27
543.64	42962.87
543.81	42373.06
543.98	42506.47
544.15	42148.37
544.32	42639.88
544.48	42909.04
544.65	42604.77
544.82	42462.00
544.99	42574.34
545.16	42916.06
545.32	42883.30
545.49	42848.19
545.66	42766.27
545.83	43056.50
546.00	43124.37
546.16	43037.77
546.33	42766.27
546.50	42946.49
546.67	43281.19
546.83	42569.66
547.00	43372.47
547.17	42852.87
547.34	42909.04
547.50	43061.18
547.67	43555.03
547.84	43278.85
548.00	43447.36
548.17	43283.53
548.34	43606.52
548.51	43758.66
548.67	43728.23
548.84	43243.74
549.01	43447.36
549.18	43866.32
549.34	43896.75
549.51	44025.48
549.68	44161.23
549.84	44140.16
550.01	44552.10
550.18	43606.52
550.34	44130.80
550.51	44690.19
550.68	44545.08
550.84	43824.19
551.01	44032.50
551.18	44060.58
551.34	43491.83
551.51	44502.95
551.68	44505.29
551.84	44168.25
552.01	43908.45
552.18	44385.92
552.34	44367.20
552.51	44273.57
552.68	44385.92
552.84	44549.76
553.01	44690.19
553.18	44587.21
553.34	45230.85
553.51	44542.74
553.67	44591.89
553.84	44629.34
554.01	44718.28
554.17	44926.58
554.34	45020.20
554.51	45130.21
554.67	45406.39
554.84	44748.70
555.00	45013.18
555.17	45193.40
555.33	45174.68
555.50	45074.04
555.67	44992.12
555.83	45165.32
556.00	45397.03
556.16	45764.49
556.33	45235.53
556.50	45813.65
556.66	45027.23
556.83	45413.41
556.99	45743.43
557.16	45579.59
557.32	45911.95
557.49	45427.46
557.65	45474.27
557.82	45179.36
557.98	45490.65
558.15	45420.44
558.32	45769.18
558.48	45703.64
558.65	45745.77
558.81	45841.73
558.98	45471.93
559.14	45336.18
559.31	46171.75
559.47	46024.29
559.64	45429.80
559.80	45947.06
559.97	45619.38
560.13	46246.65
560.30	45757.47
560.46	46391.76
560.63	45869.82
560.79	46141.32
560.96	45769.18
561.12	45825.35
561.29	46061.74
561.45	45972.80
561.61	45844.07
561.78	46272.39
561.94	45743.43
562.11	45808.96
562.27	46148.34
562.44	46209.20
562.60	45986.85
562.77	46499.42
562.93	46092.17
563.10	46485.38
563.26	45846.41
563.42	46270.05
563.59	46136.64
563.75	46312.18
563.92	46447.93
564.08	46422.19
564.24	46539.21
564.41	46267.71
564.57	46567.30
564.74	46260.69
564.90	46131.96
565.07	46471.34
565.23	46274.73
565.39	46490.06
565.56	46777.95
565.72	45982.16
565.88	46635.17
566.05	46541.55
566.21	46436.23
566.38	46663.26
566.54	46742.84
566.70	46782.63
566.87	47000.30
567.03	47007.32
567.19	46855.18
567.36	46962.85
567.52	47096.26
567.68	46885.61
567.85	46644.54
568.01	47257.76
568.17	46850.50
568.34	47292.86
568.50	47229.67
568.66	46719.43
568.83	46815.40
568.99	47430.96
569.15	46607.09
569.32	46878.59
569.48	46752.20
569.64	46902.00
569.81	47519.90
569.97	47299.89
570.13	47267.12
570.30	46747.52
570.46	47016.68
570.62	47000.30
570.78	47274.14
570.95	46880.93
571.11	47440.32
571.27	46714.75
571.43	47136.05
571.60	47374.78
571.76	46869.23
571.92	47119.66
572.09	47475.43
572.25	47339.68
572.41	47114.98
572.57	46742.84
572.74	47508.19
572.90	47220.31
573.06	47271.80
573.22	47629.90
573.38	47337.33
573.55	47264.78
573.71	47955.24
573.87	47601.82
574.03	47159.45
574.20	47676.71
574.36	47377.12
574.52	47168.82
574.68	47709.48
574.84	47646.29
575.01	47847.57
575.17	47524.58
575.33	47622.88
575.49	47175.84
575.65	47224.99
575.82	47126.69
575.98	47213.29
576.14	47709.48
576.30	47683.73
576.46	47510.53
576.62	47426.28
576.79	47386.49
576.95	47271.80
577.11	47255.42
577.27	47222.65
577.43	47379.46
577.59	47430.96
577.75	47278.82
577.92	47084.56
578.08	47482.45
578.24	47377.12
578.40	47657.99
578.56	47377.12
578.72	47730.54
578.88	47545.64
579.04	47580.75
579.21	47482.45
579.37	47702.46
579.53	47828.85
579.69	47702.46
579.85	47594.79
580.01	47325.63
580.17	47466.06
580.33	47510.53
580.49	47599.47
580.65	48034.81
580.82	47274.14
580.98	47620.54
581.14	47508.19
581.30	47899.06
581.46	47543.30
581.62	47950.56
581.78	47241.37
581.94	47688.42
582.10	48095.67
582.26	47501.17
582.42	47894.38
582.58	47484.79
582.74	47618.20
582.90	47498.83
583.06	47957.58
583.22	47564.37
583.38	47868.64
583.54	47873.32
583.70	48034.81
583.86	47856.93
584.02	47716.50
584.18	48371.85
584.34	48044.18
584.50	48105.03
584.66	47847.57
584.82	47803.10
584.98	48060.56
585.14	47702.46
585.30	47760.97
585.46	47805.44
585.62	47753.95
585.78	47718.84
585.94	47650.97
586.10	47690.76
586.26	47571.39
586.42	48039.50
586.58	47831.19
586.74	47690.76
586.90	47608.84
587.06	47753.95
587.22	47990.34
587.38	47990.34
587.54	48037.16
587.70	48446.75
587.86	48186.95
588.02	47615.86
588.18	47941.19
588.34	47922.47
588.49	47959.92
588.65	48006.73
588.81	47983.32
588.97	48016.09
589.13	47796.08
589.29	47779.70
589.45	48011.41
589.61	47943.53
589.77	48163.54
589.93	47856.93
