SpectraSuite Data File
++++++++++++++++++++++++++++++++++++
Date: Fri Oct 25 11:26:35 EDT 2013
User: price-jones
Dark Spectrum Present: No
Reference Spectrum Present: No
Number of Sampled Component Spectra: 1
Spectrometers: USB2+H05261
Integration Time (usec): 100000 (USB2+H05261)
Spectra Averaged: 1 (USB2+H05261)
Boxcar Smoothing: 0 (USB2+H05261)
Correct for Electrical Dark: No (USB2+H05261)
Strobe/Lamp Enabled: No (USB2+H05261)
Correct for Detector Non-linearity: No (USB2+H05261)
Correct for Stray Light: No (USB2+H05261)
Number of Pixels in Processed Spectrum: 2048
>>>>>Begin Processed Spectral Data<<<<<
365.73	280.86
365.92	280.86
366.12	280.86
366.32	184.90
366.52	117.03
366.72	154.48
366.91	58.51
367.11	180.22
367.31	84.26
367.51	187.24
367.70	117.03
367.90	191.92
368.10	128.73
368.30	234.05
368.49	147.45
368.69	187.24
368.89	114.69
369.09	191.92
369.28	222.35
369.48	177.88
369.68	203.63
369.87	248.10
370.07	220.01
370.27	184.90
370.47	318.31
370.66	596.84
370.86	725.57
371.06	657.69
371.25	727.91
371.45	643.65
371.65	727.91
371.84	678.76
372.04	741.95
372.24	706.84
372.44	746.63
372.63	699.82
372.83	748.97
373.03	763.01
373.22	795.78
373.42	758.33
373.62	758.33
373.81	833.23
374.01	842.59
374.21	788.76
374.40	765.36
374.60	866.00
374.79	779.40
374.99	704.50
375.19	844.93
375.38	765.36
375.58	812.17
375.78	858.98
375.97	863.66
376.17	894.08
376.37	858.98
376.56	880.04
376.76	875.36
376.95	856.64
377.15	992.39
377.35	994.73
377.54	868.34
377.74	894.08
377.93	884.72
378.13	950.26
378.33	917.49
378.52	971.32
378.72	891.74
378.91	964.30
379.11	945.58
379.31	929.19
379.50	968.98
379.70	912.81
379.89	1036.86
380.09	940.90
380.28	971.32
380.48	1011.11
380.68	894.08
380.87	1006.43
381.07	1064.94
381.26	1083.67
381.46	917.49
381.65	950.26
381.85	1093.03
382.04	980.68
382.24	1020.47
382.43	1046.22
382.63	1015.79
382.83	1029.84
383.02	1212.40
383.22	1055.58
383.41	1076.65
383.61	1118.78
383.80	1231.12
384.00	1090.69
384.19	1071.97
384.39	1132.82
384.58	1263.89
384.78	1128.14
384.97	1139.84
385.17	1123.46
385.36	1149.20
385.56	1163.25
385.75	1212.40
385.95	1132.82
386.14	1198.35
386.34	1235.80
386.53	1156.22
386.72	1121.12
386.92	1240.48
387.11	1249.85
387.31	1261.55
387.50	1301.34
387.70	1282.61
387.89	1291.98
388.09	1296.66
388.28	1259.21
388.48	1256.87
388.67	1324.74
388.86	1413.68
389.06	1336.45
389.25	1380.92
389.45	1362.19
389.64	1294.32
389.84	1397.30
390.03	1476.88
390.22	1371.55
390.42	1387.94
390.61	1383.26
390.81	1413.68
391.00	1306.02
391.19	1430.07
391.39	1472.20
391.58	1465.18
391.78	1392.62
391.97	1540.07
392.16	1427.73
392.36	1511.99
392.55	1446.45
392.75	1486.24
392.94	1500.28
393.13	1652.42
393.33	1549.43
393.52	1519.01
393.71	1533.05
393.91	1636.03
394.10	1678.16
394.29	1631.35
394.49	1589.22
394.68	1664.12
394.88	1629.01
395.07	1673.48
395.26	1708.59
395.46	1858.39
395.65	1760.08
395.84	1708.59
396.04	1783.49
396.23	1750.72
396.42	1633.69
396.62	1771.79
396.81	1804.55
397.00	1834.98
397.19	1774.13
397.39	1790.51
397.58	1825.62
397.77	1790.51
397.97	1912.22
398.16	1820.94
398.35	1858.39
398.55	1834.98
398.74	1886.47
398.93	1916.90
399.12	1928.60
399.32	1959.03
399.51	1940.30
399.70	2001.16
399.90	1935.62
400.09	2045.63
400.28	2078.40
400.47	2019.88
400.67	2111.16
400.86	2155.63
401.05	2141.59
401.24	2186.06
401.44	2052.65
401.63	2080.74
401.82	2141.59
402.01	2111.16
402.21	2307.77
402.40	2282.02
402.59	2200.10
402.78	2279.68
402.97	2167.34
403.17	2197.76
403.36	2183.72
403.55	2380.32
403.74	2363.94
403.93	2342.88
404.13	2368.62
404.32	2239.89
404.51	2448.20
404.70	2253.94
404.89	2380.32
405.09	2623.74
405.28	2513.74
405.47	2471.61
405.66	2527.78
405.85	2527.78
406.05	2537.14
406.24	2572.25
406.43	2523.10
406.62	2595.65
406.81	2635.44
407.00	2523.10
407.20	2527.78
407.39	2698.64
407.58	2693.96
407.77	2658.85
407.96	2796.94
408.15	2862.48
408.34	2722.04
408.54	2738.43
408.73	2789.92
408.92	2904.60
409.11	2885.88
409.30	2935.03
409.49	2876.52
409.68	2899.92
409.87	2995.89
410.07	3035.67
410.26	2967.80
410.45	3061.42
410.64	3080.14
410.83	3148.02
411.02	3180.79
411.21	3162.06
411.40	3171.43
411.59	3169.09
411.78	3028.65
411.98	3211.22
412.17	3251.00
412.36	3269.73
412.55	3344.63
412.74	3485.06
412.93	3405.48
413.12	3361.01
413.31	3480.38
413.50	3358.67
413.69	3538.89
413.88	3574.00
414.07	3599.74
414.26	3616.13
414.45	3758.90
414.64	3735.50
414.83	3761.24
415.02	3747.20
415.22	3854.86
415.41	3913.38
415.60	3847.84
415.79	4025.72
415.98	3878.27
416.17	4156.79
416.36	4077.21
416.55	4030.40
416.74	4215.30
416.93	4095.94
417.12	4124.02
417.31	4210.62
417.50	4011.68
417.69	4280.84
417.88	4332.33
418.07	4133.39
418.26	4423.61
418.45	4489.15
418.64	4461.06
418.83	4440.00
419.02	4442.34
419.21	4648.30
419.39	4503.19
419.58	4404.89
419.77	4432.97
419.96	4566.39
420.15	4739.58
420.34	4678.73
420.53	4685.75
420.72	4741.93
420.91	4671.71
421.10	4863.63
421.29	4685.75
421.48	4793.42
421.67	4734.90
421.86	4650.64
422.05	4835.55
422.24	4774.69
422.43	5008.75
422.61	5050.88
422.80	5081.30
422.99	4901.08
423.18	4931.51
423.37	5043.85
423.56	4877.68
423.75	5029.81
423.94	4856.61
424.13	4664.69
424.32	4823.84
424.50	5053.22
424.69	5074.28
424.88	5008.75
425.07	4990.02
425.26	5008.75
425.45	4961.94
425.64	5100.03
425.83	5053.22
426.01	4966.62
426.20	4875.34
426.39	5111.73
426.58	5181.95
426.77	5156.20
426.96	5170.24
427.15	5343.44
427.33	5366.85
427.52	5137.48
427.71	5303.65
427.90	5217.05
428.09	5343.44
428.28	5425.36
428.46	5404.30
428.65	5535.37
428.84	5607.92
429.03	5675.80
429.22	5390.25
429.40	5502.60
429.59	5582.18
429.78	5338.76
429.97	5298.97
430.16	5507.28
430.34	5509.62
430.53	5762.40
430.72	5650.05
430.91	5633.67
431.10	5528.35
431.28	6069.01
431.47	5806.87
431.66	5916.87
431.85	5809.21
432.03	5940.28
432.22	6078.37
432.41	5846.66
432.60	5860.70
432.79	6113.48
432.97	5977.73
433.16	6136.88
433.35	5980.07
433.54	6071.35
433.72	6092.41
433.91	6148.59
434.10	6258.59
434.28	6239.87
434.47	6183.70
434.66	6237.53
434.85	6286.68
435.03	6354.55
435.22	6214.12
435.41	6476.26
435.59	6422.43
435.78	6476.26
435.97	6417.75
436.16	6452.86
436.34	6544.14
436.53	6651.80
436.72	6485.62
436.90	6441.15
437.09	6722.02
437.28	6401.37
437.46	6677.55
437.65	6651.80
437.84	6951.39
438.02	6799.26
438.21	6815.64
438.40	6778.19
438.58	7138.63
438.77	7140.97
438.96	7091.82
439.14	6911.60
439.33	7204.17
439.52	7236.94
439.70	7056.72
439.89	7145.66
440.08	7316.51
440.26	7639.51
440.45	7337.58
440.63	7442.90
440.82	7573.97
441.01	7482.69
441.19	7576.31
441.38	7730.79
441.57	7740.15
441.75	7843.14
441.94	7962.50
442.12	7864.20
442.31	8140.38
442.50	8009.31
442.68	7971.86
442.87	8077.19
443.05	8184.85
443.24	8124.00
443.43	8088.89
443.61	8369.76
443.80	8741.90
443.98	7978.89
444.17	7913.35
444.35	8255.07
444.54	8308.90
444.73	8435.29
444.91	8355.71
445.10	8505.51
445.28	8477.42
445.47	8290.18
445.65	8259.75
445.84	8613.17
446.02	8468.06
446.21	8491.46
446.39	8332.31
446.58	8580.40
446.77	8603.81
446.95	8477.42
447.14	8404.86
447.32	8643.60
447.51	8451.67
447.69	8472.74
447.88	8463.38
448.06	8585.08
448.25	8358.05
448.43	8552.32
448.62	8575.72
448.80	8613.17
448.99	8788.71
449.17	8641.26
449.36	8741.90
449.54	8889.35
449.73	9156.18
449.91	9202.99
450.10	8868.29
450.28	9224.05
450.46	9146.81
450.65	9095.32
450.83	8882.33
451.02	9158.52
451.20	9305.97
451.39	9188.94
451.57	9247.46
451.76	9123.41
451.94	9242.78
452.13	9298.95
452.31	9263.84
452.49	9294.27
452.68	9439.38
452.86	9273.20
453.05	9525.98
453.23	9715.56
453.42	9537.68
453.60	9432.36
453.78	9682.80
453.97	9488.53
454.15	9521.30
454.34	9537.68
454.52	9755.35
454.70	9678.12
454.89	9832.59
455.07	9825.57
455.26	9919.19
455.44	9928.55
455.62	10078.35
455.81	10143.88
455.99	10157.92
456.17	10209.42
456.36	10190.69
456.54	10272.61
456.73	10197.71
456.91	10541.77
457.09	10415.38
457.28	10703.27
457.46	10373.25
457.64	10509.01
457.83	10684.55
458.01	10525.39
458.19	10719.65
458.38	10729.02
458.56	10754.76
458.74	10548.79
458.93	10747.74
459.11	10822.64
459.29	10920.94
459.48	10747.74
459.66	10778.17
459.84	10864.77
460.03	10995.84
460.21	10899.87
460.39	11056.69
460.57	11016.90
460.76	11143.29
460.94	11267.34
461.12	11066.05
461.31	11269.68
461.49	11194.78
461.67	11225.21
461.85	11578.63
462.04	11316.49
462.22	11749.49
462.40	11716.72
462.59	11555.22
462.77	11749.49
462.95	11796.30
463.13	11695.66
463.32	11716.72
463.50	11513.10
463.68	11927.37
463.86	11974.18
464.05	11646.51
464.23	11922.69
464.41	11927.37
464.59	11700.34
464.78	12196.53
464.96	11964.82
465.14	11978.86
465.32	11997.59
465.50	12273.77
465.69	12320.58
465.87	12058.44
466.05	12077.16
466.23	12250.36
466.41	12353.35
466.60	12723.15
466.78	12437.61
466.96	12362.71
467.14	12332.28
467.32	12472.71
467.51	12500.80
467.69	12257.39
467.87	12493.78
468.05	12671.66
468.23	12439.95
468.41	12304.20
468.60	12470.37
468.78	12889.33
468.96	12910.40
469.14	12842.52
469.32	12975.93
469.50	12685.70
469.69	13116.36
469.87	13020.40
470.05	12901.03
470.23	13050.83
470.41	13043.81
470.59	13586.81
470.77	13123.38
470.95	13434.68
471.14	13867.67
471.32	13322.33
471.50	13851.29
471.68	13774.05
471.86	13516.59
472.04	13736.60
472.22	14197.69
472.40	13834.91
472.58	13998.74
472.77	13963.64
472.95	13914.48
473.13	14640.05
473.31	14015.13
473.49	14398.98
473.67	14108.75
473.85	14253.86
474.03	14925.60
474.21	14609.62
474.39	15164.33
474.57	14909.21
474.75	14897.51
474.93	15103.48
475.12	14909.21
475.30	15314.13
475.48	15477.96
475.66	15517.75
475.84	15288.38
476.02	15541.16
476.20	15679.25
476.38	15477.96
476.56	16018.63
476.74	15917.98
476.92	15627.76
477.10	15700.31
477.28	16198.85
477.46	16245.66
477.64	16713.77
477.82	16767.60
478.00	17006.33
478.18	16931.44
478.36	17036.76
478.54	17144.42
478.72	17479.12
478.90	17247.41
479.08	17465.08
479.26	17980.00
479.44	17596.15
479.62	17984.68
479.80	18111.07
479.98	18228.09
480.16	18724.29
480.34	18494.91
480.52	18696.20
480.70	18609.60
480.88	18518.32
481.06	18913.87
481.24	18932.59
481.41	19192.39
481.59	19023.87
481.77	19527.09
481.95	19679.22
482.13	19548.15
482.31	19819.66
482.49	20255.00
482.67	20226.91
482.85	20409.47
483.03	20746.51
483.21	20723.10
483.39	20922.05
483.57	21046.10
483.74	21336.32
483.92	21703.79
484.10	21289.51
484.28	22033.80
484.46	22026.78
484.64	22438.72
484.82	22136.79
485.00	22665.75
485.18	22869.37
485.35	22958.31
485.53	22967.68
485.71	22890.44
485.89	23388.97
486.07	23555.15
486.25	23597.28
486.43	23871.12
486.61	24142.63
486.78	23985.81
486.96	24236.25
487.14	24837.76
487.32	24484.34
487.50	24952.45
487.68	25010.96
487.85	25563.33
488.03	25392.47
488.21	26022.08
488.39	25694.40
488.57	26185.91
488.75	26281.88
488.92	26536.99
489.10	26682.11
489.28	26796.79
489.46	27112.77
489.64	27075.32
489.81	27955.36
489.99	27700.24
490.17	27974.08
490.35	28442.19
490.53	28032.60
490.70	28528.79
490.88	28486.66
491.06	28980.51
491.24	28496.02
491.41	29418.19
491.59	29202.86
491.77	29383.09
491.95	29872.26
492.13	29563.31
492.30	30260.79
492.48	30232.70
492.66	30246.74
492.84	30536.97
493.01	30661.02
493.19	30796.77
493.37	31367.86
493.54	31711.92
493.72	31819.58
493.90	31466.16
494.08	31871.07
494.25	32048.96
494.43	31974.06
494.61	32306.41
494.79	32297.05
494.96	32762.82
495.14	33069.43
495.32	33249.65
495.49	33385.40
495.67	33170.07
495.85	34237.36
496.02	34052.45
496.20	34022.03
496.38	33993.94
496.55	34576.73
496.73	35309.32
496.91	34902.07
497.09	35220.38
497.26	35239.11
497.44	35051.86
497.62	35601.89
497.79	36172.98
497.97	35819.56
498.14	35810.20
498.32	36360.22
498.50	36280.64
498.67	36708.96
498.85	36554.49
499.03	36701.94
499.20	36472.57
499.38	37319.84
499.56	37205.16
499.73	37640.50
499.91	37464.96
500.08	37586.66
500.26	37635.81
500.44	38005.62
500.61	38146.05
500.79	38057.11
500.97	38733.53
501.14	38682.03
501.32	38625.86
501.49	38752.25
501.67	38857.57
501.84	39229.72
502.02	38785.02
502.20	39304.62
502.37	39489.52
502.55	39379.51
502.72	39651.02
502.90	39449.73
503.07	39564.42
503.25	39716.55
503.43	39592.50
503.60	40343.81
503.78	40893.84
503.95	40264.24
504.13	40669.15
504.30	40774.47
504.48	40821.28
504.65	40985.12
504.83	41022.57
505.01	41095.13
505.18	41247.26
505.36	41869.84
505.53	41647.49
505.71	42080.49
505.88	41617.07
506.06	41722.39
506.23	42361.36
506.41	41923.68
506.58	42295.82
506.76	42314.55
506.93	42670.31
507.11	42232.63
507.28	42934.79
507.46	42834.14
507.63	43225.01
507.81	43234.38
507.98	43122.03
508.16	43152.46
508.33	43271.82
508.50	43985.69
508.68	43934.20
508.85	44219.74
509.03	43871.00
509.20	44149.53
509.38	44545.08
509.55	44268.89
509.73	44931.26
509.90	44910.20
510.08	44535.71
510.25	45177.02
510.42	45085.74
510.60	45303.41
510.77	45680.24
510.95	45848.75
511.12	45195.74
511.30	45261.28
511.47	45462.57
511.64	45427.46
511.82	46263.03
511.99	45986.85
512.17	45886.20
512.34	46167.07
512.51	46361.33
512.69	46775.61
512.86	46480.70
513.04	46894.97
513.21	46756.88
513.38	46923.06
513.56	47269.46
513.73	46742.84
513.90	47391.17
514.08	47477.77
514.25	47337.33
514.43	47555.00
514.60	47524.58
514.77	47552.66
514.95	47800.76
515.12	47985.66
515.29	47496.49
515.47	48093.33
515.64	48418.66
515.81	48149.50
515.99	48329.72
516.16	48247.80
516.33	48676.12
516.51	48903.15
516.68	48472.49
516.85	48491.22
517.03	49223.81
517.20	49095.08
517.37	48729.95
517.54	49048.27
517.72	49296.36
517.89	49703.62
518.06	49600.63
518.24	49298.70
518.41	49614.68
518.58	49425.09
518.75	49282.32
518.93	50195.13
519.10	49659.15
519.27	50192.79
519.45	49521.05
519.62	50024.27
519.79	50204.49
519.96	50241.94
520.14	50468.97
520.31	50314.50
520.48	50597.70
520.65	50274.71
520.83	50761.54
521.00	50787.28
521.17	50602.38
521.34	50981.55
521.52	51105.60
521.69	50983.89
521.86	51409.87
522.03	51257.73
522.20	51426.25
522.38	51285.82
522.55	51554.98
522.72	51381.78
522.89	51475.40
523.07	51667.33
523.24	51580.73
523.41	51873.29
523.58	51608.81
523.75	51934.15
523.92	52032.45
524.10	51931.81
524.27	51922.44
524.44	52147.14
524.61	52374.17
524.78	52334.38
524.96	52444.38
525.13	52594.18
525.30	52385.87
525.47	52706.52
525.64	52818.87
525.81	52743.97
525.98	52825.89
526.16	52753.33
526.33	52994.41
526.50	53504.65
526.67	53057.60
526.84	53081.01
527.01	53066.97
527.18	52931.22
527.36	53146.54
527.53	53127.82
527.70	54035.95
527.87	53769.13
528.04	53490.60
528.21	53474.22
528.38	53595.93
528.55	53698.91
528.72	53418.05
528.89	53511.67
529.07	53675.51
529.24	53558.48
529.41	54178.72
529.58	54007.86
529.75	53771.47
529.92	54185.74
530.09	54045.31
530.26	54038.29
530.43	54131.91
530.60	53792.53
530.77	53846.36
530.94	54199.79
531.11	54314.47
531.28	54705.34
531.46	54167.02
531.63	54518.10
531.80	54525.12
531.97	54674.91
532.14	54499.37
532.31	54461.93
532.48	54625.76
532.65	54855.14
532.82	54532.14
532.99	54759.17
533.16	54574.27
533.33	54908.97
533.50	55372.39
533.67	54747.47
533.84	54810.67
534.01	54850.45
534.18	55114.94
534.35	55327.92
534.52	55077.49
534.69	55056.42
534.86	55288.13
535.03	55238.98
535.20	55243.66
535.37	55414.52
535.54	55639.22
535.71	55356.01
535.88	55660.28
536.05	55583.04
536.22	55714.11
536.38	55859.23
536.55	55697.73
536.72	55791.35
536.89	55711.77
537.06	55789.01
537.23	55744.54
537.40	55683.69
537.57	56137.75
537.74	55711.77
537.91	56238.39
538.08	55931.78
538.25	55812.41
538.42	56107.32
538.59	56156.47
538.75	56034.77
538.92	56165.84
539.09	56334.35
539.26	56196.26
539.43	56257.12
539.60	56376.48
539.77	56332.01
539.94	56488.83
540.11	56357.76
540.28	56640.96
540.44	56416.27
540.61	56460.74
540.78	56523.94
540.95	56254.78
541.12	56420.95
541.29	56739.27
541.46	56753.31
541.62	56851.61
541.79	56896.08
541.96	56545.00
542.13	56765.01
542.30	56802.46
542.47	57111.41
542.63	56961.62
542.80	57132.48
542.97	56952.26
543.14	57162.90
543.31	57343.12
543.48	57387.60
543.64	57579.52
543.81	57532.71
543.98	57457.81
544.15	57549.09
544.32	57595.90
544.48	57813.57
544.65	57418.02
544.82	57495.26
544.99	57373.55
545.16	57680.16
545.32	57663.78
545.49	57661.44
545.66	58005.50
545.83	57654.42
546.00	57712.93
546.16	57762.08
546.33	57911.88
546.50	57628.67
546.67	57932.94
546.83	57769.10
547.00	57900.17
547.17	57958.69
547.34	57970.39
547.50	58174.02
547.67	58148.27
547.84	58241.89
548.00	58408.07
548.17	58277.00
548.34	58066.35
548.51	58344.87
548.67	58298.06
548.84	58281.68
549.01	58220.83
549.18	58281.68
549.34	58307.43
549.51	58569.57
549.68	58429.13
549.84	58447.86
550.01	58637.44
550.18	58410.41
550.34	58445.52
550.51	58560.20
550.68	58534.46
550.84	58536.80
551.01	58791.92
551.18	58642.12
551.34	58445.52
551.51	58717.02
551.68	58581.27
551.84	58665.53
552.01	58520.41
552.18	58869.15
552.34	58719.36
552.51	58941.71
552.68	58618.72
552.84	58965.12
553.01	58803.62
553.18	58894.90
553.34	59428.54
553.51	58951.07
553.67	58993.20
553.84	59208.53
554.01	58979.16
554.17	59152.36
554.34	59056.40
554.51	59178.10
554.67	59269.39
554.84	59065.76
555.00	58990.86
555.17	59140.66
555.33	59131.29
555.50	59241.30
555.67	59018.95
555.83	59025.97
556.00	59187.47
556.16	59613.44
556.33	59475.35
556.50	59341.94
556.66	59465.99
556.83	59377.05
556.99	59416.84
557.16	59512.80
557.32	59510.46
557.49	59875.58
557.65	59461.31
557.82	59449.61
557.98	59409.82
558.15	59608.76
558.32	59707.07
558.48	59458.97
558.65	59688.34
558.81	59559.61
558.98	59709.41
559.14	59686.00
559.31	59751.54
559.47	59840.48
559.64	59887.29
559.80	59966.87
559.97	59676.64
560.13	59810.05
560.30	59917.71
560.46	60037.08
560.63	59763.24
560.79	60006.65
560.96	60027.72
561.12	60027.72
561.29	59891.97
561.45	59952.82
561.61	59941.12
561.78	59868.56
561.94	60037.08
562.11	59901.33
562.27	59835.80
562.44	59887.29
562.60	60158.79
562.77	60128.36
562.93	59917.71
563.10	60259.43
563.26	59980.91
563.42	60376.46
563.59	60130.70
563.75	59959.84
563.92	60123.68
564.08	60172.83
564.24	60280.50
564.41	60306.24
564.57	60287.52
564.74	60226.66
564.90	60233.69
565.07	60069.85
565.23	60205.60
565.39	60177.51
565.56	60259.43
565.72	60229.01
565.88	60004.31
566.05	60219.64
566.21	60088.57
566.38	60353.05
566.54	60346.03
566.70	60432.63
566.87	60331.99
567.03	60383.48
567.19	60439.65
567.36	60324.97
567.52	60266.45
567.68	60559.02
567.85	60474.76
568.01	60587.11
568.17	60465.40
568.34	60530.93
568.50	60390.50
568.66	60423.27
568.83	60556.68
568.99	60360.08
569.15	60603.49
569.32	60683.07
569.48	60336.67
569.64	60652.64
569.81	60603.49
569.97	60573.06
570.13	60523.91
570.30	60446.68
570.46	60570.72
570.62	60526.25
570.78	60458.38
570.95	60523.91
571.11	60762.65
571.27	60449.02
571.43	60650.30
571.60	60769.67
571.76	60619.88
571.92	60757.97
572.09	60598.81
572.25	60853.93
572.41	60514.55
572.57	60526.25
572.74	60884.36
572.90	60762.65
573.06	60725.20
573.22	60720.52
573.38	60814.14
573.55	60718.18
573.71	60921.80
573.87	60814.14
574.03	60659.66
574.20	60804.78
574.36	60774.35
574.52	60999.04
574.68	60711.16
574.84	60994.36
575.01	60835.20
575.17	60821.16
575.33	60807.12
575.49	60788.39
575.65	60554.34
575.82	60903.08
575.98	60807.12
576.14	60889.04
576.30	60839.89
576.46	60795.42
576.62	60708.82
576.79	60839.89
576.95	60767.33
577.11	60903.08
577.27	60973.30
577.43	61080.96
577.59	60753.29
577.75	61048.19
577.92	60886.70
578.08	60844.57
578.24	60851.59
578.40	61059.90
578.56	61036.49
578.72	60900.74
578.88	60992.02
579.04	61216.71
579.21	60935.85
579.37	60996.70
579.53	61087.98
579.69	60713.50
579.85	60736.90
580.01	60804.78
580.17	60837.54
580.33	61120.75
580.49	61172.24
580.65	61209.69
580.82	60942.87
580.98	61017.77
581.14	61024.79
581.30	60996.70
581.46	61125.43
581.62	60996.70
581.78	60896.06
581.94	61137.13
582.10	60959.25
582.26	60891.38
582.42	60828.18
582.58	61240.12
582.74	60940.53
582.90	61010.74
583.06	60863.29
583.22	60748.60
583.38	61015.43
583.54	61052.87
583.70	61003.72
583.86	61230.75
584.02	60772.01
584.18	61324.38
584.34	61029.47
584.50	61073.94
584.66	61102.03
584.82	60987.34
584.98	61202.67
585.14	61167.56
585.30	61263.52
585.46	61029.47
585.62	61125.43
585.78	61137.13
585.94	61048.19
586.10	61024.79
586.26	61020.11
586.42	61181.60
586.58	61193.31
586.74	61169.90
586.90	61104.37
587.06	61130.11
587.22	61193.31
587.38	61132.45
587.54	61237.78
587.70	61284.59
587.86	61174.58
588.02	61024.79
588.18	61298.63
588.34	61174.58
588.49	61050.53
