SpectraSuite Data File
++++++++++++++++++++++++++++++++++++
Date: Fri Oct 25 10:43:29 EDT 2013
User: price-jones
Dark Spectrum Present: No
Reference Spectrum Present: No
Number of Sampled Component Spectra: 1
Spectrometers: USB2+H05261
Integration Time (usec): 100000 (USB2+H05261)
Spectra Averaged: 1 (USB2+H05261)
Boxcar Smoothing: 0 (USB2+H05261)
Correct for Electrical Dark: No (USB2+H05261)
Strobe/Lamp Enabled: No (USB2+H05261)
Correct for Detector Non-linearity: No (USB2+H05261)
Correct for Stray Light: No (USB2+H05261)
Number of Pixels in Processed Spectrum: 2048
>>>>>Begin Processed Spectral Data<<<<<
365.73	131.07
365.92	131.07
366.12	131.07
366.32	51.49
366.52	0.00
366.72	63.19
366.91	14.04
367.11	30.43
367.31	23.41
367.51	25.75
367.70	18.72
367.90	0.00
368.10	18.72
368.30	35.11
368.49	2.34
368.69	63.19
368.89	32.77
369.09	30.43
369.28	49.15
369.48	70.22
369.68	44.47
369.87	112.35
370.07	74.90
370.27	126.39
370.47	135.75
370.66	334.70
370.86	430.66
371.06	416.62
371.25	463.43
371.45	393.21
371.65	442.36
371.84	442.36
372.04	463.43
372.24	449.38
372.44	449.38
372.63	444.70
372.83	447.04
373.03	388.53
373.22	559.39
373.42	489.17
373.62	533.64
373.81	559.39
374.01	585.13
374.21	519.60
374.40	547.69
374.60	496.19
374.79	533.64
374.99	505.56
375.19	573.43
375.38	561.73
375.58	582.79
375.78	568.75
375.97	538.32
376.17	610.88
376.37	566.41
376.56	688.12
376.76	538.32
376.95	582.79
377.15	624.92
377.35	580.45
377.54	662.37
377.74	568.75
377.93	662.37
378.13	624.92
378.33	603.86
378.52	622.58
378.72	613.22
378.91	643.65
379.11	629.60
379.31	643.65
379.50	631.94
379.70	645.99
379.89	627.26
380.09	603.86
380.28	627.26
380.48	755.99
380.68	695.14
380.87	643.65
381.07	678.76
381.26	706.84
381.46	678.76
381.65	676.41
381.85	638.97
382.04	739.61
382.24	718.54
382.43	610.88
382.63	624.92
382.83	678.76
383.02	777.06
383.22	702.16
383.41	681.10
383.61	744.29
383.80	746.63
384.00	709.18
384.19	758.33
384.39	830.89
384.58	807.48
384.78	748.97
384.97	777.06
385.17	798.12
385.36	861.32
385.56	809.83
385.75	795.78
385.95	840.25
386.14	798.12
386.34	781.74
386.53	903.45
386.72	784.08
386.92	873.02
387.11	847.27
387.31	795.78
387.50	875.36
387.70	880.04
387.89	828.55
388.09	894.08
388.28	880.04
388.48	915.15
388.67	931.53
388.86	985.37
389.06	966.64
389.25	875.36
389.45	950.26
389.64	992.39
389.84	1013.45
390.03	1025.15
390.22	1048.56
390.42	945.58
390.61	997.07
390.81	994.73
391.00	1046.22
391.19	990.05
391.39	1013.45
391.58	1074.31
391.78	1050.90
391.97	1043.88
392.16	971.32
392.36	1067.28
392.55	1062.60
392.75	917.49
392.94	915.15
393.13	1057.92
393.33	912.81
393.52	1043.88
393.71	1104.73
393.91	1076.65
394.10	1142.18
394.29	1074.31
394.49	1067.28
394.68	1153.88
394.88	1228.78
395.07	1245.16
395.26	1200.69
395.46	1184.31
395.65	1181.97
395.84	1177.29
396.04	1238.14
396.23	1270.91
396.42	1135.16
396.62	1259.21
396.81	1132.82
397.00	1273.25
397.19	1172.61
397.39	1280.27
397.58	1364.53
397.77	1343.47
397.97	1476.88
398.16	1350.49
398.35	1453.47
398.55	1439.43
398.74	1453.47
398.93	1465.18
399.12	1469.86
399.32	1392.62
399.51	1547.09
399.70	1528.37
399.90	1483.90
400.09	1540.07
400.28	1439.43
400.47	1565.82
400.67	1624.33
400.86	1511.99
401.05	1603.27
401.24	1624.33
401.44	1734.34
401.63	1675.82
401.82	1713.27
402.01	1577.52
402.21	1739.02
402.40	1774.13
402.59	1746.04
402.78	1734.34
402.97	1743.70
403.17	1825.62
403.36	1715.61
403.55	1834.98
403.74	1926.26
403.93	1727.32
404.13	1834.98
404.32	1940.30
404.51	1949.67
404.70	1937.96
404.89	1884.13
405.09	1977.75
405.28	1937.96
405.47	1926.26
405.66	1973.07
405.85	1874.77
406.05	1987.11
406.24	1961.37
406.43	1886.47
406.62	2005.84
406.81	2148.61
407.00	2080.74
407.20	2085.42
407.39	2139.25
407.58	2120.53
407.77	2207.13
407.96	2167.34
408.15	2267.98
408.34	2176.70
408.54	2291.38
408.73	2289.04
408.92	2174.36
409.11	2331.17
409.30	2331.17
409.49	2305.43
409.68	2279.68
409.87	2256.28
410.07	2352.24
410.26	2345.22
410.45	2347.56
410.64	2427.14
410.83	2487.99
411.02	2518.42
411.21	2600.34
411.40	2438.84
411.59	2628.42
411.78	2654.17
411.98	2574.59
412.17	2502.03
412.36	2583.95
412.55	2612.04
412.74	2789.92
412.93	2712.68
413.12	2778.22
413.31	2820.35
413.50	2881.20
413.69	2747.79
413.88	2736.09
414.07	2911.63
414.26	3023.97
414.45	3014.61
414.64	3052.06
414.83	2984.18
415.02	3077.80
415.22	3019.29
415.41	3103.55
415.60	3080.14
415.79	3075.46
415.98	3204.19
416.17	3236.96
416.36	3218.24
416.55	3063.76
416.74	3133.98
416.93	3248.66
417.12	3311.86
417.31	3365.69
417.50	3403.14
417.69	3417.18
417.88	3410.16
418.07	3358.67
418.26	3412.50
418.45	3499.10
418.64	3538.89
418.83	3492.08
419.02	3480.38
419.21	3499.10
419.39	3569.32
419.58	3478.04
419.77	3550.59
419.96	3520.17
420.15	3604.42
420.34	3566.98
420.53	3763.58
420.72	3880.61
420.91	3796.35
421.10	3784.65
421.29	3836.14
421.48	3803.37
421.67	3864.22
421.86	3648.90
422.05	3747.20
422.24	3854.86
422.43	3815.07
422.61	3623.15
422.80	3889.97
422.99	3758.90
423.18	3936.78
423.37	3983.59
423.56	3831.46
423.75	3911.04
423.94	3978.91
424.13	3744.86
424.32	3669.96
424.50	3925.08
424.69	3920.40
424.88	4135.73
425.07	3953.16
425.26	3819.75
425.45	3927.42
425.64	3803.37
425.83	3967.21
426.01	3915.72
426.20	3974.23
426.39	3852.52
426.58	3843.16
426.77	3744.86
426.96	3920.40
427.15	3880.61
427.33	4002.32
427.52	3985.93
427.71	4077.21
427.90	4065.51
428.09	4159.13
428.28	4126.36
428.46	4194.24
428.65	4219.99
428.84	4255.09
429.03	4306.59
429.22	4051.47
429.40	4161.47
429.59	4191.90
429.78	3833.80
429.97	3906.35
430.16	3976.57
430.34	4152.11
430.53	4224.67
430.72	4184.88
430.91	4264.46
431.10	4386.16
431.28	4360.42
431.47	4442.34
431.66	4596.81
431.85	4496.17
432.03	4540.64
432.22	4580.43
432.41	4568.73
432.60	4606.17
432.79	4615.54
432.97	4791.08
433.16	4557.02
433.35	4519.57
433.54	4510.21
433.72	4681.07
433.91	4587.45
434.10	4723.20
434.28	4683.41
434.47	4823.84
434.66	4849.59
434.85	4854.27
435.03	4901.08
435.22	4870.65
435.41	5076.62
435.59	4983.00
435.78	4947.89
435.97	5156.20
436.16	5060.24
436.34	5118.75
436.53	4968.96
436.72	5259.18
436.90	5078.96
437.09	5109.39
437.28	5018.11
437.46	5130.45
437.65	4978.32
437.84	5118.75
438.02	5263.86
438.21	5280.25
438.40	5114.07
438.58	5322.38
438.77	5301.31
438.96	5469.83
439.14	5355.15
439.33	5444.09
439.52	5678.14
439.70	5540.05
439.89	5479.19
440.08	5612.60
440.26	5636.01
440.45	5540.05
440.63	5783.46
440.82	5823.25
441.01	5816.23
441.19	5966.03
441.38	6066.67
441.57	5980.07
441.75	6160.29
441.94	6195.40
442.12	6209.44
442.31	6228.17
442.50	6340.51
442.68	6230.51
442.87	6153.27
443.05	6211.78
443.24	6368.60
443.43	6516.05
443.61	6469.24
443.80	6576.91
443.98	6445.84
444.17	6148.59
444.35	6401.37
444.54	6551.16
444.73	6595.63
444.91	6354.55
445.10	6375.62
445.28	6506.69
445.47	6279.66
445.65	6485.62
445.84	6562.86
446.02	6415.41
446.21	6544.14
446.39	6438.81
446.58	6595.63
446.77	6703.29
446.95	6633.08
447.14	6576.91
447.32	6675.21
447.51	6597.97
447.69	6576.91
447.88	6548.82
448.06	6558.18
448.25	6619.04
448.43	6553.50
448.62	6841.39
448.80	6593.29
448.99	6843.73
449.17	6743.08
449.36	6750.10
449.54	6904.58
449.73	6970.12
449.91	7009.90
450.10	6949.05
450.28	7178.42
450.46	7337.58
450.65	7026.29
450.83	7232.26
451.02	7000.54
451.20	7300.13
451.39	7162.04
451.57	7138.63
451.76	7178.42
451.94	7155.02
452.13	7185.44
452.31	6974.80
452.49	6946.71
452.68	7014.59
452.86	7339.92
453.05	7204.17
453.23	7358.64
453.42	7169.06
453.60	7398.43
453.78	7297.79
453.97	7222.89
454.15	7248.64
454.34	7449.93
454.52	7550.57
454.70	7318.86
454.89	7499.08
455.07	7520.14
455.26	7566.95
455.44	7918.03
455.62	7700.36
455.81	7798.66
455.99	7683.98
456.17	7707.38
456.36	8009.31
456.54	7845.48
456.73	7833.77
456.91	7985.91
457.09	8081.87
457.28	8159.11
457.46	7878.24
457.64	8231.66
457.83	7967.18
458.01	7929.74
458.19	8336.99
458.38	7939.10
458.56	8283.16
458.74	8248.05
458.93	8112.30
459.11	8262.09
459.29	8187.19
459.48	8248.05
459.66	8411.89
459.84	8259.75
460.03	8538.27
460.21	8425.93
460.39	8271.45
460.57	8402.52
460.76	8636.58
460.94	8423.59
461.12	8542.96
461.31	8491.46
461.49	8526.57
461.67	8535.93
461.85	8809.78
462.04	8730.20
462.22	9427.68
462.40	8769.99
462.59	8943.19
462.77	8793.39
462.95	8870.63
463.13	8858.93
463.32	8774.67
463.50	8912.76
463.68	8964.25
463.86	8786.37
464.05	8938.51
464.23	8842.54
464.41	8835.52
464.59	8961.91
464.78	8865.95
464.96	9027.45
465.14	8858.93
465.32	9205.33
465.50	9118.73
465.69	9151.49
465.87	9334.06
466.05	9179.58
466.23	9034.47
466.41	9231.07
466.60	9287.25
466.78	9020.42
466.96	8938.51
467.14	9202.99
467.32	9212.35
467.51	9415.98
467.69	9137.45
467.87	9228.73
468.05	9282.56
468.23	9107.02
468.41	9247.46
468.60	9540.02
468.78	9455.76
468.96	9462.79
469.14	9647.69
469.32	9652.37
469.50	9280.22
469.69	9554.07
469.87	9673.43
470.05	9806.84
470.23	9741.31
470.41	9643.01
470.59	9813.87
470.77	9750.67
470.95	9877.06
471.14	9958.98
471.32	9844.29
471.50	10171.97
471.68	10237.50
471.86	10127.50
472.04	10263.25
472.22	10406.02
472.40	10160.27
472.58	10406.02
472.77	10354.53
472.95	10611.99
473.13	10899.87
473.31	10368.57
473.49	10387.30
473.67	10485.60
473.85	10644.76
474.03	10525.39
474.21	10956.05
474.39	11124.57
474.57	10846.04
474.75	10979.45
474.93	11054.35
475.12	11096.48
475.30	11229.89
475.48	11112.86
475.66	11133.93
475.84	11166.70
476.02	11248.61
476.20	11262.66
476.38	11473.31
476.56	11885.24
476.74	11763.53
476.92	11700.34
477.10	11693.32
477.28	12142.70
477.46	11873.54
477.64	11953.12
477.82	12166.10
478.00	12620.17
478.18	12458.67
478.36	12435.27
478.54	12678.68
478.72	12718.47
478.90	12802.73
479.08	13114.02
479.26	13125.72
479.44	13121.04
479.62	13053.17
479.80	13238.07
479.98	13399.57
480.16	13490.85
480.34	13570.43
480.52	13554.04
480.70	13451.06
480.88	13645.32
481.06	13699.16
481.24	13844.27
481.41	13968.32
481.59	14157.90
481.77	14228.12
481.95	14167.26
482.13	14434.08
482.31	14539.41
482.49	14714.95
482.67	14792.19
482.85	14888.15
483.03	14895.17
483.21	15470.94
483.39	15225.18
483.57	14911.55
483.74	15522.43
483.92	15438.17
484.10	15414.77
484.28	15824.36
484.46	15840.75
484.64	16374.39
484.82	15971.82
485.00	16217.57
485.18	16046.71
485.35	16255.02
485.53	16105.23
485.71	16121.61
485.89	16070.12
486.07	16240.98
486.25	16631.85
486.43	16690.36
486.61	16737.17
486.78	16823.77
486.96	17060.16
487.14	17458.06
487.32	17769.35
487.50	17628.92
487.68	18118.09
487.85	18171.92
488.03	18106.38
488.21	18436.40
488.39	18312.35
488.57	18960.68
488.75	18492.57
488.92	18853.02
489.10	19185.37
489.28	19339.85
489.46	19185.37
489.64	19566.88
489.81	19913.28
489.99	19768.16
490.17	20568.63
490.35	20327.55
490.53	19932.00
490.70	20240.95
490.88	20044.35
491.06	20666.93
491.24	20386.07
491.41	20510.11
491.59	20624.80
491.77	20423.51
491.95	20858.85
492.13	21277.81
492.30	21441.65
492.48	21556.33
492.66	21497.82
492.84	21769.32
493.01	21947.20
493.19	21579.74
493.37	22047.85
493.54	21930.82
493.72	22298.28
493.90	22408.29
494.08	22539.36
494.25	23105.77
494.43	22960.66
494.61	23154.92
494.79	23096.41
494.96	23484.94
495.14	23234.50
495.32	23124.49
495.49	23388.97
495.67	23536.43
495.85	23854.74
496.02	23754.10
496.20	24070.07
496.38	24093.47
496.55	24533.50
496.73	24718.40
496.91	24290.08
497.09	24783.93
497.26	25055.43
497.44	24797.98
497.62	24968.84
497.79	25200.55
497.97	25207.57
498.14	25415.88
498.32	25249.70
498.50	25287.15
498.67	25551.63
498.85	25748.23
499.03	25860.58
499.20	25710.78
499.38	26508.91
499.56	26216.34
499.73	26345.07
499.91	26078.25
500.08	26331.03
500.26	26120.38
500.44	26284.22
500.61	26857.65
500.79	26375.50
500.97	26544.02
501.14	27154.90
501.32	26719.56
501.49	26738.28
501.67	27070.64
501.84	27417.04
502.02	27257.88
502.20	27133.83
502.37	27468.53
502.55	27463.85
502.72	27658.11
502.90	27749.39
503.07	27655.77
503.25	27833.65
503.43	27718.96
503.60	28020.89
503.78	27658.11
503.95	28095.79
504.13	27950.68
504.30	28191.75
504.48	28559.22
504.65	28467.94
504.83	28559.22
505.01	28973.49
505.18	28807.31
505.36	29514.16
505.53	29167.76
505.71	29333.93
505.88	29675.65
506.06	28975.83
506.23	29331.59
506.41	29486.07
506.58	29713.10
506.76	29642.88
506.93	29713.10
507.11	29647.57
507.28	29582.03
507.46	29624.16
507.63	29504.79
507.81	30089.93
507.98	29799.70
508.16	30171.85
508.33	30333.34
508.50	30476.12
508.68	30618.89
508.85	30789.75
509.03	30773.36
509.20	30967.63
509.38	30682.08
509.55	31255.51
509.73	31133.81
509.90	30923.16
510.08	30916.14
510.25	30930.18
510.42	31367.86
510.60	31400.63
510.77	31566.81
510.95	31786.82
511.12	31466.16
511.30	31723.62
511.47	31887.46
511.64	31620.64
511.82	32144.92
511.99	31955.33
512.17	31896.82
512.34	31964.70
512.51	31983.42
512.69	32512.38
512.86	32128.53
513.04	32547.49
513.21	32673.88
513.38	32687.92
513.56	32669.20
513.73	32568.55
513.90	32514.72
514.08	32849.42
514.25	33013.26
514.43	32545.15
514.60	32552.17
514.77	32870.48
514.95	32980.49
515.12	33237.95
515.29	33476.68
515.47	33542.22
515.64	33933.09
515.81	33439.23
515.99	33380.72
516.16	33591.37
516.33	33109.22
516.51	33626.48
516.68	32868.14
516.85	33050.70
517.03	33184.12
517.20	33537.54
517.37	33961.17
517.54	34359.06
517.72	33979.90
517.89	33425.19
518.06	33549.24
518.24	33914.36
518.41	34171.82
518.58	34267.78
518.75	34157.78
518.93	34469.07
519.10	34480.77
519.27	34787.38
519.45	34747.59
519.62	35068.25
519.79	35274.21
519.96	34960.58
520.14	35316.34
520.31	34885.68
520.48	35660.40
520.65	35295.28
520.83	35370.18
521.00	35239.11
521.17	35676.79
521.34	35857.01
521.52	35599.55
521.69	35812.54
521.86	35889.77
522.03	35569.12
522.20	35901.48
522.38	36219.79
522.55	35756.36
522.72	36006.80
522.89	36348.52
523.07	36219.79
523.24	35990.42
523.41	36734.71
523.58	36683.22
523.75	36823.65
523.92	36795.56
524.10	37200.47
524.27	36961.74
524.44	36584.91
524.61	37024.93
524.78	36896.20
524.96	37326.86
525.13	36973.44
525.30	37661.56
525.47	37450.91
525.64	37013.23
525.81	37205.16
525.98	37312.82
526.16	36790.88
526.33	37062.38
526.50	37329.20
526.67	36879.82
526.84	36884.50
527.01	37275.37
527.18	37385.38
527.36	37387.72
527.53	37589.00
527.70	38059.45
527.87	38068.81
528.04	37951.79
528.21	37991.58
528.38	38457.34
528.55	38314.57
528.72	38630.54
528.89	38665.65
529.07	38808.42
529.24	38319.25
529.41	38911.41
529.58	38803.74
529.75	38494.79
529.92	38705.44
530.09	38742.89
530.26	38806.08
530.43	38995.67
530.60	38660.97
530.77	39086.95
530.94	39805.49
531.11	39009.71
531.28	39077.58
531.46	39110.35
531.63	38869.28
531.80	39061.20
531.97	39241.42
532.14	39021.41
532.31	38857.57
532.48	38579.05
532.65	39213.34
532.82	39255.46
532.99	39377.17
533.16	38972.26
533.33	39810.17
533.50	39819.53
533.67	39313.98
533.84	39290.57
534.01	39220.36
534.18	39934.22
534.35	39828.90
534.52	39892.09
534.69	39924.86
534.86	40009.12
535.03	39952.94
535.20	40130.83
535.37	40392.97
535.54	40407.01
535.71	40540.42
535.88	40559.14
536.05	39957.63
536.22	40238.49
536.38	40189.34
536.55	40271.26
536.72	40137.85
536.89	40278.28
537.06	40355.52
537.23	40304.02
537.40	40950.01
537.57	40570.85
537.74	40823.62
537.91	40821.28
538.08	40884.48
538.25	40217.43
538.42	40732.34
538.59	41153.64
538.75	40374.24
538.92	40896.18
539.09	41191.09
539.26	40837.67
539.43	40741.71
539.60	41092.79
539.77	41020.23
539.94	40964.06
540.11	41361.95
540.28	41083.42
540.44	41015.55
540.61	41104.49
540.78	40832.99
540.95	41371.31
541.12	40699.58
541.29	41242.58
541.46	41085.76
541.62	41528.13
541.79	41794.95
541.96	41053.00
542.13	41598.34
542.30	41507.06
542.47	41677.92
542.63	41542.17
542.80	41717.71
542.97	42330.93
543.14	42190.50
543.31	41748.14
543.48	41890.91
543.64	42469.02
543.81	42431.57
543.98	42438.59
544.15	42501.79
544.32	42188.16
544.48	42768.61
544.65	42454.98
544.82	42721.80
544.99	42265.39
545.16	42412.85
545.32	41989.21
545.49	42515.83
545.66	42689.03
545.83	42452.64
546.00	42686.69
546.16	42703.07
546.33	42616.47
546.50	42288.80
546.67	43049.47
546.83	41916.65
547.00	42803.72
547.17	42752.23
547.34	42588.39
547.50	42845.85
547.67	43505.88
547.84	42962.87
548.00	43243.74
548.17	43267.14
548.34	42969.90
548.51	43697.80
548.67	44210.38
548.84	43508.22
549.01	43332.68
549.18	42831.80
549.34	43803.13
549.51	43615.88
549.68	43484.81
549.84	43636.95
550.01	43650.99
550.18	43515.24
550.34	43613.54
550.51	43597.16
550.68	43185.22
550.84	43405.23
551.01	43866.32
551.18	43613.54
551.34	43445.02
551.51	43995.05
551.68	43922.49
551.84	43660.35
552.01	43597.16
552.18	43646.31
552.34	43512.90
552.51	43978.67
552.68	44137.82
552.84	44238.47
553.01	44083.99
553.18	43856.96
553.34	43805.47
553.51	44137.82
553.67	44233.78
553.84	44154.21
554.01	44210.38
554.17	44374.22
554.34	44397.62
554.51	44135.48
554.67	44304.00
554.84	44488.90
555.00	43992.71
555.17	44147.18
555.33	43917.81
555.50	44821.26
555.67	44505.29
555.83	44435.07
556.00	44509.97
556.16	44727.64
556.33	44091.01
556.50	44622.31
556.66	44669.12
556.83	44325.07
556.99	44587.21
557.16	44671.46
557.32	44746.36
557.49	44825.94
557.65	44367.20
557.82	44849.35
557.98	44891.48
558.15	44701.89
558.32	44842.32
558.48	44538.05
558.65	44821.26
558.81	44488.90
558.98	44718.28
559.14	44926.58
559.31	44533.37
559.47	44692.53
559.64	44994.46
559.80	44889.13
559.97	44830.62
560.13	44154.21
560.30	44634.02
560.46	44921.90
560.63	45141.91
560.79	45249.58
560.96	45207.45
561.12	44732.32
561.29	44669.12
561.45	44732.32
561.61	44928.92
561.78	44872.75
561.94	44966.37
562.11	45172.34
562.27	44912.54
562.44	45113.83
562.60	45277.66
562.77	45125.53
562.93	45088.08
563.10	45607.68
563.26	44720.62
563.42	45551.51
563.59	45010.84
563.75	45097.44
563.92	45837.05
564.08	45130.21
564.24	45647.47
564.41	44973.39
564.57	45242.56
564.74	45221.49
564.90	44992.12
565.07	45134.89
565.23	45469.59
565.39	45296.39
565.56	45083.40
565.72	44783.81
565.88	45237.87
566.05	45078.72
566.21	45041.27
566.38	45251.92
566.54	45450.86
566.70	45221.49
566.87	45759.81
567.03	45687.26
567.19	45848.75
567.36	45577.25
567.52	45425.12
567.68	45504.70
567.85	45186.38
568.01	45017.86
568.17	45216.81
568.34	45467.25
568.50	45500.01
568.66	45345.54
568.83	45244.90
568.99	45146.59
569.15	45467.25
569.32	45329.16
569.48	45174.68
569.64	45535.12
569.81	45364.26
569.97	45694.28
570.13	45759.81
570.30	45455.54
570.46	45603.00
570.62	44884.45
570.78	45219.15
570.95	45059.99
571.11	45340.86
571.27	44924.24
571.43	45497.67
571.60	45731.73
571.76	45528.10
571.92	45647.47
572.09	45439.16
572.25	45598.32
572.41	45504.70
572.57	45888.54
572.74	46244.30
572.90	45762.15
573.06	45797.26
573.22	45743.43
573.38	45343.20
573.55	45343.20
573.71	45514.06
573.87	45858.12
574.03	45642.79
574.20	45324.47
574.36	45413.41
574.52	45705.98
574.68	45504.70
574.84	45556.19
575.01	45720.02
575.17	45855.78
575.33	45612.36
575.49	45670.87
575.65	45413.41
575.82	45687.26
575.98	45413.41
576.14	45839.39
576.30	45661.51
576.46	45626.40
576.62	45544.48
576.79	45158.30
576.95	45823.01
577.11	45450.86
577.27	45785.56
577.43	45654.49
577.59	45354.90
577.75	45642.79
577.92	45151.27
578.08	45455.54
578.24	45488.31
578.40	45544.48
578.56	45633.42
578.72	45595.98
578.88	45642.79
579.04	45874.50
579.21	45975.14
579.37	45401.71
579.53	45610.02
579.69	45413.41
579.85	45427.46
580.01	45670.87
580.17	45811.31
580.33	45399.37
580.49	45886.20
580.65	45668.53
580.82	45958.76
580.98	45628.74
581.14	45439.16
581.30	45883.86
581.46	45296.39
581.62	45897.91
581.78	45382.99
581.94	46146.00
582.10	45783.22
582.26	45881.52
582.42	45633.42
582.58	45621.72
582.74	45553.85
582.90	45872.16
583.06	46122.60
583.22	45984.51
583.38	46019.61
583.54	46005.57
583.70	46113.23
583.86	46246.65
584.02	45844.07
584.18	45818.33
584.34	45851.09
584.50	45724.71
584.66	45546.82
584.82	45359.58
584.98	46342.61
585.14	46120.26
585.30	45797.26
585.46	45993.87
585.62	45280.00
585.78	45640.45
585.94	46028.98
586.10	46017.27
586.26	45420.44
586.42	46066.42
586.58	45925.99
586.74	46040.68
586.90	45275.32
587.06	45687.26
587.22	45937.69
587.38	45691.94
587.54	45249.58
587.70	45710.66
587.86	45825.35
588.02	45818.33
588.18	45858.12
588.34	45558.53
588.49	45333.84
588.65	45450.86
588.81	45329.16
588.97	45516.40
589.13	45635.77
589.29	45462.57
589.45	45874.50
589.61	45694.28
589.77	45771.52
589.93	45963.44
590.08	45925.99
