SpectraSuite Data File
++++++++++++++++++++++++++++++++++++
Date: Fri Oct 25 10:46:59 EDT 2013
User: price-jones
Dark Spectrum Present: No
Reference Spectrum Present: No
Number of Sampled Component Spectra: 1
Spectrometers: USB2+H05261
Integration Time (usec): 100000 (USB2+H05261)
Spectra Averaged: 1 (USB2+H05261)
Boxcar Smoothing: 0 (USB2+H05261)
Correct for Electrical Dark: No (USB2+H05261)
Strobe/Lamp Enabled: No (USB2+H05261)
Correct for Detector Non-linearity: No (USB2+H05261)
Correct for Stray Light: No (USB2+H05261)
Number of Pixels in Processed Spectrum: 2048
>>>>>Begin Processed Spectral Data<<<<<
365.73	168.52
365.92	168.52
366.12	168.52
366.32	46.81
366.52	56.17
366.72	39.79
366.91	28.09
367.11	37.45
367.31	35.11
367.51	65.54
367.70	28.09
367.90	0.00
368.10	7.02
368.30	14.04
368.49	0.00
368.69	114.69
368.89	93.62
369.09	9.36
369.28	11.70
369.48	32.77
369.68	67.88
369.87	98.30
370.07	121.71
370.27	175.54
370.47	173.20
370.66	402.57
370.86	374.49
371.06	451.72
371.25	477.47
371.45	458.74
371.65	514.92
371.84	505.56
372.04	472.79
372.24	524.28
372.44	512.58
372.63	503.22
372.83	526.62
373.03	528.96
373.22	477.47
373.42	531.30
373.62	418.96
373.81	519.60
374.01	526.62
374.21	533.64
374.40	528.96
374.60	592.16
374.79	503.22
374.99	493.85
375.19	627.26
375.38	613.22
375.58	587.47
375.78	638.97
375.97	624.92
376.17	589.82
376.37	589.82
376.56	641.31
376.76	585.13
376.95	573.43
377.15	550.03
377.35	667.05
377.54	692.80
377.74	685.78
377.93	643.65
378.13	613.22
378.33	634.29
378.52	727.91
378.72	704.50
378.91	624.92
379.11	685.78
379.31	645.99
379.50	552.37
379.70	634.29
379.89	716.20
380.09	688.12
380.28	695.14
380.48	690.46
380.68	624.92
380.87	699.82
381.07	739.61
381.26	704.50
381.46	688.12
381.65	734.93
381.85	730.25
382.04	751.31
382.24	723.23
382.43	760.67
382.63	660.03
382.83	713.86
383.02	763.01
383.22	758.33
383.41	730.25
383.61	622.58
383.80	858.98
384.00	727.91
384.19	823.87
384.39	793.44
384.58	833.23
384.78	755.99
384.97	870.68
385.17	814.51
385.36	800.46
385.56	847.27
385.75	809.83
385.95	819.19
386.14	880.04
386.34	802.80
386.53	837.91
386.72	702.16
386.92	978.34
387.11	952.60
387.31	917.49
387.50	809.83
387.70	837.91
387.89	868.34
388.09	891.74
388.28	873.02
388.48	816.85
388.67	877.70
388.86	926.85
389.06	931.53
389.25	889.40
389.45	936.21
389.64	971.32
389.84	929.19
390.03	1090.69
390.22	976.00
390.42	1025.15
390.61	959.62
390.81	994.73
391.00	1020.47
391.19	952.60
391.39	999.41
391.58	985.37
391.78	997.07
391.97	990.05
392.16	954.94
392.36	997.07
392.55	1086.01
392.75	1069.62
392.94	1008.77
393.13	983.02
393.33	961.96
393.52	1078.99
393.71	1137.50
393.91	1036.86
394.10	1081.33
394.29	1142.18
394.49	1078.99
394.68	1196.01
394.88	1153.88
395.07	1142.18
395.26	1165.59
395.46	1167.93
395.65	1317.72
395.84	1203.04
396.04	1263.89
396.23	1146.86
396.42	1111.75
396.62	1207.72
396.81	1226.44
397.00	1291.98
397.19	1221.76
397.39	1299.00
397.58	1390.28
397.77	1268.57
397.97	1317.72
398.16	1355.17
398.35	1439.43
398.55	1467.52
398.74	1355.17
398.93	1476.88
399.12	1411.34
399.32	1322.40
399.51	1448.79
399.70	1514.33
399.90	1516.67
400.09	1516.67
400.28	1544.75
400.47	1570.50
400.67	1593.90
400.86	1572.84
401.05	1563.48
401.24	1612.63
401.44	1640.72
401.63	1661.78
401.82	1500.28
402.01	1626.67
402.21	1680.50
402.40	1645.40
402.59	1673.48
402.78	1661.78
402.97	1579.86
403.17	1657.10
403.36	1724.97
403.55	1652.42
403.74	1727.32
403.93	1792.85
404.13	1804.55
404.32	1753.06
404.51	1783.49
404.70	1839.66
404.89	1799.87
405.09	1891.15
405.28	1797.53
405.47	1820.94
405.66	1863.07
405.85	1898.17
406.05	1898.17
406.24	1914.56
406.43	1933.28
406.62	1902.86
406.81	2024.56
407.00	1851.36
407.20	1935.62
407.39	1940.30
407.58	2104.14
407.77	1989.46
407.96	2111.16
408.15	2003.50
408.34	1933.28
408.54	2141.59
408.73	2235.21
408.92	2118.18
409.11	2157.97
409.30	2141.59
409.49	2153.29
409.68	2097.12
409.87	2244.57
410.07	2256.28
410.26	2221.17
410.45	2230.53
410.64	2321.81
410.83	2310.11
411.02	2349.90
411.21	2359.26
411.40	2410.75
411.59	2459.90
411.78	2399.05
411.98	2431.82
412.17	2502.03
412.36	2462.24
412.55	2527.78
412.74	2572.25
412.93	2607.36
413.12	2597.99
413.31	2700.98
413.50	2619.06
413.69	2626.08
413.88	2719.70
414.07	2771.19
414.26	2834.39
414.45	2693.96
414.64	2829.71
414.83	2930.35
415.02	2848.43
415.22	2829.71
415.41	2946.73
415.60	3002.91
415.79	2988.86
415.98	3096.53
416.17	3035.67
416.36	3066.10
416.55	3098.87
416.74	3103.55
416.93	3162.06
417.12	3115.25
417.31	3136.32
417.50	3180.79
417.69	3194.83
417.88	3241.64
418.07	3253.34
418.26	3258.03
418.45	3318.88
418.64	3494.42
418.83	3262.71
419.02	3286.11
419.21	3513.14
419.39	3382.07
419.58	3346.97
419.77	3328.24
419.96	3639.53
420.15	3466.33
420.34	3482.72
420.53	3618.47
420.72	3758.90
420.91	3599.74
421.10	3550.59
421.29	3625.49
421.48	3506.12
421.67	3581.02
421.86	3641.87
422.05	3592.72
422.24	3574.00
422.43	3609.11
422.61	3548.25
422.80	3660.60
422.99	3639.53
423.18	3756.56
423.37	3847.84
423.56	3763.58
423.75	3796.35
423.94	3667.62
424.13	3459.31
424.32	3606.77
424.50	3854.86
424.69	3887.63
424.88	3939.12
425.07	3758.90
425.26	3695.71
425.45	3777.62
425.64	3775.28
425.83	3857.20
426.01	3840.82
426.20	3826.78
426.39	3892.31
426.58	3805.71
426.77	3693.37
426.96	3850.18
427.15	3882.95
427.33	3899.33
427.52	3843.16
427.71	3934.44
427.90	3899.33
428.09	4095.94
428.28	4016.36
428.46	4074.87
428.65	3864.22
428.84	4035.08
429.03	3915.72
429.22	4032.74
429.40	3939.12
429.59	3864.22
429.78	3754.22
429.97	3770.60
430.16	3880.61
430.34	4007.00
430.53	3932.10
430.72	4042.11
430.91	4058.49
431.10	4196.58
431.28	4318.29
431.47	4381.48
431.66	4278.50
431.85	4322.97
432.03	4287.86
432.22	4381.48
432.41	4526.60
432.60	4545.32
432.79	4428.29
432.97	4592.13
433.16	4491.49
433.35	4337.01
433.54	4418.93
433.72	4566.39
433.91	4519.57
434.10	4568.73
434.28	4482.13
434.47	4596.81
434.66	4664.69
434.85	4765.33
435.03	4751.29
435.22	4526.60
435.41	4856.61
435.59	4884.70
435.78	4805.12
435.97	4891.72
436.16	4912.78
436.34	5050.88
436.53	4901.08
436.72	4915.12
436.90	4807.46
437.09	4938.53
437.28	4877.68
437.46	4912.78
437.65	5025.13
437.84	4943.21
438.02	5027.47
438.21	4910.44
438.40	4835.55
438.58	5282.59
438.77	5097.69
438.96	5203.01
439.14	5317.70
439.33	5275.57
439.52	5247.48
439.70	5467.49
439.89	5420.68
440.08	5303.65
440.26	5465.15
440.45	5425.36
440.63	5547.07
440.82	5811.55
441.01	5577.50
441.19	5762.40
441.38	5785.80
441.57	5853.68
441.75	6019.86
441.94	6005.81
442.12	5994.11
442.31	5954.32
442.50	6008.16
442.68	5891.13
442.87	5996.45
443.05	6010.50
443.24	6101.78
443.43	5961.34
443.61	6202.42
443.80	6441.15
443.98	6045.60
444.17	5977.73
444.35	6230.51
444.54	6235.19
444.73	6328.81
444.91	6195.40
445.10	6328.81
445.28	6031.56
445.47	6083.05
445.65	6246.89
445.84	6200.08
446.02	6382.64
446.21	6394.34
446.39	6221.14
446.58	6331.15
446.77	6415.41
446.95	6160.29
447.14	6256.25
447.32	6476.26
447.51	6277.32
447.69	6069.01
447.88	6319.45
448.06	6204.76
448.25	6384.98
448.43	6443.49
448.62	6457.54
448.80	6525.41
448.99	6445.84
449.17	6530.09
449.36	6459.88
449.54	6869.47
449.73	6740.74
449.91	6614.35
450.10	6729.04
450.28	6855.43
450.46	6981.82
450.65	7000.54
450.83	6822.66
451.02	6846.07
451.20	6965.43
451.39	6829.68
451.57	6988.84
451.76	6927.99
451.94	6909.26
452.13	6944.37
452.31	6897.56
452.49	6825.00
452.68	6853.09
452.86	7037.99
453.05	7045.01
453.23	6946.71
453.42	6923.30
453.60	6974.80
453.78	7037.99
453.97	7089.48
454.15	6925.65
454.34	6939.69
454.52	7368.01
454.70	7215.87
454.89	7197.15
455.07	7269.70
455.26	7255.66
455.44	7379.71
455.62	7391.41
455.81	7323.54
455.99	7424.18
456.17	7541.21
456.36	7529.50
456.54	7578.65
456.73	7562.27
456.91	7644.19
457.09	7648.87
457.28	7854.84
457.46	7606.74
457.64	7974.21
457.83	7707.38
458.01	7691.00
458.19	7894.63
458.38	7761.22
458.56	8002.29
458.74	7868.88
458.93	7936.76
459.11	7836.11
459.29	8018.68
459.48	7929.74
459.66	7939.10
459.84	8049.10
460.03	8276.13
460.21	8119.32
460.39	8236.35
460.57	8023.36
460.76	8280.82
460.94	8194.22
461.12	8093.57
461.31	8325.29
461.49	8306.56
461.67	8329.97
461.85	8360.39
462.04	8299.54
462.22	8741.90
462.40	8554.66
462.59	8222.30
462.77	8603.81
462.95	8575.72
463.13	8355.71
463.32	8702.11
463.50	8540.61
463.68	8526.57
463.86	8676.37
464.05	8503.17
464.23	8510.19
464.41	8636.58
464.59	8449.33
464.78	8657.64
464.96	8697.43
465.14	8479.76
465.32	8844.88
465.50	8863.61
465.69	8793.39
465.87	8894.04
466.05	8805.10
466.23	9011.06
466.41	8905.74
466.60	9013.40
466.78	8975.95
466.96	8924.46
467.14	8734.88
467.32	9008.72
467.51	9050.85
467.69	8788.71
467.87	9064.89
468.05	9043.83
468.23	8985.32
468.41	8922.12
468.60	8879.99
468.78	9111.71
468.96	8961.91
469.14	9186.60
469.32	9338.74
469.50	9146.81
469.69	9415.98
469.87	9343.42
470.05	9591.52
470.23	9577.47
470.41	9474.49
470.59	9415.98
470.77	9432.36
470.95	9696.84
471.14	9734.29
471.32	9582.15
471.50	9671.09
471.68	9834.93
471.86	9776.42
472.04	9706.20
472.22	10171.97
472.40	10057.28
472.58	10012.81
472.77	9942.60
472.95	10066.64
473.13	10494.96
473.31	10298.36
473.49	10160.27
473.67	10120.48
473.85	10036.22
474.03	10436.45
474.21	10455.17
474.39	10450.49
474.57	10637.73
474.75	10733.70
474.93	10583.90
475.12	10822.64
475.30	10675.18
475.48	10946.69
475.66	10824.98
475.84	10904.56
476.02	11019.24
476.20	10984.13
476.38	11417.13
476.56	11494.37
476.74	11377.34
476.92	11335.21
477.10	11384.37
477.28	11520.12
477.46	11513.10
477.64	11463.94
477.82	11836.09
478.00	11929.71
478.18	11920.35
478.36	12102.91
478.54	12322.92
478.72	12210.57
478.90	12376.75
479.08	12493.78
479.26	12674.00
479.44	12685.70
479.62	12706.77
479.80	12791.03
479.98	12945.50
480.16	12952.52
480.34	12917.42
480.52	13324.67
480.70	13177.22
480.88	13256.79
481.06	13238.07
481.24	13600.85
481.41	13544.68
481.59	13996.40
481.77	13851.29
481.95	14005.77
482.13	13940.23
482.31	13862.99
482.49	14422.38
482.67	14090.02
482.85	14300.67
483.03	14630.69
483.21	14696.22
483.39	14682.18
483.57	14628.35
483.74	14787.50
483.92	15098.80
484.10	14892.83
484.28	15321.15
484.46	15487.32
484.64	15831.38
484.82	15604.35
485.00	15604.35
485.18	16023.31
485.35	15967.13
485.53	15651.16
485.71	15859.47
485.89	15892.24
486.07	16149.70
486.25	15871.17
486.43	16381.41
486.61	16795.68
486.78	16589.72
486.96	16856.54
487.14	17495.50
487.32	17289.54
487.50	17532.95
487.68	17523.59
487.85	17862.97
488.03	17872.33
488.21	18274.90
488.39	17984.68
488.57	18115.75
488.75	18097.02
488.92	18469.17
489.10	18649.39
489.28	18787.48
489.46	18883.44
489.64	18998.13
489.81	19365.59
489.99	19400.70
490.17	19396.02
490.35	19557.52
490.53	19606.67
490.70	19632.41
490.88	19800.93
491.06	20212.87
491.24	19840.72
491.41	20428.20
491.59	20098.18
491.77	20156.69
491.95	20332.23
492.13	20662.25
492.30	20397.77
492.48	20877.58
492.66	20720.76
492.84	21053.12
493.01	21376.11
493.19	21364.41
493.37	21612.51
493.54	21371.43
493.72	21774.00
493.90	21734.21
494.08	21996.35
494.25	22581.49
494.43	22434.03
494.61	22497.23
494.79	22305.31
494.96	22656.39
495.14	22771.07
495.32	22775.75
495.49	22787.46
495.67	22932.57
495.85	23204.07
496.02	23449.83
496.20	23309.40
496.38	23405.36
496.55	23386.63
496.73	24290.08
496.91	23908.57
497.09	23906.23
497.26	24381.36
497.44	24102.84
497.62	24364.98
497.79	24474.98
497.97	24147.31
498.14	24456.26
498.32	24680.95
498.50	25064.80
498.67	25188.85
498.85	25043.73
499.03	25605.46
499.20	25331.62
499.38	25252.04
499.56	25645.25
499.73	25687.38
499.91	25671.00
500.08	25788.02
500.26	25525.88
500.44	26155.49
500.61	25928.45
500.79	25862.92
500.97	26185.91
501.14	26429.33
501.32	26480.82
501.49	26300.60
501.67	26246.77
501.84	26548.70
502.02	26368.48
502.20	27016.80
502.37	27236.81
502.55	27150.21
502.72	26920.84
502.90	27496.61
503.07	27049.57
503.25	27683.86
503.43	27065.96
503.60	27557.47
503.78	27068.30
503.95	27187.66
504.13	27503.64
504.30	27725.99
504.48	27604.28
504.65	28271.33
504.83	28318.14
505.01	28339.21
505.18	28025.57
505.36	28865.83
505.53	28526.45
505.71	28594.32
505.88	28905.62
506.06	28741.78
506.23	28545.17
506.41	28716.03
506.58	28968.81
506.76	28751.14
506.93	29013.28
507.11	29095.20
507.28	29202.86
507.46	29085.84
507.63	29380.74
507.81	29347.98
507.98	29493.09
508.16	29600.76
508.33	29633.52
508.50	29809.06
508.68	29961.20
508.85	30153.12
509.03	29989.28
509.20	30157.80
509.38	30426.96
509.55	30230.36
509.73	30277.17
509.90	30239.72
510.08	30424.62
510.25	30139.08
510.42	30810.81
510.60	30948.90
510.77	30717.19
510.95	31044.87
511.12	31110.40
511.30	30960.61
511.47	31136.15
511.64	31459.14
511.82	31442.76
511.99	31105.72
512.17	31627.66
512.34	31119.76
512.51	31960.02
512.69	31676.81
512.86	31800.86
513.04	31826.60
513.21	31992.78
513.38	32191.73
513.56	32079.38
513.73	32074.70
513.90	32236.20
514.08	31828.95
514.25	31997.46
514.43	32528.77
514.60	32432.80
514.77	32964.10
514.95	32849.42
515.12	32753.46
515.29	33141.99
515.47	33228.59
515.64	33071.77
515.81	32929.00
515.99	33097.52
516.16	32959.42
516.33	33076.45
516.51	33149.01
516.68	32491.32
516.85	32828.35
517.03	32730.05
517.20	32968.79
517.37	33586.69
517.54	33460.30
517.72	33612.43
517.89	33553.92
518.06	33212.20
518.24	33661.58
518.41	33132.62
518.58	33563.28
518.75	33736.48
518.93	34246.72
519.10	33806.70
519.27	34050.11
519.45	34038.41
519.62	34501.84
519.79	34604.82
519.96	34462.05
520.14	34560.35
520.31	34511.20
520.48	34845.90
520.65	34518.22
520.83	34888.03
521.00	34946.54
521.17	35105.70
521.34	34916.11
521.52	35243.79
521.69	35604.23
521.86	35159.53
522.03	35526.99
522.20	35597.21
522.38	35194.64
522.55	35768.07
522.72	35484.86
522.89	35580.82
523.07	35945.95
523.24	35337.41
523.41	35672.10
523.58	35882.75
523.75	36053.61
523.92	36320.43
524.10	36400.01
524.27	36816.63
524.44	36009.14
524.61	36479.59
524.78	36957.06
524.96	36613.00
525.13	36891.52
525.30	36772.16
525.47	36856.42
525.64	36477.25
525.81	36500.65
525.98	36767.48
526.16	36390.65
526.33	36388.31
526.50	37319.84
526.67	36655.13
526.84	37322.18
527.01	36898.55
527.18	37275.37
527.36	37219.20
527.53	37081.11
527.70	37617.09
527.87	37638.15
528.04	37638.15
528.21	37202.82
528.38	37708.37
528.55	37537.51
528.72	37633.47
528.89	37895.61
529.07	37846.46
529.24	37806.67
529.41	38134.35
529.58	37916.68
529.75	37951.79
529.92	38110.94
530.09	38176.48
530.26	38672.67
530.43	37942.42
530.60	38106.26
530.77	38052.43
530.94	38740.55
531.11	38188.18
531.28	38855.23
531.46	38497.13
531.63	38850.55
531.80	38263.08
531.97	38677.35
532.14	38529.90
532.31	38590.75
532.48	38752.25
532.65	39056.52
532.82	38998.01
532.99	38990.98
533.16	38480.75
533.33	39009.71
533.50	39868.69
533.67	39372.49
533.84	38962.90
534.01	39360.79
534.18	39206.31
534.35	39409.94
534.52	39236.74
534.69	39545.69
534.86	39536.33
535.03	39381.85
535.20	39784.43
535.37	40098.06
535.54	40034.86
535.71	39847.62
535.88	39880.39
536.05	39849.96
536.22	39768.04
536.38	39653.36
536.55	39807.83
536.72	40130.83
536.89	39974.01
537.06	40229.13
537.23	40123.80
537.40	40278.28
537.57	40140.19
537.74	40236.15
537.91	40418.71
538.08	40187.00
538.25	39782.09
538.42	40397.65
538.59	40332.11
538.75	40360.20
538.92	40119.12
539.09	40762.77
539.26	40692.55
539.43	40378.92
539.60	40552.12
539.77	40566.16
539.94	40751.07
540.11	40507.65
540.28	40971.08
540.44	40800.22
540.61	40561.48
540.78	40718.30
540.95	40589.57
541.12	40893.84
541.29	40905.54
541.46	40807.24
541.62	40821.28
541.79	40987.46
541.96	40942.99
542.13	40666.81
542.30	41237.90
542.47	41418.12
542.63	41284.71
542.80	41422.80
542.97	41876.86
543.14	42110.92
543.31	41998.57
543.48	41792.61
543.64	42703.07
543.81	41876.86
543.98	42490.09
544.15	41897.93
544.32	41965.81
544.48	42106.24
544.65	42253.69
544.82	42227.95
544.99	41900.27
545.16	42110.92
545.32	42000.91
545.49	42302.84
545.66	42705.41
545.83	42611.79
546.00	42712.44
546.16	42445.62
546.33	42029.00
546.50	42237.31
546.67	42773.29
546.83	41977.51
547.00	42356.67
547.17	42277.10
547.34	42227.95
547.50	42777.97
547.67	42960.53
547.84	42679.67
548.00	42775.63
548.17	42995.64
548.34	42663.28
548.51	43412.26
548.67	43161.82
548.84	43386.51
549.01	42972.24
549.18	42707.76
549.34	42974.58
549.51	42995.64
549.68	43522.26
549.84	43316.29
550.01	43739.93
550.18	43356.08
550.34	43440.34
550.51	43234.38
550.68	43524.60
550.84	43515.24
551.01	43756.32
551.18	43480.13
551.34	43332.68
551.51	43473.11
551.68	43571.41
551.84	43927.17
552.01	43398.21
552.18	43468.43
552.34	43365.45
552.51	43543.33
552.68	43423.96
552.84	43669.72
553.01	43966.96
553.18	43810.15
553.34	43899.09
553.51	43709.50
553.67	43746.95
553.84	44280.60
554.01	43978.67
554.17	44144.84
554.34	43971.64
554.51	44114.42
554.67	44657.42
554.84	44109.74
555.00	44402.30
555.17	44182.29
555.33	44149.53
555.50	43639.29
555.67	44348.47
555.83	44374.22
556.00	44325.07
556.16	44399.96
556.33	44107.40
556.50	44114.42
556.66	44484.22
556.83	44243.15
556.99	44421.03
557.16	44589.55
557.32	44472.52
557.49	44428.05
557.65	44245.49
557.82	43833.55
557.98	44280.60
558.15	44360.17
558.32	44526.35
558.48	44123.78
558.65	44507.63
558.81	44512.31
558.98	44395.28
559.14	44619.97
559.31	44486.56
559.47	44313.36
559.64	44617.63
559.80	44933.60
559.97	44793.17
560.13	45043.61
560.30	44727.64
560.46	44582.52
560.63	44634.02
560.79	44830.62
560.96	45303.41
561.12	44774.45
561.29	44849.35
561.45	44989.78
561.61	44882.11
561.78	45184.04
561.94	44804.88
562.11	44973.39
562.27	44863.39
562.44	44907.86
562.60	44910.20
562.77	45167.66
562.93	45240.21
563.10	45008.50
563.26	44762.75
563.42	45315.11
563.59	44987.44
563.75	45212.13
563.92	45322.13
564.08	45254.26
564.24	45294.05
564.41	45200.43
564.57	45219.15
564.74	45244.90
564.90	45612.36
565.07	45364.26
565.23	44978.07
565.39	44961.69
565.56	45649.81
565.72	45015.52
565.88	45167.66
566.05	44903.18
566.21	45429.80
566.38	45165.32
566.54	45528.10
566.70	45766.84
566.87	45574.91
567.03	45326.81
567.19	45778.54
567.36	45689.60
567.52	45067.02
567.68	45680.24
567.85	45605.34
568.01	45404.05
568.17	45303.41
568.34	45497.67
568.50	45296.39
568.66	45209.79
568.83	45305.75
568.99	45617.04
569.15	45361.92
569.32	45291.71
569.48	45308.09
569.64	45427.46
569.81	45827.69
569.97	45492.99
570.13	45347.88
570.30	44818.92
570.46	45315.11
570.62	45382.99
570.78	45462.57
570.95	45329.16
571.11	45511.72
571.27	45418.10
571.43	45387.67
571.60	45612.36
571.76	45790.24
571.92	45258.94
572.09	45731.73
572.25	45720.02
572.41	45457.88
572.57	45687.26
572.74	45902.59
572.90	45537.46
573.06	45656.83
573.22	45624.06
573.38	45757.47
573.55	45366.60
573.71	45586.61
573.87	45174.68
574.03	45359.58
574.20	45553.85
574.36	45380.65
574.52	45500.01
574.68	45109.14
574.84	45565.55
575.01	45530.44
575.17	45436.82
575.33	45221.49
575.49	45982.16
575.65	46305.16
575.82	45951.74
575.98	45614.70
576.14	46263.03
576.30	45652.15
576.46	45413.41
576.62	45825.35
576.79	45570.23
576.95	45443.84
577.11	45628.74
577.27	45605.34
577.43	46108.55
577.59	45808.96
577.75	45783.22
577.92	45174.68
578.08	45661.51
578.24	45600.66
578.40	45375.97
578.56	45649.81
578.72	46054.72
578.88	45879.18
579.04	45825.35
579.21	45677.90
579.37	45567.89
579.53	45902.59
579.69	45191.06
579.85	45734.07
580.01	45642.79
580.17	45478.95
580.33	45591.30
580.49	45837.05
580.65	45436.82
580.82	45883.86
580.98	45441.50
581.14	45546.82
581.30	45785.56
581.46	45801.94
581.62	45462.57
581.78	45722.37
581.94	45792.58
582.10	45993.87
582.26	45972.80
582.42	45925.99
582.58	45893.22
582.74	45572.57
582.90	45940.04
583.06	45972.80
583.22	45794.92
583.38	46038.34
583.54	45483.63
583.70	45823.01
583.86	45783.22
584.02	45354.90
584.18	46078.13
584.34	45837.05
584.50	45724.71
584.66	45883.86
584.82	45113.83
584.98	46248.99
585.14	46026.63
585.30	45525.76
585.46	45462.57
585.62	45558.53
585.78	45876.84
585.94	45645.13
586.10	45738.75
586.26	45476.61
586.42	45979.82
586.58	45918.97
586.74	45951.74
586.90	46036.00
587.06	45392.35
587.22	45769.18
587.38	45666.19
587.54	46087.49
587.70	45900.25
587.86	46293.46
588.02	46110.89
588.18	46466.66
588.34	45778.54
588.49	45521.08
588.65	45591.30
588.81	45085.74
588.97	45497.67
589.13	45502.35
589.29	45500.01
589.45	45729.39
589.61	46017.27
589.77	45773.86
589.93	45984.51
590.08	45752.79
