SpectraSuite Data File
++++++++++++++++++++++++++++++++++++
Date: Fri Oct 25 11:22:28 EDT 2013
User: price-jones
Dark Spectrum Present: No
Reference Spectrum Present: No
Number of Sampled Component Spectra: 1
Spectrometers: USB2+H05261
Integration Time (usec): 100000 (USB2+H05261)
Spectra Averaged: 1 (USB2+H05261)
Boxcar Smoothing: 0 (USB2+H05261)
Correct for Electrical Dark: No (USB2+H05261)
Strobe/Lamp Enabled: No (USB2+H05261)
Correct for Detector Non-linearity: No (USB2+H05261)
Correct for Stray Light: No (USB2+H05261)
Number of Pixels in Processed Spectrum: 2048
>>>>>Begin Processed Spectral Data<<<<<
365.73	170.86
365.92	170.86
366.12	170.86
366.32	161.50
366.52	138.09
366.72	149.79
366.91	182.56
367.11	138.09
367.31	131.07
367.51	110.01
367.70	16.38
367.90	102.98
368.10	95.96
368.30	117.03
368.49	100.64
368.69	177.88
368.89	58.51
369.09	112.35
369.28	177.88
369.48	138.09
369.68	133.41
369.87	208.31
370.07	205.97
370.27	257.46
370.47	341.72
370.66	631.94
370.86	580.45
371.06	716.20
371.25	671.73
371.45	636.63
371.65	617.90
371.84	674.07
372.04	699.82
372.24	690.46
372.44	690.46
372.63	730.25
372.83	695.14
373.03	664.71
373.22	779.40
373.42	734.93
373.62	802.80
373.81	723.23
374.01	849.61
374.21	802.80
374.40	753.65
374.60	849.61
374.79	709.18
374.99	777.06
375.19	798.12
375.38	795.78
375.58	847.27
375.78	908.13
375.97	884.72
376.17	889.40
376.37	936.21
376.56	910.47
376.76	814.51
376.95	807.48
377.15	901.11
377.35	896.43
377.54	870.68
377.74	926.85
377.93	957.28
378.13	903.45
378.33	940.90
378.52	940.90
378.72	1006.43
378.91	1036.86
379.11	959.62
379.31	912.81
379.50	870.68
379.70	1008.77
379.89	992.39
380.09	992.39
380.28	1001.75
380.48	959.62
380.68	966.64
380.87	924.51
381.07	1135.16
381.26	1097.71
381.46	1013.45
381.65	1095.37
381.85	1025.15
382.04	1090.69
382.24	1102.39
382.43	1022.81
382.63	1095.37
382.83	1032.18
383.02	1064.94
383.22	1121.12
383.41	1109.41
383.61	1090.69
383.80	1078.99
384.00	1039.20
384.19	1146.86
384.39	1104.73
384.58	1144.52
384.78	1156.22
384.97	1111.75
385.17	1193.67
385.36	1191.33
385.56	1184.31
385.75	1130.48
385.95	1275.59
386.14	1348.15
386.34	1181.97
386.53	1165.59
386.72	1261.55
386.92	1247.51
387.11	1228.78
387.31	1231.12
387.50	1303.68
387.70	1324.74
387.89	1299.00
388.09	1252.19
388.28	1240.48
388.48	1242.82
388.67	1224.10
388.86	1240.48
389.06	1266.23
389.25	1416.02
389.45	1376.24
389.64	1341.13
389.84	1397.30
390.03	1385.60
390.22	1355.17
390.42	1345.81
390.61	1369.21
390.81	1315.38
391.00	1369.21
391.19	1514.33
391.39	1460.49
391.58	1530.71
391.78	1479.22
391.97	1565.82
392.16	1453.47
392.36	1483.90
392.55	1556.46
392.75	1526.03
392.94	1544.75
393.13	1500.28
393.33	1521.35
393.52	1565.82
393.71	1577.52
393.91	1542.41
394.10	1675.82
394.29	1619.65
394.49	1612.63
394.68	1710.93
394.88	1680.50
395.07	1678.16
395.26	1645.40
395.46	1710.93
395.65	1811.57
395.84	1767.10
396.04	1863.07
396.23	1783.49
396.42	1638.38
396.62	1832.64
396.81	1762.42
397.00	1781.15
397.19	1842.00
397.39	1797.53
397.58	1820.94
397.77	1764.76
397.97	1860.73
398.16	1867.75
398.35	1907.54
398.55	1984.77
398.74	1989.46
398.93	1935.62
399.12	1886.47
399.32	1905.20
399.51	1933.28
399.70	2078.40
399.90	2008.18
400.09	2054.99
400.28	2017.54
400.47	2083.08
400.67	2094.78
400.86	2125.21
401.05	2122.87
401.24	2071.37
401.44	2188.40
401.63	2111.16
401.82	2132.23
402.01	2146.27
402.21	2263.30
402.40	2225.85
402.59	2272.66
402.78	2228.19
402.97	2305.43
403.17	2275.00
403.36	2359.26
403.55	2284.36
403.74	2403.73
403.93	2413.09
404.13	2422.45
404.32	2401.39
404.51	2387.35
404.70	2448.20
404.89	2509.05
405.09	2537.14
405.28	2539.48
405.47	2548.84
405.66	2539.48
405.85	2546.50
406.05	2579.27
406.24	2656.51
406.43	2698.64
406.62	2630.76
406.81	2637.78
407.00	2686.94
407.20	2621.40
407.39	2609.70
407.58	2726.72
407.77	2794.60
407.96	2780.56
408.15	2780.56
408.34	2825.03
408.54	2775.88
408.73	2850.77
408.92	2953.76
409.11	2939.71
409.30	3002.91
409.49	2965.46
409.68	2860.13
409.87	2970.14
410.07	3075.46
410.26	3014.61
410.45	3061.42
410.64	3091.85
410.83	3061.42
411.02	3213.56
411.21	3272.07
411.40	3197.17
411.59	3213.56
411.78	3255.69
411.98	3169.09
412.17	3332.92
412.36	3351.65
412.55	3599.74
412.74	3454.63
412.93	3375.05
413.12	3489.74
413.31	3616.13
413.50	3503.78
413.69	3536.55
413.88	3662.94
414.07	3578.68
414.26	3595.06
414.45	3548.25
414.64	3590.38
414.83	3786.99
415.02	3822.09
415.22	3845.50
415.41	3861.88
415.60	3953.16
415.79	3758.90
415.98	3969.55
416.17	3950.82
416.36	4016.36
416.55	3981.25
416.74	4236.37
416.93	4121.68
417.12	4166.15
417.31	4210.62
417.50	4257.43
417.69	4404.89
417.88	4196.58
418.07	4418.93
418.26	4339.35
418.45	4313.61
418.64	4500.85
418.83	4395.53
419.02	4432.97
419.21	4615.54
419.39	4748.95
419.58	4624.90
419.77	4573.41
419.96	4711.50
420.15	4596.81
420.34	4751.29
420.53	4652.98
420.72	4884.70
420.91	4692.77
421.10	4777.03
421.29	4844.91
421.48	4835.55
421.67	4873.00
421.86	4779.37
422.05	4964.28
422.24	4840.23
422.43	4847.25
422.61	4947.89
422.80	5132.79
422.99	5156.20
423.18	5116.41
423.37	5001.72
423.56	4917.47
423.75	4924.49
423.94	4767.67
424.13	4669.37
424.32	4947.89
424.50	5090.67
424.69	5027.47
424.88	5170.24
425.07	5132.79
425.26	5071.94
425.45	5027.47
425.64	5041.51
425.83	5062.58
426.01	5034.49
426.20	4980.66
426.39	5184.29
426.58	5090.67
426.77	5177.26
426.96	5212.37
427.15	5125.77
427.33	5158.54
427.52	5200.67
427.71	5322.38
427.90	5380.89
428.09	5334.08
428.28	5462.81
428.46	5401.96
428.65	5500.26
428.84	5689.84
429.03	5598.56
429.22	5387.91
429.40	5502.60
429.59	5579.84
429.78	5455.79
429.97	5298.97
430.16	5350.46
430.34	5511.96
430.53	5767.08
430.72	5689.84
430.91	5640.69
431.10	5781.12
431.28	5886.45
431.47	5743.67
431.66	6040.92
431.85	5951.98
432.03	5961.34
432.22	6235.19
432.41	5928.58
432.60	5921.56
432.79	5909.85
432.97	6047.94
433.16	6190.72
433.35	6078.37
433.54	6125.18
433.72	6204.76
433.91	6176.67
434.10	6148.59
434.28	6190.72
434.47	6333.49
434.66	6305.40
434.85	6256.25
435.03	6438.81
435.22	6476.26
435.41	6665.85
435.59	6494.99
435.78	6490.31
435.97	6476.26
436.16	6579.25
436.34	6581.59
436.53	6647.12
436.72	6850.75
436.90	6394.34
437.09	6766.49
437.28	6466.90
437.46	6836.70
437.65	6782.87
437.84	6911.60
438.02	6871.81
438.21	6717.34
438.40	6778.19
438.58	6925.65
438.77	6991.18
438.96	6867.13
439.14	7030.97
439.33	7140.97
439.52	7304.81
439.70	7328.22
439.89	7492.05
440.08	7454.61
440.26	7730.79
440.45	7470.99
440.63	7627.81
440.82	7644.19
441.01	7620.78
441.19	7733.13
441.38	7906.33
441.57	7967.18
441.75	7831.43
441.94	8189.53
442.12	8189.53
442.31	8131.02
442.50	8091.23
442.68	8142.72
442.87	8297.20
443.05	8264.43
443.24	8393.16
443.43	8163.79
443.61	8175.49
443.80	8430.61
443.98	8102.93
444.17	8109.96
444.35	8325.29
444.54	8526.57
444.73	8622.53
444.91	8400.18
445.10	8491.46
445.28	8437.63
445.47	8325.29
445.65	8428.27
445.84	8648.28
446.02	8748.92
446.21	8664.66
446.39	8472.74
446.58	8479.76
446.77	8643.60
446.95	8318.26
447.14	8601.47
447.32	8493.80
447.51	8875.31
447.69	8435.29
447.88	8617.85
448.06	8575.72
448.25	8699.77
448.43	8559.34
448.62	8760.63
448.80	8744.24
448.99	8716.16
449.17	8849.57
449.36	8821.48
449.54	9153.84
449.73	9046.17
449.91	8999.36
450.10	8990.00
450.28	9228.73
450.46	9181.92
450.65	8980.64
450.83	9125.75
451.02	9100.00
451.20	9270.86
451.39	9280.22
451.57	9373.85
451.76	9151.49
451.94	9476.83
452.13	9401.93
452.31	9298.95
452.49	9102.34
452.68	9418.32
452.86	9455.76
453.05	9607.90
453.23	9867.70
453.42	9404.27
453.60	9355.12
453.78	9692.16
453.97	9680.46
454.15	9406.61
454.34	9572.79
454.52	9921.53
454.70	9703.86
454.89	9891.10
455.07	9823.23
455.26	9973.02
455.44	10054.94
455.62	10033.88
455.81	10073.67
455.99	10092.39
456.17	10354.53
456.36	10263.25
456.54	10092.39
456.73	10520.71
456.91	10761.78
457.09	10504.32
457.28	10588.58
457.46	10485.60
457.64	10665.82
457.83	10782.85
458.01	10796.89
458.19	10899.87
458.38	10726.68
458.56	10775.83
458.74	10768.80
458.93	10759.44
459.11	10740.72
459.29	10876.47
459.48	10874.13
459.66	11103.50
459.84	11159.67
460.03	11255.64
460.21	10927.96
460.39	11215.85
460.57	11052.01
460.76	11293.08
460.94	11356.28
461.12	11297.77
461.31	11234.57
461.49	11225.21
461.67	11424.15
461.85	11559.91
462.04	11522.46
462.22	11826.73
462.40	11634.80
462.59	11569.27
462.77	11447.56
462.95	11786.94
463.13	11742.47
463.32	12156.74
463.50	11887.58
463.68	11868.86
463.86	12154.40
464.05	11922.69
464.23	11878.22
464.41	12147.38
464.59	11887.58
464.78	12156.74
464.96	11990.56
465.14	11903.96
465.32	12280.79
465.50	12325.26
465.69	12500.80
465.87	12599.10
466.05	12262.07
466.23	12585.06
466.41	12477.40
466.60	12603.78
466.78	12355.69
466.96	12451.65
467.14	12271.43
467.32	12594.42
467.51	12681.02
467.69	12248.02
467.87	12746.56
468.05	12870.61
468.23	12526.55
468.41	12652.94
468.60	12664.64
468.78	12954.87
468.96	12671.66
469.14	12872.95
469.32	13090.62
469.50	12798.05
469.69	13235.73
469.87	13352.76
470.05	13043.81
470.23	13151.47
470.41	13397.23
470.59	13378.50
470.77	13380.84
470.95	13331.69
471.14	13645.32
471.32	13614.90
471.50	13614.90
471.68	13855.97
471.86	13713.20
472.04	13989.38
472.22	14263.22
472.40	13818.52
472.58	13998.74
472.77	14115.77
472.95	14225.78
473.13	14867.08
473.31	14457.49
473.49	14356.85
473.67	14321.74
473.85	14422.38
474.03	14998.15
474.21	14918.57
474.39	15091.77
474.57	14850.70
474.75	15213.48
474.93	15318.81
475.12	14878.79
475.30	15262.63
475.48	15264.97
475.66	15283.70
475.84	15281.36
476.02	15784.57
476.20	15768.19
476.38	15878.19
476.56	16250.34
476.74	16306.51
476.92	16133.31
477.10	15969.48
477.28	16428.22
477.46	16350.98
477.64	16503.12
477.82	16765.26
478.00	17050.80
478.18	17071.87
478.36	16978.25
478.54	17378.48
478.72	17593.81
478.90	17713.17
479.08	17649.98
479.26	17865.31
479.44	17830.20
479.62	18345.12
479.80	18310.01
479.98	18670.45
480.16	18909.19
480.34	18581.51
480.52	18815.57
480.70	19002.81
480.88	18670.45
481.06	19068.34
481.24	19019.19
481.41	19344.53
481.59	19655.82
481.77	19850.08
481.95	20053.71
482.13	19859.45
482.31	20049.03
482.49	20491.39
482.67	20456.28
482.85	20863.54
483.03	21123.33
483.21	21137.38
483.39	21177.17
483.57	21174.83
483.74	21345.69
483.92	21745.92
484.10	21380.79
484.28	22001.04
484.46	22342.75
484.64	22309.99
484.82	22525.32
485.00	22799.16
485.18	23056.62
485.35	23431.10
485.53	22939.59
485.71	23522.38
485.89	24105.18
486.07	23939.00
486.25	23812.61
486.43	23552.81
486.61	23885.17
486.78	24664.57
486.96	24512.43
487.14	24826.06
487.32	24875.21
487.50	25364.39
487.68	25266.08
487.85	25781.00
488.03	25837.17
488.21	26391.88
488.39	26024.42
488.57	26284.22
488.75	26434.01
488.92	26876.37
489.10	27175.96
489.28	27297.67
489.46	27491.93
489.64	27168.94
489.81	28006.85
489.99	28135.58
490.17	27999.83
490.35	28266.65
490.53	28439.85
490.70	28975.83
490.88	28374.31
491.06	29429.90
491.24	29249.67
491.41	29408.83
491.59	29607.78
491.77	29912.05
491.95	30249.08
492.13	30218.66
492.30	30361.43
492.48	30389.52
492.66	31054.23
492.84	30747.62
493.01	30852.94
493.19	31388.92
493.37	31297.64
493.54	31725.96
493.72	32128.53
493.90	31873.42
494.08	32086.40
494.25	32404.72
494.43	32383.65
494.61	32645.79
494.79	33310.50
494.96	32945.38
495.14	33200.50
495.32	33230.93
495.49	33958.83
495.67	33593.71
495.85	33867.55
496.02	34448.00
496.20	34841.21
496.38	34492.47
496.55	34258.42
496.73	35566.78
496.91	34881.00
497.09	35281.24
497.26	35541.03
497.44	35058.88
497.62	35861.69
497.79	36643.43
497.97	36039.57
498.14	36577.89
498.32	36526.40
498.50	36645.77
498.67	37141.96
498.85	36935.99
499.03	37596.03
499.20	37551.56
499.38	37266.01
499.56	37677.94
499.73	37703.69
499.91	37909.66
500.08	38513.52
500.26	37930.72
500.44	38352.02
500.61	38529.90
500.79	38628.20
500.97	38717.14
501.14	39328.02
501.32	39290.57
501.49	39042.48
501.67	39412.28
501.84	39697.83
502.02	39629.95
502.20	39622.93
502.37	39751.66
502.55	39786.77
502.72	39978.69
502.90	40023.16
503.07	39974.01
503.25	40634.04
503.43	40699.58
503.60	40847.03
503.78	40818.94
503.95	40744.05
504.13	40964.06
504.30	40830.65
504.48	40992.14
504.65	41696.64
504.83	41701.32
505.01	41930.70
505.18	41916.65
505.36	42319.23
505.53	41975.17
505.71	41970.49
505.88	42562.64
506.06	42202.20
506.23	42604.77
506.41	42361.36
506.58	42904.36
506.76	42607.11
506.93	43302.25
507.11	42635.20
507.28	43117.35
507.46	43452.05
507.63	43548.01
507.81	44069.95
507.98	43543.33
508.16	43868.66
508.33	43852.28
508.50	44329.75
508.68	44294.64
508.85	44516.99
509.03	44591.89
509.20	44533.37
509.38	44793.17
509.55	45099.78
509.73	45333.84
509.90	44978.07
510.08	44994.46
510.25	45228.51
510.42	45357.24
510.60	45588.95
510.77	45682.58
510.95	45745.77
511.12	45570.23
511.30	45996.21
511.47	46209.20
511.64	46012.59
511.82	46581.34
511.99	46377.72
512.17	46686.67
512.34	46312.18
512.51	46916.04
512.69	46789.65
512.86	46799.01
513.04	47138.39
513.21	47437.98
513.38	47388.83
513.56	47728.20
513.73	47414.57
513.90	47674.37
514.08	47798.42
514.25	47938.85
514.43	48058.22
514.60	48130.78
514.77	48301.64
514.95	48147.16
515.12	47966.94
515.29	48172.91
515.47	48357.81
515.64	48727.61
515.81	48442.07
515.99	48809.53
516.16	49336.15
516.33	49057.63
516.51	49134.87
516.68	49207.42
516.85	49090.40
517.03	49333.81
517.20	49593.61
517.37	49581.91
517.54	49228.49
517.72	49689.57
517.89	49495.31
518.06	49923.63
518.24	49783.19
518.41	49680.21
518.58	49605.31
518.75	50082.78
518.93	49902.56
519.10	50003.20
519.27	50405.78
519.45	50050.02
519.62	50410.46
519.79	50696.00
519.96	50672.60
520.14	50880.91
520.31	50712.39
520.48	51257.73
520.65	50784.94
520.83	51215.60
521.00	51304.54
521.17	51161.77
521.34	51341.99
521.52	51047.08
521.69	51547.96
521.86	51653.28
522.03	51901.38
522.20	51620.52
522.38	51964.57
522.55	51826.48
522.72	52062.88
522.89	51997.34
523.07	52332.04
523.24	52051.17
523.41	52158.84
523.58	51625.20
523.75	52629.29
523.92	52467.79
524.10	52453.75
524.27	52458.43
524.44	52402.25
524.61	52722.91
524.78	52931.22
524.96	52673.76
525.13	52748.65
525.30	52818.87
525.47	52963.98
525.64	53230.80
525.81	53193.36
525.98	53095.05
526.16	53338.47
526.33	53139.52
526.50	53469.54
526.67	53188.67
526.84	53488.26
527.01	53212.08
527.18	53219.10
527.36	53242.51
527.53	53694.23
527.70	53771.47
527.87	53755.08
528.04	53502.31
528.21	53951.69
528.38	53806.58
528.55	53939.99
528.72	53832.32
528.89	54040.63
529.07	53904.88
529.24	53776.15
529.41	54213.83
529.58	54363.62
529.75	54075.74
529.92	54291.07
530.09	54124.89
530.26	54548.53
530.43	54370.64
530.60	54277.02
530.77	54356.60
530.94	54578.95
531.11	54316.81
531.28	54651.51
531.46	54667.89
531.63	54890.24
531.80	54948.76
531.97	54932.37
532.14	54981.52
532.31	54906.63
532.48	55124.30
532.65	55246.00
532.82	54904.29
532.99	55131.32
533.16	55086.85
533.33	55480.06
533.50	55496.44
533.67	55196.85
533.84	55025.99
534.01	55405.16
534.18	55444.95
534.35	55454.31
534.52	55377.08
534.69	55641.56
534.86	55870.93
535.03	55044.72
535.20	55454.31
535.37	55604.11
535.54	55648.58
535.71	55611.13
535.88	55789.01
536.05	55931.78
536.22	56107.32
536.38	56100.30
536.55	55927.10
536.72	55887.31
536.89	56112.00
537.06	56079.24
537.23	56247.75
537.40	55941.14
537.57	56430.32
537.74	56409.25
537.91	56306.27
538.08	56058.17
538.25	56067.53
538.42	56151.79
538.59	56470.11
538.75	56051.15
538.92	56610.54
539.09	56762.67
539.26	56535.64
539.43	56521.60
539.60	56446.70
539.77	56573.09
539.94	56945.23
540.11	56870.34
540.28	56978.00
540.44	57024.81
540.61	56802.46
540.78	56849.27
540.95	56750.97
541.12	56999.07
541.29	57034.17
541.46	56856.29
541.62	57111.41
541.79	57013.11
541.96	56732.25
542.13	56933.53
542.30	57020.13
542.47	57331.42
542.63	57265.89
542.80	57286.95
542.97	57558.45
543.14	57663.78
543.31	57539.73
543.48	57780.81
543.64	57827.62
543.81	57741.02
543.98	57731.65
544.15	57684.84
544.32	57691.86
544.48	58047.63
544.65	57705.91
544.82	57963.37
544.99	57752.72
545.16	58103.80
545.32	57939.96
545.49	57872.09
545.66	58169.33
545.83	58127.20
546.00	58286.36
546.16	58178.70
546.33	58136.57
546.50	57991.45
546.67	58178.70
546.83	57832.30
547.00	58082.73
547.17	58017.20
547.34	58300.40
547.50	58333.17
547.67	58365.94
547.84	58429.13
548.00	58604.67
548.17	58588.29
548.34	58656.17
548.51	58763.83
548.67	58738.08
548.84	58553.18
549.01	58482.97
549.18	58473.60
549.34	58548.50
549.51	58464.24
549.68	58695.95
549.84	58625.74
550.01	58810.64
550.18	58564.88
550.34	58791.92
550.51	59000.22
550.68	58761.49
550.84	58710.00
551.01	58803.62
551.18	58876.18
551.34	58862.13
551.51	58944.05
551.68	58962.78
551.84	59042.35
552.01	59084.48
552.18	59037.67
552.34	58934.69
552.51	59175.76
552.68	59035.33
552.84	59196.83
553.01	59208.53
553.18	59346.62
553.34	58887.88
553.51	59140.66
553.67	59032.99
553.84	59367.69
554.01	59320.88
554.17	59379.39
554.34	59585.36
554.51	59435.56
554.67	59473.01
554.84	59384.07
555.00	59531.53
555.17	59302.15
555.33	59299.81
555.50	59173.42
555.67	59112.57
555.83	59463.65
556.00	59426.20
556.16	59732.81
556.33	59648.55
556.50	59707.07
556.66	59803.03
556.83	59554.93
556.99	59655.57
557.16	59929.42
557.32	59856.86
557.49	59887.29
557.65	59662.60
557.82	59660.26
557.98	59695.36
558.15	59894.31
558.32	59842.82
558.48	59737.49
558.65	59800.69
558.81	60016.02
558.98	60072.19
559.14	59931.76
559.31	60198.58
559.47	59927.08
559.64	60100.28
559.80	60069.85
559.97	60006.65
560.13	59997.29
560.30	60016.02
560.46	60086.23
560.63	60074.53
560.79	60360.08
560.96	60280.50
561.12	60303.90
561.29	60221.98
561.45	60259.43
561.61	60280.50
561.78	59980.91
561.94	60109.64
562.11	60324.97
562.27	60076.87
562.44	60505.19
562.60	60699.45
562.77	60350.71
562.93	60161.13
563.10	60446.68
563.26	60067.51
563.42	60547.32
563.59	60306.24
563.75	60474.76
563.92	60360.08
564.08	60367.10
564.24	60460.72
564.41	60437.31
564.57	60591.79
564.74	60425.61
564.90	60343.69
565.07	60516.89
565.23	60547.32
565.39	60369.44
565.56	60505.19
565.72	60299.22
565.88	60750.94
566.05	60327.31
566.21	60673.71
566.38	60552.00
566.54	60537.96
566.70	60589.45
566.87	60713.50
567.03	60554.34
567.19	60874.99
567.36	60708.82
567.52	60580.09
567.68	61020.11
567.85	60781.37
568.01	60830.52
568.17	60617.53
568.34	60900.74
568.50	60636.26
568.66	60608.17
568.83	60566.04
568.99	60694.77
569.15	60566.04
569.32	60926.49
569.48	60640.94
569.64	60905.42
569.81	60823.50
569.97	60549.66
570.13	60905.42
570.30	60694.77
570.46	60947.55
570.62	61183.94
570.78	60697.11
570.95	60790.73
571.11	61038.83
571.27	60879.67
571.43	60907.76
571.60	61073.94
571.76	60959.25
571.92	61118.41
572.09	61071.60
572.25	60982.66
572.41	60961.59
572.57	61008.40
572.74	61141.81
572.90	61123.09
573.06	60914.78
573.22	60800.10
573.38	60844.57
573.55	60882.02
573.71	60985.00
573.87	60924.14
574.03	60896.06
574.20	61116.07
574.36	60926.49
574.52	61162.88
574.68	61006.06
574.84	61148.84
575.01	60961.59
575.17	60956.91
575.33	61172.24
575.49	60896.06
575.65	61132.45
575.82	61034.15
575.98	61277.57
576.14	61268.20
576.30	61113.73
576.46	61104.37
576.62	61160.54
576.79	61141.81
576.95	61083.30
577.11	61284.59
577.27	61174.58
577.43	61083.30
577.59	61111.39
577.75	61092.66
577.92	61219.05
578.08	61087.98
578.24	60961.59
578.40	61305.65
578.56	61371.19
578.72	61090.32
578.88	61296.29
579.04	61329.06
579.21	61282.25
579.37	61109.05
579.53	61378.21
579.69	61050.53
579.85	61027.13
580.01	61298.63
580.17	61045.85
580.33	61380.55
580.49	61345.44
580.65	61125.43
580.82	61165.22
580.98	61375.87
581.14	61179.26
581.30	61418.00
581.46	61429.70
581.62	61270.54
581.78	61270.54
581.94	61284.59
582.10	61207.35
582.26	61113.73
582.42	61205.01
582.58	61223.73
582.74	61265.86
582.90	61329.06
583.06	61469.49
583.22	61141.81
583.38	61277.57
583.54	61181.60
583.70	61577.15
583.86	61366.51
584.02	61254.16
584.18	61291.61
584.34	61329.06
584.50	61282.25
584.66	61214.37
584.82	61165.22
584.98	61317.35
585.14	61490.55
585.30	61284.59
585.46	61469.49
585.62	61415.66
585.78	61593.54
585.94	61214.37
586.10	61261.18
586.26	61490.55
586.42	61652.05
586.58	61572.47
586.74	61352.46
586.90	61284.59
587.06	61190.97
587.22	61240.12
587.38	61340.76
587.54	61834.61
587.70	61497.58
587.86	61408.64
588.02	61443.74
588.18	61577.15
588.34	61572.47
