SpectraSuite Data File
++++++++++++++++++++++++++++++++++++
Date: Fri Oct 25 11:33:50 EDT 2013
User: price-jones
Dark Spectrum Present: No
Reference Spectrum Present: No
Number of Sampled Component Spectra: 1
Spectrometers: USB2+H05261
Integration Time (usec): 100000 (USB2+H05261)
Spectra Averaged: 1 (USB2+H05261)
Boxcar Smoothing: 0 (USB2+H05261)
Correct for Electrical Dark: No (USB2+H05261)
Strobe/Lamp Enabled: No (USB2+H05261)
Correct for Detector Non-linearity: No (USB2+H05261)
Correct for Stray Light: No (USB2+H05261)
Number of Pixels in Processed Spectrum: 2048
>>>>>Begin Processed Spectral Data<<<<<
365.73	306.61
365.92	306.61
366.12	306.61
366.32	250.44
366.52	177.88
366.72	215.33
366.91	175.54
367.11	180.22
367.31	177.88
367.51	145.11
367.70	170.86
367.90	189.58
368.10	184.90
368.30	203.63
368.49	154.48
368.69	238.73
368.89	180.22
369.09	264.48
369.28	264.48
369.48	224.69
369.68	259.80
369.87	231.71
370.07	177.88
370.27	290.23
370.47	311.29
370.66	514.92
370.86	547.69
371.06	533.64
371.25	484.49
371.45	524.28
371.65	547.69
371.84	547.69
372.04	507.90
372.24	533.64
372.44	596.84
372.63	608.54
372.83	531.30
373.03	564.07
373.22	589.82
373.42	533.64
373.62	667.05
373.81	622.58
374.01	744.29
374.21	627.26
374.40	608.54
374.60	650.67
374.79	571.09
374.99	636.63
375.19	676.41
375.38	650.67
375.58	688.12
375.78	641.31
375.97	758.33
376.17	697.48
376.37	692.80
376.56	706.84
376.76	669.39
376.95	641.31
377.15	713.86
377.35	692.80
377.54	720.88
377.74	622.58
377.93	699.82
378.13	667.05
378.33	678.76
378.52	683.44
378.72	671.73
378.91	690.46
379.11	781.74
379.31	702.16
379.50	739.61
379.70	770.04
379.89	713.86
380.09	788.76
380.28	767.70
380.48	711.52
380.68	751.31
380.87	737.27
381.07	772.38
381.26	741.95
381.46	770.04
381.65	748.97
381.85	802.80
382.04	741.95
382.24	758.33
382.43	748.97
382.63	802.80
382.83	711.52
383.02	875.36
383.22	814.51
383.41	807.48
383.61	828.55
383.80	833.23
384.00	774.72
384.19	847.27
384.39	826.21
384.58	798.12
384.78	889.40
384.97	816.85
385.17	823.87
385.36	851.96
385.56	866.00
385.75	866.00
385.95	866.00
386.14	856.64
386.34	919.83
386.53	816.85
386.72	870.68
386.92	954.94
387.11	812.17
387.31	891.74
387.50	842.59
387.70	814.51
387.89	854.30
388.09	903.45
388.28	903.45
388.48	940.90
388.67	905.79
388.86	795.78
389.06	910.47
389.25	964.30
389.45	954.94
389.64	954.94
389.84	985.37
390.03	983.02
390.22	992.39
390.42	905.79
390.61	922.17
390.81	901.11
391.00	997.07
391.19	999.41
391.39	1048.56
391.58	1050.90
391.78	1018.13
391.97	961.96
392.16	1032.18
392.36	957.28
392.55	980.68
392.75	1071.97
392.94	947.92
393.13	1067.28
393.33	1083.67
393.52	1151.54
393.71	1109.41
393.91	1083.67
394.10	1027.50
394.29	1078.99
394.49	1102.39
394.68	1114.10
394.88	1228.78
395.07	1100.05
395.26	1144.52
395.46	1130.48
395.65	1177.29
395.84	1167.93
396.04	1205.38
396.23	1205.38
396.42	1123.46
396.62	1277.93
396.81	1153.88
397.00	1214.74
397.19	1219.42
397.39	1198.35
397.58	1301.34
397.77	1231.12
397.97	1249.85
398.16	1329.42
398.35	1242.82
398.55	1240.48
398.74	1338.79
398.93	1270.91
399.12	1306.02
399.32	1275.59
399.51	1291.98
399.70	1301.34
399.90	1329.42
400.09	1390.28
400.28	1364.53
400.47	1404.32
400.67	1366.87
400.86	1345.81
401.05	1378.58
401.24	1418.36
401.44	1413.68
401.63	1460.49
401.82	1441.77
402.01	1385.60
402.21	1565.82
402.40	1481.56
402.59	1469.86
402.78	1511.99
402.97	1570.50
403.17	1612.63
403.36	1526.03
403.55	1640.72
403.74	1629.01
403.93	1600.93
404.13	1605.61
404.32	1593.90
404.51	1657.10
404.70	1682.85
404.89	1654.76
405.09	1657.10
405.28	1675.82
405.47	1755.40
405.66	1652.42
405.85	1636.03
406.05	1783.49
406.24	1870.09
406.43	1795.19
406.62	1790.51
406.81	1802.21
407.00	1727.32
407.20	1717.95
407.39	1811.57
407.58	1905.20
407.77	1949.67
407.96	1865.41
408.15	2047.97
408.34	1802.21
408.54	1902.86
408.73	1877.11
408.92	1963.71
409.11	1975.41
409.30	1923.92
409.49	1928.60
409.68	1952.01
409.87	2038.61
410.07	2106.48
410.26	1947.33
410.45	2003.50
410.64	2146.27
410.83	2036.27
411.02	2141.59
411.21	2167.34
411.40	2146.27
411.59	2218.83
411.78	2085.42
411.98	2251.60
412.17	2267.98
412.36	2235.21
412.55	2389.69
412.74	2445.86
412.93	2389.69
413.12	2382.67
413.31	2359.26
413.50	2342.88
413.69	2359.26
413.88	2513.74
414.07	2450.54
414.26	2466.92
414.45	2462.24
414.64	2480.97
414.83	2602.68
415.02	2579.27
415.22	2630.76
415.41	2637.78
415.60	2593.31
415.79	2635.44
415.98	2792.26
416.17	2705.66
416.36	2766.51
416.55	2621.40
416.74	2787.58
416.93	2782.90
417.12	2796.94
417.31	2803.96
417.50	2869.50
417.69	2890.56
417.88	2874.18
418.07	2923.33
418.26	2913.97
418.45	3000.57
418.64	3021.63
418.83	3030.99
419.02	3002.91
419.21	3119.93
419.39	3115.25
419.58	3063.76
419.77	3038.02
419.96	3197.17
420.15	3218.24
420.34	3075.46
420.53	3162.06
420.72	3148.02
420.91	3260.37
421.10	3328.24
421.29	3302.50
421.48	3173.77
421.67	3384.41
421.86	3279.09
422.05	3375.05
422.24	3295.47
422.43	3342.28
422.61	3445.27
422.80	3522.51
422.99	3480.38
423.18	3370.37
423.37	3377.39
423.56	3307.18
423.75	3361.01
423.94	3375.05
424.13	3047.38
424.32	3274.41
424.50	3304.84
424.69	3618.47
424.88	3632.51
425.07	3403.14
425.26	3393.78
425.45	3403.14
425.64	3382.07
425.83	3328.24
426.01	3407.82
426.20	3461.65
426.39	3494.42
426.58	3564.64
426.77	3438.25
426.96	3611.45
427.15	3581.02
427.33	3644.21
427.52	3604.42
427.71	3700.39
427.90	3527.19
428.09	3562.30
428.28	3557.61
428.46	3653.58
428.65	3597.40
428.84	3782.31
429.03	3911.04
429.22	3604.42
429.40	3674.64
429.59	3684.00
429.78	3468.67
429.97	3588.04
430.16	3749.54
430.34	3775.28
430.53	3873.59
430.72	3892.31
430.91	3763.58
431.10	3840.82
431.28	3971.89
431.47	4060.83
431.66	3976.57
431.85	4011.68
432.03	4025.72
432.22	4112.32
432.41	4039.76
432.60	4021.04
432.79	4117.00
432.97	4166.15
433.16	4135.73
433.35	4095.94
433.54	4074.87
433.72	3992.95
433.91	4173.18
434.10	4177.86
434.28	4208.28
434.47	4283.18
434.66	4425.95
434.85	4369.78
435.03	4168.49
435.22	4156.79
435.41	4482.13
435.59	4432.97
435.78	4383.82
435.97	4496.17
436.16	4472.76
436.34	4475.10
436.53	4327.65
436.72	4503.19
436.90	4292.54
437.09	4425.95
437.28	4381.48
437.46	4456.38
437.65	4498.51
437.84	4587.45
438.02	4449.36
438.21	4685.75
438.40	4671.71
438.58	4779.37
438.77	4898.74
438.96	4610.86
439.14	4987.68
439.33	4765.33
439.52	5011.09
439.70	4816.82
439.89	4952.57
440.08	5018.11
440.26	5050.88
440.45	4990.02
440.63	5081.30
440.82	5181.95
441.01	5006.41
441.19	5177.26
441.38	5163.22
441.57	5256.84
441.75	5336.42
441.94	5408.98
442.12	5460.47
442.31	5474.51
442.50	5327.06
442.68	5308.34
442.87	5462.81
443.05	5406.64
443.24	5554.09
443.43	5628.99
443.61	5549.41
443.80	5666.44
443.98	5439.40
444.17	5432.38
444.35	5612.60
444.54	5535.37
444.73	5495.58
444.91	5668.78
445.10	5617.29
445.28	5636.01
445.47	5509.62
445.65	5659.42
445.84	5636.01
446.02	5977.73
446.21	5675.80
446.39	5748.36
446.58	5841.98
446.77	5776.44
446.95	5507.28
447.14	5741.33
447.32	5809.21
447.51	5694.52
447.69	5654.73
447.88	5750.70
448.06	5823.25
448.25	5748.36
448.43	5818.57
448.62	5668.78
448.80	5792.83
448.99	5898.15
449.17	5844.32
449.36	5689.84
449.54	5940.28
449.73	6019.86
449.91	6216.46
450.10	6160.29
450.28	6115.82
450.46	6181.35
450.65	6171.99
450.83	6066.67
451.02	6090.07
451.20	6221.14
451.39	6370.94
451.57	6132.20
451.76	6101.78
451.94	6279.66
452.13	6267.95
452.31	6284.34
452.49	6148.59
452.68	6274.98
452.86	6455.20
453.05	6354.55
453.23	6319.45
453.42	6363.92
453.60	6277.32
453.78	6382.64
453.97	6368.60
454.15	6352.21
454.34	6422.43
454.52	6651.80
454.70	6368.60
454.89	6633.08
455.07	6715.00
455.26	6649.46
455.44	6649.46
455.62	6672.87
455.81	6691.59
455.99	6850.75
456.17	6715.00
456.36	6836.70
456.54	6780.53
456.73	6909.26
456.91	6970.12
457.09	7007.56
457.28	7157.36
457.46	7122.25
457.64	7119.91
457.83	7166.72
458.01	6960.75
458.19	7222.89
458.38	7103.53
458.56	7335.24
458.74	7258.00
458.93	7138.63
459.11	7143.32
459.29	7145.66
459.48	7234.60
459.66	7241.62
459.84	7183.10
460.03	7438.22
460.21	7513.12
460.39	7370.35
460.57	7318.86
460.76	7281.41
460.94	7356.30
461.12	7419.50
461.31	7428.86
461.49	7384.39
461.67	7541.21
461.85	7620.78
462.04	7445.24
462.22	8147.40
462.40	7838.45
462.59	7864.20
462.77	7655.89
462.95	7824.41
463.13	7854.84
463.32	7763.56
463.50	7658.23
463.68	8042.08
463.86	7833.77
464.05	7946.12
464.23	7829.09
464.41	8030.38
464.59	7920.37
464.78	7976.55
464.96	7894.63
465.14	7981.23
465.32	8264.43
465.50	8058.46
465.69	8018.68
465.87	7981.23
466.05	8035.06
466.23	8098.25
466.41	8336.99
466.60	8234.00
466.78	7932.08
466.96	8032.72
467.14	8234.00
467.32	8238.69
467.51	8383.80
467.69	8013.99
467.87	8306.56
468.05	8489.12
468.23	8381.46
468.41	8428.27
468.60	8484.44
468.78	8568.70
468.96	8407.20
469.14	8360.39
469.32	8547.64
469.50	8472.74
469.69	8608.49
469.87	8727.86
470.05	8784.03
470.23	8662.32
470.41	8641.26
470.59	8774.67
470.77	8786.37
470.95	8919.78
471.14	9064.89
471.32	8863.61
471.50	8950.21
471.68	8793.39
471.86	9167.88
472.04	9193.62
472.22	9268.52
472.40	9008.72
472.58	9289.59
472.77	9277.88
472.95	9549.39
473.13	9650.03
473.31	9366.82
473.49	9245.12
473.67	9563.43
473.85	9544.70
474.03	9729.61
474.21	9750.67
474.39	9863.02
474.57	9966.00
474.75	9738.97
474.93	10019.83
475.12	9678.12
475.30	10164.95
475.48	9973.02
475.66	10061.96
475.84	10108.77
476.02	9984.73
476.20	10167.29
476.38	10525.39
476.56	10637.73
476.74	10537.09
476.92	10640.08
477.10	10363.89
477.28	10789.87
477.46	10611.99
477.64	10684.55
477.82	10923.28
478.00	10965.41
478.18	11012.22
478.36	11197.12
478.54	11370.32
478.72	11426.50
478.90	11583.31
479.08	11524.80
479.26	11520.12
479.44	11674.59
479.62	11786.94
479.80	12070.14
479.98	11847.79
480.16	12152.06
480.34	12044.40
480.52	12400.16
480.70	12318.24
480.88	11957.80
481.06	12585.06
481.24	12435.27
481.41	12542.93
481.59	12779.32
481.77	12725.49
481.95	12844.86
482.13	13060.19
482.31	12788.69
482.49	13092.96
482.67	13425.31
482.85	13268.50
483.03	13488.51
483.21	13556.38
483.39	13619.58
483.57	13750.65
483.74	14075.98
483.92	13987.04
484.10	13790.44
484.28	14265.57
484.46	14422.38
484.64	14546.43
484.82	14623.67
485.00	14546.43
485.18	14881.13
485.35	15094.11
485.53	14906.87
485.71	15028.58
485.89	15445.20
486.07	15147.95
486.25	15309.44
486.43	15592.65
486.61	15744.78
486.78	15616.05
486.96	15435.83
487.14	16269.06
487.32	16243.32
487.50	16030.33
487.68	16510.14
487.85	16540.57
488.03	16793.34
488.21	16919.73
488.39	17046.12
488.57	16924.41
488.75	17104.64
488.92	17397.20
489.10	17329.33
489.28	17642.96
489.46	18012.76
489.64	17671.04
489.81	18134.47
489.99	18031.49
490.17	18366.18
490.35	18181.28
490.53	18256.18
490.70	18544.06
490.88	18513.64
491.06	18754.71
491.24	18595.56
491.41	19033.24
491.59	19096.43
491.77	19129.20
491.95	19564.54
492.13	19583.26
492.30	19721.35
492.48	19639.44
492.66	19655.82
492.84	20060.73
493.01	19948.39
493.19	19777.53
493.37	20147.33
493.54	20137.97
493.72	20702.04
493.90	20393.09
494.08	20744.17
494.25	20809.70
494.43	20898.64
494.61	21069.50
494.79	21085.89
494.96	20957.16
495.14	21352.71
495.32	21598.46
495.49	21741.24
495.67	21799.75
495.85	22092.32
496.02	22094.66
496.20	22565.10
496.38	22141.47
496.55	22190.62
496.73	23019.17
496.91	22906.82
497.09	23002.78
497.26	22878.74
497.44	22794.48
497.62	23005.13
497.79	23475.57
497.97	23183.01
498.14	23414.72
498.32	23681.54
498.50	23665.16
498.67	24180.07
498.85	23557.49
499.03	24425.83
499.20	24091.13
499.38	24191.78
499.56	24233.91
499.73	24449.24
499.91	24482.00
500.08	24568.60
500.26	24545.20
500.44	24470.30
500.61	24648.18
500.79	24863.51
500.97	24945.43
501.14	25153.74
501.32	25357.36
501.49	25362.04
501.67	25495.46
501.84	25525.88
502.02	25411.20
502.20	25600.78
502.37	25338.64
502.55	25362.04
502.72	25717.81
502.90	25734.19
503.07	25649.93
503.25	26094.63
503.43	25909.73
503.60	26483.16
503.78	26335.71
503.95	26321.66
504.13	25972.92
504.30	26672.74
504.48	26714.87
504.65	26984.04
504.83	27321.07
505.01	26906.80
505.18	26773.39
505.36	27400.65
505.53	27264.90
505.71	27225.11
505.88	27637.05
506.06	27194.68
506.23	27278.94
506.41	27445.12
506.58	27791.52
506.76	27730.67
506.93	27974.08
507.11	28161.33
507.28	28395.38
507.46	27868.76
507.63	28222.18
507.81	28416.44
507.98	28379.00
508.16	28299.42
508.33	28453.89
508.50	28816.68
508.68	28713.69
508.85	28767.52
509.03	28929.02
509.20	28797.95
509.38	29392.45
509.55	29188.82
509.73	29039.03
509.90	29373.72
510.08	29170.10
510.25	29357.34
510.42	29518.84
510.60	29621.82
510.77	29776.30
510.95	29979.92
511.12	29886.30
511.30	29914.39
511.47	29848.85
511.64	30073.54
511.82	30314.62
511.99	30005.67
512.17	30497.18
512.34	30307.60
512.51	30230.36
512.69	30677.40
512.86	30735.92
513.04	30946.56
513.21	31344.45
513.38	31009.76
513.56	31026.14
513.73	30637.61
513.90	31215.72
514.08	31255.51
514.25	31440.42
514.43	31475.52
514.60	31213.38
514.77	31658.09
514.95	31807.88
515.12	31555.10
515.29	31232.11
515.47	31637.02
515.64	32032.57
515.81	31868.73
515.99	32093.43
516.16	32385.99
516.33	32182.37
516.51	32711.33
516.68	32114.49
516.85	32219.81
517.03	33029.64
517.20	32601.32
517.37	32432.80
517.54	32818.99
517.72	32996.87
517.89	32933.68
518.06	32753.46
518.24	32973.47
518.41	33364.34
518.58	32868.14
518.75	33001.55
518.93	33481.36
519.10	33406.47
519.27	33156.03
519.45	33254.33
519.62	33483.70
519.79	34043.09
519.96	33469.66
520.14	33684.99
520.31	33708.40
520.48	33649.88
520.65	34007.98
520.83	34127.35
521.00	34356.72
521.17	34281.83
521.34	34356.72
521.52	34417.58
521.69	34810.79
521.86	34892.71
522.03	34829.51
522.20	34834.19
522.38	35314.00
522.55	35129.10
522.72	34939.52
522.89	35058.88
523.07	35166.55
523.24	35321.02
523.41	35491.88
523.58	35065.91
523.75	35072.93
523.92	34979.31
524.10	35283.58
524.27	35632.32
524.44	35550.40
524.61	35363.15
524.78	35992.76
524.96	36025.53
525.13	35969.35
525.30	36011.48
525.47	36018.50
525.64	35524.65
525.81	36013.82
525.98	36273.62
526.16	36360.22
526.33	36067.66
526.50	36615.34
526.67	35957.65
526.84	36268.94
527.01	36142.55
527.18	36648.11
527.36	36542.78
527.53	36371.92
527.70	36676.19
527.87	37099.83
528.04	36659.81
528.21	36697.26
528.38	37174.73
528.55	36985.15
528.72	36900.89
528.89	37022.59
529.07	36825.99
529.24	37378.36
529.41	37490.70
529.58	37722.41
529.75	37612.41
529.92	37343.25
530.09	37504.74
530.26	37837.10
530.43	37235.58
530.60	37312.82
530.77	37893.27
530.94	38120.31
531.11	37570.28
531.28	38054.77
531.46	37776.25
531.63	37954.13
531.80	38036.05
531.97	38220.95
532.14	38471.39
532.31	38242.01
532.48	38836.51
532.65	38625.86
532.82	38422.23
532.99	38356.70
533.16	38464.36
533.33	38480.75
533.50	38574.37
533.67	38485.43
533.84	38429.26
534.01	38838.85
534.18	38740.55
534.35	39178.23
534.52	39143.12
534.69	39033.11
534.86	39466.11
535.03	38799.06
535.20	39318.66
535.37	39318.66
535.54	39735.27
535.71	39533.99
535.88	39789.11
536.05	39643.99
536.22	39929.54
536.38	39220.36
536.55	39370.15
536.72	39735.27
536.89	39878.05
537.06	39412.28
537.23	39955.29
537.40	39533.99
537.57	39658.04
537.74	39615.91
537.91	40449.14
538.08	40030.18
538.25	40002.10
538.42	40084.01
538.59	40521.69
538.75	40051.25
538.92	40498.29
539.09	40739.36
539.26	40189.34
539.43	40194.02
539.60	40701.92
539.77	40568.51
539.94	40421.05
540.11	40381.26
540.28	41003.85
540.44	40662.13
540.61	40278.28
540.78	40942.99
540.95	40622.34
541.12	40840.01
541.29	40718.30
541.46	40603.61
541.62	41294.07
541.79	41031.93
541.96	40818.94
542.13	40940.65
542.30	40727.66
542.47	41221.52
542.63	41071.72
542.80	41762.18
542.97	41621.75
543.14	41715.37
543.31	41481.31
543.48	41546.85
543.64	42092.19
543.81	42344.97
543.98	42167.09
544.15	41911.97
544.32	42005.59
544.48	42518.17
544.65	41949.42
544.82	42335.61
544.99	41825.37
545.16	42349.65
545.32	42504.13
545.49	42223.26
545.66	42803.72
545.83	42485.40
546.00	42403.49
546.16	42450.30
546.33	42440.93
546.50	42068.79
546.67	42574.34
546.83	42429.23
547.00	42206.88
547.17	42447.96
547.34	42696.05
547.50	42916.06
547.67	43255.44
547.84	43236.72
548.00	42946.49
548.17	43709.50
548.34	43215.65
548.51	43016.71
548.67	42974.58
548.84	42925.42
549.01	43236.72
549.18	43407.58
549.34	43391.19
549.51	43248.42
549.68	43449.70
549.84	43187.56
550.01	43779.72
550.18	43063.52
550.34	43285.87
550.51	43810.15
550.68	43650.99
550.84	43592.48
551.01	43981.01
551.18	43445.02
551.34	43332.68
551.51	43894.41
551.68	43517.58
551.84	43770.36
552.01	43863.98
552.18	43887.39
552.34	43377.15
552.51	44130.80
552.68	43842.92
552.84	44119.10
553.01	44037.18
553.18	43990.37
553.34	43819.51
553.51	44245.49
553.67	44147.18
553.84	44556.78
554.01	44081.65
554.17	43945.90
554.34	44573.16
554.51	44261.87
554.67	44519.33
554.84	44615.29
555.00	44292.30
555.17	44406.98
555.33	44339.11
555.50	44514.65
555.67	44327.41
555.83	44643.38
556.00	44666.78
556.16	45024.89
556.33	44790.83
556.50	45013.18
556.66	44989.78
556.83	44563.80
556.99	45141.91
557.16	45219.15
557.32	44687.85
557.49	45036.59
557.65	45193.40
557.82	44898.50
557.98	45125.53
558.15	45186.38
558.32	45223.83
558.48	45099.78
558.65	45055.31
558.81	45242.56
558.98	45132.55
559.14	44734.66
559.31	45378.31
559.47	44753.38
559.64	45153.62
559.80	45261.28
559.97	45467.25
560.13	45263.62
560.30	45535.12
560.46	45329.16
560.63	45551.51
560.79	45996.21
560.96	45642.79
561.12	45507.04
561.29	45633.42
561.45	45523.42
561.61	45397.03
561.78	45537.46
561.94	45556.19
562.11	45584.27
562.27	45551.51
562.44	45539.80
562.60	45705.98
562.77	46178.77
562.93	45731.73
563.10	45933.01
563.26	45570.23
563.42	45794.92
563.59	45478.95
563.75	45427.46
563.92	45436.82
564.08	45935.35
564.24	46061.74
564.41	45867.48
564.57	46148.34
564.74	45947.06
564.90	45661.51
565.07	45799.60
565.23	46043.02
565.39	45825.35
565.56	46150.68
565.72	46171.75
565.88	46057.06
566.05	45916.63
566.21	46248.99
566.38	45876.84
566.54	46422.19
566.70	46447.93
566.87	45923.65
567.03	46080.47
567.19	45930.67
567.36	46000.89
567.52	45862.80
567.68	46071.10
567.85	46050.04
568.01	46223.24
568.17	46347.29
568.34	46199.83
568.50	46314.52
568.66	46021.95
568.83	46424.53
568.99	46267.71
569.15	46401.12
569.32	46246.65
569.48	46616.45
569.64	46541.55
569.81	46361.33
569.97	46127.28
570.13	46431.55
570.30	46284.09
570.46	46361.33
570.62	46382.40
570.78	46337.93
570.95	46136.64
571.11	46904.34
571.27	46333.24
571.43	46466.66
571.60	46527.51
571.76	46424.53
571.92	46265.37
572.09	46485.38
572.25	46476.02
572.41	46445.59
572.57	46909.02
572.74	46927.74
572.90	47014.34
573.06	46506.44
573.22	46997.96
573.38	47042.43
573.55	47016.68
573.71	47229.67
573.87	46672.62
574.03	46892.63
574.20	47416.91
574.36	46815.40
574.52	46990.94
574.68	46829.44
574.84	46836.46
575.01	46958.17
575.17	46651.56
575.33	46705.39
575.49	46574.32
575.65	46930.08
575.82	46925.40
575.98	46838.80
576.14	47477.77
576.30	47023.70
576.46	46773.27
576.62	46642.20
576.79	46955.83
576.95	46272.39
577.11	47112.64
577.27	46766.24
577.43	46569.64
577.59	46930.08
577.75	46480.70
577.92	46953.49
578.08	47091.58
578.24	46986.25
578.40	47344.36
578.56	46822.42
578.72	47065.83
578.88	47065.83
579.04	46897.31
579.21	46803.69
579.37	47164.14
579.53	47051.79
579.69	46389.42
579.85	47021.36
580.01	47327.97
580.17	46827.10
580.33	47040.09
580.49	46932.42
580.65	47166.48
580.82	46850.50
580.98	46590.70
581.14	46841.14
581.30	47009.66
581.46	47082.22
581.62	46967.53
581.78	46459.63
581.94	46864.55
582.10	46941.78
582.26	47393.51
582.42	46892.63
582.58	47246.05
582.74	47150.09
582.90	46958.17
583.06	47276.48
583.22	47009.66
583.38	47297.55
583.54	47035.41
583.70	47316.27
583.86	47295.21
584.02	47199.24
584.18	47676.71
584.34	47089.24
584.50	47199.24
584.66	47466.06
584.82	47632.24
584.98	47908.43
585.14	47290.52
585.30	47262.44
585.46	47206.26
585.62	46864.55
585.78	47657.99
585.94	46988.60
586.10	47243.71
586.26	47363.08
586.42	47395.85
586.58	47353.72
586.74	47278.82
586.90	47117.32
587.06	46995.62
587.22	47452.02
587.38	47274.14
587.54	47559.69
587.70	47683.73
587.86	47213.29
588.02	47114.98
588.18	47047.11
588.34	47435.64
588.49	47091.58
588.65	47173.50
588.81	47400.53
588.97	47063.49
589.13	47274.14
589.29	47428.62
589.45	47697.78
589.61	47442.66
589.77	47730.54
589.93	47702.46
590.08	47913.11
