SpectraSuite Data File
++++++++++++++++++++++++++++++++++++
Date: Fri Oct 25 11:33:23 EDT 2013
User: price-jones
Dark Spectrum Present: No
Reference Spectrum Present: No
Number of Sampled Component Spectra: 1
Spectrometers: USB2+H05261
Integration Time (usec): 100000 (USB2+H05261)
Spectra Averaged: 1 (USB2+H05261)
Boxcar Smoothing: 0 (USB2+H05261)
Correct for Electrical Dark: No (USB2+H05261)
Strobe/Lamp Enabled: No (USB2+H05261)
Correct for Detector Non-linearity: No (USB2+H05261)
Correct for Stray Light: No (USB2+H05261)
Number of Pixels in Processed Spectrum: 2048
>>>>>Begin Processed Spectral Data<<<<<
365.73	318.31
365.92	318.31
366.12	318.31
366.32	168.52
366.52	168.52
366.72	229.37
366.91	177.88
367.11	191.92
367.31	198.95
367.51	156.82
367.70	161.50
367.90	262.14
368.10	187.24
368.30	170.86
368.49	210.65
368.69	250.44
368.89	147.45
369.09	203.63
369.28	201.29
369.48	257.46
369.68	250.44
369.87	243.42
370.07	145.11
370.27	255.12
370.47	353.42
370.66	440.02
370.86	472.79
371.06	531.30
371.25	599.18
371.45	484.49
371.65	559.39
371.84	458.74
372.04	559.39
372.24	594.50
372.44	603.86
372.63	599.18
372.83	566.41
373.03	552.37
373.22	573.43
373.42	582.79
373.62	676.41
373.81	594.50
374.01	711.52
374.21	657.69
374.40	559.39
374.60	613.22
374.79	678.76
374.99	615.56
375.19	641.31
375.38	702.16
375.58	589.82
375.78	685.78
375.97	674.07
376.17	697.48
376.37	690.46
376.56	706.84
376.76	587.47
376.95	662.37
377.15	601.52
377.35	718.54
377.54	629.60
377.74	720.88
377.93	667.05
378.13	669.39
378.33	667.05
378.52	688.12
378.72	741.95
378.91	765.36
379.11	676.41
379.31	713.86
379.50	650.67
379.70	784.08
379.89	748.97
380.09	746.63
380.28	716.20
380.48	737.27
380.68	678.76
380.87	791.10
381.07	791.10
381.26	854.30
381.46	828.55
381.65	770.04
381.85	748.97
382.04	741.95
382.24	887.06
382.43	828.55
382.63	823.87
382.83	746.63
383.02	732.59
383.22	835.57
383.41	772.38
383.61	830.89
383.80	833.23
384.00	772.38
384.19	863.66
384.39	901.11
384.58	833.23
384.78	821.53
384.97	837.91
385.17	791.10
385.36	866.00
385.56	802.80
385.75	877.70
385.95	840.25
386.14	849.61
386.34	812.17
386.53	938.55
386.72	866.00
386.92	966.64
387.11	922.17
387.31	901.11
387.50	851.96
387.70	887.06
387.89	833.23
388.09	924.51
388.28	884.72
388.48	926.85
388.67	919.83
388.86	842.59
389.06	894.08
389.25	816.85
389.45	1041.54
389.64	992.39
389.84	957.28
390.03	1018.13
390.22	945.58
390.42	924.51
390.61	1015.79
390.81	1006.43
391.00	887.06
391.19	976.00
391.39	994.73
391.58	973.66
391.78	983.02
391.97	1008.77
392.16	1025.15
392.36	1057.92
392.55	987.71
392.75	1060.26
392.94	1032.18
393.13	1100.05
393.33	1060.26
393.52	1006.43
393.71	1078.99
393.91	1050.90
394.10	1125.80
394.29	1039.20
394.49	1128.14
394.68	1069.62
394.88	1158.57
395.07	1212.40
395.26	1179.63
395.46	1188.99
395.65	1200.69
395.84	1214.74
396.04	1249.85
396.23	1235.80
396.42	1179.63
396.62	1191.33
396.81	1198.35
397.00	1160.91
397.19	1228.78
397.39	1212.40
397.58	1249.85
397.77	1214.74
397.97	1181.97
398.16	1207.72
398.35	1385.60
398.55	1296.66
398.74	1273.25
398.93	1191.33
399.12	1348.15
399.32	1266.23
399.51	1380.92
399.70	1392.62
399.90	1380.92
400.09	1432.41
400.28	1404.32
400.47	1336.45
400.67	1423.05
400.86	1348.15
401.05	1310.70
401.24	1465.18
401.44	1390.28
401.63	1383.26
401.82	1465.18
402.01	1465.18
402.21	1535.39
402.40	1497.94
402.59	1423.05
402.78	1577.52
402.97	1584.54
403.17	1446.45
403.36	1612.63
403.55	1657.10
403.74	1561.14
403.93	1614.97
404.13	1675.82
404.32	1668.80
404.51	1586.88
404.70	1654.76
404.89	1675.82
405.09	1753.06
405.28	1760.08
405.47	1589.22
405.66	1703.91
405.85	1739.02
406.05	1706.25
406.24	1778.81
406.43	1771.79
406.62	1788.17
406.81	1760.08
407.00	1830.30
407.20	1806.89
407.39	1781.15
407.58	1842.00
407.77	1884.13
407.96	1881.79
408.15	1921.58
408.34	1905.20
408.54	1907.54
408.73	1949.67
408.92	1984.77
409.11	1963.71
409.30	1947.33
409.49	1888.81
409.68	1987.11
409.87	1956.69
410.07	2010.52
410.26	2153.29
410.45	2101.80
410.64	2111.16
410.83	2153.29
411.02	2062.01
411.21	2101.80
411.40	2172.02
411.59	2251.60
411.78	2190.74
411.98	2251.60
412.17	2296.07
412.36	2303.09
412.55	2312.45
412.74	2387.35
412.93	2408.41
413.12	2396.71
413.31	2527.78
413.50	2415.43
413.69	2420.11
413.88	2506.71
414.07	2525.44
414.26	2637.78
414.45	2569.91
414.64	2572.25
414.83	2483.31
415.02	2586.29
415.22	2722.04
415.41	2764.17
415.60	2546.50
415.79	2754.81
415.98	2764.17
416.17	2686.94
416.36	2722.04
416.55	2743.11
416.74	2855.45
416.93	2792.26
417.12	2787.58
417.31	2867.16
417.50	2974.82
417.69	3005.25
417.88	3052.06
418.07	3033.33
418.26	2906.95
418.45	2946.73
418.64	3239.30
418.83	2988.86
419.02	3105.89
419.21	3239.30
419.39	3014.61
419.58	3023.97
419.77	3133.98
419.96	3091.85
420.15	3166.74
420.34	3089.51
420.53	3112.91
420.72	3241.64
420.91	3318.88
421.10	3356.33
421.29	3267.39
421.48	3314.20
421.67	3206.53
421.86	3311.86
422.05	3405.48
422.24	3316.54
422.43	3304.84
422.61	3393.78
422.80	3543.57
422.99	3407.82
423.18	3417.18
423.37	3449.95
423.56	3398.46
423.75	3405.48
423.94	3288.45
424.13	3220.58
424.32	3398.46
424.50	3382.07
424.69	3648.90
424.88	3590.38
425.07	3358.67
425.26	3386.76
425.45	3405.48
425.64	3517.83
425.83	3307.18
426.01	3585.70
426.20	3454.63
426.39	3545.91
426.58	3400.80
426.77	3452.29
426.96	3459.31
427.15	3684.00
427.33	3606.77
427.52	3644.21
427.71	3630.17
427.90	3566.98
428.09	3712.09
428.28	3637.19
428.46	3747.20
428.65	3595.06
428.84	3969.55
429.03	3859.54
429.22	3714.43
429.40	3833.80
429.59	3716.77
429.78	3590.38
429.97	3662.94
430.16	3719.11
430.34	3843.16
430.53	3964.87
430.72	3939.12
430.91	3915.72
431.10	3873.59
431.28	3833.80
431.47	4081.89
431.66	4060.83
431.85	3875.93
432.03	4042.11
432.22	4184.88
432.41	3976.57
432.60	4170.83
432.79	4138.07
432.97	4241.05
433.16	4037.42
433.35	4189.56
433.54	4135.73
433.72	4329.99
433.91	4365.10
434.10	4294.88
434.28	4367.44
434.47	4173.18
434.66	4376.80
434.85	4287.86
435.03	4386.16
435.22	4397.87
435.41	4400.21
435.59	4477.44
435.78	4367.44
435.97	4472.76
436.16	4416.59
436.34	4440.00
436.53	4533.62
436.72	4664.69
436.90	4564.04
437.09	4615.54
437.28	4395.53
437.46	4524.26
437.65	4652.98
437.84	4791.08
438.02	4655.33
438.21	4627.24
438.40	4678.73
438.58	4826.18
438.77	4833.21
438.96	4788.74
439.14	4744.27
439.33	4905.76
439.52	5015.77
439.70	4985.34
439.89	5123.43
440.08	5029.81
440.26	4971.30
440.45	5125.77
440.63	5174.92
440.82	5212.37
441.01	5083.64
441.19	5153.86
441.38	5160.88
441.57	5345.78
441.75	5240.46
441.94	5392.59
442.12	5364.51
442.31	5483.88
442.50	5586.86
442.68	5416.00
442.87	5458.13
443.05	5453.45
443.24	5603.24
443.43	5631.33
443.61	5659.42
443.80	5832.62
443.98	5488.56
444.17	5317.70
444.35	5617.29
444.54	5729.63
444.73	5638.35
444.91	5668.78
445.10	5600.90
445.28	5633.67
445.47	5746.02
445.65	5685.16
445.84	5767.08
446.02	5841.98
446.21	5820.91
446.39	5722.61
446.58	5738.99
446.77	5923.90
446.95	5685.16
447.14	5762.40
447.32	5863.04
447.51	5790.49
447.69	5839.64
447.88	5827.93
448.06	5944.96
448.25	5963.68
448.43	5879.43
448.62	5816.23
448.80	5724.95
448.99	6094.76
449.17	5832.62
449.36	5926.24
449.54	5947.30
449.73	6143.91
449.91	6120.50
450.10	6101.78
450.28	6083.05
450.46	6260.93
450.65	6106.46
450.83	6211.78
451.02	6134.54
451.20	6155.61
451.39	6214.12
451.57	6157.95
451.76	6143.91
451.94	6239.87
452.13	6246.89
452.31	6387.32
452.49	6303.06
452.68	6424.77
452.86	6380.30
453.05	6368.60
453.23	6373.28
453.42	6420.09
453.60	6249.23
453.78	6612.01
453.97	6396.68
454.15	6424.77
454.34	6399.02
454.52	6441.15
454.70	6525.41
454.89	6731.38
455.07	6663.51
455.26	6551.16
455.44	6572.22
455.62	6766.49
455.81	6738.40
455.99	6778.19
456.17	6885.86
456.36	6768.83
456.54	6750.10
456.73	7019.27
456.91	7220.55
457.09	6984.16
457.28	7115.23
457.46	6927.99
457.64	6942.03
457.83	7110.55
458.01	7105.87
458.19	7363.33
458.38	7140.97
458.56	7157.36
458.74	7363.33
458.93	7145.66
459.11	7349.28
459.29	7208.85
459.48	7396.09
459.66	7356.30
459.84	7337.58
460.03	7583.34
460.21	7358.64
460.39	7269.70
460.57	7449.93
460.76	7353.96
460.94	7545.89
461.12	7559.93
461.31	7646.53
461.49	7606.74
461.67	7627.81
461.85	7808.03
462.04	7557.59
462.22	8191.88
462.40	7957.82
462.59	7700.36
462.77	7981.23
462.95	8065.49
463.13	7829.09
463.32	7796.32
463.50	8116.98
463.68	7964.84
463.86	8077.19
464.05	8067.83
464.23	7992.93
464.41	8030.38
464.59	7868.88
464.78	8170.81
464.96	8100.59
465.14	7925.05
465.32	8131.02
465.50	8184.85
465.69	8226.98
465.87	7995.27
466.05	8187.19
466.23	8334.65
466.41	8287.84
466.60	8248.05
466.78	8194.22
466.96	8112.30
467.14	8231.66
467.32	8430.61
467.51	8517.21
467.69	8334.65
467.87	8411.89
468.05	8381.46
468.23	8334.65
468.41	8259.75
468.60	8468.06
468.78	8568.70
468.96	8514.87
469.14	8674.03
469.32	8777.01
469.50	8334.65
469.69	8772.33
469.87	8833.18
470.05	8788.71
470.23	8781.69
470.41	8833.18
470.59	8929.14
470.77	8961.91
470.95	8980.64
471.14	9036.81
471.32	8858.93
471.50	9083.62
471.68	8844.88
471.86	9013.40
472.04	9097.66
472.22	9303.63
472.40	9380.87
472.58	9139.79
472.77	9460.45
472.95	9584.49
473.13	9696.84
473.31	9504.92
473.49	9277.88
473.67	9345.76
473.85	9535.34
474.03	9635.99
474.21	9596.20
474.39	9848.97
474.57	9593.86
474.75	9888.76
474.93	10012.81
475.12	9975.36
475.30	10108.77
475.48	10092.39
475.66	10157.92
475.84	10118.14
476.02	10057.28
476.20	10370.91
476.38	10672.84
476.56	10752.42
476.74	10581.56
476.92	10684.55
477.10	10424.75
477.28	10576.88
477.46	10817.96
477.64	10991.16
477.82	11035.63
478.00	11190.10
478.18	11052.01
478.36	11169.04
478.54	11309.47
478.72	11360.96
478.90	11623.10
479.08	11716.72
479.26	11761.19
479.44	11679.27
479.62	12049.08
479.80	12081.85
479.98	11918.01
480.16	12208.23
480.34	12243.34
480.52	12524.21
480.70	12507.82
480.88	12304.20
481.06	12662.30
481.24	12327.60
481.41	12531.23
481.59	12697.41
481.77	12950.18
481.95	12720.81
482.13	13298.92
482.31	13186.58
482.49	13652.34
482.67	13167.85
482.85	13745.97
483.03	13659.37
483.21	13781.07
483.39	13923.85
483.57	13558.72
483.74	13738.94
483.92	14157.90
484.10	14101.73
484.28	14438.76
484.46	14644.73
484.64	14546.43
484.82	14668.14
485.00	14803.89
485.18	15082.41
485.35	15337.53
485.53	15051.99
485.71	15236.89
485.89	15496.69
486.07	15281.36
486.25	15651.16
486.43	15522.43
486.61	16006.92
486.78	15943.73
486.96	16053.73
487.14	16596.74
487.32	16437.58
487.50	16407.16
487.68	16545.25
487.85	16896.33
488.03	16460.99
488.21	17245.07
488.39	17029.74
488.57	17088.25
488.75	17504.87
488.92	17441.67
489.10	17415.93
489.28	17570.40
489.46	17865.31
489.64	17818.50
489.81	18368.52
489.99	18581.51
490.17	18162.56
490.35	18593.22
490.53	18906.85
490.70	18656.41
490.88	18731.31
491.06	18984.09
491.24	19105.79
491.41	19154.94
491.59	19297.72
491.77	19297.72
491.95	19433.47
492.13	19604.33
492.30	19730.72
492.48	19878.17
492.66	20084.14
492.84	20004.56
493.01	20252.66
493.19	20355.64
493.37	20519.48
493.54	20489.05
493.72	20566.29
493.90	20561.61
494.08	21151.42
494.25	21088.23
494.43	21050.78
494.61	21200.57
494.79	21238.02
494.96	21537.61
495.14	21600.80
495.32	21954.22
495.49	21968.27
495.67	21977.63
495.85	22286.58
496.02	22113.38
496.20	22354.46
496.38	22544.04
496.55	22787.46
496.73	23112.79
496.91	22785.12
497.09	23150.24
497.26	22906.82
497.44	23199.39
497.62	23087.04
497.79	23309.40
497.97	23634.73
498.14	23819.63
498.32	23672.18
498.50	23922.62
498.67	24095.82
498.85	23740.05
499.03	24133.26
499.20	24180.07
499.38	24692.65
499.56	24907.98
499.73	24627.12
499.91	24872.87
500.08	24809.68
500.26	24819.04
500.44	25060.12
500.61	25132.67
500.79	24856.49
500.97	25465.03
501.14	25656.95
501.32	25362.04
501.49	25333.96
501.67	25652.27
501.84	25858.24
502.02	25977.61
502.20	25876.96
502.37	26085.27
502.55	25823.13
502.72	26073.57
502.90	26143.78
503.07	26148.46
503.25	26246.77
503.43	26106.34
503.60	26948.93
503.78	26993.40
503.95	26518.27
504.13	26637.64
504.30	27395.97
504.48	26726.58
504.65	26995.74
504.83	27063.61
505.01	27227.45
505.18	27199.37
505.36	27683.86
505.53	27250.86
505.71	27585.55
505.88	27721.30
506.06	27847.69
506.23	28100.47
506.41	27587.89
506.58	27707.26
506.76	28128.56
506.93	28102.81
507.11	28236.22
507.28	28343.89
507.46	28357.93
507.63	28685.61
507.81	28809.65
507.98	28481.98
508.16	28526.45
508.33	29055.41
508.50	29305.85
508.68	28692.63
508.85	29170.10
509.03	29151.37
509.20	29429.90
509.38	29338.62
509.55	29326.91
509.73	29493.09
509.90	29633.52
510.08	29558.63
510.25	29919.07
510.42	30050.14
510.60	29603.10
510.77	30412.92
510.95	30396.54
511.12	29949.50
511.30	29923.75
511.47	30438.67
511.64	30113.33
511.82	30766.34
511.99	30473.78
512.17	30686.76
512.34	30656.34
512.51	30897.41
512.69	31054.23
512.86	30984.01
513.04	31302.32
513.21	30981.67
513.38	31250.83
513.56	31438.08
513.73	31302.32
513.90	30981.67
514.08	31215.72
514.25	31866.39
514.43	31828.95
514.60	31679.15
514.77	31747.03
514.95	32048.96
515.12	31889.80
515.29	32360.25
515.47	32079.38
515.64	32290.03
515.81	32088.74
515.99	32575.58
516.16	32463.23
516.33	32397.70
516.51	32900.91
516.68	32500.68
516.85	33263.69
517.03	32460.89
517.20	33083.47
517.37	32818.99
517.54	33233.27
517.72	33111.56
517.89	33237.95
518.06	33572.64
518.24	32992.19
518.41	33268.37
518.58	33273.06
518.75	33331.57
518.93	33518.81
519.10	33464.98
519.27	33584.35
519.45	33617.11
519.62	34029.05
519.79	34139.05
519.96	33909.68
520.14	34192.89
520.31	34178.84
520.48	34143.74
520.65	34176.50
520.83	34824.83
521.00	34527.58
521.17	34738.23
521.34	34616.52
521.52	34981.65
521.69	34457.37
521.86	35026.12
522.03	34962.92
522.20	35204.00
522.38	35482.52
522.55	35742.32
522.72	35201.66
522.89	35337.41
523.07	35599.55
523.24	35629.98
523.41	35634.66
523.58	35243.79
523.75	35735.30
523.92	35967.01
524.10	35873.39
524.27	35674.45
524.44	35660.40
524.61	36130.85
524.78	36271.28
524.96	36339.16
525.13	36727.69
525.30	36563.85
525.47	36320.43
525.64	36154.26
525.81	36589.59
525.98	36706.62
526.16	36620.02
526.33	36718.32
526.50	36886.84
526.67	36814.29
526.84	36905.57
527.01	37148.98
527.18	36898.55
527.36	37141.96
527.53	36985.15
527.70	37589.00
527.87	37280.05
528.04	37364.31
528.21	37422.83
528.38	37361.97
528.55	38054.77
528.72	37092.81
528.89	37460.27
529.07	37160.69
529.24	37053.02
529.41	38150.73
529.58	37659.22
529.75	37851.14
529.92	37755.18
530.09	37457.93
530.26	37982.21
530.43	38242.01
530.60	37893.27
530.77	38094.56
530.94	38483.09
531.11	38052.43
531.28	37909.66
531.46	38087.54
531.63	38630.54
531.80	38562.67
531.97	38677.35
532.14	38703.10
532.31	38314.57
532.48	38988.64
532.65	38831.83
532.82	38817.78
532.99	39140.78
533.16	38557.99
533.33	38574.37
533.50	39089.29
533.67	39274.19
533.84	38944.17
534.01	39086.95
534.18	38897.36
534.35	39894.43
534.52	39227.38
534.69	39651.02
534.86	39725.91
535.03	39604.20
535.20	39580.80
535.37	39594.84
535.54	39997.41
535.71	39978.69
535.88	39613.57
536.05	40261.90
536.22	40362.54
536.38	39847.62
536.55	39997.41
536.72	39852.30
536.89	40067.63
537.06	40128.48
537.23	40304.02
537.40	40203.38
537.57	40072.31
537.74	39889.75
537.91	40720.64
538.08	40364.88
538.25	40575.53
538.42	40526.38
538.59	40453.82
538.75	40683.19
538.92	40818.94
539.09	40563.82
539.26	40800.22
539.43	40730.00
539.60	41184.07
539.77	40999.16
539.94	40912.56
540.11	41361.95
540.28	41111.51
540.44	41317.48
540.61	40954.69
540.78	40982.78
540.95	40982.78
541.12	41588.98
541.29	40896.18
541.46	41478.97
541.62	41368.97
541.79	41975.17
541.96	41219.17
542.13	40858.73
542.30	41457.91
542.47	41434.50
542.63	42080.49
542.80	41902.61
542.97	42000.91
543.14	42143.69
543.31	41958.78
543.48	42260.71
543.64	42770.95
543.81	42169.43
543.98	42307.52
544.15	42213.90
544.32	42244.33
544.48	43054.15
544.65	42829.46
544.82	42583.71
544.99	42347.31
545.16	42674.99
545.32	42532.22
545.49	43140.75
545.66	43103.31
545.83	42930.11
546.00	42878.61
546.16	42796.70
546.33	42724.14
546.50	42738.18
546.67	42993.30
546.83	42794.36
547.00	43028.41
547.17	42768.61
547.34	43269.48
547.50	42981.60
547.67	43475.45
547.84	43491.83
548.00	43103.31
548.17	43798.44
548.34	43749.29
548.51	43538.65
548.67	43690.78
548.84	43384.17
549.01	43454.39
549.18	43180.54
549.34	44215.06
549.51	43859.30
549.68	43763.34
549.84	43391.19
550.01	43906.11
550.18	43580.78
550.34	43606.52
550.51	43555.03
550.68	44041.86
550.84	43690.78
551.01	44472.52
551.18	44046.54
551.34	43683.76
551.51	43950.58
551.68	44203.36
551.84	44123.78
552.01	43753.97
552.18	43985.69
552.34	44411.67
552.51	44322.72
552.68	44023.14
552.84	43971.64
553.01	44559.12
553.18	44446.77
553.34	44378.90
553.51	44582.52
553.67	45076.38
553.84	44467.84
554.01	44732.32
554.17	44666.78
554.34	44678.49
554.51	44940.63
554.67	45415.76
554.84	44779.13
555.00	44528.69
555.17	44547.42
555.33	45167.66
555.50	44940.63
555.67	44701.89
555.83	45359.58
556.00	45123.19
556.16	45684.92
556.33	44942.97
556.50	45464.91
556.66	44914.88
556.83	44992.12
556.99	45251.92
557.16	45614.70
557.32	45340.86
557.49	45858.12
557.65	45052.97
557.82	45401.71
557.98	45614.70
558.15	45256.60
558.32	45523.42
558.48	45050.63
558.65	45460.23
558.81	45052.97
558.98	45736.41
559.14	45371.28
559.31	45315.11
559.47	45511.72
559.64	45813.65
559.80	46038.34
559.97	46019.61
560.13	45773.86
560.30	45982.16
560.46	46305.16
560.63	45722.37
560.79	46155.36
560.96	46146.00
561.12	46349.63
561.29	45986.85
561.45	46410.48
561.61	45914.29
561.78	45827.69
561.94	46061.74
562.11	46017.27
562.27	46454.95
562.44	45731.73
562.60	46356.65
562.77	45928.33
562.93	46368.35
563.10	46354.31
563.26	45757.47
563.42	46476.02
563.59	45965.78
563.75	46347.29
563.92	46300.48
564.08	46066.42
564.24	46218.56
564.41	46103.87
564.57	46113.23
564.74	46408.14
564.90	46436.23
565.07	46117.92
565.23	45916.63
565.39	46113.23
565.56	46543.89
565.72	46457.29
565.88	46674.96
566.05	46415.16
566.21	46291.12
566.38	46593.04
566.54	46721.77
566.70	46515.81
566.87	46644.54
567.03	46361.33
567.19	46677.30
567.36	46625.81
567.52	47203.92
567.68	47140.73
567.85	46813.05
568.01	46948.81
568.17	46955.83
568.34	46857.52
568.50	47054.13
568.66	46880.93
568.83	46930.08
568.99	46499.42
569.15	46646.88
569.32	47086.90
569.48	46909.02
569.64	47267.12
569.81	46960.51
569.97	47243.71
570.13	47290.52
570.30	46909.02
570.46	46873.91
570.62	47323.29
570.78	47103.28
570.95	46887.95
571.11	47098.60
571.27	46965.19
571.43	46761.56
571.60	46955.83
571.76	46967.53
571.92	47058.81
572.09	47051.79
572.25	47068.17
572.41	46859.87
572.57	47337.33
572.74	47660.33
572.90	46902.00
573.06	47185.20
573.22	47049.45
573.38	47178.18
573.55	47274.14
573.71	47667.35
573.87	47030.72
574.03	47061.15
574.20	47423.93
574.36	47311.59
574.52	47466.06
574.68	47206.26
574.84	47292.86
575.01	47447.34
575.17	47381.80
575.33	47288.18
575.49	47140.73
575.65	47531.60
575.82	47320.95
575.98	47288.18
576.14	47789.06
576.30	47093.92
576.46	47419.25
576.62	47019.02
576.79	47192.22
576.95	47007.32
577.11	47227.33
577.27	47143.07
577.43	47292.86
577.59	47461.38
577.75	47555.00
577.92	47262.44
578.08	47161.79
578.24	47508.19
578.40	47833.53
578.56	47562.03
578.72	47510.53
578.88	47732.89
579.04	47969.28
579.21	47594.79
579.37	47466.06
579.53	47356.06
579.69	47330.31
579.85	47309.25
580.01	47470.75
580.17	47391.17
580.33	47449.68
580.49	47894.38
580.65	47594.79
580.82	47466.06
580.98	47447.34
581.14	47140.73
581.30	47491.81
581.46	47519.90
581.62	47365.42
581.78	47220.31
581.94	47728.20
582.10	47482.45
582.26	47360.74
582.42	47751.61
582.58	47430.96
582.74	47576.07
582.90	47920.13
583.06	47833.53
583.22	47342.02
583.38	47384.15
583.54	47702.46
583.70	47791.40
583.86	48114.39
584.02	47751.61
584.18	47803.10
584.34	47695.44
584.50	47526.92
584.66	47611.18
584.82	47767.99
584.98	48079.28
585.14	47859.27
585.30	47777.36
585.46	47903.74
585.62	47412.23
585.78	47732.89
585.94	47615.86
586.10	47585.43
586.26	47180.52
586.42	47576.07
586.58	47866.30
586.74	47767.99
586.90	47543.30
587.06	47547.98
587.22	47880.34
587.38	47704.80
587.54	47810.12
587.70	47892.04
587.86	47597.13
588.02	47976.30
588.18	47849.91
588.34	47665.01
588.49	48168.22
588.65	47459.04
588.81	47739.91
588.97	47796.08
589.13	47466.06
589.29	48046.52
589.45	48198.65
589.61	47880.34
589.77	48186.95
589.93	47634.58
