SpectraSuite Data File
++++++++++++++++++++++++++++++++++++
Date: Fri Oct 25 11:23:11 EDT 2013
User: price-jones
Dark Spectrum Present: No
Reference Spectrum Present: No
Number of Sampled Component Spectra: 1
Spectrometers: USB2+H05261
Integration Time (usec): 100000 (USB2+H05261)
Spectra Averaged: 1 (USB2+H05261)
Boxcar Smoothing: 0 (USB2+H05261)
Correct for Electrical Dark: No (USB2+H05261)
Strobe/Lamp Enabled: No (USB2+H05261)
Correct for Detector Non-linearity: No (USB2+H05261)
Correct for Stray Light: No (USB2+H05261)
Number of Pixels in Processed Spectrum: 2048
>>>>>Begin Processed Spectral Data<<<<<
365.73	189.58
365.92	189.58
366.12	189.58
366.32	121.71
366.52	128.73
366.72	135.75
366.91	161.50
367.11	117.03
367.31	121.71
367.51	163.84
367.70	121.71
367.90	205.97
368.10	114.69
368.30	152.13
368.49	147.45
368.69	107.66
368.89	163.84
369.09	189.58
369.28	131.07
369.48	142.77
369.68	131.07
369.87	187.24
370.07	156.82
370.27	248.10
370.47	308.95
370.66	559.39
370.86	610.88
371.06	599.18
371.25	622.58
371.45	683.44
371.65	727.91
371.84	657.69
372.04	692.80
372.24	697.48
372.44	720.88
372.63	772.38
372.83	767.70
373.03	814.51
373.22	812.17
373.42	741.95
373.62	755.99
373.81	758.33
374.01	716.20
374.21	809.83
374.40	751.31
374.60	882.38
374.79	858.98
374.99	798.12
375.19	842.59
375.38	861.32
375.58	840.25
375.78	826.21
375.97	866.00
376.17	1001.75
376.37	910.47
376.56	851.96
376.76	910.47
376.95	821.53
377.15	917.49
377.35	863.66
377.54	821.53
377.74	866.00
377.93	980.68
378.13	873.02
378.33	915.15
378.52	866.00
378.72	961.96
378.91	887.06
379.11	898.77
379.31	1025.15
379.50	905.79
379.70	1071.97
379.89	973.66
380.09	983.02
380.28	1088.35
380.48	968.98
380.68	968.98
380.87	919.83
381.07	966.64
381.26	1046.22
381.46	1076.65
381.65	1102.39
381.85	1095.37
382.04	1086.01
382.24	1149.20
382.43	1109.41
382.63	1167.93
382.83	1055.58
383.02	1116.44
383.22	1029.84
383.41	1060.26
383.61	1086.01
383.80	1135.16
384.00	1128.14
384.19	1055.58
384.39	1093.03
384.58	1174.95
384.78	1158.57
384.97	1165.59
385.17	1139.84
385.36	1158.57
385.56	1261.55
385.75	1231.12
385.95	1032.18
386.14	1228.78
386.34	1146.86
386.53	1207.72
386.72	1280.27
386.92	1280.27
387.11	1315.38
387.31	1247.51
387.50	1217.08
387.70	1308.36
387.89	1214.74
388.09	1266.23
388.28	1296.66
388.48	1317.72
388.67	1348.15
388.86	1439.43
389.06	1320.06
389.25	1296.66
389.45	1362.19
389.64	1270.91
389.84	1329.42
390.03	1362.19
390.22	1369.21
390.42	1369.21
390.61	1359.85
390.81	1488.58
391.00	1453.47
391.19	1446.45
391.39	1467.52
391.58	1451.13
391.78	1486.24
391.97	1462.83
392.16	1486.24
392.36	1469.86
392.55	1547.09
392.75	1640.72
392.94	1502.62
393.13	1612.63
393.33	1446.45
393.52	1577.52
393.71	1633.69
393.91	1572.84
394.10	1514.33
394.29	1563.48
394.49	1619.65
394.68	1722.63
394.88	1593.90
395.07	1703.91
395.26	1633.69
395.46	1694.55
395.65	1706.25
395.84	1762.42
396.04	1790.51
396.23	1753.06
396.42	1813.92
396.62	1727.32
396.81	1799.87
397.00	1785.83
397.19	1743.70
397.39	1764.76
397.58	1856.04
397.77	1757.74
397.97	1739.02
398.16	1827.96
398.35	1930.94
398.55	1813.92
398.74	1921.58
398.93	1912.22
399.12	1949.67
399.32	1923.92
399.51	1998.82
399.70	1886.47
399.90	1935.62
400.09	1982.43
400.28	2057.33
400.47	2040.95
400.67	2045.63
400.86	2092.44
401.05	2038.61
401.24	2104.14
401.44	2097.12
401.63	2080.74
401.82	2165.00
402.01	2139.25
402.21	2174.36
402.40	2230.53
402.59	2169.68
402.78	2216.49
402.97	2232.87
403.17	2282.02
403.36	2349.90
403.55	2305.43
403.74	2375.64
403.93	2333.51
404.13	2347.56
404.32	2282.02
404.51	2347.56
404.70	2530.12
404.89	2457.56
405.09	2548.84
405.28	2443.52
405.47	2471.61
405.66	2483.31
405.85	2516.08
406.05	2534.80
406.24	2731.41
406.43	2487.99
406.62	2642.46
406.81	2651.83
407.00	2635.44
407.20	2731.41
407.39	2597.99
407.58	2607.36
407.77	2705.66
407.96	2729.06
408.15	2745.45
408.34	2754.81
408.54	2871.84
408.73	2874.18
408.92	2897.58
409.11	2977.16
409.30	2972.48
409.49	2904.60
409.68	2972.48
409.87	2953.76
410.07	3030.99
410.26	2958.44
410.45	3061.42
410.64	3131.64
410.83	3112.91
411.02	3243.98
411.21	3218.24
411.40	3075.46
411.59	3185.47
411.78	3314.20
411.98	3300.16
412.17	3368.03
412.36	3335.26
412.55	3356.33
412.74	3447.61
412.93	3405.48
413.12	3487.40
413.31	3473.36
413.50	3475.70
413.69	3445.27
413.88	3588.04
414.07	3634.85
414.26	3627.83
414.45	3714.43
414.64	3527.19
414.83	3747.20
415.02	3840.82
415.22	3808.05
415.41	3833.80
415.60	3906.35
415.79	3988.27
415.98	4159.13
416.17	3992.95
416.36	3913.38
416.55	4067.85
416.74	4147.43
416.93	4196.58
417.12	4182.54
417.31	4313.61
417.50	4304.25
417.69	4437.66
417.88	4360.42
418.07	4184.88
418.26	4379.14
418.45	4458.72
418.64	4526.60
418.83	4362.76
419.02	4360.42
419.21	4561.70
419.39	4580.43
419.58	4503.19
419.77	4482.13
419.96	4568.73
420.15	4578.09
420.34	4547.66
420.53	4601.49
420.72	4863.63
420.91	4727.88
421.10	4880.02
421.29	4835.55
421.48	4685.75
421.67	4837.89
421.86	4865.97
422.05	4816.82
422.24	4758.31
422.43	4901.08
422.61	5137.48
422.80	4959.60
422.99	4999.38
423.18	5158.54
423.37	5107.05
423.56	4926.83
423.75	4985.34
423.94	4926.83
424.13	4779.37
424.32	4784.06
424.50	4983.00
424.69	5331.74
424.88	5219.39
425.07	4975.98
425.26	4809.80
425.45	4983.00
425.64	5036.83
425.83	4901.08
426.01	5165.56
426.20	5135.14
426.39	5093.01
426.58	5121.09
426.77	5121.09
426.96	5179.61
427.15	5029.81
427.33	5273.23
427.52	5203.01
427.71	5362.17
427.90	5327.06
428.09	5385.57
428.28	5441.75
428.46	5495.58
428.65	5383.23
428.84	5528.35
429.03	5757.72
429.22	5518.98
429.40	5607.92
429.59	5542.39
429.78	5343.44
429.97	5488.56
430.16	5329.40
430.34	5724.95
430.53	5956.66
430.72	5647.71
430.91	5699.20
431.10	5799.85
431.28	5748.36
431.47	5919.21
431.66	5823.25
431.85	5888.79
432.03	6099.44
432.22	5921.56
432.41	6036.24
432.60	5954.32
432.79	5977.73
432.97	5944.96
433.16	6146.25
433.35	6036.24
433.54	6097.10
433.72	6162.63
433.91	6073.69
434.10	6270.30
434.28	6291.36
434.47	6242.21
434.66	6317.11
434.85	6445.84
435.03	6441.15
435.22	6298.38
435.41	6555.84
435.59	6455.20
435.78	6471.58
435.97	6511.37
436.16	6422.43
436.34	6565.20
436.53	6593.29
436.72	6799.26
436.90	6506.69
437.09	6693.93
437.28	6434.13
437.46	6726.70
437.65	6740.74
437.84	6871.81
438.02	6729.04
438.21	6609.67
438.40	6799.26
438.58	7166.72
438.77	7009.90
438.96	7241.62
439.14	7122.25
439.33	7157.36
439.52	7272.04
439.70	7227.57
439.89	7293.11
440.08	7265.02
440.26	7468.65
440.45	7585.68
440.63	7496.74
440.82	7810.37
441.01	7489.71
441.19	7494.40
441.38	7637.17
441.57	7826.75
441.75	7957.82
441.94	8084.21
442.12	8124.00
442.31	7983.57
442.50	8114.64
442.68	8102.93
442.87	8133.36
443.05	8116.98
443.24	8205.92
443.43	8234.00
443.61	8479.76
443.80	8313.58
443.98	8079.53
444.17	8063.15
444.35	8341.67
444.54	8367.42
444.73	8369.76
444.91	8189.53
445.10	8393.16
445.28	8479.76
445.47	8416.57
445.65	8304.22
445.84	8624.87
446.02	8547.64
446.21	8470.40
446.39	8421.25
446.58	8454.02
446.77	8688.07
446.95	8446.99
447.14	8479.76
447.32	8772.33
447.51	8671.68
447.69	8676.37
447.88	8723.18
448.06	8657.64
448.25	8620.19
448.43	8697.43
448.62	8571.04
448.80	8718.50
448.99	8844.88
449.17	8842.54
449.36	8837.86
449.54	9060.21
449.73	9008.72
449.91	9186.60
450.10	8964.25
450.28	8926.80
450.46	9135.11
450.65	9294.27
450.83	9238.09
451.02	9118.73
451.20	9294.27
451.39	9427.68
451.57	9191.28
451.76	9212.35
451.94	9146.81
452.13	9425.34
452.31	9357.46
452.49	9043.83
452.68	9231.07
452.86	9387.89
453.05	9535.34
453.23	9741.31
453.42	9568.11
453.60	9415.98
453.78	9760.03
453.97	9561.09
454.15	9544.70
454.34	9533.00
454.52	9867.70
454.70	9851.31
454.89	9916.85
455.07	9973.02
455.26	10052.60
455.44	10211.76
455.62	9834.93
455.81	10132.18
455.99	10197.71
456.17	10085.37
456.36	10396.66
456.54	10272.61
456.73	10338.15
456.91	10595.61
457.09	10429.43
457.28	10513.69
457.46	10300.70
457.64	10750.08
457.83	10523.05
458.01	10394.32
458.19	10766.46
458.38	10581.56
458.56	10834.34
458.74	10757.10
458.93	10745.40
459.11	10724.33
459.29	10682.20
459.48	10897.53
459.66	10904.56
459.84	11101.16
460.03	11316.49
460.21	10925.62
460.39	11136.27
460.57	11098.82
460.76	11283.72
460.94	11265.00
461.12	11180.74
461.31	11330.53
461.49	11194.78
461.67	11452.24
461.85	11590.33
462.04	11454.58
462.22	11672.25
462.40	11808.00
462.59	11531.82
462.77	11445.22
462.95	11840.77
463.13	11707.36
463.32	11822.05
463.50	11660.55
463.68	11922.69
463.86	11971.84
464.05	11756.51
464.23	11943.75
464.41	12028.01
464.59	11960.14
464.78	12131.00
464.96	12074.82
465.14	11910.99
465.32	12201.21
465.50	12423.56
465.69	12332.28
465.87	12449.31
466.05	12175.47
466.23	12409.52
466.41	12276.11
466.60	12606.13
466.78	12343.99
466.96	12318.24
467.14	12421.22
467.32	12482.08
467.51	12760.60
467.69	12105.25
467.87	12547.61
468.05	12737.20
468.23	12461.01
468.41	12739.54
468.60	12886.99
468.78	12919.76
468.96	12491.44
469.14	13029.76
469.32	13048.49
469.50	12594.42
469.69	13118.70
469.87	13429.99
470.05	13415.95
470.23	13191.26
470.41	13270.84
470.59	13228.71
470.77	13074.23
470.95	13193.60
471.14	13556.38
471.32	13139.77
471.50	13638.30
471.68	13605.53
471.86	14104.07
472.04	14211.73
472.22	14125.13
472.40	13710.86
472.58	13841.93
472.77	14115.77
472.95	14054.92
473.13	14640.05
473.31	14326.42
473.49	14391.95
473.67	14106.41
473.85	14483.24
474.03	14750.06
474.21	14658.78
474.39	14796.87
474.57	14647.07
474.75	15140.93
474.93	15131.56
475.12	14897.51
475.30	15433.49
475.48	15286.04
475.66	15531.80
475.84	15534.14
476.02	15662.86
476.20	15618.39
476.38	15702.65
476.56	16126.29
476.74	16252.68
476.92	16175.44
477.10	16299.49
477.28	15978.84
477.46	16259.70
477.64	16704.40
477.82	16776.96
478.00	17153.79
478.18	16816.75
478.36	17099.95
478.54	17247.41
478.72	17259.11
478.90	17511.89
479.08	17767.01
479.26	17717.86
479.44	17947.23
479.62	17837.22
479.80	18499.59
479.98	18340.44
480.16	18583.85
480.34	18448.10
480.52	18785.14
480.70	18874.08
480.88	18721.95
481.06	18782.80
481.24	18970.04
481.41	19435.81
481.59	19529.43
481.77	19913.28
481.95	19702.63
482.13	19784.55
482.31	19782.21
482.49	20531.18
482.67	20217.55
482.85	20727.78
483.03	20884.60
483.21	21191.21
483.39	21081.21
483.57	21390.16
483.74	21591.44
483.92	21757.62
484.10	21771.66
484.28	22167.21
484.46	22150.83
484.64	22352.12
484.82	22396.59
485.00	22616.60
485.18	22885.76
485.35	23487.28
485.53	22843.63
485.71	23419.40
485.89	23601.96
486.07	23414.72
486.25	23807.93
486.43	23939.00
486.61	24189.44
486.78	24348.59
486.96	24140.29
487.14	25069.48
487.32	24884.58
487.50	25113.95
487.68	25039.05
487.85	25378.43
488.03	25769.30
488.21	26195.28
488.39	26230.38
488.57	26328.69
488.75	26600.19
488.92	26764.03
489.10	27014.46
489.28	26920.84
489.46	27438.10
489.64	27145.53
489.81	27531.72
489.99	28130.90
490.17	28116.86
490.35	28685.61
490.53	28446.87
490.70	28975.83
490.88	28500.70
491.06	29312.87
491.24	29041.37
491.41	29308.19
491.59	29411.17
491.77	29607.78
491.95	29762.25
492.13	29982.26
492.30	30506.54
492.48	30307.60
492.66	30380.15
492.84	30609.53
493.01	31056.57
493.19	30941.88
493.37	31351.48
493.54	31770.43
493.72	31662.77
493.90	31709.58
494.08	32063.00
494.25	32741.75
494.43	32568.55
494.61	32886.87
494.79	32613.02
494.96	33060.07
495.14	33221.56
495.32	33366.68
495.49	33600.73
495.67	33530.51
495.85	33933.09
496.02	34064.16
496.20	34422.26
496.38	34560.35
496.55	34338.00
496.73	35461.46
496.91	35086.97
497.09	34881.00
497.26	35318.68
497.44	35672.10
497.62	35487.20
497.79	36032.55
497.97	35793.81
498.14	36554.49
498.32	36842.37
498.50	36704.28
498.67	37261.33
498.85	36610.66
499.03	36802.58
499.20	37041.32
499.38	37156.00
499.56	37495.38
499.73	37397.08
499.91	37879.23
500.08	38045.41
500.26	37858.17
500.44	37881.57
500.61	38345.00
500.79	38188.18
500.97	38433.94
501.14	39283.55
501.32	39030.77
501.49	39136.10
501.67	38895.02
501.84	39100.99
502.02	39571.44
502.20	39505.90
502.37	39559.73
502.55	39449.73
502.72	40140.19
502.90	40306.37
503.07	39688.46
503.25	40006.78
503.43	40219.77
503.60	40481.91
503.78	40664.47
503.95	40898.52
504.13	41153.64
504.30	40559.14
504.48	41265.99
504.65	40722.98
504.83	41577.28
505.01	41752.82
505.18	41347.90
505.36	41766.86
505.53	41614.72
505.71	42064.11
505.88	41961.12
506.06	41944.74
506.23	42693.71
506.41	41879.21
506.58	42752.23
506.76	42410.51
506.93	43030.75
507.11	42721.80
507.28	43044.79
507.46	43063.52
507.63	43173.52
507.81	43613.54
507.98	43262.46
508.16	43533.96
508.33	43997.39
508.50	43835.89
508.68	43885.04
508.85	44383.58
509.03	44278.25
509.20	44231.44
509.38	44732.32
509.55	44863.39
509.73	44648.06
509.90	44910.20
510.08	44959.35
510.25	45078.72
510.42	45041.27
510.60	45780.88
510.77	45720.02
510.95	46028.98
511.12	45661.51
511.30	45244.90
511.47	46078.13
511.64	46014.93
511.82	46401.12
511.99	46230.26
512.17	46550.91
512.34	46026.63
512.51	46693.69
512.69	46642.20
512.86	46691.35
513.04	46941.78
513.21	46824.76
513.38	47171.16
513.56	47248.39
513.73	46988.60
513.90	47433.30
514.08	47487.13
514.25	47915.45
514.43	47861.61
514.60	47594.79
514.77	47751.61
514.95	47894.38
515.12	47756.29
515.29	48172.91
515.47	48355.47
515.64	48435.05
515.81	48325.04
515.99	48748.68
516.16	48788.47
516.33	48910.17
516.51	49282.32
516.68	49375.94
516.85	48795.49
517.03	49289.34
517.20	49284.66
517.37	49111.46
517.54	49422.75
517.72	49387.64
517.89	49439.14
518.06	49654.47
518.24	49425.09
518.41	49677.87
518.58	50068.74
518.75	49535.10
518.93	49804.26
519.10	49727.02
519.27	50092.15
519.45	50454.93
519.62	50272.37
519.79	50328.54
519.96	49977.46
520.14	50382.37
520.31	50525.14
520.48	50836.44
520.65	50672.60
520.83	51175.81
521.00	51035.38
521.17	50918.35
521.34	51072.83
521.52	51143.05
521.69	51283.48
521.86	51356.03
522.03	51351.35
522.20	51749.24
522.38	52002.02
522.55	51489.45
522.72	51662.64
522.89	51924.78
523.07	51922.44
523.24	51749.24
523.41	52275.87
523.58	51971.60
523.75	52296.93
523.92	52058.20
524.10	52325.02
524.27	52203.31
524.44	52413.96
524.61	52353.10
524.78	52390.55
524.96	52566.09
525.13	52746.31
525.30	53076.33
525.47	52678.44
525.64	52758.02
525.81	53057.60
525.98	53017.82
526.16	53001.43
526.33	53153.57
526.50	53153.57
526.67	53043.56
526.84	53506.99
527.01	53303.36
527.18	53186.33
527.36	53174.63
527.53	53399.32
527.70	53738.70
527.87	53705.93
528.04	53474.22
528.21	53867.43
528.38	53563.16
528.55	54071.06
528.72	53619.33
528.89	53759.76
529.07	53631.04
529.24	53888.49
529.41	53923.60
529.58	54220.85
529.75	54103.82
529.92	54010.20
530.09	54188.08
530.26	54305.11
530.43	54314.47
530.60	53937.65
530.77	54328.52
530.94	54710.02
531.11	54443.20
531.28	54506.40
531.46	54532.14
531.63	54644.49
531.80	54644.49
531.97	54841.09
532.14	54663.21
532.31	54597.68
532.48	55033.02
532.65	55100.89
532.82	54518.10
532.99	55018.97
533.16	54911.31
533.33	55409.84
533.50	55271.75
533.67	55189.83
533.84	54979.18
534.01	55440.27
534.18	55444.95
534.35	55531.55
534.52	55421.55
534.69	55444.95
534.86	55229.62
535.03	55423.89
535.20	55510.49
535.37	55833.48
535.54	55559.64
535.71	55634.53
535.88	55973.91
536.05	55934.12
536.22	55983.27
536.38	55791.35
536.55	55814.76
536.72	55784.33
536.89	56030.08
537.06	55854.54
537.23	56081.58
537.40	56107.32
537.57	56203.28
537.74	55980.93
537.91	56512.23
538.08	56313.29
538.25	55723.47
538.42	56168.18
538.59	56406.91
538.75	56254.78
538.92	56332.01
539.09	56664.37
539.26	56573.09
539.43	56411.59
539.60	56465.42
539.77	56734.59
539.94	56891.40
540.11	56584.79
540.28	56636.28
540.44	56671.39
540.61	56914.81
540.78	56750.97
540.95	56575.43
541.12	56743.95
541.29	56729.90
541.46	56879.70
541.62	56940.55
541.79	56989.70
541.96	56612.88
542.13	57017.79
542.30	56924.17
542.47	56846.93
542.63	57151.20
542.80	57141.84
542.97	57455.47
543.14	57375.89
543.31	57347.81
543.48	57628.67
543.64	57755.06
543.81	57553.77
543.98	57546.75
544.15	57705.91
544.32	57726.97
544.48	57649.74
544.65	57633.35
544.82	57827.62
544.99	57574.84
545.16	57813.57
545.32	57731.65
545.49	58064.01
545.66	57902.51
545.83	58010.18
546.00	57986.77
546.16	57705.91
546.33	57832.30
546.50	57614.63
546.67	57813.57
546.83	57771.44
547.00	58054.65
547.17	58042.95
547.34	58033.58
547.50	58166.99
547.67	58426.79
547.84	58361.26
548.00	58387.00
548.17	58546.16
548.34	58511.05
548.51	58525.10
548.67	58611.70
548.84	58511.05
549.01	58377.64
549.18	58447.86
549.34	58424.45
549.51	58656.17
549.68	58710.00
549.84	58667.87
550.01	58419.77
550.18	58621.06
550.34	58899.58
550.51	58883.20
550.68	58726.38
550.84	58403.39
551.01	58951.07
551.18	59217.89
551.34	58719.36
551.51	58885.54
551.68	58831.71
551.84	58745.11
552.01	59014.27
552.18	58808.30
552.34	58852.77
552.51	59018.95
552.68	58937.03
552.84	59035.33
553.01	58951.07
553.18	58981.50
553.34	59318.54
553.51	58836.39
553.67	59213.21
553.84	59032.99
554.01	59194.49
554.17	59245.98
554.34	59370.03
554.51	59374.71
554.67	59320.88
554.84	59327.90
555.00	59288.11
555.17	59117.25
555.33	59320.88
555.50	59119.59
555.67	59306.83
555.83	59306.83
556.00	59299.81
556.16	59723.45
556.33	59557.27
556.50	59536.21
556.66	59629.83
556.83	59208.53
556.99	59608.76
557.16	59669.62
557.32	59681.32
557.49	59700.04
557.65	59517.48
557.82	59676.64
557.98	59625.15
558.15	59721.11
558.32	59629.83
558.48	59491.74
558.65	59643.87
558.81	59765.58
558.98	59763.24
559.14	60011.34
559.31	59791.33
559.47	59938.78
559.64	60170.49
559.80	59800.69
559.97	60023.04
560.13	59751.54
560.30	60135.38
560.46	59873.24
560.63	59957.50
560.79	60009.00
560.96	60140.07
561.12	60067.51
561.29	60013.68
561.45	60076.87
561.61	60240.71
561.78	59877.93
561.94	60030.06
562.11	60123.68
562.27	60252.41
562.44	60336.67
562.60	60441.99
562.77	60273.48
562.93	59945.80
563.10	60261.77
563.26	60369.44
563.42	60650.30
563.59	60079.21
563.75	60348.37
563.92	60411.57
564.08	60402.21
564.24	60505.19
564.41	60371.78
564.57	60573.06
564.74	60346.03
564.90	60650.30
565.07	60500.51
565.23	60460.72
565.39	60313.26
565.56	60420.93
565.72	60406.89
565.88	60449.02
566.05	60261.77
566.21	60320.29
566.38	60699.45
566.54	60573.06
566.70	60690.09
566.87	60598.81
567.03	60552.00
567.19	60727.54
567.36	60530.93
567.52	60622.22
567.68	60825.84
567.85	60434.97
568.01	60596.47
568.17	60287.52
568.34	60767.33
568.50	60739.24
568.66	60556.68
568.83	60654.98
568.99	60711.16
569.15	60666.69
569.32	60470.08
569.48	60568.38
569.64	60811.80
569.81	60715.84
569.97	60722.86
570.13	60811.80
570.30	60650.30
570.46	61034.15
570.62	60685.41
570.78	60912.44
570.95	60900.74
571.11	60825.84
571.27	60736.90
571.43	60736.90
571.60	60992.02
571.76	60917.12
571.92	60994.36
572.09	60821.16
572.25	60741.58
572.41	60828.18
572.57	60629.24
572.74	61064.58
572.90	60846.91
573.06	60992.02
573.22	60764.99
573.38	60977.98
573.55	60886.70
573.71	61188.63
573.87	60870.31
574.03	60755.63
574.20	61010.74
574.36	60949.89
574.52	60844.57
574.68	61111.39
574.84	60910.10
575.01	61015.43
575.17	61052.87
575.33	60910.10
575.49	60879.67
575.65	60889.04
575.82	60935.85
575.98	60900.74
576.14	61118.41
576.30	61228.41
576.46	61043.51
576.62	61083.30
576.79	61013.08
576.95	60879.67
577.11	61034.15
577.27	61064.58
577.43	61022.45
577.59	60982.66
577.75	61050.53
577.92	60938.19
578.08	61109.05
578.24	61144.16
578.40	61078.62
578.56	61298.63
578.72	60877.33
578.88	61279.91
579.04	61389.91
579.21	61141.81
579.37	61174.58
579.53	61144.16
579.69	61003.72
579.85	61109.05
580.01	61151.18
580.17	61027.13
580.33	61048.19
580.49	61130.11
580.65	61092.66
580.82	61083.30
580.98	61256.50
581.14	60942.87
581.30	61230.75
581.46	61038.83
581.62	61373.53
581.78	61031.81
581.94	61212.03
582.10	61214.37
582.26	61193.31
582.42	61205.01
582.58	61317.35
582.74	61097.34
582.90	61045.85
583.06	61102.03
583.22	61008.40
583.38	61116.07
583.54	61123.09
583.70	61329.06
583.86	61233.10
584.02	61073.94
584.18	61244.80
584.34	61212.03
584.50	61319.70
584.66	61300.97
584.82	60980.32
584.98	61286.93
585.14	61279.91
585.30	61209.69
585.46	61146.50
585.62	61371.19
585.78	61476.51
585.94	61144.16
586.10	61345.44
586.26	61319.70
586.42	61228.41
586.58	61226.07
586.74	61315.01
586.90	61104.37
587.06	61221.39
587.22	61460.13
587.38	61418.00
587.54	61432.04
587.70	61296.29
587.86	61326.72
588.02	61324.38
588.18	61432.04
588.34	61312.67
