SpectraSuite Data File
++++++++++++++++++++++++++++++++++++
Date: Fri Oct 25 11:33:29 EDT 2013
User: price-jones
Dark Spectrum Present: No
Reference Spectrum Present: No
Number of Sampled Component Spectra: 1
Spectrometers: USB2+H05261
Integration Time (usec): 100000 (USB2+H05261)
Spectra Averaged: 1 (USB2+H05261)
Boxcar Smoothing: 0 (USB2+H05261)
Correct for Electrical Dark: No (USB2+H05261)
Strobe/Lamp Enabled: No (USB2+H05261)
Correct for Detector Non-linearity: No (USB2+H05261)
Correct for Stray Light: No (USB2+H05261)
Number of Pixels in Processed Spectrum: 2048
>>>>>Begin Processed Spectral Data<<<<<
365.73	283.20
365.92	283.20
366.12	283.20
366.32	248.10
366.52	154.48
366.72	191.92
366.91	212.99
367.11	159.16
367.31	140.43
367.51	154.48
367.70	203.63
367.90	222.35
368.10	175.54
368.30	138.09
368.49	208.31
368.69	212.99
368.89	250.44
369.09	168.52
369.28	210.65
369.48	255.12
369.68	243.42
369.87	191.92
370.07	257.46
370.27	290.23
370.47	332.36
370.66	421.30
370.86	561.73
371.06	521.94
371.25	557.05
371.45	566.41
371.65	538.32
371.84	587.47
372.04	472.79
372.24	496.19
372.44	568.75
372.63	634.29
372.83	599.18
373.03	645.99
373.22	507.90
373.42	615.56
373.62	589.82
373.81	685.78
374.01	631.94
374.21	664.71
374.40	650.67
374.60	681.10
374.79	599.18
374.99	603.86
375.19	695.14
375.38	706.84
375.58	629.60
375.78	653.01
375.97	695.14
376.17	671.73
376.37	634.29
376.56	725.57
376.76	631.94
376.95	589.82
377.15	704.50
377.35	718.54
377.54	702.16
377.74	702.16
377.93	681.10
378.13	657.69
378.33	720.88
378.52	753.65
378.72	690.46
378.91	734.93
379.11	732.59
379.31	739.61
379.50	685.78
379.70	758.33
379.89	753.65
380.09	711.52
380.28	751.31
380.48	748.97
380.68	706.84
380.87	725.57
381.07	662.37
381.26	753.65
381.46	704.50
381.65	837.91
381.85	720.88
382.04	723.23
382.24	760.67
382.43	767.70
382.63	779.40
382.83	826.21
383.02	875.36
383.22	877.70
383.41	793.44
383.61	781.74
383.80	793.44
384.00	688.12
384.19	809.83
384.39	891.74
384.58	772.38
384.78	823.87
384.97	905.79
385.17	837.91
385.36	854.30
385.56	905.79
385.75	833.23
385.95	856.64
386.14	795.78
386.34	917.49
386.53	786.42
386.72	828.55
386.92	877.70
387.11	781.74
387.31	798.12
387.50	943.24
387.70	887.06
387.89	912.81
388.09	821.53
388.28	809.83
388.48	905.79
388.67	947.92
388.86	910.47
389.06	936.21
389.25	966.64
389.45	945.58
389.64	954.94
389.84	990.05
390.03	940.90
390.22	945.58
390.42	1032.18
390.61	980.68
390.81	884.72
391.00	940.90
391.19	905.79
391.39	999.41
391.58	1029.84
391.78	1022.81
391.97	1006.43
392.16	1008.77
392.36	990.05
392.55	1088.35
392.75	1034.52
392.94	1107.07
393.13	1048.56
393.33	1114.10
393.52	1060.26
393.71	1020.47
393.91	1135.16
394.10	1116.44
394.29	1118.78
394.49	1088.35
394.68	1144.52
394.88	1221.76
395.07	1198.35
395.26	1107.07
395.46	1146.86
395.65	1174.95
395.84	1207.72
396.04	1212.40
396.23	1198.35
396.42	1142.18
396.62	1228.78
396.81	1256.87
397.00	1179.63
397.19	1221.76
397.39	1165.59
397.58	1212.40
397.77	1249.85
397.97	1228.78
398.16	1261.55
398.35	1228.78
398.55	1207.72
398.74	1219.42
398.93	1355.17
399.12	1404.32
399.32	1252.19
399.51	1259.21
399.70	1392.62
399.90	1320.06
400.09	1343.47
400.28	1437.09
400.47	1385.60
400.67	1383.26
400.86	1380.92
401.05	1383.26
401.24	1448.79
401.44	1458.15
401.63	1416.02
401.82	1481.56
402.01	1418.36
402.21	1483.90
402.40	1565.82
402.59	1526.03
402.78	1519.01
402.97	1502.62
403.17	1544.75
403.36	1542.41
403.55	1561.14
403.74	1610.29
403.93	1607.95
404.13	1631.35
404.32	1565.82
404.51	1598.59
404.70	1629.01
404.89	1607.95
405.09	1657.10
405.28	1755.40
405.47	1687.53
405.66	1565.82
405.85	1624.33
406.05	1631.35
406.24	1687.53
406.43	1834.98
406.62	1736.68
406.81	1891.15
407.00	1741.36
407.20	1706.25
407.39	1727.32
407.58	1816.26
407.77	1844.34
407.96	1907.54
408.15	1867.75
408.34	1832.64
408.54	1881.79
408.73	1919.24
408.92	2038.61
409.11	2015.20
409.30	1956.69
409.49	1870.09
409.68	1994.14
409.87	1942.64
410.07	2038.61
410.26	2066.69
410.45	1987.11
410.64	2029.24
410.83	2087.76
411.02	2148.61
411.21	2176.70
411.40	2092.44
411.59	2059.67
411.78	2218.83
411.98	2181.38
412.17	2298.41
412.36	2200.10
412.55	2331.17
412.74	2211.81
412.93	2415.43
413.12	2408.41
413.31	2382.67
413.50	2401.39
413.69	2429.48
413.88	2487.99
414.07	2457.56
414.26	2527.78
414.45	2525.44
414.64	2497.35
414.83	2616.72
415.02	2661.19
415.22	2548.84
415.41	2715.02
415.60	2647.15
415.79	2691.62
415.98	2640.12
416.17	2759.49
416.36	2764.17
416.55	2635.44
416.74	2939.71
416.93	2808.64
417.12	2822.69
417.31	2855.45
417.50	2862.48
417.69	2981.84
417.88	2810.98
418.07	2864.82
418.26	2885.88
418.45	2932.69
418.64	3073.12
418.83	3063.76
419.02	3052.06
419.21	3176.11
419.39	3080.14
419.58	3068.44
419.77	2972.48
419.96	3150.36
420.15	3239.30
420.34	3199.51
420.53	3218.24
420.72	3351.65
420.91	3169.09
421.10	3241.64
421.29	3148.02
421.48	3187.81
421.67	3258.03
421.86	3344.63
422.05	3236.96
422.24	3222.92
422.43	3300.16
422.61	3442.93
422.80	3400.80
422.99	3368.03
423.18	3419.52
423.37	3562.30
423.56	3382.07
423.75	3496.76
423.94	3389.10
424.13	3225.26
424.32	3084.83
424.50	3463.99
424.69	3522.51
424.88	3485.06
425.07	3279.09
425.26	3316.54
425.45	3440.59
425.64	3419.52
425.83	3456.97
426.01	3555.27
426.20	3459.31
426.39	3485.06
426.58	3510.80
426.77	3478.04
426.96	3552.93
427.15	3508.46
427.33	3454.63
427.52	3627.83
427.71	3679.32
427.90	3576.34
428.09	3566.98
428.28	3665.28
428.46	3761.24
428.65	3674.64
428.84	3782.31
429.03	3679.32
429.22	3674.64
429.40	3817.41
429.59	3791.67
429.78	3801.03
429.97	3581.02
430.16	3819.75
430.34	3794.01
430.53	3824.44
430.72	3969.55
430.91	3866.56
431.10	3889.97
431.28	3929.76
431.47	4070.19
431.66	4102.96
431.85	3847.84
432.03	3929.76
432.22	4187.22
432.41	4077.21
432.60	3955.51
432.79	4018.70
432.97	4159.13
433.16	4098.28
433.35	4117.00
433.54	4227.01
433.72	4138.07
433.91	4238.71
434.10	4175.52
434.28	4346.37
434.47	4327.65
434.66	4290.20
434.85	4369.78
435.03	4376.80
435.22	4372.12
435.41	4346.37
435.59	4386.16
435.78	4320.63
435.97	4432.97
436.16	4484.47
436.34	4339.35
436.53	4482.13
436.72	4592.13
436.90	4496.17
437.09	4610.86
437.28	4456.38
437.46	4510.21
437.65	4737.24
437.84	4578.09
438.02	4535.96
438.21	4720.86
438.40	4395.53
438.58	4617.88
438.77	4704.48
438.96	4732.56
439.14	4835.55
439.33	4936.19
439.52	4734.90
439.70	4957.25
439.89	4992.36
440.08	5053.22
440.26	5109.39
440.45	4968.96
440.63	5048.54
440.82	5043.85
441.01	5046.20
441.19	5048.54
441.38	5348.12
441.57	5200.67
441.75	5249.82
441.94	5371.53
442.12	5343.44
442.31	5467.49
442.50	5387.91
442.68	5329.40
442.87	5263.86
443.05	5385.57
443.24	5462.81
443.43	5317.70
443.61	5645.37
443.80	5638.35
443.98	5579.84
444.17	5364.51
444.35	5418.34
444.54	5584.52
444.73	5537.71
444.91	5631.33
445.10	5671.12
445.28	5481.53
445.47	5451.11
445.65	5596.22
445.84	5678.14
446.02	5757.72
446.21	5844.32
446.39	5764.74
446.58	5790.49
446.77	5795.17
446.95	5593.88
447.14	5689.84
447.32	5727.29
447.51	5935.60
447.69	5685.16
447.88	5591.54
448.06	5736.65
448.25	5727.29
448.43	5804.53
448.62	5722.61
448.80	5982.41
448.99	5959.00
449.17	6050.28
449.36	5795.17
449.54	5926.24
449.73	6277.32
449.91	6139.23
450.10	6125.18
450.28	6179.01
450.46	6291.36
450.65	6001.13
450.83	6090.07
451.02	6064.33
451.20	6169.65
451.39	6104.12
451.57	6083.05
451.76	6143.91
451.94	6188.38
452.13	6331.15
452.31	6443.49
452.49	6338.17
452.68	6406.05
452.86	6251.57
453.05	6363.92
453.23	6408.39
453.42	6356.90
453.60	6345.19
453.78	6443.49
453.97	6417.75
454.15	6469.24
454.34	6345.19
454.52	6527.75
454.70	6642.44
454.89	6541.80
455.07	6494.99
455.26	6614.35
455.44	6572.22
455.62	6717.34
455.81	6843.73
455.99	6829.68
456.17	6799.26
456.36	6612.01
456.54	6806.28
456.73	6754.79
456.91	7136.29
457.09	6888.20
457.28	7028.63
457.46	6801.60
457.64	7211.19
457.83	7059.06
458.01	7124.59
458.19	7265.02
458.38	7110.55
458.56	7103.53
458.74	7311.83
458.93	7110.55
459.11	7220.55
459.29	7337.58
459.48	7159.70
459.66	7173.74
459.84	7269.70
460.03	7375.03
460.21	7442.90
460.39	7269.70
460.57	7346.94
460.76	7492.05
460.94	7545.89
461.12	7311.83
461.31	7531.84
461.49	7428.86
461.67	7396.09
461.85	7859.52
462.04	7452.27
462.22	8131.02
462.40	7871.22
462.59	7742.49
462.77	7672.28
462.95	7852.50
463.13	7784.62
463.32	7815.05
463.50	7815.05
463.68	8131.02
463.86	7833.77
464.05	7833.77
464.23	7885.26
464.41	8182.51
464.59	7808.03
464.78	8142.72
464.96	7861.86
465.14	8053.78
465.32	8037.40
465.50	8070.17
465.69	8121.66
465.87	8189.53
466.05	8168.47
466.23	7946.12
466.41	8191.88
466.60	8292.52
466.78	8013.99
466.96	8294.86
467.14	8121.66
467.32	8241.03
467.51	8500.83
467.69	8248.05
467.87	8287.84
468.05	8351.03
468.23	8189.53
468.41	8355.71
468.60	8299.54
468.78	8360.39
468.96	8484.44
469.14	8608.49
469.32	8645.94
469.50	8397.84
469.69	8634.24
469.87	8781.69
470.05	8659.98
470.23	8812.12
470.41	8844.88
470.59	8795.73
470.77	8788.71
470.95	8849.57
471.14	9170.22
471.32	8690.41
471.50	9071.92
471.68	9022.77
471.86	8894.04
472.04	9238.09
472.22	9378.53
472.40	9001.70
472.58	9245.12
472.77	9455.76
472.95	9437.04
473.13	9696.84
473.31	9184.26
473.49	9549.39
473.67	9483.85
473.85	9476.83
474.03	9760.03
474.21	9703.86
474.39	9944.94
474.57	9818.55
474.75	9834.93
474.93	10024.51
475.12	9884.08
475.30	10047.92
475.48	10040.90
475.66	10143.88
475.84	10024.51
476.02	10338.15
476.20	10251.55
476.38	10527.73
476.56	10312.40
476.74	10497.30
476.92	10633.05
477.10	10487.94
477.28	10640.08
477.46	10677.52
477.64	10820.30
477.82	10815.62
478.00	11070.73
478.18	11173.72
478.36	11063.71
478.54	11262.66
478.72	11346.92
478.90	11384.37
479.08	11604.38
479.26	11552.88
479.44	11747.15
479.62	11714.38
479.80	11918.01
479.98	11971.84
480.16	12292.49
480.34	12105.25
480.52	12336.96
480.70	12236.32
480.88	12116.95
481.06	12458.67
481.24	12294.83
481.41	12730.17
481.59	12795.71
481.77	12861.24
481.95	12758.26
482.13	13034.44
482.31	12891.67
482.49	13521.27
482.67	13317.65
482.85	13425.31
483.03	13696.82
483.21	13554.04
483.39	13783.41
483.57	13846.61
483.74	13710.86
483.92	13921.51
484.10	13933.21
484.28	14635.37
484.46	14487.92
484.64	14693.88
484.82	14303.01
485.00	14644.73
485.18	15009.86
485.35	15005.17
485.53	15246.25
485.71	15171.35
485.89	15433.49
486.07	15377.32
486.25	15384.34
486.43	15555.20
486.61	15625.42
486.78	15805.64
486.96	15758.83
487.14	15887.56
487.32	16285.45
487.50	16336.94
487.68	16407.16
487.85	16725.47
488.03	16552.27
488.21	17067.19
488.39	17235.70
488.57	17245.07
488.75	17074.21
488.92	17179.53
489.10	17408.90
489.28	17804.46
489.46	17795.09
489.64	17710.83
489.81	18352.14
489.99	18129.79
490.17	18146.17
490.35	18581.51
490.53	18649.39
490.70	18593.22
490.88	18452.78
491.06	18946.64
491.24	18892.80
491.41	19213.46
491.59	19084.73
491.77	19264.95
491.95	19178.35
492.13	19381.98
492.30	19559.86
492.48	19735.40
492.66	19903.92
492.84	19852.42
493.01	20149.67
493.19	20226.91
493.37	20191.80
493.54	20388.41
493.72	20542.88
493.90	20582.67
494.08	20678.63
494.25	20961.84
494.43	21209.93
494.61	21296.53
494.79	21364.41
494.96	21128.02
495.14	21270.79
495.32	22122.74
495.49	21514.20
495.67	21701.45
495.85	21792.73
496.02	21949.54
496.20	22256.15
496.38	22515.95
496.55	22335.73
496.73	23108.11
496.91	22597.87
497.09	22852.99
497.26	22970.02
497.44	22654.05
497.62	22869.37
497.79	23396.00
497.97	23264.92
498.14	23756.44
498.32	23585.58
498.50	23646.43
498.67	23639.41
498.85	23672.18
499.03	23978.79
499.20	24130.92
499.38	24299.44
499.56	24208.16
499.73	24297.10
499.91	24549.88
500.08	24790.95
500.26	24467.96
500.44	24776.91
500.61	24655.20
500.79	24989.90
500.97	24847.13
501.14	25434.60
501.32	25504.82
501.49	24971.18
501.67	25296.51
501.84	26001.01
502.02	25350.34
502.20	25624.18
502.37	25640.57
502.55	25504.82
502.72	26176.55
502.90	25759.94
503.07	25860.58
503.25	25874.62
503.43	26054.84
503.60	26546.36
503.78	26469.12
503.95	26291.24
504.13	26511.25
504.30	26534.65
504.48	26651.68
504.65	26661.04
504.83	27040.21
505.01	27182.98
505.18	27084.68
505.36	27623.00
505.53	27225.11
505.71	27477.89
505.88	27555.13
506.06	27290.65
506.23	27758.75
506.41	27541.08
506.58	27798.54
506.76	27555.13
506.93	27697.90
507.11	28257.29
507.28	27955.36
507.46	27997.49
507.63	28451.55
507.81	28243.24
507.98	28161.33
508.16	28720.71
508.33	28528.79
508.50	28912.64
508.68	28833.06
508.85	28863.49
509.03	28992.22
509.20	28863.49
509.38	29394.79
509.55	29329.25
509.73	29315.21
509.90	29759.91
510.08	29347.98
510.25	29553.94
510.42	29759.91
510.60	29832.47
510.77	29900.34
510.95	29867.58
511.12	30204.61
511.30	29986.94
511.47	29951.84
511.64	29979.92
511.82	30438.67
511.99	30597.82
512.17	30352.07
512.34	30211.64
512.51	30735.92
512.69	30897.41
512.86	30408.24
513.04	30979.33
513.21	31014.44
513.38	30974.65
513.56	31040.18
513.73	30635.27
513.90	31248.49
514.08	31185.30
514.25	31660.43
514.43	31728.30
514.60	31538.72
514.77	31417.01
514.95	32229.18
515.12	31852.35
515.29	31709.58
515.47	32119.17
515.64	31866.39
515.81	31941.29
515.99	31938.95
516.16	32669.20
516.33	32439.82
516.51	32526.42
516.68	32222.16
516.85	32753.46
517.03	32257.26
517.20	32844.74
517.37	32716.01
517.54	32765.16
517.72	32945.38
517.89	33127.94
518.06	33041.34
518.24	33111.56
518.41	33249.65
518.58	33144.33
518.75	33453.28
518.93	33586.69
519.10	33165.39
519.27	33441.57
519.45	33663.93
519.62	33572.64
519.79	33408.81
519.96	33582.01
520.14	33900.32
520.31	33916.70
520.48	33844.15
520.65	34150.76
520.83	34220.97
521.00	34401.19
521.17	34328.64
521.34	34494.82
521.52	34527.58
521.69	34651.63
521.86	34581.42
522.03	34789.72
522.20	34483.11
522.38	34976.97
522.55	35049.52
522.72	34719.51
522.89	35056.54
523.07	35505.93
523.24	35033.14
523.41	35218.04
523.58	35124.42
523.75	35449.75
523.92	35419.33
524.10	35222.72
524.27	35847.64
524.44	35732.96
524.61	35824.24
524.78	35995.10
524.96	35915.52
525.13	35777.43
525.30	36369.58
525.47	36163.62
525.64	36093.40
525.81	36561.51
525.98	36355.54
526.16	36690.24
526.33	36367.24
526.50	36589.59
526.67	36463.21
526.84	36701.94
527.01	36512.36
527.18	36601.30
527.36	36907.91
527.53	36889.18
527.70	37013.23
527.87	37111.53
528.04	37223.88
528.21	37085.79
528.38	37296.44
528.55	36914.93
528.72	37359.63
528.89	37481.34
529.07	37006.21
529.24	37071.75
529.41	37282.39
529.58	37237.92
529.75	37619.43
529.92	37666.24
530.09	37572.62
530.26	37481.34
530.43	38038.39
530.60	37429.85
530.77	37399.42
530.94	38206.90
531.11	37975.19
531.28	37970.51
531.46	38188.18
531.63	37914.34
531.80	37895.61
531.97	38326.27
532.14	38576.71
532.31	38321.59
532.48	38363.72
532.65	38522.88
532.82	38609.48
532.99	38335.63
533.16	38469.04
533.33	38859.91
533.50	38962.90
533.67	38862.26
533.84	38576.71
534.01	39100.99
534.18	38834.17
534.35	39702.51
534.52	39456.75
534.69	39363.13
534.86	39346.75
535.03	39108.01
535.20	39161.84
535.37	39288.23
535.54	39679.10
535.71	39524.63
535.88	39711.87
536.05	39477.82
536.22	39470.79
536.38	39519.95
536.55	39683.78
536.72	39828.90
536.89	39601.86
537.06	39838.26
537.23	40184.66
537.40	39887.41
537.57	39962.31
537.74	40055.93
537.91	39959.97
538.08	40374.24
538.25	40130.83
538.42	40231.47
538.59	40261.90
538.75	40252.53
538.92	40421.05
539.09	40498.29
539.26	40299.34
539.43	40580.21
539.60	40608.29
539.77	40350.84
539.94	40996.82
540.11	40762.77
540.28	40996.82
540.44	40854.05
540.61	41078.74
540.78	40694.89
540.95	40896.18
541.12	41031.93
541.29	40772.13
541.46	41240.24
541.62	40624.68
541.79	41516.42
541.96	40732.34
542.13	40821.28
542.30	40994.48
542.47	41345.56
542.63	41415.78
542.80	41607.70
542.97	41806.65
543.14	41928.36
543.31	41619.41
543.48	41853.46
543.64	42454.98
543.81	42330.93
543.98	41984.53
544.15	42185.82
544.32	42080.49
544.48	42192.84
544.65	42052.41
544.82	42356.67
544.99	42349.65
545.16	42167.09
545.32	42361.36
545.49	42684.35
545.66	42419.87
545.83	42564.98
546.00	42574.34
546.16	42541.58
546.33	42333.27
546.50	42281.78
546.67	43133.73
546.83	42068.79
547.00	42703.07
547.17	42281.78
547.34	42384.76
547.50	42930.11
547.67	43175.86
547.84	43342.04
548.00	43079.90
548.17	43182.88
548.34	43430.98
548.51	43384.17
548.67	43613.54
548.84	43000.32
549.01	43445.02
549.18	43012.02
549.34	43812.49
549.51	43217.99
549.68	43393.53
549.84	43253.10
550.01	43522.26
550.18	43332.68
550.34	43573.75
550.51	43625.25
550.68	44093.35
550.84	43077.56
551.01	44402.30
551.18	43515.24
551.34	43393.53
551.51	43742.27
551.68	43732.91
551.84	43981.01
552.01	43447.36
552.18	44086.33
552.34	43894.41
552.51	44311.02
552.68	44039.52
552.84	44144.84
553.01	44268.89
553.18	44254.85
553.34	44502.95
553.51	44421.03
553.67	44257.19
553.84	44421.03
554.01	44240.81
554.17	44205.70
554.34	44680.83
554.51	44474.86
554.67	44671.46
554.84	44795.51
555.00	44673.81
555.17	44528.69
555.33	44697.21
555.50	44285.28
555.67	44804.88
555.83	44512.31
556.00	45017.86
556.16	45621.72
556.33	44961.69
556.50	44795.51
556.66	44624.65
556.83	44729.98
556.99	45251.92
557.16	45151.27
557.32	45097.44
557.49	45244.90
557.65	44744.02
557.82	44924.24
557.98	45097.44
558.15	45298.73
558.32	45261.28
558.48	45272.98
558.65	45099.78
558.81	45296.39
558.98	44673.81
559.14	45118.51
559.31	45067.02
559.47	45254.26
559.64	45216.81
559.80	45357.24
559.97	45443.84
560.13	45443.84
560.30	45537.46
560.46	45713.00
560.63	45769.18
560.79	45743.43
560.96	46167.07
561.12	45717.68
561.29	46043.02
561.45	45682.58
561.61	45579.59
561.78	45897.91
561.94	45525.76
562.11	45769.18
562.27	45600.66
562.44	45705.98
562.60	45853.44
562.77	45572.57
562.93	45792.58
563.10	45925.99
563.26	45731.73
563.42	46230.26
563.59	45773.86
563.75	45748.11
563.92	46143.66
564.08	45827.69
564.24	46038.34
564.41	46274.73
564.57	45841.73
564.74	46150.68
564.90	45865.14
565.07	45830.03
565.23	46241.96
565.39	46110.89
565.56	46464.32
565.72	45935.35
565.88	46216.22
566.05	46424.53
566.21	45855.78
566.38	46483.04
566.54	46754.54
566.70	46691.35
566.87	46281.75
567.03	46314.52
567.19	46497.08
567.36	45972.80
567.52	46202.18
567.68	46595.38
567.85	46050.04
568.01	46621.13
568.17	46351.97
568.34	46501.76
568.50	46953.49
568.66	46277.07
568.83	46447.93
568.99	46298.14
569.15	46445.59
569.32	46279.41
569.48	46555.60
569.64	46808.37
569.81	46848.16
569.97	46689.01
570.13	46976.89
570.30	46328.56
570.46	46225.58
570.62	46646.88
570.78	46770.93
570.95	46471.34
571.11	47325.63
571.27	46639.86
571.43	46820.08
571.60	47133.71
571.76	46525.17
571.92	46464.32
572.09	46698.37
572.25	46717.09
572.41	46775.61
572.57	46660.92
572.74	47508.19
572.90	46628.15
573.06	47014.34
573.22	46398.78
573.38	47508.19
573.55	47196.90
573.71	47089.24
573.87	46836.46
574.03	46665.60
574.20	47526.92
574.36	46396.44
574.52	47047.11
574.68	47037.75
574.84	47309.25
575.01	46866.89
575.17	47016.68
575.33	47271.80
575.49	47007.32
575.65	47107.96
575.82	47292.86
575.98	47356.06
576.14	47313.93
576.30	47306.91
576.46	47079.88
576.62	46799.01
576.79	46990.94
576.95	46923.06
577.11	46988.60
577.27	46902.00
577.43	47271.80
577.59	47068.17
577.75	46993.28
577.92	46447.93
578.08	47203.92
578.24	46775.61
578.40	47271.80
578.56	47098.60
578.72	47107.96
578.88	47159.45
579.04	47332.65
579.21	47110.30
579.37	46789.65
579.53	47325.63
579.69	46735.82
579.85	46677.30
580.01	47452.02
580.17	47086.90
580.33	47337.33
580.49	47372.44
580.65	47051.79
580.82	47044.77
580.98	46974.55
581.14	46740.50
581.30	46841.14
581.46	46873.91
581.62	47239.03
581.78	46941.78
581.94	47428.62
582.10	46883.27
582.26	47351.38
582.42	47243.71
582.58	47643.94
582.74	47620.54
582.90	47407.55
583.06	47463.72
583.22	47337.33
583.38	47292.86
583.54	47657.99
583.70	47599.47
583.86	47697.78
584.02	47316.27
584.18	47765.65
584.34	47782.04
584.50	47683.73
584.66	47316.27
584.82	47339.68
584.98	47608.84
585.14	47468.40
585.30	47229.67
585.46	47257.76
585.62	47330.31
585.78	47681.39
585.94	47210.95
586.10	47587.77
586.26	47297.55
586.42	47449.68
586.58	47648.63
586.74	47189.88
586.90	47770.33
587.06	47342.02
587.22	47278.82
587.38	47398.19
587.54	47489.47
587.70	47686.07
587.86	47646.29
588.02	46941.78
588.18	47334.99
588.34	47164.14
588.49	47650.97
588.65	47283.50
588.81	47342.02
588.97	47576.07
589.13	47253.08
589.29	47901.40
589.45	47796.08
589.61	47564.37
589.77	47618.20
589.93	47395.85
590.08	47826.51
