SpectraSuite Data File
++++++++++++++++++++++++++++++++++++
Date: Fri Oct 25 11:26:21 EDT 2013
User: price-jones
Dark Spectrum Present: No
Reference Spectrum Present: No
Number of Sampled Component Spectra: 1
Spectrometers: USB2+H05261
Integration Time (usec): 100000 (USB2+H05261)
Spectra Averaged: 1 (USB2+H05261)
Boxcar Smoothing: 0 (USB2+H05261)
Correct for Electrical Dark: No (USB2+H05261)
Strobe/Lamp Enabled: No (USB2+H05261)
Correct for Detector Non-linearity: No (USB2+H05261)
Correct for Stray Light: No (USB2+H05261)
Number of Pixels in Processed Spectrum: 2048
>>>>>Begin Processed Spectral Data<<<<<
365.73	248.10
365.92	248.10
366.12	248.10
366.32	189.58
366.52	138.09
366.72	145.11
366.91	217.67
367.11	98.30
367.31	95.96
367.51	119.37
367.70	110.01
367.90	166.18
368.10	163.84
368.30	145.11
368.49	163.84
368.69	177.88
368.89	145.11
369.09	100.64
369.28	112.35
369.48	128.73
369.68	198.95
369.87	236.39
370.07	191.92
370.27	231.71
370.47	372.15
370.66	594.50
370.86	662.37
371.06	622.58
371.25	812.17
371.45	681.10
371.65	774.72
371.84	711.52
372.04	641.31
372.24	695.14
372.44	643.65
372.63	725.57
372.83	809.83
373.03	784.08
373.22	807.48
373.42	835.57
373.62	772.38
373.81	819.19
374.01	870.68
374.21	856.64
374.40	819.19
374.60	816.85
374.79	877.70
374.99	763.01
375.19	854.30
375.38	887.06
375.58	870.68
375.78	821.53
375.97	898.77
376.17	877.70
376.37	898.77
376.56	847.27
376.76	814.51
376.95	929.19
377.15	866.00
377.35	868.34
377.54	950.26
377.74	856.64
377.93	840.25
378.13	985.37
378.33	1011.11
378.52	919.83
378.72	1027.50
378.91	950.26
379.11	1029.84
379.31	985.37
379.50	987.71
379.70	1041.54
379.89	926.85
380.09	954.94
380.28	968.98
380.48	894.08
380.68	999.41
380.87	1008.77
381.07	1006.43
381.26	997.07
381.46	1039.20
381.65	1018.13
381.85	964.30
382.04	1064.94
382.24	1006.43
382.43	1069.62
382.63	1090.69
382.83	1043.88
383.02	1046.22
383.22	1067.28
383.41	1062.60
383.61	966.64
383.80	1055.58
384.00	1142.18
384.19	1135.16
384.39	1118.78
384.58	1238.14
384.78	1158.57
384.97	1186.65
385.17	1132.82
385.36	1188.99
385.56	1181.97
385.75	1144.52
385.95	1217.08
386.14	1249.85
386.34	1170.27
386.53	1275.59
386.72	1231.12
386.92	1275.59
387.11	1270.91
387.31	1231.12
387.50	1198.35
387.70	1306.02
387.89	1275.59
388.09	1261.55
388.28	1228.78
388.48	1259.21
388.67	1284.95
388.86	1306.02
389.06	1282.61
389.25	1266.23
389.45	1409.00
389.64	1366.87
389.84	1341.13
390.03	1331.76
390.22	1392.62
390.42	1348.15
390.61	1373.89
390.81	1352.83
391.00	1409.00
391.19	1385.60
391.39	1495.60
391.58	1439.43
391.78	1399.64
391.97	1465.18
392.16	1565.82
392.36	1530.71
392.55	1511.99
392.75	1596.25
392.94	1497.94
393.13	1547.09
393.33	1502.62
393.52	1657.10
393.71	1636.03
393.91	1528.37
394.10	1605.61
394.29	1549.43
394.49	1528.37
394.68	1617.31
394.88	1612.63
395.07	1640.72
395.26	1781.15
395.46	1572.84
395.65	1748.38
395.84	1760.08
396.04	1834.98
396.23	1652.42
396.42	1771.79
396.62	1825.62
396.81	1851.36
397.00	1659.44
397.19	1757.74
397.39	1762.42
397.58	1867.75
397.77	1757.74
397.97	1818.60
398.16	1872.43
398.35	1870.09
398.55	1806.89
398.74	1874.77
398.93	1942.64
399.12	1879.45
399.32	2026.90
399.51	2019.88
399.70	2005.84
399.90	1954.35
400.09	2022.22
400.28	2026.90
400.47	2120.53
400.67	2026.90
400.86	2031.58
401.05	2090.10
401.24	2071.37
401.44	2047.97
401.63	2064.35
401.82	2064.35
402.01	2193.08
402.21	2160.31
402.40	2099.46
402.59	2155.63
402.78	2246.91
402.97	2139.25
403.17	2296.07
403.36	2200.10
403.55	2335.85
403.74	2340.54
403.93	2349.90
404.13	2275.00
404.32	2431.82
404.51	2417.77
404.70	2314.79
404.89	2382.67
405.09	2450.54
405.28	2361.60
405.47	2441.18
405.66	2525.44
405.85	2574.59
406.05	2492.67
406.24	2534.80
406.43	2619.06
406.62	2628.42
406.81	2537.14
407.00	2590.97
407.20	2616.72
407.39	2642.46
407.58	2700.98
407.77	2712.68
407.96	2715.02
408.15	2731.41
408.34	2757.15
408.54	2705.66
408.73	2710.34
408.92	2822.69
409.11	2789.92
409.30	2848.43
409.49	2883.54
409.68	2944.39
409.87	2785.24
410.07	2869.50
410.26	2874.18
410.45	2937.37
410.64	3042.70
410.83	3157.38
411.02	3021.63
411.21	3185.47
411.40	3103.55
411.59	3155.04
411.78	3098.87
411.98	3253.34
412.17	3316.54
412.36	3145.68
412.55	3321.22
412.74	3281.43
412.93	3300.16
413.12	3309.52
413.31	3428.88
413.50	3538.89
413.69	3599.74
413.88	3641.87
414.07	3716.77
414.26	3611.45
414.45	3581.02
414.64	3641.87
414.83	3719.11
415.02	3716.77
415.22	3761.24
415.41	3901.67
415.60	3782.31
415.79	3730.81
415.98	3953.16
416.17	3941.46
416.36	3866.56
416.55	4023.38
416.74	3911.04
416.93	4093.60
417.12	4023.38
417.31	4114.66
417.50	4208.28
417.69	4299.56
417.88	4152.11
418.07	4250.41
418.26	4327.65
418.45	4320.63
418.64	4458.72
418.83	4456.38
419.02	4252.75
419.21	4374.46
419.39	4629.58
419.58	4564.04
419.77	4362.76
419.96	4573.41
420.15	4770.01
420.34	4475.10
420.53	4531.28
420.72	4468.08
420.91	4723.20
421.10	4662.35
421.29	4896.40
421.48	4786.40
421.67	4746.61
421.86	4706.82
422.05	4655.33
422.24	4835.55
422.43	4865.97
422.61	4856.61
422.80	4873.00
422.99	4917.47
423.18	5022.79
423.37	4973.64
423.56	4926.83
423.75	4748.95
423.94	4779.37
424.13	4512.55
424.32	4837.89
424.50	4961.94
424.69	5004.07
424.88	5097.69
425.07	4983.00
425.26	4908.10
425.45	4978.32
425.64	4957.25
425.83	4959.60
426.01	5137.48
426.20	5011.09
426.39	4954.91
426.58	4973.64
426.77	5074.28
426.96	5160.88
427.15	5041.51
427.33	5301.31
427.52	5111.73
427.71	5167.90
427.90	5256.84
428.09	5221.74
428.28	5444.09
428.46	5261.52
428.65	5268.55
428.84	5460.47
429.03	5607.92
429.22	5329.40
429.40	5549.41
429.59	5441.75
429.78	5291.95
429.97	5242.80
430.16	5502.60
430.34	5591.54
430.53	5621.97
430.72	5654.73
430.91	5638.35
431.10	5561.11
431.28	5776.44
431.47	5811.55
431.66	5909.85
431.85	5729.63
432.03	5912.19
432.22	5923.90
432.41	5806.87
432.60	5893.47
432.79	5907.51
432.97	6071.35
433.16	6104.12
433.35	5998.79
433.54	6169.65
433.72	6036.24
433.91	6022.20
434.10	6162.63
434.28	6054.97
434.47	5898.15
434.66	6169.65
434.85	6310.08
435.03	6232.85
435.22	6195.40
435.41	6356.90
435.59	6546.48
435.78	6305.40
435.97	6431.79
436.16	6209.44
436.34	6251.57
436.53	6326.47
436.72	6532.44
436.90	6415.41
437.09	6665.85
437.28	6530.09
437.46	6679.89
437.65	6567.54
437.84	6661.16
438.02	6792.23
438.21	6623.72
438.40	6509.03
438.58	6913.94
438.77	7009.90
438.96	6963.09
439.14	7056.72
439.33	7030.97
439.52	7103.53
439.70	7190.13
439.89	7332.90
440.08	7564.61
440.26	7335.24
440.45	7288.43
440.63	7398.43
440.82	7730.79
441.01	7522.48
441.19	7431.20
441.38	7496.74
441.57	7597.38
441.75	7812.71
441.94	7772.92
442.12	7967.18
442.31	7733.13
442.50	7861.86
442.68	7761.22
442.87	7906.33
443.05	7997.61
443.24	8287.84
443.43	8039.74
443.61	8152.09
443.80	8290.18
443.98	7976.55
444.17	7850.16
444.35	8105.28
444.54	8219.96
444.73	8245.71
444.91	8187.19
445.10	8287.84
445.28	8194.22
445.47	8161.45
445.65	8351.03
445.84	8414.23
446.02	8461.04
446.21	8318.26
446.39	8390.82
446.58	8308.90
446.77	8238.69
446.95	8184.85
447.14	8278.47
447.32	8648.28
447.51	8329.97
447.69	8367.42
447.88	8411.89
448.06	8620.19
448.25	8468.06
448.43	8659.98
448.62	8531.25
448.80	8390.82
448.99	8613.17
449.17	8805.10
449.36	8482.10
449.54	8655.30
449.73	8926.80
449.91	9046.17
450.10	8594.45
450.28	8968.93
450.46	8854.25
450.65	9067.24
450.83	8741.90
451.02	9100.00
451.20	8975.95
451.39	9029.79
451.57	9078.94
451.76	8868.29
451.94	9193.62
452.13	9245.12
452.31	9207.67
452.49	9221.71
452.68	9221.71
452.86	9415.98
453.05	9174.90
453.23	9397.25
453.42	9446.40
453.60	9359.80
453.78	9378.53
453.97	9542.36
454.15	9507.26
454.34	9444.06
454.52	9394.91
454.70	9640.67
454.89	9762.37
455.07	9734.29
455.26	9745.99
455.44	9853.66
455.62	9750.67
455.81	9923.87
455.99	9942.60
456.17	9984.73
456.36	9837.27
456.54	9935.57
456.73	10190.69
456.91	10296.02
457.09	10284.31
457.28	10431.77
457.46	10225.80
457.64	10483.26
457.83	10614.33
458.01	10410.70
458.19	10504.32
458.38	10518.37
458.56	10600.29
458.74	10794.55
458.93	10661.14
459.11	10682.20
459.29	10824.98
459.48	10731.36
459.66	10817.96
459.84	10942.00
460.03	11094.14
460.21	11052.01
460.39	10815.62
460.57	10909.24
460.76	10970.09
460.94	11009.88
461.12	11052.01
461.31	11157.33
461.49	11279.04
461.67	11140.95
461.85	11419.47
462.04	11272.02
462.22	11943.75
462.40	11566.93
462.59	11335.21
462.77	11477.99
462.95	11674.59
463.13	11517.78
463.32	11405.43
463.50	11658.21
463.68	11541.18
463.86	11751.83
464.05	11665.23
464.23	11632.46
464.41	11639.48
464.59	11344.58
464.78	12142.70
464.96	11932.05
465.14	11836.09
465.32	12023.33
465.50	12123.98
465.69	11946.09
465.87	11925.03
466.05	12060.78
466.23	12060.78
466.41	12362.71
466.60	12088.87
466.78	11946.09
466.96	12070.14
467.14	12226.96
467.32	12273.77
467.51	12351.01
467.69	11922.69
467.87	12615.49
468.05	12645.91
468.23	12372.07
468.41	12381.43
468.60	12695.07
468.78	12716.13
468.96	12645.91
469.14	12589.74
469.32	13102.32
469.50	12524.21
469.69	12851.88
469.87	12973.59
470.05	12980.61
470.23	13296.58
470.41	12966.57
470.59	13146.79
470.77	13090.62
470.95	13135.09
471.14	13130.41
471.32	12879.97
471.50	13563.40
471.68	13289.56
471.86	13652.34
472.04	13626.60
472.22	14085.34
472.40	13638.30
472.58	13678.09
472.77	13792.78
472.95	14026.83
473.13	14377.91
473.31	14099.39
473.49	14043.21
473.67	13879.38
473.85	14185.99
474.03	14415.36
474.21	14466.85
474.39	14647.07
474.57	14728.99
474.75	14637.71
474.93	14946.66
475.12	14991.13
475.30	15084.75
475.48	15187.74
475.66	15019.22
475.84	15145.61
476.02	15147.95
476.20	15227.53
476.38	15510.73
476.56	15915.64
476.74	15761.17
476.92	15676.91
477.10	15721.38
477.28	16128.63
477.46	15983.52
477.64	16348.64
477.82	16589.72
478.00	16460.99
478.18	16657.59
478.36	16994.63
478.54	16987.61
478.72	17439.33
478.90	17179.53
479.08	17570.40
479.26	17717.86
479.44	17399.54
479.62	17839.56
479.80	17664.02
479.98	18106.38
480.16	18272.56
480.34	18178.94
480.52	18396.61
480.70	18501.93
480.88	18141.49
481.06	18607.26
481.24	18693.86
481.41	18979.40
481.59	19222.82
481.77	19288.35
481.95	19484.96
482.13	19569.22
482.31	19454.53
482.49	20119.24
482.67	19927.32
482.85	20304.15
483.03	20372.02
483.21	20657.57
483.39	20676.29
483.57	20835.45
483.74	20947.79
483.92	21188.87
484.10	21263.77
484.28	21422.92
484.46	21902.73
484.64	22361.48
484.82	21741.24
485.00	22164.87
485.18	22441.06
485.35	23150.24
485.53	22813.20
485.71	23199.39
485.89	23714.31
486.07	23468.55
486.25	23271.95
486.43	23468.55
486.61	23789.20
486.78	23990.49
486.96	24205.82
487.14	24613.07
487.32	24402.43
487.50	25228.63
487.68	24915.00
487.85	25254.38
488.03	25303.53
488.21	25345.66
488.39	25862.92
488.57	25750.57
488.75	25900.37
488.92	26230.38
489.10	26511.25
489.28	26555.72
489.46	26984.04
489.64	26712.53
489.81	27733.01
489.99	27133.83
490.17	27756.41
490.35	27901.53
490.53	27854.72
490.70	28107.49
490.88	28091.11
491.06	28978.17
491.24	28896.25
491.41	28868.17
491.59	29064.77
491.77	29118.60
491.95	29500.11
492.13	29612.46
492.30	29766.93
492.48	29858.21
492.66	30087.59
492.84	29806.72
493.01	30801.45
493.19	30321.64
493.37	30656.34
493.54	30824.86
493.72	31314.03
493.90	31447.44
494.08	31318.71
494.25	31782.13
494.43	32189.39
494.61	32009.17
494.79	32278.33
494.96	32442.17
495.14	32636.43
495.32	33151.35
495.49	33043.68
495.67	33092.83
495.85	32807.29
496.02	33429.87
496.20	33872.23
496.38	33909.68
496.55	34132.03
496.73	34588.44
496.91	34565.03
497.09	34684.40
497.26	34525.24
497.44	34745.25
497.62	34775.68
497.79	35468.48
497.97	35398.26
498.14	35747.00
498.32	36187.02
498.50	35969.35
498.67	36257.24
498.85	36385.97
499.03	36032.55
499.20	36535.76
499.38	36685.56
499.56	36856.42
499.73	36985.15
499.91	37102.17
500.08	37284.73
500.26	36760.45
500.44	37326.86
500.61	37593.68
500.79	37717.73
500.97	37579.64
501.14	38293.50
501.32	38733.53
501.49	38242.01
501.67	38532.24
501.84	38665.65
502.02	38323.93
502.20	38721.82
502.37	39283.55
502.55	39178.23
502.72	38955.88
502.90	39777.40
503.07	38995.67
503.25	40137.85
503.43	39576.12
503.60	39690.80
503.78	40109.76
503.95	40098.06
504.13	40133.17
504.30	40362.54
504.48	40189.34
504.65	40540.42
504.83	40809.58
505.01	41097.47
505.18	40847.03
505.36	41186.41
505.53	40893.84
505.71	40802.56
505.88	41635.79
506.06	41542.17
506.23	41652.17
506.41	41542.17
506.58	41748.14
506.76	42068.79
506.93	42572.00
507.11	42050.06
507.28	42464.34
507.46	42541.58
507.63	42939.47
507.81	42436.25
507.98	42581.37
508.16	42880.95
508.33	43028.41
508.50	43072.88
508.68	43452.05
508.85	43531.62
509.03	43372.47
509.20	43924.83
509.38	44133.14
509.55	44179.95
509.73	44142.50
509.90	44383.58
510.08	44240.81
510.25	44591.89
510.42	44306.34
510.60	44666.78
510.77	44886.79
510.95	45298.73
511.12	44975.73
511.30	44996.80
511.47	45357.24
511.64	45509.38
511.82	45603.00
511.99	45720.02
512.17	45666.19
512.34	45708.32
512.51	46073.45
512.69	46115.58
512.86	46176.43
513.04	46628.15
513.21	46513.47
513.38	46438.57
513.56	46714.75
513.73	46401.12
513.90	46637.51
514.08	46684.33
514.25	47065.83
514.43	47239.03
514.60	47122.01
514.77	47234.35
514.95	47601.82
515.12	47929.49
515.29	47299.89
515.47	47826.51
515.64	47477.77
515.81	47753.95
515.99	47789.06
516.16	48140.14
516.33	48072.26
516.51	48236.10
516.68	48229.08
516.85	48776.76
517.03	48638.67
517.20	48776.76
517.37	48512.28
517.54	48236.10
517.72	48657.40
517.89	48547.39
518.06	48973.37
518.24	48851.66
518.41	48828.26
518.58	49450.84
518.75	49059.97
518.93	49298.70
519.10	49453.18
519.27	49165.29
519.45	49790.22
519.62	49626.38
519.79	49895.54
519.96	49741.06
520.14	49883.84
520.31	49832.35
520.48	50014.91
520.65	49977.46
520.83	50384.71
521.00	50433.86
521.17	50246.62
521.34	50597.70
521.52	50316.84
521.69	50686.64
521.86	50834.10
522.03	50431.52
522.20	51110.28
522.38	50834.10
522.55	50995.59
522.72	50995.59
522.89	51068.15
523.07	51168.79
523.24	51143.05
523.41	51391.14
523.58	51093.89
523.75	51831.16
523.92	51468.38
524.10	51978.62
524.27	51952.87
524.44	51772.65
524.61	52013.73
524.78	51650.94
524.96	52102.67
525.13	52126.07
525.30	52411.62
525.47	52182.24
525.64	52247.78
525.81	52554.39
525.98	52676.10
526.16	52121.39
526.33	52575.45
526.50	52963.98
526.67	52638.65
526.84	52633.97
527.01	52467.79
527.18	52821.21
527.36	52956.96
527.53	52722.91
527.70	52851.64
527.87	53191.01
528.04	53277.61
528.21	53008.45
528.38	53429.75
528.55	53310.38
528.72	53200.38
528.89	53036.54
529.07	53144.20
529.24	53284.64
529.41	53710.61
529.58	53551.46
529.75	53478.90
529.92	53305.70
530.09	53776.15
530.26	53876.79
530.43	54005.52
530.60	53404.00
530.77	53567.84
530.94	54120.21
531.11	53975.09
531.28	53930.62
531.46	54075.74
531.63	53858.07
531.80	53825.30
531.97	54120.21
532.14	54143.61
532.31	54106.16
532.48	54370.64
532.65	54377.67
532.82	54321.49
532.99	54529.80
533.16	54319.15
533.33	54550.87
533.50	54220.85
533.67	54511.08
533.84	54553.21
534.01	54653.85
534.18	54813.01
534.35	55065.78
534.52	54712.36
534.69	55084.51
534.86	55185.15
535.03	55009.61
535.20	55330.26
535.37	55107.91
535.54	55217.92
535.71	54995.57
535.88	55320.90
536.05	55194.51
536.22	55454.31
536.38	55480.06
536.55	55395.80
536.72	55426.23
536.89	55353.67
537.06	55519.85
537.23	55585.38
537.40	55316.22
537.57	55468.36
537.74	55700.07
537.91	55966.89
538.08	55744.54
538.25	55444.95
538.42	55669.64
538.59	55711.77
538.75	55929.44
538.92	55636.87
539.09	56147.11
539.26	55819.44
539.43	55927.10
539.60	56112.00
539.77	56027.74
539.94	56381.16
540.11	56271.16
540.28	56341.38
540.44	56512.23
540.61	56385.85
540.78	56334.35
540.95	56388.19
541.12	56322.65
541.29	56240.73
541.46	56530.96
541.62	56339.04
541.79	56832.89
541.96	56537.98
542.13	56427.98
542.30	56413.93
542.47	56711.18
542.63	56711.18
542.80	56903.10
542.97	56949.92
543.14	57116.09
543.31	56868.00
543.48	57066.94
543.64	57167.58
543.81	57301.00
543.98	57066.94
544.15	57052.90
544.32	57017.79
544.48	57471.85
544.65	57219.08
544.82	57251.84
544.99	57251.84
545.16	57499.94
545.32	57256.53
545.49	57462.49
545.66	57528.03
545.83	57329.08
546.00	57715.27
546.16	57619.31
546.33	57523.35
546.50	57240.14
546.67	57748.04
546.83	57518.67
547.00	57647.39
547.17	57836.98
547.34	57642.71
547.50	57729.31
547.67	57902.51
547.84	57890.81
548.00	58113.16
548.17	58049.97
548.34	58054.65
548.51	57991.45
548.67	58199.76
548.84	57888.47
549.01	57977.41
549.18	58141.25
549.34	58099.12
549.51	58038.26
549.68	58211.46
549.84	58260.62
550.01	58389.34
550.18	58188.06
550.34	58239.55
550.51	58422.11
550.68	58417.43
550.84	58143.59
551.01	58319.13
551.18	58422.11
551.34	58513.39
551.51	58426.79
551.68	58553.18
551.84	58326.15
552.01	58499.35
552.18	58511.05
552.34	58230.19
552.51	58602.33
552.68	58403.39
552.84	58511.05
553.01	58670.21
553.18	58513.39
553.34	58574.25
553.51	58543.82
553.67	58621.06
553.84	58798.94
554.01	58871.49
554.17	58801.28
554.34	58890.22
554.51	58831.71
554.67	58920.65
554.84	58686.59
555.00	58857.45
555.17	58880.86
555.33	58740.42
555.50	58731.06
555.67	58855.11
555.83	58829.37
556.00	58972.14
556.16	59220.23
556.33	59000.22
556.50	58899.58
556.66	59278.75
556.83	58937.03
556.99	59306.83
557.16	59196.83
557.32	59377.05
557.49	59346.62
557.65	59096.19
557.82	59250.66
557.98	59407.48
558.15	59386.41
558.32	59276.41
558.48	59337.26
558.65	59522.16
558.81	59515.14
558.98	59299.81
559.14	59353.65
559.31	59484.72
559.47	59503.44
559.64	59753.88
559.80	59561.95
559.97	59550.25
560.13	59245.98
560.30	59683.66
560.46	59683.66
560.63	59615.79
560.79	59426.20
560.96	59676.64
561.12	59627.49
561.29	59693.02
561.45	59753.88
561.61	59700.04
561.78	59695.36
561.94	59641.53
562.11	59636.85
562.27	59751.54
562.44	59671.96
562.60	60018.36
562.77	59791.33
562.93	59650.89
563.10	60165.81
563.26	59817.07
563.42	60004.31
563.59	59980.91
563.75	59845.16
563.92	59835.80
564.08	59898.99
564.24	59980.91
564.41	60027.72
564.57	59906.01
564.74	60170.49
564.90	59962.18
565.07	60044.10
565.23	60083.89
565.39	59875.58
565.56	60090.91
565.72	59957.50
565.88	60051.12
566.05	60137.72
566.21	59796.01
566.38	60107.30
566.54	60074.53
566.70	60226.66
566.87	60238.37
567.03	60025.38
567.19	60310.92
567.36	60229.01
567.52	60020.70
567.68	60142.41
567.85	60266.45
568.01	60313.26
568.17	60123.68
568.34	60163.47
568.50	60289.86
568.66	60203.26
568.83	60217.30
568.99	60109.64
569.15	60350.71
569.32	60313.26
569.48	60116.66
569.64	60250.07
569.81	60261.77
569.97	60266.45
570.13	60292.20
570.30	60275.82
570.46	60245.39
570.62	60280.50
570.78	60346.03
570.95	60296.88
571.11	60467.74
571.27	60299.22
571.43	60451.36
571.60	60598.81
571.76	60420.93
571.92	60357.74
572.09	60392.84
572.25	60271.14
572.41	60252.41
572.57	60357.74
572.74	60626.90
572.90	60280.50
573.06	60371.78
573.22	60430.29
573.38	60313.26
573.55	60378.80
573.71	60605.83
573.87	60355.39
574.03	60439.65
574.20	60652.64
574.36	60584.77
574.52	60439.65
574.68	60617.53
574.84	60669.03
575.01	60552.00
575.17	60643.28
575.33	60526.25
575.49	60690.09
575.65	60406.89
575.82	60753.29
575.98	60697.11
576.14	60874.99
576.30	60800.10
576.46	60556.68
576.62	60676.05
576.79	60523.91
576.95	60427.95
577.11	60748.60
577.27	60540.30
577.43	60807.12
577.59	60769.67
577.75	60687.75
577.92	60339.01
578.08	60708.82
578.24	60760.31
578.40	60877.33
578.56	60842.23
578.72	60718.18
578.88	60853.93
579.04	60863.29
579.21	60828.18
579.37	60788.39
579.53	60769.67
579.69	60615.19
579.85	60662.00
580.01	60755.63
580.17	60755.63
580.33	60640.94
580.49	60903.08
580.65	60647.96
580.82	60582.43
580.98	60596.47
581.14	60664.35
581.30	60748.60
581.46	60622.22
581.62	60865.63
581.78	60764.99
581.94	60863.29
582.10	60603.49
582.26	60750.94
582.42	60587.11
582.58	60825.84
582.74	60666.69
582.90	60844.57
583.06	60566.04
583.22	60425.61
583.38	60989.68
583.54	60748.60
583.70	60851.59
583.86	60912.44
584.02	60720.52
584.18	60907.76
584.34	60851.59
584.50	60917.12
584.66	60795.42
584.82	60910.10
584.98	61001.38
585.14	60886.70
585.30	60874.99
585.46	60938.19
585.62	60741.58
585.78	60860.95
585.94	60591.79
586.10	60865.63
586.26	60786.05
586.42	61006.06
586.58	60928.83
586.74	60926.49
586.90	60999.04
587.06	61031.81
587.22	60879.67
587.38	60790.73
587.54	60851.59
587.70	61251.82
587.86	61048.19
588.02	60793.07
588.18	61024.79
588.34	60921.80
588.49	60853.93
