SpectraSuite Data File
++++++++++++++++++++++++++++++++++++
Date: Fri Oct 25 11:33:16 EDT 2013
User: price-jones
Dark Spectrum Present: No
Reference Spectrum Present: No
Number of Sampled Component Spectra: 1
Spectrometers: USB2+H05261
Integration Time (usec): 100000 (USB2+H05261)
Spectra Averaged: 1 (USB2+H05261)
Boxcar Smoothing: 0 (USB2+H05261)
Correct for Electrical Dark: No (USB2+H05261)
Strobe/Lamp Enabled: No (USB2+H05261)
Correct for Detector Non-linearity: No (USB2+H05261)
Correct for Stray Light: No (USB2+H05261)
Number of Pixels in Processed Spectrum: 2048
>>>>>Begin Processed Spectral Data<<<<<
365.73	278.52
365.92	278.52
366.12	278.52
366.32	156.82
366.52	175.54
366.72	196.60
366.91	147.45
367.11	189.58
367.31	168.52
367.51	131.07
367.70	154.48
367.90	180.22
368.10	222.35
368.30	166.18
368.49	203.63
368.69	182.56
368.89	191.92
369.09	212.99
369.28	156.82
369.48	217.67
369.68	283.20
369.87	194.26
370.07	280.86
370.27	283.20
370.47	301.93
370.66	528.96
370.86	524.28
371.06	531.30
371.25	582.79
371.45	547.69
371.65	620.24
371.84	543.00
372.04	601.52
372.24	564.07
372.44	573.43
372.63	592.16
372.83	624.92
373.03	554.71
373.22	561.73
373.42	582.79
373.62	540.66
373.81	613.22
374.01	622.58
374.21	674.07
374.40	641.31
374.60	704.50
374.79	627.26
374.99	667.05
375.19	697.48
375.38	702.16
375.58	601.52
375.78	650.67
375.97	638.97
376.17	746.63
376.37	660.03
376.56	613.22
376.76	653.01
376.95	683.44
377.15	706.84
377.35	683.44
377.54	671.73
377.74	699.82
377.93	627.26
378.13	692.80
378.33	695.14
378.52	648.33
378.72	753.65
378.91	645.99
379.11	678.76
379.31	692.80
379.50	725.57
379.70	685.78
379.89	748.97
380.09	748.97
380.28	685.78
380.48	767.70
380.68	746.63
380.87	725.57
381.07	746.63
381.26	837.91
381.46	819.19
381.65	716.20
381.85	767.70
382.04	779.40
382.24	793.44
382.43	793.44
382.63	781.74
382.83	793.44
383.02	758.33
383.22	858.98
383.41	819.19
383.61	774.72
383.80	802.80
384.00	891.74
384.19	791.10
384.39	835.57
384.58	800.46
384.78	781.74
384.97	837.91
385.17	800.46
385.36	849.61
385.56	849.61
385.75	830.89
385.95	910.47
386.14	882.38
386.34	842.59
386.53	903.45
386.72	781.74
386.92	992.39
387.11	896.43
387.31	971.32
387.50	933.87
387.70	903.45
387.89	905.79
388.09	835.57
388.28	929.19
388.48	887.06
388.67	978.34
388.86	880.04
389.06	966.64
389.25	959.62
389.45	985.37
389.64	945.58
389.84	882.38
390.03	931.53
390.22	1060.26
390.42	943.24
390.61	936.21
390.81	945.58
391.00	999.41
391.19	1086.01
391.39	983.02
391.58	1046.22
391.78	940.90
391.97	1053.24
392.16	1083.67
392.36	1116.44
392.55	1050.90
392.75	1041.54
392.94	1071.97
393.13	1111.75
393.33	1041.54
393.52	1076.65
393.71	1048.56
393.91	1032.18
394.10	994.73
394.29	1196.01
394.49	1090.69
394.68	1198.35
394.88	1083.67
395.07	1097.71
395.26	1217.08
395.46	1125.80
395.65	1139.84
395.84	1247.51
396.04	1233.46
396.23	1242.82
396.42	1212.40
396.62	1184.31
396.81	1254.53
397.00	1181.97
397.19	1200.69
397.39	1193.67
397.58	1231.12
397.77	1289.64
397.97	1348.15
398.16	1296.66
398.35	1320.06
398.55	1245.16
398.74	1329.42
398.93	1303.68
399.12	1416.02
399.32	1362.19
399.51	1355.17
399.70	1387.94
399.90	1359.85
400.09	1371.55
400.28	1404.32
400.47	1401.98
400.67	1406.66
400.86	1434.75
401.05	1357.51
401.24	1467.52
401.44	1418.36
401.63	1423.05
401.82	1369.21
402.01	1352.83
402.21	1497.94
402.40	1469.86
402.59	1455.81
402.78	1516.67
402.97	1474.54
403.17	1561.14
403.36	1549.43
403.55	1575.18
403.74	1624.33
403.93	1533.05
404.13	1598.59
404.32	1647.74
404.51	1603.27
404.70	1568.16
404.89	1607.95
405.09	1650.08
405.28	1685.19
405.47	1678.16
405.66	1790.51
405.85	1879.45
406.05	1797.53
406.24	1825.62
406.43	1769.44
406.62	1858.39
406.81	1867.75
407.00	1877.11
407.20	1790.51
407.39	1802.21
407.58	1844.34
407.77	1902.86
407.96	1863.07
408.15	1893.49
408.34	1827.96
408.54	1982.43
408.73	1984.77
408.92	1942.64
409.11	1944.99
409.30	2054.99
409.49	2026.90
409.68	1991.80
409.87	2008.18
410.07	2218.83
410.26	2071.37
410.45	2134.57
410.64	2125.21
410.83	2108.82
411.02	2069.03
411.21	2270.32
411.40	2195.42
411.59	2209.47
411.78	2033.93
411.98	2190.74
412.17	2298.41
412.36	2354.58
412.55	2392.03
412.74	2436.50
412.93	2286.70
413.12	2258.62
413.31	2469.27
413.50	2373.30
413.69	2448.20
413.88	2483.31
414.07	2436.50
414.26	2490.33
414.45	2490.33
414.64	2583.95
414.83	2541.82
415.02	2647.15
415.22	2649.49
415.41	2696.30
415.60	2644.81
415.79	2670.55
415.98	2736.09
416.17	2761.83
416.36	2696.30
416.55	2799.28
416.74	2925.67
416.93	2801.62
417.12	2766.51
417.31	2864.82
417.50	2857.79
417.69	2930.35
417.88	2991.20
418.07	2932.69
418.26	2988.86
418.45	3206.53
418.64	3218.24
418.83	3117.59
419.02	3033.33
419.21	3000.57
419.39	3148.02
419.58	3136.32
419.77	3199.51
419.96	3194.83
420.15	3307.18
420.34	3260.37
420.53	3222.92
420.72	3208.87
420.91	3314.20
421.10	3236.96
421.29	3300.16
421.48	3229.94
421.67	3400.80
421.86	3356.33
422.05	3386.76
422.24	3391.44
422.43	3314.20
422.61	3412.50
422.80	3452.29
422.99	3403.14
423.18	3499.10
423.37	3487.40
423.56	3480.38
423.75	3480.38
423.94	3337.60
424.13	3222.92
424.32	3454.63
424.50	3454.63
424.69	3550.59
424.88	3686.34
425.07	3545.91
425.26	3475.70
425.45	3358.67
425.64	3499.10
425.83	3459.31
426.01	3506.12
426.20	3583.36
426.39	3487.40
426.58	3534.21
426.77	3548.25
426.96	3763.58
427.15	3632.51
427.33	3630.17
427.52	3583.36
427.71	3672.30
427.90	3749.54
428.09	3618.47
428.28	3634.85
428.46	3758.90
428.65	3669.96
428.84	3712.09
429.03	3873.59
429.22	3742.52
429.40	3756.56
429.59	3847.84
429.78	3637.19
429.97	3613.79
430.16	3686.34
430.34	4002.32
430.53	3992.95
430.72	3882.95
430.91	3920.40
431.10	3836.14
431.28	4077.21
431.47	4109.98
431.66	4016.36
431.85	3798.69
432.03	4049.13
432.22	4166.15
432.41	4124.02
432.60	4039.76
432.79	4077.21
432.97	4203.60
433.16	4175.52
433.35	4121.68
433.54	4154.45
433.72	4334.67
433.91	4304.25
434.10	4182.54
434.28	4266.80
434.47	4264.46
434.66	4271.48
434.85	4227.01
435.03	4472.76
435.22	4381.48
435.41	4496.17
435.59	4416.59
435.78	4353.40
435.97	4432.97
436.16	4503.19
436.34	4423.61
436.53	4402.55
436.72	4629.58
436.90	4489.15
437.09	4561.70
437.28	4526.60
437.46	4423.61
437.65	4533.62
437.84	4573.41
438.02	4594.47
438.21	4678.73
438.40	4660.01
438.58	4669.37
438.77	4849.59
438.96	4814.48
439.14	4987.68
439.33	4957.25
439.52	5004.07
439.70	5029.81
439.89	5015.77
440.08	5046.20
440.26	5144.50
440.45	5062.58
440.63	5128.11
440.82	5334.08
441.01	5156.20
441.19	5350.46
441.38	5345.78
441.57	5263.86
441.75	5404.30
441.94	5554.09
442.12	5516.64
442.31	5465.15
442.50	5507.28
442.68	5376.21
442.87	5462.81
443.05	5575.16
443.24	5610.26
443.43	5577.50
443.61	5673.46
443.80	5741.33
443.98	5575.16
444.17	5366.85
444.35	5596.22
444.54	5584.52
444.73	5579.84
444.91	5619.63
445.10	5628.99
445.28	5647.71
445.47	5713.25
445.65	5673.46
445.84	5708.57
446.02	5919.21
446.21	5738.99
446.39	5788.14
446.58	5888.79
446.77	5771.76
446.95	5760.06
447.14	5790.49
447.32	5865.38
447.51	5722.61
447.69	5785.80
447.88	5778.78
448.06	5935.60
448.25	5771.76
448.43	5947.30
448.62	5834.96
448.80	5881.77
448.99	5804.53
449.17	5949.64
449.36	5963.68
449.54	6059.65
449.73	6036.24
449.91	6207.10
450.10	6045.60
450.28	6221.14
450.46	6204.76
450.65	6078.37
450.83	6150.93
451.02	6274.98
451.20	6200.08
451.39	6289.02
451.57	6122.84
451.76	6092.41
451.94	6129.86
452.13	6270.30
452.31	6338.17
452.49	6277.32
452.68	6286.68
452.86	6452.86
453.05	6459.88
453.23	6438.81
453.42	6443.49
453.60	6450.52
453.78	6544.14
453.97	6553.50
454.15	6530.09
454.34	6331.15
454.52	6649.46
454.70	6609.67
454.89	6506.69
455.07	6668.19
455.26	6651.80
455.44	6722.02
455.62	6754.79
455.81	6724.36
455.99	6848.41
456.17	6806.28
456.36	6796.92
456.54	6998.20
456.73	6778.19
456.91	7126.93
457.09	6923.30
457.28	7112.89
457.46	7066.08
457.64	7126.93
457.83	7215.87
458.01	6949.05
458.19	7206.51
458.38	7173.74
458.56	7213.53
458.74	7349.28
458.93	7377.37
459.11	7335.24
459.29	7148.00
459.48	7211.19
459.66	7489.71
459.84	7363.33
460.03	7442.90
460.21	7499.08
460.39	7442.90
460.57	7442.90
460.76	7667.60
460.94	7749.51
461.12	7520.14
461.31	7630.15
461.49	7627.81
461.67	7492.05
461.85	7812.71
462.04	7747.17
462.22	8116.98
462.40	7803.35
462.59	7815.05
462.77	7805.69
462.95	7906.33
463.13	7805.69
463.32	7992.93
463.50	7918.03
463.68	7990.59
463.86	7913.35
464.05	7786.96
464.23	8023.36
464.41	8060.80
464.59	7934.42
464.78	8219.96
464.96	7894.63
465.14	7990.59
465.32	8175.49
465.50	8278.47
465.69	8128.68
465.87	8168.47
466.05	8329.97
466.23	8238.69
466.41	8346.35
466.60	8332.31
466.78	8013.99
466.96	8276.13
467.14	8388.48
467.32	8276.13
467.51	8477.42
467.69	8217.62
467.87	8482.10
468.05	8573.38
468.23	8325.29
468.41	8414.23
468.60	8524.23
468.78	8697.43
468.96	8652.96
469.14	8557.00
469.32	8821.48
469.50	8779.35
469.69	8685.73
469.87	8905.74
470.05	8718.50
470.23	8828.50
470.41	8992.34
470.59	8954.89
470.77	8760.63
470.95	8952.55
471.14	9090.64
471.32	8884.67
471.50	9104.68
471.68	9064.89
471.86	9167.88
472.04	9128.09
472.22	9324.69
472.40	9231.07
472.58	9376.19
472.77	9359.80
472.95	9619.60
473.13	9750.67
473.31	9610.24
473.49	9448.74
473.67	9610.24
473.85	9673.43
474.03	9774.08
474.21	9846.63
474.39	10136.86
474.57	9755.35
474.75	10054.94
474.93	10223.46
475.12	10071.33
475.30	10111.11
475.48	10143.88
475.66	10225.80
475.84	10178.99
476.02	10256.23
476.20	10281.97
476.38	10619.01
476.56	10609.65
476.74	10630.71
476.92	10583.90
477.10	10771.15
477.28	10778.17
477.46	10932.64
477.64	10787.53
477.82	11129.25
478.00	11365.64
478.18	11288.40
478.36	11253.30
478.54	11428.84
478.72	11396.07
478.90	11784.60
479.08	11644.17
479.26	11719.06
479.44	11831.41
479.62	11824.39
479.80	12170.79
479.98	11927.37
480.16	12533.57
480.34	12248.02
480.52	12428.24
480.70	12163.76
480.88	12334.62
481.06	12582.72
481.24	12507.82
481.41	12596.76
481.59	12819.11
481.77	13025.08
481.95	12912.74
482.13	13338.71
482.31	13099.98
482.49	13310.63
482.67	13568.09
482.85	13612.56
483.03	13673.41
483.21	13834.91
483.39	13963.64
483.57	13678.09
483.74	13996.40
483.92	14129.81
484.10	14057.26
484.28	14361.53
484.46	14527.71
484.64	14567.49
484.82	14455.15
485.00	14745.38
485.18	14979.43
485.35	15468.60
485.53	15042.62
485.71	15229.87
485.89	15758.83
486.07	15417.11
486.25	15522.43
486.43	15817.34
486.61	15676.91
486.78	16058.42
486.96	16273.74
487.14	16070.12
487.32	16126.29
487.50	16678.66
487.68	16673.98
487.85	16587.38
488.03	17069.53
488.21	17226.34
488.39	16973.56
488.57	17397.20
488.75	17198.26
488.92	17418.27
489.10	17706.15
489.28	17654.66
489.46	18017.44
489.64	18101.70
489.81	18377.89
489.99	18335.76
490.17	18441.08
490.35	18679.82
490.53	18354.48
490.70	18974.72
490.88	19091.75
491.06	19246.23
491.24	19066.00
491.41	19325.80
491.59	19543.47
491.77	19220.48
491.95	19515.39
492.13	20074.77
492.30	19838.38
492.48	19831.36
492.66	20252.66
492.84	19934.34
493.01	20500.75
493.19	20360.32
493.37	20535.86
493.54	20603.74
493.72	20680.97
493.90	20608.42
494.08	20964.18
494.25	21310.58
494.43	21120.99
494.61	21577.40
494.79	21546.97
494.96	21401.86
495.14	21315.26
495.32	21933.16
495.49	21813.79
495.67	21994.01
495.85	21965.93
496.02	22305.31
496.20	22487.87
496.38	22867.03
496.55	22663.41
496.73	23096.41
496.91	22998.10
497.09	23091.73
497.26	23328.12
497.44	23115.13
497.62	23183.01
497.79	23627.71
497.97	23414.72
498.14	23988.15
498.32	23922.62
498.50	24170.71
498.67	24411.79
498.85	24404.77
499.03	24271.36
499.20	24409.45
499.38	24287.74
499.56	24596.69
499.73	24535.84
499.91	24725.42
500.08	25092.88
500.26	24964.15
500.44	24999.26
500.61	25137.35
500.79	24912.66
500.97	25399.49
501.14	25572.69
501.32	25706.10
501.49	25638.23
501.67	25832.49
501.84	25666.31
502.02	25820.79
502.20	26019.74
502.37	26087.61
502.55	26113.36
502.72	26153.15
502.90	26202.30
503.07	25788.02
503.25	26218.68
503.43	26347.41
503.60	26712.53
503.78	26799.13
503.95	26717.22
504.13	26775.73
504.30	26862.33
504.48	26934.88
504.65	27410.01
504.83	27541.08
505.01	27211.07
505.18	27023.83
505.36	27786.84
505.53	27503.64
505.71	27639.39
505.88	27826.63
506.06	27559.81
506.23	28259.63
506.41	27810.25
506.58	28144.94
506.76	28233.88
506.93	28177.71
507.11	28264.31
507.28	28503.04
507.46	28720.71
507.63	28341.55
507.81	28861.15
507.98	28301.76
508.16	29273.08
508.33	28802.63
508.50	29181.80
508.68	29104.56
508.85	29415.85
509.03	28966.47
509.20	28999.24
509.38	29380.74
509.55	29862.90
509.73	29418.19
509.90	29783.32
510.08	29656.93
510.25	30279.51
510.42	29596.07
510.60	30272.49
510.77	30195.25
510.95	30356.75
511.12	30323.98
511.30	29919.07
511.47	30637.61
511.64	30335.68
511.82	30693.79
511.99	30581.44
512.17	30611.87
512.34	30696.13
512.51	30937.20
512.69	30965.29
512.86	31264.88
513.04	31307.01
513.21	31463.82
513.38	31468.50
513.56	31700.22
513.73	31515.31
513.90	31772.77
514.08	31541.06
514.25	32086.40
514.43	32009.17
514.60	31917.89
514.77	32126.19
514.95	32563.87
515.12	32116.83
515.29	31969.38
515.47	32165.98
515.64	32465.57
515.81	31880.44
515.99	32596.64
516.16	32910.27
516.33	32556.85
516.51	32804.95
516.68	32423.44
516.85	32500.68
517.03	32982.83
517.20	32889.21
517.37	33125.60
517.54	33263.69
517.72	33167.73
517.89	33436.89
518.06	33780.95
518.24	33338.59
518.41	33514.13
518.58	33500.09
518.75	33523.49
518.93	33460.30
519.10	34047.77
519.27	33795.00
519.45	33895.64
519.62	34089.90
519.79	33757.55
519.96	34354.38
520.14	34033.73
520.31	33984.58
520.48	34288.85
520.65	34550.99
520.83	35143.14
521.00	34808.45
521.17	34457.37
521.34	34759.30
521.52	35220.38
521.69	34724.19
521.86	34923.13
522.03	35159.53
522.20	35491.88
522.38	35484.86
522.55	35332.73
522.72	35374.86
522.89	35391.24
523.07	35885.09
523.24	35358.47
523.41	35709.55
523.58	35428.69
523.75	36016.16
523.92	35971.69
524.10	35807.86
524.27	36554.49
524.44	36189.36
524.61	36531.08
524.78	36318.09
524.96	36121.49
525.13	36290.01
525.30	36360.22
525.47	36797.90
525.64	36308.73
525.81	36671.51
525.98	36975.78
526.16	36617.68
526.33	36629.38
526.50	36631.72
526.67	36865.78
526.84	36844.71
527.01	37055.36
527.18	37158.34
527.36	36879.82
527.53	37385.38
527.70	37432.19
527.87	37352.61
528.04	37603.05
528.21	37727.10
528.38	37298.78
528.55	37249.63
528.72	37581.98
528.89	37462.61
529.07	37387.72
529.24	37378.36
529.41	37893.27
529.58	38007.96
529.75	37860.51
529.92	38036.05
530.09	38340.32
530.26	37776.25
530.43	38073.49
530.60	38050.09
530.77	38000.94
530.94	38064.13
531.11	38492.45
531.28	38459.68
531.46	38569.69
531.63	38852.89
531.80	38691.40
531.97	38686.71
532.14	39033.11
532.31	38501.81
532.48	38958.22
532.65	38855.23
532.82	38904.38
532.99	38937.15
533.16	39007.37
533.33	38993.32
533.50	39342.06
533.67	39000.35
533.84	39126.74
534.01	39236.74
534.18	39096.31
534.35	39941.24
534.52	39688.46
534.69	39683.78
534.86	39969.33
535.03	39592.50
535.20	39971.67
535.37	39910.82
535.54	40226.79
535.71	39510.58
535.88	40264.24
536.05	40168.27
536.22	39927.20
536.38	40121.46
536.55	39693.15
536.72	40013.80
536.89	40067.63
537.06	40264.24
537.23	40612.98
537.40	40304.02
537.57	40098.06
537.74	40175.30
537.91	40730.00
538.08	40825.96
538.25	40289.98
538.42	40385.94
538.59	41127.89
538.75	40816.60
538.92	40678.51
539.09	40732.34
539.26	40608.29
539.43	40940.65
539.60	41045.97
539.77	40809.58
539.94	41530.47
540.11	41015.55
540.28	41132.57
540.44	41329.18
540.61	41090.44
540.78	41139.60
540.95	41375.99
541.12	41703.67
541.29	41303.43
541.46	41450.89
541.62	41085.76
541.79	41581.96
541.96	41102.15
542.13	41205.13
542.30	41163.00
542.47	41591.32
542.63	41958.78
542.80	41900.27
542.97	42546.26
543.14	42050.06
543.31	42815.42
543.48	41691.96
543.64	42895.00
543.81	42302.84
543.98	42141.35
544.15	42686.69
544.32	42637.54
544.48	43091.60
544.65	42483.06
544.82	42883.30
544.99	42307.52
545.16	42902.02
545.32	42813.08
545.49	42965.21
545.66	42941.81
545.83	43152.46
546.00	43335.02
546.16	43168.84
546.33	43009.68
546.50	43079.90
546.67	43122.03
546.83	43023.73
547.00	43496.52
547.17	42955.85
547.34	43161.82
547.50	43199.27
547.67	43676.74
547.84	43536.30
548.00	43508.22
548.17	43948.24
548.34	43749.29
548.51	44250.17
548.67	43449.70
548.84	43711.84
549.01	43683.76
549.18	43955.26
549.34	44268.89
549.51	43856.96
549.68	44025.48
549.84	43866.32
550.01	44591.89
550.18	44081.65
550.34	44418.69
550.51	44378.90
550.68	44196.34
550.84	43892.07
551.01	44299.32
551.18	44069.95
551.34	43985.69
551.51	44451.45
551.68	44505.29
551.84	44463.16
552.01	44339.11
552.18	44655.08
552.34	44320.38
552.51	44704.23
552.68	44004.41
552.84	44502.95
553.01	44587.21
553.18	44638.70
553.34	44524.01
553.51	44701.89
553.67	44357.83
553.84	45057.65
554.01	44751.04
554.17	44783.81
554.34	45020.20
554.51	45254.26
554.67	45111.49
554.84	45160.64
555.00	45113.83
555.17	44949.99
555.33	45027.23
555.50	44788.49
555.67	45134.89
555.83	45067.02
556.00	45352.56
556.16	45729.39
556.33	45497.67
556.50	45371.28
556.66	45106.80
556.83	45102.12
556.99	45453.20
557.16	45586.61
557.32	45600.66
557.49	45607.68
557.65	45319.79
557.82	45584.27
557.98	45614.70
558.15	45610.02
558.32	45846.41
558.48	45684.92
558.65	45633.42
558.81	45663.85
558.98	46054.72
559.14	45539.80
559.31	45984.51
559.47	45661.51
559.64	45390.01
559.80	45680.24
559.97	46047.70
560.13	45801.94
560.30	45518.74
560.46	46454.95
560.63	46176.43
560.79	46277.07
560.96	46223.24
561.12	46302.82
561.29	46174.09
561.45	46068.76
561.61	46398.78
561.78	46057.06
561.94	46089.83
562.11	46218.56
562.27	46047.70
562.44	46150.68
562.60	46366.01
562.77	46719.43
562.93	46122.60
563.10	46768.58
563.26	46148.34
563.42	46361.33
563.59	46204.52
563.75	46028.98
563.92	46487.72
564.08	46621.13
564.24	46574.32
564.41	46241.96
564.57	46248.99
564.74	46593.04
564.90	46431.55
565.07	46408.14
565.23	46415.16
565.39	46761.56
565.56	46562.62
565.72	46155.36
565.88	46307.50
566.05	46237.28
566.21	46426.87
566.38	46351.97
566.54	46740.50
566.70	46646.88
566.87	46436.23
567.03	46398.78
567.19	46513.47
567.36	46387.08
567.52	46621.13
567.68	47007.32
567.85	46897.31
568.01	46611.77
568.17	46588.36
568.34	47133.71
568.50	46864.55
568.66	46864.55
568.83	47070.51
568.99	47065.83
569.15	47192.22
569.32	47154.77
569.48	46499.42
569.64	47531.60
569.81	47051.79
569.97	46918.38
570.13	46979.23
570.30	46892.63
570.46	47274.14
570.62	47058.81
570.78	46955.83
570.95	46658.58
571.11	47533.94
571.27	46813.05
571.43	47004.98
571.60	47283.50
571.76	47143.07
571.92	46902.00
572.09	46780.29
572.25	46829.44
572.41	47646.29
572.57	47360.74
572.74	47828.85
572.90	47311.59
573.06	47370.10
573.22	47327.97
573.38	47435.64
573.55	47299.89
573.71	47927.15
573.87	47536.28
574.03	47379.46
574.20	47629.90
574.36	47004.98
574.52	47489.47
574.68	47224.99
574.84	47260.10
575.01	47433.30
575.17	47723.52
575.33	47480.11
575.49	47412.23
575.65	47882.68
575.82	47653.31
575.98	47428.62
576.14	47763.31
576.30	48025.45
576.46	47569.05
576.62	47538.62
576.79	47377.12
576.95	47615.86
577.11	47374.78
577.27	47391.17
577.43	47709.48
577.59	47442.66
577.75	47203.92
577.92	47201.58
578.08	47262.44
578.24	47826.51
578.40	47707.14
578.56	47512.88
578.72	47760.97
578.88	47707.14
579.04	47665.01
579.21	47494.15
579.37	48009.07
579.53	47875.66
579.69	47437.98
579.85	47892.04
580.01	47388.83
580.17	47646.29
580.33	48023.11
580.49	47896.72
580.65	47812.46
580.82	47423.93
580.98	47608.84
581.14	47540.96
581.30	47845.23
581.46	47445.00
581.62	47189.88
581.78	47363.08
581.94	47866.30
582.10	47342.02
582.26	47917.79
582.42	47751.61
582.58	47786.72
582.74	47746.93
582.90	47728.20
583.06	47749.27
583.22	47735.23
583.38	48144.82
583.54	47782.04
583.70	47763.31
583.86	47744.59
584.02	47756.29
584.18	48137.80
584.34	47772.67
584.50	48144.82
584.66	47772.67
584.82	47742.25
584.98	48308.66
585.14	47845.23
585.30	47641.60
585.46	47934.17
585.62	47976.30
585.78	48034.81
585.94	47646.29
586.10	47856.93
586.26	47728.20
586.42	47533.94
586.58	48486.54
586.74	47800.76
586.90	47831.19
587.06	47753.95
587.22	48184.61
587.38	47910.77
587.54	48135.46
587.70	48287.59
587.86	47915.45
588.02	47878.00
588.18	47515.22
588.34	47679.05
588.49	47964.60
588.65	47800.76
588.81	47555.00
588.97	48189.29
589.13	47992.68
589.29	48119.07
589.45	48025.45
589.61	48044.18
589.77	47882.68
589.93	48254.82
