SpectraSuite Data File
++++++++++++++++++++++++++++++++++++
Date: Fri Oct 25 10:47:35 EDT 2013
User: price-jones
Dark Spectrum Present: No
Reference Spectrum Present: No
Number of Sampled Component Spectra: 1
Spectrometers: USB2+H05261
Integration Time (usec): 100000 (USB2+H05261)
Spectra Averaged: 1 (USB2+H05261)
Boxcar Smoothing: 0 (USB2+H05261)
Correct for Electrical Dark: No (USB2+H05261)
Strobe/Lamp Enabled: No (USB2+H05261)
Correct for Detector Non-linearity: No (USB2+H05261)
Correct for Stray Light: No (USB2+H05261)
Number of Pixels in Processed Spectrum: 2048
>>>>>Begin Processed Spectral Data<<<<<
365.73	140.43
365.92	140.43
366.12	140.43
366.32	65.54
366.52	70.22
366.72	4.68
366.91	72.56
367.11	39.79
367.31	18.72
367.51	70.22
367.70	21.06
367.90	70.22
368.10	86.60
368.30	93.62
368.49	65.54
368.69	70.22
368.89	81.92
369.09	81.92
369.28	72.56
369.48	79.58
369.68	67.88
369.87	23.41
370.07	98.30
370.27	112.35
370.47	180.22
370.66	386.19
370.86	397.89
371.06	451.72
371.25	507.90
371.45	425.98
371.65	524.28
371.84	498.53
372.04	465.77
372.24	472.79
372.44	470.45
372.63	543.00
372.83	519.60
373.03	505.56
373.22	564.07
373.42	456.40
373.62	531.30
373.81	550.03
374.01	550.03
374.21	575.77
374.40	531.30
374.60	582.79
374.79	578.11
374.99	603.86
375.19	585.13
375.38	533.64
375.58	568.75
375.78	615.56
375.97	568.75
376.17	629.60
376.37	634.29
376.56	601.52
376.76	564.07
376.95	594.50
377.15	526.62
377.35	608.54
377.54	678.76
377.74	650.67
377.93	610.88
378.13	643.65
378.33	634.29
378.52	545.34
378.72	634.29
378.91	634.29
379.11	613.22
379.31	610.88
379.50	634.29
379.70	690.46
379.89	650.67
380.09	711.52
380.28	667.05
380.48	669.39
380.68	660.03
380.87	723.23
381.07	692.80
381.26	723.23
381.46	662.37
381.65	713.86
381.85	716.20
382.04	713.86
382.24	657.69
382.43	706.84
382.63	655.35
382.83	774.72
383.02	683.44
383.22	763.01
383.41	739.61
383.61	760.67
383.80	681.10
384.00	634.29
384.19	725.57
384.39	765.36
384.58	770.04
384.78	779.40
384.97	763.01
385.17	727.91
385.36	720.88
385.56	737.27
385.75	755.99
385.95	683.44
386.14	758.33
386.34	741.95
386.53	819.19
386.72	748.97
386.92	861.32
387.11	847.27
387.31	784.08
387.50	763.01
387.70	828.55
387.89	802.80
388.09	833.23
388.28	779.40
388.48	854.30
388.67	1022.81
388.86	847.27
389.06	844.93
389.25	863.66
389.45	910.47
389.64	903.45
389.84	929.19
390.03	929.19
390.22	961.96
390.42	929.19
390.61	894.08
390.81	919.83
391.00	863.66
391.19	964.30
391.39	926.85
391.58	1055.58
391.78	1013.45
391.97	1004.09
392.16	910.47
392.36	898.77
392.55	1022.81
392.75	1041.54
392.94	945.58
393.13	952.60
393.33	1046.22
393.52	931.53
393.71	1135.16
393.91	1088.35
394.10	1062.60
394.29	1053.24
394.49	1046.22
394.68	1163.25
394.88	1078.99
395.07	1165.59
395.26	1090.69
395.46	1102.39
395.65	1151.54
395.84	1081.33
396.04	1034.52
396.23	1116.44
396.42	1078.99
396.62	1163.25
396.81	1153.88
397.00	1149.20
397.19	1109.41
397.39	1170.27
397.58	1226.44
397.77	1210.06
397.97	1242.82
398.16	1259.21
398.35	1334.11
398.55	1306.02
398.74	1308.36
398.93	1397.30
399.12	1329.42
399.32	1373.89
399.51	1313.04
399.70	1418.36
399.90	1392.62
400.09	1397.30
400.28	1357.51
400.47	1369.21
400.67	1413.68
400.86	1380.92
401.05	1411.34
401.24	1458.15
401.44	1556.46
401.63	1453.47
401.82	1458.15
402.01	1378.58
402.21	1549.43
402.40	1519.01
402.59	1528.37
402.78	1600.93
402.97	1519.01
403.17	1650.08
403.36	1593.90
403.55	1586.88
403.74	1650.08
403.93	1654.76
404.13	1617.31
404.32	1689.87
404.51	1724.97
404.70	1717.95
404.89	1743.70
405.09	1818.60
405.28	1792.85
405.47	1732.00
405.66	1713.27
405.85	1804.55
406.05	1741.36
406.24	1813.92
406.43	1818.60
406.62	1996.48
406.81	1947.33
407.00	1820.94
407.20	1830.30
407.39	1872.43
407.58	1916.90
407.77	2047.97
407.96	2001.16
408.15	1989.46
408.34	1909.88
408.54	1980.09
408.73	2003.50
408.92	2106.48
409.11	2057.33
409.30	2097.12
409.49	2005.84
409.68	2029.24
409.87	1998.82
410.07	2136.91
410.26	2062.01
410.45	2186.06
410.64	2143.93
410.83	2277.34
411.02	2242.23
411.21	2328.83
411.40	2363.94
411.59	2349.90
411.78	2317.13
411.98	2363.94
412.17	2363.94
412.36	2399.05
412.55	2366.28
412.74	2331.17
412.93	2406.07
413.12	2399.05
413.31	2609.70
413.50	2534.80
413.69	2548.84
413.88	2562.89
414.07	2520.76
414.26	2656.51
414.45	2764.17
414.64	2619.06
414.83	2651.83
415.02	2717.36
415.22	2691.62
415.41	2834.39
415.60	2761.83
415.79	2787.58
415.98	2920.99
416.17	2935.03
416.36	2923.33
416.55	2937.37
416.74	3033.33
416.93	3073.12
417.12	2958.44
417.31	2963.12
417.50	2916.31
417.69	3084.83
417.88	3124.62
418.07	3023.97
418.26	2986.52
418.45	3023.97
418.64	3255.69
418.83	3204.19
419.02	3337.60
419.21	3239.30
419.39	3178.45
419.58	3229.94
419.77	3066.10
419.96	3272.07
420.15	3215.90
420.34	3318.88
420.53	3424.20
420.72	3405.48
420.91	3332.92
421.10	3520.17
421.29	3576.34
421.48	3414.84
421.67	3496.76
421.86	3433.57
422.05	3449.95
422.24	3384.41
422.43	3447.61
422.61	3463.99
422.80	3482.72
422.99	3669.96
423.18	3611.45
423.37	3609.11
423.56	3655.92
423.75	3588.04
423.94	3459.31
424.13	3379.73
424.32	3300.16
424.50	3552.93
424.69	3592.72
424.88	3669.96
425.07	3515.48
425.26	3641.87
425.45	3623.15
425.64	3581.02
425.83	3599.74
426.01	3618.47
426.20	3569.32
426.39	3646.55
426.58	3758.90
426.77	3562.30
426.96	3707.41
427.15	3655.92
427.33	3768.26
427.52	3630.17
427.71	3744.86
427.90	3845.50
428.09	3765.92
428.28	3763.58
428.46	3770.60
428.65	3719.11
428.84	3772.94
429.03	3878.27
429.22	3831.46
429.40	3901.67
429.59	3684.00
429.78	3693.37
429.97	3758.90
430.16	3763.58
430.34	3985.93
430.53	3885.29
430.72	3815.07
430.91	3765.92
431.10	3915.72
431.28	4077.21
431.47	4044.45
431.66	4189.56
431.85	4102.96
432.03	4091.26
432.22	4222.33
432.41	4283.18
432.60	4264.46
432.79	4229.35
432.97	4315.95
433.16	4248.07
433.35	4236.37
433.54	4215.30
433.72	4210.62
433.91	4322.97
434.10	4470.42
434.28	4404.89
434.47	4440.00
434.66	4470.42
434.85	4519.57
435.03	4517.23
435.22	4538.30
435.41	4631.92
435.59	4587.45
435.78	4542.98
435.97	4657.67
436.16	4615.54
436.34	4709.16
436.53	4657.67
436.72	4798.10
436.90	4470.42
437.09	4779.37
437.28	4582.77
437.46	4706.82
437.65	4678.73
437.84	4758.31
438.02	4795.76
438.21	4695.11
438.40	4777.03
438.58	4753.63
438.77	4997.04
438.96	4896.40
439.14	4992.36
439.33	5132.79
439.52	5149.18
439.70	5027.47
439.89	5055.56
440.08	5116.41
440.26	5287.27
440.45	5233.44
440.63	5233.44
440.82	5416.00
441.01	5338.76
441.19	5530.69
441.38	5516.64
441.57	5481.53
441.75	5640.69
441.94	5685.16
442.12	5617.29
442.31	5661.76
442.50	5717.93
442.68	5687.50
442.87	5713.25
443.05	5750.70
443.24	5837.30
443.43	5753.04
443.61	5947.30
443.80	5909.85
443.98	5860.70
444.17	5607.92
444.35	5888.79
444.54	6045.60
444.73	5865.38
444.91	5937.94
445.10	5893.47
445.28	5809.21
445.47	5867.72
445.65	5858.36
445.84	5966.03
446.02	5940.28
446.21	5851.34
446.39	6010.50
446.58	6274.98
446.77	6120.50
446.95	5935.60
447.14	6078.37
447.32	6150.93
447.51	6066.67
447.69	6019.86
447.88	6029.22
448.06	6052.63
448.25	6249.23
448.43	6064.33
448.62	6022.20
448.80	5996.45
448.99	6171.99
449.17	6061.99
449.36	6190.72
449.54	6333.49
449.73	6352.21
449.91	6331.15
450.10	6607.33
450.28	6370.94
450.46	6483.28
450.65	6347.53
450.83	6359.24
451.02	6272.64
451.20	6520.73
451.39	6518.39
451.57	6399.02
451.76	6567.54
451.94	6562.86
452.13	6633.08
452.31	6443.49
452.49	6223.48
452.68	6541.80
452.86	6469.24
453.05	6590.95
453.23	6609.67
453.42	6663.51
453.60	6888.20
453.78	6696.27
453.97	6684.57
454.15	6679.89
454.34	6590.95
454.52	6909.26
454.70	6775.85
454.89	6817.98
455.07	6759.47
455.26	6820.32
455.44	6960.75
455.62	6916.28
455.81	6916.28
455.99	7021.61
456.17	7152.68
456.36	7201.83
456.54	7157.36
456.73	7103.53
456.91	7459.29
457.09	7356.30
457.28	7679.30
457.46	7330.56
457.64	7459.29
457.83	7470.99
458.01	7199.49
458.19	7370.35
458.38	7332.90
458.56	7620.78
458.74	7529.50
458.93	7386.73
459.11	7648.87
459.29	7325.88
459.48	7576.31
459.66	7585.68
459.84	7602.06
460.03	7784.62
460.21	7793.98
460.39	7681.64
460.57	7562.27
460.76	7712.07
460.94	7957.82
461.12	7555.25
461.31	7971.86
461.49	7604.40
461.67	7712.07
461.85	7990.59
462.04	7791.64
462.22	8486.78
462.40	8053.78
462.59	7981.23
462.77	8025.70
462.95	8046.76
463.13	8140.38
463.32	8156.77
463.50	8339.33
463.68	8194.22
463.86	8365.07
464.05	8056.12
464.23	8201.24
464.41	8212.94
464.59	8124.00
464.78	8468.06
464.96	8444.65
465.14	8374.44
465.32	8397.84
465.50	8491.46
465.69	8528.91
465.87	8381.46
466.05	8271.45
466.23	8369.76
466.41	8308.90
466.60	8479.76
466.78	8498.49
466.96	8512.53
467.14	8393.16
467.32	8697.43
467.51	8791.05
467.69	8327.63
467.87	8493.80
468.05	8821.48
468.23	8615.51
468.41	8753.60
468.60	8669.34
468.78	8879.99
468.96	8690.41
469.14	8889.35
469.32	8786.37
469.50	8585.08
469.69	8926.80
469.87	8858.93
470.05	8922.12
470.23	8802.75
470.41	8954.89
470.59	9383.21
470.77	9015.74
470.95	9090.64
471.14	9263.84
471.32	8966.59
471.50	9341.08
471.68	9289.59
471.86	9420.66
472.04	9514.28
472.22	9603.22
472.40	9434.70
472.58	9142.13
472.77	9558.75
472.95	9844.29
473.13	9860.68
473.31	9563.43
473.49	9687.48
473.67	9666.41
473.85	9806.84
474.03	10122.82
474.21	10066.64
474.39	9987.07
474.57	10167.29
474.75	10101.75
474.93	10132.18
475.12	10209.42
475.30	10195.37
475.48	10506.66
475.66	10324.10
475.84	10326.44
476.02	10553.48
476.20	10338.15
476.38	10602.63
476.56	10747.74
476.74	10640.08
476.92	10558.16
477.10	10806.25
477.28	10712.63
477.46	11173.72
477.64	11154.99
477.82	11265.00
478.00	11557.57
478.18	11370.32
478.36	11485.01
478.54	11597.35
478.72	11557.57
478.90	11597.35
479.08	11983.54
479.26	11892.26
479.44	11901.62
479.62	11995.25
479.80	12138.02
479.98	12217.60
480.16	12470.37
480.34	12453.99
480.52	12505.48
480.70	12547.61
480.88	12376.75
481.06	12526.55
481.24	12830.82
481.41	12842.52
481.59	13399.57
481.77	13259.13
481.95	13015.72
482.13	13099.98
482.31	13305.95
482.49	13572.77
482.67	13778.73
482.85	13640.64
483.03	13839.59
483.21	13900.44
483.39	14225.78
483.57	14134.50
483.74	14445.79
483.92	14317.06
484.10	14235.14
484.28	14567.49
484.46	14761.76
484.64	14965.39
484.82	14703.25
485.00	14934.96
485.18	15288.38
485.35	15080.07
485.53	15145.61
485.71	14860.06
485.89	15377.32
486.07	15286.04
486.25	15335.19
486.43	15653.50
486.61	15903.94
486.78	15985.86
486.96	16170.76
487.14	16437.58
487.32	16285.45
487.50	16491.41
487.68	16720.79
487.85	17106.98
488.03	17167.83
488.21	17191.23
488.39	16802.71
488.57	17163.15
488.75	17291.88
488.92	17874.67
489.10	17783.39
489.28	17963.61
489.46	18146.17
489.64	18054.89
489.81	18277.24
489.99	18590.88
490.17	18649.39
490.35	19005.15
490.53	18672.79
490.70	18728.97
490.88	19035.58
491.06	19293.04
491.24	19166.65
491.41	19087.07
491.59	19101.11
491.77	19405.38
491.95	19564.54
492.13	19653.48
492.30	19840.72
492.48	20130.95
492.66	20280.74
492.84	19932.00
493.01	20503.09
493.19	20531.18
493.37	20428.20
493.54	20264.36
493.72	20643.52
493.90	20608.42
494.08	21303.56
494.25	21392.50
494.43	21179.51
494.61	21490.80
494.79	21855.92
494.96	21757.62
495.14	21764.64
495.32	21612.51
495.49	21944.86
495.67	22122.74
495.85	22176.58
496.02	22377.86
496.20	22562.76
496.38	22380.20
496.55	22480.85
496.73	23194.71
496.91	23014.49
497.09	23236.84
497.26	23248.54
497.44	22995.76
497.62	23377.27
497.79	23768.14
497.97	23281.31
498.14	23756.44
498.32	23583.24
498.50	23807.93
498.67	23819.63
498.85	24685.63
499.03	24198.80
499.20	24411.79
499.38	24524.13
499.56	24350.93
499.73	24659.88
499.91	24437.53
500.08	24730.10
500.26	24779.25
500.44	25132.67
500.61	24622.44
500.79	24929.05
500.97	24907.98
501.14	25235.66
501.32	24945.43
501.49	25350.34
501.67	25352.68
501.84	25465.03
502.02	25659.29
502.20	25975.27
502.37	26434.01
502.55	25813.77
502.72	26270.17
502.90	26129.74
503.07	25949.52
503.25	26253.79
503.43	26249.11
503.60	26279.54
503.78	26312.30
503.95	26850.63
504.13	26363.79
504.30	26881.05
504.48	26583.80
504.65	26998.08
504.83	26888.07
505.01	27222.77
505.18	27000.42
505.36	27613.64
505.53	27379.59
505.71	27594.92
505.88	27770.46
506.06	27475.55
506.23	27325.75
506.41	27442.78
506.58	27573.85
506.76	27821.95
506.93	28018.55
507.11	27953.02
507.28	28229.20
507.46	27817.27
507.63	28056.00
507.81	28573.26
507.98	28252.61
508.16	28236.22
508.33	28620.07
508.50	28538.15
508.68	28854.12
508.85	29024.98
509.03	29289.46
509.20	28858.81
509.38	29167.76
509.55	29242.65
509.73	29202.86
509.90	29598.41
510.08	29687.36
510.25	29586.71
510.42	29434.58
510.60	29347.98
510.77	29706.08
510.95	29993.97
511.12	29670.97
511.30	30040.78
511.47	29963.54
511.64	30382.49
511.82	29989.28
511.99	30110.99
512.17	30639.95
512.34	30099.29
512.51	30305.26
512.69	30960.61
512.86	30782.73
513.04	30682.08
513.21	30703.15
513.38	30738.26
513.56	31012.10
513.73	30586.12
513.90	31124.44
514.08	30857.62
514.25	31351.48
514.43	31428.71
514.60	31384.24
514.77	31112.74
514.95	31442.76
515.12	31323.39
515.29	31482.55
515.47	31742.35
515.64	31960.02
515.81	31463.82
515.99	31854.69
516.16	31838.31
516.33	32252.58
516.51	31931.93
516.68	31835.97
516.85	31882.78
517.03	31833.63
517.20	32278.33
517.37	32273.65
517.54	32416.42
517.72	32568.55
517.89	32325.14
518.06	32116.83
518.24	32348.54
518.41	32685.58
518.58	32463.23
518.75	32652.81
518.93	32863.46
519.10	32779.20
519.27	32818.99
519.45	32912.61
519.62	32821.33
519.79	33369.02
519.96	33537.54
520.14	33649.88
520.31	33275.40
520.48	33710.74
520.65	33212.20
520.83	34146.08
521.00	33816.06
521.17	34169.48
521.34	33806.70
521.52	34335.66
521.69	34345.02
521.86	34019.69
522.03	34302.89
522.20	34015.01
522.38	34408.22
522.55	34298.21
522.72	34522.90
522.89	34363.75
523.07	34740.57
523.24	34160.12
523.41	34590.78
523.58	34490.13
523.75	34808.45
523.92	35063.57
524.10	35110.38
524.27	34920.79
524.44	35061.22
524.61	35093.99
524.78	35358.47
524.96	36044.25
525.13	35505.93
525.30	36105.10
525.47	35786.79
525.64	35318.68
525.81	35641.68
525.98	35421.67
526.16	35274.21
526.33	35309.32
526.50	35924.88
526.67	35562.10
526.84	35981.06
527.01	35487.20
527.18	36170.64
527.36	36191.70
527.53	36128.51
527.70	36634.06
527.87	36112.13
528.04	35971.69
528.21	36350.86
528.38	36514.70
528.55	36811.95
528.72	36416.40
528.89	37053.02
529.07	36622.36
529.24	36666.83
529.41	36662.15
529.58	36547.47
529.75	37041.32
529.92	36947.70
530.09	36851.73
530.26	37305.80
530.43	37048.34
530.60	36423.42
530.77	37092.81
530.94	37497.72
531.11	36868.12
531.28	37319.84
531.46	37261.33
531.63	37940.08
531.80	37469.64
531.97	37029.62
532.14	37308.14
532.31	37287.07
532.48	37350.27
532.65	38043.07
532.82	37743.48
532.99	37792.63
533.16	37530.49
533.33	37858.17
533.50	38478.41
533.67	37909.66
533.84	37893.27
534.01	38117.96
534.18	38178.82
534.35	38508.83
534.52	38349.68
534.69	37790.29
534.86	38422.23
535.03	38263.08
535.20	38581.39
535.37	39178.23
535.54	38485.43
535.71	38710.12
535.88	38653.95
536.05	38904.38
536.22	38543.94
536.38	38607.14
536.55	38689.06
536.72	38864.60
536.89	38600.12
537.06	38763.95
537.23	39089.29
537.40	39077.58
537.57	39079.92
537.74	38946.51
537.91	39948.26
538.08	39536.33
538.25	39166.52
538.42	39112.69
538.59	39358.45
538.75	39597.18
538.92	39168.87
539.09	39590.16
539.26	39529.31
539.43	39278.87
539.60	39477.82
539.77	39480.16
539.94	39686.12
540.11	39248.44
540.28	39594.84
540.44	39510.58
540.61	39653.36
540.78	39562.08
540.95	39962.31
541.12	40016.14
541.29	39629.95
541.46	39896.77
541.62	39899.11
541.79	40016.14
541.96	39880.39
542.13	39903.79
542.30	40238.49
542.47	40034.86
542.63	39721.23
542.80	40458.50
542.97	40847.03
543.14	40975.76
543.31	40514.67
543.48	40739.36
543.64	40947.67
543.81	40912.56
543.98	41221.52
544.15	40395.31
544.32	41074.06
544.48	41270.67
544.65	40786.18
544.82	40858.73
544.99	40907.88
545.16	41163.00
545.32	41212.15
545.49	41345.56
545.66	41141.94
545.83	41240.24
546.00	41778.56
546.16	41308.11
546.33	41155.98
546.50	40767.45
546.67	41268.33
546.83	41001.50
547.00	41188.75
547.17	40985.12
547.34	41268.33
547.50	41427.48
547.67	41965.81
547.84	41352.58
548.00	41937.72
548.17	41713.03
548.34	41874.52
548.51	42110.92
548.67	41993.89
548.84	41886.23
549.01	41748.14
549.18	41392.37
549.34	41579.62
549.51	41965.81
549.68	42246.67
549.84	41970.49
550.01	42218.58
550.18	41860.48
550.34	42171.77
550.51	41851.12
550.68	42064.11
550.84	41579.62
551.01	42377.74
551.18	42466.68
551.34	42216.24
551.51	42691.37
551.68	42483.06
551.84	42574.34
552.01	42206.88
552.18	42761.59
552.34	42817.76
552.51	42824.78
552.68	42445.62
552.84	43023.73
553.01	43468.43
553.18	42784.99
553.34	42738.18
553.51	42471.36
553.67	42553.28
553.84	43002.66
554.01	42752.23
554.17	42831.80
554.34	42799.04
554.51	42618.81
554.67	42937.13
554.84	43143.09
555.00	43033.09
555.17	42579.03
555.33	42721.80
555.50	42850.53
555.67	43140.75
555.83	43236.72
556.00	43159.48
556.16	43419.28
556.33	42927.77
556.50	43332.68
556.66	43311.61
556.83	43133.73
556.99	43508.22
557.16	43910.79
557.32	43379.49
557.49	43587.80
557.65	43428.64
557.82	43056.50
557.98	43154.80
558.15	43356.08
558.32	43529.28
558.48	43449.70
558.65	43320.98
558.81	43150.12
558.98	43702.48
559.14	43686.10
559.31	43313.95
559.47	43686.10
559.64	43721.21
559.80	43842.92
559.97	43646.31
560.13	43578.43
560.30	43548.01
560.46	43833.55
560.63	44032.50
560.79	44025.48
560.96	43908.45
561.12	43529.28
561.29	43632.27
561.45	43793.76
561.61	43908.45
561.78	43594.82
561.94	43761.00
562.11	43793.76
562.27	43697.80
562.44	43842.92
562.60	43601.84
562.77	44083.99
562.93	43665.03
563.10	44048.88
563.26	43557.37
563.42	44032.50
563.59	44252.51
563.75	44343.79
563.92	43903.77
564.08	43838.23
564.24	44128.46
564.41	44121.44
564.57	44170.59
564.74	43992.71
564.90	44205.70
565.07	44076.97
565.23	44041.86
565.39	43559.71
565.56	44257.19
565.72	44299.32
565.88	44509.97
566.05	44119.10
566.21	44444.43
566.38	43833.55
566.54	43988.03
566.70	44245.49
566.87	44488.90
567.03	44421.03
567.19	44666.78
567.36	44025.48
567.52	44271.23
567.68	44821.26
567.85	44133.14
568.01	44135.48
568.17	44591.89
568.34	44498.26
568.50	44563.80
568.66	44521.67
568.83	44601.25
568.99	44069.95
569.15	43922.49
569.32	44086.33
569.48	43955.26
569.64	44760.40
569.81	44301.66
569.97	44556.78
570.13	44488.90
570.30	44245.49
570.46	44304.00
570.62	44512.31
570.78	44570.82
570.95	44437.41
571.11	44671.46
571.27	44568.48
571.43	44392.94
571.60	44470.18
571.76	44975.73
571.92	44502.95
572.09	45022.54
572.25	44189.31
572.41	44329.75
572.57	44381.24
572.74	45345.54
572.90	44596.57
573.06	44357.83
573.22	44250.17
573.38	44877.43
573.55	44619.97
573.71	45088.08
573.87	44343.79
574.03	44437.41
574.20	44498.26
574.36	44729.98
574.52	45198.09
574.68	44559.12
574.84	44332.09
575.01	44430.39
575.17	44549.76
575.33	44559.12
575.49	44325.07
575.65	44694.87
575.82	45275.32
575.98	44793.17
576.14	45450.86
576.30	44704.23
576.46	44332.09
576.62	44699.55
576.79	44437.41
576.95	44378.90
577.11	44341.45
577.27	44594.23
577.43	44622.31
577.59	45006.16
577.75	44584.86
577.92	44664.44
578.08	44538.05
578.24	44626.99
578.40	44573.16
578.56	44774.45
578.72	44587.21
578.88	44755.72
579.04	45090.42
579.21	44680.83
579.37	44701.89
579.53	44626.99
579.69	44758.06
579.85	44615.29
580.01	44945.31
580.17	44903.18
580.33	45174.68
580.49	44879.77
580.65	44701.89
580.82	44949.99
580.98	45010.84
581.14	44540.39
581.30	45052.97
581.46	44825.94
581.62	44692.53
581.78	44603.59
581.94	45223.83
582.10	44828.28
582.26	45308.09
582.42	45282.34
582.58	45139.57
582.74	44879.77
582.90	44856.37
583.06	45067.02
583.22	45298.73
583.38	44975.73
583.54	44982.76
583.70	45085.74
583.86	44933.60
584.02	44158.89
584.18	45130.21
584.34	44788.49
584.50	45291.71
584.66	45097.44
584.82	45123.19
584.98	45095.10
585.14	44877.43
585.30	44629.34
585.46	44718.28
585.62	44975.73
585.78	44921.90
585.94	44683.17
586.10	44816.58
586.26	44818.92
586.42	44935.95
586.58	44957.01
586.74	45132.55
586.90	44671.46
587.06	44863.39
587.22	45415.76
587.38	44362.51
587.54	44774.45
587.70	45368.94
587.86	45083.40
588.02	44589.55
588.18	45474.27
588.34	44790.83
588.49	44666.78
588.65	44411.67
588.81	44816.58
588.97	44601.25
589.13	44652.74
589.29	44886.79
589.45	44685.51
589.61	44924.24
589.77	44732.32
589.93	45247.24
590.08	45263.62
590.24	45652.15
