SpectraSuite Data File
++++++++++++++++++++++++++++++++++++
Date: Fri Oct 25 11:23:26 EDT 2013
User: price-jones
Dark Spectrum Present: No
Reference Spectrum Present: No
Number of Sampled Component Spectra: 1
Spectrometers: USB2+H05261
Integration Time (usec): 100000 (USB2+H05261)
Spectra Averaged: 1 (USB2+H05261)
Boxcar Smoothing: 0 (USB2+H05261)
Correct for Electrical Dark: No (USB2+H05261)
Strobe/Lamp Enabled: No (USB2+H05261)
Correct for Detector Non-linearity: No (USB2+H05261)
Correct for Stray Light: No (USB2+H05261)
Number of Pixels in Processed Spectrum: 2048
>>>>>Begin Processed Spectral Data<<<<<
365.73	224.69
365.92	224.69
366.12	224.69
366.32	236.39
366.52	91.28
366.72	128.73
366.91	72.56
367.11	107.66
367.31	152.13
367.51	81.92
367.70	84.26
367.90	81.92
368.10	53.83
368.30	77.24
368.49	95.96
368.69	93.62
368.89	191.92
369.09	128.73
369.28	163.84
369.48	128.73
369.68	152.13
369.87	173.20
370.07	140.43
370.27	252.78
370.47	330.02
370.66	650.67
370.86	662.37
371.06	655.35
371.25	601.52
371.45	620.24
371.65	674.07
371.84	582.79
372.04	660.03
372.24	751.31
372.44	713.86
372.63	716.20
372.83	866.00
373.03	739.61
373.22	779.40
373.42	751.31
373.62	737.27
373.81	800.46
374.01	772.38
374.21	882.38
374.40	802.80
374.60	823.87
374.79	800.46
374.99	823.87
375.19	854.30
375.38	856.64
375.58	870.68
375.78	826.21
375.97	891.74
376.17	877.70
376.37	880.04
376.56	847.27
376.76	748.97
376.95	847.27
377.15	861.32
377.35	821.53
377.54	826.21
377.74	847.27
377.93	861.32
378.13	950.26
378.33	950.26
378.52	964.30
378.72	947.92
378.91	968.98
379.11	835.57
379.31	978.34
379.50	870.68
379.70	954.94
379.89	1029.84
380.09	1015.79
380.28	1015.79
380.48	1022.81
380.68	1041.54
380.87	919.83
381.07	990.05
381.26	1064.94
381.46	1043.88
381.65	1020.47
381.85	1011.11
382.04	1011.11
382.24	1036.86
382.43	978.34
382.63	1081.33
382.83	1022.81
383.02	1144.52
383.22	1144.52
383.41	1114.10
383.61	1165.59
383.80	1233.46
384.00	1090.69
384.19	1111.75
384.39	1102.39
384.58	1181.97
384.78	1210.06
384.97	1160.91
385.17	1064.94
385.36	1151.54
385.56	1203.04
385.75	1259.21
385.95	1231.12
386.14	1210.06
386.34	1205.38
386.53	1179.63
386.72	1114.10
386.92	1254.53
387.11	1273.25
387.31	1287.29
387.50	1245.16
387.70	1308.36
387.89	1299.00
388.09	1193.67
388.28	1240.48
388.48	1263.89
388.67	1362.19
388.86	1308.36
389.06	1270.91
389.25	1238.14
389.45	1289.64
389.64	1315.38
389.84	1327.08
390.03	1355.17
390.22	1366.87
390.42	1430.07
390.61	1266.23
390.81	1299.00
391.00	1420.71
391.19	1441.77
391.39	1420.71
391.58	1488.58
391.78	1441.77
391.97	1472.20
392.16	1465.18
392.36	1441.77
392.55	1455.81
392.75	1511.99
392.94	1516.67
393.13	1502.62
393.33	1579.86
393.52	1621.99
393.71	1614.97
393.91	1544.75
394.10	1629.01
394.29	1547.09
394.49	1617.31
394.68	1568.16
394.88	1631.35
395.07	1652.42
395.26	1537.73
395.46	1572.84
395.65	1682.85
395.84	1722.63
396.04	1708.59
396.23	1764.76
396.42	1827.96
396.62	1785.83
396.81	1743.70
397.00	1748.38
397.19	1764.76
397.39	1809.23
397.58	1865.41
397.77	1865.41
397.97	1842.00
398.16	1874.77
398.35	1884.13
398.55	1884.13
398.74	1895.83
398.93	1935.62
399.12	1755.40
399.32	1907.54
399.51	1776.47
399.70	2024.56
399.90	1860.73
400.09	2043.29
400.28	1966.05
400.47	1984.77
400.67	1982.43
400.86	2059.67
401.05	2069.03
401.24	2115.84
401.44	2062.01
401.63	2190.74
401.82	2221.17
402.01	2141.59
402.21	2150.95
402.40	2143.93
402.59	2242.23
402.78	2122.87
402.97	2279.68
403.17	2223.51
403.36	2190.74
403.55	2279.68
403.74	2326.49
403.93	2352.24
404.13	2237.55
404.32	2375.64
404.51	2342.88
404.70	2415.43
404.89	2445.86
405.09	2492.67
405.28	2532.46
405.47	2459.90
405.66	2530.12
405.85	2511.39
406.05	2431.82
406.24	2509.05
406.43	2583.95
406.62	2775.88
406.81	2708.00
407.00	2600.34
407.20	2642.46
407.39	2640.12
407.58	2605.02
407.77	2682.25
407.96	2679.91
408.15	2729.06
408.34	2700.98
408.54	2878.86
408.73	2794.60
408.92	2789.92
409.11	2843.75
409.30	2930.35
409.49	2878.86
409.68	2890.56
409.87	2960.78
410.07	3005.25
410.26	3103.55
410.45	2995.89
410.64	3098.87
410.83	3026.31
411.02	3033.33
411.21	3145.68
411.40	3091.85
411.59	3288.45
411.78	3194.83
411.98	3171.43
412.17	3180.79
412.36	3246.32
412.55	3269.73
412.74	3248.66
412.93	3368.03
413.12	3262.71
413.31	3557.61
413.50	3361.01
413.69	3562.30
413.88	3709.75
414.07	3574.00
414.26	3644.21
414.45	3576.34
414.64	3789.33
414.83	3592.72
415.02	3789.33
415.22	3831.46
415.41	3873.59
415.60	3950.82
415.79	3997.64
415.98	3948.48
416.17	3964.87
416.36	3964.87
416.55	3920.40
416.74	4037.42
416.93	3964.87
417.12	4070.19
417.31	4119.34
417.50	4292.54
417.69	4241.05
417.88	4175.52
418.07	4182.54
418.26	4170.83
418.45	4479.79
418.64	4514.89
418.83	4547.66
419.02	4334.67
419.21	4407.23
419.39	4484.47
419.58	4435.32
419.77	4585.11
419.96	4636.60
420.15	4641.28
420.34	4594.47
420.53	4571.07
420.72	4678.73
420.91	4638.94
421.10	4901.08
421.29	4784.06
421.48	4634.26
421.67	4774.69
421.86	4898.74
422.05	4807.46
422.24	4882.36
422.43	4798.10
422.61	4847.25
422.80	5055.56
422.99	4936.19
423.18	4997.04
423.37	5025.13
423.56	4999.38
423.75	5039.17
423.94	4884.70
424.13	4589.79
424.32	4760.65
424.50	5137.48
424.69	5090.67
424.88	5114.07
425.07	4781.71
425.26	5043.85
425.45	4945.55
425.64	5001.72
425.83	5039.17
426.01	5151.52
426.20	4990.02
426.39	5160.88
426.58	5043.85
426.77	4997.04
426.96	5107.05
427.15	5132.79
427.33	5219.39
427.52	5291.95
427.71	5200.67
427.90	5125.77
428.09	5338.76
428.28	5355.15
428.46	5392.59
428.65	5287.27
428.84	5636.01
429.03	5734.31
429.22	5483.88
429.40	5547.07
429.59	5357.49
429.78	5268.55
429.97	5266.21
430.16	5495.58
430.34	5514.30
430.53	5685.16
430.72	5556.43
430.91	5647.71
431.10	5586.86
431.28	5811.55
431.47	5834.96
431.66	5832.62
431.85	5816.23
432.03	5940.28
432.22	6078.37
432.41	5905.17
432.60	5820.91
432.79	5975.39
432.97	5879.43
433.16	5933.26
433.35	6054.97
433.54	6043.26
433.72	6200.08
433.91	6017.52
434.10	6190.72
434.28	6150.93
434.47	6340.51
434.66	6209.44
434.85	6181.35
435.03	6392.00
435.22	6314.77
435.41	6581.59
435.59	6487.96
435.78	6424.77
435.97	6434.13
436.16	6506.69
436.34	6448.18
436.53	6450.52
436.72	6796.92
436.90	6612.01
437.09	6548.82
437.28	6558.18
437.46	6778.19
437.65	6698.61
437.84	6991.18
438.02	6724.36
438.21	6726.70
438.40	6782.87
438.58	7014.59
438.77	6897.56
438.96	7061.40
439.14	7033.31
439.33	7155.02
439.52	7253.32
439.70	7232.26
439.89	7316.51
440.08	7337.58
440.26	7384.39
440.45	7309.49
440.63	7468.65
440.82	7573.97
441.01	7297.79
441.19	7639.51
441.38	7681.64
441.57	7784.62
441.75	7911.01
441.94	8053.78
442.12	8086.55
442.31	8128.68
442.50	7878.24
442.68	7995.27
442.87	7981.23
443.05	8131.02
443.24	8322.94
443.43	8133.36
443.61	8180.17
443.80	8348.69
443.98	8028.04
444.17	7836.11
444.35	8149.75
444.54	8388.48
444.73	8379.12
444.91	8430.61
445.10	8294.86
445.28	8381.46
445.47	8212.94
445.65	8322.94
445.84	8418.91
446.02	8589.77
446.21	8451.67
446.39	8301.88
446.58	8500.83
446.77	8397.84
446.95	8259.75
447.14	8290.18
447.32	8695.09
447.51	8659.98
447.69	8491.46
447.88	8643.60
448.06	8535.93
448.25	8624.87
448.43	8641.26
448.62	8791.05
448.80	8503.17
448.99	8571.04
449.17	8823.82
449.36	8650.62
449.54	8744.24
449.73	8884.67
449.91	8903.40
450.10	8896.38
450.28	9095.32
450.46	9018.08
450.65	9088.30
450.83	8985.32
451.02	9036.81
451.20	9177.24
451.39	9074.26
451.57	9205.33
451.76	9284.91
451.94	9317.67
452.13	9558.75
452.31	9338.74
452.49	9256.82
452.68	9352.78
452.86	9315.33
453.05	9547.05
453.23	9689.82
453.42	9282.56
453.60	9329.38
453.78	9813.87
453.97	9771.74
454.15	9701.52
454.34	9448.74
454.52	9776.42
454.70	9666.41
454.89	9731.95
455.07	9940.26
455.26	10052.60
455.44	9991.75
455.62	10218.78
455.81	10073.67
455.99	9989.41
456.17	10036.22
456.36	9926.21
456.54	10087.71
456.73	10326.44
456.91	10452.83
457.09	10525.39
457.28	10600.29
457.46	10200.05
457.64	10576.88
457.83	10534.75
458.01	10293.68
458.19	10689.23
458.38	10546.45
458.56	10710.29
458.74	10619.01
458.93	10864.77
459.11	10703.27
459.29	10939.66
459.48	10724.33
459.66	10822.64
459.84	10853.06
460.03	11037.97
460.21	10860.09
460.39	11005.20
460.57	11087.12
460.76	11037.97
460.94	11307.13
461.12	10913.92
461.31	10934.98
461.49	11421.81
461.67	11206.48
461.85	11456.92
462.04	11454.58
462.22	11508.41
462.40	11817.36
462.59	11543.52
462.77	11576.29
462.95	11646.51
463.13	11597.35
463.32	11508.41
463.50	11906.31
463.68	12105.25
463.86	11885.24
464.05	11737.79
464.23	11634.80
464.41	11990.56
464.59	11688.64
464.78	12142.70
464.96	11859.49
465.14	11859.49
465.32	12159.08
465.50	12044.40
465.69	12121.63
465.87	12201.21
466.05	11976.52
466.23	12264.41
466.41	12222.28
466.60	12484.42
466.78	12156.74
466.96	12297.17
467.14	12304.20
467.32	12414.20
467.51	12713.79
467.69	12477.40
467.87	12634.21
468.05	12468.03
468.23	12432.93
468.41	12610.81
468.60	12568.68
468.78	13018.06
468.96	12634.21
469.14	13029.76
469.32	12931.46
469.50	12627.19
469.69	12896.35
469.87	13184.24
470.05	13373.82
470.23	13308.29
470.41	13284.88
470.59	13434.68
470.77	13247.43
470.95	13345.73
471.14	13710.86
471.32	13294.24
471.50	13640.64
471.68	13582.13
471.86	13483.83
472.04	13692.13
472.22	14026.83
472.40	13638.30
472.58	13888.74
472.77	13862.99
472.95	14162.58
473.13	14450.47
473.31	14251.52
473.49	13956.61
473.67	14476.21
473.85	14448.13
474.03	14672.82
474.21	14567.49
474.39	14768.78
474.57	14780.48
474.75	14956.02
474.93	15103.48
475.12	14897.51
475.30	15157.31
475.48	15164.33
475.66	15164.33
475.84	15037.94
476.02	15428.81
476.20	15370.30
476.38	15807.98
476.56	15882.88
476.74	15985.86
476.92	16126.29
477.10	15819.68
477.28	16224.59
477.46	16159.06
477.64	16379.07
477.82	16554.61
478.00	17018.04
478.18	16690.36
478.36	17121.02
478.54	17081.23
478.72	17357.41
478.90	17441.67
479.08	17479.12
479.26	17699.13
479.44	17898.08
479.62	17610.19
479.80	18101.70
479.98	18438.74
480.16	18466.83
480.34	18401.29
480.52	18462.15
480.70	18897.49
480.88	18508.96
481.06	18785.14
481.24	18733.65
481.41	19168.99
481.59	19381.98
481.77	19861.79
481.95	19756.46
482.13	19878.17
482.31	19955.41
482.49	20060.73
482.67	20446.92
482.85	20449.26
483.03	20917.37
483.21	20683.31
483.39	21111.63
483.57	20978.22
483.74	21348.03
483.92	21516.54
484.10	21032.05
484.28	21731.87
484.46	22419.99
484.64	22031.46
484.82	22190.62
485.00	22309.99
485.18	22923.21
485.35	22906.82
485.53	22740.64
485.71	23159.60
485.89	23297.69
486.07	23449.83
486.25	23452.17
486.43	23686.22
486.61	23917.93
486.78	23988.15
486.96	24329.87
487.14	24643.50
487.32	24917.34
487.50	24664.57
487.68	25010.96
487.85	25090.54
488.03	25565.67
488.21	25902.71
488.39	26183.57
488.57	26082.93
488.75	26284.22
488.92	26382.52
489.10	26682.11
489.28	26871.69
489.46	27414.69
489.64	27105.74
489.81	27475.55
489.99	27648.75
490.17	28210.48
490.35	28484.32
490.53	28063.02
490.70	28760.50
490.88	28301.76
491.06	29106.90
491.24	28751.14
491.41	29116.26
491.59	29055.41
491.77	29479.05
491.95	29673.31
492.13	30092.27
492.30	30132.06
492.48	30342.70
492.66	30478.46
492.84	30679.74
493.01	30895.07
493.19	31030.82
493.37	31087.00
493.54	31061.25
493.72	31632.34
493.90	31290.62
494.08	31913.20
494.25	32137.90
494.43	32252.58
494.61	32720.69
494.79	32297.05
494.96	32364.93
495.14	32636.43
495.32	33408.81
495.49	33387.74
495.67	33797.34
495.85	33659.24
496.02	33743.50
496.20	34401.19
496.38	34192.89
496.55	34506.52
496.73	34710.14
496.91	35196.98
497.09	34859.94
497.26	34979.31
497.44	34771.00
497.62	35309.32
497.79	35981.06
497.97	35817.22
498.14	36123.83
498.32	36779.18
498.50	36224.47
498.67	36547.47
498.85	36767.48
499.03	36950.04
499.20	37340.91
499.38	36893.86
499.56	37078.77
499.73	37343.25
499.91	37256.65
500.08	37923.70
500.26	37364.31
500.44	37830.08
500.61	37684.97
500.79	37832.42
500.97	38199.88
501.14	38555.64
501.32	38749.91
501.49	38590.75
501.67	38747.57
501.84	38782.68
502.02	38916.09
502.20	39213.34
502.37	39222.70
502.55	39367.81
502.72	39328.02
502.90	39674.42
503.07	39751.66
503.25	40121.46
503.43	39665.06
503.60	39882.73
503.78	40519.35
503.95	40388.28
504.13	40758.09
504.30	40879.80
504.48	40570.85
504.65	40926.61
504.83	41022.57
505.01	41642.81
505.18	41354.93
505.36	41352.58
505.53	41467.27
505.71	41642.81
505.88	42153.05
506.06	41670.90
506.23	41691.96
506.41	41937.72
506.58	42316.89
506.76	42096.88
506.93	42588.39
507.11	41989.21
507.28	42775.63
507.46	42951.17
507.63	43173.52
507.81	43105.65
507.98	42986.28
508.16	43564.39
508.33	43459.07
508.50	43552.69
508.68	43761.00
508.85	44533.37
509.03	44182.29
509.20	44044.20
509.38	44385.92
509.55	44315.70
509.73	44598.91
509.90	44669.12
510.08	44442.09
510.25	44886.79
510.42	44907.86
510.60	45256.60
510.77	45045.95
510.95	45614.70
511.12	45036.59
511.30	45390.01
511.47	45446.18
511.64	45310.43
511.82	45904.93
511.99	45523.42
512.17	45801.94
512.34	45811.31
512.51	46375.37
512.69	46766.24
512.86	46426.87
513.04	46972.21
513.21	46859.87
513.38	46784.97
513.56	47416.91
513.73	46651.56
513.90	47107.96
514.08	46899.65
514.25	47470.75
514.43	47559.69
514.60	47620.54
514.77	47636.92
514.95	47838.21
515.12	47868.64
515.29	47618.20
515.47	47892.04
515.64	48004.39
515.81	47952.90
515.99	48655.06
516.16	48739.32
516.33	48884.43
516.51	48633.99
516.68	48514.62
516.85	48722.93
517.03	48879.75
517.20	49010.82
517.37	49064.65
517.54	49095.08
517.72	49081.03
517.89	49443.82
518.06	49296.36
518.24	49230.83
518.41	49478.92
518.58	49647.44
518.75	49418.07
518.93	49698.94
519.10	49724.68
519.27	49900.22
519.45	49759.79
519.62	49787.88
519.79	50199.81
519.96	50211.51
520.14	50227.90
520.31	50148.32
520.48	50471.31
520.65	50220.87
520.83	50724.09
521.00	51011.98
521.17	50946.44
521.34	51075.17
521.52	50934.74
521.69	51147.73
521.86	51349.01
522.03	51173.47
522.20	51538.60
522.38	51496.47
522.55	51664.99
522.72	51459.02
522.89	51311.56
523.07	51550.30
523.24	51454.34
523.41	51901.38
523.58	51856.91
523.75	52119.05
523.92	51873.29
524.10	51964.57
524.27	52495.88
524.44	52175.22
524.61	52102.67
524.78	52205.65
524.96	52453.75
525.13	52563.75
525.30	52549.71
525.47	52540.35
525.64	52767.38
525.81	52821.21
525.98	52767.38
526.16	52865.68
526.33	52713.55
526.50	52933.56
526.67	52875.04
526.84	53106.76
527.01	52996.75
527.18	53137.18
527.36	53191.01
527.53	53104.41
527.70	53570.18
527.87	53787.85
528.04	53282.30
528.21	53324.43
528.38	53240.17
528.55	53708.27
528.72	53621.67
528.89	53551.46
529.07	53572.52
529.24	53474.22
529.41	53663.80
529.58	53766.79
529.75	53705.93
529.92	53918.92
530.09	53890.83
530.26	53827.64
530.43	54010.20
530.60	53778.49
530.77	54005.52
530.94	54082.76
531.11	54185.74
531.28	54209.15
531.46	54150.63
531.63	54302.77
531.80	54375.33
531.97	54548.53
532.14	54436.18
532.31	54642.15
532.48	54560.23
532.65	54878.54
532.82	54705.34
532.99	54775.56
533.16	54637.47
533.33	54967.48
533.50	54908.97
533.67	55065.78
533.84	54873.86
534.01	55131.32
534.18	55075.15
534.35	55332.60
534.52	54969.82
534.69	55325.58
534.86	55363.03
535.03	55194.51
535.20	55285.79
535.37	55281.11
535.54	55348.99
535.71	55414.52
535.88	55590.06
536.05	55606.45
536.22	55826.46
536.38	55777.31
536.55	55627.51
536.72	55962.21
536.89	55531.55
537.06	55868.59
537.23	55737.52
537.40	55657.94
537.57	55969.23
537.74	55894.33
537.91	55992.64
538.08	55903.70
538.25	55913.06
538.42	55866.25
538.59	56076.90
538.75	55987.95
538.92	55971.57
539.09	56266.48
539.26	56350.74
539.43	56119.02
539.60	56589.47
539.77	56350.74
539.94	56636.28
540.11	56512.23
540.28	56406.91
540.44	56554.36
540.61	56591.81
540.78	56367.12
540.95	56657.35
541.12	56673.73
541.29	56530.96
541.46	56385.85
541.62	56786.08
541.79	56963.96
541.96	56439.68
542.13	56491.17
542.30	56629.26
542.47	56643.30
542.63	57013.11
542.80	56985.02
542.97	57144.18
543.14	57457.81
543.31	57462.49
543.48	57275.25
543.64	57605.26
543.81	57368.87
543.98	57418.02
544.15	57422.70
544.32	57488.24
544.48	57808.89
544.65	57441.43
544.82	57460.15
544.99	57401.64
545.16	57726.97
545.32	57764.42
545.49	57773.78
545.66	57813.57
545.83	57813.57
546.00	57855.70
546.16	57780.81
546.33	57652.08
546.50	57621.65
546.67	57914.22
546.83	57535.05
547.00	57932.94
547.17	57916.56
547.34	57872.09
547.50	57928.26
547.67	58169.33
547.84	57977.41
548.00	58230.19
548.17	58377.64
548.34	58148.27
548.51	58433.81
548.67	58291.04
548.84	58281.68
549.01	58279.34
549.18	58220.83
549.34	58099.12
549.51	58511.05
549.68	58557.86
549.84	58541.48
550.01	58501.69
550.18	58319.13
550.34	58522.76
550.51	58614.04
550.68	58588.29
550.84	58487.65
551.01	58836.39
551.18	58693.61
551.34	58805.96
551.51	58635.10
551.68	58597.65
551.84	58702.98
552.01	58632.76
552.18	58698.30
552.34	58522.76
552.51	58869.15
552.68	58508.71
552.84	58740.42
553.01	59051.72
553.18	58894.90
553.34	59040.01
553.51	58904.26
553.67	58768.51
553.84	59105.55
554.01	58993.20
554.17	59007.25
554.34	59089.16
554.51	59243.64
554.67	59274.07
554.84	59248.32
555.00	59297.47
555.17	59138.32
555.33	59140.66
555.50	58997.88
555.67	59028.31
555.83	59477.69
556.00	59185.13
556.16	59470.67
556.33	59573.66
556.50	59398.12
556.66	59437.90
556.83	59164.06
556.99	59414.50
557.16	59590.04
557.32	59444.93
557.49	59634.51
557.65	59580.68
557.82	59297.47
557.98	59367.69
558.15	59477.69
558.32	59498.76
558.48	59398.12
558.65	59398.12
558.81	59686.00
558.98	59316.20
559.14	59814.73
559.31	59491.74
559.47	59807.71
559.64	59765.58
559.80	59831.11
559.97	59906.01
560.13	59653.23
560.30	59746.86
560.46	59863.88
560.63	59962.18
560.79	59973.89
560.96	59990.27
561.12	59721.11
561.29	59873.24
561.45	59770.26
561.61	59756.22
561.78	59725.79
561.94	59966.87
562.11	59870.90
562.27	60020.70
562.44	59971.55
562.60	60130.70
562.77	60156.45
562.93	59945.80
563.10	60086.23
563.26	60039.42
563.42	60357.74
563.59	60074.53
563.75	60170.49
563.92	60163.47
564.08	60261.77
564.24	60083.89
564.41	60191.56
564.57	60217.30
564.74	60254.75
564.90	60200.92
565.07	60261.77
565.23	60336.67
565.39	60238.37
565.56	60168.15
565.72	60271.14
565.88	60184.54
566.05	60177.51
566.21	60289.86
566.38	60327.31
566.54	60285.18
566.70	60502.85
566.87	60491.15
567.03	60205.60
567.19	60594.13
567.36	60514.55
567.52	60540.30
567.68	60657.32
567.85	60472.42
568.01	60633.92
568.17	60350.71
568.34	60594.13
568.50	60470.08
568.66	60369.44
568.83	60657.32
568.99	60362.42
569.15	60626.90
569.32	60465.40
569.48	60317.95
569.64	60610.51
569.81	60608.17
569.97	60540.30
570.13	60493.49
570.30	60449.02
570.46	60512.21
570.62	60598.81
570.78	60718.18
570.95	60420.93
571.11	60687.75
571.27	60439.65
571.43	60690.09
571.60	60748.60
571.76	60690.09
571.92	60772.01
572.09	60530.93
572.25	60474.76
572.41	60617.53
572.57	60734.56
572.74	60874.99
572.90	60561.36
573.06	60842.23
573.22	60704.13
573.38	60865.63
573.55	60694.77
573.71	60926.49
573.87	60573.06
574.03	60676.05
574.20	60940.53
574.36	60556.68
574.52	60800.10
574.68	60874.99
574.84	60949.89
575.01	60858.61
575.17	60783.71
575.33	60814.14
575.49	60935.85
575.65	60877.33
575.82	60966.27
575.98	60849.25
576.14	61118.41
576.30	61090.32
576.46	60879.67
576.62	60853.93
576.79	60961.59
576.95	60804.78
577.11	60872.65
577.27	60921.80
577.43	60928.83
577.59	60889.04
577.75	60896.06
577.92	60968.61
578.08	60893.72
578.24	60821.16
578.40	61036.49
578.56	60935.85
578.72	61038.83
578.88	61148.84
579.04	61148.84
579.21	61106.71
579.37	61043.51
579.53	61146.50
579.69	60837.54
579.85	60767.33
580.01	61015.43
580.17	60837.54
580.33	61087.98
580.49	61155.86
580.65	60942.87
580.82	60858.61
580.98	60961.59
581.14	60849.25
581.30	61148.84
581.46	60994.36
581.62	61071.60
581.78	60860.95
581.94	61073.94
582.10	61095.00
582.26	61167.56
582.42	60802.44
582.58	61113.73
582.74	60938.19
582.90	61087.98
583.06	61024.79
583.22	60774.35
583.38	61193.31
583.54	61268.20
583.70	60818.82
583.86	61207.35
584.02	60994.36
584.18	61073.94
584.34	61144.16
584.50	61055.21
584.66	61095.00
584.82	60734.56
584.98	61434.38
585.14	60999.04
585.30	61003.72
585.46	61188.63
585.62	61076.28
585.78	61251.82
585.94	60912.44
586.10	61052.87
586.26	61097.34
586.42	61020.11
586.58	61382.89
586.74	61095.00
586.90	61085.64
587.06	61109.05
587.22	61343.10
587.38	61174.58
587.54	61343.10
587.70	61247.14
587.86	61148.84
588.02	61050.53
588.18	61305.65
588.34	61029.47
588.49	61247.14
