SpectraSuite Data File
++++++++++++++++++++++++++++++++++++
Date: Fri Oct 25 11:25:49 EDT 2013
User: price-jones
Dark Spectrum Present: No
Reference Spectrum Present: No
Number of Sampled Component Spectra: 1
Spectrometers: USB2+H05261
Integration Time (usec): 100000 (USB2+H05261)
Spectra Averaged: 1 (USB2+H05261)
Boxcar Smoothing: 0 (USB2+H05261)
Correct for Electrical Dark: No (USB2+H05261)
Strobe/Lamp Enabled: No (USB2+H05261)
Correct for Detector Non-linearity: No (USB2+H05261)
Correct for Stray Light: No (USB2+H05261)
Number of Pixels in Processed Spectrum: 2048
>>>>>Begin Processed Spectral Data<<<<<
365.73	259.80
365.92	259.80
366.12	259.80
366.32	152.13
366.52	114.69
366.72	180.22
366.91	110.01
367.11	168.52
367.31	128.73
367.51	119.37
367.70	145.11
367.90	147.45
368.10	184.90
368.30	105.32
368.49	224.69
368.69	177.88
368.89	121.71
369.09	177.88
369.28	189.58
369.48	184.90
369.68	180.22
369.87	236.39
370.07	224.69
370.27	224.69
370.47	287.89
370.66	512.58
370.86	655.35
371.06	650.67
371.25	751.31
371.45	622.58
371.65	638.97
371.84	627.26
372.04	629.60
372.24	781.74
372.44	671.73
372.63	777.06
372.83	763.01
373.03	744.29
373.22	814.51
373.42	847.27
373.62	784.08
373.81	748.97
374.01	793.44
374.21	795.78
374.40	760.67
374.60	819.19
374.79	730.25
374.99	887.06
375.19	823.87
375.38	863.66
375.58	791.10
375.78	861.32
375.97	929.19
376.17	938.55
376.37	880.04
376.56	908.13
376.76	800.46
376.95	758.33
377.15	945.58
377.35	905.79
377.54	854.30
377.74	814.51
377.93	887.06
378.13	961.96
378.33	898.77
378.52	858.98
378.72	1006.43
378.91	997.07
379.11	926.85
379.31	940.90
379.50	926.85
379.70	945.58
379.89	1004.09
380.09	992.39
380.28	922.17
380.48	1034.52
380.68	957.28
380.87	1064.94
381.07	1078.99
381.26	1022.81
381.46	1060.26
381.65	1011.11
381.85	971.32
382.04	1029.84
382.24	1123.46
382.43	1029.84
382.63	1081.33
382.83	1034.52
383.02	1069.62
383.22	1121.12
383.41	1128.14
383.61	1102.39
383.80	1104.73
384.00	1100.05
384.19	1153.88
384.39	1081.33
384.58	1123.46
384.78	1249.85
384.97	1095.37
385.17	1252.19
385.36	1196.01
385.56	1142.18
385.75	1121.12
385.95	1217.08
386.14	1116.44
386.34	1181.97
386.53	1179.63
386.72	1287.29
386.92	1240.48
387.11	1231.12
387.31	1219.42
387.50	1299.00
387.70	1144.52
387.89	1247.51
388.09	1210.06
388.28	1364.53
388.48	1284.95
388.67	1296.66
388.86	1357.51
389.06	1320.06
389.25	1334.11
389.45	1331.76
389.64	1341.13
389.84	1350.49
390.03	1404.32
390.22	1390.28
390.42	1341.13
390.61	1359.85
390.81	1324.74
391.00	1378.58
391.19	1516.67
391.39	1516.67
391.58	1523.69
391.78	1509.65
391.97	1425.39
392.16	1528.37
392.36	1502.62
392.55	1575.18
392.75	1509.65
392.94	1514.33
393.13	1509.65
393.33	1493.26
393.52	1547.09
393.71	1537.73
393.91	1614.97
394.10	1582.20
394.29	1561.14
394.49	1577.52
394.68	1678.16
394.88	1596.25
395.07	1671.14
395.26	1689.87
395.46	1675.82
395.65	1682.85
395.84	1654.76
396.04	1764.76
396.23	1675.82
396.42	1792.85
396.62	1682.85
396.81	1717.95
397.00	1842.00
397.19	1734.34
397.39	1734.34
397.58	1811.57
397.77	1746.04
397.97	1912.22
398.16	1912.22
398.35	1912.22
398.55	1881.79
398.74	1874.77
398.93	1956.69
399.12	1916.90
399.32	1849.02
399.51	1895.83
399.70	1963.71
399.90	2003.50
400.09	2031.58
400.28	2050.31
400.47	2108.82
400.67	2003.50
400.86	2111.16
401.05	2113.50
401.24	2090.10
401.44	2298.41
401.63	2172.02
401.82	2125.21
402.01	2120.53
402.21	2113.50
402.40	2148.61
402.59	2303.09
402.78	2349.90
402.97	2298.41
403.17	2284.36
403.36	2310.11
403.55	2389.69
403.74	2249.25
403.93	2253.94
404.13	2286.70
404.32	2293.72
404.51	2345.22
404.70	2349.90
404.89	2392.03
405.09	2576.93
405.28	2487.99
405.47	2551.18
405.66	2385.01
405.85	2523.10
406.05	2476.29
406.24	2480.97
406.43	2586.29
406.62	2619.06
406.81	2637.78
407.00	2579.27
407.20	2740.77
407.39	2630.76
407.58	2616.72
407.77	2642.46
407.96	2738.43
408.15	2715.02
408.34	2747.79
408.54	2785.24
408.73	2703.32
408.92	2684.59
409.11	2764.17
409.30	2888.22
409.49	2928.01
409.68	3026.31
409.87	2913.97
410.07	2984.18
410.26	2867.16
410.45	2953.76
410.64	2897.58
410.83	3042.70
411.02	3141.00
411.21	3164.40
411.40	3138.66
411.59	3192.49
411.78	3279.09
411.98	3178.45
412.17	3157.38
412.36	3265.05
412.55	3307.18
412.74	3424.20
412.93	3368.03
413.12	3389.10
413.31	3510.80
413.50	3365.69
413.69	3382.07
413.88	3506.12
414.07	3524.85
414.26	3571.66
414.45	3618.47
414.64	3667.62
414.83	3648.90
415.02	3733.15
415.22	3740.18
415.41	3801.03
415.60	3861.88
415.79	3896.99
415.98	3953.16
416.17	3985.93
416.36	3882.95
416.55	3927.42
416.74	4044.45
416.93	4070.19
417.12	4007.00
417.31	4175.52
417.50	4142.75
417.69	4180.20
417.88	4355.74
418.07	4306.59
418.26	4252.75
418.45	4252.75
418.64	4517.23
418.83	4425.95
419.02	4294.88
419.21	4528.94
419.39	4493.83
419.58	4428.29
419.77	4334.67
419.96	4512.55
420.15	4671.71
420.34	4477.44
420.53	4685.75
420.72	4739.58
420.91	4613.20
421.10	4655.33
421.29	4884.70
421.48	4819.16
421.67	4837.89
421.86	4723.20
422.05	4582.77
422.24	4898.74
422.43	4800.44
422.61	4800.44
422.80	4945.55
422.99	4830.87
423.18	4814.48
423.37	4983.00
423.56	4940.87
423.75	5074.28
423.94	4940.87
424.13	4683.41
424.32	4564.04
424.50	5034.49
424.69	4992.36
424.88	5081.30
425.07	4924.49
425.26	4947.89
425.45	5025.13
425.64	5163.22
425.83	4884.70
426.01	4905.76
426.20	5107.05
426.39	5046.20
426.58	5085.98
426.77	4980.66
426.96	5046.20
427.15	5097.69
427.33	5064.92
427.52	5203.01
427.71	5418.34
427.90	5221.74
428.09	5259.18
428.28	5130.45
428.46	5355.15
428.65	5289.61
428.84	5441.75
429.03	5474.51
429.22	5294.29
429.40	5441.75
429.59	5483.88
429.78	5207.69
429.97	5270.89
430.16	5373.87
430.34	5781.12
430.53	5664.10
430.72	5586.86
430.91	5675.80
431.10	5621.97
431.28	5778.78
431.47	5755.38
431.66	5895.81
431.85	5778.78
432.03	6054.97
432.22	6104.12
432.41	5956.66
432.60	6022.20
432.79	5930.92
432.97	5865.38
433.16	6061.99
433.35	5963.68
433.54	6033.90
433.72	6050.28
433.91	6153.27
434.10	6148.59
434.28	6080.71
434.47	6277.32
434.66	6207.10
434.85	6300.72
435.03	6246.89
435.22	6342.85
435.41	6459.88
435.59	6382.64
435.78	6431.79
435.97	6408.39
436.16	6553.50
436.34	6403.71
436.53	6448.18
436.72	6712.66
436.90	6476.26
437.09	6670.53
437.28	6527.75
437.46	6434.13
437.65	6757.13
437.84	6623.72
438.02	6705.63
438.21	6757.13
438.40	6576.91
438.58	7002.88
438.77	7157.36
438.96	6832.02
439.14	6909.26
439.33	7239.28
439.52	7211.19
439.70	7260.34
439.89	7281.41
440.08	7215.87
440.26	7393.75
440.45	7337.58
440.63	7585.68
440.82	7686.32
441.01	7377.37
441.19	7562.27
441.38	7487.37
441.57	7892.29
441.75	7639.51
441.94	7873.56
442.12	7971.86
442.31	8098.25
442.50	7985.91
442.68	8011.65
442.87	8028.04
443.05	7936.76
443.24	8126.34
443.43	7892.29
443.61	8028.04
443.80	8299.54
443.98	8077.19
444.17	7967.18
444.35	8332.31
444.54	8283.16
444.73	8355.71
444.91	8348.69
445.10	8332.31
445.28	8264.43
445.47	8032.72
445.65	8210.60
445.84	8475.08
446.02	8325.29
446.21	8297.20
446.39	8369.76
446.58	8505.51
446.77	8388.48
446.95	8341.67
447.14	8482.10
447.32	8358.05
447.51	8468.06
447.69	8379.12
447.88	8461.04
448.06	8482.10
448.25	8521.89
448.43	8547.64
448.62	8571.04
448.80	8465.72
448.99	8559.34
449.17	8769.99
449.36	8538.27
449.54	8755.94
449.73	8964.25
449.91	9083.62
450.10	8837.86
450.28	8931.48
450.46	9090.64
450.65	9135.11
450.83	8971.27
451.02	8835.52
451.20	9179.58
451.39	9090.64
451.57	9114.05
451.76	9039.15
451.94	9261.50
452.13	9214.69
452.31	9263.84
452.49	9036.81
452.68	9406.61
452.86	9149.15
453.05	9324.69
453.23	9322.35
453.42	9598.54
453.60	9488.53
453.78	9488.53
453.97	9411.29
454.15	9472.15
454.34	9591.52
454.52	9841.95
454.70	9432.36
454.89	9699.18
455.07	9710.88
455.26	9614.92
455.44	9921.53
455.62	9727.27
455.81	9820.89
455.99	9942.60
456.17	9895.78
456.36	9930.89
456.54	10207.08
456.73	10230.48
456.91	10328.78
457.09	10270.27
457.28	10354.53
457.46	10260.91
457.64	10352.19
457.83	10534.75
458.01	10349.85
458.19	10752.42
458.38	10347.51
458.56	10745.40
458.74	10696.25
458.93	10740.72
459.11	10836.68
459.29	10705.61
459.48	10693.91
459.66	10548.79
459.84	10911.58
460.03	11154.99
460.21	11084.78
460.39	11077.76
460.57	11026.26
460.76	11063.71
460.94	11136.27
461.12	11007.54
461.31	11243.93
461.49	11143.29
461.67	11152.65
461.85	11468.62
462.04	11232.23
462.22	11784.60
462.40	11566.93
462.59	11625.44
462.77	11494.37
462.95	11520.12
463.13	11728.42
463.32	11382.03
463.50	11587.99
463.68	11749.49
463.86	11681.61
464.05	11419.47
464.23	11412.45
464.41	11913.33
464.59	11669.91
464.78	12077.16
464.96	11800.98
465.14	11896.94
465.32	12077.16
465.50	12039.72
465.69	12013.97
465.87	12039.72
466.05	12154.40
466.23	11960.14
466.41	12442.29
466.60	12306.54
466.78	12126.32
466.96	12086.53
467.14	12112.27
467.32	12421.22
467.51	12383.77
467.69	12159.08
467.87	12507.82
468.05	12971.25
468.23	12355.69
468.41	12599.10
468.60	12393.14
468.78	12423.56
468.96	12692.73
469.14	12788.69
469.32	12936.14
469.50	12805.07
469.69	12772.30
469.87	12865.92
470.05	13125.72
470.23	13055.51
470.41	13135.09
470.59	13029.76
470.77	13050.83
470.95	13226.37
471.14	13706.18
471.32	13069.55
471.50	13348.08
471.68	13411.27
471.86	13689.79
472.04	13827.88
472.22	13980.02
472.40	13633.62
472.58	14071.30
472.77	14040.87
472.95	14157.90
473.13	14609.62
473.31	14169.60
473.49	14017.47
473.67	14209.39
473.85	14345.14
474.03	14523.02
474.21	14670.48
474.39	14817.93
474.57	14719.63
474.75	14684.52
474.93	15028.58
475.12	14693.88
475.30	15187.74
475.48	14967.73
475.66	15098.80
475.84	14923.26
476.02	15112.84
476.20	15068.37
476.38	15482.64
476.56	15829.04
476.74	15749.46
476.92	15681.59
477.10	15683.93
477.28	16145.02
477.46	16058.42
477.64	16219.91
477.82	16500.78
478.00	16945.48
478.18	17027.40
478.36	16805.05
478.54	16870.58
478.72	17200.60
478.90	17343.37
479.08	17348.05
479.26	17635.94
479.44	17687.43
479.62	17734.24
479.80	18068.94
479.98	17977.65
480.16	18427.04
480.34	18132.13
480.52	18249.16
480.70	18497.25
480.88	18253.84
481.06	18504.28
481.24	18724.29
481.41	18970.04
481.59	19236.86
481.77	19403.04
481.95	19515.39
482.13	19538.79
482.31	19939.02
482.49	20264.36
482.67	20135.63
482.85	20430.54
483.03	20559.27
483.21	20676.29
483.39	20830.77
483.57	20744.17
483.74	21046.10
483.92	21551.65
484.10	21240.36
484.28	21460.37
484.46	21947.20
484.64	22174.24
484.82	22150.83
485.00	21923.80
485.18	22642.34
485.35	22656.39
485.53	22721.92
485.71	23028.53
485.89	23459.19
486.07	23126.83
486.25	23140.88
486.43	23522.38
486.61	23400.68
486.78	24002.19
486.96	23875.80
487.14	24678.61
487.32	24748.82
487.50	24741.80
487.68	24842.45
487.85	24989.90
488.03	25535.24
488.21	25666.31
488.39	25474.39
488.57	26082.93
488.75	25916.75
488.92	26185.91
489.10	26455.08
489.28	26806.16
489.46	27068.30
489.64	26714.87
489.81	27679.18
489.99	27583.21
490.17	27491.93
490.35	27796.20
490.53	27669.81
490.70	28144.94
490.88	28114.52
491.06	28783.91
491.24	28680.92
491.41	28790.93
491.59	29062.43
491.77	29076.48
491.95	29715.44
492.13	29535.22
492.30	29600.76
492.48	30272.49
492.66	30298.23
492.84	30078.22
493.01	30293.55
493.19	30426.96
493.37	30691.44
493.54	31342.11
493.72	31494.25
493.90	31463.82
494.08	31335.09
494.25	31960.02
494.43	32041.93
494.61	32100.45
494.79	32404.72
494.96	32133.21
495.14	32493.66
495.32	32966.45
495.49	32950.06
495.67	32914.95
495.85	33362.00
496.02	33464.98
496.20	33757.55
496.38	33841.81
496.55	34103.95
496.73	34579.07
496.91	34518.22
497.09	34309.91
497.26	34384.81
497.44	34752.27
497.62	35253.15
497.79	35473.16
497.97	35182.93
498.14	35770.41
498.32	36119.15
498.50	35974.03
498.67	36271.28
498.85	36240.86
499.03	36622.36
499.20	36388.31
499.38	36737.05
499.56	36683.22
499.73	36935.99
499.91	37113.87
500.08	37277.71
500.26	37134.94
500.44	37394.74
500.61	37621.77
500.79	37434.53
500.97	37780.93
501.14	38155.41
501.32	38499.47
501.49	38153.07
501.67	38478.41
501.84	38794.38
502.02	38923.11
502.20	38745.23
502.37	39388.88
502.55	39023.75
502.72	38972.26
502.90	39330.36
503.07	39302.28
503.25	39629.95
503.43	39519.95
503.60	40140.19
503.78	39997.41
503.95	39892.09
504.13	40264.24
504.30	40486.59
504.48	40210.40
504.65	40730.00
504.83	40781.49
505.01	41544.51
505.18	41090.44
505.36	41584.30
505.53	40638.72
505.71	40978.10
505.88	41460.25
506.06	41324.50
506.23	41710.69
506.41	41914.31
506.58	42106.24
506.76	42192.84
506.93	42234.97
507.11	42047.72
507.28	42337.95
507.46	42342.63
507.63	42906.70
507.81	42880.95
507.98	42513.49
508.16	42885.64
508.33	43131.39
508.50	43150.12
508.68	43304.59
508.85	44060.58
509.03	43917.81
509.20	43868.66
509.38	44025.48
509.55	44315.70
509.73	44252.51
509.90	44528.69
510.08	44264.21
510.25	44371.88
510.42	44832.96
510.60	44650.40
510.77	45144.25
510.95	45256.60
511.12	44875.09
511.30	44465.50
511.47	45315.11
511.64	45364.26
511.82	45408.73
511.99	45476.61
512.17	45635.77
512.34	46085.15
512.51	46197.49
512.69	46227.92
512.86	46253.67
513.04	46607.09
513.21	46274.73
513.38	46354.31
513.56	46733.48
513.73	46452.61
513.90	46871.57
514.08	46813.05
514.25	47145.41
514.43	47229.67
514.60	47456.70
514.77	47012.00
514.95	47599.47
515.12	47412.23
515.29	47255.42
515.47	47463.72
515.64	47887.36
515.81	47543.30
515.99	48119.07
516.16	48074.60
516.33	48151.84
516.51	48369.51
516.68	48456.11
516.85	48406.96
517.03	48378.87
517.20	48512.28
517.37	48484.20
517.54	48854.00
517.72	49195.72
517.89	48861.02
518.06	48949.96
518.24	49256.57
518.41	49111.46
518.58	49350.20
518.75	48832.94
518.93	49724.68
519.10	49741.06
519.27	49916.61
519.45	49488.29
519.62	49577.23
519.79	50059.38
519.96	49640.42
520.14	50412.80
520.31	49883.84
520.48	50145.98
520.65	50054.70
520.83	50464.29
521.00	50775.58
521.17	50253.64
521.34	50450.25
521.52	50583.66
521.69	50602.38
521.86	50857.50
522.03	50892.61
522.20	51341.99
522.38	51199.22
522.55	51171.13
522.72	51044.74
522.89	51262.41
523.07	51323.27
523.24	51133.68
523.41	51140.71
523.58	51346.67
523.75	51569.02
523.92	51604.13
524.10	51821.80
524.27	51660.30
524.44	51695.41
524.61	51765.63
524.78	51852.23
524.96	51962.23
525.13	52018.41
525.30	52013.73
525.47	52437.36
525.64	51997.34
525.81	52428.00
525.98	52505.24
526.16	52329.70
526.33	52378.85
526.50	52938.24
526.67	52538.01
526.84	52582.48
527.01	52694.82
527.18	52491.19
527.36	52800.15
527.53	52776.74
527.70	53069.31
527.87	53207.40
528.04	52938.24
528.21	53176.97
528.38	53230.80
528.55	53315.06
528.72	53263.57
528.89	53183.99
529.07	53478.90
529.24	53066.97
529.41	53422.73
529.58	53401.66
529.75	53242.51
529.92	53677.85
530.09	53848.71
530.26	53710.61
530.43	53675.51
530.60	53666.14
530.77	53579.54
530.94	54049.99
531.11	53549.12
531.28	53743.38
531.46	53853.39
531.63	54073.40
531.80	54038.29
531.97	54391.71
532.14	54291.07
532.31	54183.40
532.48	54445.54
532.65	54700.66
532.82	54291.07
532.99	54628.10
533.16	54583.63
533.33	54827.05
533.50	54564.91
533.67	54754.49
533.84	54644.49
534.01	54906.63
534.18	54686.62
534.35	55262.39
534.52	54976.84
534.69	55213.24
534.86	55100.89
535.03	54841.09
535.20	55356.01
535.37	55309.20
535.54	55227.28
535.71	55297.50
535.88	55480.06
536.05	55356.01
536.22	55604.11
536.38	55664.96
536.55	55377.08
536.72	55323.24
536.89	55508.14
537.06	55086.85
537.23	55772.63
537.40	55320.90
537.57	55536.23
537.74	55517.51
537.91	55941.14
538.08	55707.09
538.25	55458.99
538.42	55735.18
538.59	55896.67
538.75	55938.80
538.92	55983.27
539.09	56088.60
539.26	55894.33
539.43	56081.58
539.60	56121.37
539.77	55821.78
539.94	56439.68
540.11	56133.07
540.28	56296.91
540.44	56336.69
540.61	56313.29
540.78	56413.93
540.95	56289.88
541.12	56523.94
541.29	56418.61
541.46	56465.42
541.62	56353.08
541.79	56287.54
541.96	56306.27
542.13	56711.18
542.30	56456.06
542.47	56886.72
542.63	56655.01
542.80	56697.14
542.97	56968.64
543.14	57069.28
543.31	57097.37
543.48	57202.69
543.64	57113.75
543.81	57389.94
543.98	57378.23
544.15	57378.23
544.32	57190.99
544.48	57453.13
544.65	57490.58
544.82	57434.41
544.99	57172.27
545.16	57303.34
545.32	57371.21
545.49	57612.29
545.66	57640.37
545.83	57490.58
546.00	57710.59
546.16	57553.77
546.33	57364.19
546.50	57188.65
546.67	57691.86
546.83	57411.00
547.00	57565.48
547.17	57635.69
547.34	57736.34
547.50	57790.17
547.67	57626.33
547.84	57897.83
548.00	57836.98
548.17	58223.17
548.34	57921.24
548.51	58049.97
548.67	58052.31
548.84	57804.21
549.01	58064.01
549.18	58127.20
549.34	58178.70
549.51	58192.74
549.68	58361.26
549.84	58129.54
550.01	58288.70
550.18	58129.54
550.34	58410.41
550.51	58337.85
550.68	58225.51
550.84	58017.20
551.01	58412.75
551.18	58375.30
551.34	58457.22
551.51	58295.72
551.68	58433.81
551.84	58403.39
552.01	58337.85
552.18	58515.73
552.34	58412.75
552.51	58609.35
552.68	58328.49
552.84	58550.84
553.01	58951.07
553.18	58447.86
553.34	58780.21
553.51	58630.42
553.67	58759.15
553.84	58780.21
554.01	59047.04
554.17	58976.82
554.34	58962.78
554.51	58782.55
554.67	58927.67
554.84	58859.79
555.00	58880.86
555.17	58908.94
555.33	58805.96
555.50	58972.14
555.67	58990.86
555.83	58937.03
556.00	59032.99
556.16	59311.52
556.33	59201.51
556.50	59112.57
556.66	59339.60
556.83	58880.86
556.99	59302.15
557.16	59494.08
557.32	59473.01
557.49	59531.53
557.65	59166.40
557.82	59281.09
557.98	59224.92
558.15	59367.69
558.32	59393.43
558.48	59093.85
558.65	59250.66
558.81	59353.65
558.98	59405.14
559.14	59526.84
559.31	59536.21
559.47	59531.53
559.64	59744.51
559.80	59686.00
559.97	59395.77
560.13	59360.67
560.30	59646.21
560.46	59372.37
560.63	59739.83
560.79	59498.76
560.96	59721.11
561.12	59833.46
561.29	59702.38
561.45	59758.56
561.61	59746.86
561.78	59728.13
561.94	59557.27
562.11	59697.70
562.27	59777.28
562.44	59842.82
562.60	59927.08
562.77	59924.74
562.93	59707.07
563.10	60149.43
563.26	59798.35
563.42	60006.65
563.59	59854.52
563.75	59908.35
563.92	60034.74
564.08	60020.70
564.24	60069.85
564.41	60013.68
564.57	60088.57
564.74	59936.44
564.90	59798.35
565.07	59812.39
565.23	59964.52
565.39	60072.19
565.56	60048.78
565.72	59924.74
565.88	60107.30
566.05	60055.81
566.21	59978.57
566.38	60196.24
566.54	60381.14
566.70	60233.69
566.87	60231.35
567.03	60168.15
567.19	60432.63
567.36	60331.99
567.52	60224.32
567.68	60341.35
567.85	60250.07
568.01	60310.92
568.17	60149.43
568.34	60203.26
568.50	60114.32
568.66	60271.14
568.83	60154.11
568.99	60097.94
569.15	60315.61
569.32	60346.03
569.48	60374.12
569.64	60399.86
569.81	60423.27
569.97	59969.21
570.13	60353.05
570.30	60257.09
570.46	60467.74
570.62	60339.01
570.78	60444.33
570.95	60324.97
571.11	60488.80
571.27	60374.12
571.43	60378.80
571.60	60692.43
571.76	60458.38
571.92	60697.11
572.09	60425.61
572.25	60420.93
572.41	60367.10
572.57	60437.31
572.74	60711.16
572.90	60383.48
573.06	60512.21
573.22	60465.40
573.38	60669.03
573.55	60322.63
573.71	60685.41
573.87	60559.02
574.03	60542.64
574.20	60715.84
574.36	60392.84
574.52	60413.91
574.68	60753.29
574.84	60722.86
575.01	60645.62
575.17	60591.79
575.33	60434.97
575.49	60322.63
575.65	60692.43
575.82	60711.16
575.98	60807.12
576.14	60795.42
576.30	60760.31
576.46	60566.04
576.62	60757.97
576.79	60711.16
576.95	60449.02
577.11	60666.69
577.27	60739.24
577.43	60933.51
577.59	60498.17
577.75	60552.00
577.92	60465.40
578.08	60692.43
578.24	60828.18
578.40	60811.80
578.56	60942.87
578.72	60886.70
578.88	60802.44
579.04	60999.04
579.21	60982.66
579.37	60685.41
579.53	60741.58
579.69	60853.93
579.85	60657.32
580.01	60734.56
580.17	60537.96
580.33	60821.16
580.49	60788.39
580.65	60720.52
580.82	60828.18
580.98	60729.88
581.14	60582.43
581.30	60987.34
581.46	60762.65
581.62	60996.70
581.78	60903.08
581.94	60746.26
582.10	60746.26
582.26	60849.25
582.42	60767.33
582.58	60795.42
582.74	60713.50
582.90	60882.02
583.06	60872.65
583.22	60582.43
583.38	60692.43
583.54	60835.20
583.70	60917.12
583.86	61001.38
584.02	60720.52
584.18	60949.89
584.34	60544.98
584.50	61073.94
584.66	60715.84
584.82	60800.10
584.98	61010.74
585.14	60903.08
585.30	60877.33
585.46	60947.55
585.62	60746.26
585.78	60977.98
585.94	60874.99
586.10	60748.60
586.26	60849.25
586.42	60779.03
586.58	60865.63
586.74	61134.79
586.90	60769.67
587.06	60893.72
587.22	60907.76
587.38	61083.30
587.54	61118.41
587.70	60959.25
587.86	60905.42
588.02	60839.89
588.18	61041.17
588.34	60849.25
588.49	60865.63
