SpectraSuite Data File
++++++++++++++++++++++++++++++++++++
Date: Fri Oct 25 11:22:46 EDT 2013
User: price-jones
Dark Spectrum Present: No
Reference Spectrum Present: No
Number of Sampled Component Spectra: 1
Spectrometers: USB2+H05261
Integration Time (usec): 100000 (USB2+H05261)
Spectra Averaged: 1 (USB2+H05261)
Boxcar Smoothing: 0 (USB2+H05261)
Correct for Electrical Dark: No (USB2+H05261)
Strobe/Lamp Enabled: No (USB2+H05261)
Correct for Detector Non-linearity: No (USB2+H05261)
Correct for Stray Light: No (USB2+H05261)
Number of Pixels in Processed Spectrum: 2048
>>>>>Begin Processed Spectral Data<<<<<
365.73	191.92
365.92	191.92
366.12	191.92
366.32	252.78
366.52	72.56
366.72	126.39
366.91	133.41
367.11	131.07
367.31	105.32
367.51	86.60
367.70	98.30
367.90	180.22
368.10	156.82
368.30	166.18
368.49	156.82
368.69	128.73
368.89	205.97
369.09	110.01
369.28	74.90
369.48	135.75
369.68	142.77
369.87	147.45
370.07	177.88
370.27	252.78
370.47	358.10
370.66	561.73
370.86	620.24
371.06	606.20
371.25	636.63
371.45	681.10
371.65	676.41
371.84	662.37
372.04	645.99
372.24	718.54
372.44	748.97
372.63	774.72
372.83	739.61
373.03	734.93
373.22	737.27
373.42	837.91
373.62	737.27
373.81	732.59
374.01	844.93
374.21	739.61
374.40	741.95
374.60	840.25
374.79	826.21
374.99	835.57
375.19	779.40
375.38	866.00
375.58	802.80
375.78	847.27
375.97	795.78
376.17	1022.81
376.37	880.04
376.56	802.80
376.76	828.55
376.95	807.48
377.15	819.19
377.35	807.48
377.54	844.93
377.74	837.91
377.93	931.53
378.13	924.51
378.33	891.74
378.52	915.15
378.72	912.81
378.91	931.53
379.11	973.66
379.31	875.36
379.50	933.87
379.70	994.73
379.89	950.26
380.09	980.68
380.28	1015.79
380.48	952.60
380.68	1053.24
380.87	912.81
381.07	968.98
381.26	992.39
381.46	994.73
381.65	976.00
381.85	1018.13
382.04	1050.90
382.24	1078.99
382.43	1088.35
382.63	1029.84
382.83	1055.58
383.02	1032.18
383.22	1104.73
383.41	1149.20
383.61	1097.71
383.80	1132.82
384.00	1184.31
384.19	1193.67
384.39	1151.54
384.58	1172.61
384.78	1130.48
384.97	1151.54
385.17	1212.40
385.36	1170.27
385.56	1193.67
385.75	1137.50
385.95	1116.44
386.14	1158.57
386.34	1160.91
386.53	1177.29
386.72	1153.88
386.92	1240.48
387.11	1200.69
387.31	1163.25
387.50	1294.32
387.70	1233.46
387.89	1303.68
388.09	1315.38
388.28	1259.21
388.48	1277.93
388.67	1371.55
388.86	1273.25
389.06	1320.06
389.25	1430.07
389.45	1362.19
389.64	1380.92
389.84	1416.02
390.03	1392.62
390.22	1373.89
390.42	1324.74
390.61	1343.47
390.81	1369.21
391.00	1394.96
391.19	1507.30
391.39	1458.15
391.58	1425.39
391.78	1467.52
391.97	1558.80
392.16	1633.69
392.36	1572.84
392.55	1500.28
392.75	1533.05
392.94	1486.24
393.13	1514.33
393.33	1495.60
393.52	1645.40
393.71	1497.94
393.91	1579.86
394.10	1535.39
394.29	1617.31
394.49	1647.74
394.68	1605.61
394.88	1598.59
395.07	1598.59
395.26	1614.97
395.46	1621.99
395.65	1673.48
395.84	1715.61
396.04	1722.63
396.23	1743.70
396.42	1687.53
396.62	1727.32
396.81	1699.23
397.00	1734.34
397.19	1781.15
397.39	1823.28
397.58	1907.54
397.77	1743.70
397.97	1893.49
398.16	1935.62
398.35	1870.09
398.55	1778.81
398.74	1874.77
398.93	2040.95
399.12	1930.94
399.32	1989.46
399.51	1982.43
399.70	2106.48
399.90	1963.71
400.09	2071.37
400.28	1996.48
400.47	2069.03
400.67	2052.65
400.86	2069.03
401.05	2146.27
401.24	2155.63
401.44	2132.23
401.63	2115.84
401.82	2289.04
402.01	2167.34
402.21	2115.84
402.40	2094.78
402.59	2190.74
402.78	2216.49
402.97	2223.51
403.17	2193.08
403.36	2197.76
403.55	2263.30
403.74	2284.36
403.93	2385.01
404.13	2352.24
404.32	2368.62
404.51	2361.60
404.70	2338.20
404.89	2389.69
405.09	2417.77
405.28	2441.18
405.47	2469.27
405.66	2511.39
405.85	2551.18
406.05	2495.01
406.24	2480.97
406.43	2511.39
406.62	2663.53
406.81	2684.59
407.00	2548.84
407.20	2644.81
407.39	2656.51
407.58	2700.98
407.77	2679.91
407.96	2825.03
408.15	2738.43
408.34	2813.32
408.54	2796.94
408.73	2818.00
408.92	2906.95
409.11	2881.20
409.30	2913.97
409.49	2920.99
409.68	2986.52
409.87	2993.55
410.07	3019.29
410.26	2981.84
410.45	3038.02
410.64	3052.06
410.83	3103.55
411.02	3000.57
411.21	3166.74
411.40	3222.92
411.59	3232.28
411.78	3213.56
411.98	3295.47
412.17	3265.05
412.36	3337.60
412.55	3297.81
412.74	3403.14
412.93	3377.39
413.12	3424.20
413.31	3510.80
413.50	3461.65
413.69	3510.80
413.88	3618.47
414.07	3536.55
414.26	3644.21
414.45	3646.55
414.64	3777.62
414.83	3763.58
415.02	3803.37
415.22	3861.88
415.41	3908.69
415.60	3826.78
415.79	3911.04
415.98	3948.48
416.17	4140.41
416.36	3990.61
416.55	4095.94
416.74	4042.11
416.93	4156.79
417.12	4109.98
417.31	4205.94
417.50	4131.05
417.69	4294.88
417.88	4257.43
418.07	4306.59
418.26	4325.31
418.45	4440.00
418.64	4428.29
418.83	4491.49
419.02	4283.18
419.21	4458.72
419.39	4552.34
419.58	4411.91
419.77	4414.25
419.96	4638.94
420.15	4557.02
420.34	4662.35
420.53	4526.60
420.72	4592.13
420.91	4568.73
421.10	4711.50
421.29	4802.78
421.48	4723.20
421.67	4854.27
421.86	4812.14
422.05	4816.82
422.24	4753.63
422.43	4828.53
422.61	4903.42
422.80	4933.85
422.99	4952.57
423.18	4793.42
423.37	5050.88
423.56	4741.93
423.75	4954.91
423.94	4788.74
424.13	4767.67
424.32	4954.91
424.50	4968.96
424.69	5128.11
424.88	4971.30
425.07	4966.62
425.26	4877.68
425.45	5046.20
425.64	4957.25
425.83	5001.72
426.01	5144.50
426.20	4990.02
426.39	4992.36
426.58	5144.50
426.77	5100.03
426.96	5076.62
427.15	5149.18
427.33	5259.18
427.52	5261.52
427.71	5301.31
427.90	5240.46
428.09	5247.48
428.28	5448.77
428.46	5268.55
428.65	5317.70
428.84	5612.60
429.03	5526.00
429.22	5373.87
429.40	5448.77
429.59	5502.60
429.78	5284.93
429.97	5343.44
430.16	5432.38
430.34	5668.78
430.53	5556.43
430.72	5729.63
430.91	5392.59
431.10	5523.66
431.28	5778.78
431.47	5771.76
431.66	5909.85
431.85	5710.91
432.03	5891.13
432.22	5823.25
432.41	6029.22
432.60	5921.56
432.79	5895.81
432.97	5963.68
433.16	6134.54
433.35	6141.57
433.54	6251.57
433.72	5949.64
433.91	6207.10
434.10	6176.67
434.28	6108.80
434.47	6108.80
434.66	6094.76
434.85	6047.94
435.03	6349.87
435.22	6317.11
435.41	6382.64
435.59	6382.64
435.78	6485.62
435.97	6532.44
436.16	6417.75
436.34	6473.92
436.53	6649.46
436.72	6686.91
436.90	6415.41
437.09	6750.10
437.28	6633.08
437.46	6832.02
437.65	6773.51
437.84	6724.36
438.02	6726.70
438.21	6815.64
438.40	6862.45
438.58	7070.76
438.77	7049.69
438.96	6963.09
439.14	6979.48
439.33	7206.51
439.52	7358.64
439.70	7302.47
439.89	7225.23
440.08	7438.22
440.26	7414.82
440.45	7279.07
440.63	7506.10
440.82	7782.28
441.01	7552.91
441.19	7719.09
441.38	7784.62
441.57	7901.65
441.75	7653.55
441.94	7852.50
442.12	8037.40
442.31	8056.12
442.50	7985.91
442.68	8163.79
442.87	8093.57
443.05	8056.12
443.24	8276.13
443.43	8081.87
443.61	8362.73
443.80	8472.74
443.98	8215.28
444.17	7723.77
444.35	8271.45
444.54	8538.27
444.73	8269.11
444.91	8430.61
445.10	8435.29
445.28	8290.18
445.47	8189.53
445.65	8381.46
445.84	8269.11
446.02	8613.17
446.21	8294.86
446.39	8468.06
446.58	8685.73
446.77	8446.99
446.95	8465.72
447.14	8468.06
447.32	8564.02
447.51	8559.34
447.69	8606.15
447.88	8468.06
448.06	8566.36
448.25	8423.59
448.43	8542.96
448.62	8727.86
448.80	8643.60
448.99	8676.37
449.17	8755.94
449.36	8613.17
449.54	8877.65
449.73	8994.68
449.91	8959.57
450.10	9027.45
450.28	9198.31
450.46	9217.03
450.65	8999.36
450.83	9111.71
451.02	8999.36
451.20	9437.04
451.39	9217.03
451.57	9266.18
451.76	9207.67
451.94	9350.44
452.13	9404.27
452.31	9408.95
452.49	9280.22
452.68	9451.08
452.86	9427.68
453.05	9518.96
453.23	9659.39
453.42	9397.25
453.60	9432.36
453.78	9610.24
453.97	9734.29
454.15	9685.14
454.34	9493.21
454.52	9853.66
454.70	9694.50
454.89	9703.86
455.07	9753.01
455.26	9774.08
455.44	10162.61
455.62	9958.98
455.81	9792.80
455.99	10221.12
456.17	10200.05
456.36	10174.31
456.54	10054.94
456.73	10181.33
456.91	10347.51
457.09	10658.80
457.28	10462.19
457.46	10422.41
457.64	10661.14
457.83	10431.77
458.01	10321.76
458.19	10876.47
458.38	10593.26
458.56	10719.65
458.74	10775.83
458.93	10721.99
459.11	10815.62
459.29	10960.73
459.48	10860.09
459.66	10827.32
459.84	10897.53
460.03	11087.12
460.21	11154.99
460.39	10834.34
460.57	11000.52
460.76	11323.51
460.94	11318.83
461.12	11260.32
461.31	11506.07
461.49	11059.03
461.67	11133.93
461.85	11580.97
462.04	11262.66
462.22	11824.39
462.40	11428.84
462.59	11676.93
462.77	11470.97
462.95	11744.81
463.13	11730.76
463.32	11669.91
463.50	12009.29
463.68	11838.43
463.86	11772.89
464.05	11768.21
464.23	12044.40
464.41	11702.68
464.59	11648.85
464.78	12009.29
464.96	12100.57
465.14	11962.48
465.32	11962.48
465.50	12049.08
465.69	12463.35
465.87	12341.64
466.05	12360.37
466.23	12343.99
466.41	12498.46
466.60	12573.36
466.78	12262.07
466.96	12397.82
467.14	12535.91
467.32	12439.95
467.51	12840.18
467.69	12280.79
467.87	12559.31
468.05	12564.00
468.23	12737.20
468.41	12683.36
468.60	12744.22
468.78	12891.67
468.96	12821.45
469.14	13053.17
469.32	12954.87
469.50	12531.23
469.69	13001.68
469.87	13282.54
470.05	13242.75
470.23	13041.46
470.41	13060.19
470.59	13345.73
470.77	13139.77
470.95	13280.20
471.14	13633.62
471.32	13343.39
471.50	13724.90
471.68	13610.22
471.86	13811.50
472.04	13713.20
472.22	14209.39
472.40	13839.59
472.58	13877.04
472.77	14115.77
472.95	14335.78
473.13	14523.02
473.31	14111.09
473.49	14251.52
473.67	14146.20
473.85	14583.88
474.03	14736.01
474.21	14665.80
474.39	14801.55
474.57	14656.43
474.75	15037.94
474.93	15318.81
475.12	15262.63
475.30	15527.11
475.48	15023.90
475.66	15538.82
475.84	15585.63
476.02	15379.66
476.20	15328.17
476.38	15772.87
476.56	15934.37
476.74	15974.16
476.92	16074.80
477.10	16067.78
477.28	16620.14
477.46	16292.47
477.64	16308.85
477.82	16648.23
478.00	17116.34
478.18	16652.91
478.36	17020.38
478.54	17324.65
478.72	17418.27
478.90	17678.07
479.08	17755.30
479.26	17738.92
479.44	18036.17
479.62	18174.26
479.80	17977.65
479.98	18277.24
480.16	18684.50
480.34	18759.39
480.52	18689.18
480.70	18867.06
480.88	18576.83
481.06	19087.07
481.24	18864.72
481.41	19215.80
481.59	19236.86
481.77	19475.60
481.95	19880.51
482.13	19864.13
482.31	19803.27
482.49	20311.17
482.67	20257.34
482.85	20629.48
483.03	20428.20
483.21	20945.45
483.39	20882.26
483.57	21074.18
483.74	21458.03
483.92	21525.91
484.10	21891.03
484.28	21916.78
484.46	22115.72
484.64	22274.88
484.82	22087.64
485.00	22457.44
485.18	22930.23
485.35	22946.61
485.53	22860.01
485.71	23262.58
485.89	23702.61
486.07	23356.21
486.25	23796.23
486.43	23779.84
486.61	24184.76
486.78	24226.89
486.96	24168.37
487.14	24767.55
487.32	24875.21
487.50	24730.10
487.68	25170.12
487.85	25490.77
488.03	25809.09
488.21	26204.64
488.39	25975.27
488.57	26199.96
488.75	26761.69
488.92	26654.02
489.10	26661.04
489.28	26593.17
489.46	27285.97
489.64	27257.88
489.81	28025.57
489.99	28023.23
490.17	28350.91
490.35	27758.75
490.53	28386.02
490.70	28666.88
490.88	28114.52
491.06	28978.17
491.24	29020.30
491.41	29188.82
491.59	29462.66
491.77	29432.24
491.95	29771.61
492.13	30235.04
492.30	30267.81
492.48	29923.75
492.66	30459.73
492.84	30623.57
493.01	31072.95
493.19	30749.96
493.37	31346.79
493.54	31168.91
493.72	31573.83
493.90	31559.78
494.08	32158.96
494.25	32002.14
494.43	32201.09
494.61	32547.49
494.79	32954.74
494.96	32723.03
495.14	33200.50
495.32	33504.77
495.49	33266.03
495.67	33490.73
495.85	33687.33
496.02	34157.78
496.20	34087.56
496.38	34391.83
496.55	34244.38
496.73	35047.18
496.91	34710.14
497.09	35346.77
497.26	35725.94
497.44	35115.06
497.62	35232.08
497.79	35981.06
497.97	35634.66
498.14	36357.88
498.32	36308.73
498.50	36561.51
498.67	36793.22
498.85	36765.14
499.03	36821.31
499.20	36863.44
499.38	36973.44
499.56	37249.63
499.73	37439.21
499.91	37577.30
500.08	37729.44
500.26	37787.95
500.44	37598.37
500.61	38174.14
500.79	38256.06
500.97	38167.12
501.14	38937.15
501.32	38756.93
501.49	38735.87
501.67	39222.70
501.84	39257.81
502.02	39005.03
502.20	39632.29
502.37	39182.91
502.55	39196.95
502.72	39978.69
502.90	39917.84
503.07	39730.59
503.25	40332.11
503.43	39871.03
503.60	40318.07
503.78	40926.61
503.95	40442.12
504.13	40559.14
504.30	40652.76
504.48	40802.56
504.65	41062.36
504.83	41413.44
505.01	41668.56
505.18	41696.64
505.36	42134.32
505.53	41757.50
505.71	42045.38
505.88	42162.41
506.06	41801.97
506.23	42595.41
506.41	42047.72
506.58	42218.58
506.76	42649.24
506.93	42632.86
507.11	42939.47
507.28	42953.51
507.46	43093.94
507.63	43342.04
507.81	43253.10
507.98	43318.64
508.16	43002.66
508.33	44002.07
508.50	43854.62
508.68	44041.86
508.85	43950.58
509.03	44273.57
509.20	44322.72
509.38	44399.96
509.55	44821.26
509.73	45017.86
509.90	45155.96
510.08	44643.38
510.25	45146.59
510.42	45310.43
510.60	45385.33
510.77	45287.03
510.95	45853.44
511.12	45378.31
511.30	45106.80
511.47	45401.71
511.64	45982.16
511.82	45652.15
511.99	45638.11
512.17	46527.51
512.34	45860.46
512.51	46635.17
512.69	47206.26
512.86	46471.34
513.04	46946.47
513.21	46899.65
513.38	47159.45
513.56	46855.18
513.73	46705.39
513.90	47302.23
514.08	47363.08
514.25	47604.16
514.43	47735.23
514.60	47639.26
514.77	47826.51
514.95	47999.71
515.12	48079.28
515.29	47889.70
515.47	48191.63
515.64	48369.51
515.81	48409.30
515.99	48928.90
516.16	48320.36
516.33	48486.54
516.51	48699.53
516.68	48631.65
516.85	48872.73
517.03	49284.66
517.20	49268.28
517.37	49425.09
517.54	49382.96
517.72	49366.58
517.89	49401.69
518.06	49647.44
518.24	49516.37
518.41	49649.78
518.58	50050.02
518.75	49670.85
518.93	49986.82
519.10	49464.88
519.27	50066.40
519.45	49907.24
519.62	50349.60
519.79	50571.96
519.96	50075.76
520.14	50363.65
520.31	50300.45
520.48	50656.21
520.65	50557.91
520.83	50658.56
521.00	51023.68
521.17	50798.99
521.34	50887.93
521.52	50937.08
521.69	51124.32
521.86	51466.04
522.03	51157.09
522.20	51166.45
522.38	51597.11
522.55	51632.22
522.72	51580.73
522.89	51758.61
523.07	51920.10
523.24	51524.55
523.41	51854.57
523.58	51590.09
523.75	51910.74
523.92	51943.51
524.10	52231.40
524.27	52474.81
524.44	52521.62
524.61	52374.17
524.78	52481.83
524.96	52601.20
525.13	52619.92
525.30	52402.25
525.47	52669.08
525.64	52603.54
525.81	52863.34
525.98	52851.64
526.16	52699.50
526.33	52877.38
526.50	53425.07
526.67	52947.60
526.84	53022.50
527.01	53123.14
527.18	52963.98
527.36	53504.65
527.53	53474.22
527.70	53705.93
527.87	53254.21
528.04	53642.74
528.21	53738.70
528.38	53549.12
528.55	53719.98
528.72	53572.52
528.89	53715.29
529.07	53766.79
529.24	53818.28
529.41	54108.50
529.58	54108.50
529.75	53876.79
529.92	53961.05
530.09	53982.12
530.26	54181.06
530.43	54417.46
530.60	54005.52
530.77	53916.58
530.94	54588.31
531.11	54319.15
531.28	54440.86
531.46	54389.37
531.63	54688.96
531.80	54740.45
531.97	54585.97
532.14	54693.64
532.31	54621.08
532.48	54962.80
532.65	54876.20
532.82	54749.81
532.99	55049.40
533.16	54866.84
533.33	54803.64
533.50	55255.37
533.67	54843.43
533.84	54883.22
534.01	55257.71
534.18	55217.92
534.35	55517.51
534.52	55290.48
534.69	55299.84
534.86	55554.96
535.03	55238.98
535.20	55363.03
535.37	55519.85
535.54	55714.11
535.71	55667.30
535.88	55657.94
536.05	55501.12
536.22	55632.19
536.38	55915.40
536.55	55973.91
536.72	55957.53
536.89	55613.47
537.06	55723.47
537.23	55789.01
537.40	55774.97
537.57	56058.17
537.74	55838.16
537.91	56294.56
538.08	55952.85
538.25	55739.86
538.42	56278.18
538.59	56332.01
538.75	56016.04
538.92	56268.82
539.09	56404.57
539.26	56418.61
539.43	56046.47
539.60	56308.61
539.77	56397.55
539.94	56509.89
540.11	56493.51
540.28	56530.96
540.44	56875.02
540.61	56568.41
540.78	56619.90
540.95	56743.95
541.12	56680.75
541.29	56638.62
541.46	56760.33
541.62	56690.12
541.79	56732.25
541.96	56704.16
542.13	56631.60
542.30	56940.55
542.47	57038.86
542.63	56844.59
542.80	57209.71
542.97	57188.65
543.14	57226.10
543.31	57331.42
543.48	57392.28
543.64	57726.97
543.81	57521.01
543.98	57539.73
544.15	57422.70
544.32	57743.36
544.48	57869.75
544.65	57394.62
544.82	57535.05
544.99	57481.22
545.16	57579.52
545.32	57502.28
545.49	57780.81
545.66	57979.75
545.83	57904.85
546.00	57930.60
546.16	57808.89
546.33	57619.31
546.50	57750.38
546.67	57907.19
546.83	57661.44
547.00	57886.13
547.17	57748.04
547.34	58216.14
547.50	58101.46
547.67	58258.27
547.84	58387.00
548.00	58323.81
548.17	58438.50
548.34	58375.30
548.51	58674.89
548.67	58518.07
548.84	58511.05
549.01	58279.34
549.18	58277.00
549.34	58492.33
549.51	58482.97
549.68	58450.20
549.84	58475.94
550.01	58543.82
550.18	58539.14
550.34	58614.04
550.51	58248.91
550.68	58607.01
550.84	58389.34
551.01	58663.19
551.18	58656.17
551.34	58866.81
551.51	58710.00
551.68	58688.93
551.84	58876.18
552.01	58698.30
552.18	58784.90
552.34	58843.41
552.51	58941.71
552.68	58871.49
552.84	58866.81
553.01	59114.91
553.18	58937.03
553.34	58883.20
553.51	58724.04
553.67	58906.60
553.84	59030.65
554.01	59250.66
554.17	59058.74
554.34	59318.54
554.51	59138.32
554.67	59271.73
554.84	59128.95
555.00	59150.02
555.17	59217.89
555.33	59320.88
555.50	59306.83
555.67	59285.77
555.83	59274.07
556.00	59344.28
556.16	59634.51
556.33	59533.87
556.50	59351.30
556.66	59501.10
556.83	59510.46
556.99	59767.92
557.16	59662.60
557.32	59721.11
557.49	59686.00
557.65	59519.82
557.82	59613.44
557.98	59611.10
558.15	59564.29
558.32	59517.48
558.48	59409.82
558.65	59660.26
558.81	59587.70
558.98	59779.62
559.14	59887.29
559.31	59732.81
559.47	59810.05
559.64	59936.44
559.80	59852.18
559.97	59901.33
560.13	59786.64
560.30	59875.58
560.46	60009.00
560.63	59849.84
560.79	60032.40
560.96	59994.95
561.12	59924.74
561.29	60170.49
561.45	60060.49
561.61	60044.10
561.78	59941.12
561.94	59985.59
562.11	60294.54
562.27	60261.77
562.44	60189.22
562.60	60229.01
562.77	60186.88
562.93	60058.15
563.10	60175.17
563.26	60034.74
563.42	60292.20
563.59	60266.45
563.75	60175.17
563.92	60119.00
564.08	60224.32
564.24	60432.63
564.41	60310.92
564.57	60420.93
564.74	60357.74
564.90	60135.38
565.07	60306.24
565.23	60282.84
565.39	60278.16
565.56	60322.63
565.72	60226.66
565.88	60430.29
566.05	60456.04
566.21	60383.48
566.38	60526.25
566.54	60528.59
566.70	60640.94
566.87	60617.53
567.03	60427.95
567.19	60626.90
567.36	60254.75
567.52	60465.40
567.68	60699.45
567.85	60584.77
568.01	60509.87
568.17	60528.59
568.34	60727.54
568.50	60411.57
568.66	60350.71
568.83	60521.57
568.99	60317.95
569.15	60685.41
569.32	60734.56
569.48	60669.03
569.64	60729.88
569.81	60659.66
569.97	60495.83
570.13	60797.76
570.30	60360.08
570.46	60638.60
570.62	60542.64
570.78	60533.28
570.95	60647.96
571.11	60865.63
571.27	60699.45
571.43	60596.47
571.60	60830.52
571.76	60755.63
571.92	60809.46
572.09	60760.31
572.25	60654.98
572.41	60872.65
572.57	60800.10
572.74	61073.94
572.90	60865.63
573.06	60851.59
573.22	60720.52
573.38	60968.61
573.55	60715.84
573.71	61125.43
573.87	60814.14
574.03	60701.79
574.20	60839.89
574.36	60835.20
574.52	60844.57
574.68	61045.85
574.84	61069.26
575.01	61041.17
575.17	60830.52
575.33	60718.18
575.49	60874.99
575.65	60961.59
575.82	61059.90
575.98	60882.02
576.14	61216.71
576.30	61034.15
576.46	60860.95
576.62	60919.46
576.79	61034.15
576.95	60884.36
577.11	60982.66
577.27	60912.44
577.43	60870.31
577.59	60872.65
577.75	60772.01
577.92	60926.49
578.08	60961.59
578.24	60996.70
578.40	61003.72
578.56	60954.57
578.72	60945.21
578.88	61102.03
579.04	61120.75
579.21	60942.87
579.37	61378.21
579.53	61394.59
579.69	60973.30
579.85	60982.66
580.01	61087.98
580.17	61078.62
580.33	61202.67
580.49	61113.73
580.65	61078.62
580.82	60975.64
580.98	61205.01
581.14	60999.04
581.30	61312.67
581.46	61015.43
581.62	61034.15
581.78	60919.46
581.94	61237.78
582.10	61027.13
582.26	61102.03
582.42	61127.77
582.58	60999.04
582.74	61097.34
582.90	61137.13
583.06	60996.70
583.22	61066.92
583.38	61132.45
583.54	61181.60
583.70	61380.55
583.86	61223.73
584.02	61109.05
584.18	61263.52
584.34	61083.30
584.50	61008.40
584.66	61048.19
584.82	60907.76
584.98	61403.95
585.14	61043.51
585.30	61057.56
585.46	61085.64
585.62	61303.31
585.78	61148.84
585.94	61137.13
586.10	61097.34
586.26	61237.78
586.42	61212.03
586.58	61179.26
586.74	61141.81
586.90	61186.28
587.06	61169.90
587.22	61485.87
587.38	61092.66
587.54	61300.97
587.70	61207.35
587.86	61162.88
588.02	61282.25
588.18	61272.88
588.34	61298.63
588.49	61293.95
