SpectraSuite Data File
++++++++++++++++++++++++++++++++++++
Date: Fri Oct 25 11:25:54 EDT 2013
User: price-jones
Dark Spectrum Present: No
Reference Spectrum Present: No
Number of Sampled Component Spectra: 1
Spectrometers: USB2+H05261
Integration Time (usec): 100000 (USB2+H05261)
Spectra Averaged: 1 (USB2+H05261)
Boxcar Smoothing: 0 (USB2+H05261)
Correct for Electrical Dark: No (USB2+H05261)
Strobe/Lamp Enabled: No (USB2+H05261)
Correct for Detector Non-linearity: No (USB2+H05261)
Correct for Stray Light: No (USB2+H05261)
Number of Pixels in Processed Spectrum: 2048
>>>>>Begin Processed Spectral Data<<<<<
365.73	212.99
365.92	212.99
366.12	212.99
366.32	210.65
366.52	135.75
366.72	168.52
366.91	189.58
367.11	189.58
367.31	114.69
367.51	163.84
367.70	145.11
367.90	133.41
368.10	110.01
368.30	91.28
368.49	159.16
368.69	149.79
368.89	187.24
369.09	198.95
369.28	175.54
369.48	163.84
369.68	163.84
369.87	177.88
370.07	227.03
370.27	205.97
370.47	334.70
370.66	603.86
370.86	603.86
371.06	704.50
371.25	688.12
371.45	641.31
371.65	660.03
371.84	741.95
372.04	650.67
372.24	681.10
372.44	725.57
372.63	688.12
372.83	781.74
373.03	765.36
373.22	734.93
373.42	795.78
373.62	901.11
373.81	753.65
374.01	767.70
374.21	788.76
374.40	861.32
374.60	849.61
374.79	898.77
374.99	788.76
375.19	929.19
375.38	858.98
375.58	800.46
375.78	945.58
375.97	868.34
376.17	877.70
376.37	835.57
376.56	940.90
376.76	978.34
376.95	830.89
377.15	994.73
377.35	889.40
377.54	896.43
377.74	922.17
377.93	910.47
378.13	901.11
378.33	961.96
378.52	945.58
378.72	938.55
378.91	889.40
379.11	936.21
379.31	957.28
379.50	968.98
379.70	1022.81
379.89	992.39
380.09	973.66
380.28	1004.09
380.48	978.34
380.68	929.19
380.87	973.66
381.07	968.98
381.26	983.02
381.46	999.41
381.65	1013.45
381.85	1043.88
382.04	1041.54
382.24	1027.50
382.43	1046.22
382.63	1076.65
382.83	1086.01
383.02	1146.86
383.22	1158.57
383.41	1104.73
383.61	1123.46
383.80	1114.10
384.00	1172.61
384.19	1196.01
384.39	1135.16
384.58	1121.12
384.78	1163.25
384.97	1158.57
385.17	1118.78
385.36	1137.50
385.56	1221.76
385.75	1146.86
385.95	1142.18
386.14	1203.04
386.34	1273.25
386.53	1188.99
386.72	1160.91
386.92	1289.64
387.11	1242.82
387.31	1284.95
387.50	1217.08
387.70	1193.67
387.89	1256.87
388.09	1268.57
388.28	1273.25
388.48	1254.53
388.67	1277.93
388.86	1341.13
389.06	1270.91
389.25	1418.36
389.45	1364.53
389.64	1371.55
389.84	1350.49
390.03	1348.15
390.22	1362.19
390.42	1383.26
390.61	1362.19
390.81	1392.62
391.00	1413.68
391.19	1394.96
391.39	1540.07
391.58	1371.55
391.78	1511.99
391.97	1537.73
392.16	1406.66
392.36	1467.52
392.55	1516.67
392.75	1472.20
392.94	1493.26
393.13	1528.37
393.33	1500.28
393.52	1671.14
393.71	1612.63
393.91	1519.01
394.10	1605.61
394.29	1591.56
394.49	1575.18
394.68	1629.01
394.88	1600.93
395.07	1701.57
395.26	1685.19
395.46	1633.69
395.65	1694.55
395.84	1701.57
396.04	1820.94
396.23	1818.60
396.42	1839.66
396.62	1755.40
396.81	1851.36
397.00	1710.93
397.19	1811.57
397.39	1795.19
397.58	1785.83
397.77	1769.44
397.97	1926.26
398.16	1914.56
398.35	1975.41
398.55	1870.09
398.74	1884.13
398.93	1970.73
399.12	1874.77
399.32	1914.56
399.51	1912.22
399.70	2069.03
399.90	1949.67
400.09	1970.73
400.28	2083.08
400.47	1956.69
400.67	2078.40
400.86	2015.20
401.05	2132.23
401.24	2150.95
401.44	2054.99
401.63	2167.34
401.82	2183.72
402.01	2101.80
402.21	2120.53
402.40	2239.89
402.59	2174.36
402.78	2174.36
402.97	2183.72
403.17	2298.41
403.36	2188.40
403.55	2413.09
403.74	2303.09
403.93	2392.03
404.13	2415.43
404.32	2349.90
404.51	2380.32
404.70	2464.58
404.89	2495.01
405.09	2619.06
405.28	2532.46
405.47	2424.80
405.66	2595.65
405.85	2553.52
406.05	2480.97
406.24	2520.76
406.43	2562.89
406.62	2593.31
406.81	2705.66
407.00	2555.86
407.20	2693.96
407.39	2562.89
407.58	2724.38
407.77	2679.91
407.96	2806.30
408.15	2736.09
408.34	2780.56
408.54	2834.39
408.73	2712.68
408.92	2818.00
409.11	2991.20
409.30	2984.18
409.49	2862.48
409.68	2953.76
409.87	3009.93
410.07	2939.71
410.26	3066.10
410.45	2995.89
410.64	3180.79
410.83	3133.98
411.02	3178.45
411.21	3241.64
411.40	3206.53
411.59	3187.81
411.78	3286.11
411.98	3166.74
412.17	3307.18
412.36	3286.11
412.55	3445.27
412.74	3452.29
412.93	3342.28
413.12	3358.67
413.31	3611.45
413.50	3435.91
413.69	3463.99
413.88	3581.02
414.07	3515.48
414.26	3576.34
414.45	3662.94
414.64	3653.58
414.83	3770.60
415.02	3721.45
415.22	3859.54
415.41	3904.01
415.60	3894.65
415.79	3943.80
415.98	3992.95
416.17	3997.64
416.36	3960.19
416.55	4021.04
416.74	4042.11
416.93	4126.36
417.12	4053.81
417.31	4074.87
417.50	4191.90
417.69	4306.59
417.88	4231.69
418.07	4119.34
418.26	4287.86
418.45	4332.33
418.64	4528.94
418.83	4402.55
419.02	4519.57
419.21	4645.96
419.39	4461.06
419.58	4547.66
419.77	4423.61
419.96	4641.28
420.15	4578.09
420.34	4564.04
420.53	4760.65
420.72	4734.90
420.91	4657.67
421.10	4767.67
421.29	4795.76
421.48	4774.69
421.67	4875.34
421.86	4819.16
422.05	4816.82
422.24	4858.95
422.43	4896.40
422.61	5008.75
422.80	4936.19
422.99	4873.00
423.18	4823.84
423.37	5111.73
423.56	4896.40
423.75	4896.40
423.94	4870.65
424.13	4667.03
424.32	4732.56
424.50	5011.09
424.69	5217.05
424.88	5029.81
425.07	4849.59
425.26	4971.30
425.45	4975.98
425.64	4950.23
425.83	4994.70
426.01	5090.67
426.20	5050.88
426.39	4980.66
426.58	5102.37
426.77	4950.23
426.96	5221.74
427.15	5111.73
427.33	5181.95
427.52	5125.77
427.71	5378.55
427.90	5139.82
428.09	5341.10
428.28	5423.02
428.46	5451.11
428.65	5537.71
428.84	5626.65
429.03	5476.85
429.22	5549.41
429.40	5504.94
429.59	5355.15
429.78	5247.48
429.97	5305.99
430.16	5432.38
430.34	5598.56
430.53	5626.65
430.72	5540.05
430.91	5565.79
431.10	5713.25
431.28	5781.12
431.47	5699.20
431.66	5781.12
431.85	5715.59
432.03	5907.51
432.22	5944.96
432.41	5987.09
432.60	6127.52
432.79	5959.00
432.97	6134.54
433.16	6136.88
433.35	6244.55
433.54	6057.31
433.72	6246.89
433.91	6083.05
434.10	6214.12
434.28	6019.86
434.47	6218.80
434.66	6218.80
434.85	6317.11
435.03	6483.28
435.22	6132.20
435.41	6513.71
435.59	6338.17
435.78	6562.86
435.97	6452.86
436.16	6450.52
436.34	6408.39
436.53	6490.31
436.72	6679.89
436.90	6443.49
437.09	6682.23
437.28	6551.16
437.46	6532.44
437.65	6661.16
437.84	6867.13
438.02	6626.06
438.21	6822.66
438.40	6693.93
438.58	7000.54
438.77	6923.30
438.96	6984.16
439.14	6960.75
439.33	7164.38
439.52	7126.93
439.70	7239.28
439.89	7316.51
440.08	7412.48
440.26	7382.05
440.45	7449.93
440.63	7529.50
440.82	7566.95
441.01	7468.65
441.19	7513.12
441.38	7728.45
441.57	7843.14
441.75	8006.97
441.94	8121.66
442.12	7880.58
442.31	7892.29
442.50	8166.13
442.68	7962.50
442.87	7943.78
443.05	8273.79
443.24	8294.86
443.43	8037.40
443.61	8243.37
443.80	8243.37
443.98	8079.53
444.17	7943.78
444.35	8360.39
444.54	8404.86
444.73	8283.16
444.91	8276.13
445.10	8273.79
445.28	8472.74
445.47	8124.00
445.65	8367.42
445.84	8346.35
446.02	8627.21
446.21	8294.86
446.39	8294.86
446.58	8498.49
446.77	8512.53
446.95	8161.45
447.14	8456.36
447.32	8617.85
447.51	8500.83
447.69	8381.46
447.88	8465.72
448.06	8503.17
448.25	8533.59
448.43	8706.79
448.62	8496.14
448.80	8575.72
448.99	8559.34
449.17	8542.96
449.36	8510.19
449.54	8830.84
449.73	8964.25
449.91	9088.30
450.10	8971.27
450.28	9085.96
450.46	9128.09
450.65	9029.79
450.83	8985.32
451.02	8959.57
451.20	9149.15
451.39	9235.75
451.57	9076.60
451.76	9022.77
451.94	8964.25
452.13	9432.36
452.31	9486.19
452.49	9177.24
452.68	9423.00
452.86	9439.38
453.05	9523.64
453.23	9509.60
453.42	9483.85
453.60	9303.63
453.78	9572.79
453.97	9507.26
454.15	9366.82
454.34	9453.42
454.52	9521.30
454.70	9535.34
454.89	9734.29
455.07	9870.04
455.26	9886.42
455.44	9839.61
455.62	9834.93
455.81	9933.23
455.99	10111.11
456.17	9914.51
456.36	10083.03
456.54	10157.92
456.73	10366.23
456.91	10525.39
457.09	10396.66
457.28	10382.62
457.46	10277.29
457.64	10637.73
457.83	10609.65
458.01	10373.25
458.19	10574.54
458.38	10448.15
458.56	10682.20
458.74	10581.56
458.93	10626.03
459.11	10635.39
459.29	10705.61
459.48	11000.52
459.66	10712.63
459.84	10934.98
460.03	11061.37
460.21	10958.39
460.39	10974.77
460.57	10939.66
460.76	10963.07
460.94	11129.25
461.12	11323.51
461.31	11204.14
461.49	11220.53
461.67	11049.67
461.85	11398.41
462.04	11215.85
462.22	11843.11
462.40	11683.95
462.59	11543.52
462.77	11592.67
462.95	11580.97
463.13	11499.05
463.32	11417.13
463.50	11480.33
463.68	11669.91
463.86	12093.55
464.05	11538.84
464.23	11786.94
464.41	11981.20
464.59	11557.57
464.78	12105.25
464.96	11955.46
465.14	11812.68
465.32	11850.13
465.50	12053.76
465.69	12287.81
465.87	12121.63
466.05	12105.25
466.23	12182.49
466.41	12397.82
466.60	12631.87
466.78	12042.06
466.96	12313.56
467.14	12065.46
467.32	12351.01
467.51	12531.23
467.69	12304.20
467.87	12603.78
468.05	12666.98
468.23	12198.87
468.41	12428.24
468.60	12688.04
468.78	12795.71
468.96	12659.96
469.14	12809.75
469.32	12994.65
469.50	12533.57
469.69	13062.53
469.87	13123.38
470.05	13097.64
470.23	13397.23
470.41	13263.82
470.59	13310.63
470.77	13224.03
470.95	13373.82
471.14	13530.64
471.32	13298.92
471.50	13429.99
471.68	13551.70
471.86	13558.72
472.04	13825.54
472.22	13790.44
472.40	13703.84
472.58	14162.58
472.77	13973.00
472.95	14094.71
473.13	14794.53
473.31	14204.71
473.49	14118.11
473.67	14242.16
473.85	14298.33
474.03	14663.46
474.21	14808.57
474.39	14703.25
474.57	14941.98
474.75	14956.02
474.93	14855.38
475.12	14773.46
475.30	15246.25
475.48	14956.02
475.66	15384.34
475.84	15169.01
476.02	15428.81
476.20	15335.19
476.38	15688.61
476.56	15955.43
476.74	16037.35
476.92	16058.42
477.10	15960.11
477.28	16065.44
477.46	16030.33
477.64	16159.06
477.82	16482.05
478.00	16971.22
478.18	16842.50
478.36	17029.74
478.54	17350.39
478.72	16957.18
478.90	17214.64
479.08	17696.79
479.26	17928.50
479.44	17535.29
479.62	17944.89
479.80	18050.21
479.98	17996.38
480.16	18647.05
480.34	18284.26
480.52	18654.07
480.70	18363.84
480.88	18417.68
481.06	18567.47
481.24	18787.48
481.41	19122.18
481.59	19311.76
481.77	19353.89
481.95	19744.76
482.13	19910.94
482.31	19866.47
482.49	20341.60
482.67	20098.18
482.85	20402.45
483.03	20779.28
483.21	20805.02
483.39	21022.69
483.57	21029.71
483.74	21172.49
483.92	21186.53
484.10	21425.26
484.28	21888.69
484.46	21811.45
484.64	22560.42
484.82	22190.62
485.00	22314.67
485.18	22548.72
485.35	22754.69
485.53	22810.86
485.71	22787.46
485.89	23491.96
486.07	23190.03
486.25	23452.17
486.43	23611.32
486.61	23761.12
486.78	23995.17
486.96	24137.94
487.14	24627.12
487.32	24711.38
487.50	24952.45
487.68	25326.94
487.85	25179.48
488.03	25301.19
488.21	25612.48
488.39	25649.93
488.57	26155.49
488.75	25816.11
488.92	26284.22
489.10	26735.94
489.28	26916.16
489.46	26616.57
489.64	27140.85
489.81	27358.52
489.99	27803.22
490.17	27777.48
490.35	28072.39
490.53	28215.16
490.70	28037.28
490.88	28173.03
491.06	28945.41
491.24	28828.38
491.41	28847.10
491.59	28978.17
491.77	29027.32
491.95	29284.78
492.13	29736.51
492.30	29919.07
492.48	30127.38
492.66	30213.98
492.84	30363.77
493.01	30618.89
493.19	30824.86
493.37	30796.77
493.54	30988.69
493.72	31466.16
493.90	31608.93
494.08	31482.55
494.25	31985.76
494.43	32446.85
494.61	32283.01
494.79	32847.08
494.96	32943.04
495.14	32786.22
495.32	33308.16
495.49	32875.16
495.67	33104.54
495.85	33287.10
496.02	33624.14
496.20	34120.33
496.38	33855.85
496.55	34394.17
496.73	34602.48
496.91	34733.55
497.09	34869.30
497.26	35054.20
497.44	34873.98
497.62	35480.18
497.79	35461.46
497.97	35578.48
498.14	35945.95
498.32	36407.03
498.50	36098.08
498.67	36720.66
498.85	36552.15
499.03	36718.32
499.20	36603.64
499.38	36973.44
499.56	36776.84
499.73	37415.80
499.91	37706.03
500.08	37680.28
500.26	37139.62
500.44	37305.80
500.61	37825.40
500.79	37610.07
500.97	38047.75
501.14	38567.35
501.32	38209.25
501.49	38665.65
501.67	38754.59
501.84	38562.67
502.02	39049.50
502.20	38789.70
502.37	39519.95
502.55	39225.04
502.72	39524.63
502.90	39526.97
503.07	39054.18
503.25	39461.43
503.43	39400.58
503.60	40098.06
503.78	40322.75
503.95	40261.90
504.13	40257.21
504.30	40786.18
504.48	40444.46
504.65	40699.58
504.83	41411.10
505.01	41357.27
505.18	41186.41
505.36	41708.35
505.53	41401.74
505.71	41483.66
505.88	41535.15
506.06	41525.78
506.23	41771.54
506.41	41738.77
506.58	41837.08
506.76	41921.34
506.93	42726.48
507.11	42057.09
507.28	42574.34
507.46	42553.28
507.63	42808.40
507.81	43002.66
507.98	42969.90
508.16	43070.54
508.33	43152.46
508.50	43426.30
508.68	43386.51
508.85	44198.68
509.03	43683.76
509.20	43742.27
509.38	43938.88
509.55	44451.45
509.73	44217.40
509.90	44610.61
510.08	44182.29
510.25	44837.64
510.42	44898.50
510.60	45235.53
510.77	45195.74
510.95	45207.45
511.12	44933.60
511.30	45223.83
511.47	45354.90
511.64	45270.64
511.82	45759.81
511.99	45553.85
512.17	46267.71
512.34	46209.20
512.51	46501.76
512.69	46410.48
512.86	46852.84
513.04	46775.61
513.21	46614.11
513.38	46445.59
513.56	47007.32
513.73	46581.34
513.90	47388.83
514.08	47084.56
514.25	47248.39
514.43	47356.06
514.60	47435.64
514.77	47707.14
514.95	47517.56
515.12	47550.32
515.29	47339.68
515.47	47959.92
515.64	48142.48
515.81	47852.25
515.99	48074.60
516.16	48163.54
516.33	48179.93
516.51	48479.52
516.68	48329.72
516.85	48428.02
517.03	48648.03
517.20	48786.13
517.37	48797.83
517.54	48896.13
517.72	48868.05
517.89	49020.18
518.06	49350.20
518.24	49132.53
518.41	49195.72
518.58	49448.50
518.75	49123.16
518.93	49429.77
519.10	49485.95
519.27	49837.03
519.45	49619.36
519.62	49621.70
519.79	50007.89
519.96	50021.93
520.14	50323.86
520.31	50026.61
520.48	50211.51
520.65	50309.82
520.83	50569.61
521.00	50724.09
521.17	50532.17
521.34	50852.82
521.52	50939.42
521.69	50803.67
521.86	51126.66
522.03	51140.71
522.20	51585.41
522.38	51185.18
522.55	51442.63
522.72	51070.49
522.89	51227.31
523.07	51606.47
523.24	51639.24
523.41	51545.62
523.58	51498.81
523.75	51866.27
523.92	51866.27
524.10	51995.00
524.27	51845.21
524.44	52086.28
524.61	52046.49
524.78	52140.11
524.96	52215.01
525.13	52346.08
525.30	52257.14
525.47	52664.39
525.64	52287.57
525.81	52781.42
525.98	52685.46
526.16	52514.60
526.33	52547.37
526.50	52903.13
526.67	52870.36
526.84	52938.24
527.01	52872.70
527.18	53013.13
527.36	52807.17
527.53	53069.31
527.70	53235.48
527.87	53481.24
528.04	53235.48
528.21	53310.38
528.38	53261.23
528.55	53333.79
528.72	53415.71
528.89	53450.81
529.07	53411.02
529.24	53265.91
529.41	53986.80
529.58	53939.99
529.75	53387.62
529.92	53343.15
530.09	53968.07
530.26	53923.60
530.43	54054.67
530.60	53947.01
530.77	53724.66
530.94	53968.07
531.11	53958.71
531.28	54181.06
531.46	54071.06
531.63	54300.43
531.80	54436.18
531.97	54482.99
532.14	54555.55
532.31	54571.93
532.48	54674.91
532.65	54747.47
532.82	54461.93
532.99	54738.11
533.16	54419.80
533.33	54714.70
533.50	54890.24
533.67	54890.24
533.84	54534.48
534.01	54724.07
534.18	54752.15
534.35	55140.68
534.52	55042.38
534.69	55061.10
534.86	55283.45
535.03	54995.57
535.20	55224.94
535.37	55433.25
535.54	55246.00
535.71	55023.65
535.88	55501.12
536.05	55569.00
536.22	55592.40
536.38	55547.93
536.55	55374.73
536.72	55627.51
536.89	55356.01
537.06	55466.02
537.23	55990.30
537.40	55821.78
537.57	55730.50
537.74	55721.13
537.91	56048.81
538.08	56083.92
538.25	55709.43
538.42	55835.82
538.59	56301.59
538.75	55891.99
538.92	55952.85
539.09	56196.26
539.26	56306.27
539.43	56069.87
539.60	56109.66
539.77	56264.14
539.94	56390.53
540.11	56329.67
540.28	56322.65
540.44	56324.99
540.61	56231.37
540.78	56334.35
540.95	56360.10
541.12	56435.00
541.29	56322.65
541.46	56591.81
541.62	56664.37
541.79	56842.25
541.96	56189.24
542.13	56477.13
542.30	56715.86
542.47	56706.50
542.63	57090.35
542.80	56767.35
542.97	56949.92
543.14	57162.90
543.31	57099.71
543.48	57450.79
543.64	57488.24
543.81	57312.70
543.98	57301.00
544.15	57490.58
544.32	57389.94
544.48	57684.84
544.65	57460.15
544.82	57616.97
544.99	57368.87
545.16	57476.54
545.32	57565.48
545.49	57691.86
545.66	57652.08
545.83	57368.87
546.00	57682.50
546.16	57621.65
546.33	57373.55
546.50	57279.93
546.67	57766.76
546.83	57436.75
547.00	57811.23
547.17	57616.97
547.34	57736.34
547.50	57879.11
547.67	58127.20
547.84	58150.61
548.00	58073.37
548.17	58094.44
548.34	58213.80
548.51	58155.29
548.67	58326.15
548.84	58202.10
549.01	58220.83
549.18	58152.95
549.34	58110.82
549.51	58485.31
549.68	58396.37
549.84	58157.63
550.01	58391.68
550.18	58293.38
550.34	58475.94
550.51	58475.94
550.68	58522.76
550.84	58328.49
551.01	58539.14
551.18	58396.37
551.34	58576.59
551.51	58567.23
551.68	58459.56
551.84	58576.59
552.01	58466.58
552.18	58623.40
552.34	58330.83
552.51	58784.90
552.68	58686.59
552.84	58745.11
553.01	58824.68
553.18	58913.62
553.34	58812.98
553.51	58901.92
553.67	58796.60
553.84	59150.02
554.01	58911.28
554.17	58960.44
554.34	59042.35
554.51	58995.54
554.67	59131.29
554.84	59185.13
555.00	58892.56
555.17	58848.09
555.33	59063.42
555.50	58843.41
555.67	59070.44
555.83	59135.98
556.00	59011.93
556.16	59594.72
556.33	59199.17
556.50	59414.50
556.66	59311.52
556.83	59100.87
556.99	59388.75
557.16	59522.16
557.32	59590.04
557.49	59498.76
557.65	59437.90
557.82	59238.96
557.98	59245.98
558.15	59583.02
558.32	59344.28
558.48	59531.53
558.65	59536.21
558.81	59531.53
558.98	59423.86
559.14	59688.34
559.31	59641.53
559.47	59646.21
559.64	59931.76
559.80	59669.62
559.97	59735.15
560.13	59732.81
560.30	59529.19
560.46	59842.82
560.63	59824.09
560.79	59866.22
560.96	59842.82
561.12	59908.35
561.29	59826.43
561.45	59744.51
561.61	59898.99
561.78	59884.95
561.94	59639.19
562.11	59908.35
562.27	59746.86
562.44	59922.40
562.60	60074.53
562.77	59992.61
562.93	59793.67
563.10	60058.15
563.26	59934.10
563.42	60203.26
563.59	59936.44
563.75	59969.21
563.92	60210.28
564.08	60060.49
564.24	60114.32
564.41	60116.66
564.57	60186.88
564.74	60048.78
564.90	60163.47
565.07	60060.49
565.23	60130.70
565.39	60104.96
565.56	60151.77
565.72	59959.84
565.88	60271.14
566.05	60128.36
566.21	59798.35
566.38	60240.71
566.54	60313.26
566.70	60233.69
566.87	60474.76
567.03	60032.40
567.19	60198.58
567.36	60252.41
567.52	60189.22
567.68	60652.64
567.85	60439.65
568.01	60617.53
568.17	60364.76
568.34	60427.95
568.50	60367.10
568.66	60500.51
568.83	60086.23
568.99	60350.71
569.15	60339.01
569.32	60329.65
569.48	60324.97
569.64	60643.28
569.81	60516.89
569.97	60406.89
570.13	60573.06
570.30	60395.18
570.46	60568.38
570.62	60552.00
570.78	60509.87
570.95	60458.38
571.11	60643.28
571.27	60477.10
571.43	60552.00
571.60	60856.27
571.76	60587.11
571.92	60729.88
572.09	60640.94
572.25	60458.38
572.41	60346.03
572.57	60678.39
572.74	60842.23
572.90	60526.25
573.06	60640.94
573.22	60638.60
573.38	60650.30
573.55	60654.98
573.71	61022.45
573.87	60626.90
574.03	60669.03
574.20	60776.69
574.36	60638.60
574.52	60540.30
574.68	60870.31
574.84	60662.00
575.01	60828.18
575.17	60769.67
575.33	60608.17
575.49	60617.53
575.65	60935.85
575.82	60942.87
575.98	60725.20
576.14	60919.46
576.30	60823.50
576.46	60704.13
576.62	60910.10
576.79	60519.23
576.95	60631.58
577.11	60858.61
577.27	60797.76
577.43	60659.66
577.59	60968.61
577.75	60734.56
577.92	60781.37
578.08	60959.25
578.24	60851.59
578.40	60968.61
578.56	60975.64
578.72	60898.40
578.88	60980.32
579.04	61141.81
579.21	60657.32
579.37	60874.99
579.53	61123.09
579.69	60657.32
579.85	60804.78
580.01	60750.94
580.17	60767.33
580.33	61132.45
580.49	60980.32
580.65	60982.66
580.82	60874.99
580.98	60779.03
581.14	61015.43
581.30	60811.80
581.46	60858.61
581.62	60917.12
581.78	60896.06
581.94	60828.18
582.10	60973.30
582.26	60882.02
582.42	60692.43
582.58	60832.86
582.74	60945.21
582.90	60935.85
583.06	60786.05
583.22	60830.52
583.38	60807.12
583.54	60933.51
583.70	61041.17
583.86	60947.55
584.02	61137.13
584.18	61006.06
584.34	61162.88
584.50	61055.21
584.66	60797.76
584.82	60797.76
584.98	61109.05
585.14	60821.16
585.30	60851.59
585.46	61127.77
585.62	61059.90
585.78	61195.65
585.94	60863.29
586.10	60804.78
586.26	60891.38
586.42	61062.24
586.58	61200.33
586.74	61092.66
586.90	61057.56
587.06	61095.00
587.22	61146.50
587.38	60769.67
587.54	61300.97
587.70	61155.86
587.86	61090.32
588.02	61186.28
588.18	61179.26
588.34	61038.83
588.49	61006.06
