SpectraSuite Data File
++++++++++++++++++++++++++++++++++++
Date: Fri Oct 25 11:26:41 EDT 2013
User: price-jones
Dark Spectrum Present: No
Reference Spectrum Present: No
Number of Sampled Component Spectra: 1
Spectrometers: USB2+H05261
Integration Time (usec): 100000 (USB2+H05261)
Spectra Averaged: 1 (USB2+H05261)
Boxcar Smoothing: 0 (USB2+H05261)
Correct for Electrical Dark: No (USB2+H05261)
Strobe/Lamp Enabled: No (USB2+H05261)
Correct for Detector Non-linearity: No (USB2+H05261)
Correct for Stray Light: No (USB2+H05261)
Number of Pixels in Processed Spectrum: 2048
>>>>>Begin Processed Spectral Data<<<<<
365.73	273.84
365.92	273.84
366.12	273.84
366.32	110.01
366.52	91.28
366.72	159.16
366.91	163.84
367.11	128.73
367.31	145.11
367.51	93.62
367.70	161.50
367.90	147.45
368.10	107.66
368.30	180.22
368.49	161.50
368.69	98.30
368.89	194.26
369.09	166.18
369.28	107.66
369.48	196.60
369.68	166.18
369.87	243.42
370.07	198.95
370.27	198.95
370.47	348.74
370.66	587.47
370.86	617.90
371.06	690.46
371.25	678.76
371.45	688.12
371.65	809.83
371.84	755.99
372.04	645.99
372.24	709.18
372.44	706.84
372.63	727.91
372.83	784.08
373.03	683.44
373.22	779.40
373.42	741.95
373.62	774.72
373.81	760.67
374.01	849.61
374.21	816.85
374.40	847.27
374.60	819.19
374.79	891.74
374.99	856.64
375.19	889.40
375.38	901.11
375.58	828.55
375.78	854.30
375.97	840.25
376.17	980.68
376.37	903.45
376.56	882.38
376.76	849.61
376.95	835.57
377.15	943.24
377.35	870.68
377.54	950.26
377.74	875.36
377.93	915.15
378.13	971.32
378.33	929.19
378.52	983.02
378.72	961.96
378.91	961.96
379.11	992.39
379.31	905.79
379.50	950.26
379.70	1053.24
379.89	1013.45
380.09	947.92
380.28	912.81
380.48	1001.75
380.68	959.62
380.87	1043.88
381.07	1020.47
381.26	1060.26
381.46	1053.24
381.65	1090.69
381.85	1015.79
382.04	1015.79
382.24	1153.88
382.43	1151.54
382.63	1034.52
382.83	1107.07
383.02	1081.33
383.22	1153.88
383.41	1064.94
383.61	1104.73
383.80	1139.84
384.00	1193.67
384.19	1095.37
384.39	1212.40
384.58	1160.91
384.78	1226.44
384.97	1198.35
385.17	1109.41
385.36	1114.10
385.56	1200.69
385.75	1210.06
385.95	1116.44
386.14	1231.12
386.34	1231.12
386.53	1193.67
386.72	1125.80
386.92	1233.46
387.11	1233.46
387.31	1259.21
387.50	1296.66
387.70	1247.51
387.89	1188.99
388.09	1306.02
388.28	1259.21
388.48	1231.12
388.67	1371.55
388.86	1357.51
389.06	1308.36
389.25	1355.17
389.45	1322.40
389.64	1315.38
389.84	1409.00
390.03	1338.79
390.22	1401.98
390.42	1404.32
390.61	1420.71
390.81	1437.09
391.00	1409.00
391.19	1526.03
391.39	1462.83
391.58	1423.05
391.78	1537.73
391.97	1502.62
392.16	1462.83
392.36	1437.09
392.55	1467.52
392.75	1650.08
392.94	1521.35
393.13	1509.65
393.33	1472.20
393.52	1554.12
393.71	1556.46
393.91	1575.18
394.10	1626.67
394.29	1626.67
394.49	1577.52
394.68	1710.93
394.88	1717.95
395.07	1720.29
395.26	1657.10
395.46	1727.32
395.65	1685.19
395.84	1682.85
396.04	1823.28
396.23	1750.72
396.42	1785.83
396.62	1724.97
396.81	1799.87
397.00	1757.74
397.19	1806.89
397.39	1940.30
397.58	1872.43
397.77	1849.02
397.97	1802.21
398.16	1912.22
398.35	2012.86
398.55	1863.07
398.74	1991.80
398.93	2038.61
399.12	1987.11
399.32	1982.43
399.51	1856.04
399.70	1987.11
399.90	1874.77
400.09	2078.40
400.28	2155.63
400.47	2033.93
400.67	2090.10
400.86	2106.48
401.05	2085.42
401.24	2026.90
401.44	2190.74
401.63	2155.63
401.82	2080.74
402.01	2223.51
402.21	2136.91
402.40	2146.27
402.59	2235.21
402.78	2228.19
402.97	2284.36
403.17	2324.15
403.36	2275.00
403.55	2216.49
403.74	2452.88
403.93	2333.51
404.13	2277.34
404.32	2349.90
404.51	2413.09
404.70	2487.99
404.89	2464.58
405.09	2455.22
405.28	2523.10
405.47	2504.37
405.66	2686.94
405.85	2555.86
406.05	2537.14
406.24	2546.50
406.43	2623.74
406.62	2551.18
406.81	2605.02
407.00	2579.27
407.20	2576.93
407.39	2567.57
407.58	2705.66
407.77	2644.81
407.96	2740.77
408.15	2766.51
408.34	2736.09
408.54	2832.05
408.73	2890.56
408.92	2813.32
409.11	2890.56
409.30	2874.18
409.49	2899.92
409.68	2949.08
409.87	3012.27
410.07	2993.55
410.26	2960.78
410.45	3012.27
410.64	3096.53
410.83	3112.91
411.02	3059.08
411.21	3197.17
411.40	3155.04
411.59	3239.30
411.78	3220.58
411.98	3162.06
412.17	3225.26
412.36	3323.56
412.55	3302.50
412.74	3419.52
412.93	3325.90
413.12	3290.79
413.31	3606.77
413.50	3503.78
413.69	3634.85
413.88	3672.30
414.07	3620.81
414.26	3693.37
414.45	3630.17
414.64	3655.92
414.83	3775.28
415.02	3796.35
415.22	3838.48
415.41	3969.55
415.60	3798.69
415.79	3983.59
415.98	3948.48
416.17	4014.02
416.36	4056.15
416.55	4098.28
416.74	4145.09
416.93	4088.92
417.12	4128.70
417.31	4140.41
417.50	4133.39
417.69	4383.82
417.88	4397.87
418.07	4212.96
418.26	4259.78
418.45	4318.29
418.64	4519.57
418.83	4423.61
419.02	4500.85
419.21	4582.77
419.39	4542.98
419.58	4610.86
419.77	4540.64
419.96	4627.24
420.15	4720.86
420.34	4575.75
420.53	4671.71
420.72	4784.06
420.91	4744.27
421.10	4784.06
421.29	4905.76
421.48	4835.55
421.67	4821.50
421.86	4889.38
422.05	5114.07
422.24	4699.80
422.43	4842.57
422.61	5022.79
422.80	4884.70
422.99	4894.06
423.18	4966.62
423.37	5181.95
423.56	5004.07
423.75	4961.94
423.94	4898.74
424.13	4589.79
424.32	4915.12
424.50	4957.25
424.69	5128.11
424.88	5109.39
425.07	4896.40
425.26	4933.85
425.45	4933.85
425.64	5006.41
425.83	4917.47
426.01	5174.92
426.20	5188.97
426.39	5193.65
426.58	4987.68
426.77	5069.60
426.96	5280.25
427.15	5226.42
427.33	5383.23
427.52	5104.71
427.71	5366.85
427.90	5343.44
428.09	5289.61
428.28	5427.70
428.46	5425.36
428.65	5338.76
428.84	5544.73
429.03	5518.98
429.22	5423.02
429.40	5434.72
429.59	5568.13
429.78	5289.61
429.97	5270.89
430.16	5537.71
430.34	5664.10
430.53	5565.79
430.72	5542.39
430.91	5659.42
431.10	5603.24
431.28	5717.93
431.47	5827.93
431.66	5973.05
431.85	5916.87
432.03	5893.47
432.22	6066.67
432.41	5802.19
432.60	5914.53
432.79	5980.07
432.97	6024.54
433.16	6076.03
433.35	5956.66
433.54	6092.41
433.72	6097.10
433.91	6047.94
434.10	6085.39
434.28	6162.63
434.47	6277.32
434.66	6223.48
434.85	6244.55
435.03	6375.62
435.22	6223.48
435.41	6464.56
435.59	6387.32
435.78	6562.86
435.97	6527.75
436.16	6366.26
436.34	6480.94
436.53	6466.90
436.72	6696.27
436.90	6438.81
437.09	6679.89
437.28	6541.80
437.46	6733.72
437.65	6691.59
437.84	6710.32
438.02	6796.92
438.21	6885.86
438.40	6761.81
438.58	7014.59
438.77	7302.47
438.96	7105.87
439.14	7194.81
439.33	7335.24
439.52	7311.83
439.70	7368.01
439.89	7386.73
440.08	7342.26
440.26	7400.77
440.45	7417.16
440.63	7473.33
440.82	7651.21
441.01	7569.29
441.19	7517.80
441.38	7716.75
441.57	7768.24
441.75	7836.11
441.94	8049.10
442.12	8009.31
442.31	8140.38
442.50	8112.30
442.68	8121.66
442.87	8074.85
443.05	8084.21
443.24	8086.55
443.43	8088.89
443.61	8236.35
443.80	8372.10
443.98	8194.22
444.17	7918.03
444.35	8248.05
444.54	8397.84
444.73	8390.82
444.91	8428.27
445.10	8454.02
445.28	8374.44
445.47	8278.47
445.65	8477.42
445.84	8542.96
446.02	8428.27
446.21	8411.89
446.39	8358.05
446.58	8737.22
446.77	8585.08
446.95	8297.20
447.14	8421.25
447.32	8540.61
447.51	8435.29
447.69	8573.38
447.88	8559.34
448.06	8615.51
448.25	8582.74
448.43	8416.57
448.62	8430.61
448.80	8409.54
448.99	8784.03
449.17	8882.33
449.36	8624.87
449.54	8936.17
449.73	9074.26
449.91	9088.30
450.10	9062.55
450.28	8919.78
450.46	9128.09
450.65	8985.32
450.83	9083.62
451.02	9118.73
451.20	9256.82
451.39	9202.99
451.57	9294.27
451.76	9029.79
451.94	9308.31
452.13	9509.60
452.31	9327.03
452.49	9291.93
452.68	9298.95
452.86	9310.65
453.05	9338.74
453.23	9500.23
453.42	9401.93
453.60	9460.45
453.78	9652.37
453.97	9458.10
454.15	9561.09
454.34	9577.47
454.52	9727.27
454.70	9689.82
454.89	9750.67
455.07	9823.23
455.26	9891.10
455.44	9886.42
455.62	9863.02
455.81	10024.51
455.99	10054.94
456.17	10188.35
456.36	10352.19
456.54	10366.23
456.73	10263.25
456.91	10534.75
457.09	10590.92
457.28	10789.87
457.46	10380.28
457.64	10682.20
457.83	10682.20
458.01	10476.24
458.19	10712.63
458.38	10471.56
458.56	10766.46
458.74	10878.81
458.93	10789.87
459.11	10789.87
459.29	11007.54
459.48	11019.24
459.66	10724.33
459.84	11059.03
460.03	11335.21
460.21	11049.67
460.39	11023.92
460.57	11021.58
460.76	11351.60
460.94	11204.14
461.12	11126.91
461.31	11208.83
461.49	11265.00
461.67	11375.00
461.85	11405.43
462.04	11587.99
462.22	11721.40
462.40	11833.75
462.59	11590.33
462.77	11803.32
462.95	11637.14
463.13	11714.38
463.32	11838.43
463.50	11808.00
463.68	11800.98
463.86	11667.57
464.05	11868.86
464.23	11686.29
464.41	11981.20
464.59	11756.51
464.78	12374.41
464.96	11992.90
465.14	11847.79
465.32	11948.43
465.50	12285.47
465.69	12381.43
465.87	12109.93
466.05	12102.91
466.23	12409.52
466.41	12278.45
466.60	12191.85
466.78	12404.84
466.96	12243.34
467.14	12531.23
467.32	12360.37
467.51	12659.96
467.69	12369.73
467.87	12643.57
468.05	12734.85
468.23	12472.71
468.41	12603.78
468.60	12531.23
468.78	12681.02
468.96	12580.38
469.14	13050.83
469.32	13123.38
469.50	13064.87
469.69	13032.10
469.87	13146.79
470.05	13303.60
470.23	13373.82
470.41	13310.63
470.59	13322.33
470.77	13097.64
470.95	13083.59
471.14	13610.22
471.32	13422.97
471.50	13799.80
471.68	13570.43
471.86	13823.20
472.04	14043.21
472.22	14092.37
472.40	13799.80
472.58	13790.44
472.77	14190.67
472.95	14157.90
473.13	14677.50
473.31	14335.78
473.49	14281.95
473.67	14256.20
473.85	14511.32
474.03	14836.66
474.21	14544.09
474.39	14848.36
474.57	14817.93
474.75	14934.96
474.93	15124.54
475.12	14970.07
475.30	15122.20
475.48	15098.80
475.66	15122.20
475.84	15119.86
476.02	15812.66
476.20	15309.44
476.38	15702.65
476.56	16243.32
476.74	15777.55
476.92	16203.53
477.10	15985.86
477.28	16236.30
477.46	16271.40
477.64	16641.21
477.82	16718.45
478.00	17116.34
478.18	17088.25
478.36	17158.47
478.54	17233.36
478.72	17362.09
478.90	17329.33
479.08	17624.23
479.26	17869.99
479.44	17776.37
479.62	18480.87
479.80	17928.50
479.98	18483.21
480.16	18380.23
480.34	18523.00
480.52	18600.24
480.70	18743.01
480.88	18562.79
481.06	19002.81
481.24	18820.25
481.41	19260.27
481.59	19487.30
481.77	19613.69
481.95	19520.07
482.13	19983.49
482.31	19836.04
482.49	20627.14
482.67	20386.07
482.85	20421.17
483.03	20411.81
483.21	21226.32
483.39	21198.23
483.57	21081.21
483.74	21177.17
483.92	21607.83
484.10	21544.63
484.28	22040.82
484.46	22225.73
484.64	22361.48
484.82	22256.15
485.00	22455.10
485.18	23026.19
485.35	22883.42
485.53	22829.59
485.71	23246.20
485.89	23653.45
486.07	23309.40
486.25	23412.38
486.43	23669.84
486.61	23826.65
486.78	24065.39
486.96	23967.09
487.14	24615.41
487.32	24980.54
487.50	24732.44
487.68	25032.03
487.85	25514.18
488.03	25790.36
488.21	26043.14
488.39	26005.69
488.57	26174.21
488.75	26073.57
488.92	26607.21
489.10	26951.27
489.28	26960.63
489.46	27342.14
489.64	27484.91
489.81	27718.96
489.99	27871.10
490.17	27997.49
490.35	28112.17
490.53	28542.83
490.70	28336.87
490.88	28350.91
491.06	29085.84
491.24	29034.35
491.41	29132.65
491.59	29598.41
491.77	29214.57
491.95	29792.68
492.13	30408.24
492.30	29970.56
492.48	30485.48
492.66	30473.78
492.84	30630.59
493.01	30745.28
493.19	30742.94
493.37	31307.01
493.54	31461.48
493.72	31508.29
493.90	31580.85
494.08	31990.44
494.25	32432.80
494.43	32481.95
494.61	32421.10
494.79	32538.13
494.96	32737.07
495.14	33043.68
495.32	33167.73
495.49	33535.20
495.67	33324.55
495.85	33516.47
496.02	34012.66
496.20	34354.38
496.38	34520.56
496.55	34644.61
496.73	34848.24
496.91	34820.15
497.09	34749.93
497.26	35426.35
497.44	35089.31
497.62	35297.62
497.79	36013.82
497.97	35639.34
498.14	36051.27
498.32	36573.21
498.50	36549.81
498.67	36877.48
498.85	36605.98
499.03	36566.19
499.20	36919.61
499.38	37361.97
499.56	37317.50
499.73	37516.45
499.91	37523.47
500.08	38005.62
500.26	37930.72
500.44	37886.25
500.61	37970.51
500.79	37647.52
500.97	38611.82
501.14	39030.77
501.32	38520.54
501.49	38785.02
501.67	39117.37
501.84	39133.76
502.02	38792.04
502.20	39210.99
502.37	39206.31
502.55	39119.71
502.72	40076.99
502.90	40041.88
503.07	39674.42
503.25	39941.24
503.43	40329.77
503.60	40673.83
503.78	40601.27
503.95	40437.44
504.13	40306.37
504.30	40919.59
504.48	40917.25
504.65	41207.47
504.83	41074.06
505.01	41420.46
505.18	41343.22
505.36	42068.79
505.53	41450.89
505.71	41830.05
505.88	41869.84
506.06	41577.28
506.23	42003.25
506.41	41986.87
506.58	42447.96
506.76	42171.77
506.93	42923.08
507.11	42071.13
507.28	42693.71
507.46	42873.93
507.63	43157.14
507.81	43674.40
507.98	43157.14
508.16	43306.93
508.33	43889.73
508.50	43349.06
508.68	43889.73
508.85	44165.91
509.03	43929.51
509.20	44102.71
509.38	44598.91
509.55	44610.61
509.73	44666.78
509.90	44875.09
510.08	45041.27
510.25	44975.73
510.42	45106.80
510.60	45443.84
510.77	45296.39
510.95	45855.78
511.12	45581.93
511.30	45265.96
511.47	45408.73
511.64	45469.59
511.82	45989.19
511.99	45757.47
512.17	46073.45
512.34	45897.91
512.51	46555.60
512.69	46745.18
512.86	46579.00
513.04	46696.03
513.21	46532.19
513.38	46913.70
513.56	47079.88
513.73	46607.09
513.90	47089.24
514.08	47400.53
514.25	47564.37
514.43	47578.41
514.60	47639.26
514.77	47791.40
514.95	48119.07
515.12	47807.78
515.29	47807.78
515.47	47995.03
515.64	48100.35
515.81	47955.24
515.99	48163.54
516.16	48659.74
516.33	48720.59
516.51	49230.83
516.68	48809.53
516.85	48935.92
517.03	48718.25
517.20	48825.92
517.37	48535.69
517.54	49221.47
517.72	49109.12
517.89	49415.73
518.06	49652.12
518.24	49308.07
518.41	49518.71
518.58	49684.89
518.75	49404.03
518.93	49558.50
519.10	49741.06
519.27	49584.25
519.45	49907.24
519.62	50473.65
519.79	50237.26
519.96	50195.13
520.14	50590.68
520.31	50057.04
520.48	50408.12
520.65	50412.80
520.83	50684.30
521.00	51168.79
521.17	50780.26
521.34	50923.04
521.52	51075.17
521.69	51253.05
521.86	50911.33
522.03	51519.87
522.20	51304.54
522.38	52013.73
522.55	51796.06
522.72	51721.16
522.89	51552.64
523.07	51608.81
523.24	51679.03
523.41	52072.24
523.58	51756.27
523.75	51899.04
523.92	52240.76
524.10	51995.00
524.27	52413.96
524.44	52161.18
524.61	52261.82
524.78	52353.10
524.96	52259.48
525.13	52219.69
525.30	52472.47
525.47	52879.72
525.64	52800.15
525.81	53020.16
525.98	52938.24
526.16	52484.17
526.33	53029.52
526.50	53165.27
526.67	53008.45
526.84	52921.85
527.01	52898.45
527.18	52886.74
527.36	52992.07
527.53	53319.74
527.70	53595.93
527.87	53357.19
528.04	53109.10
528.21	53612.31
528.38	53745.72
528.55	53408.68
528.72	53528.05
528.89	53687.21
529.07	53413.37
529.24	53675.51
529.41	53771.47
529.58	53591.25
529.75	53769.13
529.92	53904.88
530.09	53806.58
530.26	54145.95
530.43	54419.80
530.60	53886.15
530.77	54073.40
530.94	54349.58
531.11	54047.65
531.28	54522.78
531.46	54478.31
531.63	54618.74
531.80	54403.41
531.97	54555.55
532.14	54475.97
532.31	54700.66
532.48	54761.51
532.65	54829.39
532.82	54724.07
532.99	54820.03
533.16	54813.01
533.33	55037.70
533.50	54955.78
533.67	54887.90
533.84	54646.83
534.01	54831.73
534.18	55304.52
534.35	55608.79
534.52	55194.51
534.69	55484.74
534.86	55451.97
535.03	55187.49
535.20	55524.53
535.37	55330.26
535.54	55599.43
535.71	55260.05
535.88	55550.27
536.05	55810.07
536.22	55992.64
536.38	55707.09
536.55	55784.33
536.72	55730.50
536.89	55655.60
537.06	55716.45
537.23	55758.58
537.40	55730.50
537.57	55667.30
537.74	55828.80
537.91	56083.92
538.08	56254.78
538.25	56023.06
538.42	56226.69
538.59	56264.14
538.75	55966.89
538.92	56184.56
539.09	56484.15
539.26	56427.98
539.43	56346.06
539.60	56432.66
539.77	56575.43
539.94	56704.16
540.11	56406.91
540.28	56708.84
540.44	56853.95
540.61	56388.19
540.78	56509.89
540.95	56624.58
541.12	56573.09
541.29	56736.93
541.46	56793.10
541.62	56884.38
541.79	56860.97
541.96	56587.13
542.13	56825.87
542.30	56882.04
542.47	57289.29
542.63	57240.14
542.80	57106.73
542.97	57254.18
543.14	57195.67
543.31	57247.16
543.48	57340.78
543.64	57539.73
543.81	57415.68
543.98	57338.44
544.15	57434.41
544.32	57432.07
544.48	57729.31
544.65	57509.30
544.82	57591.22
544.99	57401.64
545.16	57415.68
545.32	57717.61
545.49	57766.76
545.66	57741.02
545.83	57773.78
546.00	57862.72
546.16	57659.10
546.33	57712.93
546.50	57607.61
546.67	57925.92
546.83	57567.82
547.00	57815.91
547.17	57804.21
547.34	57925.92
547.50	57961.03
547.67	58155.29
547.84	58082.73
548.00	58319.13
548.17	58284.02
548.34	58202.10
548.51	58361.26
548.67	58447.86
548.84	58248.91
549.01	58223.17
549.18	57996.13
549.34	58454.88
549.51	58574.25
549.68	58422.11
549.84	58499.35
550.01	58527.44
550.18	58497.01
550.34	58576.59
550.51	58506.37
550.68	58550.84
550.84	58443.18
551.01	58829.37
551.18	58578.93
551.34	58742.77
551.51	58578.93
551.68	58719.36
551.84	58759.15
552.01	58482.97
552.18	58623.40
552.34	58478.28
552.51	58948.73
552.68	58520.41
552.84	58850.43
553.01	59117.25
553.18	58717.02
553.34	58993.20
553.51	58934.69
553.67	58852.77
553.84	59168.74
554.01	59023.63
554.17	59091.51
554.34	59227.26
554.51	59210.87
554.67	59416.84
554.84	59208.53
555.00	59213.21
555.17	59157.04
555.33	59166.40
555.50	59145.34
555.67	58974.48
555.83	59229.60
556.00	59262.36
556.16	59559.61
556.33	59311.52
556.50	59306.83
556.66	59465.99
556.83	59316.20
556.99	59353.65
557.16	59634.51
557.32	60041.76
557.49	59803.03
557.65	59283.43
557.82	59580.68
557.98	59554.93
558.15	59711.75
558.32	59547.91
558.48	59615.79
558.65	59814.73
558.81	59700.04
558.98	59744.51
559.14	59559.61
559.31	59842.82
559.47	59817.07
559.64	59931.76
559.80	59915.37
559.97	59831.11
560.13	59798.35
560.30	59728.13
560.46	59784.30
560.63	59732.81
560.79	59842.82
560.96	60020.70
561.12	60058.15
561.29	59952.82
561.45	60004.31
561.61	59931.76
561.78	59962.18
561.94	59990.27
562.11	59842.82
562.27	60088.57
562.44	60041.76
562.60	60207.94
562.77	60041.76
562.93	60086.23
563.10	60168.15
563.26	60165.81
563.42	60395.18
563.59	60275.82
563.75	60044.10
563.92	60097.94
564.08	60081.55
564.24	60121.34
564.41	60079.21
564.57	60231.35
564.74	60165.81
564.90	60364.76
565.07	60210.28
565.23	60280.50
565.39	60039.42
565.56	60364.76
565.72	60439.65
565.88	60299.22
566.05	60273.48
566.21	60292.20
566.38	60310.92
566.54	60294.54
566.70	60418.59
566.87	60491.15
567.03	60329.65
567.19	60795.42
567.36	60268.79
567.52	60331.99
567.68	60573.06
567.85	60633.92
568.01	60430.29
568.17	60540.30
568.34	60479.44
568.50	60434.97
568.66	60533.28
568.83	60364.76
568.99	60706.47
569.15	60533.28
569.32	60580.09
569.48	60200.92
569.64	60727.54
569.81	60587.11
569.97	60432.63
570.13	60458.38
570.30	60441.99
570.46	60706.47
570.62	60734.56
570.78	60540.30
570.95	60591.79
571.11	60846.91
571.27	60481.78
571.43	60537.96
571.60	60786.05
571.76	60432.63
571.92	60647.96
572.09	60750.94
572.25	60659.66
572.41	60800.10
572.57	60512.21
572.74	60811.80
572.90	60633.92
573.06	60828.18
573.22	60741.58
573.38	60774.35
573.55	60633.92
573.71	60783.71
573.87	60987.34
574.03	60662.00
574.20	60858.61
574.36	60680.73
574.52	60865.63
574.68	60678.39
574.84	60811.80
575.01	60835.20
575.17	60760.31
575.33	60743.92
575.49	60809.46
575.65	60825.84
575.82	60879.67
575.98	60912.44
576.14	61043.51
576.30	61123.09
576.46	60685.41
576.62	60858.61
576.79	61024.79
576.95	60844.57
577.11	60987.34
577.27	60912.44
577.43	60828.18
577.59	61010.74
577.75	60942.87
577.92	60846.91
578.08	60790.73
578.24	60956.91
578.40	60987.34
578.56	60933.51
578.72	60973.30
578.88	61134.79
579.04	61151.18
579.21	60987.34
579.37	61078.62
579.53	61048.19
579.69	60912.44
579.85	60851.59
580.01	60858.61
580.17	60853.93
580.33	60992.02
580.49	61352.46
580.65	60996.70
580.82	61050.53
580.98	60926.49
581.14	60898.40
581.30	61153.52
581.46	61015.43
581.62	61073.94
581.78	60975.64
581.94	60956.91
582.10	61078.62
582.26	61113.73
582.42	61015.43
582.58	61118.41
582.74	60786.05
582.90	61137.13
583.06	61064.58
583.22	60849.25
583.38	61153.52
583.54	61022.45
583.70	61158.20
583.86	61024.79
584.02	60935.85
584.18	61162.88
584.34	61226.07
584.50	61069.26
584.66	61102.03
584.82	60872.65
584.98	61261.18
585.14	61176.92
585.30	60968.61
585.46	61272.88
585.62	61015.43
585.78	61336.08
585.94	60889.04
586.10	61095.00
586.26	61109.05
586.42	61120.75
586.58	61006.06
586.74	61181.60
586.90	61160.54
587.06	61064.58
587.22	61109.05
587.38	61123.09
587.54	61359.48
587.70	61455.45
587.86	61158.20
588.02	61202.67
588.18	61322.04
588.34	61151.18
