SpectraSuite Data File
++++++++++++++++++++++++++++++++++++
Date: Fri Oct 25 11:34:26 EDT 2013
User: price-jones
Dark Spectrum Present: No
Reference Spectrum Present: No
Number of Sampled Component Spectra: 1
Spectrometers: USB2+H05261
Integration Time (usec): 100000 (USB2+H05261)
Spectra Averaged: 1 (USB2+H05261)
Boxcar Smoothing: 0 (USB2+H05261)
Correct for Electrical Dark: No (USB2+H05261)
Strobe/Lamp Enabled: No (USB2+H05261)
Correct for Detector Non-linearity: No (USB2+H05261)
Correct for Stray Light: No (USB2+H05261)
Number of Pixels in Processed Spectrum: 2048
>>>>>Begin Processed Spectral Data<<<<<
365.73	248.10
365.92	248.10
366.12	248.10
366.32	259.80
366.52	149.79
366.72	205.97
366.91	100.64
367.11	147.45
367.31	191.92
367.51	201.29
367.70	128.73
367.90	187.24
368.10	212.99
368.30	210.65
368.49	205.97
368.69	224.69
368.89	212.99
369.09	189.58
369.28	156.82
369.48	208.31
369.68	175.54
369.87	252.78
370.07	196.60
370.27	273.84
370.47	308.95
370.66	482.15
370.86	498.53
371.06	557.05
371.25	535.98
371.45	475.13
371.65	608.54
371.84	573.43
372.04	484.49
372.24	505.56
372.44	674.07
372.63	631.94
372.83	599.18
373.03	568.75
373.22	601.52
373.42	617.90
373.62	528.96
373.81	559.39
374.01	662.37
374.21	629.60
374.40	582.79
374.60	645.99
374.79	671.73
374.99	664.71
375.19	629.60
375.38	648.33
375.58	660.03
375.78	566.41
375.97	620.24
376.17	685.78
376.37	636.63
376.56	596.84
376.76	657.69
376.95	709.18
377.15	683.44
377.35	692.80
377.54	706.84
377.74	585.13
377.93	645.99
378.13	648.33
378.33	730.25
378.52	655.35
378.72	669.39
378.91	734.93
379.11	671.73
379.31	716.20
379.50	671.73
379.70	791.10
379.89	723.23
380.09	709.18
380.28	753.65
380.48	713.86
380.68	697.48
380.87	706.84
381.07	763.01
381.26	779.40
381.46	763.01
381.65	723.23
381.85	718.54
382.04	791.10
382.24	828.55
382.43	734.93
382.63	746.63
382.83	840.25
383.02	751.31
383.22	781.74
383.41	725.57
383.61	706.84
383.80	819.19
384.00	840.25
384.19	833.23
384.39	779.40
384.58	788.76
384.78	793.44
384.97	840.25
385.17	791.10
385.36	777.06
385.56	732.59
385.75	821.53
385.95	816.85
386.14	849.61
386.34	882.38
386.53	828.55
386.72	821.53
386.92	924.51
387.11	861.32
387.31	877.70
387.50	877.70
387.70	877.70
387.89	849.61
388.09	854.30
388.28	938.55
388.48	901.11
388.67	938.55
388.86	931.53
389.06	926.85
389.25	922.17
389.45	999.41
389.64	983.02
389.84	964.30
390.03	940.90
390.22	1015.79
390.42	978.34
390.61	943.24
390.81	997.07
391.00	919.83
391.19	992.39
391.39	987.71
391.58	1006.43
391.78	952.60
391.97	1025.15
392.16	1057.92
392.36	1088.35
392.55	966.64
392.75	976.00
392.94	992.39
393.13	1067.28
393.33	992.39
393.52	1039.20
393.71	1039.20
393.91	1057.92
394.10	1076.65
394.29	1083.67
394.49	1032.18
394.68	1020.47
394.88	1097.71
395.07	1149.20
395.26	1158.57
395.46	1083.67
395.65	1170.27
395.84	1125.80
396.04	1240.48
396.23	992.39
396.42	1142.18
396.62	1210.06
396.81	1233.46
397.00	1163.25
397.19	1146.86
397.39	1219.42
397.58	1231.12
397.77	1184.31
397.97	1158.57
398.16	1273.25
398.35	1242.82
398.55	1245.16
398.74	1247.51
398.93	1320.06
399.12	1343.47
399.32	1252.19
399.51	1280.27
399.70	1324.74
399.90	1387.94
400.09	1373.89
400.28	1317.72
400.47	1355.17
400.67	1362.19
400.86	1369.21
401.05	1308.36
401.24	1380.92
401.44	1301.34
401.63	1387.94
401.82	1327.08
402.01	1481.56
402.21	1383.26
402.40	1425.39
402.59	1451.13
402.78	1439.43
402.97	1486.24
403.17	1458.15
403.36	1507.30
403.55	1474.54
403.74	1519.01
403.93	1493.26
404.13	1596.25
404.32	1521.35
404.51	1561.14
404.70	1619.65
404.89	1610.29
405.09	1626.67
405.28	1636.03
405.47	1614.97
405.66	1664.12
405.85	1675.82
406.05	1699.23
406.24	1729.66
406.43	1750.72
406.62	1774.13
406.81	1778.81
407.00	1579.86
407.20	1724.97
407.39	1851.36
407.58	1834.98
407.77	1856.04
407.96	1762.42
408.15	1746.04
408.34	1916.90
408.54	1863.07
408.73	1820.94
408.92	1804.55
409.11	1900.52
409.30	1867.75
409.49	1980.09
409.68	1884.13
409.87	1930.94
410.07	1982.43
410.26	1942.64
410.45	1956.69
410.64	1949.67
410.83	2104.14
411.02	1996.48
411.21	2115.84
411.40	2001.16
411.59	2078.40
411.78	2120.53
411.98	2033.93
412.17	2122.87
412.36	2190.74
412.55	2253.94
412.74	2293.72
412.93	2218.83
413.12	2186.06
413.31	2319.47
413.50	2354.58
413.69	2326.49
413.88	2448.20
414.07	2382.67
414.26	2429.48
414.45	2473.95
414.64	2422.45
414.83	2366.28
415.02	2607.36
415.22	2546.50
415.41	2485.65
415.60	2583.95
415.79	2607.36
415.98	2600.34
416.17	2586.29
416.36	2658.85
416.55	2630.76
416.74	2724.38
416.93	2764.17
417.12	2621.40
417.31	2736.09
417.50	2785.24
417.69	2960.78
417.88	2855.45
418.07	2867.16
418.26	2911.63
418.45	2932.69
418.64	2946.73
418.83	2930.35
419.02	2848.43
419.21	2923.33
419.39	2984.18
419.58	2956.10
419.77	3091.85
419.96	3091.85
420.15	3075.46
420.34	3000.57
420.53	3122.27
420.72	3173.77
420.91	3169.09
421.10	3049.72
421.29	3148.02
421.48	3115.25
421.67	3080.14
421.86	3332.92
422.05	3185.47
422.24	3328.24
422.43	3229.94
422.61	3255.69
422.80	3363.35
422.99	3171.43
423.18	3243.98
423.37	3276.75
423.56	3166.74
423.75	3281.43
423.94	3288.45
424.13	2998.23
424.32	3080.14
424.50	3281.43
424.69	3321.22
424.88	3396.12
425.07	3384.41
425.26	3225.26
425.45	3421.86
425.64	3225.26
425.83	3251.00
426.01	3346.97
426.20	3428.88
426.39	3393.78
426.58	3398.46
426.77	3300.16
426.96	3445.27
427.15	3428.88
427.33	3496.76
427.52	3421.86
427.71	3456.97
427.90	3550.59
428.09	3524.85
428.28	3492.08
428.46	3613.79
428.65	3576.34
428.84	3651.24
429.03	3583.36
429.22	3655.92
429.40	3648.90
429.59	3646.55
429.78	3566.98
429.97	3496.76
430.16	3721.45
430.34	3709.75
430.53	3775.28
430.72	3730.81
430.91	3772.94
431.10	3733.15
431.28	3765.92
431.47	3838.48
431.66	3887.63
431.85	3808.05
432.03	3948.48
432.22	3929.76
432.41	3969.55
432.60	3943.80
432.79	4023.38
432.97	3960.19
433.16	3953.16
433.35	3901.67
433.54	4044.45
433.72	4056.15
433.91	4074.87
434.10	4070.19
434.28	3995.29
434.47	4119.34
434.66	4283.18
434.85	4107.64
435.03	4051.47
435.22	4194.24
435.41	4299.56
435.59	4238.71
435.78	4117.00
435.97	4283.18
436.16	4189.56
436.34	4224.67
436.53	4250.41
436.72	4147.43
436.90	4217.65
437.09	4386.16
437.28	4341.69
437.46	4362.76
437.65	4346.37
437.84	4362.76
438.02	4440.00
438.21	4339.35
438.40	4355.74
438.58	4440.00
438.77	4547.66
438.96	4557.02
439.14	4713.84
439.33	4809.80
439.52	4711.50
439.70	4699.80
439.89	4760.65
440.08	4692.77
440.26	4788.74
440.45	4947.89
440.63	4950.23
440.82	5090.67
441.01	4798.10
441.19	4971.30
441.38	5095.35
441.57	5036.83
441.75	5132.79
441.94	5163.22
442.12	5163.22
442.31	5317.70
442.50	5252.16
442.68	5203.01
442.87	5259.18
443.05	5373.87
443.24	5380.89
443.43	5327.06
443.61	5427.70
443.80	5432.38
443.98	5331.74
444.17	5240.46
444.35	5263.86
444.54	5507.28
444.73	5380.89
444.91	5544.73
445.10	5511.96
445.28	5481.53
445.47	5336.42
445.65	5434.72
445.84	5528.35
446.02	5526.00
446.21	5425.36
446.39	5577.50
446.58	5584.52
446.77	5675.80
446.95	5378.55
447.14	5341.10
447.32	5659.42
447.51	5434.72
447.69	5479.19
447.88	5617.29
448.06	5666.44
448.25	5654.73
448.43	5577.50
448.62	5589.20
448.80	5638.35
448.99	5671.12
449.17	5767.08
449.36	5579.84
449.54	5849.00
449.73	5774.10
449.91	5844.32
450.10	5753.04
450.28	5912.19
450.46	6012.84
450.65	5886.45
450.83	5916.87
451.02	5907.51
451.20	6054.97
451.39	6033.90
451.57	5804.53
451.76	5851.34
451.94	6045.60
452.13	5989.43
452.31	6036.24
452.49	6036.24
452.68	5996.45
452.86	6012.84
453.05	6225.82
453.23	6090.07
453.42	6122.84
453.60	6057.31
453.78	6176.67
453.97	5956.66
454.15	6146.25
454.34	6282.00
454.52	6253.91
454.70	6146.25
454.89	6310.08
455.07	6406.05
455.26	6420.09
455.44	6445.84
455.62	6480.94
455.81	6384.98
455.99	6506.69
456.17	6619.04
456.36	6567.54
456.54	6560.52
456.73	6754.79
456.91	6693.93
457.09	6752.45
457.28	6766.49
457.46	6682.23
457.64	6764.15
457.83	6937.35
458.01	6633.08
458.19	7040.33
458.38	6736.06
458.56	6825.00
458.74	7126.93
458.93	6909.26
459.11	6853.09
459.29	6792.23
459.48	7063.74
459.66	7115.23
459.84	7084.80
460.03	6960.75
460.21	7136.29
460.39	7246.30
460.57	7138.63
460.76	7075.44
460.94	7201.83
461.12	7269.70
461.31	7056.72
461.49	7101.19
461.67	7288.43
461.85	7368.01
462.04	7157.36
462.22	7702.70
462.40	7393.75
462.59	7454.61
462.77	7222.89
462.95	7655.89
463.13	7318.86
463.32	7545.89
463.50	7447.58
463.68	7634.83
463.86	7531.84
464.05	7585.68
464.23	7585.68
464.41	7707.38
464.59	7712.07
464.78	7712.07
464.96	7777.60
465.14	7569.29
465.32	7744.83
465.50	7742.49
465.69	7639.51
465.87	7826.75
466.05	7885.26
466.23	7719.09
466.41	7868.88
466.60	8077.19
466.78	7843.14
466.96	7815.05
467.14	7861.86
467.32	8046.76
467.51	8273.79
467.69	7761.22
467.87	7927.39
468.05	8074.85
468.23	7943.78
468.41	7981.23
468.60	8063.15
468.78	8049.10
468.96	8198.90
469.14	8025.70
469.32	8379.12
469.50	8180.17
469.69	8299.54
469.87	8435.29
470.05	8439.97
470.23	8451.67
470.41	8582.74
470.59	8456.36
470.77	8561.68
470.95	8664.66
471.14	8844.88
471.32	8407.20
471.50	8648.28
471.68	8844.88
471.86	9004.04
472.04	8781.69
472.22	8919.78
472.40	8798.07
472.58	8746.58
472.77	8858.93
472.95	8922.12
473.13	9350.44
473.31	9074.26
473.49	9048.51
473.67	9137.45
473.85	9270.86
474.03	9345.76
474.21	9383.21
474.39	9479.17
474.57	9345.76
474.75	9659.39
474.93	9476.83
475.12	9657.05
475.30	9813.87
475.48	9610.24
475.66	9586.83
475.84	9678.12
476.02	9900.47
476.20	9865.36
476.38	10076.01
476.56	10277.29
476.74	10120.48
476.92	9944.94
477.10	9886.42
477.28	10321.76
477.46	10380.28
477.64	10214.10
477.82	10394.32
478.00	10679.86
478.18	10546.45
478.36	10665.82
478.54	10839.02
478.72	10883.49
478.90	10930.30
479.08	11112.86
479.26	11166.70
479.44	11087.12
479.62	11386.71
479.80	11386.71
479.98	11585.65
480.16	11705.02
480.34	11475.65
480.52	11623.10
480.70	12058.44
480.88	11695.66
481.06	12037.38
481.24	12121.63
481.41	12112.27
481.59	12133.34
481.77	12229.30
481.95	12564.00
482.13	12599.10
482.31	12695.07
482.49	12718.47
482.67	12915.08
482.85	13221.69
483.03	12933.80
483.21	12999.34
483.39	13153.81
483.57	13322.33
483.74	13397.23
483.92	13605.53
484.10	13406.59
484.28	13886.40
484.46	14073.64
484.64	14164.92
484.82	13895.76
485.00	14017.47
485.18	14497.28
485.35	14078.32
485.53	14420.04
485.71	14431.74
485.89	14691.54
486.07	14757.08
486.25	14703.25
486.43	14949.00
486.61	14857.72
486.78	15117.52
486.96	15147.95
487.14	15365.62
487.32	15672.23
487.50	15510.73
487.68	15768.19
487.85	15999.90
488.03	15894.58
488.21	16107.57
488.39	16386.09
488.57	16634.19
488.75	16620.14
488.92	16655.25
489.10	16573.33
489.28	16748.87
489.46	16996.97
489.64	16945.48
489.81	17441.67
489.99	17364.43
490.17	17652.32
490.35	17752.96
490.53	17652.32
490.70	17858.29
490.88	17668.70
491.06	18064.25
491.24	18052.55
491.41	18211.71
491.59	17954.25
491.77	18441.08
491.95	18689.18
492.13	19042.60
492.30	18705.56
492.48	18991.11
492.66	18876.42
492.84	18810.89
493.01	19283.67
493.19	18911.53
493.37	19356.23
493.54	19501.34
493.72	19922.64
493.90	19421.77
494.08	19644.12
494.25	20079.46
494.43	20381.38
494.61	20269.04
494.79	20580.33
494.96	20339.26
495.14	20306.49
495.32	21156.10
495.49	20556.93
495.67	20854.17
495.85	21151.42
496.02	21139.72
496.20	21390.16
496.38	21429.94
496.55	21380.79
496.73	21802.09
496.91	21781.03
497.09	21923.80
497.26	22162.53
497.44	22101.68
497.62	22260.84
497.79	22651.70
497.97	22281.90
498.14	22380.20
498.32	22728.94
498.50	22860.01
498.67	22822.56
498.85	22986.40
499.03	23208.75
499.20	23257.90
499.38	23391.31
499.56	23103.43
499.73	23508.34
499.91	23435.78
500.08	23592.60
500.26	23449.83
500.44	23653.45
500.61	23873.46
500.79	23623.03
500.97	23995.17
501.14	24201.14
501.32	24170.71
501.49	24334.55
501.67	23887.51
501.84	24285.40
502.02	24376.68
502.20	24599.03
502.37	24563.92
502.55	24489.03
502.72	24753.51
502.90	24683.29
503.07	24753.51
503.25	24865.85
503.43	24931.39
503.60	25282.47
503.78	25266.08
503.95	25628.87
504.13	25649.93
504.30	25748.23
504.48	25748.23
504.65	25694.40
504.83	25818.45
505.01	25891.01
505.18	26111.02
505.36	26403.58
505.53	25862.92
505.71	26169.53
505.88	26583.80
506.06	25961.22
506.23	26707.85
506.41	26199.96
506.58	26518.27
506.76	26780.41
506.93	26867.01
507.11	26611.89
507.28	27089.36
507.46	27314.05
507.63	27185.32
507.81	27522.36
507.98	27477.89
508.16	27442.78
508.33	27599.60
508.50	27449.80
508.68	27587.89
508.85	27988.13
509.03	27852.38
509.20	27503.64
509.38	28135.58
509.55	27981.10
509.73	27601.94
509.90	28336.87
510.08	28128.56
510.25	28357.93
510.42	28840.08
510.60	28222.18
510.77	28311.12
510.95	28690.29
511.12	28893.91
511.30	28751.14
511.47	29006.26
511.64	28828.38
511.82	29172.44
511.99	29020.30
512.17	29310.53
512.34	29111.58
512.51	29582.03
512.69	29727.14
512.86	29766.93
513.04	29612.46
513.21	29890.98
513.38	29792.68
513.56	30190.57
513.73	29677.99
513.90	30183.55
514.08	29642.88
514.25	30118.01
514.43	30120.35
514.60	30426.96
514.77	30272.49
514.95	30164.82
515.12	30398.88
515.29	30614.21
515.47	30417.60
515.64	30827.20
515.81	30462.07
515.99	31019.12
516.16	30621.23
516.33	30948.90
516.51	31243.81
516.68	30930.18
516.85	31201.68
517.03	30953.58
517.20	31363.18
517.37	31784.48
517.54	31323.39
517.72	31262.54
517.89	31653.40
518.06	31597.23
518.24	31957.67
518.41	31632.34
518.58	31805.54
518.75	31498.93
518.93	32105.13
519.10	32163.64
519.27	32046.62
519.45	32339.18
519.62	32135.56
519.79	32198.75
519.96	32177.68
520.14	32416.42
520.31	32088.74
520.48	32591.96
520.65	32491.32
520.83	33001.55
521.00	32734.73
521.17	32964.10
521.34	32952.40
521.52	32886.87
521.69	32800.27
521.86	33310.50
522.03	33259.01
522.20	33207.52
522.38	33783.29
522.55	33497.75
522.72	33567.96
522.89	33841.81
523.07	33544.56
523.24	33713.08
523.41	33734.14
523.58	33947.13
523.75	34125.01
523.92	33626.48
524.10	34176.50
524.27	34204.59
524.44	34314.59
524.61	34274.80
524.78	34366.09
524.96	34693.76
525.13	34696.10
525.30	35000.37
525.47	34490.13
525.64	34782.70
525.81	34911.43
525.98	34597.80
526.16	34590.78
526.33	34604.82
526.50	35431.03
526.67	34820.15
526.84	35180.59
527.01	34998.03
527.18	34881.00
527.36	35208.68
527.53	35227.40
527.70	35625.29
527.87	35522.31
528.04	35377.20
528.21	35007.39
528.38	35318.68
528.55	35725.94
528.72	35599.55
528.89	35597.21
529.07	35800.83
529.24	35608.91
529.41	35969.35
529.58	36025.53
529.75	35812.54
529.92	36374.27
530.09	36222.13
530.26	36341.50
530.43	36325.11
530.60	36226.81
530.77	36009.14
530.94	36493.63
531.11	36006.80
531.28	36030.21
531.46	36287.67
531.63	36704.28
531.80	36629.38
531.97	36769.82
532.14	36828.33
532.31	37127.92
532.48	36959.40
532.65	36650.45
532.82	37097.49
532.99	36521.72
533.16	36905.57
533.33	37053.02
533.50	37053.02
533.67	36793.22
533.84	37031.96
534.01	37219.20
534.18	37586.66
534.35	37539.85
534.52	37633.47
534.69	37624.11
534.86	38031.36
535.03	37099.83
535.20	37539.85
535.37	37427.51
535.54	37846.46
535.71	38370.74
535.88	38050.09
536.05	37626.45
536.22	37820.72
536.38	38384.79
536.55	37940.08
536.72	38022.00
536.89	37895.61
537.06	38094.56
537.23	38527.56
537.40	38157.75
537.57	38171.80
537.74	38576.71
537.91	38574.37
538.08	38581.39
538.25	38436.28
538.42	38335.63
538.59	38932.47
538.75	38483.09
538.92	38916.09
539.09	38726.50
539.26	39037.80
539.43	39040.14
539.60	39122.05
539.77	39077.58
539.94	38796.72
540.11	39203.97
540.28	39241.42
540.44	38726.50
540.61	39089.29
540.78	38852.89
540.95	39377.17
541.12	39009.71
541.29	39206.31
541.46	39335.04
541.62	39480.16
541.79	39533.99
541.96	38869.28
542.13	39482.50
542.30	39323.34
542.47	39601.86
542.63	39543.35
542.80	39700.17
542.97	40353.18
543.14	40418.71
543.31	40212.74
543.48	39988.05
543.64	40320.41
543.81	40271.26
543.98	40072.31
544.15	40453.82
544.32	40631.70
544.48	41036.61
544.65	40275.94
544.82	40357.86
544.99	40374.24
545.16	40781.49
545.32	40552.12
545.49	41324.50
545.66	40655.11
545.83	40662.13
546.00	40704.26
546.16	41029.59
546.33	40896.18
546.50	40521.69
546.67	41275.35
546.83	40594.25
547.00	40931.29
547.17	40964.06
547.34	40971.08
547.50	41446.21
547.67	41343.22
547.84	41261.30
548.00	41069.38
548.17	41553.87
548.34	41439.18
548.51	41483.66
548.67	41514.08
548.84	41453.23
549.01	41720.05
549.18	41553.87
549.34	41652.17
549.51	41888.57
549.68	41603.02
549.84	41205.13
550.01	42281.78
550.18	41717.71
550.34	42059.43
550.51	42061.77
550.68	41834.74
550.84	41600.68
551.01	42019.64
551.18	41921.34
551.34	41801.97
551.51	42019.64
551.68	41904.95
551.84	41858.14
552.01	42246.67
552.18	41858.14
552.34	41713.03
552.51	42115.60
552.68	42185.82
552.84	42548.60
553.01	42646.90
553.18	42010.28
553.34	42412.85
553.51	42234.97
553.67	42508.81
553.84	43084.58
554.01	42298.16
554.17	42583.71
554.34	42546.26
554.51	42836.48
554.67	42845.85
554.84	43175.86
555.00	42714.78
555.17	42780.31
555.33	42855.21
555.50	42480.72
555.67	42462.00
555.83	42583.71
556.00	43058.84
556.16	43063.52
556.33	43531.62
556.50	42689.03
556.66	43227.35
556.83	43363.11
556.99	43438.00
557.16	43426.30
557.32	43400.55
557.49	43414.60
557.65	43290.55
557.82	43100.97
557.98	43365.45
558.15	43271.82
558.32	43325.66
558.48	43199.27
558.65	43445.02
558.81	43943.56
558.98	43611.20
559.14	43449.70
559.31	43650.99
559.47	43658.01
559.64	43679.08
559.80	43716.53
559.97	43915.47
560.13	43353.74
560.30	43955.26
560.46	43686.10
560.63	43763.34
560.79	44037.18
560.96	44083.99
561.12	43882.70
561.29	43878.02
561.45	43936.54
561.61	43927.17
561.78	43798.44
561.94	44018.46
562.11	43803.13
562.27	44135.48
562.44	44004.41
562.60	44100.37
562.77	44093.35
562.93	43835.89
563.10	44645.72
563.26	44067.61
563.42	44381.24
563.59	43796.10
563.75	43849.94
563.92	44346.13
564.08	44304.00
564.24	44285.28
564.41	43976.33
564.57	44215.06
564.74	44233.78
564.90	44177.61
565.07	44425.71
565.23	44362.51
565.39	44516.99
565.56	44371.88
565.72	44296.98
565.88	44238.47
566.05	44212.72
566.21	44418.69
566.38	44339.11
566.54	44271.23
566.70	44549.76
566.87	44205.70
567.03	44641.04
567.19	44566.14
567.36	44172.93
567.52	44327.41
567.68	44828.28
567.85	44839.98
568.01	44545.08
568.17	44348.47
568.34	45020.20
568.50	44837.64
568.66	44292.30
568.83	44701.89
568.99	44449.11
569.15	44734.66
569.32	44388.26
569.48	44624.65
569.64	44912.54
569.81	44622.31
569.97	44650.40
570.13	44947.65
570.30	44554.44
570.46	45088.08
570.62	44849.35
570.78	44795.51
570.95	44964.03
571.11	44854.03
571.27	44809.56
571.43	44526.35
571.60	44746.36
571.76	44634.02
571.92	44910.20
572.09	44769.77
572.25	44994.46
572.41	45052.97
572.57	44886.79
572.74	45354.90
572.90	45191.06
573.06	45242.56
573.22	44966.37
573.38	45130.21
573.55	45013.18
573.71	45228.51
573.87	45422.78
574.03	44690.19
574.20	45481.29
574.36	45104.46
574.52	45390.01
574.68	45191.06
574.84	45413.41
575.01	45216.81
575.17	45284.68
575.33	45162.98
575.49	45050.63
575.65	45029.57
575.82	45408.73
575.98	45099.78
576.14	45474.27
576.30	45598.32
576.46	45549.17
576.62	44814.24
576.79	44975.73
576.95	44994.46
577.11	45111.49
577.27	45282.34
577.43	45420.44
577.59	45514.06
577.75	45207.45
577.92	45385.33
578.08	45289.37
578.24	45158.30
578.40	45605.34
578.56	45457.88
578.72	45450.86
578.88	45514.06
579.04	45090.42
579.21	45144.25
579.37	45413.41
579.53	44989.78
579.69	45317.45
579.85	45188.72
580.01	45160.64
580.17	44870.41
580.33	45766.84
580.49	45357.24
580.65	45570.23
580.82	45425.12
580.98	45291.71
581.14	45116.17
581.30	44996.80
581.46	45408.73
581.62	45165.32
581.78	45453.20
581.94	45492.99
582.10	45076.38
582.26	45647.47
582.42	45415.76
582.58	45715.34
582.74	45387.67
582.90	45214.47
583.06	45698.96
583.22	45177.02
583.38	45666.19
583.54	45778.54
583.70	45500.01
583.86	45584.27
584.02	45397.03
584.18	45862.80
584.34	45715.34
584.50	45776.20
584.66	45689.60
584.82	45787.90
584.98	46040.68
585.14	45677.90
585.30	45230.85
585.46	45457.88
585.62	45666.19
585.78	45490.65
585.94	45045.95
586.10	45572.57
586.26	45525.76
586.42	45371.28
586.58	45801.94
586.74	45261.28
586.90	45284.68
587.06	45457.88
587.22	45659.17
587.38	45738.75
587.54	46096.85
587.70	45844.07
587.86	45628.74
588.02	45507.04
588.18	45427.46
588.34	45757.47
588.49	45371.28
588.65	46141.32
588.81	46092.17
588.97	45872.16
589.13	45537.46
589.29	45397.03
589.45	45975.14
589.61	45588.95
589.77	45865.14
589.93	45378.31
590.08	46061.74
