SpectraSuite Data File
++++++++++++++++++++++++++++++++++++
Date: Fri Oct 25 11:22:29 EDT 2013
User: price-jones
Dark Spectrum Present: No
Reference Spectrum Present: No
Number of Sampled Component Spectra: 1
Spectrometers: USB2+H05261
Integration Time (usec): 100000 (USB2+H05261)
Spectra Averaged: 1 (USB2+H05261)
Boxcar Smoothing: 0 (USB2+H05261)
Correct for Electrical Dark: No (USB2+H05261)
Strobe/Lamp Enabled: No (USB2+H05261)
Correct for Detector Non-linearity: No (USB2+H05261)
Correct for Stray Light: No (USB2+H05261)
Number of Pixels in Processed Spectrum: 2048
>>>>>Begin Processed Spectral Data<<<<<
365.73	203.63
365.92	203.63
366.12	203.63
366.32	184.90
366.52	114.69
366.72	149.79
366.91	128.73
367.11	114.69
367.31	117.03
367.51	152.13
367.70	112.35
367.90	128.73
368.10	93.62
368.30	98.30
368.49	124.05
368.69	159.16
368.89	152.13
369.09	77.24
369.28	114.69
369.48	154.48
369.68	142.77
369.87	205.97
370.07	290.23
370.27	257.46
370.47	299.59
370.66	566.41
370.86	592.16
371.06	641.31
371.25	737.27
371.45	655.35
371.65	631.94
371.84	723.23
372.04	711.52
372.24	706.84
372.44	739.61
372.63	667.05
372.83	798.12
373.03	779.40
373.22	772.38
373.42	734.93
373.62	718.54
373.81	812.17
374.01	821.53
374.21	802.80
374.40	739.61
374.60	863.66
374.79	795.78
374.99	816.85
375.19	805.14
375.38	821.53
375.58	880.04
375.78	802.80
375.97	833.23
376.17	898.77
376.37	851.96
376.56	819.19
376.76	786.42
376.95	875.36
377.15	851.96
377.35	828.55
377.54	887.06
377.74	830.89
377.93	894.08
378.13	940.90
378.33	882.38
378.52	929.19
378.72	833.23
378.91	1020.47
379.11	896.43
379.31	908.13
379.50	947.92
379.70	983.02
379.89	1011.11
380.09	1064.94
380.28	1011.11
380.48	1064.94
380.68	971.32
380.87	1006.43
381.07	968.98
381.26	1064.94
381.46	990.05
381.65	1048.56
381.85	1018.13
382.04	1011.11
382.24	1050.90
382.43	1078.99
382.63	1039.20
382.83	997.07
383.02	1046.22
383.22	1125.80
383.41	1118.78
383.61	1118.78
383.80	1210.06
384.00	1151.54
384.19	1081.33
384.39	1086.01
384.58	1121.12
384.78	1191.33
384.97	1277.93
385.17	1214.74
385.36	1078.99
385.56	1174.95
385.75	1097.71
385.95	1205.38
386.14	1238.14
386.34	1242.82
386.53	1142.18
386.72	1181.97
386.92	1366.87
387.11	1207.72
387.31	1270.91
387.50	1221.76
387.70	1371.55
387.89	1235.80
388.09	1270.91
388.28	1249.85
388.48	1310.70
388.67	1268.57
388.86	1259.21
389.06	1401.98
389.25	1275.59
389.45	1350.49
389.64	1289.64
389.84	1373.89
390.03	1418.36
390.22	1380.92
390.42	1409.00
390.61	1362.19
390.81	1394.96
391.00	1394.96
391.19	1453.47
391.39	1376.24
391.58	1427.73
391.78	1409.00
391.97	1528.37
392.16	1486.24
392.36	1511.99
392.55	1460.49
392.75	1519.01
392.94	1516.67
393.13	1575.18
393.33	1572.84
393.52	1600.93
393.71	1547.09
393.91	1666.46
394.10	1636.03
394.29	1598.59
394.49	1624.33
394.68	1715.61
394.88	1551.78
395.07	1687.53
395.26	1638.38
395.46	1717.95
395.65	1741.36
395.84	1753.06
396.04	1727.32
396.23	1748.38
396.42	1706.25
396.62	1764.76
396.81	1884.13
397.00	1860.73
397.19	1717.95
397.39	1818.60
397.58	1820.94
397.77	1846.68
397.97	1902.86
398.16	1874.77
398.35	1900.52
398.55	1914.56
398.74	1886.47
398.93	1991.80
399.12	1902.86
399.32	1863.07
399.51	2024.56
399.70	2003.50
399.90	2001.16
400.09	1942.64
400.28	2040.95
400.47	2033.93
400.67	2064.35
400.86	2085.42
401.05	2176.70
401.24	2176.70
401.44	2237.55
401.63	2106.48
401.82	2181.38
402.01	2181.38
402.21	2230.53
402.40	2228.19
402.59	2101.80
402.78	2239.89
402.97	2202.44
403.17	2319.47
403.36	2207.13
403.55	2260.96
403.74	2340.54
403.93	2443.52
404.13	2293.72
404.32	2338.20
404.51	2324.15
404.70	2375.64
404.89	2338.20
405.09	2532.46
405.28	2487.99
405.47	2476.29
405.66	2567.57
405.85	2499.69
406.05	2537.14
406.24	2537.14
406.43	2658.85
406.62	2747.79
406.81	2768.85
407.00	2633.10
407.20	2614.38
407.39	2623.74
407.58	2684.59
407.77	2670.55
407.96	2808.64
408.15	2675.23
408.34	2832.05
408.54	2736.09
408.73	2850.77
408.92	2796.94
409.11	2920.99
409.30	2974.82
409.49	2935.03
409.68	2932.69
409.87	2991.20
410.07	2953.76
410.26	3098.87
410.45	2944.39
410.64	3033.33
410.83	3056.74
411.02	3183.13
411.21	3199.51
411.40	3119.93
411.59	3403.14
411.78	3192.49
411.98	3290.79
412.17	3260.37
412.36	3403.14
412.55	3442.93
412.74	3435.91
412.93	3332.92
413.12	3431.23
413.31	3524.85
413.50	3468.67
413.69	3503.78
413.88	3531.87
414.07	3672.30
414.26	3798.69
414.45	3826.78
414.64	3611.45
414.83	3768.26
415.02	3742.52
415.22	3936.78
415.41	3859.54
415.60	3964.87
415.79	3847.84
415.98	3974.23
416.17	4025.72
416.36	4056.15
416.55	4025.72
416.74	4257.43
416.93	4114.66
417.12	4046.79
417.31	4241.05
417.50	4112.32
417.69	4318.29
417.88	4271.48
418.07	4351.06
418.26	4379.14
418.45	4250.41
418.64	4660.01
418.83	4582.77
419.02	4423.61
419.21	4566.39
419.39	4528.94
419.58	4486.81
419.77	4449.36
419.96	4542.98
420.15	4641.28
420.34	4664.69
420.53	4683.41
420.72	4779.37
420.91	4828.53
421.10	4938.53
421.29	4802.78
421.48	4821.50
421.67	5011.09
421.86	4835.55
422.05	4950.23
422.24	4865.97
422.43	5064.92
422.61	5069.60
422.80	5071.94
422.99	4905.76
423.18	5198.33
423.37	5093.01
423.56	5029.81
423.75	4910.44
423.94	4975.98
424.13	4819.16
424.32	4821.50
424.50	5064.92
424.69	5198.33
424.88	5160.88
425.07	5130.45
425.26	4940.87
425.45	5064.92
425.64	4994.70
425.83	4999.38
426.01	5116.41
426.20	5186.63
426.39	5053.22
426.58	5104.71
426.77	5111.73
426.96	5371.53
427.15	5111.73
427.33	5324.72
427.52	5233.44
427.71	5416.00
427.90	5387.91
428.09	5394.93
428.28	5425.36
428.46	5476.85
428.65	5526.00
428.84	5605.58
429.03	5465.15
429.22	5474.51
429.40	5495.58
429.59	5598.56
429.78	5383.23
429.97	5355.15
430.16	5579.84
430.34	5610.26
430.53	5949.64
430.72	5738.99
430.91	5682.82
431.10	5568.13
431.28	5748.36
431.47	5820.91
431.66	5877.09
431.85	5865.38
432.03	5919.21
432.22	6094.76
432.41	6097.10
432.60	6104.12
432.79	6078.37
432.97	6129.86
433.16	6057.31
433.35	6218.80
433.54	6209.44
433.72	6300.72
433.91	6200.08
434.10	6314.77
434.28	6113.48
434.47	6136.88
434.66	6298.38
434.85	6497.33
435.03	6494.99
435.22	6420.09
435.41	6590.95
435.59	6544.14
435.78	6462.22
435.97	6377.96
436.16	6415.41
436.34	6628.40
436.53	6724.36
436.72	6843.73
436.90	6537.12
437.09	6836.70
437.28	6743.08
437.46	6602.65
437.65	6906.92
437.84	6817.98
438.02	7075.44
438.21	6970.12
438.40	6766.49
438.58	7260.34
438.77	7073.10
438.96	6909.26
439.14	7307.15
439.33	7269.70
439.52	7297.79
439.70	7424.18
439.89	7520.14
440.08	7538.87
440.26	7536.52
440.45	7442.90
440.63	7538.87
440.82	7658.23
441.01	7616.10
441.19	7740.15
441.38	7974.21
441.57	7660.57
441.75	7894.63
441.94	8166.13
442.12	8039.74
442.31	8126.34
442.50	7976.55
442.68	8053.78
442.87	8313.58
443.05	8250.39
443.24	8456.36
443.43	8238.69
443.61	8439.97
443.80	8603.81
443.98	8086.55
444.17	7932.08
444.35	8472.74
444.54	8505.51
444.73	8397.84
444.91	8430.61
445.10	8510.19
445.28	8507.85
445.47	8493.80
445.65	8339.33
445.84	8594.45
446.02	8472.74
446.21	8475.08
446.39	8596.79
446.58	8519.55
446.77	8585.08
446.95	8461.04
447.14	8582.74
447.32	8751.26
447.51	8879.99
447.69	8683.39
447.88	8510.19
448.06	8697.43
448.25	8559.34
448.43	8512.53
448.62	8741.90
448.80	8578.06
448.99	8847.22
449.17	8950.21
449.36	8737.22
449.54	9029.79
449.73	8882.33
449.91	9177.24
450.10	9186.60
450.28	9219.37
450.46	9224.05
450.65	9179.58
450.83	9231.07
451.02	9055.53
451.20	9357.46
451.39	9202.99
451.57	9596.20
451.76	9221.71
451.94	9198.31
452.13	9467.47
452.31	9481.51
452.49	9364.48
452.68	9504.92
452.86	9490.87
453.05	9570.45
453.23	9619.60
453.42	9432.36
453.60	9558.75
453.78	9809.19
453.97	9687.48
454.15	9694.50
454.34	9715.56
454.52	9741.31
454.70	9692.16
454.89	9949.62
455.07	9827.91
455.26	9921.53
455.44	9933.23
455.62	10047.92
455.81	10087.71
455.99	10036.22
456.17	10122.82
456.36	10087.71
456.54	10361.55
456.73	10363.89
456.91	10523.05
457.09	10469.22
457.28	10583.90
457.46	10509.01
457.64	10726.68
457.83	10499.64
458.01	10558.16
458.19	10881.15
458.38	10738.38
458.56	10920.94
458.74	10799.23
458.93	10820.30
459.11	10925.62
459.29	11033.29
459.48	10794.55
459.66	10981.79
459.84	11089.46
460.03	11227.55
460.21	11063.71
460.39	11105.84
460.57	11147.97
460.76	11213.51
460.94	11421.81
461.12	11468.62
461.31	11281.38
461.49	11321.17
461.67	11365.64
461.85	11599.70
462.04	11424.15
462.22	11672.25
462.40	11693.32
462.59	12030.35
462.77	11688.64
462.95	11730.76
463.13	11754.17
463.32	11688.64
463.50	11847.79
463.68	12098.23
463.86	12205.89
464.05	11723.74
464.23	11714.38
464.41	12131.00
464.59	11686.29
464.78	12262.07
464.96	12067.80
465.14	12119.29
465.32	12081.85
465.50	12299.52
465.69	12369.73
465.87	12348.67
466.05	12327.60
466.23	12313.56
466.41	12306.54
466.60	12556.97
466.78	12201.21
466.96	12283.13
467.14	12367.39
467.32	12788.69
467.51	12599.10
467.69	12341.64
467.87	12652.94
468.05	12931.46
468.23	12559.31
468.41	12622.51
468.60	12765.28
468.78	12816.77
468.96	12631.87
469.14	12739.54
469.32	13043.81
469.50	12959.55
469.69	13158.49
469.87	13144.45
470.05	13561.06
470.23	13488.51
470.41	13448.72
470.59	13755.33
470.77	13488.51
470.95	13312.97
471.14	13617.24
471.32	13273.18
471.50	13727.24
471.68	13855.97
471.86	14127.47
472.04	13909.80
472.22	14209.39
472.40	14033.85
472.58	13851.29
472.77	14389.61
472.95	14190.67
473.13	15019.22
473.31	14471.53
473.49	14277.27
473.67	14420.04
473.85	14452.81
474.03	14822.61
474.21	14974.75
474.39	14965.39
474.57	14843.68
474.75	15087.09
474.93	15161.99
475.12	15133.90
475.30	15190.08
475.48	15288.38
475.66	15499.03
475.84	15417.11
476.02	15419.45
476.20	15674.57
476.38	15660.52
476.56	16456.31
476.74	16030.33
476.92	16072.46
477.10	16142.67
477.28	16320.56
477.46	16388.43
477.64	16613.12
477.82	16952.50
478.00	17156.13
478.18	17188.89
478.36	17153.79
478.54	17469.76
478.72	17341.03
478.90	17411.25
479.08	17694.45
479.26	17905.10
479.44	17820.84
479.62	18068.94
479.80	18068.94
479.98	18401.29
480.16	18904.51
480.34	18700.88
480.52	18885.78
480.70	18857.70
480.88	18616.62
481.06	18995.79
481.24	18850.67
481.41	19346.87
481.59	19503.68
481.77	19854.76
481.95	19805.61
482.13	20088.82
482.31	20355.64
482.49	20219.89
482.67	20748.85
482.85	20554.58
483.03	21259.09
483.21	21125.68
483.39	21418.24
483.57	21184.19
483.74	21532.93
483.92	21568.04
484.10	21315.26
484.28	22160.19
484.46	21979.97
484.64	22991.08
484.82	22452.76
485.00	22525.32
485.18	23208.75
485.35	23386.63
485.53	23227.48
485.71	22810.86
485.89	23964.75
486.07	23454.51
486.25	23763.46
486.43	23953.04
486.61	24208.16
486.78	24678.61
486.96	24748.82
487.14	24893.94
487.32	24844.79
487.50	25106.93
487.68	25560.99
487.85	25682.70
488.03	25926.11
488.21	26132.08
488.39	26125.06
488.57	26324.01
488.75	26698.49
488.92	26663.38
489.10	26785.09
489.28	27218.09
489.46	27697.90
489.64	27365.54
489.81	27779.82
489.99	28292.40
490.17	28170.69
490.35	28339.21
490.53	28861.15
490.70	28709.01
490.88	28762.84
491.06	28807.31
491.24	29221.59
491.41	29652.25
491.59	29759.91
491.77	29935.45
491.95	30169.51
492.13	30394.20
492.30	30118.01
492.48	30672.72
492.66	31094.02
492.84	30855.28
493.01	31061.25
493.19	31094.02
493.37	31424.03
493.54	31805.54
493.72	32189.39
493.90	31952.99
494.08	32275.99
494.25	32517.06
494.43	32730.05
494.61	33172.41
494.79	33015.60
494.96	33266.03
495.14	33317.53
495.32	33720.10
495.49	33640.52
495.67	33631.16
495.85	33942.45
496.02	33855.85
496.20	34707.80
496.38	34167.14
496.55	34700.78
496.73	35498.91
496.91	34906.75
497.09	35220.38
497.26	35613.59
497.44	35374.86
497.62	35882.75
497.79	35997.44
497.97	35583.16
498.14	36484.27
498.32	36933.65
498.50	36418.74
498.67	37024.93
498.85	36786.20
499.03	36734.71
499.20	37516.45
499.38	37436.87
499.56	37502.40
499.73	37867.53
499.91	37837.10
500.08	37904.98
500.26	38000.94
500.44	38513.52
500.61	38291.16
500.79	38712.46
500.97	38726.50
501.14	39189.93
501.32	39468.45
501.49	39189.93
501.67	38993.32
501.84	39564.42
502.02	39447.39
502.20	40084.01
502.37	39826.56
502.55	39648.68
502.72	40299.34
502.90	40076.99
503.07	40041.88
503.25	40582.55
503.43	40203.38
503.60	40617.66
503.78	40680.85
503.95	40671.49
504.13	40465.52
504.30	41350.24
504.48	41092.79
504.65	41453.23
504.83	41663.88
505.01	41591.32
505.18	41865.16
505.36	41937.72
505.53	41680.26
505.71	41958.78
505.88	42485.40
506.06	42146.03
506.23	42646.90
506.41	42471.36
506.58	42658.60
506.76	42955.85
506.93	43330.34
507.11	42656.26
507.28	43112.67
507.46	42990.96
507.63	43660.35
507.81	43772.70
507.98	43325.66
508.16	43969.30
508.33	44172.93
508.50	44203.36
508.68	44177.61
508.85	44685.51
509.03	43950.58
509.20	44430.39
509.38	45230.85
509.55	44931.26
509.73	45310.43
509.90	45015.52
510.08	45422.78
510.25	45207.45
510.42	45268.30
510.60	45502.35
510.77	45446.18
510.95	45911.95
511.12	45883.86
511.30	45507.04
511.47	46038.34
511.64	46096.85
511.82	46806.03
511.99	46377.72
512.17	46506.44
512.34	46225.58
512.51	46600.07
512.69	46721.77
512.86	46773.27
513.04	47117.32
513.21	47213.29
513.38	47138.39
513.56	47377.12
513.73	47501.17
513.90	47641.60
514.08	47498.83
514.25	47782.04
514.43	48069.92
514.60	48144.82
514.77	48360.15
514.95	48523.99
515.12	48004.39
515.29	47938.85
515.47	48664.42
515.64	48594.20
515.81	48435.05
515.99	48858.68
516.16	49139.55
516.33	49006.14
516.51	48935.92
516.68	48685.48
516.85	48900.81
517.03	49422.75
517.20	49626.38
517.37	49394.67
517.54	49476.58
517.72	49450.84
517.89	49507.01
518.06	49694.25
518.24	49776.17
518.41	49794.90
518.58	50101.51
518.75	49640.42
518.93	49949.37
519.10	49921.29
519.27	50391.73
519.45	50499.40
519.62	50358.97
519.79	50525.14
519.96	50150.66
520.14	50878.57
520.31	50724.09
520.48	50768.56
520.65	50450.25
520.83	50925.38
521.00	51093.89
521.17	51330.29
521.34	50993.25
521.52	51475.40
521.69	51327.95
521.86	51349.01
522.03	51791.37
522.20	51791.37
522.38	51999.68
522.55	51798.40
522.72	51601.79
522.89	51828.82
523.07	52097.98
523.24	51758.61
523.41	52282.89
523.58	51983.30
523.75	52596.52
523.92	52200.97
524.10	52467.79
524.27	52488.85
524.44	52556.73
524.61	52610.56
524.78	52882.06
524.96	52699.50
525.13	52783.76
525.30	52982.71
525.47	52928.87
525.64	52985.05
525.81	52940.58
525.98	53036.54
526.16	53083.35
526.33	53216.76
526.50	53464.86
526.67	53308.04
526.84	53240.17
527.01	53179.31
527.18	53268.25
527.36	53242.51
527.53	53450.81
527.70	53741.04
527.87	53979.78
528.04	53624.01
528.21	53631.04
528.38	53614.65
528.55	54007.86
528.72	53958.71
528.89	53794.87
529.07	54021.90
529.24	53886.15
529.41	54162.34
529.58	54197.44
529.75	54204.47
529.92	54155.32
530.09	54396.39
530.26	54344.90
530.43	54272.34
530.60	54192.76
530.77	54188.08
530.94	54475.97
531.11	54372.99
531.28	54396.39
531.46	54382.35
531.63	54679.60
531.80	54838.75
531.97	54805.98
532.14	54958.12
532.31	54939.39
532.48	54981.52
532.65	55323.24
532.82	54759.17
532.99	55248.35
533.16	55042.38
533.33	55332.60
533.50	55196.85
533.67	55318.56
533.84	55210.90
534.01	55267.07
534.18	55367.71
534.35	55622.83
534.52	55358.35
534.69	55650.92
534.86	55826.46
535.03	55728.16
535.20	55587.72
535.37	55845.18
535.54	55688.37
535.71	55569.00
535.88	55875.61
536.05	55730.50
536.22	56114.34
536.38	56112.00
536.55	55842.84
536.72	56079.24
536.89	55927.10
537.06	55847.52
537.23	56126.05
537.40	56016.04
537.57	56060.51
537.74	56137.75
537.91	56271.16
538.08	56123.71
538.25	56163.50
538.42	56310.95
538.59	56500.53
538.75	56383.51
538.92	56435.00
539.09	56727.56
539.26	56495.85
539.43	56659.69
539.60	56633.94
539.77	56545.00
539.94	56872.68
540.11	56533.30
540.28	56842.25
540.44	56666.71
540.61	56807.14
540.78	56753.31
540.95	56760.33
541.12	56657.35
541.29	56814.16
541.46	57006.09
541.62	56612.88
541.79	57048.22
541.96	56793.10
542.13	56956.94
542.30	57134.82
542.47	57394.62
542.63	56954.60
542.80	57062.26
542.97	57361.85
543.14	57523.35
543.31	57684.84
543.48	57598.24
543.64	57757.40
543.81	57638.03
543.98	57607.61
544.15	57570.16
544.32	57764.42
544.48	58054.65
544.65	57689.52
544.82	57621.65
544.99	57729.31
545.16	57862.72
545.32	57804.21
545.49	58178.70
545.66	58328.49
545.83	58089.76
546.00	58071.03
546.16	58035.92
546.33	57853.36
546.50	58031.24
546.67	58211.46
546.83	57584.20
547.00	58181.04
547.17	57937.62
547.34	58049.97
547.50	58216.14
547.67	58459.56
547.84	58466.58
548.00	58485.31
548.17	58632.76
548.34	58330.83
548.51	58419.77
548.67	58494.67
548.84	58628.08
549.01	58398.71
549.18	58548.50
549.34	58628.08
549.51	58770.85
549.68	58651.48
549.84	58663.19
550.01	58834.05
550.18	58534.46
550.34	58827.02
550.51	59007.25
550.68	58944.05
550.84	58553.18
551.01	58829.37
551.18	58801.28
551.34	58915.96
551.51	59082.14
551.68	58770.85
551.84	58688.93
552.01	58745.11
552.18	59318.54
552.34	58904.26
552.51	59220.23
552.68	58969.80
552.84	59018.95
553.01	59330.24
553.18	59035.33
553.34	59292.79
553.51	59037.67
553.67	59079.80
553.84	59344.28
554.01	59292.79
554.17	59281.09
554.34	59323.22
554.51	59440.24
554.67	59463.65
554.84	59323.22
555.00	59419.18
555.17	59554.93
555.33	59325.56
555.50	59391.09
555.67	59377.05
555.83	59327.90
556.00	59508.12
556.16	59788.98
556.33	59671.96
556.50	59686.00
556.66	59786.64
556.83	59365.35
556.99	59863.88
557.16	60001.97
557.32	59821.75
557.49	59784.30
557.65	59875.58
557.82	59611.10
557.98	59683.66
558.15	59725.79
558.32	59875.58
558.48	59824.09
558.65	59856.86
558.81	59828.77
558.98	60009.00
559.14	59887.29
559.31	60083.89
559.47	60158.79
559.64	59908.35
559.80	60065.17
559.97	60257.09
560.13	60158.79
560.30	59955.16
560.46	60030.06
560.63	60236.03
560.79	60072.19
560.96	60189.22
561.12	60207.94
561.29	60233.69
561.45	59910.69
561.61	60111.98
561.78	60151.77
561.94	60229.01
562.11	60128.36
562.27	60100.28
562.44	60378.80
562.60	60395.18
562.77	60317.95
562.93	59990.27
563.10	60322.63
563.26	60161.13
563.42	60498.17
563.59	60453.70
563.75	60121.34
563.92	60353.05
564.08	60339.01
564.24	60505.19
564.41	60418.59
564.57	60507.53
564.74	60390.50
564.90	60439.65
565.07	60308.58
565.23	60395.18
565.39	60505.19
565.56	60516.89
565.72	60247.73
565.88	60568.38
566.05	60594.13
566.21	60575.40
566.38	60580.09
566.54	60640.94
566.70	60781.37
566.87	60905.42
567.03	60425.61
567.19	60772.01
567.36	60622.22
567.52	60750.94
567.68	60772.01
567.85	60734.56
568.01	60734.56
568.17	60474.76
568.34	60811.80
568.50	60725.20
568.66	60570.72
568.83	60835.20
568.99	60650.30
569.15	60683.07
569.32	60523.91
569.48	60404.55
569.64	60643.28
569.81	60729.88
569.97	60762.65
570.13	60757.97
570.30	60844.57
570.46	60853.93
570.62	60762.65
570.78	60889.04
570.95	60727.54
571.11	60928.83
571.27	60835.20
571.43	60849.25
571.60	60917.12
571.76	60837.54
571.92	60973.30
572.09	61008.40
572.25	60818.82
572.41	60905.42
572.57	60919.46
572.74	60882.02
572.90	60963.93
573.06	61022.45
573.22	60938.19
573.38	61071.60
573.55	60891.38
573.71	61205.01
573.87	61123.09
574.03	60800.10
574.20	61013.08
574.36	60804.78
574.52	61055.21
574.68	61102.03
574.84	61123.09
575.01	61095.00
575.17	61087.98
575.33	60933.51
575.49	60959.25
575.65	61066.92
575.82	61036.49
575.98	61167.56
576.14	61434.38
576.30	61216.71
576.46	60842.23
576.62	60872.65
576.79	61144.16
576.95	60942.87
577.11	61059.90
577.27	61268.20
577.43	61144.16
577.59	61186.28
577.75	61092.66
577.92	61008.40
578.08	60987.34
578.24	60985.00
578.40	61193.31
578.56	61066.92
578.72	61261.18
578.88	61378.21
579.04	61300.97
579.21	61219.05
579.37	61443.74
579.53	61315.01
579.69	61064.58
579.85	61200.33
580.01	61254.16
580.17	61130.11
580.33	61366.51
580.49	61427.36
580.65	61226.07
580.82	61286.93
580.98	61181.60
581.14	61041.17
581.30	61382.89
581.46	61167.56
581.62	61155.86
581.78	61216.71
581.94	61256.50
582.10	61312.67
582.26	61329.06
582.42	61043.51
582.58	61298.63
582.74	61209.69
582.90	61336.08
583.06	61307.99
583.22	61244.80
583.38	61254.16
583.54	61408.64
583.70	61254.16
583.86	61300.97
584.02	61095.00
584.18	61228.41
584.34	61352.46
584.50	61265.86
584.66	61261.18
584.82	61263.52
584.98	61418.00
585.14	61305.65
585.30	61125.43
585.46	61296.29
585.62	61324.38
585.78	61497.58
585.94	61296.29
586.10	61378.21
586.26	61406.30
586.42	61214.37
586.58	61642.69
586.74	61319.70
586.90	61333.74
587.06	61300.97
587.22	61506.94
587.38	61394.59
587.54	61525.66
587.70	61656.73
587.86	61506.94
588.02	61389.91
588.18	61525.66
588.34	61146.50
