SpectraSuite Data File
++++++++++++++++++++++++++++++++++++
Date: Fri Oct 25 11:33:50 EDT 2013
User: price-jones
Dark Spectrum Present: No
Reference Spectrum Present: No
Number of Sampled Component Spectra: 1
Spectrometers: USB2+H05261
Integration Time (usec): 100000 (USB2+H05261)
Spectra Averaged: 1 (USB2+H05261)
Boxcar Smoothing: 0 (USB2+H05261)
Correct for Electrical Dark: No (USB2+H05261)
Strobe/Lamp Enabled: No (USB2+H05261)
Correct for Detector Non-linearity: No (USB2+H05261)
Correct for Stray Light: No (USB2+H05261)
Number of Pixels in Processed Spectrum: 2048
>>>>>Begin Processed Spectral Data<<<<<
365.73	252.78
365.92	252.78
366.12	252.78
366.32	243.42
366.52	215.33
366.72	224.69
366.91	119.37
367.11	224.69
367.31	124.05
367.51	112.35
367.70	236.39
367.90	229.37
368.10	231.71
368.30	121.71
368.49	184.90
368.69	203.63
368.89	208.31
369.09	205.97
369.28	184.90
369.48	201.29
369.68	217.67
369.87	227.03
370.07	245.76
370.27	276.18
370.47	315.97
370.66	461.09
370.86	472.79
371.06	580.45
371.25	538.32
371.45	524.28
371.65	543.00
371.84	503.22
372.04	589.82
372.24	624.92
372.44	592.16
372.63	575.77
372.83	594.50
373.03	620.24
373.22	582.79
373.42	613.22
373.62	601.52
373.81	688.12
374.01	676.41
374.21	664.71
374.40	622.58
374.60	606.20
374.79	636.63
374.99	669.39
375.19	624.92
375.38	648.33
375.58	636.63
375.78	704.50
375.97	690.46
376.17	667.05
376.37	739.61
376.56	711.52
376.76	718.54
376.95	627.26
377.15	692.80
377.35	730.25
377.54	662.37
377.74	741.95
377.93	727.91
378.13	704.50
378.33	758.33
378.52	711.52
378.72	716.20
378.91	709.18
379.11	732.59
379.31	723.23
379.50	727.91
379.70	809.83
379.89	765.36
380.09	678.76
380.28	741.95
380.48	737.27
380.68	688.12
380.87	692.80
381.07	744.29
381.26	718.54
381.46	765.36
381.65	798.12
381.85	767.70
382.04	753.65
382.24	770.04
382.43	791.10
382.63	746.63
382.83	748.97
383.02	802.80
383.22	777.06
383.41	835.57
383.61	807.48
383.80	791.10
384.00	826.21
384.19	744.29
384.39	819.19
384.58	849.61
384.78	861.32
384.97	868.34
385.17	795.78
385.36	835.57
385.56	854.30
385.75	847.27
385.95	823.87
386.14	894.08
386.34	924.51
386.53	915.15
386.72	858.98
386.92	837.91
387.11	891.74
387.31	891.74
387.50	901.11
387.70	870.68
387.89	840.25
388.09	952.60
388.28	973.66
388.48	940.90
388.67	938.55
388.86	997.07
389.06	957.28
389.25	1060.26
389.45	924.51
389.64	931.53
389.84	1060.26
390.03	957.28
390.22	880.04
390.42	966.64
390.61	959.62
390.81	950.26
391.00	1015.79
391.19	1069.62
391.39	1121.12
391.58	1132.82
391.78	1071.97
391.97	954.94
392.16	985.37
392.36	1057.92
392.55	1008.77
392.75	1048.56
392.94	1001.75
393.13	1060.26
393.33	1053.24
393.52	1053.24
393.71	1102.39
393.91	1102.39
394.10	1029.84
394.29	1060.26
394.49	994.73
394.68	1057.92
394.88	1198.35
395.07	1224.10
395.26	1102.39
395.46	1172.61
395.65	1060.26
395.84	1151.54
396.04	1324.74
396.23	1203.04
396.42	1104.73
396.62	1238.14
396.81	1200.69
397.00	1268.57
397.19	1158.57
397.39	1219.42
397.58	1217.08
397.77	1252.19
397.97	1242.82
398.16	1226.44
398.35	1277.93
398.55	1315.38
398.74	1289.64
398.93	1315.38
399.12	1378.58
399.32	1315.38
399.51	1362.19
399.70	1355.17
399.90	1378.58
400.09	1401.98
400.28	1385.60
400.47	1397.30
400.67	1404.32
400.86	1488.58
401.05	1416.02
401.24	1376.24
401.44	1514.33
401.63	1467.52
401.82	1444.11
402.01	1394.96
402.21	1504.96
402.40	1446.45
402.59	1469.86
402.78	1416.02
402.97	1645.40
403.17	1526.03
403.36	1481.56
403.55	1547.09
403.74	1558.80
403.93	1497.94
404.13	1605.61
404.32	1586.88
404.51	1612.63
404.70	1638.38
404.89	1689.87
405.09	1699.23
405.28	1717.95
405.47	1680.50
405.66	1778.81
405.85	1598.59
406.05	1729.66
406.24	1717.95
406.43	1720.29
406.62	1792.85
406.81	1792.85
407.00	1839.66
407.20	1774.13
407.39	1699.23
407.58	1804.55
407.77	1797.53
407.96	1956.69
408.15	1853.70
408.34	1771.79
408.54	1795.19
408.73	1944.99
408.92	1952.01
409.11	2050.31
409.30	1975.41
409.49	1980.09
409.68	1987.11
409.87	2017.54
410.07	1994.14
410.26	2043.29
410.45	2029.24
410.64	2031.58
410.83	2122.87
411.02	2094.78
411.21	2122.87
411.40	2160.31
411.59	2172.02
411.78	2260.96
411.98	2200.10
412.17	2106.48
412.36	2331.17
412.55	2267.98
412.74	2361.60
412.93	2349.90
413.12	2321.81
413.31	2469.27
413.50	2361.60
413.69	2370.96
413.88	2403.73
414.07	2457.56
414.26	2455.22
414.45	2438.84
414.64	2541.82
414.83	2520.76
415.02	2602.68
415.22	2600.34
415.41	2719.70
415.60	2738.43
415.79	2717.36
415.98	2715.02
416.17	2649.49
416.36	2743.11
416.55	2827.37
416.74	2810.98
416.93	2895.24
417.12	2803.96
417.31	2846.09
417.50	2761.83
417.69	2958.44
417.88	3005.25
418.07	2974.82
418.26	3101.21
418.45	3061.42
418.64	3108.23
418.83	3084.83
419.02	2991.20
419.21	2993.55
419.39	3091.85
419.58	3094.19
419.77	2998.23
419.96	3119.93
420.15	3201.85
420.34	3115.25
420.53	3173.77
420.72	3155.04
420.91	3141.00
421.10	3295.47
421.29	3297.81
421.48	3117.59
421.67	3251.00
421.86	3251.00
422.05	3426.54
422.24	3318.88
422.43	3435.91
422.61	3358.67
422.80	3428.88
422.99	3438.25
423.18	3302.50
423.37	3538.89
423.56	3529.53
423.75	3344.63
423.94	3288.45
424.13	3208.87
424.32	3279.09
424.50	3471.01
424.69	3534.21
424.88	3489.74
425.07	3337.60
425.26	3379.73
425.45	3442.93
425.64	3302.50
425.83	3428.88
426.01	3595.06
426.20	3513.14
426.39	3431.23
426.58	3400.80
426.77	3386.76
426.96	3452.29
427.15	3515.48
427.33	3688.68
427.52	3576.34
427.71	3578.68
427.90	3552.93
428.09	3545.91
428.28	3623.15
428.46	3742.52
428.65	3772.94
428.84	3854.86
429.03	3754.22
429.22	3644.21
429.40	3765.92
429.59	3852.52
429.78	3723.79
429.97	3557.61
430.16	3854.86
430.34	3817.41
430.53	3817.41
430.72	3904.01
430.91	3861.88
431.10	3826.78
431.28	3885.29
431.47	4051.47
431.66	4030.40
431.85	3957.85
432.03	4032.74
432.22	4072.53
432.41	3960.19
432.60	4060.83
432.79	3967.21
432.97	4058.49
433.16	4262.12
433.35	4058.49
433.54	4175.52
433.72	4084.23
433.91	4180.20
434.10	4236.37
434.28	4152.11
434.47	4212.96
434.66	4311.27
434.85	4241.05
435.03	4269.14
435.22	4407.23
435.41	4461.06
435.59	4430.63
435.78	4444.68
435.97	4376.80
436.16	4322.97
436.34	4451.70
436.53	4353.40
436.72	4379.14
436.90	4407.23
437.09	4512.55
437.28	4547.66
437.46	4447.02
437.65	4428.29
437.84	4617.88
438.02	4470.42
438.21	4667.03
438.40	4493.83
438.58	4634.26
438.77	4765.33
438.96	4786.40
439.14	4835.55
439.33	4847.25
439.52	4957.25
439.70	4966.62
439.89	5102.37
440.08	5104.71
440.26	5097.69
440.45	5076.62
440.63	5004.07
440.82	5217.05
441.01	5057.90
441.19	5226.42
441.38	5408.98
441.57	5408.98
441.75	5357.49
441.94	5296.63
442.12	5434.72
442.31	5495.58
442.50	5495.58
442.68	5373.87
442.87	5355.15
443.05	5638.35
443.24	5467.49
443.43	5488.56
443.61	5582.18
443.80	5666.44
443.98	5530.69
444.17	5177.26
444.35	5535.37
444.54	5586.86
444.73	5586.86
444.91	5699.20
445.10	5600.90
445.28	5481.53
445.47	5572.82
445.65	5668.78
445.84	5673.46
446.02	5668.78
446.21	5710.91
446.39	5626.65
446.58	5816.23
446.77	5825.59
446.95	5516.64
447.14	5701.54
447.32	5617.29
447.51	5832.62
447.69	5664.10
447.88	5790.49
448.06	5633.67
448.25	5746.02
448.43	5884.11
448.62	5680.48
448.80	5645.37
448.99	5888.79
449.17	5947.30
449.36	5811.55
449.54	6160.29
449.73	6125.18
449.91	6153.27
450.10	6087.73
450.28	5994.11
450.46	6204.76
450.65	6019.86
450.83	6033.90
451.02	6160.29
451.20	6221.14
451.39	6249.23
451.57	6230.51
451.76	6157.95
451.94	6143.91
452.13	6310.08
452.31	6293.70
452.49	6115.82
452.68	6211.78
452.86	6314.77
453.05	6239.87
453.23	6317.11
453.42	6263.27
453.60	6258.59
453.78	6375.62
453.97	6202.42
454.15	6347.53
454.34	6361.58
454.52	6413.07
454.70	6399.02
454.89	6530.09
455.07	6726.70
455.26	6829.68
455.44	6803.94
455.62	6707.98
455.81	6719.68
455.99	6553.50
456.17	6700.95
456.36	6715.00
456.54	6899.90
456.73	6820.32
456.91	7009.90
457.09	7190.13
457.28	7136.29
457.46	6946.71
457.64	7105.87
457.83	7000.54
458.01	7101.19
458.19	7255.66
458.38	7225.23
458.56	7155.02
458.74	7133.95
458.93	7208.85
459.11	7145.66
459.29	7360.98
459.48	7192.47
459.66	7199.49
459.84	7246.30
460.03	7325.88
460.21	7356.30
460.39	7197.15
460.57	7393.75
460.76	7454.61
460.94	7412.48
461.12	7494.40
461.31	7269.70
461.49	7627.81
461.67	7524.82
461.85	7641.85
462.04	7812.71
462.22	7978.89
462.40	7948.46
462.59	7875.90
462.77	7698.02
462.95	7866.54
463.13	7810.37
463.32	7833.77
463.50	7857.18
463.68	7955.48
463.86	7934.42
464.05	7754.19
464.23	7885.26
464.41	8098.25
464.59	7880.58
464.78	7962.50
464.96	7967.18
465.14	7793.98
465.32	8128.68
465.50	8126.34
465.69	8098.25
465.87	7976.55
466.05	7934.42
466.23	8124.00
466.41	8140.38
466.60	8329.97
466.78	8318.26
466.96	8147.40
467.14	8236.35
467.32	8114.64
467.51	8414.23
467.69	8187.19
467.87	8428.27
468.05	8365.07
468.23	8201.24
468.41	8374.44
468.60	8336.99
468.78	8472.74
468.96	8393.16
469.14	8458.70
469.32	8580.40
469.50	8531.25
469.69	8655.30
469.87	8793.39
470.05	8777.01
470.23	8863.61
470.41	8865.95
470.59	8641.26
470.77	8851.91
470.95	8664.66
471.14	9097.66
471.32	8659.98
471.50	9116.39
471.68	9163.20
471.86	9053.19
472.04	9008.72
472.22	9130.43
472.40	8990.00
472.58	9179.58
472.77	9116.39
472.95	9242.78
473.13	9652.37
473.31	9224.05
473.49	9287.25
473.67	9413.63
473.85	9451.08
474.03	9671.09
474.21	9568.11
474.39	9753.01
474.57	9666.41
474.75	9708.54
474.93	9841.95
475.12	9888.76
475.30	9996.43
475.48	9900.47
475.66	10052.60
475.84	10106.43
476.02	10244.52
476.20	10352.19
476.38	10354.53
476.56	10317.08
476.74	10415.38
476.92	10422.41
477.10	10487.94
477.28	10661.14
477.46	10604.97
477.64	10736.04
477.82	10810.93
478.00	11019.24
478.18	10998.18
478.36	11262.66
478.54	11204.14
478.72	11492.03
478.90	11503.73
479.08	11527.14
479.26	11573.95
479.44	11644.17
479.62	11761.19
479.80	11705.02
479.98	11932.05
480.16	11997.59
480.34	11953.12
480.52	12266.75
480.70	12208.23
480.88	12273.77
481.06	12334.62
481.24	12351.01
481.41	12535.91
481.59	12706.77
481.77	12842.52
481.95	12854.22
482.13	13034.44
482.31	12912.74
482.49	13317.65
482.67	13165.51
482.85	13455.74
483.03	13437.02
483.21	13706.18
483.39	13666.39
483.57	13760.01
483.74	13582.13
483.92	14204.71
484.10	13905.12
484.28	14057.26
484.46	14263.22
484.64	14623.67
484.82	14513.66
485.00	14656.43
485.18	14974.75
485.35	15073.05
485.53	15049.64
485.71	15044.96
485.89	15379.66
486.07	15119.86
486.25	14960.70
486.43	15573.92
486.61	15859.47
486.78	15948.41
486.96	15894.58
487.14	16147.36
487.32	15838.41
487.50	16594.40
487.68	16343.96
487.85	16718.45
488.03	16863.56
488.21	16877.60
488.39	16526.52
488.57	16723.13
488.75	16952.50
488.92	17130.38
489.10	17462.74
489.28	17619.55
489.46	17853.61
489.64	17584.44
489.81	17994.04
489.99	18038.51
490.17	18155.54
490.35	18525.34
490.53	18553.43
490.70	18534.70
490.88	18494.91
491.06	18967.70
491.24	18572.15
491.41	19016.85
491.59	19124.52
491.77	18813.23
491.95	19112.81
492.13	19419.42
492.30	19594.96
492.48	19597.31
492.66	19894.55
492.84	20072.43
493.01	20247.97
493.19	19726.04
493.37	20269.04
493.54	20318.19
493.72	20535.86
493.90	20526.50
494.08	20769.91
494.25	20957.16
494.43	20718.42
494.61	21205.25
494.79	21455.69
494.96	21329.30
495.14	21406.54
495.32	21762.30
495.49	21479.10
495.67	21724.85
495.85	21986.99
496.02	21958.91
496.20	22544.04
496.38	22047.85
496.55	22321.69
496.73	23260.24
496.91	22464.46
497.09	22649.36
497.26	22815.54
497.44	22963.00
497.62	23126.83
497.79	23396.00
497.97	22911.50
498.14	23426.42
498.32	23632.39
498.50	23438.12
498.67	23878.15
498.85	23417.06
499.03	23836.02
499.20	23922.62
499.38	24067.73
499.56	24416.47
499.73	24212.84
499.91	24669.25
500.08	24884.58
500.26	24556.90
500.44	24535.84
500.61	24638.82
500.79	24559.24
500.97	24910.32
501.14	25350.34
501.32	25212.25
501.49	24957.13
501.67	25113.95
501.84	25376.09
502.02	25467.37
502.20	25572.69
502.37	25919.09
502.55	25724.83
502.72	25813.77
502.90	25724.83
503.07	25699.08
503.25	25998.67
503.43	25975.27
503.60	26511.25
503.78	26335.71
503.95	26328.69
504.13	26553.38
504.30	26370.82
504.48	26675.09
504.65	26742.96
504.83	27129.15
505.01	27037.87
505.18	27030.85
505.36	27463.85
505.53	27267.24
505.71	27520.02
505.88	27276.60
506.06	27356.18
506.23	27789.18
506.41	27592.58
506.58	27793.86
506.76	27955.36
506.93	27974.08
507.11	28074.73
507.28	27999.83
507.46	27651.09
507.63	28474.96
507.81	28676.24
507.98	28339.21
508.16	28205.80
508.33	28905.62
508.50	28601.35
508.68	28720.71
508.85	28910.30
509.03	28467.94
509.20	29230.95
509.38	29043.71
509.55	29376.06
509.73	29081.16
509.90	29223.93
510.08	29029.66
510.25	29186.48
510.42	29425.22
510.60	29589.05
510.77	29898.00
510.95	30085.25
511.12	29448.62
511.30	30036.09
511.47	29537.56
511.64	30356.75
511.82	30480.80
511.99	30113.33
512.17	30244.40
512.34	30323.98
512.51	30174.19
512.69	30529.95
512.86	30691.44
513.04	30859.96
513.21	30567.40
513.38	30677.40
513.56	31173.60
513.73	31164.23
513.90	30909.11
514.08	31377.22
514.25	31255.51
514.43	31761.07
514.60	31587.87
514.77	31587.87
514.95	31536.38
515.12	31929.59
515.29	31447.44
515.47	31707.24
515.64	31868.73
515.81	31969.38
515.99	32147.26
516.16	32498.34
516.33	32322.80
516.51	32126.19
516.68	32067.68
516.85	32591.96
517.03	32645.79
517.20	32870.48
517.37	32989.85
517.54	32950.06
517.72	32648.13
517.89	32875.16
518.06	32844.74
518.24	32769.84
518.41	32856.44
518.58	32999.21
518.75	32945.38
518.93	33266.03
519.10	33446.26
519.27	33153.69
519.45	33500.09
519.62	33387.74
519.79	33628.82
519.96	33425.19
520.14	33961.17
520.31	33600.73
520.48	33776.27
520.65	33818.40
520.83	34033.73
521.00	34061.82
521.17	34218.63
521.34	34256.08
521.52	34319.28
521.69	34136.71
521.86	34611.84
522.03	34373.11
522.20	34775.68
522.38	35093.99
522.55	34672.70
522.72	34604.82
522.89	34986.33
523.07	35445.07
523.24	35278.89
523.41	35349.11
523.58	34991.01
523.75	35723.60
523.92	35381.88
524.10	35189.95
524.27	35295.28
524.44	35679.13
524.61	35552.74
524.78	35835.94
524.96	36023.19
525.13	35857.01
525.30	35903.82
525.47	36023.19
525.64	35913.18
525.81	36053.61
525.98	36390.65
526.16	35835.94
526.33	35857.01
526.50	36430.44
526.67	36556.83
526.84	36458.52
527.01	36505.34
527.18	36959.40
527.36	36477.25
527.53	37069.40
527.70	37207.50
527.87	36755.77
528.04	36437.46
528.21	37134.94
528.38	36772.16
528.55	37516.45
528.72	37046.00
528.89	37123.24
529.07	36987.49
529.24	37057.70
529.41	37273.03
529.58	37233.24
529.75	37425.17
529.92	37301.12
530.09	37275.37
530.26	37612.41
530.43	37865.19
530.60	37102.17
530.77	37954.13
530.94	37820.72
531.11	37647.52
531.28	37904.98
531.46	37937.74
531.63	38190.52
531.80	37942.42
531.97	37691.99
532.14	38560.33
532.31	38073.49
532.48	38490.11
532.65	38658.63
532.82	38686.71
532.99	38553.30
533.16	38445.64
533.33	38370.74
533.50	38700.76
533.67	38773.31
533.84	38485.43
534.01	38693.74
534.18	38763.95
534.35	39215.68
534.52	39173.55
534.69	38848.21
534.86	39297.59
535.03	39012.05
535.20	39342.06
535.37	39538.67
535.54	38988.64
535.71	38831.83
535.88	39601.86
536.05	39274.19
536.22	40179.98
536.38	39398.24
536.55	39510.58
536.72	39651.02
536.89	39695.49
537.06	39445.05
537.23	40140.19
537.40	39381.85
537.57	39627.61
537.74	39370.15
537.91	39952.94
538.08	39962.31
538.25	39676.76
538.42	40423.39
538.59	40601.27
538.75	40299.34
538.92	40369.56
539.09	40381.26
539.26	40179.98
539.43	40055.93
539.60	40458.50
539.77	40484.25
539.94	40762.77
540.11	40767.45
540.28	40751.07
540.44	40540.42
540.61	40521.69
540.78	40631.70
540.95	40914.90
541.12	40680.85
541.29	40444.46
541.46	41184.07
541.62	41474.29
541.79	41375.99
541.96	41212.15
542.13	40933.63
542.30	40891.50
542.47	41191.09
542.63	41631.11
542.80	41303.43
542.97	41783.24
543.14	41647.49
543.31	41893.25
543.48	41514.08
543.64	42099.22
543.81	41495.36
543.98	41706.01
544.15	41914.31
544.32	42190.50
544.48	41860.48
544.65	42038.36
544.82	41874.52
544.99	41785.58
545.16	42054.75
545.32	42302.84
545.49	42335.61
545.66	42312.20
545.83	42333.27
546.00	42424.55
546.16	42576.69
546.33	42562.64
546.50	42286.46
546.67	42398.80
546.83	42054.75
547.00	42394.12
547.17	42321.57
547.34	42651.58
547.50	42682.01
547.67	43236.72
547.84	42962.87
548.00	42829.46
548.17	43154.80
548.34	43140.75
548.51	42824.78
548.67	43466.09
548.84	43100.97
549.01	42843.51
549.18	43290.55
549.34	43255.44
549.51	43332.68
549.68	43180.54
549.84	43250.76
550.01	43405.23
550.18	42913.72
550.34	43346.72
550.51	43463.75
550.68	43297.57
550.84	43571.41
551.01	43459.07
551.18	43316.29
551.34	43484.81
551.51	43871.00
551.68	43679.08
551.84	43555.03
552.01	43742.27
552.18	43707.16
552.34	43709.50
552.51	44165.91
552.68	43650.99
552.84	43866.32
553.01	44240.81
553.18	43924.83
553.34	44800.19
553.51	44093.35
553.67	44388.26
553.84	44123.78
554.01	44449.11
554.17	44306.34
554.34	44329.75
554.51	44004.41
554.67	44619.97
554.84	44584.86
555.00	44147.18
555.17	44182.29
555.33	44905.52
555.50	44641.04
555.67	44278.25
555.83	44692.53
556.00	44217.40
556.16	44985.10
556.33	44563.80
556.50	44870.41
556.66	44460.82
556.83	44683.17
556.99	44772.11
557.16	45415.76
557.32	45050.63
557.49	45111.49
557.65	44608.27
557.82	44678.49
557.98	44650.40
558.15	45270.64
558.32	44957.01
558.48	44804.88
558.65	45059.99
558.81	45453.20
558.98	45338.52
559.14	44725.30
559.31	44720.62
559.47	45024.89
559.64	44940.63
559.80	45289.37
559.97	45261.28
560.13	44856.37
560.30	45471.93
560.46	45815.99
560.63	45375.97
560.79	45507.04
560.96	45551.51
561.12	45727.05
561.29	45574.91
561.45	45177.02
561.61	45610.02
561.78	45001.48
561.94	45661.51
562.11	45565.55
562.27	45841.73
562.44	45261.28
562.60	45902.59
562.77	45846.41
562.93	45261.28
563.10	45930.67
563.26	45406.39
563.42	46094.51
563.59	45825.35
563.75	45226.17
563.92	45914.29
564.08	45783.22
564.24	46316.86
564.41	45500.01
564.57	45815.99
564.74	45839.39
564.90	45998.55
565.07	46050.04
565.23	45942.38
565.39	45432.14
565.56	46265.37
565.72	45708.32
565.88	46085.15
566.05	46052.38
566.21	45500.01
566.38	46078.13
566.54	45860.46
566.70	46260.69
566.87	46021.95
567.03	45907.27
567.19	46506.44
567.36	45951.74
567.52	46309.84
567.68	46124.94
567.85	46323.88
568.01	46677.30
568.17	45970.46
568.34	46204.52
568.50	46801.35
568.66	46209.20
568.83	46382.40
568.99	46248.99
569.15	46408.14
569.32	46286.43
569.48	46073.45
569.64	46749.86
569.81	46380.06
569.97	46780.29
570.13	46258.35
570.30	46529.85
570.46	46878.59
570.62	46609.43
570.78	46740.50
570.95	46483.04
571.11	47030.72
571.27	46478.36
571.43	46443.25
571.60	46309.84
571.76	46298.14
571.92	46586.02
572.09	46534.53
572.25	46284.09
572.41	46403.46
572.57	46471.34
572.74	46967.53
572.90	46623.47
573.06	46995.62
573.22	46499.42
573.38	46784.97
573.55	46803.69
573.71	46780.29
573.87	46602.41
574.03	46766.24
574.20	47363.08
574.36	46777.95
574.52	46960.51
574.68	46621.13
574.84	46745.18
575.01	47133.71
575.17	46820.08
575.33	46621.13
575.49	46358.99
575.65	46824.76
575.82	47166.48
575.98	46733.48
576.14	46801.35
576.30	47255.42
576.46	46880.93
576.62	46639.86
576.79	46897.31
576.95	46490.06
577.11	46574.32
577.27	46873.91
577.43	47100.94
577.59	46986.25
577.75	46490.06
577.92	46597.73
578.08	46787.31
578.24	47192.22
578.40	46983.91
578.56	46813.05
578.72	47229.67
578.88	46808.37
579.04	46869.23
579.21	47051.79
579.37	46869.23
579.53	47143.07
579.69	46920.72
579.85	46806.03
580.01	46782.63
580.17	46689.01
580.33	47421.59
580.49	47012.00
580.65	46958.17
580.82	47253.08
580.98	46951.15
581.14	46707.73
581.30	47316.27
581.46	46930.08
581.62	47051.79
581.78	46679.64
581.94	47260.10
582.10	46890.29
582.26	47515.22
582.42	46721.77
582.58	47157.11
582.74	47061.15
582.90	47089.24
583.06	47063.49
583.22	46887.95
583.38	47206.26
583.54	47173.50
583.70	47402.87
583.86	47255.42
584.02	47056.47
584.18	47358.40
584.34	47332.65
584.50	47423.93
584.66	47138.39
584.82	47112.64
584.98	47384.15
585.14	47276.48
585.30	47295.21
585.46	47264.78
585.62	46679.64
585.78	47276.48
585.94	47178.18
586.10	47068.17
586.26	46983.91
586.42	46864.55
586.58	47260.10
586.74	47143.07
586.90	47002.64
587.06	47150.09
587.22	47283.50
587.38	47276.48
587.54	47248.39
587.70	47547.98
587.86	47175.84
588.02	47000.30
588.18	46871.57
588.34	47370.10
588.49	47508.19
588.65	47248.39
588.81	46981.57
588.97	47182.86
589.13	47327.97
589.29	47445.00
589.45	47435.64
589.61	47547.98
589.77	47166.48
589.93	47491.81
590.08	47730.54
