SpectraSuite Data File
++++++++++++++++++++++++++++++++++++
Date: Fri Oct 25 11:25:09 EDT 2013
User: price-jones
Dark Spectrum Present: No
Reference Spectrum Present: No
Number of Sampled Component Spectra: 1
Spectrometers: USB2+H05261
Integration Time (usec): 100000 (USB2+H05261)
Spectra Averaged: 1 (USB2+H05261)
Boxcar Smoothing: 0 (USB2+H05261)
Correct for Electrical Dark: No (USB2+H05261)
Strobe/Lamp Enabled: No (USB2+H05261)
Correct for Detector Non-linearity: No (USB2+H05261)
Correct for Stray Light: No (USB2+H05261)
Number of Pixels in Processed Spectrum: 2048
>>>>>Begin Processed Spectral Data<<<<<
365.73	250.44
365.92	250.44
366.12	250.44
366.32	184.90
366.52	121.71
366.72	133.41
366.91	140.43
367.11	147.45
367.31	128.73
367.51	147.45
367.70	145.11
367.90	145.11
368.10	124.05
368.30	138.09
368.49	145.11
368.69	159.16
368.89	140.43
369.09	168.52
369.28	112.35
369.48	124.05
369.68	170.86
369.87	231.71
370.07	259.80
370.27	252.78
370.47	327.68
370.66	573.43
370.86	622.58
371.06	667.05
371.25	704.50
371.45	613.22
371.65	641.31
371.84	695.14
372.04	629.60
372.24	723.23
372.44	699.82
372.63	674.07
372.83	746.63
373.03	674.07
373.22	753.65
373.42	695.14
373.62	741.95
373.81	858.98
374.01	784.08
374.21	814.51
374.40	772.38
374.60	744.29
374.79	800.46
374.99	795.78
375.19	798.12
375.38	915.15
375.58	889.40
375.78	929.19
375.97	830.89
376.17	828.55
376.37	863.66
376.56	861.32
376.76	868.34
376.95	847.27
377.15	891.74
377.35	915.15
377.54	887.06
377.74	903.45
377.93	772.38
378.13	919.83
378.33	919.83
378.52	931.53
378.72	978.34
378.91	905.79
379.11	940.90
379.31	919.83
379.50	903.45
379.70	999.41
379.89	915.15
380.09	966.64
380.28	915.15
380.48	908.13
380.68	1020.47
380.87	1048.56
381.07	997.07
381.26	999.41
381.46	1069.62
381.65	985.37
381.85	1062.60
382.04	1036.86
382.24	994.73
382.43	1109.41
382.63	1034.52
382.83	1008.77
383.02	1156.22
383.22	1165.59
383.41	1086.01
383.61	1050.90
383.80	1139.84
384.00	1086.01
384.19	1139.84
384.39	1214.74
384.58	1102.39
384.78	1139.84
384.97	1060.26
385.17	1132.82
385.36	1165.59
385.56	1188.99
385.75	1238.14
385.95	1181.97
386.14	1158.57
386.34	1224.10
386.53	1174.95
386.72	1226.44
386.92	1228.78
387.11	1142.18
387.31	1214.74
387.50	1238.14
387.70	1273.25
387.89	1252.19
388.09	1212.40
388.28	1238.14
388.48	1203.04
388.67	1320.06
388.86	1308.36
389.06	1226.44
389.25	1308.36
389.45	1352.83
389.64	1296.66
389.84	1299.00
390.03	1392.62
390.22	1409.00
390.42	1394.96
390.61	1348.15
390.81	1397.30
391.00	1416.02
391.19	1469.86
391.39	1355.17
391.58	1481.56
391.78	1490.92
391.97	1479.22
392.16	1434.75
392.36	1453.47
392.55	1516.67
392.75	1563.48
392.94	1558.80
393.13	1610.29
393.33	1467.52
393.52	1502.62
393.71	1614.97
393.91	1547.09
394.10	1610.29
394.29	1558.80
394.49	1500.28
394.68	1605.61
394.88	1647.74
395.07	1724.97
395.26	1593.90
395.46	1689.87
395.65	1640.72
395.84	1743.70
396.04	1834.98
396.23	1701.57
396.42	1757.74
396.62	1806.89
396.81	1851.36
397.00	1736.68
397.19	1858.39
397.39	1781.15
397.58	1764.76
397.77	1774.13
397.97	1858.39
398.16	1760.08
398.35	1816.26
398.55	1832.64
398.74	1872.43
398.93	2052.65
399.12	1886.47
399.32	1853.70
399.51	1909.88
399.70	1982.43
399.90	1966.05
400.09	2003.50
400.28	2097.12
400.47	2040.95
400.67	2160.31
400.86	2129.89
401.05	2071.37
401.24	2118.18
401.44	2094.78
401.63	2120.53
401.82	2202.44
402.01	2155.63
402.21	2125.21
402.40	2083.08
402.59	2078.40
402.78	2106.48
402.97	2169.68
403.17	2342.88
403.36	2272.66
403.55	2223.51
403.74	2249.25
403.93	2298.41
404.13	2300.75
404.32	2321.81
404.51	2427.14
404.70	2459.90
404.89	2427.14
405.09	2499.69
405.28	2394.37
405.47	2462.24
405.66	2485.65
405.85	2448.20
406.05	2513.74
406.24	2504.37
406.43	2600.34
406.62	2583.95
406.81	2679.91
407.00	2633.10
407.20	2518.42
407.39	2469.27
407.58	2710.34
407.77	2663.53
407.96	2733.75
408.15	2705.66
408.34	2731.41
408.54	2801.62
408.73	2745.45
408.92	2888.22
409.11	2843.75
409.30	2693.96
409.49	2867.16
409.68	2839.07
409.87	2928.01
410.07	3019.29
410.26	3056.74
410.45	2916.31
410.64	2965.46
410.83	2963.12
411.02	3052.06
411.21	3103.55
411.40	3089.51
411.59	3279.09
411.78	3110.57
411.98	3201.85
412.17	3236.96
412.36	3262.71
412.55	3435.91
412.74	3363.35
412.93	3417.18
413.12	3316.54
413.31	3691.02
413.50	3321.22
413.69	3431.23
413.88	3618.47
414.07	3695.71
414.26	3485.06
414.45	3707.41
414.64	3595.06
414.83	3655.92
415.02	3770.60
415.22	3763.58
415.41	3712.09
415.60	3843.16
415.79	3822.09
415.98	4053.81
416.17	4032.74
416.36	3826.78
416.55	4105.30
416.74	4004.66
416.93	4095.94
417.12	4231.69
417.31	4149.77
417.50	4060.83
417.69	4194.24
417.88	4229.35
418.07	4229.35
418.26	4348.72
418.45	4283.18
418.64	4337.01
418.83	4428.29
419.02	4341.69
419.21	4365.10
419.39	4573.41
419.58	4416.59
419.77	4362.76
419.96	4489.15
420.15	4505.53
420.34	4650.64
420.53	4526.60
420.72	4608.51
420.91	4746.61
421.10	4674.05
421.29	4662.35
421.48	4599.15
421.67	4802.78
421.86	4650.64
422.05	4744.27
422.24	4760.65
422.43	4674.05
422.61	4917.47
422.80	4905.76
422.99	4746.61
423.18	4887.04
423.37	4919.81
423.56	4823.84
423.75	4816.82
423.94	4737.24
424.13	4545.32
424.32	4770.01
424.50	4898.74
424.69	4975.98
424.88	4858.95
425.07	4903.42
425.26	4861.29
425.45	4793.42
425.64	4922.15
425.83	4959.60
426.01	5085.98
426.20	4964.28
426.39	4990.02
426.58	4992.36
426.77	5057.90
426.96	5020.45
427.15	5025.13
427.33	5186.63
427.52	5163.22
427.71	5317.70
427.90	5198.33
428.09	5284.93
428.28	5296.63
428.46	5277.91
428.65	5313.02
428.84	5488.56
429.03	5493.24
429.22	5195.99
429.40	5289.61
429.59	5486.22
429.78	5373.87
429.97	5249.82
430.16	5486.22
430.34	5542.39
430.53	5654.73
430.72	5682.82
430.91	5551.75
431.10	5621.97
431.28	5738.99
431.47	5785.80
431.66	5657.07
431.85	5912.19
432.03	5834.96
432.22	5937.94
432.41	5804.53
432.60	5930.92
432.79	5771.76
432.97	5694.52
433.16	5858.36
433.35	5863.04
433.54	5907.51
433.72	6101.78
433.91	6150.93
434.10	6239.87
434.28	6094.76
434.47	6235.19
434.66	6164.97
434.85	6223.48
435.03	6186.04
435.22	6174.33
435.41	6420.09
435.59	6314.77
435.78	6422.43
435.97	6530.09
436.16	6420.09
436.34	6328.81
436.53	6466.90
436.72	6567.54
436.90	6410.73
437.09	6773.51
437.28	6363.92
437.46	6560.52
437.65	6457.54
437.84	6527.75
438.02	6682.23
438.21	6710.32
438.40	6651.80
438.58	6881.18
438.77	7103.53
438.96	6918.62
439.14	7229.91
439.33	7185.44
439.52	7014.59
439.70	7056.72
439.89	7297.79
440.08	7445.24
440.26	7295.45
440.45	7356.30
440.63	7365.67
440.82	7571.63
441.01	7311.83
441.19	7534.18
441.38	7538.87
441.57	7683.98
441.75	7660.57
441.94	7822.07
442.12	7962.50
442.31	8002.29
442.50	7943.78
442.68	7691.00
442.87	8063.15
443.05	8009.31
443.24	8189.53
443.43	8163.79
443.61	8189.53
443.80	8393.16
443.98	8100.59
444.17	7838.45
444.35	8023.36
444.54	8318.26
444.73	8236.35
444.91	8194.22
445.10	8280.82
445.28	8191.88
445.47	8222.30
445.65	8231.66
445.84	8269.11
446.02	8561.68
446.21	8390.82
446.39	8250.39
446.58	8400.18
446.77	8512.53
446.95	8191.88
447.14	8248.05
447.32	8461.04
447.51	8226.98
447.69	8177.83
447.88	8573.38
448.06	8250.39
448.25	8327.63
448.43	8475.08
448.62	8580.40
448.80	8521.89
448.99	8636.58
449.17	8549.98
449.36	8631.90
449.54	8760.63
449.73	8826.16
449.91	8968.93
450.10	8905.74
450.28	8994.68
450.46	9118.73
450.65	9055.53
450.83	8990.00
451.02	8936.17
451.20	9097.66
451.39	9156.18
451.57	9116.39
451.76	9027.45
451.94	9104.68
452.13	9415.98
452.31	9343.42
452.49	8959.57
452.68	9378.53
452.86	9158.52
453.05	9458.10
453.23	9378.53
453.42	9453.42
453.60	9268.52
453.78	9275.54
453.97	9378.53
454.15	9406.61
454.34	9322.35
454.52	9692.16
454.70	9607.90
454.89	9619.60
455.07	9703.86
455.26	9612.58
455.44	9980.04
455.62	9860.68
455.81	9645.35
455.99	10003.45
456.17	9909.83
456.36	10036.22
456.54	10111.11
456.73	10033.88
456.91	10289.00
457.09	10305.38
457.28	10333.47
457.46	10441.13
457.64	10431.77
457.83	10396.66
458.01	10277.29
458.19	10649.44
458.38	10567.52
458.56	10574.54
458.74	10619.01
458.93	10607.31
459.11	10768.80
459.29	10738.38
459.48	10766.46
459.66	10501.98
459.84	10712.63
460.03	10890.51
460.21	10918.60
460.39	10829.66
460.57	11021.58
460.76	10916.26
460.94	11190.10
461.12	11101.16
461.31	11000.52
461.49	11164.36
461.67	11129.25
461.85	11487.35
462.04	11197.12
462.22	11913.33
462.40	11494.37
462.59	11412.45
462.77	11293.08
462.95	11545.86
463.13	11440.54
463.32	11618.42
463.50	11651.19
463.68	11508.41
463.86	11733.11
464.05	11506.07
464.23	11805.66
464.41	11779.92
464.59	11630.12
464.78	12320.58
464.96	11929.71
465.14	11903.96
465.32	11957.80
465.50	11983.54
465.69	12203.55
465.87	11950.78
466.05	11749.49
466.23	11791.62
466.41	11962.48
466.60	12367.39
466.78	11920.35
466.96	12131.00
467.14	12285.47
467.32	12308.88
467.51	12362.71
467.69	12135.68
467.87	12135.68
468.05	12676.34
468.23	12168.45
468.41	12191.85
468.60	12678.68
468.78	12652.94
468.96	12568.68
469.14	12786.35
469.32	12769.96
469.50	12421.22
469.69	12872.95
469.87	12793.37
470.05	13118.70
470.23	13130.41
470.41	12929.12
470.59	13118.70
470.77	13095.30
470.95	13195.94
471.14	13380.84
471.32	13266.16
471.50	13628.94
471.68	13298.92
471.86	13483.83
472.04	13518.93
472.22	14253.86
472.40	13760.01
472.58	13816.18
472.77	14001.08
472.95	14101.73
473.13	14778.14
473.31	14185.99
473.49	13909.80
473.67	14010.45
473.85	14218.75
474.03	14590.90
474.21	14597.92
474.39	14675.16
474.57	14520.68
474.75	14698.56
474.93	14920.92
475.12	14846.02
475.30	14892.83
475.48	15059.01
475.66	15077.73
475.84	14764.10
476.02	15073.05
476.20	15428.81
476.38	15838.41
476.56	15702.65
476.74	15868.83
476.92	15611.37
477.10	15887.56
477.28	15854.79
477.46	16147.36
477.64	16262.04
477.82	16205.87
478.00	16802.71
478.18	16496.10
478.36	16566.31
478.54	17071.87
478.72	17111.66
478.90	17181.87
479.08	17348.05
479.26	17661.68
479.44	17460.40
479.62	17561.04
479.80	17860.63
479.98	17914.46
480.16	18288.95
480.34	18366.18
480.52	18473.85
480.70	18508.96
480.88	18153.20
481.06	18801.52
481.24	18710.24
481.41	18941.96
481.59	19335.17
481.77	19452.19
481.95	19293.04
482.13	19311.76
482.31	19695.61
482.49	20023.28
482.67	19915.62
482.85	20467.98
483.03	20475.01
483.21	20673.95
483.39	20753.53
483.57	20702.04
483.74	20769.91
483.92	20837.79
484.10	21088.23
484.28	21479.10
484.46	21867.63
484.64	22045.51
484.82	21710.81
485.00	22012.74
485.18	22555.74
485.35	22696.17
485.53	22728.94
485.71	22712.56
485.89	23316.42
486.07	23618.35
486.25	23040.23
486.43	23449.83
486.61	23613.66
486.78	24212.84
486.96	24023.26
487.14	24364.98
487.32	24526.47
487.50	24395.40
487.68	24329.87
487.85	25420.56
488.03	25235.66
488.21	25511.84
488.39	25713.13
488.57	25816.11
488.75	25743.55
488.92	26345.07
489.10	26279.54
489.28	26410.60
489.46	27007.44
489.64	26815.52
489.81	27435.76
489.99	27379.59
490.17	27454.48
490.35	27864.08
490.53	27983.44
490.70	27899.19
490.88	28091.11
491.06	28823.70
491.24	28713.69
491.41	28732.42
491.59	29270.74
491.77	28985.19
491.95	29472.03
492.13	29446.28
492.30	29844.17
492.48	29591.39
492.66	29776.30
492.84	30277.17
493.01	30721.87
493.19	30192.91
493.37	31014.44
493.54	30864.64
493.72	31229.77
493.90	31225.09
494.08	31531.70
494.25	31779.79
494.43	31353.82
494.61	31889.80
494.79	32222.16
494.96	32336.84
495.14	32304.07
495.32	32741.75
495.49	33008.58
495.67	32788.56
495.85	33535.20
496.02	33392.42
496.20	33610.09
496.38	33563.28
496.55	34050.11
496.73	34611.84
496.91	33682.65
497.09	34209.27
497.26	34511.20
497.44	34527.58
497.62	35086.97
497.79	35686.15
497.97	34752.27
498.14	36027.87
498.32	35765.73
498.50	36025.53
498.67	35967.01
498.85	36135.53
499.03	36645.77
499.20	36250.22
499.38	36458.52
499.56	36907.91
499.73	36634.06
499.91	36739.39
500.08	37495.38
500.26	37258.99
500.44	37240.26
500.61	37663.90
500.79	37434.53
500.97	37645.18
501.14	37748.16
501.32	38164.78
501.49	38141.37
501.67	38576.71
501.84	38525.22
502.02	38913.75
502.20	38876.30
502.37	38916.09
502.55	38934.81
502.72	38597.77
502.90	39405.26
503.07	38815.44
503.25	39470.79
503.43	39110.35
503.60	40224.45
503.78	39999.76
503.95	40191.68
504.13	40458.50
504.30	40287.64
504.48	40547.44
504.65	40123.80
504.83	40737.02
505.01	40643.40
505.18	41289.39
505.36	41640.47
505.53	41148.96
505.71	41254.28
505.88	41614.72
506.06	41071.72
506.23	41464.93
506.41	41504.72
506.58	41823.03
506.76	41553.87
506.93	41909.63
507.11	41982.19
507.28	42115.60
507.46	41876.86
507.63	42595.41
507.81	42749.88
507.98	42761.59
508.16	42955.85
508.33	43229.69
508.50	43178.20
508.68	43643.97
508.85	43543.33
509.03	43562.05
509.20	43622.90
509.38	44170.59
509.55	43866.32
509.73	44306.34
509.90	44526.35
510.08	44126.12
510.25	44797.85
510.42	44245.49
510.60	44657.42
510.77	44917.22
510.95	44999.14
511.12	44776.79
511.30	44706.57
511.47	44994.46
511.64	44914.88
511.82	45567.89
511.99	44942.97
512.17	45319.79
512.34	45808.96
512.51	45890.88
512.69	45954.08
512.86	45979.82
513.04	46555.60
513.21	45940.04
513.38	46363.67
513.56	46431.55
513.73	46841.14
513.90	46857.52
514.08	46541.55
514.25	46993.28
514.43	47384.15
514.60	47442.66
514.77	47065.83
514.95	47250.74
515.12	47463.72
515.29	47353.72
515.47	47690.76
515.64	48023.11
515.81	47650.97
515.99	47999.71
516.16	48308.66
516.33	48198.65
516.51	48175.25
516.68	48200.99
516.85	47997.37
517.03	48863.36
517.20	48673.78
517.37	48095.67
517.54	48570.80
517.72	48589.52
517.89	48732.29
518.06	48985.07
518.24	48978.05
518.41	49064.65
518.58	49162.95
518.75	48938.26
518.93	49130.19
519.10	49188.70
519.27	49111.46
519.45	49584.25
519.62	49778.51
519.79	49612.34
519.96	49694.25
520.14	49872.14
520.31	49741.06
520.48	50019.59
520.65	50068.74
520.83	50291.09
521.00	50319.18
521.17	50288.75
521.34	50295.77
521.52	50759.20
521.69	50635.15
521.86	50466.63
522.03	50775.58
522.20	50887.93
522.38	51121.98
522.55	51019.00
522.72	51236.67
522.89	50981.55
523.07	51234.33
523.24	51166.45
523.41	51437.95
523.58	51100.92
523.75	51676.69
523.92	51351.35
524.10	51730.52
524.27	51428.59
524.44	51952.87
524.61	51952.87
524.78	51903.72
524.96	51903.72
525.13	52226.71
525.30	52222.03
525.47	52074.58
525.64	52306.29
525.81	52512.26
525.98	52566.09
526.16	52390.55
526.33	52577.79
526.50	52940.58
526.67	52432.68
526.84	52669.08
527.01	52175.22
527.18	52762.70
527.36	52722.91
527.53	52933.56
527.70	53092.71
527.87	53167.61
528.04	52629.29
528.21	53027.18
528.38	53134.84
528.55	53291.66
528.72	53242.51
528.89	53052.92
529.07	53160.59
529.24	53319.74
529.41	53712.95
529.58	53453.15
529.75	53270.59
529.92	53474.22
530.09	53682.53
530.26	53872.11
530.43	53783.17
530.60	53705.93
530.77	53537.41
530.94	54204.47
531.11	53862.75
531.28	54007.86
531.46	53743.38
531.63	53956.37
531.80	53886.15
531.97	54000.84
532.14	54143.61
532.31	54239.57
532.48	54368.30
532.65	54176.38
532.82	54239.57
532.99	54607.04
533.16	54326.17
533.33	54466.61
533.50	54749.81
533.67	54705.34
533.84	54733.43
534.01	54429.16
534.18	54766.20
534.35	54862.16
534.52	54897.27
534.69	54864.50
534.86	54972.16
535.03	54703.00
535.20	54838.75
535.37	55243.66
535.54	55154.72
535.71	55103.23
535.88	55171.11
536.05	55466.02
536.22	55290.48
536.38	55311.54
536.55	55412.18
536.72	55641.56
536.89	55110.25
537.06	55505.80
537.23	55571.34
537.40	55379.42
537.57	55573.68
537.74	55480.06
537.91	55426.23
538.08	55695.39
538.25	55393.46
538.42	55597.09
538.59	55924.76
538.75	55526.87
538.92	55854.54
539.09	56016.04
539.26	55730.50
539.43	55774.97
539.60	56130.73
539.77	56245.41
539.94	56186.90
540.11	56126.05
540.28	56383.51
540.44	56039.45
540.61	56264.14
540.78	56189.24
540.95	56334.35
541.12	56315.63
541.29	56348.40
541.46	56385.85
541.62	56439.68
541.79	56458.40
541.96	56147.11
542.13	56519.26
542.30	56435.00
542.47	56587.13
542.63	56631.60
542.80	56657.35
542.97	56727.56
543.14	57146.52
543.31	57158.22
543.48	56818.84
543.64	57319.72
543.81	57139.50
543.98	57183.97
544.15	57394.62
544.32	57228.44
544.48	57293.97
544.65	57073.96
544.82	57179.29
544.99	57109.07
545.16	57165.24
545.32	57286.95
545.49	57399.30
545.66	57492.92
545.83	57385.25
546.00	57462.49
546.16	57296.31
546.33	57392.28
546.50	57249.50
546.67	57546.75
546.83	57174.61
547.00	57741.02
547.17	57483.56
547.34	57698.89
547.50	57677.82
547.67	57879.11
547.84	57694.21
548.00	57893.15
548.17	58031.24
548.34	57897.83
548.51	57970.39
548.67	58028.90
548.84	57916.56
549.01	57780.81
549.18	57881.45
549.34	58206.78
549.51	58068.69
549.68	58157.63
549.84	58141.25
550.01	58218.49
550.18	58145.93
550.34	58183.38
550.51	58295.72
550.68	58129.54
550.84	58005.50
551.01	58230.19
551.18	58127.20
551.34	58468.92
551.51	58234.87
551.68	58440.84
551.84	58365.94
552.01	58450.20
552.18	58464.24
552.34	58253.59
552.51	58630.42
552.68	58368.28
552.84	58408.07
553.01	58487.65
553.18	58738.08
553.34	58412.75
553.51	58702.98
553.67	58602.33
553.84	58700.64
554.01	58808.30
554.17	58922.99
554.34	58845.75
554.51	58857.45
554.67	58904.26
554.84	58710.00
555.00	58766.17
555.17	58787.24
555.33	58960.44
555.50	58560.20
555.67	58951.07
555.83	58621.06
556.00	59084.48
556.16	59117.25
556.33	59051.72
556.50	59002.56
556.66	59171.08
556.83	58915.96
556.99	59054.06
557.16	59231.94
557.32	59379.39
557.49	59358.33
557.65	59173.42
557.82	59257.68
557.98	59407.48
558.15	59229.60
558.32	59465.99
558.48	59128.95
558.65	59302.15
558.81	59325.56
558.98	59245.98
559.14	59323.22
559.31	59444.93
559.47	59405.14
559.64	59599.40
559.80	59629.83
559.97	59550.25
560.13	59437.90
560.30	59615.79
560.46	59484.72
560.63	59756.22
560.79	59590.04
560.96	59660.26
561.12	59625.15
561.29	59686.00
561.45	59707.07
561.61	59735.15
561.78	59646.21
561.94	59468.33
562.11	59700.04
562.27	59833.46
562.44	59704.73
562.60	59718.77
562.77	59763.24
562.93	59711.75
563.10	60020.70
563.26	59735.15
563.42	59971.55
563.59	59721.11
563.75	59681.32
563.92	59903.67
564.08	59653.23
564.24	60102.62
564.41	59852.18
564.57	60023.04
564.74	59976.23
564.90	59896.65
565.07	59753.88
565.23	59952.82
565.39	60018.36
565.56	60072.19
565.72	59861.54
565.88	60161.13
566.05	59969.21
566.21	59877.93
566.38	59941.12
566.54	60191.56
566.70	60163.47
566.87	60154.11
567.03	59831.11
567.19	60257.09
567.36	60027.72
567.52	60001.97
567.68	60324.97
567.85	60268.79
568.01	60233.69
568.17	59950.48
568.34	60266.45
568.50	60041.76
568.66	60214.96
568.83	60353.05
568.99	59976.23
569.15	59931.76
569.32	60289.86
569.48	60119.00
569.64	60343.69
569.81	60207.94
569.97	60102.62
570.13	60395.18
570.30	60299.22
570.46	60362.42
570.62	60317.95
570.78	60189.22
570.95	60308.58
571.11	60385.82
571.27	60331.99
571.43	60460.72
571.60	60484.12
571.76	60388.16
571.92	60420.93
572.09	60257.09
572.25	60449.02
572.41	60346.03
572.57	60243.05
572.74	60446.68
572.90	60341.35
573.06	60474.76
573.22	60392.84
573.38	60369.44
573.55	60491.15
573.71	60626.90
573.87	60430.29
574.03	60214.96
574.20	60568.38
574.36	60472.42
574.52	60507.53
574.68	60507.53
574.84	60617.53
575.01	60671.37
575.17	60624.56
575.33	60388.16
575.49	60516.89
575.65	60732.22
575.82	60549.66
575.98	60650.30
576.14	60690.09
576.30	60645.62
576.46	60420.93
576.62	60566.04
576.79	60390.50
576.95	60598.81
577.11	60743.92
577.27	60669.03
577.43	60729.88
577.59	60624.56
577.75	60381.14
577.92	60720.52
578.08	60544.98
578.24	60636.26
578.40	60793.07
578.56	60891.38
578.72	60591.79
578.88	60762.65
579.04	60685.41
579.21	60774.35
579.37	60769.67
579.53	60715.84
579.69	60507.53
579.85	60821.16
580.01	60757.97
580.17	60552.00
580.33	60570.72
580.49	60790.73
580.65	60596.47
580.82	60830.52
580.98	60694.77
581.14	60715.84
581.30	60867.97
581.46	60638.60
581.62	60767.33
581.78	60713.50
581.94	60865.63
582.10	60479.44
582.26	60732.22
582.42	60755.63
582.58	60725.20
582.74	60544.98
582.90	60619.88
583.06	60830.52
583.22	60612.85
583.38	60764.99
583.54	60952.23
583.70	60793.07
583.86	60804.78
584.02	60905.42
584.18	60837.54
584.34	60818.82
584.50	60828.18
584.66	60666.69
584.82	60570.72
584.98	60870.31
585.14	60921.80
585.30	60704.13
585.46	60802.44
585.62	60907.76
585.78	61038.83
585.94	60835.20
586.10	60608.17
586.26	61001.38
586.42	60966.27
586.58	61055.21
586.74	60722.86
586.90	60727.54
587.06	60788.39
587.22	60942.87
587.38	60804.78
587.54	60828.18
587.70	60940.53
587.86	60910.10
588.02	60807.12
588.18	61116.07
588.34	60629.24
588.49	60704.13
