SpectraSuite Data File
++++++++++++++++++++++++++++++++++++
Date: Fri Oct 25 10:47:50 EDT 2013
User: price-jones
Dark Spectrum Present: No
Reference Spectrum Present: No
Number of Sampled Component Spectra: 1
Spectrometers: USB2+H05261
Integration Time (usec): 100000 (USB2+H05261)
Spectra Averaged: 1 (USB2+H05261)
Boxcar Smoothing: 0 (USB2+H05261)
Correct for Electrical Dark: No (USB2+H05261)
Strobe/Lamp Enabled: No (USB2+H05261)
Correct for Detector Non-linearity: No (USB2+H05261)
Correct for Stray Light: No (USB2+H05261)
Number of Pixels in Processed Spectrum: 2048
>>>>>Begin Processed Spectral Data<<<<<
365.73	142.77
365.92	142.77
366.12	142.77
366.32	53.83
366.52	9.36
366.72	95.96
366.91	70.22
367.11	32.77
367.31	0.00
367.51	30.43
367.70	72.56
367.90	16.38
368.10	53.83
368.30	14.04
368.49	30.43
368.69	112.35
368.89	30.43
369.09	84.26
369.28	112.35
369.48	88.94
369.68	133.41
369.87	126.39
370.07	84.26
370.27	98.30
370.47	182.56
370.66	381.51
370.86	346.40
371.06	390.87
371.25	486.83
371.45	381.51
371.65	510.24
371.84	468.11
372.04	442.36
372.24	547.69
372.44	430.66
372.63	475.13
372.83	491.51
373.03	493.85
373.22	510.24
373.42	531.30
373.62	545.34
373.81	538.32
374.01	543.00
374.21	491.51
374.40	627.26
374.60	489.17
374.79	505.56
374.99	645.99
375.19	617.90
375.38	667.05
375.58	545.34
375.78	575.77
375.97	479.81
376.17	638.97
376.37	610.88
376.56	608.54
376.76	589.82
376.95	538.32
377.15	629.60
377.35	669.39
377.54	587.47
377.74	571.09
377.93	564.07
378.13	580.45
378.33	650.67
378.52	629.60
378.72	683.44
378.91	592.16
379.11	543.00
379.31	638.97
379.50	622.58
379.70	739.61
379.89	664.71
380.09	650.67
380.28	681.10
380.48	748.97
380.68	739.61
380.87	697.48
381.07	720.88
381.26	690.46
381.46	615.56
381.65	674.07
381.85	713.86
382.04	660.03
382.24	671.73
382.43	763.01
382.63	704.50
382.83	711.52
383.02	657.69
383.22	718.54
383.41	671.73
383.61	713.86
383.80	734.93
384.00	718.54
384.19	688.12
384.39	727.91
384.58	741.95
384.78	781.74
384.97	723.23
385.17	760.67
385.36	765.36
385.56	791.10
385.75	786.42
385.95	734.93
386.14	739.61
386.34	779.40
386.53	770.04
386.72	819.19
386.92	877.70
387.11	772.38
387.31	788.76
387.50	767.70
387.70	840.25
387.89	896.43
388.09	812.17
388.28	807.48
388.48	844.93
388.67	908.13
388.86	903.45
389.06	933.87
389.25	919.83
389.45	983.02
389.64	957.28
389.84	870.68
390.03	912.81
390.22	924.51
390.42	858.98
390.61	908.13
390.81	961.96
391.00	1018.13
391.19	1013.45
391.39	987.71
391.58	1022.81
391.78	922.17
391.97	976.00
392.16	931.53
392.36	1034.52
392.55	1046.22
392.75	1034.52
392.94	943.24
393.13	947.92
393.33	947.92
393.52	889.40
393.71	1083.67
393.91	1027.50
394.10	1013.45
394.29	1107.07
394.49	1060.26
394.68	1128.14
394.88	1219.42
395.07	1121.12
395.26	1132.82
395.46	1104.73
395.65	1118.78
395.84	1193.67
396.04	1177.29
396.23	1128.14
396.42	1203.04
396.62	1121.12
396.81	1217.08
397.00	1118.78
397.19	1186.65
397.39	1097.71
397.58	1214.74
397.77	1301.34
397.97	1303.68
398.16	1228.78
398.35	1275.59
398.55	1254.53
398.74	1320.06
398.93	1259.21
399.12	1277.93
399.32	1282.61
399.51	1294.32
399.70	1341.13
399.90	1469.86
400.09	1373.89
400.28	1392.62
400.47	1329.42
400.67	1430.07
400.86	1465.18
401.05	1497.94
401.24	1472.20
401.44	1507.30
401.63	1502.62
401.82	1533.05
402.01	1423.05
402.21	1533.05
402.40	1561.14
402.59	1504.96
402.78	1479.22
402.97	1549.43
403.17	1549.43
403.36	1607.95
403.55	1650.08
403.74	1600.93
403.93	1678.16
404.13	1650.08
404.32	1633.69
404.51	1619.65
404.70	1797.53
404.89	1680.50
405.09	1729.66
405.28	1696.89
405.47	1792.85
405.66	1692.21
405.85	1710.93
406.05	1760.08
406.24	1818.60
406.43	1830.30
406.62	1804.55
406.81	1909.88
407.00	1753.06
407.20	1760.08
407.39	1795.19
407.58	1956.69
407.77	1863.07
407.96	1970.73
408.15	2076.06
408.34	1940.30
408.54	1895.83
408.73	1947.33
408.92	2054.99
409.11	2022.22
409.30	1973.07
409.49	2169.68
409.68	2160.31
409.87	1961.37
410.07	2052.65
410.26	2115.84
410.45	2146.27
410.64	2139.25
410.83	2265.64
411.02	2328.83
411.21	2284.36
411.40	2239.89
411.59	2251.60
411.78	2289.04
411.98	2312.45
412.17	2265.64
412.36	2382.67
412.55	2307.77
412.74	2525.44
412.93	2478.63
413.12	2429.48
413.31	2633.10
413.50	2422.45
413.69	2464.58
413.88	2560.55
414.07	2576.93
414.26	2576.93
414.45	2644.81
414.64	2600.34
414.83	2640.12
415.02	2649.49
415.22	2832.05
415.41	2710.34
415.60	2743.11
415.79	2860.13
415.98	2944.39
416.17	2799.28
416.36	2775.88
416.55	2930.35
416.74	3091.85
416.93	2885.88
417.12	3077.80
417.31	3035.67
417.50	2984.18
417.69	3082.49
417.88	3131.64
418.07	3159.72
418.26	3087.17
418.45	3096.53
418.64	3236.96
418.83	3141.00
419.02	3166.74
419.21	3272.07
419.39	3314.20
419.58	3192.49
419.77	3225.26
419.96	3274.41
420.15	3304.84
420.34	3290.79
420.53	3304.84
420.72	3389.10
420.91	3344.63
421.10	3517.83
421.29	3517.83
421.48	3396.12
421.67	3487.40
421.86	3410.16
422.05	3421.86
422.24	3424.20
422.43	3524.85
422.61	3419.52
422.80	3410.16
422.99	3485.06
423.18	3543.57
423.37	3604.42
423.56	3536.55
423.75	3543.57
423.94	3508.46
424.13	3288.45
424.32	3485.06
424.50	3576.34
424.69	3569.32
424.88	3684.00
425.07	3515.48
425.26	3646.55
425.45	3501.44
425.64	3620.81
425.83	3475.70
426.01	3641.87
426.20	3599.74
426.39	3674.64
426.58	3578.68
426.77	3475.70
426.96	3655.92
427.15	3646.55
427.33	3681.66
427.52	3733.15
427.71	3707.41
427.90	3716.77
428.09	3599.74
428.28	3653.58
428.46	3761.24
428.65	3705.07
428.84	3728.47
429.03	3833.80
429.22	3674.64
429.40	3782.31
429.59	3756.56
429.78	3648.90
429.97	3571.66
430.16	3777.62
430.34	3847.84
430.53	3843.16
430.72	3857.20
430.91	3845.50
431.10	3899.33
431.28	4133.39
431.47	4142.75
431.66	4177.86
431.85	3960.19
432.03	4208.28
432.22	4205.94
432.41	4245.73
432.60	4140.41
432.79	4177.86
432.97	4152.11
433.16	4425.95
433.35	4156.79
433.54	4311.27
433.72	4252.75
433.91	4269.14
434.10	4372.12
434.28	4369.78
434.47	4435.32
434.66	4496.17
434.85	4547.66
435.03	4559.36
435.22	4390.84
435.41	4709.16
435.59	4552.34
435.78	4573.41
435.97	4559.36
436.16	4561.70
436.34	4622.56
436.53	4608.51
436.72	4760.65
436.90	4496.17
437.09	4741.93
437.28	4643.62
437.46	4655.33
437.65	4521.92
437.84	4662.35
438.02	4631.92
438.21	4631.92
438.40	4751.29
438.58	4873.00
438.77	4950.23
438.96	5083.64
439.14	5128.11
439.33	5060.24
439.52	5116.41
439.70	5001.72
439.89	5011.09
440.08	5142.16
440.26	5125.77
440.45	5266.21
440.63	5247.48
440.82	5516.64
441.01	5390.25
441.19	5408.98
441.38	5474.51
441.57	5460.47
441.75	5497.92
441.94	5703.89
442.12	5645.37
442.31	5607.92
442.50	5633.67
442.68	5762.40
442.87	5678.14
443.05	5631.33
443.24	5689.84
443.43	5729.63
443.61	5837.30
443.80	6066.67
443.98	5746.02
444.17	5535.37
444.35	5914.53
444.54	5935.60
444.73	5846.66
444.91	5994.11
445.10	5975.39
445.28	5851.34
445.47	5820.91
445.65	5813.89
445.84	5870.06
446.02	5909.85
446.21	5879.43
446.39	5921.56
446.58	5921.56
446.77	6132.20
446.95	5928.58
447.14	6127.52
447.32	6104.12
447.51	5951.98
447.69	6045.60
447.88	5961.34
448.06	5933.26
448.25	6202.42
448.43	6232.85
448.62	6071.35
448.80	6026.88
448.99	6251.57
449.17	6181.35
449.36	6162.63
449.54	6211.78
449.73	6431.79
449.91	6274.98
450.10	6579.25
450.28	6319.45
450.46	6399.02
450.65	6417.75
450.83	6431.79
451.02	6324.13
451.20	6406.05
451.39	6450.52
451.57	6445.84
451.76	6319.45
451.94	6497.33
452.13	6558.18
452.31	6607.33
452.49	6462.22
452.68	6525.41
452.86	6553.50
453.05	6546.48
453.23	6609.67
453.42	6621.38
453.60	6630.74
453.78	6647.12
453.97	6450.52
454.15	6693.93
454.34	6707.98
454.52	6862.45
454.70	6773.51
454.89	6876.49
455.07	6869.47
455.26	6789.89
455.44	6930.33
455.62	6923.30
455.81	7054.37
455.99	7131.61
456.17	7162.04
456.36	7091.82
456.54	7073.10
456.73	7159.70
456.91	7360.98
457.09	7297.79
457.28	7456.95
457.46	7288.43
457.64	7379.71
457.83	7152.68
458.01	7276.73
458.19	7288.43
458.38	7384.39
458.56	7468.65
458.74	7365.67
458.93	7480.35
459.11	7550.57
459.29	7435.88
459.48	7588.02
459.66	7578.65
459.84	7660.57
460.03	7571.63
460.21	7552.91
460.39	7669.94
460.57	7789.30
460.76	7688.66
460.94	7988.25
461.12	7632.49
461.31	7705.04
461.49	7861.86
461.67	7726.11
461.85	7913.35
462.04	7857.18
462.22	8315.92
462.40	8042.08
462.59	8105.28
462.77	8042.08
462.95	8035.06
463.13	7836.11
463.32	8006.97
463.50	8053.78
463.68	8039.74
463.86	8191.88
464.05	8037.40
464.23	8053.78
464.41	8128.68
464.59	8126.34
464.78	8236.35
464.96	8166.13
465.14	8142.72
465.32	8306.56
465.50	8266.77
465.69	8500.83
465.87	8388.48
466.05	8393.16
466.23	8454.02
466.41	8482.10
466.60	8531.25
466.78	8339.33
466.96	8297.20
467.14	8449.33
467.32	8432.95
467.51	8500.83
467.69	8388.48
467.87	8451.67
468.05	8674.03
468.23	8664.66
468.41	8608.49
468.60	8634.24
468.78	8849.57
468.96	8734.88
469.14	8865.95
469.32	9013.40
469.50	8723.18
469.69	8835.52
469.87	8898.72
470.05	9015.74
470.23	9048.51
470.41	9121.07
470.59	9231.07
470.77	9111.71
470.95	9057.87
471.14	9207.67
471.32	9050.85
471.50	9202.99
471.68	9301.29
471.86	9256.82
472.04	9451.08
472.22	9507.26
472.40	9345.76
472.58	9411.29
472.77	9486.19
472.95	9521.30
473.13	9886.42
473.31	9626.62
473.49	9736.63
473.67	9448.74
473.85	9694.50
474.03	10008.13
474.21	10036.22
474.39	10143.88
474.57	10111.11
474.75	10211.76
474.93	10284.31
475.12	10314.74
475.30	10274.95
475.48	10221.12
475.66	10197.71
475.84	10380.28
476.02	10314.74
476.20	10462.19
476.38	10682.20
476.56	10810.93
476.74	10937.32
476.92	10906.90
477.10	10740.72
477.28	10920.94
477.46	10974.77
477.64	11119.89
477.82	11016.90
478.00	11248.61
478.18	11466.28
478.36	11674.59
478.54	11573.95
478.72	11686.29
478.90	11854.81
479.08	11868.86
479.26	11936.73
479.44	12088.87
479.62	12035.03
479.80	12072.48
479.98	12250.36
480.16	12559.31
480.34	12624.85
480.52	12638.89
480.70	12730.17
480.88	12395.48
481.06	12507.82
481.24	12568.68
481.41	12980.61
481.59	13142.11
481.77	13240.41
481.95	13399.57
482.13	13303.60
482.31	13298.92
482.49	13446.38
482.67	13476.80
482.85	13825.54
483.03	13860.65
483.21	13848.95
483.39	14108.75
483.57	13888.74
483.74	13947.25
483.92	14356.85
484.10	14291.31
484.28	14527.71
484.46	15047.30
484.64	15000.49
484.82	14841.34
485.00	14721.97
485.18	15070.71
485.35	15220.50
485.53	15028.58
485.71	15033.26
485.89	15482.64
486.07	15229.87
486.25	15351.57
486.43	15690.95
486.61	15693.29
486.78	16023.31
486.96	15927.35
487.14	16243.32
487.32	16336.94
487.50	16460.99
487.68	16643.55
487.85	16823.77
488.03	17085.91
488.21	16964.20
488.39	17109.32
488.57	17142.08
488.75	17605.51
488.92	17547.00
489.10	17858.29
489.28	17827.86
489.46	18001.06
489.64	18162.56
489.81	18324.05
489.99	18265.54
490.17	18768.76
490.35	18719.60
490.53	18464.49
490.70	18963.02
490.88	18661.09
491.06	19040.26
491.24	18948.98
491.41	19145.58
491.59	19550.49
491.77	19082.39
491.95	19573.90
492.13	19473.26
492.30	20067.75
492.48	19803.27
492.66	19971.79
492.84	19852.42
493.01	20577.99
493.19	20233.93
493.37	20601.40
493.54	20996.95
493.72	20884.60
493.90	21050.78
494.08	21123.33
494.25	21373.77
494.43	21448.67
494.61	21312.92
494.79	21486.12
494.96	21530.59
495.14	21502.50
495.32	21937.84
495.49	21860.60
495.67	22148.49
495.85	22129.77
496.02	22412.97
496.20	22405.95
496.38	22431.69
496.55	22684.47
496.73	23054.28
496.91	22890.44
497.09	22934.91
497.26	23199.39
497.44	23309.40
497.62	23304.71
497.79	23515.36
497.97	23068.32
498.14	23623.03
498.32	24018.58
498.50	23817.29
498.67	24236.25
498.85	23939.00
499.03	24081.77
499.20	24336.89
499.38	24191.78
499.56	24226.89
499.73	24397.74
499.91	24645.84
500.08	24753.51
500.26	24451.58
500.44	24835.42
500.61	24659.88
500.79	24720.74
500.97	25015.65
501.14	25544.61
501.32	25132.67
501.49	25249.70
501.67	25221.61
501.84	25645.25
502.02	25635.89
502.20	25560.99
502.37	25830.15
502.55	25773.98
502.72	25991.65
502.90	25781.00
503.07	26143.78
503.25	26164.85
503.43	26389.54
503.60	26043.14
503.78	26237.41
503.95	26321.66
504.13	26300.60
504.30	26735.94
504.48	26768.71
504.65	27182.98
504.83	27037.87
505.01	27110.43
505.18	26738.28
505.36	27431.08
505.53	27091.70
505.71	27733.01
505.88	27775.14
506.06	27147.87
506.23	27615.98
506.41	27140.85
506.58	27934.29
506.76	27730.67
506.93	27473.21
507.11	27995.15
507.28	28229.20
507.46	27880.46
507.63	27983.44
507.81	28058.34
507.98	28203.46
508.16	28367.29
508.33	28489.00
508.50	28804.97
508.68	28474.96
508.85	28376.66
509.03	29090.52
509.20	29144.35
509.38	29111.58
509.55	29324.57
509.73	29249.67
509.90	29591.39
510.08	29034.35
510.25	29455.64
510.42	29432.24
510.60	29649.91
510.77	29556.28
510.95	30171.85
511.12	29408.83
511.30	30059.50
511.47	30223.34
511.64	30209.29
511.82	30553.35
511.99	30005.67
512.17	30223.34
512.34	29986.94
512.51	30689.10
512.69	30637.61
512.86	30473.78
513.04	30881.03
513.21	30962.95
513.38	30569.74
513.56	30845.92
513.73	30768.68
513.90	30923.16
514.08	30874.01
514.25	30707.83
514.43	31178.28
514.60	30974.65
514.77	31393.61
514.95	31550.42
515.12	31281.26
515.29	31332.75
515.47	31613.62
515.64	31669.79
515.81	31819.58
515.99	31777.45
516.16	32109.81
516.33	31615.96
516.51	31777.45
516.68	31548.08
516.85	31587.87
517.03	32013.85
517.20	31967.04
517.37	32404.72
517.54	32360.25
517.72	32617.71
517.89	32198.75
518.06	32304.07
518.24	32208.11
518.41	31929.59
518.58	32528.77
518.75	32275.99
518.93	32584.94
519.10	32900.91
519.27	32811.97
519.45	32744.09
519.62	33006.23
519.79	33317.53
519.96	32964.10
520.14	33362.00
520.31	33024.96
520.48	33776.27
520.65	33448.60
520.83	33633.50
521.00	33692.01
521.17	33993.94
521.34	34068.84
521.52	34045.43
521.69	33766.91
521.86	34045.43
522.03	34183.52
522.20	34038.41
522.38	34410.56
522.55	34501.84
522.72	34274.80
522.89	34057.14
523.07	34705.46
523.24	34405.88
523.41	34511.20
523.58	34604.82
523.75	35044.84
523.92	34731.21
524.10	35356.13
524.27	35086.97
524.44	35449.75
524.61	35101.01
524.78	35400.60
524.96	35330.39
525.13	35655.72
525.30	35555.08
525.47	35484.86
525.64	35264.85
525.81	35683.81
525.98	35531.67
526.16	35463.80
526.33	35742.32
526.50	36020.84
526.67	35517.63
526.84	35290.60
527.01	35487.20
527.18	35985.74
527.36	36196.38
527.53	35889.77
527.70	36378.95
527.87	36465.55
528.04	35955.31
528.21	36165.96
528.38	36100.42
528.55	36547.47
528.72	36783.86
528.89	36547.47
529.07	36659.81
529.24	36460.87
529.41	36404.69
529.58	36128.51
529.75	36823.65
529.92	37193.45
530.09	37017.91
530.26	36898.55
530.43	37216.86
530.60	36868.12
530.77	36856.42
530.94	37570.28
531.11	37249.63
531.28	37163.03
531.46	37425.17
531.63	37710.71
531.80	37212.18
531.97	37139.62
532.14	37516.45
532.31	37350.27
532.48	37191.11
532.65	37390.06
532.82	37462.61
532.99	37886.25
533.16	37900.29
533.33	37947.11
533.50	38050.09
533.67	38150.73
533.84	37647.52
534.01	38045.41
534.18	37801.99
534.35	38256.06
534.52	38092.22
534.69	38492.45
534.86	38270.10
535.03	38038.39
535.20	38569.69
535.37	38871.62
535.54	38511.17
535.71	38256.06
535.88	38361.38
536.05	38515.86
536.22	38745.23
536.38	38824.81
536.55	38377.76
536.72	38630.54
536.89	38656.29
537.06	38742.89
537.23	39194.61
537.40	38766.29
537.57	39079.92
537.74	38967.58
537.91	39105.67
538.08	39517.60
538.25	38707.78
538.42	39063.54
538.59	39445.05
538.75	38962.90
538.92	39227.38
539.09	38962.90
539.26	39365.47
539.43	39459.09
539.60	39452.07
539.77	39267.17
539.94	39365.47
540.11	39372.49
540.28	39335.04
540.44	39313.98
540.61	39555.05
540.78	39517.60
540.95	39400.58
541.12	39716.55
541.29	39866.34
541.46	39892.09
541.62	40175.30
541.79	39681.44
541.96	39906.13
542.13	39629.95
542.30	40325.09
542.47	39920.18
542.63	40409.35
542.80	40430.41
542.97	40781.49
543.14	40685.53
543.31	40938.31
543.48	40797.88
543.64	40971.08
543.81	41212.15
543.98	40828.30
544.15	40587.23
544.32	40751.07
544.48	40863.41
544.65	40617.66
544.82	40769.79
544.99	40605.95
545.16	40975.76
545.32	41031.93
545.49	40966.40
545.66	41551.53
545.83	41015.55
546.00	41155.98
546.16	41076.40
546.33	41226.20
546.50	41242.58
546.67	41104.49
546.83	40538.08
547.00	41530.47
547.17	41228.54
547.34	40772.13
547.50	41481.31
547.67	41982.19
547.84	41418.12
548.00	41734.09
548.17	41497.70
548.34	41750.48
548.51	41776.22
548.67	41811.33
548.84	41848.78
549.01	41347.90
549.18	41701.32
549.34	42120.28
549.51	42445.62
549.68	42153.05
549.84	41991.55
550.01	42270.08
550.18	41865.16
550.34	42181.13
550.51	42040.70
550.68	42174.11
550.84	41628.77
551.01	41773.88
551.18	42445.62
551.34	42284.12
551.51	42445.62
551.68	42099.22
551.84	42564.98
552.01	42136.66
552.18	42403.49
552.34	42096.88
552.51	42581.37
552.68	42462.00
552.84	42485.40
553.01	42466.68
553.18	42569.66
553.34	42260.71
553.51	42256.03
553.67	42443.27
553.84	43309.27
554.01	42555.62
554.17	42864.57
554.34	42740.52
554.51	43110.33
554.67	42829.46
554.84	42918.40
555.00	42836.48
555.17	42895.00
555.33	43072.88
555.50	43140.75
555.67	42836.48
555.83	42880.95
556.00	43154.80
556.16	43887.39
556.33	43187.56
556.50	43311.61
556.66	43342.04
556.83	43358.42
556.99	43316.29
557.16	43395.87
557.32	43281.19
557.49	43529.28
557.65	42859.89
557.82	43246.08
557.98	43309.27
558.15	43070.54
558.32	43335.02
558.48	43426.30
558.65	43512.90
558.81	43693.12
558.98	43147.78
559.14	43814.83
559.31	43545.67
559.47	43695.46
559.64	43648.65
559.80	43412.26
559.97	43812.49
560.13	43650.99
560.30	43756.32
560.46	43915.47
560.63	43711.84
560.79	43672.06
560.96	43903.77
561.12	43676.74
561.29	43931.86
561.45	43487.15
561.61	43676.74
561.78	43646.31
561.94	43461.41
562.11	43377.15
562.27	43838.23
562.44	43454.39
562.60	44093.35
562.77	44191.65
562.93	43718.87
563.10	44009.09
563.26	43533.96
563.42	44184.63
563.59	43653.33
563.75	43519.92
563.92	43716.53
564.08	43793.76
564.24	44121.44
564.41	44460.82
564.57	44069.95
564.74	43854.62
564.90	44196.34
565.07	44189.31
565.23	43800.79
565.39	43976.33
565.56	44603.59
565.72	43772.70
565.88	44282.94
566.05	44304.00
566.21	44215.06
566.38	43842.92
566.54	44428.05
566.70	44231.44
566.87	44495.92
567.03	44058.24
567.19	44741.68
567.36	44371.88
567.52	44009.09
567.68	44643.38
567.85	44243.15
568.01	44465.50
568.17	44210.38
568.34	44266.55
568.50	44245.49
568.66	44458.48
568.83	44484.22
568.99	44067.61
569.15	44369.54
569.32	44011.43
569.48	44566.14
569.64	44442.09
569.81	44404.64
569.97	44194.00
570.13	44378.90
570.30	44273.57
570.46	44282.94
570.62	44189.31
570.78	44154.21
570.95	44198.68
571.11	44488.90
571.27	44442.09
571.43	44570.82
571.60	44584.86
571.76	44673.81
571.92	44107.40
572.09	44671.46
572.25	44332.09
572.41	44388.26
572.57	44940.63
572.74	44687.85
572.90	44545.08
573.06	44308.68
573.22	44992.12
573.38	44238.47
573.55	44252.51
573.71	44701.89
573.87	44392.94
574.03	44334.43
574.20	44486.56
574.36	44318.04
574.52	44540.39
574.68	44854.03
574.84	44446.77
575.01	44722.96
575.17	44849.35
575.33	44114.42
575.49	44250.17
575.65	44837.64
575.82	44945.31
575.98	44800.19
576.14	45340.86
576.30	44685.51
576.46	44720.62
576.62	44215.06
576.79	44622.31
576.95	44203.36
577.11	44540.39
577.27	44638.70
577.43	44570.82
577.59	44645.72
577.75	44587.21
577.92	44292.30
578.08	44416.35
578.24	44493.58
578.40	44381.24
578.56	44910.20
578.72	44458.48
578.88	45092.76
579.04	45097.44
579.21	44580.18
579.37	44725.30
579.53	44444.43
579.69	44570.82
579.85	44996.80
580.01	44524.01
580.17	44397.62
580.33	44601.25
580.49	45036.59
580.65	44594.23
580.82	44823.60
580.98	44774.45
581.14	44353.15
581.30	45038.93
581.46	44851.69
581.62	44818.92
581.78	44692.53
581.94	44954.67
582.10	44985.10
582.26	45270.64
582.42	45038.93
582.58	44755.72
582.74	44659.76
582.90	44858.71
583.06	45027.23
583.22	44868.07
583.38	45055.31
583.54	44947.65
583.70	44849.35
583.86	44952.33
584.02	44390.60
584.18	45167.66
584.34	44676.15
584.50	44800.19
584.66	44673.81
584.82	44402.30
584.98	45067.02
585.14	45174.68
585.30	44699.55
585.46	45078.72
585.62	44296.98
585.78	44491.24
585.94	44282.94
586.10	44713.59
586.26	44610.61
586.42	44830.62
586.58	45076.38
586.74	45059.99
586.90	44589.55
587.06	44437.41
587.22	44816.58
587.38	44982.76
587.54	45333.84
587.70	45008.50
587.86	44854.03
588.02	44912.54
588.18	45141.91
588.34	44587.21
588.49	44643.38
588.65	44257.19
588.81	44591.89
588.97	44292.30
589.13	44514.65
589.29	44296.98
589.45	44662.10
589.61	45006.16
589.77	44968.71
589.93	44701.89
590.08	45420.44
590.24	44720.62
