SpectraSuite Data File
++++++++++++++++++++++++++++++++++++
Date: Fri Oct 25 11:33:59 EDT 2013
User: price-jones
Dark Spectrum Present: No
Reference Spectrum Present: No
Number of Sampled Component Spectra: 1
Spectrometers: USB2+H05261
Integration Time (usec): 100000 (USB2+H05261)
Spectra Averaged: 1 (USB2+H05261)
Boxcar Smoothing: 0 (USB2+H05261)
Correct for Electrical Dark: No (USB2+H05261)
Strobe/Lamp Enabled: No (USB2+H05261)
Correct for Detector Non-linearity: No (USB2+H05261)
Correct for Stray Light: No (USB2+H05261)
Number of Pixels in Processed Spectrum: 2048
>>>>>Begin Processed Spectral Data<<<<<
365.73	236.39
365.92	236.39
366.12	236.39
366.32	196.60
366.52	191.92
366.72	212.99
366.91	149.79
367.11	308.95
367.31	224.69
367.51	203.63
367.70	128.73
367.90	184.90
368.10	156.82
368.30	121.71
368.49	159.16
368.69	248.10
368.89	166.18
369.09	163.84
369.28	196.60
369.48	175.54
369.68	248.10
369.87	182.56
370.07	259.80
370.27	264.48
370.47	372.15
370.66	456.40
370.86	519.60
371.06	540.66
371.25	559.39
371.45	547.69
371.65	510.24
371.84	550.03
372.04	552.37
372.24	538.32
372.44	554.71
372.63	543.00
372.83	566.41
373.03	564.07
373.22	613.22
373.42	655.35
373.62	627.26
373.81	601.52
374.01	664.71
374.21	692.80
374.40	622.58
374.60	702.16
374.79	634.29
374.99	643.65
375.19	606.20
375.38	585.13
375.58	627.26
375.78	688.12
375.97	695.14
376.17	746.63
376.37	716.20
376.56	718.54
376.76	641.31
376.95	699.82
377.15	805.14
377.35	751.31
377.54	709.18
377.74	669.39
377.93	683.44
378.13	692.80
378.33	704.50
378.52	711.52
378.72	685.78
378.91	725.57
379.11	725.57
379.31	690.46
379.50	641.31
379.70	746.63
379.89	763.01
380.09	718.54
380.28	732.59
380.48	784.08
380.68	702.16
380.87	784.08
381.07	739.61
381.26	816.85
381.46	795.78
381.65	758.33
381.85	662.37
382.04	734.93
382.24	781.74
382.43	784.08
382.63	798.12
382.83	765.36
383.02	805.14
383.22	821.53
383.41	697.48
383.61	755.99
383.80	849.61
384.00	870.68
384.19	744.29
384.39	814.51
384.58	816.85
384.78	816.85
384.97	910.47
385.17	854.30
385.36	837.91
385.56	830.89
385.75	786.42
385.95	847.27
386.14	833.23
386.34	891.74
386.53	983.02
386.72	814.51
386.92	908.13
387.11	826.21
387.31	905.79
387.50	933.87
387.70	866.00
387.89	873.02
388.09	929.19
388.28	894.08
388.48	931.53
388.67	945.58
388.86	945.58
389.06	966.64
389.25	987.71
389.45	889.40
389.64	936.21
389.84	959.62
390.03	952.60
390.22	973.66
390.42	880.04
390.61	966.64
390.81	933.87
391.00	994.73
391.19	1034.52
391.39	997.07
391.58	1057.92
391.78	1027.50
391.97	1027.50
392.16	999.41
392.36	1078.99
392.55	1034.52
392.75	1025.15
392.94	1071.97
393.13	1104.73
393.33	1135.16
393.52	1029.84
393.71	1086.01
393.91	1029.84
394.10	1100.05
394.29	1067.28
394.49	1048.56
394.68	1123.46
394.88	1153.88
395.07	1165.59
395.26	1116.44
395.46	1104.73
395.65	1118.78
395.84	1188.99
396.04	1254.53
396.23	1130.48
396.42	1205.38
396.62	1177.29
396.81	1249.85
397.00	1179.63
397.19	1249.85
397.39	1240.48
397.58	1184.31
397.77	1266.23
397.97	1273.25
398.16	1221.76
398.35	1181.97
398.55	1294.32
398.74	1362.19
398.93	1315.38
399.12	1261.55
399.32	1280.27
399.51	1331.76
399.70	1338.79
399.90	1186.65
400.09	1310.70
400.28	1397.30
400.47	1308.36
400.67	1324.74
400.86	1406.66
401.05	1369.21
401.24	1397.30
401.44	1406.66
401.63	1425.39
401.82	1488.58
402.01	1444.11
402.21	1476.88
402.40	1420.71
402.59	1465.18
402.78	1495.60
402.97	1537.73
403.17	1589.22
403.36	1425.39
403.55	1516.67
403.74	1570.50
403.93	1687.53
404.13	1596.25
404.32	1575.18
404.51	1568.16
404.70	1629.01
404.89	1717.95
405.09	1617.31
405.28	1626.67
405.47	1619.65
405.66	1689.87
405.85	1682.85
406.05	1703.91
406.24	1645.40
406.43	1753.06
406.62	1827.96
406.81	1830.30
407.00	1750.72
407.20	1692.21
407.39	1713.27
407.58	1783.49
407.77	1884.13
407.96	1825.62
408.15	1858.39
408.34	1818.60
408.54	1928.60
408.73	1827.96
408.92	1895.83
409.11	2045.63
409.30	1881.79
409.49	1973.07
409.68	2029.24
409.87	1991.80
410.07	2080.74
410.26	2017.54
410.45	2012.86
410.64	2012.86
410.83	2132.23
411.02	2190.74
411.21	2076.06
411.40	2136.91
411.59	2193.08
411.78	2108.82
411.98	2143.93
412.17	2328.83
412.36	2335.85
412.55	2361.60
412.74	2214.15
412.93	2373.30
413.12	2377.98
413.31	2410.75
413.50	2347.56
413.69	2366.28
413.88	2443.52
414.07	2459.90
414.26	2429.48
414.45	2499.69
414.64	2511.39
414.83	2731.41
415.02	2523.10
415.22	2647.15
415.41	2696.30
415.60	2661.19
415.79	2698.64
415.98	2736.09
416.17	2609.70
416.36	2726.72
416.55	2759.49
416.74	2761.83
416.93	2736.09
417.12	2759.49
417.31	2935.03
417.50	2810.98
417.69	2904.60
417.88	2925.67
418.07	2998.23
418.26	3019.29
418.45	3023.97
418.64	3066.10
418.83	2963.12
419.02	2920.99
419.21	3094.19
419.39	3232.28
419.58	3126.96
419.77	3028.65
419.96	3110.57
420.15	3070.78
420.34	3183.13
420.53	3030.99
420.72	3243.98
420.91	3234.62
421.10	3269.73
421.29	3274.41
421.48	3279.09
421.67	3222.92
421.86	3236.96
422.05	3297.81
422.24	3185.47
422.43	3279.09
422.61	3365.69
422.80	3344.63
422.99	3417.18
423.18	3372.71
423.37	3428.88
423.56	3485.06
423.75	3382.07
423.94	3262.71
424.13	3166.74
424.32	3339.94
424.50	3328.24
424.69	3480.38
424.88	3332.92
425.07	3356.33
425.26	3248.66
425.45	3438.25
425.64	3311.86
425.83	3368.03
426.01	3452.29
426.20	3386.76
426.39	3442.93
426.58	3496.76
426.77	3576.34
426.96	3449.95
427.15	3414.84
427.33	3618.47
427.52	3536.55
427.71	3623.15
427.90	3627.83
428.09	3655.92
428.28	3618.47
428.46	3712.09
428.65	3669.96
428.84	3644.21
429.03	3815.07
429.22	3630.17
429.40	3613.79
429.59	3705.07
429.78	3501.44
429.97	3634.85
430.16	3707.41
430.34	3817.41
430.53	3836.14
430.72	3885.29
430.91	3803.37
431.10	3831.46
431.28	3843.16
431.47	3889.97
431.66	3990.61
431.85	3796.35
432.03	3941.46
432.22	4170.83
432.41	4095.94
432.60	4009.34
432.79	4030.40
432.97	4044.45
433.16	4203.60
433.35	3918.06
433.54	4072.53
433.72	4147.43
433.91	4021.04
434.10	4264.46
434.28	4227.01
434.47	4227.01
434.66	4168.49
434.85	4257.43
435.03	4276.16
435.22	4325.31
435.41	4388.50
435.59	4416.59
435.78	4367.44
435.97	4156.79
436.16	4182.54
436.34	4379.14
436.53	4360.42
436.72	4418.93
436.90	4444.68
437.09	4482.13
437.28	4449.36
437.46	4440.00
437.65	4559.36
437.84	4531.28
438.02	4414.25
438.21	4657.67
438.40	4486.81
438.58	4664.69
438.77	4746.61
438.96	4667.03
439.14	4809.80
439.33	4739.58
439.52	4807.46
439.70	4884.70
439.89	5041.51
440.08	4947.89
440.26	4957.25
440.45	4943.21
440.63	5137.48
440.82	5067.26
441.01	5060.24
441.19	5067.26
441.38	5256.84
441.57	5153.86
441.75	5181.95
441.94	5399.62
442.12	5334.08
442.31	5413.66
442.50	5343.44
442.68	5390.25
442.87	5430.04
443.05	5455.79
443.24	5572.82
443.43	5607.92
443.61	5434.72
443.80	5645.37
443.98	5329.40
444.17	5305.99
444.35	5605.58
444.54	5474.51
444.73	5612.60
444.91	5479.19
445.10	5633.67
445.28	5650.05
445.47	5682.82
445.65	5540.05
445.84	5762.40
446.02	5589.20
446.21	5715.59
446.39	5678.14
446.58	5668.78
446.77	5598.56
446.95	5650.05
447.14	5572.82
447.32	5659.42
447.51	5603.24
447.69	5710.91
447.88	5703.89
448.06	5610.26
448.25	5785.80
448.43	5776.44
448.62	5755.38
448.80	5760.06
448.99	5832.62
449.17	5813.89
449.36	5818.57
449.54	6026.88
449.73	6047.94
449.91	6104.12
450.10	6038.58
450.28	6054.97
450.46	6045.60
450.65	5956.66
450.83	6150.93
451.02	6097.10
451.20	6164.97
451.39	6122.84
451.57	6169.65
451.76	6064.33
451.94	6143.91
452.13	6202.42
452.31	6179.01
452.49	6134.54
452.68	6356.90
452.86	6157.95
453.05	6186.04
453.23	6373.28
453.42	6289.02
453.60	6132.20
453.78	6450.52
453.97	6356.90
454.15	6270.30
454.34	6291.36
454.52	6422.43
454.70	6473.92
454.89	6399.02
455.07	6520.73
455.26	6551.16
455.44	6628.40
455.62	6424.77
455.81	6527.75
455.99	6614.35
456.17	6682.23
456.36	6604.99
456.54	6569.88
456.73	6923.30
456.91	6981.82
457.09	7115.23
457.28	6876.49
457.46	6927.99
457.64	7082.46
457.83	7075.44
458.01	6974.80
458.19	7110.55
458.38	6949.05
458.56	7084.80
458.74	6998.20
458.93	7157.36
459.11	7220.55
459.29	7110.55
459.48	7150.34
459.66	7241.62
459.84	7162.04
460.03	7339.92
460.21	7297.79
460.39	7353.96
460.57	7274.38
460.76	7588.02
460.94	7557.59
461.12	7398.43
461.31	7417.16
461.49	7466.31
461.67	7456.95
461.85	7714.41
462.04	7737.81
462.22	8037.40
462.40	7796.32
462.59	7726.11
462.77	7499.08
462.95	7686.32
463.13	7597.38
463.32	7686.32
463.50	7803.35
463.68	7817.39
463.86	7829.09
464.05	7660.57
464.23	7754.19
464.41	7871.22
464.59	7634.83
464.78	8173.15
464.96	7941.44
465.14	7918.03
465.32	8079.53
465.50	8116.98
465.69	8039.74
465.87	7845.48
466.05	7967.18
466.23	8011.65
466.41	8156.77
466.60	8175.49
466.78	8205.92
466.96	8135.70
467.14	8135.70
467.32	8149.75
467.51	8514.87
467.69	8147.40
467.87	8173.15
468.05	8400.18
468.23	8348.69
468.41	8351.03
468.60	8248.05
468.78	8245.71
468.96	8196.56
469.14	8435.29
469.32	8484.44
469.50	8589.77
469.69	8557.00
469.87	8739.56
470.05	8854.25
470.23	8585.08
470.41	8774.67
470.59	8769.99
470.77	8706.79
470.95	8615.51
471.14	8947.87
471.32	8706.79
471.50	8812.12
471.68	9018.08
471.86	9057.87
472.04	8905.74
472.22	9338.74
472.40	9025.11
472.58	9102.34
472.77	9146.81
472.95	9385.55
473.13	9657.05
473.31	9238.09
473.49	9378.53
473.67	9317.67
473.85	9378.53
474.03	9650.03
474.21	9514.28
474.39	9832.59
474.57	9774.08
474.75	9834.93
474.93	9743.65
475.12	10012.81
475.30	9919.19
475.48	9596.20
475.66	10193.03
475.84	9858.34
476.02	10043.24
476.20	9942.60
476.38	10352.19
476.56	10518.37
476.74	10459.85
476.92	10345.17
477.10	10544.11
477.28	10665.82
477.46	10663.48
477.64	10736.04
477.82	10611.99
478.00	10916.26
478.18	10972.43
478.36	11087.12
478.54	11234.57
478.72	11192.44
478.90	11311.81
479.08	11454.58
479.26	11417.13
479.44	11655.87
479.62	11728.42
479.80	11618.42
479.98	11772.89
480.16	12182.49
480.34	11653.53
480.52	12175.47
480.70	12091.21
480.88	11964.82
481.06	12430.59
481.24	12493.78
481.41	12571.02
481.59	12578.04
481.77	12624.85
481.95	12662.30
482.13	13041.46
482.31	12908.05
482.49	13444.04
482.67	13481.49
482.85	13291.90
483.03	13532.98
483.21	13497.87
483.39	13596.17
483.57	13621.92
483.74	13703.84
483.92	13919.17
484.10	13839.59
484.28	14061.94
484.46	14284.29
484.64	14635.37
484.82	14363.87
485.00	14303.01
485.18	15103.48
485.35	14951.34
485.53	14932.62
485.71	15014.54
485.89	15311.78
486.07	15126.88
486.25	15136.24
486.43	15220.50
486.61	15697.97
486.78	15695.63
486.96	15782.23
487.14	15997.56
487.32	15833.72
487.50	16383.75
487.68	16114.59
487.85	16428.22
488.03	16535.88
488.21	16741.85
488.39	16652.91
488.57	17039.10
488.75	17121.02
488.92	16971.22
489.10	17334.01
489.28	17336.35
489.46	17673.39
489.64	17673.39
489.81	18090.00
489.99	17900.42
490.17	17877.01
490.35	18277.24
490.53	18258.52
490.70	18436.40
490.88	17839.56
491.06	18789.82
491.24	19044.94
491.41	18621.30
491.59	18796.84
491.77	18757.05
491.95	18864.72
492.13	19145.58
492.30	19590.28
492.48	19751.78
492.66	19459.21
492.84	19653.48
493.01	19826.68
493.19	19974.13
493.37	20020.94
493.54	20362.66
493.72	20374.36
493.90	20414.15
494.08	20634.16
494.25	20657.57
494.43	20826.09
494.61	21062.48
494.79	21092.91
494.96	21076.52
495.14	21305.90
495.32	21692.08
495.49	21591.44
495.67	21673.36
495.85	21933.16
496.02	21804.43
496.20	22106.36
496.38	22115.72
496.55	22125.08
496.73	22480.85
496.91	22321.69
497.09	22799.16
497.26	22757.03
497.44	22773.41
497.62	22785.12
497.79	23215.77
497.97	23091.73
498.14	23332.80
498.32	23578.56
498.50	23482.59
498.67	23351.52
498.85	23351.52
499.03	23908.57
499.20	23709.63
499.38	24088.79
499.56	23948.36
499.73	24137.94
499.91	24102.84
500.08	24540.52
500.26	23992.83
500.44	24437.53
500.61	24383.70
500.79	24320.51
500.97	24783.93
501.14	24912.66
501.32	25151.40
501.49	24842.45
501.67	25116.29
501.84	25446.30
502.02	25490.77
502.20	25163.10
502.37	25881.64
502.55	25195.87
502.72	25694.40
502.90	25703.76
503.07	25727.17
503.25	25720.15
503.43	25811.43
503.60	25921.43
503.78	26089.95
503.95	26326.35
504.13	26216.34
504.30	26541.68
504.48	26284.22
504.65	26333.37
504.83	26412.95
505.01	26691.47
505.18	26834.24
505.36	27028.51
505.53	26981.70
505.71	27377.25
505.88	27300.01
506.06	27110.43
506.23	27152.55
506.41	27360.86
506.58	27281.28
506.76	27515.34
506.93	27428.74
507.11	27676.83
507.28	27709.60
507.46	28222.18
507.63	27934.29
507.81	27840.67
507.98	27651.09
508.16	28299.42
508.33	28297.08
508.50	28095.79
508.68	28470.28
508.85	28545.17
509.03	28231.54
509.20	28849.44
509.38	29237.97
509.55	28704.33
509.73	28762.84
509.90	29411.17
510.08	29202.86
510.25	28849.44
510.42	28931.36
510.60	29467.34
510.77	29535.22
510.95	29397.13
511.12	29493.09
511.30	29303.51
511.47	30012.69
511.64	30099.29
511.82	30082.91
511.99	30052.48
512.17	29970.56
512.34	30293.55
512.51	30443.35
512.69	30326.32
512.86	30579.10
513.04	30576.76
513.21	30895.07
513.38	30822.51
513.56	30682.08
513.73	31108.06
513.90	30906.77
514.08	30885.71
514.25	31536.38
514.43	31178.28
514.60	31402.97
514.77	31007.42
514.95	31655.75
515.12	31447.44
515.29	31201.68
515.47	31695.53
515.64	31964.70
515.81	31637.02
515.99	31697.88
516.16	31868.73
516.33	31889.80
516.51	32407.06
516.68	31927.25
516.85	31938.95
517.03	32540.47
517.20	32189.39
517.37	32304.07
517.54	32297.05
517.72	32552.17
517.89	32634.09
518.06	32875.16
518.24	32797.93
518.41	32615.37
518.58	32685.58
518.75	32706.65
518.93	33130.28
519.10	32826.01
519.27	32823.67
519.45	33125.60
519.62	33455.62
519.79	33460.30
519.96	33656.90
520.14	33474.34
520.31	33694.35
520.48	33621.80
520.65	33865.21
520.83	33825.42
521.00	33933.09
521.17	33706.05
521.34	33916.70
521.52	33914.36
521.69	34338.00
521.86	34457.37
522.03	34583.76
522.20	34646.95
522.38	34637.59
522.55	34869.30
522.72	34316.93
522.89	34740.57
523.07	34707.80
523.24	34937.18
523.41	34930.16
523.58	34321.62
523.75	34955.90
523.92	35339.75
524.10	35164.21
524.27	35819.56
524.44	34930.16
524.61	35494.22
524.78	35503.59
524.96	35302.30
525.13	35725.94
525.30	36210.43
525.47	35772.75
525.64	35531.67
525.81	35878.07
525.98	35885.09
526.16	35892.12
526.33	35782.11
526.50	36077.02
526.67	36119.15
526.84	36285.33
527.01	36151.91
527.18	36517.04
527.36	36268.94
527.53	36701.94
527.70	36940.68
527.87	36610.66
528.04	36570.87
528.21	36723.01
528.38	36800.24
528.55	37003.87
528.72	36503.00
528.89	36830.67
529.07	36627.04
529.24	36723.01
529.41	36973.44
529.58	37067.06
529.75	36774.50
529.92	37146.64
530.09	37258.99
530.26	37200.47
530.43	37137.28
530.60	37345.59
530.77	37474.32
530.94	37053.02
531.11	37053.02
531.28	37691.99
531.46	37574.96
531.63	37699.01
531.80	37434.53
531.97	37642.84
532.14	38005.62
532.31	38082.86
532.48	38417.55
532.65	38391.81
532.82	38059.45
532.99	38014.98
533.16	38359.04
533.33	38471.39
533.50	38307.55
533.67	38141.37
533.84	38368.40
534.01	38375.42
534.18	38581.39
534.35	38782.68
534.52	38492.45
534.69	38827.15
534.86	39007.37
535.03	38550.96
535.20	38841.19
535.37	39328.02
535.54	39412.28
535.71	39091.63
535.88	39318.66
536.05	39206.31
536.22	39433.35
536.38	39402.92
536.55	39185.25
536.72	39157.16
536.89	39335.04
537.06	39487.18
537.23	39414.62
537.40	39522.29
537.57	39491.86
537.74	39316.32
537.91	39892.09
538.08	39594.84
538.25	39416.96
538.42	39763.36
538.59	39751.66
538.75	39854.64
538.92	39882.73
539.09	40364.88
539.26	40116.78
539.43	39770.38
539.60	40165.93
539.77	40121.46
539.94	40306.37
540.11	39945.92
540.28	40215.08
540.44	40121.46
540.61	40402.33
540.78	40362.54
540.95	40076.99
541.12	40493.61
541.29	40601.27
541.46	40484.25
541.62	40594.25
541.79	40765.11
541.96	40179.98
542.13	40474.88
542.30	40509.99
542.47	40671.49
542.63	41099.81
542.80	41104.49
542.97	41347.90
543.14	41654.51
543.31	41439.18
543.48	40961.72
543.64	41776.22
543.81	41394.71
543.98	41530.47
544.15	41607.70
544.32	41982.19
544.48	41902.61
544.65	41420.46
544.82	41755.16
544.99	41530.47
545.16	41670.90
545.32	41771.54
545.49	42330.93
545.66	42532.22
545.83	42253.69
546.00	42286.46
546.16	42167.09
546.33	42000.91
546.50	42029.00
546.67	42438.59
546.83	41865.16
547.00	41951.76
547.17	42169.43
547.34	42017.30
547.50	42721.80
547.67	42639.88
547.84	42490.09
548.00	42632.86
548.17	43005.00
548.34	42433.91
548.51	42857.55
548.67	43014.37
548.84	42707.76
549.01	42499.45
549.18	42843.51
549.34	42951.17
549.51	43215.65
549.68	42869.25
549.84	42782.65
550.01	43328.00
550.18	42801.38
550.34	43239.06
550.51	43573.75
550.68	42871.59
550.84	42967.55
551.01	43412.26
551.18	43049.47
551.34	42904.36
551.51	43674.40
551.68	43302.25
551.84	43571.41
552.01	43047.13
552.18	43576.09
552.34	43339.70
552.51	43461.41
552.68	43477.79
552.84	43353.74
553.01	43824.19
553.18	43562.05
553.34	43618.22
553.51	43763.34
553.67	43667.37
553.84	43735.25
554.01	44067.61
554.17	43627.59
554.34	43969.30
554.51	44154.21
554.67	44114.42
554.84	43856.96
555.00	43758.66
555.17	43840.57
555.33	44341.45
555.50	43695.46
555.67	44442.09
555.83	44383.58
556.00	43950.58
556.16	44879.77
556.33	44767.43
556.50	44519.33
556.66	44376.56
556.83	44311.02
556.99	44486.56
557.16	44619.97
557.32	44444.43
557.49	44596.57
557.65	44498.26
557.82	44411.67
557.98	44491.24
558.15	44556.78
558.32	44638.70
558.48	44519.33
558.65	44811.90
558.81	44905.52
558.98	44727.64
559.14	45043.61
559.31	44737.00
559.47	44992.12
559.64	44816.58
559.80	44858.71
559.97	45247.24
560.13	44839.98
560.30	44800.19
560.46	45310.43
560.63	45455.54
560.79	45294.05
560.96	45359.58
561.12	45563.21
561.29	45123.19
561.45	45378.31
561.61	45340.86
561.78	45577.25
561.94	45212.13
562.11	45057.65
562.27	44893.82
562.44	45263.62
562.60	45099.78
562.77	45476.61
562.93	45193.40
563.10	45663.85
563.26	45556.19
563.42	45818.33
563.59	45773.86
563.75	45551.51
563.92	45198.09
564.08	45581.93
564.24	45808.96
564.41	45687.26
564.57	45593.64
564.74	45542.14
564.90	45113.83
565.07	45415.76
565.23	45453.20
565.39	45525.76
565.56	45942.38
565.72	45483.63
565.88	45682.58
566.05	45808.96
566.21	45687.26
566.38	45626.40
566.54	45979.82
566.70	45848.75
566.87	45911.95
567.03	45373.63
567.19	46143.66
567.36	45621.72
567.52	46106.21
567.68	46073.45
567.85	46251.33
568.01	45942.38
568.17	45675.55
568.34	46068.76
568.50	46248.99
568.66	45851.09
568.83	45752.79
568.99	46234.94
569.15	46389.42
569.32	45588.95
569.48	46335.59
569.64	46246.65
569.81	45989.19
569.97	46017.27
570.13	46131.96
570.30	45893.22
570.46	46178.77
570.62	46513.47
570.78	45970.46
570.95	46298.14
571.11	46007.91
571.27	45848.75
571.43	46143.66
571.60	46349.63
571.76	45933.01
571.92	45801.94
572.09	46529.85
572.25	46082.81
572.41	46124.94
572.57	45902.59
572.74	46770.93
572.90	46738.16
573.06	46066.42
573.22	46602.41
573.38	46401.12
573.55	46284.09
573.71	46614.11
573.87	46382.40
574.03	46677.30
574.20	46604.75
574.36	46621.13
574.52	46770.93
574.68	46644.54
574.84	46419.84
575.01	47166.48
575.17	46267.71
575.33	46415.16
575.49	46326.22
575.65	46990.94
575.82	46642.20
575.98	46328.56
576.14	46827.10
576.30	46918.38
576.46	46499.42
576.62	46253.67
576.79	46471.34
576.95	46190.47
577.11	46513.47
577.27	46349.63
577.43	46328.56
577.59	46635.17
577.75	46766.24
577.92	46593.04
578.08	46876.25
578.24	46801.35
578.40	46808.37
578.56	46527.51
578.72	46841.14
578.88	46869.23
579.04	46932.42
579.21	47072.85
579.37	46801.35
579.53	46740.50
579.69	46597.73
579.85	46328.56
580.01	47077.54
580.17	46689.01
580.33	47253.08
580.49	46553.26
580.65	46583.68
580.82	46646.88
580.98	46387.08
581.14	46424.53
581.30	46887.95
581.46	46869.23
581.62	46958.17
581.78	46422.19
581.94	47047.11
582.10	46841.14
582.26	46986.25
582.42	46857.52
582.58	47079.88
582.74	46878.59
582.90	46876.25
583.06	46691.35
583.22	46810.71
583.38	46667.94
583.54	47164.14
583.70	47117.32
583.86	46878.59
584.02	46607.09
584.18	47213.29
584.34	47028.38
584.50	46897.31
584.66	47019.02
584.82	46649.22
584.98	47398.19
585.14	47171.16
585.30	46562.62
585.46	46665.60
585.62	46988.60
585.78	46595.38
585.94	46417.50
586.10	46852.84
586.26	46686.67
586.42	47042.43
586.58	46745.18
586.74	46721.77
586.90	46618.79
587.06	46955.83
587.22	47077.54
587.38	46862.21
587.54	46988.60
587.70	47042.43
587.86	47061.15
588.02	46897.31
588.18	47075.19
588.34	47084.56
588.49	46953.49
588.65	46911.36
588.81	47056.47
588.97	47302.23
589.13	47089.24
589.29	46948.81
589.45	47365.42
589.61	47203.92
589.77	47517.56
589.93	46937.10
590.08	47150.09
