SpectraSuite Data File
++++++++++++++++++++++++++++++++++++
Date: Fri Oct 25 11:22:29 EDT 2013
User: price-jones
Dark Spectrum Present: No
Reference Spectrum Present: No
Number of Sampled Component Spectra: 1
Spectrometers: USB2+H05261
Integration Time (usec): 100000 (USB2+H05261)
Spectra Averaged: 1 (USB2+H05261)
Boxcar Smoothing: 0 (USB2+H05261)
Correct for Electrical Dark: No (USB2+H05261)
Strobe/Lamp Enabled: No (USB2+H05261)
Correct for Detector Non-linearity: No (USB2+H05261)
Correct for Stray Light: No (USB2+H05261)
Number of Pixels in Processed Spectrum: 2048
>>>>>Begin Processed Spectral Data<<<<<
365.73	170.86
365.92	170.86
366.12	170.86
366.32	163.84
366.52	170.86
366.72	117.03
366.91	105.32
367.11	81.92
367.31	145.11
367.51	112.35
367.70	140.43
367.90	152.13
368.10	124.05
368.30	95.96
368.49	133.41
368.69	77.24
368.89	131.07
369.09	100.64
369.28	208.31
369.48	51.49
369.68	140.43
369.87	189.58
370.07	161.50
370.27	154.48
370.47	374.49
370.66	578.11
370.86	559.39
371.06	688.12
371.25	655.35
371.45	697.48
371.65	706.84
371.84	711.52
372.04	746.63
372.24	751.31
372.44	699.82
372.63	732.59
372.83	788.76
373.03	798.12
373.22	755.99
373.42	767.70
373.62	732.59
373.81	744.29
374.01	889.40
374.21	814.51
374.40	737.27
374.60	833.23
374.79	791.10
374.99	877.70
375.19	842.59
375.38	840.25
375.58	835.57
375.78	826.21
375.97	856.64
376.17	866.00
376.37	863.66
376.56	840.25
376.76	889.40
376.95	898.77
377.15	882.38
377.35	889.40
377.54	887.06
377.74	894.08
377.93	894.08
378.13	868.34
378.33	919.83
378.52	978.34
378.72	936.21
378.91	1011.11
379.11	924.51
379.31	987.71
379.50	894.08
379.70	933.87
379.89	1034.52
380.09	954.94
380.28	940.90
380.48	915.15
380.68	1020.47
380.87	1020.47
381.07	1043.88
381.26	1034.52
381.46	961.96
381.65	1001.75
381.85	1053.24
382.04	990.05
382.24	1071.97
382.43	1027.50
382.63	1086.01
382.83	1109.41
383.02	1036.86
383.22	1142.18
383.41	1132.82
383.61	1088.35
383.80	1139.84
384.00	1081.33
384.19	1137.50
384.39	1116.44
384.58	1088.35
384.78	1151.54
384.97	1233.46
385.17	1107.07
385.36	1149.20
385.56	1156.22
385.75	1196.01
385.95	1137.50
386.14	1235.80
386.34	1231.12
386.53	1200.69
386.72	1296.66
386.92	1303.68
387.11	1289.64
387.31	1198.35
387.50	1149.20
387.70	1263.89
387.89	1359.85
388.09	1306.02
388.28	1343.47
388.48	1275.59
388.67	1266.23
388.86	1238.14
389.06	1345.81
389.25	1446.45
389.45	1308.36
389.64	1275.59
389.84	1404.32
390.03	1411.34
390.22	1413.68
390.42	1362.19
390.61	1331.76
390.81	1352.83
391.00	1455.81
391.19	1373.89
391.39	1575.18
391.58	1507.30
391.78	1528.37
391.97	1453.47
392.16	1462.83
392.36	1554.12
392.55	1556.46
392.75	1586.88
392.94	1542.41
393.13	1582.20
393.33	1497.94
393.52	1579.86
393.71	1589.22
393.91	1556.46
394.10	1549.43
394.29	1589.22
394.49	1689.87
394.68	1720.29
394.88	1643.06
395.07	1661.78
395.26	1659.44
395.46	1746.04
395.65	1767.10
395.84	1713.27
396.04	1827.96
396.23	1851.36
396.42	1769.44
396.62	1804.55
396.81	1781.15
397.00	1823.28
397.19	1762.42
397.39	1755.40
397.58	1893.49
397.77	1834.98
397.97	1930.94
398.16	1858.39
398.35	1937.96
398.55	1816.26
398.74	1799.87
398.93	1947.33
399.12	1980.09
399.32	1877.11
399.51	1919.24
399.70	2054.99
399.90	1952.01
400.09	2015.20
400.28	2127.55
400.47	2057.33
400.67	2059.67
400.86	2080.74
401.05	2101.80
401.24	2031.58
401.44	2169.68
401.63	2165.00
401.82	2193.08
402.01	2179.04
402.21	2211.81
402.40	2321.81
402.59	2207.13
402.78	2265.64
402.97	2258.62
403.17	2267.98
403.36	2298.41
403.55	2265.64
403.74	2434.16
403.93	2333.51
404.13	2438.84
404.32	2300.75
404.51	2429.48
404.70	2443.52
404.89	2319.47
405.09	2450.54
405.28	2466.92
405.47	2445.86
405.66	2497.35
405.85	2567.57
406.05	2700.98
406.24	2593.31
406.43	2574.59
406.62	2684.59
406.81	2747.79
407.00	2546.50
407.20	2640.12
407.39	2621.40
407.58	2712.68
407.77	2794.60
407.96	2775.88
408.15	2808.64
408.34	2759.49
408.54	2850.77
408.73	2881.20
408.92	3038.02
409.11	2878.86
409.30	2977.16
409.49	2829.71
409.68	2949.08
409.87	2937.37
410.07	2928.01
410.26	3045.04
410.45	3038.02
410.64	3119.93
410.83	3075.46
411.02	3129.30
411.21	3220.58
411.40	3222.92
411.59	3283.77
411.78	3110.57
411.98	3274.41
412.17	3293.13
412.36	3290.79
412.55	3379.73
412.74	3454.63
412.93	3482.72
413.12	3480.38
413.31	3616.13
413.50	3508.46
413.69	3513.14
413.88	3648.90
414.07	3581.02
414.26	3660.60
414.45	3637.19
414.64	3763.58
414.83	3840.82
415.02	3845.50
415.22	3873.59
415.41	3892.31
415.60	3985.93
415.79	4044.45
415.98	3875.93
416.17	3936.78
416.36	3974.23
416.55	4023.38
416.74	4219.99
416.93	4126.36
417.12	4114.66
417.31	4269.14
417.50	4229.35
417.69	4208.28
417.88	4498.51
418.07	4292.54
418.26	4414.25
418.45	4376.80
418.64	4667.03
418.83	4447.02
419.02	4390.84
419.21	4568.73
419.39	4610.86
419.58	4697.46
419.77	4435.32
419.96	4615.54
420.15	4655.33
420.34	4795.76
420.53	4594.47
420.72	4734.90
420.91	4709.16
421.10	4709.16
421.29	5032.15
421.48	4713.84
421.67	4908.10
421.86	4887.04
422.05	4938.53
422.24	4833.21
422.43	4877.68
422.61	5013.43
422.80	5018.11
422.99	5048.54
423.18	5025.13
423.37	5022.79
423.56	4858.95
423.75	5074.28
423.94	4884.70
424.13	4615.54
424.32	4835.55
424.50	5121.09
424.69	5057.90
424.88	5111.73
425.07	4997.04
425.26	5055.56
425.45	5067.26
425.64	4964.28
425.83	4936.19
426.01	5156.20
426.20	5149.18
426.39	5109.39
426.58	5057.90
426.77	4975.98
426.96	5069.60
427.15	5165.56
427.33	5294.29
427.52	5280.25
427.71	5336.42
427.90	5231.10
428.09	5298.97
428.28	5441.75
428.46	5617.29
428.65	5430.04
428.84	5547.07
429.03	5687.50
429.22	5362.17
429.40	5537.71
429.59	5577.50
429.78	5385.57
429.97	5212.37
430.16	5640.69
430.34	5486.22
430.53	5949.64
430.72	5877.09
430.91	5631.33
431.10	5626.65
431.28	5902.83
431.47	5830.27
431.66	5900.49
431.85	6015.18
432.03	5895.81
432.22	6148.59
432.41	6010.50
432.60	6015.18
432.79	6069.01
432.97	6153.27
433.16	6188.38
433.35	6003.47
433.54	6038.58
433.72	6314.77
433.91	6087.73
434.10	6265.61
434.28	6218.80
434.47	6129.86
434.66	6333.49
434.85	6530.09
435.03	6506.69
435.22	6319.45
435.41	6539.46
435.59	6490.31
435.78	6565.20
435.97	6499.67
436.16	6560.52
436.34	6509.03
436.53	6562.86
436.72	6832.02
436.90	6387.32
437.09	6579.25
437.28	6462.22
437.46	6752.45
437.65	6750.10
437.84	6867.13
438.02	6806.28
438.21	6707.98
438.40	6658.82
438.58	7101.19
438.77	7211.19
438.96	7138.63
439.14	7349.28
439.33	7108.21
439.52	7265.02
439.70	7110.55
439.89	7466.31
440.08	7583.34
440.26	7529.50
440.45	7482.69
440.63	7623.12
440.82	7709.72
441.01	7576.31
441.19	7674.62
441.38	7756.54
441.57	7824.41
441.75	7948.46
441.94	8065.49
442.12	7885.26
442.31	8210.60
442.50	8163.79
442.68	8067.83
442.87	8081.87
443.05	8250.39
443.24	8369.76
443.43	8032.72
443.61	8212.94
443.80	8720.84
443.98	8234.00
444.17	7878.24
444.35	8376.78
444.54	8594.45
444.73	8435.29
444.91	8388.48
445.10	8362.73
445.28	8397.84
445.47	8367.42
445.65	8507.85
445.84	8493.80
446.02	8664.66
446.21	8585.08
446.39	8617.85
446.58	8528.91
446.77	8683.39
446.95	8332.31
447.14	8720.84
447.32	8664.66
447.51	8634.24
447.69	8568.70
447.88	8636.58
448.06	8772.33
448.25	8702.11
448.43	8638.92
448.62	8741.90
448.80	8755.94
448.99	8779.35
449.17	8924.46
449.36	8835.52
449.54	8950.21
449.73	9018.08
449.91	8964.25
450.10	9041.49
450.28	9022.77
450.46	9158.52
450.65	9228.73
450.83	9078.94
451.02	9167.88
451.20	9472.15
451.39	9273.20
451.57	9329.38
451.76	9200.65
451.94	9446.40
452.13	9128.09
452.31	9488.53
452.49	9256.82
452.68	9453.42
452.86	9294.27
453.05	9572.79
453.23	9593.86
453.42	9549.39
453.60	9366.82
453.78	9575.13
453.97	9516.62
454.15	9558.75
454.34	9430.02
454.52	9820.89
454.70	9877.06
454.89	10083.03
455.07	9987.07
455.26	9900.47
455.44	10078.35
455.62	10197.71
455.81	9935.57
455.99	10272.61
456.17	9926.21
456.36	10148.56
456.54	10167.29
456.73	10494.96
456.91	10513.69
457.09	10260.91
457.28	10485.60
457.46	10445.81
457.64	10693.91
457.83	10619.01
458.01	10576.88
458.19	10979.45
458.38	10518.37
458.56	10796.89
458.74	10705.61
458.93	10930.30
459.11	10925.62
459.29	11061.37
459.48	10967.75
459.66	11007.54
459.84	10956.05
460.03	11325.85
460.21	11115.20
460.39	11044.99
460.57	11213.51
460.76	11295.43
460.94	11501.39
461.12	11321.17
461.31	11204.14
461.49	11452.24
461.67	11211.17
461.85	11620.76
462.04	11576.29
462.22	11627.78
462.40	11791.62
462.59	11850.13
462.77	11695.66
462.95	11899.28
463.13	11538.84
463.32	11571.61
463.50	11913.33
463.68	11838.43
463.86	11969.50
464.05	11822.05
464.23	12039.72
464.41	12102.91
464.59	11948.43
464.78	12353.35
464.96	12053.76
465.14	11892.26
465.32	12241.00
465.50	12519.53
465.69	12299.52
465.87	12451.65
466.05	12643.57
466.23	12453.99
466.41	12308.88
466.60	12533.57
466.78	12360.37
466.96	12472.71
467.14	12465.69
467.32	12521.87
467.51	12645.91
467.69	12416.54
467.87	12442.29
468.05	12652.94
468.23	12648.26
468.41	12610.81
468.60	12746.56
468.78	13090.62
468.96	12685.70
469.14	13137.43
469.32	13329.35
469.50	12861.24
469.69	12982.95
469.87	13247.43
470.05	13334.03
470.23	13507.23
470.41	13282.54
470.59	13628.94
470.77	13497.87
470.95	13448.72
471.14	13743.63
471.32	13319.99
471.50	13671.07
471.68	13867.67
471.86	14171.94
472.04	13736.60
472.22	14230.46
472.40	13713.20
472.58	13816.18
472.77	14164.92
472.95	14057.26
473.13	14906.87
473.31	14263.22
473.49	14368.55
473.67	14352.16
473.85	14443.45
474.03	14899.85
474.21	14710.27
474.39	15026.24
474.57	14932.62
474.75	15143.27
474.93	15119.86
475.12	15248.59
475.30	15241.57
475.48	15241.57
475.66	15407.75
475.84	15262.63
476.02	15599.67
476.20	15599.67
476.38	15915.64
476.56	16187.14
476.74	16264.38
476.92	16210.55
477.10	16065.44
477.28	16231.62
477.46	16545.25
477.64	16575.67
477.82	17032.08
478.00	17317.62
478.18	17039.10
478.36	17050.80
478.54	17652.32
478.72	17474.44
478.90	17635.94
479.08	17593.81
479.26	17933.18
479.44	17954.25
479.62	18331.08
479.80	18263.20
479.98	18501.93
480.16	18408.31
480.34	18527.68
480.52	19267.29
480.70	18689.18
480.88	18689.18
481.06	18965.36
481.24	19063.66
481.41	19063.66
481.59	19461.55
481.77	19939.02
481.95	19740.08
482.13	19988.18
482.31	19985.83
482.49	20744.17
482.67	20732.47
482.85	20596.71
483.03	20837.79
483.21	20790.98
483.39	21331.64
483.57	21254.40
483.74	21455.69
483.92	21355.05
484.10	21696.77
484.28	22204.66
484.46	22216.36
484.64	22707.88
484.82	22684.47
485.00	22981.72
485.18	23166.62
485.35	23194.71
485.53	23208.75
485.71	23297.69
485.89	24208.16
486.07	23623.03
486.25	24023.26
486.43	23723.67
486.61	23892.19
486.78	24397.74
486.96	24416.47
487.14	24725.42
487.32	24929.05
487.50	25387.79
487.68	25579.71
487.85	25528.22
488.03	26185.91
488.21	25993.99
488.39	26160.17
488.57	26464.44
488.75	26529.97
488.92	27084.68
489.10	26881.05
489.28	27185.32
489.46	27513.00
489.64	27374.91
489.81	28329.84
489.99	28283.03
490.17	28053.66
490.35	28577.94
490.53	28730.08
490.70	28685.61
490.88	28620.07
491.06	29193.50
491.24	29125.63
491.41	29462.66
491.59	29970.56
491.77	29635.86
491.95	29895.66
492.13	30267.81
492.30	30728.89
492.48	30588.46
492.66	30829.54
492.84	30787.41
493.01	31065.93
493.19	30742.94
493.37	31360.84
493.54	31655.75
493.72	31992.78
493.90	32168.32
494.08	32278.33
494.25	32385.99
494.43	32606.00
494.61	32716.01
494.79	33165.39
494.96	32701.96
495.14	33289.44
495.32	33940.11
495.49	33673.29
495.67	33703.71
495.85	33865.21
496.02	33968.19
496.20	34335.66
496.38	34621.20
496.55	34890.37
496.73	35426.35
496.91	35140.80
497.09	35552.74
497.26	35662.74
497.44	35164.21
497.62	35707.21
497.79	36514.70
497.97	36093.40
498.14	36411.71
498.32	36924.29
498.50	37060.04
498.67	37326.86
498.85	37003.87
499.03	37195.79
499.20	37174.73
499.38	37563.26
499.56	37446.23
499.73	37226.22
499.91	37996.26
500.08	38384.79
500.26	37832.42
500.44	37949.45
500.61	38653.95
500.79	38616.50
500.97	38532.24
501.14	39274.19
501.32	39325.68
501.49	39136.10
501.67	39358.45
501.84	39393.56
502.02	39199.29
502.20	39913.16
502.37	40119.12
502.55	39999.76
502.72	39892.09
502.90	40261.90
503.07	40245.51
503.25	40399.99
503.43	39812.51
503.60	40645.74
503.78	40942.99
503.95	40664.47
504.13	41160.66
504.30	41008.53
504.48	40942.99
504.65	41350.24
504.83	41542.17
505.01	42265.39
505.18	41649.83
505.36	42057.09
505.53	41518.76
505.71	41825.37
505.88	42213.90
506.06	42143.69
506.23	42450.30
506.41	42239.65
506.58	42632.86
506.76	42946.49
506.93	43215.65
507.11	42941.81
507.28	43133.73
507.46	43412.26
507.63	43250.76
507.81	43702.48
507.98	43339.70
508.16	43667.37
508.33	44224.42
508.50	43793.76
508.68	44498.26
508.85	44371.88
509.03	44566.14
509.20	44170.59
509.38	44641.04
509.55	45193.40
509.73	44964.03
509.90	44961.69
510.08	45298.73
510.25	45207.45
510.42	45612.36
510.60	45523.42
510.77	45354.90
510.95	45902.59
511.12	45654.49
511.30	45722.37
511.47	46019.61
511.64	46239.62
511.82	46567.30
511.99	46398.78
512.17	46492.40
512.34	46075.79
512.51	46698.37
512.69	47056.47
512.86	47075.19
513.04	47199.24
513.21	47194.56
513.38	47171.16
513.56	47643.94
513.73	47674.37
513.90	47409.89
514.08	47580.75
514.25	47903.74
514.43	47948.21
514.60	48215.04
514.77	48151.84
514.95	48140.14
515.12	48193.97
515.29	48390.58
515.47	48381.21
515.64	48711.23
515.81	48559.09
515.99	48676.12
516.16	49242.53
516.33	48942.94
516.51	49340.83
516.68	49078.69
516.85	49022.52
517.03	49577.23
517.20	49696.59
517.37	49256.57
517.54	49558.50
517.72	49184.02
517.89	49436.80
518.06	49738.72
518.24	49902.56
518.41	49722.34
518.58	49902.56
518.75	50019.59
518.93	49956.39
519.10	49979.80
519.27	50286.41
519.45	50323.86
519.62	50520.46
519.79	50356.63
519.96	50534.51
520.14	50721.75
520.31	50328.54
520.48	50857.50
520.65	50670.26
520.83	51290.50
521.00	51030.70
521.17	51107.94
521.34	51318.59
521.52	51257.73
521.69	51194.54
521.86	51428.59
522.03	51533.92
522.20	51840.53
522.38	51863.93
522.55	51777.33
522.72	51973.94
522.89	51824.14
523.07	52397.57
523.24	52002.02
523.41	52210.33
523.58	52100.32
523.75	52376.51
523.92	52259.48
524.10	52514.60
524.27	52451.41
524.44	52685.46
524.61	52533.32
524.78	52706.52
524.96	52722.91
525.13	52788.44
525.30	53088.03
525.47	53186.33
525.64	52975.69
525.81	52999.09
525.98	53095.05
526.16	53097.39
526.33	53081.01
526.50	53687.21
526.67	53326.77
526.84	53432.09
527.01	53191.01
527.18	53682.53
527.36	53619.33
527.53	53572.52
527.70	53897.86
527.87	53858.07
528.04	53572.52
528.21	54094.46
528.38	53954.03
528.55	54143.61
528.72	53879.13
528.89	53963.39
529.07	53708.27
529.24	53972.75
529.41	54024.25
529.58	54071.06
529.75	53741.04
529.92	54272.34
530.09	54209.15
530.26	54459.58
530.43	54585.97
530.60	54358.94
530.77	54160.00
530.94	54316.81
531.11	54349.58
531.28	54555.55
531.46	54482.99
531.63	54714.70
531.80	54869.18
531.97	55025.99
532.14	54927.69
532.31	54990.89
532.48	54810.67
532.65	54897.27
532.82	54953.44
532.99	54981.52
533.16	55061.10
533.33	55360.69
533.50	55253.03
533.67	55262.39
533.84	54820.03
534.01	55220.26
534.18	55416.86
534.35	55599.43
534.52	55529.21
534.69	55538.57
534.86	55899.01
535.03	55564.32
535.20	55671.98
535.37	55728.16
535.54	55849.86
535.71	55618.15
535.88	55679.00
536.05	55772.63
536.22	55915.40
536.38	55756.24
536.55	55950.51
536.72	55922.42
536.89	55997.32
537.06	55877.95
537.23	56278.18
537.40	55927.10
537.57	56217.33
537.74	56210.31
537.91	56488.83
538.08	56257.12
538.25	56011.36
538.42	56308.61
538.59	56226.69
538.75	56540.32
538.92	56505.21
539.09	56549.68
539.26	56559.05
539.43	56736.93
539.60	56664.37
539.77	56704.16
539.94	56683.09
540.11	56762.67
540.28	56893.74
540.44	56980.34
540.61	56921.83
540.78	57034.17
540.95	56842.25
541.12	56671.39
541.29	56919.49
541.46	56868.00
541.62	56875.02
541.79	57118.43
541.96	56947.57
542.13	56903.10
542.30	57247.16
542.47	57209.71
542.63	57387.60
542.80	57106.73
542.97	57357.17
543.14	57609.95
543.31	57209.71
543.48	57602.92
543.64	57872.09
543.81	57719.95
543.98	57804.21
544.15	57598.24
544.32	57785.49
544.48	57872.09
544.65	57682.50
544.82	57855.70
544.99	57733.99
545.16	57928.26
545.32	57652.08
545.49	58108.48
545.66	58000.82
545.83	58045.29
546.00	57968.05
546.16	57860.38
546.33	57780.81
546.50	57867.40
546.67	58066.35
546.83	58073.37
547.00	58199.76
547.17	58019.54
547.34	58216.14
547.50	58347.21
547.67	58609.35
547.84	58244.23
548.00	58351.90
548.17	58595.31
548.34	58471.26
548.51	58564.88
548.67	58805.96
548.84	58506.37
549.01	58625.74
549.18	58497.01
549.34	58433.81
549.51	58489.99
549.68	58705.32
549.84	58663.19
550.01	58808.30
550.18	58525.10
550.34	58920.65
550.51	58932.35
550.68	58712.34
550.84	58691.27
551.01	58969.80
551.18	58864.47
551.34	58894.90
551.51	59077.46
551.68	58871.49
551.84	58841.07
552.01	58815.32
552.18	59285.77
552.34	58862.13
552.51	59110.23
552.68	58805.96
552.84	59203.85
553.01	59271.73
553.18	59065.76
553.34	59238.96
553.51	59007.25
553.67	59241.30
553.84	59353.65
554.01	59260.02
554.17	59250.66
554.34	59367.69
554.51	59159.38
554.67	59547.91
554.84	59634.51
555.00	59243.64
555.17	59157.04
555.33	59299.81
555.50	59292.79
555.67	59419.18
555.83	59201.51
556.00	59498.76
556.16	59915.37
556.33	59760.90
556.50	59412.16
556.66	59674.30
556.83	59477.69
556.99	59714.09
557.16	59870.90
557.32	59887.29
557.49	60114.32
557.65	59779.62
557.82	59641.53
557.98	59742.17
558.15	59723.45
558.32	59849.84
558.48	59709.41
558.65	59859.20
558.81	59959.84
558.98	59990.27
559.14	59969.21
559.31	59910.69
559.47	60034.74
559.64	60142.41
559.80	59980.91
559.97	60051.12
560.13	59861.54
560.30	60130.70
560.46	59910.69
560.63	60027.72
560.79	60184.54
560.96	60060.49
561.12	60025.38
561.29	60130.70
561.45	60259.43
561.61	60264.11
561.78	60111.98
561.94	60268.79
562.11	60324.97
562.27	60303.90
562.44	60306.24
562.60	60313.26
562.77	60219.64
562.93	60090.91
563.10	60385.82
563.26	60055.81
563.42	60615.19
563.59	60495.83
563.75	60238.37
563.92	60317.95
564.08	60303.90
564.24	60505.19
564.41	60519.23
564.57	60416.25
564.74	60434.97
564.90	60626.90
565.07	60322.63
565.23	60360.08
565.39	60486.46
565.56	60612.85
565.72	60474.76
565.88	60451.36
566.05	60423.27
566.21	60449.02
566.38	60526.25
566.54	60638.60
566.70	60657.32
566.87	60800.10
567.03	60519.23
567.19	60776.69
567.36	60626.90
567.52	60690.09
567.68	60893.72
567.85	60512.21
568.01	60776.69
568.17	60582.43
568.34	60807.12
568.50	60612.85
568.66	60596.47
568.83	60638.60
568.99	60811.80
569.15	60734.56
569.32	60776.69
569.48	60626.90
569.64	60851.59
569.81	60882.02
569.97	60746.26
570.13	60659.66
570.30	60767.33
570.46	60853.93
570.62	60832.86
570.78	60933.51
570.95	60692.43
571.11	61073.94
571.27	60706.47
571.43	60837.54
571.60	61055.21
571.76	61055.21
571.92	60945.21
572.09	61141.81
572.25	60938.19
572.41	60912.44
572.57	60942.87
572.74	61113.73
572.90	61017.77
573.06	60975.64
573.22	60832.86
573.38	60781.37
573.55	60851.59
573.71	61307.99
573.87	60896.06
574.03	60842.23
574.20	60910.10
574.36	61090.32
574.52	61022.45
574.68	60956.91
574.84	61123.09
575.01	61020.11
575.17	60996.70
575.33	60992.02
575.49	61024.79
575.65	61092.66
575.82	61296.29
575.98	60949.89
576.14	61172.24
576.30	61272.88
576.46	60987.34
576.62	61111.39
576.79	60968.61
576.95	60987.34
577.11	61235.44
577.27	61221.39
577.43	61045.85
577.59	60954.57
577.75	60931.17
577.92	61137.13
578.08	60999.04
578.24	61188.63
578.40	61345.44
578.56	61352.46
578.72	61146.50
578.88	61307.99
579.04	61396.93
579.21	61258.84
579.37	61284.59
579.53	61464.81
579.69	61153.52
579.85	61223.73
580.01	61020.11
580.17	61183.94
580.33	61233.10
580.49	61427.36
580.65	61181.60
580.82	61289.27
580.98	61111.39
581.14	61090.32
581.30	61254.16
581.46	61347.78
581.62	61109.05
581.78	61207.35
581.94	61352.46
582.10	61272.88
582.26	61324.38
582.42	61104.37
582.58	61268.20
582.74	61219.05
582.90	61151.18
583.06	61385.23
583.22	61310.33
583.38	61336.08
583.54	61244.80
583.70	61343.10
583.86	61455.45
584.02	61284.59
584.18	61392.25
584.34	61336.08
584.50	61277.57
584.66	61427.36
584.82	61179.26
584.98	61364.17
585.14	61333.74
585.30	61303.31
585.46	61221.39
585.62	61095.00
585.78	61436.72
585.94	61076.28
586.10	61441.40
586.26	61340.76
586.42	61502.26
586.58	61598.22
586.74	61270.54
586.90	61230.75
587.06	61233.10
587.22	61656.73
587.38	61474.17
587.54	61556.09
587.70	61478.85
587.86	61368.85
588.02	61544.39
588.18	61490.55
588.34	61378.21
588.49	61235.44
