SpectraSuite Data File
++++++++++++++++++++++++++++++++++++
Date: Fri Oct 25 10:48:36 EDT 2013
User: price-jones
Dark Spectrum Present: No
Reference Spectrum Present: No
Number of Sampled Component Spectra: 1
Spectrometers: USB2+H05261
Integration Time (usec): 100000 (USB2+H05261)
Spectra Averaged: 1 (USB2+H05261)
Boxcar Smoothing: 0 (USB2+H05261)
Correct for Electrical Dark: No (USB2+H05261)
Strobe/Lamp Enabled: No (USB2+H05261)
Correct for Detector Non-linearity: No (USB2+H05261)
Correct for Stray Light: No (USB2+H05261)
Number of Pixels in Processed Spectrum: 2048
>>>>>Begin Processed Spectral Data<<<<<
365.73	121.71
365.92	121.71
366.12	121.71
366.32	58.51
366.52	46.81
366.72	56.17
366.91	32.77
367.11	56.17
367.31	49.15
367.51	44.47
367.70	0.00
367.90	58.51
368.10	74.90
368.30	53.83
368.49	0.00
368.69	39.79
368.89	46.81
369.09	35.11
369.28	112.35
369.48	121.71
369.68	77.24
369.87	98.30
370.07	131.07
370.27	191.92
370.47	205.97
370.66	444.70
370.86	362.78
371.06	461.09
371.25	514.92
371.45	428.32
371.65	557.05
371.84	425.98
372.04	531.30
372.24	517.26
372.44	484.49
372.63	519.60
372.83	575.77
373.03	531.30
373.22	519.60
373.42	627.26
373.62	456.40
373.81	557.05
374.01	592.16
374.21	575.77
374.40	599.18
374.60	638.97
374.79	538.32
374.99	561.73
375.19	585.13
375.38	669.39
375.58	660.03
375.78	709.18
375.97	688.12
376.17	744.29
376.37	634.29
376.56	676.41
376.76	627.26
376.95	678.76
377.15	667.05
377.35	791.10
377.54	720.88
377.74	678.76
377.93	636.63
378.13	648.33
378.33	751.31
378.52	734.93
378.72	770.04
378.91	615.56
379.11	685.78
379.31	716.20
379.50	669.39
379.70	629.60
379.89	683.44
380.09	753.65
380.28	725.57
380.48	667.05
380.68	791.10
380.87	781.74
381.07	812.17
381.26	720.88
381.46	716.20
381.65	685.78
381.85	716.20
382.04	711.52
382.24	751.31
382.43	716.20
382.63	725.57
382.83	763.01
383.02	725.57
383.22	765.36
383.41	695.14
383.61	823.87
383.80	884.72
384.00	828.55
384.19	788.76
384.39	802.80
384.58	938.55
384.78	866.00
384.97	924.51
385.17	830.89
385.36	793.44
385.56	882.38
385.75	849.61
385.95	870.68
386.14	912.81
386.34	791.10
386.53	884.72
386.72	933.87
386.92	983.02
387.11	915.15
387.31	1036.86
387.50	868.34
387.70	903.45
387.89	844.93
388.09	936.21
388.28	938.55
388.48	922.17
388.67	1067.28
388.86	945.58
389.06	917.49
389.25	1055.58
389.45	929.19
389.64	973.66
389.84	1093.03
390.03	1062.60
390.22	1015.79
390.42	1086.01
390.61	1057.92
390.81	1032.18
391.00	1139.84
391.19	1165.59
391.39	1116.44
391.58	1057.92
391.78	1116.44
391.97	1125.80
392.16	1165.59
392.36	1123.46
392.55	1071.97
392.75	1046.22
392.94	1029.84
393.13	1043.88
393.33	1060.26
393.52	1165.59
393.71	1142.18
393.91	1156.22
394.10	1116.44
394.29	1203.04
394.49	1125.80
394.68	1277.93
394.88	1291.98
395.07	1448.79
395.26	1343.47
395.46	1320.06
395.65	1394.96
395.84	1163.25
396.04	1334.11
396.23	1270.91
396.42	1310.70
396.62	1242.82
396.81	1275.59
397.00	1306.02
397.19	1432.41
397.39	1385.60
397.58	1474.54
397.77	1488.58
397.97	1535.39
398.16	1462.83
398.35	1589.22
398.55	1488.58
398.74	1544.75
398.93	1664.12
399.12	1626.67
399.32	1511.99
399.51	1542.41
399.70	1710.93
399.90	1612.63
400.09	1643.06
400.28	1743.70
400.47	1666.46
400.67	1825.62
400.86	1769.44
401.05	1764.76
401.24	1771.79
401.44	1621.99
401.63	1760.08
401.82	1809.23
402.01	1823.28
402.21	1963.71
402.40	1902.86
402.59	1860.73
402.78	1886.47
402.97	1898.17
403.17	1830.30
403.36	1853.70
403.55	1937.96
403.74	2008.18
403.93	1935.62
404.13	1914.56
404.32	1977.75
404.51	1928.60
404.70	2031.58
404.89	1977.75
405.09	2083.08
405.28	2005.84
405.47	2092.44
405.66	2165.00
405.85	2230.53
406.05	2104.14
406.24	2101.80
406.43	2080.74
406.62	2143.93
406.81	2277.34
407.00	2146.27
407.20	1980.09
407.39	2115.84
407.58	2230.53
407.77	2214.15
407.96	2312.45
408.15	2324.15
408.34	2319.47
408.54	2347.56
408.73	2370.96
408.92	2286.70
409.11	2438.84
409.30	2443.52
409.49	2380.32
409.68	2401.39
409.87	2293.72
410.07	2354.58
410.26	2576.93
410.45	2623.74
410.64	2565.23
410.83	2637.78
411.02	2637.78
411.21	2736.09
411.40	2686.94
411.59	2740.77
411.78	2717.36
411.98	2712.68
412.17	2869.50
412.36	2731.41
412.55	2801.62
412.74	2693.96
412.93	2932.69
413.12	2820.35
413.31	3091.85
413.50	3089.51
413.69	2963.12
413.88	3082.49
414.07	3059.08
414.26	3110.57
414.45	2977.16
414.64	3131.64
414.83	3119.93
415.02	3091.85
415.22	3218.24
415.41	3260.37
415.60	3262.71
415.79	3431.23
415.98	3445.27
416.17	3449.95
416.36	3452.29
416.55	3576.34
416.74	3435.91
416.93	3468.67
417.12	3527.19
417.31	3492.08
417.50	3487.40
417.69	3478.04
417.88	3611.45
418.07	3482.72
418.26	3438.25
418.45	3520.17
418.64	3786.99
418.83	3726.13
419.02	3765.92
419.21	3784.65
419.39	3700.39
419.58	3660.60
419.77	3665.28
419.96	3770.60
420.15	3775.28
420.34	3868.91
420.53	3950.82
420.72	3971.89
420.91	3995.29
421.10	4091.26
421.29	4159.13
421.48	3843.16
421.67	3992.95
421.86	3983.59
422.05	3913.38
422.24	3920.40
422.43	3929.76
422.61	4121.68
422.80	4156.79
422.99	4100.62
423.18	4112.32
423.37	4039.76
423.56	4119.34
423.75	4072.53
423.94	3929.76
424.13	3826.78
424.32	3904.01
424.50	3990.61
424.69	4163.81
424.88	4252.75
425.07	4212.96
425.26	3976.57
425.45	3976.57
425.64	4056.15
425.83	4126.36
426.01	4093.60
426.20	4205.94
426.39	4201.26
426.58	4304.25
426.77	4238.71
426.96	3990.61
427.15	4175.52
427.33	4266.80
427.52	4175.52
427.71	4222.33
427.90	4299.56
428.09	4180.20
428.28	4322.97
428.46	4252.75
428.65	4264.46
428.84	4491.49
429.03	4386.16
429.22	4308.93
429.40	4280.84
429.59	4376.80
429.78	3981.25
429.97	4189.56
430.16	4231.69
430.34	4304.25
430.53	4227.01
430.72	4358.08
430.91	4407.23
431.10	4547.66
431.28	4788.74
431.47	4781.71
431.66	4868.31
431.85	4631.92
432.03	4716.18
432.22	4770.01
432.41	4842.57
432.60	4613.20
432.79	4973.64
432.97	4901.08
433.16	4929.17
433.35	4873.00
433.54	4915.12
433.72	4882.36
433.91	4903.42
434.10	4919.81
434.28	5046.20
434.47	5121.09
434.66	5078.96
434.85	5107.05
435.03	5090.67
435.22	5195.99
435.41	5207.69
435.59	5313.02
435.78	5385.57
435.97	5369.19
436.16	5322.38
436.34	5259.18
436.53	5376.21
436.72	5561.11
436.90	5369.19
437.09	5357.49
437.28	5266.21
437.46	5352.81
437.65	5352.81
437.84	5313.02
438.02	5336.42
438.21	5401.96
438.40	5270.89
438.58	5584.52
438.77	5591.54
438.96	5528.35
439.14	5713.25
439.33	5905.17
439.52	5858.36
439.70	5949.64
439.89	5961.34
440.08	5778.78
440.26	5996.45
440.45	5966.03
440.63	6026.88
440.82	6246.89
441.01	6272.64
441.19	6232.85
441.38	6277.32
441.57	6492.65
441.75	6422.43
441.94	6747.76
442.12	6600.31
442.31	6462.22
442.50	6427.11
442.68	6530.09
442.87	6502.01
443.05	6424.77
443.24	6684.57
443.43	6670.53
443.61	6745.42
443.80	6848.41
443.98	6546.48
444.17	6663.51
444.35	6705.63
444.54	6998.20
444.73	6600.31
444.91	6743.08
445.10	6715.00
445.28	6789.89
445.47	6633.08
445.65	6612.01
445.84	6759.47
446.02	6939.69
446.21	6878.83
446.39	6998.20
446.58	7049.69
446.77	6843.73
446.95	6752.45
447.14	6986.50
447.32	7243.96
447.51	6904.58
447.69	6792.23
447.88	6764.15
448.06	7068.42
448.25	7059.06
448.43	7042.67
448.62	6958.41
448.80	7140.97
448.99	7194.81
449.17	7300.13
449.36	7178.42
449.54	7370.35
449.73	7260.34
449.91	7403.11
450.10	7810.37
450.28	7576.31
450.46	7604.40
450.65	7573.97
450.83	7398.43
451.02	7623.12
451.20	7485.03
451.39	7414.82
451.57	7447.58
451.76	7485.03
451.94	7581.00
452.13	7531.84
452.31	7644.19
452.49	7428.86
452.68	7452.27
452.86	7424.18
453.05	7595.04
453.23	7522.48
453.42	7442.90
453.60	7623.12
453.78	7815.05
453.97	7707.38
454.15	7698.02
454.34	7756.54
454.52	7812.71
454.70	7700.36
454.89	7831.43
455.07	8053.78
455.26	7927.39
455.44	8114.64
455.62	7735.47
455.81	8006.97
455.99	7990.59
456.17	8072.51
456.36	8252.73
456.54	8217.62
456.73	8304.22
456.91	8657.64
457.09	8587.43
457.28	8725.52
457.46	8269.11
457.64	8428.27
457.83	8650.62
458.01	8496.14
458.19	8601.47
458.38	8542.96
458.56	8566.36
458.74	8505.51
458.93	8533.59
459.11	8711.47
459.29	8510.19
459.48	8608.49
459.66	8760.63
459.84	8987.66
460.03	8966.59
460.21	8781.69
460.39	9109.36
460.57	8617.85
460.76	9034.47
460.94	8898.72
461.12	8997.02
461.31	8917.44
461.49	8943.19
461.67	8992.34
461.85	9128.09
462.04	9160.86
462.22	9708.54
462.40	9383.21
462.59	9369.16
462.77	9301.29
462.95	9261.50
463.13	9312.99
463.32	9301.29
463.50	9394.91
463.68	9390.23
463.86	9488.53
464.05	9439.38
464.23	9214.69
464.41	9479.17
464.59	9130.43
464.78	9706.20
464.96	9596.20
465.14	9210.01
465.32	9439.38
465.50	9715.56
465.69	9781.10
465.87	9586.83
466.05	9645.35
466.23	9462.79
466.41	9535.34
466.60	9790.46
466.78	9460.45
466.96	9685.14
467.14	9633.64
467.32	9603.22
467.51	9949.62
467.69	9500.23
467.87	9867.70
468.05	9886.42
468.23	9895.78
468.41	9750.67
468.60	9921.53
468.78	10047.92
468.96	9841.95
469.14	10083.03
469.32	10099.41
469.50	10076.01
469.69	9930.89
469.87	10066.64
470.05	10169.63
470.23	10097.07
470.41	10078.35
470.59	10307.72
470.77	10480.92
470.95	10445.81
471.14	10478.58
471.32	10338.15
471.50	10560.50
471.68	10719.65
471.86	10986.47
472.04	10839.02
472.22	11012.22
472.40	10750.08
472.58	10668.16
472.77	10621.35
472.95	11052.01
473.13	11183.08
473.31	11023.92
473.49	11178.40
473.67	10979.45
473.85	11138.61
474.03	11304.79
474.21	11405.43
474.39	11573.95
474.57	11424.15
474.75	11644.17
474.93	11529.48
475.12	11440.54
475.30	11728.42
475.48	11695.66
475.66	11639.48
475.84	11545.86
476.02	11983.54
476.20	11878.22
476.38	12126.32
476.56	12252.70
476.74	12514.84
476.92	12149.72
477.10	12444.63
477.28	12538.25
477.46	12594.42
477.64	12650.60
477.82	13039.12
478.00	13015.72
478.18	12833.16
478.36	13174.88
478.54	13357.44
478.72	13298.92
478.90	13532.98
479.08	13935.55
479.26	13624.26
479.44	13804.48
479.62	13757.67
479.80	13942.57
479.98	13736.60
480.16	14073.64
480.34	13668.73
480.52	14333.44
480.70	14340.46
480.88	14169.60
481.06	14441.11
481.24	14728.99
481.41	14913.89
481.59	15012.20
481.77	14953.68
481.95	14906.87
482.13	15056.67
482.31	15220.50
482.49	15459.24
482.67	15482.64
482.85	15604.35
483.03	15669.89
483.21	15873.51
483.39	16074.80
483.57	15826.70
483.74	16116.93
483.92	16020.97
484.10	16020.97
484.28	16575.67
484.46	16931.44
484.64	16954.84
484.82	16830.79
485.00	16704.40
485.18	16783.98
485.35	17231.02
485.53	16730.15
485.71	16734.83
485.89	16964.20
486.07	16943.14
486.25	17025.06
486.43	17436.99
486.61	17734.24
486.78	17907.44
486.96	17774.03
487.14	18462.15
487.32	18565.13
487.50	18534.70
487.68	18726.63
487.85	19255.59
488.03	19417.08
488.21	19283.67
488.39	19206.44
488.57	19077.71
488.75	19590.28
488.92	19524.75
489.10	19887.53
489.28	19976.47
489.46	20519.48
489.64	20400.11
489.81	20744.17
489.99	20779.28
490.17	20816.72
490.35	21144.40
490.53	21008.65
490.70	21429.94
490.88	21132.70
491.06	21436.97
491.24	21750.60
491.41	21338.66
491.59	21551.65
491.77	21804.43
491.95	21919.12
492.13	21961.25
492.30	22422.33
492.48	22544.04
492.66	22398.93
492.84	22544.04
493.01	22661.07
493.19	23065.98
493.37	22820.22
493.54	23126.83
493.72	23536.43
493.90	23461.53
494.08	23885.17
494.25	24016.24
494.43	24032.62
494.61	24137.94
494.79	24627.12
494.96	24322.85
495.14	24423.49
495.32	24355.61
495.49	24592.01
495.67	24954.79
495.85	25095.22
496.02	24975.86
496.20	25322.26
496.38	25472.05
496.55	25469.71
496.73	25956.54
496.91	25818.45
497.09	25722.49
497.26	26040.80
497.44	25813.77
497.62	25991.65
497.79	26438.69
497.97	26174.21
498.14	26338.05
498.32	26700.83
498.50	26551.04
498.67	26998.08
498.85	27318.73
499.03	27283.62
499.20	27302.35
499.38	27147.87
499.56	27417.04
499.73	27325.75
499.91	27559.81
500.08	27459.16
500.26	27468.53
500.44	27662.79
500.61	27618.32
500.79	27452.14
500.97	27538.74
501.14	28088.77
501.32	28233.88
501.49	28086.43
501.67	28540.49
501.84	28250.27
502.02	28339.21
502.20	28891.57
502.37	28872.85
502.55	29057.75
502.72	28973.49
502.90	29020.30
503.07	29010.94
503.25	29387.77
503.43	29015.62
503.60	29006.26
503.78	29305.85
503.95	29546.92
504.13	29792.68
504.30	29818.42
504.48	29926.09
504.65	30015.03
504.83	29958.86
505.01	30506.54
505.18	29968.22
505.36	30373.13
505.53	30607.19
505.71	30934.86
505.88	30916.14
506.06	30426.96
506.23	30810.81
506.41	30403.56
506.58	30895.07
506.76	30785.07
506.93	31501.27
507.11	31321.05
507.28	30986.35
507.46	30852.94
507.63	31124.44
507.81	31372.54
507.98	31138.49
508.16	31599.57
508.33	31573.83
508.50	31611.28
508.68	31924.91
508.85	32306.41
509.03	31920.23
509.20	32327.48
509.38	32577.92
509.55	32390.67
509.73	32378.97
509.90	32804.95
510.08	32088.74
510.25	32650.47
510.42	32650.47
510.60	33078.79
510.77	33198.16
510.95	33249.65
511.12	32964.10
511.30	33280.08
511.47	33251.99
511.64	33654.56
511.82	33879.25
511.99	33638.18
512.17	33586.69
512.34	33380.72
512.51	33947.13
512.69	34216.29
512.86	33610.09
513.04	33706.05
513.21	33930.75
513.38	34211.61
513.56	34050.11
513.73	33820.74
513.90	34347.36
514.08	34127.35
514.25	34157.78
514.43	34763.98
514.60	34405.88
514.77	34338.00
514.95	34714.83
515.12	34714.83
515.29	34717.17
515.47	34967.60
515.64	35274.21
515.81	34944.20
515.99	35019.10
516.16	34658.65
516.33	34726.53
516.51	34785.04
516.68	34691.42
516.85	34115.65
517.03	34991.01
517.20	35079.95
517.37	35592.53
517.54	35580.82
517.72	35515.29
517.89	35112.72
518.06	35260.17
518.24	35225.06
518.41	35510.61
518.58	35765.73
518.75	36016.16
518.93	35674.45
519.10	35817.22
519.27	36470.23
519.45	36273.62
519.62	36184.68
519.79	36627.04
519.96	36627.04
520.14	36650.45
520.31	36488.95
520.48	37020.25
520.65	36769.82
520.83	37188.77
521.00	37165.37
521.17	37291.76
521.34	37289.42
521.52	37596.03
521.69	37420.48
521.86	37418.14
522.03	37921.36
522.20	37184.09
522.38	37457.93
522.55	37432.19
522.72	37518.79
522.89	37663.90
523.07	37816.04
523.24	37902.64
523.41	38094.56
523.58	38040.73
523.75	38763.95
523.92	38309.89
524.10	38190.52
524.27	38106.26
524.44	38539.26
524.61	38459.68
524.78	38773.31
524.96	38710.12
525.13	38703.10
525.30	39068.22
525.47	39033.11
525.64	39295.25
525.81	38843.53
525.98	38574.37
526.16	38735.87
526.33	38337.98
526.50	38682.03
526.67	38539.26
526.84	39007.37
527.01	38824.81
527.18	39012.05
527.36	39262.49
527.53	39304.62
527.70	39686.12
527.87	39662.72
528.04	39831.24
528.21	40112.10
528.38	39550.37
528.55	40205.72
528.72	40011.46
528.89	40776.81
529.07	40376.58
529.24	39999.76
529.41	40107.42
529.58	40187.00
529.75	39880.39
529.92	40140.19
530.09	40362.54
530.26	40318.07
530.43	40802.56
530.60	40297.00
530.77	40704.26
530.94	41041.29
531.11	40217.43
531.28	40598.93
531.46	40931.29
531.63	40746.39
531.80	40596.59
531.97	40708.94
532.14	41095.13
532.31	40629.36
532.48	40472.54
532.65	40882.14
532.82	40769.79
532.99	41113.85
533.16	41038.95
533.33	40832.99
533.50	41778.56
533.67	41338.54
533.84	40631.70
534.01	41457.91
534.18	41439.18
534.35	41652.17
534.52	41200.45
534.69	41933.04
534.86	41963.46
535.03	41645.15
535.20	42351.99
535.37	42377.74
535.54	42314.55
535.71	42419.87
535.88	42340.29
536.05	41851.12
536.22	42270.08
536.38	41717.71
536.55	42230.29
536.72	41986.87
536.89	41731.75
537.06	42050.06
537.23	42323.91
537.40	42174.11
537.57	42220.92
537.74	42302.84
537.91	42663.28
538.08	42960.53
538.25	42295.82
538.42	42787.33
538.59	42763.93
538.75	42223.26
538.92	42522.85
539.09	42815.42
539.26	42850.53
539.43	42691.37
539.60	42579.03
539.77	42836.48
539.94	43302.25
540.11	42644.56
540.28	42356.67
540.44	42763.93
540.61	42609.45
540.78	42667.97
540.95	43213.31
541.12	42775.63
541.29	43042.45
541.46	42960.53
541.62	43136.07
541.79	43540.99
541.96	42979.26
542.13	42913.72
542.30	43363.11
542.47	43732.91
542.63	43210.97
542.80	43571.41
542.97	44030.16
543.14	44114.42
543.31	44245.49
543.48	43746.95
543.64	44121.44
543.81	44252.51
543.98	44505.29
544.15	43800.79
544.32	43964.62
544.48	44601.25
544.65	44713.59
544.82	44041.86
544.99	43938.88
545.16	43938.88
545.32	44322.72
545.49	44781.47
545.66	44568.48
545.83	44285.28
546.00	44687.85
546.16	44619.97
546.33	44355.49
546.50	43660.35
546.67	44402.30
546.83	44126.12
547.00	44538.05
547.17	44797.85
547.34	44294.64
547.50	44804.88
547.67	44875.09
547.84	44783.81
548.00	45509.38
548.17	44797.85
548.34	44744.02
548.51	45331.50
548.67	45118.51
548.84	45001.48
549.01	45249.58
549.18	44924.24
549.34	45083.40
549.51	45361.92
549.68	45478.95
549.84	45537.46
550.01	45537.46
550.18	44935.95
550.34	45186.38
550.51	45251.92
550.68	44673.81
550.84	45347.88
551.01	45544.48
551.18	45202.77
551.34	45170.00
551.51	45516.40
551.68	45663.85
551.84	45574.91
552.01	45797.26
552.18	45509.38
552.34	45404.05
552.51	45684.92
552.68	45698.96
552.84	45958.76
553.01	46181.11
553.18	45642.79
553.34	45687.26
553.51	45741.09
553.67	45825.35
553.84	45996.21
554.01	46174.09
554.17	46138.98
554.34	46349.63
554.51	46178.77
554.67	46286.43
554.84	45675.55
555.00	46141.32
555.17	45883.86
555.33	46277.07
555.50	45710.66
555.67	46347.29
555.83	46197.49
556.00	46110.89
556.16	46595.38
556.33	46485.38
556.50	46316.86
556.66	46190.47
556.83	46209.20
556.99	46256.01
557.16	46202.18
557.32	46485.38
557.49	46536.87
557.65	46237.28
557.82	46485.38
557.98	46433.89
558.15	46391.76
558.32	46138.98
558.48	46333.24
558.65	46461.97
558.81	46209.20
558.98	46508.79
559.14	46253.67
559.31	46419.84
559.47	46473.68
559.64	46485.38
559.80	46855.18
559.97	46466.66
560.13	46777.95
560.30	46506.44
560.46	46515.81
560.63	46644.54
560.79	46820.08
560.96	47117.32
561.12	46902.00
561.29	46958.17
561.45	46803.69
561.61	46539.21
561.78	46602.41
561.94	46883.27
562.11	46789.65
562.27	46845.82
562.44	46972.21
562.60	46902.00
562.77	47173.50
562.93	47208.61
563.10	47126.69
563.26	46824.76
563.42	47058.81
563.59	46651.56
563.75	46890.29
563.92	47302.23
564.08	46808.37
564.24	47332.65
564.41	47028.38
564.57	47033.07
564.74	46794.33
564.90	46937.10
565.07	47166.48
565.23	46866.89
565.39	46923.06
565.56	47047.11
565.72	46766.24
565.88	46923.06
566.05	47295.21
566.21	46862.21
566.38	46892.63
566.54	47210.95
566.70	47386.49
566.87	47463.72
567.03	47405.21
567.19	47187.54
567.36	47288.18
567.52	47009.66
567.68	47033.07
567.85	46988.60
568.01	47194.56
568.17	46696.03
568.34	47122.01
568.50	47358.40
568.66	47203.92
568.83	47349.04
568.99	47274.14
569.15	46756.88
569.32	47173.50
569.48	47189.88
569.64	47297.55
569.81	47103.28
569.97	47386.49
570.13	47224.99
570.30	46756.88
570.46	47047.11
570.62	46754.54
570.78	46691.35
570.95	46925.40
571.11	46899.65
571.27	46899.65
571.43	46890.29
571.60	47241.37
571.76	47138.39
571.92	47433.30
572.09	47323.29
572.25	47227.33
572.41	47232.01
572.57	47166.48
572.74	47966.94
572.90	47522.24
573.06	47707.14
573.22	47407.55
573.38	47257.76
573.55	47126.69
573.71	47475.43
573.87	47381.80
574.03	47178.18
574.20	47217.97
574.36	47344.36
574.52	47540.96
574.68	47356.06
574.84	47784.38
575.01	47199.24
575.17	47255.42
575.33	47262.44
575.49	47512.88
575.65	47639.26
575.82	47185.20
575.98	47622.88
576.14	47824.17
576.30	47325.63
576.46	47278.82
576.62	47194.56
576.79	47136.05
576.95	46672.62
577.11	47374.78
577.27	47641.60
577.43	47377.12
577.59	47281.16
577.75	47157.11
577.92	47173.50
578.08	47562.03
578.24	46951.15
578.40	47110.30
578.56	47075.19
578.72	47571.39
578.88	47370.10
579.04	47578.41
579.21	47061.15
579.37	47519.90
579.53	47297.55
579.69	47079.88
579.85	47185.20
580.01	47564.37
580.17	47339.68
580.33	47620.54
580.49	47625.22
580.65	47573.73
580.82	47892.04
580.98	48069.92
581.14	46890.29
581.30	47405.21
581.46	47784.38
581.62	47599.47
581.78	47089.24
581.94	48009.07
582.10	47550.32
582.26	47856.93
582.42	47547.98
582.58	47597.13
582.74	47370.10
582.90	47838.21
583.06	47435.64
583.22	47922.47
583.38	47608.84
583.54	47714.16
583.70	47426.28
583.86	47311.59
584.02	47100.94
584.18	47285.84
584.34	47374.78
584.50	47299.89
584.66	47606.50
584.82	47138.39
584.98	47353.72
585.14	47964.60
585.30	47196.90
585.46	47140.73
585.62	47175.84
585.78	47414.57
585.94	47159.45
586.10	47232.01
586.26	47171.16
586.42	47793.74
586.58	47674.37
586.74	47533.94
586.90	47751.61
587.06	47269.46
587.22	47388.83
587.38	47012.00
587.54	47791.40
587.70	47922.47
587.86	47615.86
588.02	47334.99
588.18	47632.24
588.34	47494.15
588.49	46951.15
588.65	46801.35
588.81	46876.25
588.97	46883.27
589.13	47262.44
589.29	47063.49
589.45	47012.00
589.61	47384.15
589.77	47636.92
