SpectraSuite Data File
++++++++++++++++++++++++++++++++++++
Date: Fri Oct 25 11:23:58 EDT 2013
User: price-jones
Dark Spectrum Present: No
Reference Spectrum Present: No
Number of Sampled Component Spectra: 1
Spectrometers: USB2+H05261
Integration Time (usec): 100000 (USB2+H05261)
Spectra Averaged: 1 (USB2+H05261)
Boxcar Smoothing: 0 (USB2+H05261)
Correct for Electrical Dark: No (USB2+H05261)
Strobe/Lamp Enabled: No (USB2+H05261)
Correct for Detector Non-linearity: No (USB2+H05261)
Correct for Stray Light: No (USB2+H05261)
Number of Pixels in Processed Spectrum: 2048
>>>>>Begin Processed Spectral Data<<<<<
365.73	299.59
365.92	299.59
366.12	299.59
366.32	224.69
366.52	142.77
366.72	131.07
366.91	53.83
367.11	81.92
367.31	84.26
367.51	44.47
367.70	102.98
367.90	131.07
368.10	154.48
368.30	25.75
368.49	177.88
368.69	88.94
368.89	131.07
369.09	126.39
369.28	156.82
369.48	152.13
369.68	142.77
369.87	154.48
370.07	156.82
370.27	177.88
370.47	259.80
370.66	645.99
370.86	540.66
371.06	667.05
371.25	695.14
371.45	643.65
371.65	692.80
371.84	596.84
372.04	681.10
372.24	690.46
372.44	704.50
372.63	744.29
372.83	737.27
373.03	718.54
373.22	690.46
373.42	784.08
373.62	755.99
373.81	748.97
374.01	863.66
374.21	875.36
374.40	802.80
374.60	833.23
374.79	858.98
374.99	805.14
375.19	795.78
375.38	800.46
375.58	828.55
375.78	826.21
375.97	816.85
376.17	837.91
376.37	847.27
376.56	880.04
376.76	959.62
376.95	875.36
377.15	945.58
377.35	896.43
377.54	917.49
377.74	884.72
377.93	877.70
378.13	910.47
378.33	912.81
378.52	882.38
378.72	943.24
378.91	1013.45
379.11	924.51
379.31	912.81
379.50	938.55
379.70	964.30
379.89	1020.47
380.09	1018.13
380.28	954.94
380.48	1050.90
380.68	978.34
380.87	980.68
381.07	924.51
381.26	980.68
381.46	1011.11
381.65	1011.11
381.85	1055.58
382.04	1067.28
382.24	1144.52
382.43	992.39
382.63	1048.56
382.83	1071.97
383.02	1083.67
383.22	1036.86
383.41	1114.10
383.61	1048.56
383.80	1174.95
384.00	983.02
384.19	1114.10
384.39	1104.73
384.58	1156.22
384.78	1090.69
384.97	1069.62
385.17	1186.65
385.36	1107.07
385.56	1149.20
385.75	1146.86
385.95	1088.35
386.14	1186.65
386.34	1184.31
386.53	1137.50
386.72	1160.91
386.92	1287.29
387.11	1249.85
387.31	1249.85
387.50	1214.74
387.70	1301.34
387.89	1284.95
388.09	1254.53
388.28	1350.49
388.48	1296.66
388.67	1364.53
388.86	1345.81
389.06	1352.83
389.25	1336.45
389.45	1301.34
389.64	1247.51
389.84	1352.83
390.03	1315.38
390.22	1343.47
390.42	1434.75
390.61	1343.47
390.81	1350.49
391.00	1369.21
391.19	1479.22
391.39	1446.45
391.58	1497.94
391.78	1401.98
391.97	1373.89
392.16	1497.94
392.36	1521.35
392.55	1516.67
392.75	1551.78
392.94	1483.90
393.13	1446.45
393.33	1547.09
393.52	1612.63
393.71	1650.08
393.91	1572.84
394.10	1551.78
394.29	1596.25
394.49	1516.67
394.68	1533.05
394.88	1657.10
395.07	1636.03
395.26	1633.69
395.46	1593.90
395.65	1710.93
395.84	1558.80
396.04	1710.93
396.23	1727.32
396.42	1825.62
396.62	1792.85
396.81	1769.44
397.00	1732.00
397.19	1736.68
397.39	1753.06
397.58	1774.13
397.77	1846.68
397.97	1912.22
398.16	1856.04
398.35	1870.09
398.55	1771.79
398.74	1954.35
398.93	1966.05
399.12	1863.07
399.32	2015.20
399.51	1975.41
399.70	2012.86
399.90	2008.18
400.09	2001.16
400.28	2040.95
400.47	1935.62
400.67	2099.46
400.86	2118.18
401.05	2115.84
401.24	2045.63
401.44	2186.06
401.63	2165.00
401.82	2146.27
402.01	2129.89
402.21	2172.02
402.40	2078.40
402.59	2179.04
402.78	2256.28
402.97	2188.40
403.17	2303.09
403.36	2352.24
403.55	2277.34
403.74	2349.90
403.93	2429.48
404.13	2377.98
404.32	2403.73
404.51	2513.74
404.70	2464.58
404.89	2305.43
405.09	2612.04
405.28	2450.54
405.47	2464.58
405.66	2462.24
405.85	2438.84
406.05	2597.99
406.24	2602.68
406.43	2499.69
406.62	2649.49
406.81	2593.31
407.00	2672.89
407.20	2588.63
407.39	2649.49
407.58	2836.73
407.77	2719.70
407.96	2626.08
408.15	2764.17
408.34	2644.81
408.54	2787.58
408.73	2794.60
408.92	2778.22
409.11	2930.35
409.30	2888.22
409.49	3009.93
409.68	2825.03
409.87	2988.86
410.07	3042.70
410.26	3056.74
410.45	3066.10
410.64	3211.22
410.83	3117.59
411.02	3087.17
411.21	3112.91
411.40	3173.77
411.59	3143.34
411.78	3243.98
411.98	3208.87
412.17	3204.19
412.36	3283.77
412.55	3321.22
412.74	3400.80
412.93	3431.23
413.12	3389.10
413.31	3646.55
413.50	3510.80
413.69	3487.40
413.88	3574.00
414.07	3566.98
414.26	3681.66
414.45	3609.11
414.64	3588.04
414.83	3852.52
415.02	3714.43
415.22	3913.38
415.41	3946.14
415.60	3829.12
415.79	3906.35
415.98	3822.09
416.17	3953.16
416.36	4042.11
416.55	3873.59
416.74	3960.19
416.93	3992.95
417.12	4023.38
417.31	4142.75
417.50	4173.18
417.69	4205.94
417.88	4241.05
418.07	4294.88
418.26	4388.50
418.45	4428.29
418.64	4329.99
418.83	4379.14
419.02	4311.27
419.21	4411.91
419.39	4512.55
419.58	4540.64
419.77	4369.78
419.96	4599.15
420.15	4678.73
420.34	4545.32
420.53	4615.54
420.72	4741.93
420.91	4660.01
421.10	4755.97
421.29	4751.29
421.48	4720.86
421.67	4858.95
421.86	4727.88
422.05	4723.20
422.24	4924.49
422.43	4755.97
422.61	4699.80
422.80	4985.34
422.99	5001.72
423.18	4983.00
423.37	5081.30
423.56	4875.34
423.75	4973.64
423.94	4800.44
424.13	4566.39
424.32	4805.12
424.50	4994.70
424.69	5296.63
424.88	5149.18
425.07	5020.45
425.26	4875.34
425.45	5020.45
425.64	5046.20
425.83	4966.62
426.01	5107.05
426.20	5083.64
426.39	5004.07
426.58	5011.09
426.77	4980.66
426.96	5156.20
427.15	5100.03
427.33	5198.33
427.52	5177.26
427.71	5259.18
427.90	5203.01
428.09	5390.25
428.28	5310.68
428.46	5420.68
428.65	5404.30
428.84	5540.05
429.03	5416.00
429.22	5483.88
429.40	5460.47
429.59	5584.52
429.78	5376.21
429.97	5313.02
430.16	5582.18
430.34	5671.12
430.53	5572.82
430.72	5626.65
430.91	5619.63
431.10	5551.75
431.28	5619.63
431.47	5834.96
431.66	5809.21
431.85	5895.81
432.03	5954.32
432.22	6083.05
432.41	5860.70
432.60	5710.91
432.79	6045.60
432.97	6099.44
433.16	6071.35
433.35	6024.54
433.54	6232.85
433.72	6153.27
433.91	6228.17
434.10	6157.95
434.28	6108.80
434.47	6136.88
434.66	6176.67
434.85	6207.10
435.03	6427.11
435.22	6085.39
435.41	6562.86
435.59	6408.39
435.78	6394.34
435.97	6560.52
436.16	6504.35
436.34	6558.18
436.53	6401.37
436.72	6642.44
436.90	6537.12
437.09	6649.46
437.28	6600.31
437.46	6513.71
437.65	6567.54
437.84	6700.95
438.02	6822.66
438.21	6752.45
438.40	6707.98
438.58	7148.00
438.77	7148.00
438.96	7033.31
439.14	7232.26
439.33	7061.40
439.52	7080.12
439.70	7290.77
439.89	7225.23
440.08	7428.86
440.26	7272.04
440.45	7321.20
440.63	7674.62
440.82	7686.32
441.01	7470.99
441.19	7616.10
441.38	7815.05
441.57	7730.79
441.75	7864.20
441.94	7892.29
442.12	7808.03
442.31	7962.50
442.50	7957.82
442.68	7918.03
442.87	7906.33
443.05	8042.08
443.24	8161.45
443.43	8201.24
443.61	8180.17
443.80	8292.52
443.98	7861.86
444.17	7840.79
444.35	8269.11
444.54	8482.10
444.73	8437.63
444.91	8437.63
445.10	8280.82
445.28	8248.05
445.47	8271.45
445.65	8365.07
445.84	8608.49
446.02	8580.40
446.21	8404.86
446.39	8428.27
446.58	8643.60
446.77	8505.51
446.95	8168.47
447.14	8411.89
447.32	8404.86
447.51	8507.85
447.69	8280.82
447.88	8507.85
448.06	8748.92
448.25	8622.53
448.43	8631.90
448.62	8697.43
448.80	8652.96
448.99	8779.35
449.17	8755.94
449.36	8468.06
449.54	8842.54
449.73	8772.33
449.91	8954.89
450.10	8931.48
450.28	9109.36
450.46	8952.55
450.65	9018.08
450.83	8971.27
451.02	9207.67
451.20	9263.84
451.39	9034.47
451.57	9170.22
451.76	9130.43
451.94	9217.03
452.13	9341.08
452.31	9369.16
452.49	9064.89
452.68	9298.95
452.86	9362.14
453.05	9621.94
453.23	9441.72
453.42	9144.47
453.60	9500.23
453.78	9542.36
453.97	9596.20
454.15	9291.93
454.34	9502.58
454.52	9554.07
454.70	9621.94
454.89	9724.93
455.07	9837.27
455.26	9930.89
455.44	9898.13
455.62	10092.39
455.81	9848.97
455.99	10209.42
456.17	9905.15
456.36	10064.30
456.54	10204.74
456.73	10092.39
456.91	10530.07
457.09	10539.43
457.28	10443.47
457.46	10408.36
457.64	10626.03
457.83	10527.73
458.01	10237.50
458.19	10761.78
458.38	10466.88
458.56	10761.78
458.74	10949.03
458.93	10501.98
459.11	10752.42
459.29	10532.41
459.48	10738.38
459.66	10939.66
459.84	10904.56
460.03	11084.78
460.21	10862.43
460.39	11014.56
460.57	11009.88
460.76	11112.86
460.94	11110.52
461.12	11005.20
461.31	10993.50
461.49	11087.12
461.67	11157.33
461.85	11506.07
462.04	11279.04
462.22	11475.65
462.40	11733.11
462.59	11576.29
462.77	11662.89
462.95	11749.49
463.13	11756.51
463.32	11672.25
463.50	11901.62
463.68	12039.72
463.86	11805.66
464.05	11655.87
464.23	11791.62
464.41	11894.60
464.59	11733.11
464.78	12025.67
464.96	11955.46
465.14	12081.85
465.32	11997.59
465.50	12238.66
465.69	12198.87
465.87	12051.42
466.05	12166.10
466.23	12423.56
466.41	12194.19
466.60	12505.48
466.78	12100.57
466.96	12257.39
467.14	12351.01
467.32	12411.86
467.51	12596.76
467.69	12140.36
467.87	12587.40
468.05	12503.14
468.23	12327.60
468.41	12439.95
468.60	12348.67
468.78	12706.77
468.96	12587.40
469.14	13013.38
469.32	12823.80
469.50	12833.16
469.69	13008.70
469.87	13102.32
470.05	12992.31
470.23	13146.79
470.41	13099.98
470.59	13322.33
470.77	13231.05
470.95	13392.55
471.14	13486.17
471.32	13174.88
471.50	13572.77
471.68	13729.58
471.86	13701.50
472.04	13776.39
472.22	14094.71
472.40	13640.64
472.58	13996.40
472.77	13982.36
472.95	14338.12
473.13	14855.38
473.31	13741.29
473.49	14214.07
473.67	14375.57
473.85	14413.02
474.03	14640.05
474.21	14508.98
474.39	14663.46
474.57	14953.68
474.75	14885.81
474.93	14831.97
475.12	15187.74
475.30	15056.67
475.48	15246.25
475.66	15227.53
475.84	15419.45
476.02	15513.07
476.20	15374.98
476.38	15676.91
476.56	16056.08
476.74	16130.97
476.92	16044.37
477.10	15613.71
477.28	16257.36
477.46	16257.36
477.64	16350.98
477.82	16606.10
478.00	16844.84
478.18	16688.02
478.36	17235.70
478.54	17254.43
478.72	17252.09
478.90	17551.68
479.08	17834.88
479.26	17680.41
479.44	17547.00
479.62	17884.03
479.80	17994.04
479.98	18057.23
480.16	18593.22
480.34	18338.10
480.52	18679.82
480.70	18668.11
480.88	18448.10
481.06	18597.90
481.24	18932.59
481.41	19250.91
481.59	19515.39
481.77	19578.58
481.95	19826.68
482.13	19648.80
482.31	19735.40
482.49	20470.33
482.67	20210.53
482.85	20372.02
483.03	20695.02
483.21	20570.97
483.39	20940.77
483.57	20856.51
483.74	20875.24
483.92	21876.99
484.10	21502.50
484.28	21645.27
484.46	21933.16
484.64	22188.28
484.82	21907.41
485.00	22317.01
485.18	22644.68
485.35	23178.33
485.53	22782.77
485.71	22913.84
485.89	23517.70
486.07	23309.40
486.25	23541.11
486.43	23700.26
486.61	24049.00
486.78	24154.33
486.96	24367.32
487.14	24680.95
487.32	24577.97
487.50	25172.46
487.68	25104.59
487.85	25490.77
488.03	25387.79
488.21	25846.54
488.39	25846.54
488.57	26361.45
488.75	26157.83
488.92	26677.43
489.10	26951.27
489.28	26808.50
489.46	27014.46
489.64	27080.00
489.81	27995.15
489.99	27744.71
490.17	27775.14
490.35	28201.11
490.53	27714.28
490.70	28444.53
490.88	28591.98
491.06	29024.98
491.24	28926.68
491.41	28879.87
491.59	29343.30
491.77	29296.49
491.95	29673.31
492.13	30197.59
492.30	30232.70
492.48	30239.72
492.66	30242.06
492.84	30213.98
493.01	30609.53
493.19	30925.50
493.37	31215.72
493.54	31068.27
493.72	31819.58
493.90	31871.07
494.08	32034.91
494.25	32460.89
494.43	32226.84
494.61	32287.69
494.79	32589.62
494.96	32662.18
495.14	33137.30
495.32	32917.29
495.49	33713.08
495.67	33076.45
495.85	33755.21
496.02	33404.13
496.20	33944.79
496.38	33823.08
496.55	34150.76
496.73	35009.73
496.91	34787.38
497.09	34890.37
497.26	35456.78
497.44	34939.52
497.62	35239.11
497.79	36091.06
497.97	35707.21
498.14	35775.09
498.32	36442.14
498.50	36617.68
498.67	36762.79
498.85	36575.55
499.03	37130.26
499.20	36697.26
499.38	37235.58
499.56	37134.94
499.73	37202.82
499.91	37303.46
500.08	38124.99
500.26	37408.78
500.44	38043.07
500.61	37652.20
500.79	37638.15
500.97	38050.09
501.14	38567.35
501.32	38628.20
501.49	38576.71
501.67	38499.47
501.84	39035.45
502.02	39051.84
502.20	38796.72
502.37	39108.01
502.55	39159.50
502.72	39533.99
502.90	39517.60
503.07	39739.96
503.25	40252.53
503.43	40020.82
503.60	40081.67
503.78	40259.55
503.95	40463.18
504.13	40123.80
504.30	40608.29
504.48	40287.64
504.65	40783.83
504.83	41116.19
505.01	41195.77
505.18	41099.81
505.36	41783.24
505.53	41530.47
505.71	41539.83
505.88	42057.09
506.06	41748.14
506.23	42263.05
506.41	42124.96
506.58	42171.77
506.76	42522.85
506.93	42721.80
507.11	42574.34
507.28	42501.79
507.46	42593.07
507.63	42983.94
507.81	43363.11
507.98	43346.72
508.16	43395.87
508.33	43524.60
508.50	43660.35
508.68	43782.06
508.85	44069.95
509.03	43899.09
509.20	43508.22
509.38	44559.12
509.55	44697.21
509.73	44582.52
509.90	44772.11
510.08	44802.53
510.25	44884.45
510.42	44554.44
510.60	44947.65
510.77	44975.73
510.95	45610.02
511.12	45137.23
511.30	45553.85
511.47	45500.01
511.64	45860.46
511.82	46164.73
511.99	45574.91
512.17	46209.20
512.34	45820.67
512.51	46529.85
512.69	46791.99
512.86	46485.38
513.04	46604.75
513.21	46527.51
513.38	47147.75
513.56	46754.54
513.73	47002.64
513.90	47388.83
514.08	46735.82
514.25	47562.03
514.43	47334.99
514.60	47199.24
514.77	47325.63
514.95	47922.47
515.12	47573.73
515.29	47412.23
515.47	47948.21
515.64	48105.03
515.81	48336.74
515.99	48039.50
516.16	48507.60
516.33	48568.46
516.51	48889.11
516.68	48839.96
516.85	48626.97
517.03	48715.91
517.20	49242.53
517.37	49097.42
517.54	48961.67
517.72	49165.29
517.89	49066.99
518.06	49350.20
518.24	49621.70
518.41	49359.56
518.58	50007.89
518.75	49289.34
518.93	49567.87
519.10	49294.02
519.27	50052.36
519.45	49790.22
519.62	50143.64
519.79	50160.02
519.96	49954.05
520.14	49998.52
520.31	50164.70
520.48	50454.93
520.65	50293.43
520.83	50698.34
521.00	50518.12
521.17	50787.28
521.34	50782.60
521.52	51016.66
521.69	50930.06
521.86	51168.79
522.03	51100.92
522.20	51004.95
522.38	51667.33
522.55	51318.59
522.72	51632.22
522.89	51728.18
523.07	51835.84
523.24	51847.55
523.41	51973.94
523.58	51498.81
523.75	51849.89
523.92	51814.78
524.10	52243.10
524.27	52083.94
524.44	52219.69
524.61	52310.97
524.78	52362.46
524.96	52151.82
525.13	52327.36
525.30	52472.47
525.47	52357.78
525.64	52582.48
525.81	52624.60
525.98	52825.89
526.16	52755.68
526.33	52942.92
526.50	53226.12
526.67	52725.25
526.84	53069.31
527.01	52989.73
527.18	53062.29
527.36	52963.98
527.53	52968.66
527.70	53193.36
527.87	53701.25
528.04	53242.51
528.21	53647.42
528.38	53380.60
528.55	53755.08
528.72	53418.05
528.89	53729.34
529.07	53624.01
529.24	53532.73
529.41	53790.19
529.58	54136.59
529.75	53635.72
529.92	54066.38
530.09	53799.55
530.26	53867.43
530.43	54218.51
530.60	53895.52
530.77	53996.16
530.94	54014.88
531.11	54075.74
531.28	54117.87
531.46	54237.23
531.63	54459.58
531.80	54452.56
531.97	54424.48
532.14	54335.54
532.31	54726.41
532.48	54705.34
532.65	54731.09
532.82	54234.89
532.99	54747.47
533.16	55040.04
533.33	54761.51
533.50	54834.07
533.67	54939.39
533.84	54885.56
534.01	54908.97
534.18	54887.90
534.35	55274.09
534.52	55203.88
534.69	55311.54
534.86	55360.69
535.03	55093.87
535.20	55164.09
535.37	55356.01
535.54	55592.40
535.71	54962.80
535.88	55379.42
536.05	55473.04
536.22	55657.94
536.38	55622.83
536.55	55587.72
536.72	55545.59
536.89	55739.86
537.06	55590.06
537.23	55789.01
537.40	55501.12
537.57	55561.98
537.74	55786.67
537.91	56027.74
538.08	55936.46
538.25	55845.18
538.42	55980.93
538.59	56020.72
538.75	56114.34
538.92	56184.56
539.09	56315.63
539.26	56062.85
539.43	56051.15
539.60	56116.68
539.77	56584.79
539.94	56439.68
540.11	56179.88
540.28	56299.25
540.44	56413.93
540.61	56324.99
540.78	56563.73
540.95	56357.76
541.12	56612.88
541.29	56537.98
541.46	56437.34
541.62	56481.81
541.79	56341.38
541.96	56336.69
542.13	56282.86
542.30	56706.50
542.47	57041.20
542.63	57092.69
542.80	57151.20
542.97	57001.41
543.14	57326.74
543.31	57214.40
543.48	57230.78
543.64	57490.58
543.81	57247.16
543.98	57408.66
544.15	57371.21
544.32	57275.25
544.48	57635.69
544.65	57425.04
544.82	57577.18
544.99	57375.89
545.16	57621.65
545.32	57560.79
545.49	57684.84
545.66	57829.96
545.83	57801.87
546.00	57778.46
546.16	57567.82
546.33	57773.78
546.50	57460.15
546.67	57975.07
546.83	57499.94
547.00	57787.83
547.17	57813.57
547.34	57741.02
547.50	57895.49
547.67	57935.28
547.84	57942.30
548.00	58092.10
548.17	58333.17
548.34	58176.36
548.51	58422.11
548.67	58202.10
548.84	58265.30
549.01	58108.48
549.18	58007.84
549.34	58300.40
549.51	58234.87
549.68	58377.64
549.84	58543.82
550.01	58550.84
550.18	58417.43
550.34	58440.84
550.51	58459.56
550.68	58614.04
550.84	58485.31
551.01	58560.20
551.18	58492.33
551.34	58660.85
551.51	58466.58
551.68	58796.60
551.84	58585.95
552.01	58508.71
552.18	58599.99
552.34	58740.42
552.51	58698.30
552.68	58522.76
552.84	58599.99
553.01	59070.44
553.18	58831.71
553.34	59217.89
553.51	58810.64
553.67	58918.31
553.84	59171.08
554.01	59075.12
554.17	58773.19
554.34	59114.91
554.51	59194.49
554.67	59185.13
554.84	59051.72
555.00	59021.29
555.17	59054.06
555.33	59269.39
555.50	59110.23
555.67	59040.01
555.83	59147.68
556.00	59000.22
556.16	59510.46
556.33	59306.83
556.50	59458.97
556.66	59515.14
556.83	59126.61
556.99	59550.25
557.16	59498.76
557.32	59557.27
557.49	59709.41
557.65	59217.89
557.82	59414.50
557.98	59311.52
558.15	59543.23
558.32	59477.69
558.48	59426.20
558.65	59599.40
558.81	59606.42
558.98	59641.53
559.14	59660.26
559.31	59730.47
559.47	59583.02
559.64	59831.11
559.80	59781.96
559.97	59784.30
560.13	59606.42
560.30	59765.58
560.46	59842.82
560.63	59936.44
560.79	59826.43
560.96	60020.70
561.12	60229.01
561.29	59952.82
561.45	59833.46
561.61	59641.53
561.78	60095.60
561.94	59896.65
562.11	59835.80
562.27	60097.94
562.44	60030.06
562.60	60025.38
562.77	60119.00
562.93	59934.10
563.10	60123.68
563.26	60142.41
563.42	60271.14
563.59	60149.43
563.75	60121.34
563.92	60079.21
564.08	60116.66
564.24	60252.41
564.41	60392.84
564.57	60013.68
564.74	60149.43
564.90	60203.26
565.07	60116.66
565.23	60193.90
565.39	60104.96
565.56	60339.01
565.72	60182.19
565.88	60460.72
566.05	60210.28
566.21	60060.49
566.38	60233.69
566.54	60301.56
566.70	60364.76
566.87	60367.10
567.03	60088.57
567.19	60465.40
567.36	60371.78
567.52	60612.85
567.68	60652.64
567.85	60252.41
568.01	60420.93
568.17	60296.88
568.34	60399.86
568.50	60320.29
568.66	60336.67
568.83	60669.03
568.99	60404.55
569.15	60554.34
569.32	60236.03
569.48	60580.09
569.64	60612.85
569.81	60631.58
569.97	60425.61
570.13	60619.88
570.30	60439.65
570.46	60612.85
570.62	60638.60
570.78	60720.52
570.95	60598.81
571.11	60643.28
571.27	60477.10
571.43	60654.98
571.60	60919.46
571.76	60580.09
571.92	60512.21
572.09	60559.02
572.25	60818.82
572.41	60662.00
572.57	60683.07
572.74	61055.21
572.90	60650.30
573.06	60669.03
573.22	60711.16
573.38	60736.90
573.55	60612.85
573.71	60882.02
573.87	60704.13
574.03	60376.46
574.20	60872.65
574.36	60697.11
574.52	60900.74
574.68	60741.58
574.84	60926.49
575.01	60786.05
575.17	60685.41
575.33	60786.05
575.49	60692.43
575.65	60863.29
575.82	60816.48
575.98	60809.46
576.14	61066.92
576.30	60977.98
576.46	60968.61
576.62	60807.12
576.79	60727.54
576.95	60779.03
577.11	60809.46
577.27	60926.49
577.43	60704.13
577.59	60612.85
577.75	60867.97
577.92	60650.30
578.08	60851.59
578.24	61066.92
578.40	60996.70
578.56	60931.17
578.72	60947.55
578.88	60844.57
579.04	61090.32
579.21	60856.27
579.37	61111.39
579.53	61017.77
579.69	61015.43
579.85	60814.14
580.01	60956.91
580.17	60741.58
580.33	60980.32
580.49	60961.59
580.65	60879.67
580.82	60977.98
580.98	60914.78
581.14	60715.84
581.30	61130.11
581.46	61041.17
581.62	61015.43
581.78	61024.79
581.94	61038.83
582.10	61095.00
582.26	60910.10
582.42	60975.64
582.58	61057.56
582.74	60917.12
582.90	60874.99
583.06	61062.24
583.22	60680.73
583.38	61066.92
583.54	61113.73
583.70	61116.07
583.86	61015.43
584.02	60914.78
584.18	61307.99
584.34	61036.49
584.50	60959.25
584.66	60898.40
584.82	60893.72
584.98	61179.26
585.14	61303.31
585.30	60926.49
585.46	61141.81
585.62	61165.22
585.78	61244.80
585.94	61029.47
586.10	61099.68
586.26	61041.17
586.42	61146.50
586.58	61076.28
586.74	61055.21
586.90	61038.83
587.06	61059.90
587.22	61209.69
587.38	61038.83
587.54	61162.88
587.70	61324.38
587.86	61263.52
588.02	60973.30
588.18	61127.77
588.34	61048.19
588.49	61167.56
