SpectraSuite Data File
++++++++++++++++++++++++++++++++++++
Date: Fri Oct 25 11:22:39 EDT 2013
User: price-jones
Dark Spectrum Present: No
Reference Spectrum Present: No
Number of Sampled Component Spectra: 1
Spectrometers: USB2+H05261
Integration Time (usec): 100000 (USB2+H05261)
Spectra Averaged: 1 (USB2+H05261)
Boxcar Smoothing: 0 (USB2+H05261)
Correct for Electrical Dark: No (USB2+H05261)
Strobe/Lamp Enabled: No (USB2+H05261)
Correct for Detector Non-linearity: No (USB2+H05261)
Correct for Stray Light: No (USB2+H05261)
Number of Pixels in Processed Spectrum: 2048
>>>>>Begin Processed Spectral Data<<<<<
365.73	208.31
365.92	208.31
366.12	208.31
366.32	77.24
366.52	117.03
366.72	161.50
366.91	77.24
367.11	168.52
367.31	112.35
367.51	154.48
367.70	191.92
367.90	102.98
368.10	147.45
368.30	175.54
368.49	72.56
368.69	182.56
368.89	100.64
369.09	126.39
369.28	95.96
369.48	182.56
369.68	180.22
369.87	255.12
370.07	159.16
370.27	145.11
370.47	301.93
370.66	571.09
370.86	631.94
371.06	641.31
371.25	613.22
371.45	638.97
371.65	566.41
371.84	657.69
372.04	655.35
372.24	746.63
372.44	692.80
372.63	650.67
372.83	709.18
373.03	755.99
373.22	725.57
373.42	767.70
373.62	837.91
373.81	669.39
374.01	748.97
374.21	854.30
374.40	809.83
374.60	849.61
374.79	760.67
374.99	791.10
375.19	791.10
375.38	880.04
375.58	882.38
375.78	807.48
375.97	828.55
376.17	835.57
376.37	833.23
376.56	917.49
376.76	774.72
376.95	856.64
377.15	870.68
377.35	854.30
377.54	954.94
377.74	938.55
377.93	903.45
378.13	851.96
378.33	966.64
378.52	894.08
378.72	990.05
378.91	971.32
379.11	966.64
379.31	905.79
379.50	931.53
379.70	957.28
379.89	1008.77
380.09	954.94
380.28	940.90
380.48	919.83
380.68	933.87
380.87	999.41
381.07	999.41
381.26	973.66
381.46	983.02
381.65	1057.92
381.85	1057.92
382.04	1055.58
382.24	1067.28
382.43	1076.65
382.63	1137.50
382.83	1029.84
383.02	1102.39
383.22	1025.15
383.41	1088.35
383.61	1153.88
383.80	1144.52
384.00	1057.92
384.19	1107.07
384.39	1188.99
384.58	1174.95
384.78	1128.14
384.97	1224.10
385.17	1114.10
385.36	1181.97
385.56	1210.06
385.75	1125.80
385.95	1181.97
386.14	1277.93
386.34	1163.25
386.53	1217.08
386.72	1156.22
386.92	1238.14
387.11	1238.14
387.31	1294.32
387.50	1249.85
387.70	1301.34
387.89	1188.99
388.09	1327.08
388.28	1254.53
388.48	1324.74
388.67	1315.38
388.86	1394.96
389.06	1256.87
389.25	1336.45
389.45	1324.74
389.64	1357.51
389.84	1488.58
390.03	1359.85
390.22	1341.13
390.42	1409.00
390.61	1432.41
390.81	1446.45
391.00	1423.05
391.19	1383.26
391.39	1465.18
391.58	1497.94
391.78	1453.47
391.97	1399.64
392.16	1469.86
392.36	1500.28
392.55	1472.20
392.75	1507.30
392.94	1533.05
393.13	1502.62
393.33	1582.20
393.52	1556.46
393.71	1591.56
393.91	1668.80
394.10	1638.38
394.29	1521.35
394.49	1621.99
394.68	1661.78
394.88	1619.65
395.07	1706.25
395.26	1710.93
395.46	1661.78
395.65	1584.54
395.84	1757.74
396.04	1809.23
396.23	1659.44
396.42	1764.76
396.62	1734.34
396.81	1881.79
397.00	1790.51
397.19	1844.34
397.39	1706.25
397.58	1816.26
397.77	1900.52
397.97	1844.34
398.16	1823.28
398.35	1891.15
398.55	1942.64
398.74	1952.01
398.93	2010.52
399.12	1921.58
399.32	1806.89
399.51	1884.13
399.70	2066.69
399.90	2024.56
400.09	1989.46
400.28	1982.43
400.47	2043.29
400.67	2054.99
400.86	2069.03
401.05	2026.90
401.24	2001.16
401.44	2076.06
401.63	2193.08
401.82	2101.80
402.01	2101.80
402.21	2181.38
402.40	2214.15
402.59	2172.02
402.78	2165.00
402.97	2195.42
403.17	2186.06
403.36	2200.10
403.55	2284.36
403.74	2321.81
403.93	2307.77
404.13	2420.11
404.32	2361.60
404.51	2303.09
404.70	2396.71
404.89	2448.20
405.09	2473.95
405.28	2349.90
405.47	2495.01
405.66	2691.62
405.85	2548.84
406.05	2499.69
406.24	2541.82
406.43	2525.44
406.62	2616.72
406.81	2640.12
407.00	2478.63
407.20	2628.42
407.39	2630.76
407.58	2712.68
407.77	2752.47
407.96	2757.15
408.15	2771.19
408.34	2745.45
408.54	2869.50
408.73	2860.13
408.92	2768.85
409.11	2818.00
409.30	2935.03
409.49	2972.48
409.68	2906.95
409.87	2960.78
410.07	2932.69
410.26	2913.97
410.45	3052.06
410.64	3070.78
410.83	3023.97
411.02	3131.64
411.21	3293.13
411.40	3061.42
411.59	3204.19
411.78	3286.11
411.98	3201.85
412.17	3258.03
412.36	3403.14
412.55	3361.01
412.74	3454.63
412.93	3363.35
413.12	3391.44
413.31	3438.25
413.50	3405.48
413.69	3456.97
413.88	3618.47
414.07	3574.00
414.26	3665.28
414.45	3602.08
414.64	3728.47
414.83	3707.41
415.02	3992.95
415.22	3812.73
415.41	3801.03
415.60	3847.84
415.79	3999.98
415.98	4056.15
416.17	4044.45
416.36	3941.46
416.55	4098.28
416.74	4065.51
416.93	4051.47
417.12	4140.41
417.31	4248.07
417.50	4198.92
417.69	4219.99
417.88	4414.25
418.07	4355.74
418.26	4308.93
418.45	4477.44
418.64	4521.92
418.83	4381.48
419.02	4470.42
419.21	4465.74
419.39	4535.96
419.58	4538.30
419.77	4573.41
419.96	4468.08
420.15	4636.60
420.34	4606.17
420.53	4542.98
420.72	4671.71
420.91	4725.54
421.10	4725.54
421.29	4812.14
421.48	4573.41
421.67	4777.03
421.86	4798.10
422.05	4774.69
422.24	4861.29
422.43	4880.02
422.61	4870.65
422.80	4966.62
422.99	4950.23
423.18	4987.68
423.37	5011.09
423.56	4978.32
423.75	4975.98
423.94	4917.47
424.13	4603.83
424.32	4777.03
424.50	5128.11
424.69	5097.69
424.88	4922.15
425.07	4985.34
425.26	4952.57
425.45	5011.09
425.64	4994.70
425.83	5018.11
426.01	5149.18
426.20	5137.48
426.39	5109.39
426.58	5057.90
426.77	5142.16
426.96	5193.65
427.15	5013.43
427.33	5053.22
427.52	5179.61
427.71	5406.64
427.90	5245.14
428.09	5404.30
428.28	5514.30
428.46	5427.70
428.65	5362.17
428.84	5612.60
429.03	5504.94
429.22	5453.45
429.40	5563.45
429.59	5526.00
429.78	5334.08
429.97	5228.76
430.16	5528.35
430.34	5460.47
430.53	5610.26
430.72	5748.36
430.91	5699.20
431.10	5806.87
431.28	5750.70
431.47	5856.02
431.66	5902.83
431.85	5659.42
432.03	5930.92
432.22	6052.63
432.41	5884.11
432.60	5795.17
432.79	5942.62
432.97	6040.92
433.16	6176.67
433.35	6043.26
433.54	6113.48
433.72	6221.14
433.91	6183.70
434.10	6125.18
434.28	6029.22
434.47	6314.77
434.66	6249.23
434.85	6249.23
435.03	6609.67
435.22	6445.84
435.41	6553.50
435.59	6450.52
435.78	6609.67
435.97	6553.50
436.16	6434.13
436.34	6424.77
436.53	6583.93
436.72	6609.67
436.90	6387.32
437.09	6825.00
437.28	6532.44
437.46	6590.95
437.65	6712.66
437.84	6731.38
438.02	6780.53
438.21	6932.67
438.40	6684.57
438.58	6986.50
438.77	7077.78
438.96	7026.29
439.14	6895.22
439.33	7131.61
439.52	7152.68
439.70	7126.93
439.89	7279.07
440.08	7480.35
440.26	7480.35
440.45	7398.43
440.63	7346.94
440.82	7754.19
441.01	7379.71
441.19	7705.04
441.38	7702.70
441.57	7819.73
441.75	7911.01
441.94	8091.23
442.12	8091.23
442.31	8013.99
442.50	8067.83
442.68	8109.96
442.87	8100.59
443.05	8353.37
443.24	8173.15
443.43	8208.26
443.61	8250.39
443.80	8449.33
443.98	8147.40
444.17	7887.61
444.35	8421.25
444.54	8395.50
444.73	8231.66
444.91	8271.45
445.10	8475.08
445.28	8542.96
445.47	8435.29
445.65	8432.95
445.84	8402.52
446.02	8336.99
446.21	8344.01
446.39	8428.27
446.58	8482.10
446.77	8596.79
446.95	8404.86
447.14	8514.87
447.32	8606.15
447.51	8545.30
447.69	8500.83
447.88	8716.16
448.06	8344.01
448.25	8659.98
448.43	8575.72
448.62	8765.31
448.80	8678.71
448.99	8793.39
449.17	8865.95
449.36	8638.92
449.54	8784.03
449.73	9149.15
449.91	8947.87
450.10	8905.74
450.28	9104.68
450.46	9301.29
450.65	9137.45
450.83	9179.58
451.02	9055.53
451.20	9231.07
451.39	9327.03
451.57	9174.90
451.76	9315.33
451.94	9291.93
452.13	9338.74
452.31	9338.74
452.49	9153.84
452.68	9376.19
452.86	9481.51
453.05	9359.80
453.23	9486.19
453.42	9331.72
453.60	9427.68
453.78	9926.21
453.97	9540.02
454.15	9589.17
454.34	9291.93
454.52	9734.29
454.70	9755.35
454.89	9783.44
455.07	9886.42
455.26	9769.40
455.44	9893.44
455.62	9827.91
455.81	9841.95
455.99	9984.73
456.17	10115.80
456.36	10211.76
456.54	10099.41
456.73	10427.09
456.91	10413.04
457.09	10356.87
457.28	10504.32
457.46	10319.42
457.64	10497.30
457.83	10590.92
458.01	10679.86
458.19	10518.37
458.38	10738.38
458.56	10834.34
458.74	10621.35
458.93	10761.78
459.11	10661.14
459.29	11035.63
459.48	10897.53
459.66	10822.64
459.84	10974.77
460.03	11206.48
460.21	10693.91
460.39	11037.97
460.57	11283.72
460.76	11276.70
460.94	11248.61
461.12	11344.58
461.31	11377.34
461.49	11370.32
461.67	11180.74
461.85	11712.04
462.04	11524.80
462.22	11761.19
462.40	11716.72
462.59	11489.69
462.77	11726.08
462.95	11686.29
463.13	11765.87
463.32	11548.20
463.50	11817.36
463.68	11988.22
463.86	11824.39
464.05	11637.14
464.23	11822.05
464.41	12013.97
464.59	11688.64
464.78	12161.42
464.96	12170.79
465.14	11791.62
465.32	12056.10
465.50	12215.26
465.69	12369.73
465.87	12222.28
466.05	12395.48
466.23	12112.27
466.41	12374.41
466.60	12744.22
466.78	12039.72
466.96	12175.47
467.14	12290.15
467.32	12512.50
467.51	12453.99
467.69	12526.55
467.87	12634.21
468.05	12477.40
468.23	12458.67
468.41	12664.64
468.60	12917.42
468.78	12954.87
468.96	12765.28
469.14	12943.16
469.32	13205.30
469.50	12732.51
469.69	13125.72
469.87	13135.09
470.05	13184.24
470.23	13511.91
470.41	13282.54
470.59	13458.08
470.77	13324.67
470.95	13114.02
471.14	13703.84
471.32	13355.10
471.50	13561.06
471.68	13584.47
471.86	13762.35
472.04	13933.21
472.22	14164.92
472.40	13839.59
472.58	13862.99
472.77	13961.30
472.95	14118.11
473.13	14506.64
473.31	14246.84
473.49	14319.40
473.67	14281.95
473.85	14478.55
474.03	14911.55
474.21	14661.12
474.39	14839.00
474.57	15012.20
474.75	14963.04
474.93	15349.23
475.12	15304.76
475.30	15300.08
475.48	15087.09
475.66	15119.86
475.84	15119.86
476.02	15641.80
476.20	15414.77
476.38	15798.62
476.56	16107.57
476.74	16123.95
476.92	16079.48
477.10	16084.16
477.28	16130.97
477.46	16414.18
477.64	16315.87
477.82	16666.95
478.00	17268.47
478.18	16884.62
478.36	17200.60
478.54	17373.80
478.72	17362.09
478.90	17837.22
479.08	17764.67
479.26	18085.32
479.44	17851.27
479.62	18160.22
479.80	18162.56
479.98	18204.69
480.16	18242.14
480.34	18473.85
480.52	18700.88
480.70	18712.58
480.88	18785.14
481.06	18963.02
481.24	18913.87
481.41	19250.91
481.59	19501.34
481.77	19527.09
481.95	20025.62
482.13	19974.13
482.31	20042.01
482.49	20247.97
482.67	20329.89
482.85	20631.82
483.03	20868.22
483.21	21048.44
483.39	21350.37
483.57	21200.57
483.74	20889.28
483.92	21338.66
484.10	21598.46
484.28	21734.21
484.46	22274.88
484.64	22803.84
484.82	22108.70
485.00	22232.75
485.18	23040.23
485.35	23101.09
485.53	23002.78
485.71	23229.82
485.89	23807.93
486.07	23484.94
486.25	23667.50
486.43	23899.21
486.61	23751.76
486.78	24477.32
486.96	24360.30
487.14	24484.34
487.32	24800.32
487.50	25167.78
487.68	24994.58
487.85	25443.96
488.03	26153.15
488.21	26015.05
488.39	25778.66
488.57	26288.90
488.75	26230.38
488.92	26628.27
489.10	27026.17
489.28	27058.93
489.46	27278.94
489.64	27473.21
489.81	27763.43
489.99	27843.01
490.17	27931.95
490.35	28301.76
490.53	28662.20
490.70	28641.14
490.88	28379.00
491.06	29163.08
491.24	28694.97
491.41	29514.16
491.59	29097.54
491.77	29661.61
491.95	29792.68
492.13	30132.06
492.30	30218.66
492.48	30181.21
492.66	30644.63
492.84	30361.43
493.01	31094.02
493.19	31019.12
493.37	31309.35
493.54	31208.70
493.72	31978.74
493.90	31716.60
494.08	31924.91
494.25	32378.97
494.43	32554.51
494.61	32322.80
494.79	32730.05
494.96	32514.72
495.14	32975.81
495.32	33596.05
495.49	33617.11
495.67	33172.41
495.85	33923.72
496.02	33858.19
496.20	34543.97
496.38	34345.02
496.55	34518.22
496.73	34782.70
496.91	34932.50
497.09	35171.23
497.26	35215.70
497.44	35035.48
497.62	35470.82
497.79	35854.67
497.97	35695.51
498.14	36577.89
498.32	36613.00
498.50	36442.14
498.67	37010.89
498.85	36528.74
499.03	36627.04
499.20	36912.59
499.38	37537.51
499.56	37326.86
499.73	37893.27
499.91	37600.71
500.08	37977.53
500.26	37258.99
500.44	38073.49
500.61	38213.93
500.79	37937.74
500.97	38529.90
501.14	38682.03
501.32	38946.51
501.49	38567.35
501.67	38808.42
501.84	39571.44
502.02	38785.02
502.20	39363.13
502.37	39587.82
502.55	39599.52
502.72	39498.88
502.90	40067.63
503.07	39882.73
503.25	40191.68
503.43	40282.96
503.60	40339.13
503.78	40439.78
503.95	40545.10
504.13	40451.48
504.30	40856.39
504.48	40753.41
504.65	40685.53
504.83	41336.20
505.01	41500.04
505.18	41200.45
505.36	41731.75
505.53	41764.52
505.71	41560.89
505.88	42131.98
506.06	41823.03
506.23	42192.84
506.41	42508.81
506.58	42307.52
506.76	42679.67
506.93	43030.75
507.11	42733.50
507.28	42674.99
507.46	42890.32
507.63	43337.36
507.81	43894.41
507.98	43475.45
508.16	43655.67
508.33	43569.07
508.50	43515.24
508.68	44060.58
508.85	44348.47
509.03	44137.82
509.20	44261.87
509.38	44875.09
509.55	45043.61
509.73	44596.57
509.90	44683.17
510.08	45013.18
510.25	45315.11
510.42	44835.30
510.60	45242.56
510.77	45481.29
510.95	45652.15
511.12	45474.27
511.30	45315.11
511.47	45801.94
511.64	45841.73
511.82	46270.05
511.99	45965.78
512.17	46274.73
512.34	46026.63
512.51	46595.38
512.69	47079.88
512.86	46761.56
513.04	46976.89
513.21	46866.89
513.38	47402.87
513.56	47194.56
513.73	47189.88
513.90	47222.65
514.08	47379.46
514.25	47571.39
514.43	47789.06
514.60	47924.81
514.77	47700.12
514.95	48030.13
515.12	48184.61
515.29	47641.60
515.47	48189.29
515.64	48060.56
515.81	48224.40
515.99	48318.02
516.16	48802.51
516.33	48942.94
516.51	49036.56
516.68	48547.39
516.85	49141.89
517.03	49137.21
517.20	49031.88
517.37	48779.10
517.54	48947.62
517.72	48849.32
517.89	48938.26
518.06	49731.70
518.24	49720.00
518.41	49731.70
518.58	49593.61
518.75	49453.18
518.93	50127.25
519.10	49642.76
519.27	49996.18
519.45	50323.86
519.62	50216.19
519.79	50225.56
519.96	50199.81
520.14	50527.48
520.31	50471.31
520.48	50373.01
520.65	50906.65
520.83	50990.91
521.00	51112.62
521.17	50848.14
521.34	50937.08
521.52	51004.95
521.69	50930.06
521.86	51239.01
522.03	51306.88
522.20	51679.03
522.38	51870.95
522.55	51571.36
522.72	51728.18
522.89	51569.02
523.07	52053.51
523.24	51966.91
523.41	51917.76
523.58	52151.82
523.75	51943.51
523.92	52172.88
524.10	52165.86
524.27	52388.21
524.44	52289.91
524.61	52268.84
524.78	52430.34
524.96	52545.03
525.13	52437.36
525.30	52720.57
525.47	52992.07
525.64	52439.70
525.81	52624.60
525.98	53207.40
526.16	53102.07
526.33	52753.33
526.50	53191.01
526.67	53027.18
526.84	53169.95
527.01	52875.04
527.18	53270.59
527.36	53275.27
527.53	53034.20
527.70	53567.84
527.87	53389.96
528.04	53621.67
528.21	53642.74
528.38	53345.49
528.55	53385.28
528.72	53694.23
528.89	53771.47
529.07	53956.37
529.24	53577.20
529.41	53799.55
529.58	53874.45
529.75	53893.18
529.92	54234.89
530.09	53888.49
530.26	54410.43
530.43	54274.68
530.60	54120.21
530.77	53972.75
530.94	54478.31
531.11	54380.01
531.28	54321.49
531.46	54513.42
531.63	54480.65
531.80	54688.96
531.97	54618.74
532.14	54522.78
532.31	54733.43
532.48	54649.17
532.65	54953.44
532.82	54878.54
532.99	54923.01
533.16	54892.58
533.33	55346.65
533.50	55573.68
533.67	54993.23
533.84	55023.65
534.01	55157.06
534.18	55360.69
534.35	55580.70
534.52	55348.99
534.69	55447.29
534.86	55428.57
535.03	55234.30
535.20	55231.96
535.37	55433.25
535.54	55618.15
535.71	55454.31
535.88	55664.96
536.05	55599.43
536.22	55915.40
536.38	55957.53
536.55	55707.09
536.72	55899.01
536.89	55929.44
537.06	56039.45
537.23	56189.24
537.40	55737.52
537.57	55910.72
537.74	55978.59
537.91	56133.07
538.08	56182.22
538.25	55964.55
538.42	56062.85
538.59	56449.04
538.75	56191.58
538.92	56205.62
539.09	56320.31
539.26	56334.35
539.43	56341.38
539.60	56362.44
539.77	56418.61
539.94	56809.48
540.11	56718.20
540.28	56507.55
540.44	56713.52
540.61	56573.09
540.78	56395.21
540.95	56598.83
541.12	56367.12
541.29	56680.75
541.46	56701.82
541.62	56767.35
541.79	56856.29
541.96	56575.43
542.13	56694.80
542.30	56868.00
542.47	57233.12
542.63	57183.97
542.80	57048.22
542.97	57059.92
543.14	57518.67
543.31	57352.49
543.48	57528.03
543.64	57656.76
543.81	57476.54
543.98	57661.44
544.15	57537.39
544.32	57504.62
544.48	57726.97
544.65	57682.50
544.82	57619.31
544.99	57406.32
545.16	57869.75
545.32	57682.50
545.49	57841.66
545.66	57954.00
545.83	57848.68
546.00	57851.02
546.16	57907.19
546.33	57649.74
546.50	57687.18
546.67	57944.64
546.83	57663.78
547.00	58005.50
547.17	58052.31
547.34	58197.42
547.50	58136.57
547.67	58300.40
547.84	58159.97
548.00	58330.83
548.17	58466.58
548.34	58356.58
548.51	58408.07
548.67	58492.33
548.84	58323.81
549.01	58347.21
549.18	58365.94
549.34	58445.52
549.51	58534.46
549.68	58454.88
549.84	58677.23
550.01	58590.63
550.18	58480.63
550.34	58815.32
550.51	58590.63
550.68	58679.57
550.84	58295.72
551.01	58829.37
551.18	58756.81
551.34	58695.95
551.51	58621.06
551.68	58700.64
551.84	58679.57
552.01	58602.33
552.18	58845.75
552.34	58677.23
552.51	59056.40
552.68	58834.05
552.84	58948.73
553.01	59014.27
553.18	59018.95
553.34	59157.04
553.51	58958.09
553.67	59063.42
553.84	59210.87
554.01	59180.45
554.17	59018.95
554.34	59171.08
554.51	59269.39
554.67	59164.06
554.84	59061.08
555.00	59208.53
555.17	59082.14
555.33	59150.02
555.50	59011.93
555.67	59164.06
555.83	59316.20
556.00	59423.86
556.16	59554.93
556.33	59435.56
556.50	59533.87
556.66	59433.22
556.83	59365.35
556.99	59578.34
557.16	59578.34
557.32	59791.33
557.49	59931.76
557.65	59561.95
557.82	59480.03
557.98	59824.09
558.15	59370.03
558.32	59681.32
558.48	59440.24
558.65	59496.42
558.81	59702.38
558.98	59798.35
559.14	59765.58
559.31	59880.27
559.47	59863.88
559.64	59948.14
559.80	59887.29
559.97	60069.85
560.13	59833.46
560.30	59913.03
560.46	59863.88
560.63	59966.87
560.79	59817.07
560.96	60130.70
561.12	60093.25
561.29	59882.61
561.45	60182.19
561.61	60004.31
561.78	60062.83
561.94	59992.61
562.11	59959.84
562.27	59983.25
562.44	60055.81
562.60	60161.13
562.77	60067.51
562.93	59906.01
563.10	60317.95
563.26	59894.31
563.42	60364.76
563.59	60018.36
563.75	60142.41
563.92	60210.28
564.08	60210.28
564.24	60271.14
564.41	60329.65
564.57	60224.32
564.74	60402.21
564.90	60362.42
565.07	60460.72
565.23	60252.41
565.39	60179.85
565.56	60207.94
565.72	60357.74
565.88	60334.33
566.05	60444.33
566.21	60313.26
566.38	60456.04
566.54	60477.10
566.70	60467.74
566.87	60615.19
567.03	60374.12
567.19	60645.62
567.36	60451.36
567.52	60474.76
567.68	60542.64
567.85	60559.02
568.01	60519.23
568.17	60472.42
568.34	60573.06
568.50	60537.96
568.66	60465.40
568.83	60519.23
568.99	60526.25
569.15	60594.13
569.32	60556.68
569.48	60474.76
569.64	60624.56
569.81	60776.69
569.97	60685.41
570.13	60587.11
570.30	60481.78
570.46	60666.69
570.62	60746.26
570.78	60676.05
570.95	60811.80
571.11	60839.89
571.27	60865.63
571.43	60626.90
571.60	60996.70
571.76	60772.01
571.92	60795.42
572.09	60662.00
572.25	60654.98
572.41	60788.39
572.57	60624.56
572.74	60907.76
572.90	60839.89
573.06	60701.79
573.22	60874.99
573.38	60835.20
573.55	60844.57
573.71	61057.56
573.87	60886.70
574.03	60837.54
574.20	60734.56
574.36	60774.35
574.52	60814.14
574.68	60657.32
574.84	61237.78
575.01	60931.17
575.17	60956.91
575.33	60860.95
575.49	60818.82
575.65	60961.59
575.82	61034.15
575.98	60783.71
576.14	61324.38
576.30	60926.49
576.46	60966.27
576.62	60830.52
576.79	60746.26
576.95	60769.67
577.11	61003.72
577.27	61193.31
577.43	61001.38
577.59	60879.67
577.75	60743.92
577.92	60914.78
578.08	60949.89
578.24	60982.66
578.40	61071.60
578.56	61195.65
578.72	60900.74
578.88	60956.91
579.04	61179.26
579.21	61010.74
579.37	61319.70
579.53	61200.33
579.69	60851.59
579.85	61055.21
580.01	61153.52
580.17	60919.46
580.33	61268.20
580.49	61048.19
580.65	61123.09
580.82	61071.60
580.98	61048.19
581.14	60940.53
581.30	61155.86
581.46	61066.92
581.62	61073.94
581.78	60959.25
581.94	61169.90
582.10	61113.73
582.26	61102.03
582.42	61052.87
582.58	61212.03
582.74	61099.68
582.90	60994.36
583.06	61055.21
583.22	61057.56
583.38	61237.78
583.54	61324.38
583.70	61120.75
583.86	61352.46
584.02	60891.38
584.18	61296.29
584.34	61275.22
584.50	61109.05
584.66	61190.97
584.82	60926.49
584.98	61270.54
585.14	61333.74
585.30	61148.84
585.46	61160.54
585.62	61169.90
585.78	61476.51
585.94	61118.41
586.10	61223.73
586.26	61228.41
586.42	61261.18
586.58	61432.04
586.74	61270.54
586.90	61132.45
587.06	61205.01
587.22	61027.13
587.38	61240.12
587.54	61366.51
587.70	61546.73
587.86	61162.88
588.02	61300.97
588.18	61336.08
588.34	61340.76
588.49	61286.93
