SpectraSuite Data File
++++++++++++++++++++++++++++++++++++
Date: Fri Oct 25 11:23:05 EDT 2013
User: price-jones
Dark Spectrum Present: No
Reference Spectrum Present: No
Number of Sampled Component Spectra: 1
Spectrometers: USB2+H05261
Integration Time (usec): 100000 (USB2+H05261)
Spectra Averaged: 1 (USB2+H05261)
Boxcar Smoothing: 0 (USB2+H05261)
Correct for Electrical Dark: No (USB2+H05261)
Strobe/Lamp Enabled: No (USB2+H05261)
Correct for Detector Non-linearity: No (USB2+H05261)
Correct for Stray Light: No (USB2+H05261)
Number of Pixels in Processed Spectrum: 2048
>>>>>Begin Processed Spectral Data<<<<<
365.73	227.03
365.92	227.03
366.12	227.03
366.32	156.82
366.52	145.11
366.72	152.13
366.91	98.30
367.11	170.86
367.31	138.09
367.51	98.30
367.70	173.20
367.90	135.75
368.10	131.07
368.30	93.62
368.49	53.83
368.69	159.16
368.89	112.35
369.09	154.48
369.28	187.24
369.48	191.92
369.68	203.63
369.87	201.29
370.07	248.10
370.27	322.99
370.47	259.80
370.66	561.73
370.86	690.46
371.06	629.60
371.25	718.54
371.45	648.33
371.65	643.65
371.84	655.35
372.04	751.31
372.24	655.35
372.44	664.71
372.63	730.25
372.83	741.95
373.03	777.06
373.22	826.21
373.42	727.91
373.62	713.86
373.81	837.91
374.01	861.32
374.21	844.93
374.40	826.21
374.60	753.65
374.79	858.98
374.99	809.83
375.19	753.65
375.38	781.74
375.58	926.85
375.78	884.72
375.97	866.00
376.17	882.38
376.37	905.79
376.56	959.62
376.76	889.40
376.95	938.55
377.15	926.85
377.35	819.19
377.54	912.81
377.74	917.49
377.93	950.26
378.13	835.57
378.33	912.81
378.52	957.28
378.72	964.30
378.91	973.66
379.11	933.87
379.31	875.36
379.50	933.87
379.70	919.83
379.89	943.24
380.09	966.64
380.28	971.32
380.48	1050.90
380.68	997.07
380.87	938.55
381.07	1008.77
381.26	1025.15
381.46	973.66
381.65	1074.31
381.85	1004.09
382.04	1067.28
382.24	1137.50
382.43	1020.47
382.63	980.68
382.83	940.90
383.02	1032.18
383.22	1081.33
383.41	1032.18
383.61	1090.69
383.80	1078.99
384.00	1144.52
384.19	1086.01
384.39	1193.67
384.58	1226.44
384.78	1198.35
384.97	1193.67
385.17	1137.50
385.36	1144.52
385.56	1160.91
385.75	1074.31
385.95	1130.48
386.14	1167.93
386.34	1259.21
386.53	1228.78
386.72	1104.73
386.92	1184.31
387.11	1217.08
387.31	1219.42
387.50	1217.08
387.70	1277.93
387.89	1266.23
388.09	1310.70
388.28	1359.85
388.48	1268.57
388.67	1310.70
388.86	1336.45
389.06	1256.87
389.25	1341.13
389.45	1455.81
389.64	1299.00
389.84	1413.68
390.03	1334.11
390.22	1352.83
390.42	1329.42
390.61	1401.98
390.81	1394.96
391.00	1540.07
391.19	1493.26
391.39	1540.07
391.58	1437.09
391.78	1413.68
391.97	1629.01
392.16	1544.75
392.36	1579.86
392.55	1514.33
392.75	1568.16
392.94	1547.09
393.13	1462.83
393.33	1575.18
393.52	1563.48
393.71	1605.61
393.91	1509.65
394.10	1565.82
394.29	1673.48
394.49	1530.71
394.68	1631.35
394.88	1638.38
395.07	1621.99
395.26	1617.31
395.46	1706.25
395.65	1743.70
395.84	1687.53
396.04	1795.19
396.23	1640.72
396.42	1750.72
396.62	1802.21
396.81	1818.60
397.00	1792.85
397.19	1760.08
397.39	1811.57
397.58	1774.13
397.77	1952.01
397.97	1856.04
398.16	1832.64
398.35	1839.66
398.55	1858.39
398.74	1944.99
398.93	2026.90
399.12	1884.13
399.32	1891.15
399.51	1989.46
399.70	1984.77
399.90	1970.73
400.09	2047.97
400.28	2047.97
400.47	2019.88
400.67	2174.36
400.86	2029.24
401.05	2090.10
401.24	2111.16
401.44	2193.08
401.63	2202.44
401.82	2260.96
402.01	2076.06
402.21	2139.25
402.40	2272.66
402.59	2200.10
402.78	2157.97
402.97	2228.19
403.17	2392.03
403.36	2228.19
403.55	2296.07
403.74	2363.94
403.93	2476.29
404.13	2375.64
404.32	2265.64
404.51	2370.96
404.70	2445.86
404.89	2399.05
405.09	2609.70
405.28	2504.37
405.47	2495.01
405.66	2537.14
405.85	2417.77
406.05	2541.82
406.24	2499.69
406.43	2548.84
406.62	2663.53
406.81	2642.46
407.00	2616.72
407.20	2607.36
407.39	2656.51
407.58	2745.45
407.77	2754.81
407.96	2700.98
408.15	2843.75
408.34	2822.69
408.54	2717.36
408.73	2754.81
408.92	2785.24
409.11	2890.56
409.30	2935.03
409.49	2974.82
409.68	2792.26
409.87	2986.52
410.07	3068.44
410.26	3131.64
410.45	3103.55
410.64	3066.10
410.83	3190.15
411.02	3138.66
411.21	3279.09
411.40	3162.06
411.59	3309.52
411.78	3236.96
411.98	3428.88
412.17	3300.16
412.36	3403.14
412.55	3253.34
412.74	3515.48
412.93	3300.16
413.12	3485.06
413.31	3529.53
413.50	3574.00
413.69	3616.13
413.88	3611.45
414.07	3669.96
414.26	3714.43
414.45	3648.90
414.64	3721.45
414.83	3826.78
415.02	3899.33
415.22	3847.84
415.41	3861.88
415.60	3889.97
415.79	3911.04
415.98	4039.76
416.17	3971.89
416.36	3962.53
416.55	4107.64
416.74	4133.39
416.93	4154.45
417.12	4170.83
417.31	4196.58
417.50	4278.50
417.69	4252.75
417.88	4344.03
418.07	4273.82
418.26	4386.16
418.45	4414.25
418.64	4500.85
418.83	4587.45
419.02	4540.64
419.21	4498.51
419.39	4430.63
419.58	4629.58
419.77	4557.02
419.96	4734.90
420.15	4671.71
420.34	4681.07
420.53	4713.84
420.72	4587.45
420.91	4779.37
421.10	4655.33
421.29	4748.95
421.48	4858.95
421.67	4781.71
421.86	4847.25
422.05	4922.15
422.24	4650.64
422.43	4964.28
422.61	5104.71
422.80	4945.55
422.99	4807.46
423.18	4950.23
423.37	4952.57
423.56	4973.64
423.75	4975.98
423.94	4992.36
424.13	4730.22
424.32	4793.42
424.50	5041.51
424.69	5078.96
424.88	5015.77
425.07	5118.75
425.26	5067.26
425.45	5043.85
425.64	5015.77
425.83	5025.13
426.01	5048.54
426.20	5193.65
426.39	5198.33
426.58	5062.58
426.77	5114.07
426.96	5025.13
427.15	5076.62
427.33	5280.25
427.52	5296.63
427.71	5331.74
427.90	5303.65
428.09	5238.12
428.28	5444.09
428.46	5404.30
428.65	5399.62
428.84	5554.09
429.03	5638.35
429.22	5439.40
429.40	5540.05
429.59	5722.61
429.78	5287.27
429.97	5493.24
430.16	5643.03
430.34	5708.57
430.53	5561.11
430.72	5535.37
430.91	5680.48
431.10	5713.25
431.28	5710.91
431.47	5846.66
431.66	6052.63
431.85	5951.98
432.03	6017.52
432.22	6085.39
432.41	6115.82
432.60	6066.67
432.79	6054.97
432.97	6050.28
433.16	6033.90
433.35	6080.71
433.54	6113.48
433.72	6059.65
433.91	6239.87
434.10	6160.29
434.28	6260.93
434.47	6195.40
434.66	6300.72
434.85	6331.15
435.03	6380.30
435.22	6167.31
435.41	6471.58
435.59	6321.79
435.78	6527.75
435.97	6370.94
436.16	6518.39
436.34	6600.31
436.53	6724.36
436.72	6766.49
436.90	6576.91
437.09	6600.31
437.28	6626.06
437.46	6703.29
437.65	6569.88
437.84	7035.65
438.02	6745.42
438.21	6764.15
438.40	6740.74
438.58	7037.99
438.77	7054.37
438.96	6998.20
439.14	7241.62
439.33	7297.79
439.52	7260.34
439.70	7372.69
439.89	7557.59
440.08	7527.16
440.26	7463.97
440.45	7513.12
440.63	7609.08
440.82	7623.12
441.01	7419.50
441.19	7737.81
441.38	7763.56
441.57	7903.99
441.75	7974.21
441.94	8105.28
442.12	7854.84
442.31	7990.59
442.50	8037.40
442.68	8006.97
442.87	8002.29
443.05	8147.40
443.24	8205.92
443.43	8292.52
443.61	8264.43
443.80	8400.18
443.98	8098.25
444.17	8042.08
444.35	8203.58
444.54	8524.23
444.73	8266.77
444.91	8393.16
445.10	8407.20
445.28	8533.59
445.47	8423.59
445.65	8423.59
445.84	8819.14
446.02	8486.78
446.21	8294.86
446.39	8468.06
446.58	8549.98
446.77	8521.89
446.95	8280.82
447.14	8493.80
447.32	8690.41
447.51	8622.53
447.69	8444.65
447.88	8542.96
448.06	8615.51
448.25	8795.73
448.43	8936.17
448.62	8662.32
448.80	8564.02
448.99	8887.01
449.17	8875.31
449.36	8779.35
449.54	8959.57
449.73	9121.07
449.91	9172.56
450.10	8870.63
450.28	9135.11
450.46	9116.39
450.65	9020.42
450.83	9006.38
451.02	9048.51
451.20	9247.46
451.39	9163.20
451.57	9165.54
451.76	9163.20
451.94	9076.60
452.13	9570.45
452.31	9621.94
452.49	9336.40
452.68	9392.57
452.86	9343.42
453.05	9383.21
453.23	9540.02
453.42	9591.52
453.60	9476.83
453.78	9703.86
453.97	9511.94
454.15	9699.18
454.34	9547.05
454.52	9813.87
454.70	9809.19
454.89	9844.29
455.07	10050.26
455.26	9858.34
455.44	9994.09
455.62	10176.65
455.81	9870.04
455.99	10146.22
456.17	10122.82
456.36	10249.21
456.54	10218.78
456.73	10490.28
456.91	10490.28
457.09	10597.95
457.28	10771.15
457.46	10450.49
457.64	10569.86
457.83	10752.42
458.01	10464.54
458.19	10714.97
458.38	10595.61
458.56	10916.26
458.74	10689.23
458.93	10764.12
459.11	10899.87
459.29	10721.99
459.48	10951.37
459.66	10869.45
459.84	10911.58
460.03	11328.19
460.21	11037.97
460.39	11098.82
460.57	11337.56
460.76	11171.38
460.94	11342.24
461.12	11117.54
461.31	11147.97
461.49	11314.15
461.67	11260.32
461.85	11417.13
462.04	11705.02
462.22	11456.92
462.40	11730.76
462.59	11564.59
462.77	11564.59
462.95	11667.57
463.13	11616.08
463.32	11709.70
463.50	11747.15
463.68	11901.62
463.86	12072.48
464.05	11786.94
464.23	11901.62
464.41	11822.05
464.59	11751.83
464.78	12313.56
464.96	12044.40
465.14	11946.09
465.32	12081.85
465.50	12278.45
465.69	12327.60
465.87	12070.14
466.05	12367.39
466.23	12353.35
466.41	12383.77
466.60	12624.85
466.78	12432.93
466.96	12341.64
467.14	12533.57
467.32	12475.06
467.51	12720.81
467.69	12367.39
467.87	12575.70
468.05	12468.03
468.23	12699.75
468.41	12301.86
468.60	12645.91
468.78	12746.56
468.96	12690.38
469.14	13011.04
469.32	13041.46
469.50	12776.98
469.69	12882.31
469.87	13214.66
470.05	13048.49
470.23	13490.85
470.41	13224.03
470.59	13270.84
470.77	13245.09
470.95	13198.28
471.14	13497.87
471.32	13121.04
471.50	13912.14
471.68	13462.76
471.86	13923.85
472.04	13764.69
472.22	14267.91
472.40	13743.63
472.58	14094.71
472.77	14054.92
472.95	14368.55
473.13	14733.67
473.31	14328.76
473.49	14349.82
473.67	14232.80
473.85	14520.68
474.03	14731.33
474.21	14686.86
474.39	15173.69
474.57	14803.89
474.75	15056.67
474.93	15150.29
475.12	15028.58
475.30	15213.48
475.48	15562.22
475.66	15424.13
475.84	15667.55
476.02	15704.99
476.20	15637.12
476.38	15925.00
476.56	16411.84
476.74	15950.75
476.92	16198.85
477.10	16027.99
477.28	16503.12
477.46	16287.79
477.64	16772.28
477.82	16870.58
478.00	17036.76
478.18	16943.14
478.36	17256.77
478.54	17401.88
478.72	17303.58
478.90	17703.81
479.08	17858.29
479.26	17853.61
479.44	17806.80
479.62	18026.81
479.80	18476.19
479.98	18295.97
480.16	18836.63
480.34	18597.90
480.52	18541.72
480.70	18714.92
480.88	18401.29
481.06	18785.14
481.24	19384.32
481.41	19543.47
481.59	19777.53
481.77	19496.66
481.95	19632.41
482.13	19964.77
482.31	19929.66
482.49	20386.07
482.67	20418.83
482.85	20610.76
483.03	20875.24
483.21	20877.58
483.39	21043.76
483.57	21256.75
483.74	21474.42
483.92	21532.93
484.10	21303.56
484.28	22057.21
484.46	22319.35
484.64	23077.68
484.82	22024.44
485.00	22396.59
485.18	22874.06
485.35	23255.56
485.53	23159.60
485.71	23431.10
485.89	23800.91
486.07	23728.35
486.25	23508.34
486.43	24004.53
486.61	24231.57
486.78	24339.23
486.96	24379.02
487.14	24872.87
487.32	24851.81
487.50	25216.93
487.68	25348.00
487.85	25736.53
488.03	25797.38
488.21	26232.72
488.39	26181.23
488.57	26611.89
488.75	26426.99
488.92	26799.13
489.10	27028.51
489.28	27072.98
489.46	27480.23
489.64	27229.79
489.81	27606.62
489.99	28034.94
490.17	28194.09
490.35	28273.67
490.53	28465.60
490.70	28386.02
490.88	28456.23
491.06	29500.11
491.24	29097.54
491.41	29312.87
491.59	29666.29
491.77	29528.20
491.95	30108.65
492.13	29844.17
492.30	30366.11
492.48	30668.04
492.66	31021.46
492.84	30967.63
493.01	31117.42
493.19	30670.38
493.37	31550.42
493.54	31091.68
493.72	31761.07
493.90	31927.25
494.08	32161.30
494.25	32416.42
494.43	32460.89
494.61	32826.01
494.79	32858.78
494.96	32737.07
495.14	33184.12
495.32	33600.73
495.49	33453.28
495.67	33516.47
495.85	33858.19
496.02	34132.03
496.20	34155.44
496.38	34476.09
496.55	34412.90
496.73	34913.77
496.91	34916.11
497.09	35515.29
497.26	35426.35
497.44	35133.78
497.62	35466.14
497.79	36334.48
497.97	35370.18
498.14	36327.45
498.32	36657.47
498.50	36802.58
498.67	36833.01
498.85	36397.67
499.03	36917.27
499.20	37266.01
499.38	37237.92
499.56	37464.96
499.73	37308.14
499.91	37694.33
500.08	38003.28
500.26	37963.49
500.44	37972.85
500.61	38288.82
500.79	38007.96
500.97	38333.29
501.14	39063.54
501.32	38927.79
501.49	38937.15
501.67	38948.85
501.84	39449.73
502.02	39187.59
502.20	39866.34
502.37	39704.85
502.55	39194.61
502.72	39941.24
502.90	40004.44
503.07	39842.94
503.25	40151.89
503.43	40364.88
503.60	40205.72
503.78	40832.99
503.95	40563.82
504.13	40769.79
504.30	41111.51
504.48	41249.60
504.65	41088.10
504.83	41434.50
505.01	41947.08
505.18	41813.67
505.36	41947.08
505.53	41457.91
505.71	42089.85
505.88	42014.96
506.06	41738.77
506.23	42658.60
506.41	42550.94
506.58	42497.11
506.76	42258.37
506.93	42904.36
507.11	42588.39
507.28	42707.76
507.46	43084.58
507.63	43466.09
507.81	43931.86
507.98	43459.07
508.16	43077.56
508.33	43845.26
508.50	44121.44
508.68	44275.91
508.85	44313.36
509.03	44135.48
509.20	44355.49
509.38	44896.16
509.55	44816.58
509.73	44896.16
509.90	44701.89
510.08	44676.15
510.25	45205.11
510.42	45462.57
510.60	45146.59
510.77	45525.76
510.95	45883.86
511.12	45759.81
511.30	45731.73
511.47	45921.31
511.64	46178.77
511.82	46555.60
511.99	46323.88
512.17	46557.94
512.34	46333.24
512.51	46543.89
512.69	46431.55
512.86	46838.80
513.04	47253.08
513.21	46637.51
513.38	47147.75
513.56	47035.41
513.73	46887.95
513.90	47625.22
514.08	47309.25
514.25	47786.72
514.43	47835.87
514.60	47842.89
514.77	47978.64
514.95	47966.94
515.12	47555.00
515.29	47980.98
515.47	48500.58
515.64	48451.43
515.81	47868.64
515.99	48559.09
516.16	48893.79
516.33	48704.21
516.51	49195.72
516.68	48964.01
516.85	49350.20
517.03	49064.65
517.20	49516.37
517.37	49198.06
517.54	49134.87
517.72	49418.07
517.89	49331.47
518.06	49635.74
518.24	49516.37
518.41	49801.92
518.58	49787.88
518.75	49656.81
518.93	49839.37
519.10	49750.43
519.27	50307.47
519.45	50377.69
519.62	50110.87
519.79	50323.86
519.96	50347.26
520.14	50534.51
520.31	50239.60
520.48	50700.68
520.65	50724.09
520.83	50789.62
521.00	51089.21
521.17	50995.59
521.34	51089.21
521.52	51114.96
521.69	51311.56
521.86	51346.67
522.03	51213.26
522.20	51803.08
522.38	51777.33
522.55	51569.02
522.72	51817.12
522.89	51709.46
523.07	51901.38
523.24	51765.63
523.41	52147.14
523.58	52016.07
523.75	52348.42
523.92	52081.60
524.10	52172.88
524.27	52413.96
524.44	52437.36
524.61	52397.57
524.78	52631.63
524.96	52697.16
525.13	52631.63
525.30	52853.98
525.47	52863.34
525.64	52919.51
525.81	53263.57
525.98	53284.64
526.16	53097.39
526.33	53088.03
526.50	53345.49
526.67	53076.33
526.84	53216.76
527.01	53088.03
527.18	53244.85
527.36	53399.32
527.53	53366.55
527.70	53738.70
527.87	53497.62
528.04	53535.07
528.21	53612.31
528.38	53748.06
528.55	53755.08
528.72	53769.13
528.89	53647.42
529.07	53914.24
529.24	53624.01
529.41	53851.05
529.58	54174.04
529.75	54007.86
529.92	54321.49
530.09	54071.06
530.26	54232.55
530.43	54333.20
530.60	54209.15
530.77	54087.44
530.94	54527.46
531.11	54218.51
531.28	54511.08
531.46	54707.68
531.63	54724.07
531.80	54457.24
531.97	54880.88
532.14	54859.82
532.31	54880.88
532.48	55110.25
532.65	55018.97
532.82	54890.24
532.99	55091.53
533.16	54815.35
533.33	55152.38
533.50	55182.81
533.67	54969.82
533.84	55147.70
534.01	55377.08
534.18	55313.88
534.35	55552.62
534.52	55379.42
534.69	55791.35
534.86	55463.67
535.03	55381.76
535.20	55561.98
535.37	55496.44
535.54	55606.45
535.71	55700.07
535.88	55753.90
536.05	55859.23
536.22	55826.46
536.38	55856.88
536.55	55838.16
536.72	55774.97
536.89	55887.31
537.06	56109.66
537.23	55955.19
537.40	55922.42
537.57	56163.50
537.74	56156.47
537.91	56273.50
538.08	56245.41
538.25	56109.66
538.42	56196.26
538.59	56488.83
538.75	56044.13
538.92	56275.84
539.09	56465.42
539.26	56285.20
539.43	56472.45
539.60	56528.62
539.77	56530.96
539.94	56509.89
540.11	56687.78
540.28	56715.86
540.44	56460.74
540.61	56781.40
540.78	56598.83
540.95	56772.03
541.12	56622.24
541.29	56666.71
541.46	56746.29
541.62	56903.10
541.79	56860.97
541.96	56676.07
542.13	56839.91
542.30	56837.57
542.47	57394.62
542.63	57308.02
542.80	57200.35
542.97	57291.63
543.14	57701.23
543.31	57291.63
543.48	57361.85
543.64	57666.12
543.81	57427.38
543.98	57455.47
544.15	57537.39
544.32	57691.86
544.48	57968.05
544.65	57542.07
544.82	57925.92
544.99	57570.16
545.16	57469.51
545.32	57780.81
545.49	57558.45
545.66	58169.33
545.83	58045.29
546.00	57998.48
546.16	57970.39
546.33	57839.32
546.50	57701.23
546.67	58066.35
546.83	57719.95
547.00	58049.97
547.17	58014.86
547.34	58281.68
547.50	58309.77
547.67	58295.72
547.84	58155.29
548.00	58277.00
548.17	58740.42
548.34	58480.63
548.51	58347.21
548.67	58358.92
548.84	58501.69
549.01	58227.85
549.18	58405.73
549.34	58337.85
549.51	58653.82
549.68	58571.91
549.84	58543.82
550.01	58688.93
550.18	58494.67
550.34	58904.26
550.51	58822.34
550.68	58738.08
550.84	58541.48
551.01	58721.70
551.18	58906.60
551.34	58733.40
551.51	58913.62
551.68	58796.60
551.84	58850.43
552.01	58979.16
552.18	59114.91
552.34	59021.29
552.51	58920.65
552.68	58951.07
552.84	59040.01
553.01	59229.60
553.18	58939.37
553.34	59131.29
553.51	59086.82
553.67	59089.16
553.84	59105.55
554.01	59206.19
554.17	58997.88
554.34	59238.96
554.51	59262.36
554.67	59262.36
554.84	59110.23
555.00	59358.33
555.17	59220.23
555.33	59348.96
555.50	59288.11
555.67	59257.68
555.83	59075.12
556.00	59426.20
556.16	59648.55
556.33	59576.00
556.50	59517.48
556.66	59519.82
556.83	59288.11
556.99	59854.52
557.16	59774.94
557.32	59660.26
557.49	59793.67
557.65	59786.64
557.82	59536.21
557.98	59540.89
558.15	59657.91
558.32	59671.96
558.48	59615.79
558.65	59737.49
558.81	59819.41
558.98	59643.87
559.14	59863.88
559.31	59840.48
559.47	59882.61
559.64	60135.38
559.80	59959.84
559.97	60048.78
560.13	59877.93
560.30	60046.44
560.46	60032.40
560.63	60121.34
560.79	59863.88
560.96	60212.62
561.12	60126.02
561.29	60090.91
561.45	60044.10
561.61	60044.10
561.78	60109.64
561.94	60161.13
562.11	59955.16
562.27	60114.32
562.44	59985.59
562.60	60385.82
562.77	60252.41
562.93	59966.87
563.10	60406.89
563.26	60095.60
563.42	60547.32
563.59	60299.22
563.75	60294.54
563.92	60191.56
564.08	60271.14
564.24	60470.08
564.41	60282.84
564.57	60282.84
564.74	60500.51
564.90	60477.10
565.07	60364.76
565.23	60446.68
565.39	60577.75
565.56	60481.78
565.72	60392.84
565.88	60535.62
566.05	60310.92
566.21	60472.42
566.38	60427.95
566.54	60657.32
566.70	60477.10
566.87	60596.47
567.03	60420.93
567.19	60589.45
567.36	60582.43
567.52	60519.23
567.68	60846.91
567.85	60697.11
568.01	60673.71
568.17	60544.98
568.34	60729.88
568.50	60523.91
568.66	60535.62
568.83	60697.11
568.99	60498.17
569.15	60561.36
569.32	60624.56
569.48	60666.69
569.64	60657.32
569.81	60729.88
569.97	60605.83
570.13	60755.63
570.30	60624.56
570.46	60685.41
570.62	60783.71
570.78	60797.76
570.95	60849.25
571.11	60961.59
571.27	60622.22
571.43	60788.39
571.60	60846.91
571.76	60781.37
571.92	61045.85
572.09	60994.36
572.25	60956.91
572.41	60802.44
572.57	61125.43
572.74	61179.26
572.90	60837.54
573.06	60800.10
573.22	60903.08
573.38	61017.77
573.55	60814.14
573.71	60935.85
573.87	60926.49
574.03	60741.58
574.20	60914.78
574.36	60727.54
574.52	60807.12
574.68	61137.13
574.84	61127.77
575.01	61076.28
575.17	60889.04
575.33	60893.72
575.49	60882.02
575.65	60919.46
575.82	61195.65
575.98	61209.69
576.14	61141.81
576.30	61183.94
576.46	61095.00
576.62	61141.81
576.79	60842.23
576.95	60877.33
577.11	61017.77
577.27	61183.94
577.43	61137.13
577.59	60914.78
577.75	61008.40
577.92	60924.14
578.08	61181.60
578.24	60966.27
578.40	61219.05
578.56	61162.88
578.72	61155.86
578.88	61188.63
579.04	61310.33
579.21	61146.50
579.37	61188.63
579.53	61408.64
579.69	60970.96
579.85	60968.61
580.01	61006.06
580.17	60933.51
580.33	61228.41
580.49	61256.50
580.65	61307.99
580.82	61162.88
580.98	61244.80
581.14	60942.87
581.30	61144.16
581.46	61111.39
581.62	61172.24
581.78	61176.92
581.94	61188.63
582.10	61069.26
582.26	61155.86
582.42	61146.50
582.58	61190.97
582.74	61249.48
582.90	60977.98
583.06	61329.06
583.22	61134.79
583.38	61226.07
583.54	61357.14
583.70	61310.33
583.86	61366.51
584.02	61137.13
584.18	61228.41
584.34	61373.53
584.50	61258.84
584.66	61132.45
584.82	60954.57
584.98	61429.70
585.14	61368.85
585.30	61111.39
585.46	61279.91
585.62	61207.35
585.78	61151.18
585.94	61148.84
586.10	61268.20
586.26	61352.46
586.42	61254.16
586.58	61223.73
586.74	61307.99
586.90	61396.93
587.06	61155.86
587.22	61300.97
587.38	61228.41
587.54	61537.36
587.70	61532.68
587.86	61123.09
588.02	61317.35
588.18	61434.38
588.34	61137.13
588.49	61446.08
