SpectraSuite Data File
++++++++++++++++++++++++++++++++++++
Date: Fri Oct 25 10:44:35 EDT 2013
User: price-jones
Dark Spectrum Present: No
Reference Spectrum Present: No
Number of Sampled Component Spectra: 1
Spectrometers: USB2+H05261
Integration Time (usec): 100000 (USB2+H05261)
Spectra Averaged: 1 (USB2+H05261)
Boxcar Smoothing: 0 (USB2+H05261)
Correct for Electrical Dark: No (USB2+H05261)
Strobe/Lamp Enabled: No (USB2+H05261)
Correct for Detector Non-linearity: No (USB2+H05261)
Correct for Stray Light: No (USB2+H05261)
Number of Pixels in Processed Spectrum: 2048
>>>>>Begin Processed Spectral Data<<<<<
365.73	145.11
365.92	145.11
366.12	145.11
366.32	30.43
366.52	49.15
366.72	21.06
366.91	14.04
367.11	23.41
367.31	60.85
367.51	30.43
367.70	37.45
367.90	32.77
368.10	0.00
368.30	0.00
368.49	30.43
368.69	25.75
368.89	81.92
369.09	60.85
369.28	79.58
369.48	28.09
369.68	65.54
369.87	140.43
370.07	70.22
370.27	140.43
370.47	191.92
370.66	414.27
370.86	386.19
371.06	482.15
371.25	496.19
371.45	430.66
371.65	472.79
371.84	421.30
372.04	423.64
372.24	486.83
372.44	411.93
372.63	503.22
372.83	505.56
373.03	416.62
373.22	444.70
373.42	468.11
373.62	547.69
373.81	489.17
374.01	535.98
374.21	566.41
374.40	465.77
374.60	531.30
374.79	575.77
374.99	533.64
375.19	547.69
375.38	622.58
375.58	545.34
375.78	585.13
375.97	489.17
376.17	599.18
376.37	585.13
376.56	571.09
376.76	610.88
376.95	589.82
377.15	557.05
377.35	528.96
377.54	631.94
377.74	599.18
377.93	617.90
378.13	594.50
378.33	578.11
378.52	557.05
378.72	615.56
378.91	601.52
379.11	552.37
379.31	617.90
379.50	589.82
379.70	653.01
379.89	720.88
380.09	667.05
380.28	610.88
380.48	704.50
380.68	671.73
380.87	615.56
381.07	648.33
381.26	688.12
381.46	653.01
381.65	636.63
381.85	660.03
382.04	655.35
382.24	671.73
382.43	674.07
382.63	648.33
382.83	683.44
383.02	763.01
383.22	748.97
383.41	697.48
383.61	746.63
383.80	774.72
384.00	683.44
384.19	711.52
384.39	753.65
384.58	788.76
384.78	739.61
384.97	798.12
385.17	758.33
385.36	746.63
385.56	795.78
385.75	748.97
385.95	793.44
386.14	753.65
386.34	793.44
386.53	777.06
386.72	730.25
386.92	741.95
387.11	826.21
387.31	880.04
387.50	727.91
387.70	816.85
387.89	767.70
388.09	840.25
388.28	851.96
388.48	814.51
388.67	847.27
388.86	844.93
389.06	826.21
389.25	866.00
389.45	898.77
389.64	870.68
389.84	901.11
390.03	901.11
390.22	894.08
390.42	910.47
390.61	877.70
390.81	875.36
391.00	945.58
391.19	1011.11
391.39	936.21
391.58	1025.15
391.78	912.81
391.97	898.77
392.16	961.96
392.36	976.00
392.55	1069.62
392.75	1034.52
392.94	926.85
393.13	959.62
393.33	866.00
393.52	938.55
393.71	1083.67
393.91	1039.20
394.10	987.71
394.29	966.64
394.49	1088.35
394.68	1160.91
394.88	1029.84
395.07	1095.37
395.26	1118.78
395.46	1179.63
395.65	1188.99
395.84	1135.16
396.04	1078.99
396.23	1074.31
396.42	1135.16
396.62	1128.14
396.81	1205.38
397.00	1107.07
397.19	1219.42
397.39	1130.48
397.58	1275.59
397.77	1254.53
397.97	1284.95
398.16	1289.64
398.35	1287.29
398.55	1291.98
398.74	1327.08
398.93	1348.15
399.12	1343.47
399.32	1308.36
399.51	1303.68
399.70	1383.26
399.90	1425.39
400.09	1427.73
400.28	1390.28
400.47	1507.30
400.67	1514.33
400.86	1474.54
401.05	1448.79
401.24	1575.18
401.44	1516.67
401.63	1533.05
401.82	1441.77
402.01	1490.92
402.21	1540.07
402.40	1516.67
402.59	1430.07
402.78	1481.56
402.97	1544.75
403.17	1511.99
403.36	1572.84
403.55	1636.03
403.74	1673.48
403.93	1596.25
404.13	1668.80
404.32	1682.85
404.51	1671.14
404.70	1713.27
404.89	1750.72
405.09	1764.76
405.28	1762.42
405.47	1703.91
405.66	1823.28
405.85	1755.40
406.05	1802.21
406.24	1703.91
406.43	1921.58
406.62	1872.43
406.81	1905.20
407.00	1905.20
407.20	1844.34
407.39	1877.11
407.58	1968.39
407.77	1944.99
407.96	2033.93
408.15	2104.14
408.34	2076.06
408.54	1987.11
408.73	2005.84
408.92	2157.97
409.11	2050.31
409.30	2026.90
409.49	1980.09
409.68	2106.48
409.87	2087.76
410.07	2179.04
410.26	2225.85
410.45	2150.95
410.64	2097.12
410.83	2153.29
411.02	2284.36
411.21	2263.30
411.40	2284.36
411.59	2326.49
411.78	2436.50
411.98	2387.35
412.17	2338.20
412.36	2438.84
412.55	2539.48
412.74	2434.16
412.93	2321.81
413.12	2410.75
413.31	2609.70
413.50	2492.67
413.69	2469.27
413.88	2684.59
414.07	2553.52
414.26	2684.59
414.45	2651.83
414.64	2600.34
414.83	2654.17
415.02	2719.70
415.22	2815.66
415.41	2789.92
415.60	2745.45
415.79	2768.85
415.98	2916.31
416.17	2878.86
416.36	2862.48
416.55	2946.73
416.74	3012.27
416.93	2897.58
417.12	2902.26
417.31	3075.46
417.50	3084.83
417.69	3138.66
417.88	3112.91
418.07	3180.79
418.26	3131.64
418.45	3155.04
418.64	3335.26
418.83	3225.26
419.02	3255.69
419.21	3222.92
419.39	3236.96
419.58	3138.66
419.77	3213.56
419.96	3300.16
420.15	3375.05
420.34	3314.20
420.53	3309.52
420.72	3541.23
420.91	3435.91
421.10	3391.44
421.29	3473.36
421.48	3410.16
421.67	3440.59
421.86	3452.29
422.05	3475.70
422.24	3475.70
422.43	3487.40
422.61	3531.87
422.80	3496.76
422.99	3536.55
423.18	3574.00
423.37	3585.70
423.56	3597.40
423.75	3541.23
423.94	3566.98
424.13	3370.37
424.32	3361.01
424.50	3538.89
424.69	3641.87
424.88	3592.72
425.07	3449.95
425.26	3449.95
425.45	3489.74
425.64	3566.98
425.83	3588.04
426.01	3763.58
426.20	3541.23
426.39	3618.47
426.58	3611.45
426.77	3583.36
426.96	3723.79
427.15	3674.64
427.33	3826.78
427.52	3763.58
427.71	3779.97
427.90	3733.15
428.09	3786.99
428.28	3826.78
428.46	3854.86
428.65	3950.82
428.84	3978.91
429.03	3878.27
429.22	3812.73
429.40	3901.67
429.59	3798.69
429.78	3672.30
429.97	3712.09
430.16	3845.50
430.34	4014.02
430.53	3866.56
430.72	3887.63
430.91	3864.22
431.10	4102.96
431.28	4121.68
431.47	4229.35
431.66	4208.28
431.85	3999.98
432.03	4208.28
432.22	4332.33
432.41	4411.91
432.60	4175.52
432.79	4187.22
432.97	4278.50
433.16	4264.46
433.35	4315.95
433.54	4334.67
433.72	4414.25
433.91	4304.25
434.10	4325.31
434.28	4423.61
434.47	4414.25
434.66	4425.95
434.85	4514.89
435.03	4465.74
435.22	4603.83
435.41	4732.56
435.59	4660.01
435.78	4592.13
435.97	4664.69
436.16	4772.35
436.34	4613.20
436.53	4533.62
436.72	4716.18
436.90	4573.41
437.09	4627.24
437.28	4657.67
437.46	4620.22
437.65	4753.63
437.84	4842.57
438.02	4706.82
438.21	4802.78
438.40	4760.65
438.58	4880.02
438.77	4936.19
438.96	5018.11
439.14	5057.90
439.33	5097.69
439.52	5256.84
439.70	5203.01
439.89	5111.73
440.08	5235.78
440.26	5200.67
440.45	5336.42
440.63	5329.40
440.82	5380.89
441.01	5350.46
441.19	5481.53
441.38	5385.57
441.57	5509.62
441.75	5544.73
441.94	5643.03
442.12	5769.42
442.31	5666.44
442.50	5682.82
442.68	5841.98
442.87	5706.23
443.05	5790.49
443.24	5851.34
443.43	5940.28
443.61	5806.87
443.80	6043.26
443.98	5757.72
444.17	5682.82
444.35	5937.94
444.54	5778.78
444.73	6045.60
444.91	5907.51
445.10	5944.96
445.28	5951.98
445.47	5891.13
445.65	6026.88
445.84	5935.60
446.02	6092.41
446.21	6015.18
446.39	5982.41
446.58	6008.16
446.77	5914.53
446.95	6050.28
447.14	6047.94
447.32	6122.84
447.51	6183.70
447.69	5977.73
447.88	6099.44
448.06	6193.06
448.25	6193.06
448.43	6083.05
448.62	5963.68
448.80	6094.76
448.99	6106.46
449.17	6150.93
449.36	6054.97
449.54	6310.08
449.73	6441.15
449.91	6342.85
450.10	6424.77
450.28	6356.90
450.46	6485.62
450.65	6520.73
450.83	6459.88
451.02	6558.18
451.20	6553.50
451.39	6513.71
451.57	6679.89
451.76	6408.39
451.94	6492.65
452.13	6541.80
452.31	6684.57
452.49	6499.67
452.68	6483.28
452.86	6604.99
453.05	6661.16
453.23	6672.87
453.42	6595.63
453.60	6677.55
453.78	6626.06
453.97	6607.33
454.15	6654.14
454.34	6759.47
454.52	6834.36
454.70	6935.01
454.89	6930.33
455.07	6930.33
455.26	7037.99
455.44	7042.67
455.62	6939.69
455.81	6827.34
455.99	7199.49
456.17	7115.23
456.36	7049.69
456.54	7192.47
456.73	7075.44
456.91	7473.33
457.09	7283.75
457.28	7613.76
457.46	7236.94
457.64	7513.12
457.83	7433.54
458.01	7255.66
458.19	7410.14
458.38	7424.18
458.56	7543.55
458.74	7475.67
458.93	7555.25
459.11	7522.48
459.29	7501.42
459.48	7489.71
459.66	7655.89
459.84	7644.19
460.03	7777.60
460.21	7576.31
460.39	7840.79
460.57	7878.24
460.76	7808.03
460.94	7861.86
461.12	7896.97
461.31	7927.39
461.49	7997.61
461.67	7808.03
461.85	8205.92
462.04	8093.57
462.22	8222.30
462.40	8142.72
462.59	8273.79
462.77	8173.15
462.95	8226.98
463.13	8102.93
463.32	8149.75
463.50	8294.86
463.68	8177.83
463.86	8234.00
464.05	8294.86
464.23	8121.66
464.41	8414.23
464.59	8168.47
464.78	8248.05
464.96	8308.90
465.14	8257.41
465.32	8559.34
465.50	8500.83
465.69	8379.12
465.87	8409.54
466.05	8388.48
466.23	8393.16
466.41	8369.76
466.60	8699.77
466.78	8472.74
466.96	8421.25
467.14	8404.86
467.32	8601.47
467.51	8674.03
467.69	8439.97
467.87	8535.93
468.05	8652.96
468.23	8549.98
468.41	8725.52
468.60	8748.92
468.78	8723.18
468.96	8468.06
469.14	8844.88
469.32	8816.80
469.50	8711.47
469.69	8985.32
469.87	9165.54
470.05	8828.50
470.23	8985.32
470.41	8952.55
470.59	9074.26
470.77	9144.47
470.95	9301.29
471.14	9420.66
471.32	9090.64
471.50	9540.02
471.68	9427.68
471.86	9415.98
472.04	9460.45
472.22	9736.63
472.40	9418.32
472.58	9619.60
472.77	9659.39
472.95	9661.73
473.13	9886.42
473.31	9657.05
473.49	9734.29
473.67	9708.54
473.85	9802.16
474.03	9991.75
474.21	10026.86
474.39	9977.70
474.57	9947.28
474.75	9886.42
474.93	10200.05
475.12	10150.90
475.30	10197.71
475.48	10106.43
475.66	10434.11
475.84	10321.76
476.02	10560.50
476.20	10602.63
476.38	10663.48
476.56	10951.37
476.74	10834.34
476.92	10733.70
477.10	10932.64
477.28	11150.31
477.46	11204.14
477.64	11208.83
477.82	11487.35
478.00	11335.21
478.18	11396.07
478.36	11494.37
478.54	11674.59
478.72	11798.64
478.90	11765.87
479.08	11791.62
479.26	11950.78
479.44	12072.48
479.62	11995.25
479.80	12255.04
479.98	12229.30
480.16	12641.23
480.34	12517.18
480.52	12856.56
480.70	12709.11
480.88	12215.26
481.06	12498.46
481.24	12922.10
481.41	13137.43
481.59	13053.17
481.77	13137.43
481.95	13174.88
482.13	13502.55
482.31	13535.32
482.49	13912.14
482.67	13745.97
482.85	13902.78
483.03	14090.02
483.21	14075.98
483.39	14340.46
483.57	14228.12
483.74	14026.83
483.92	14469.19
484.10	14384.93
484.28	14558.13
484.46	14932.62
484.64	15190.08
484.82	14831.97
485.00	14888.15
485.18	15129.22
485.35	15122.20
485.53	15154.97
485.71	15044.96
485.89	15489.67
486.07	15424.13
486.25	15503.71
486.43	15583.29
486.61	15948.41
486.78	15932.03
486.96	15777.55
487.14	16271.40
487.32	16505.46
487.50	16769.94
487.68	16535.88
487.85	16940.80
488.03	17174.85
488.21	17277.83
488.39	17481.46
488.57	17137.40
488.75	17425.29
488.92	17839.56
489.10	17816.16
489.28	17886.37
489.46	17921.48
489.64	18164.90
489.81	18331.08
489.99	18354.48
490.17	18806.20
490.35	18993.45
490.53	18855.36
490.70	18890.46
490.88	18848.33
491.06	19332.82
491.24	19096.43
491.41	19222.82
491.59	19440.49
491.77	19365.59
491.95	19749.44
492.13	19697.95
492.30	19901.58
492.48	19939.02
492.66	20025.62
492.84	20137.97
493.01	20554.58
493.19	20294.79
493.37	20603.74
493.54	20601.40
493.72	20903.32
493.90	21018.01
494.08	21088.23
494.25	21603.14
494.43	21245.04
494.61	21455.69
494.79	21486.12
494.96	21577.40
495.14	21862.94
495.32	22164.87
495.49	22199.98
495.67	21982.31
495.85	22405.95
496.02	22658.73
496.20	22338.07
496.38	22623.62
496.55	22752.35
496.73	22834.27
496.91	23054.28
497.09	22963.00
497.26	23173.64
497.44	23077.68
497.62	23304.71
497.79	23695.58
497.97	23733.03
498.14	23723.67
498.32	23681.54
498.50	23601.96
498.67	24191.78
498.85	23772.82
499.03	24173.05
499.20	24467.96
499.38	24091.13
499.56	24334.55
499.73	24538.18
499.91	24474.98
500.08	24968.84
500.26	24847.13
500.44	25123.31
500.61	24617.75
500.79	25198.21
500.97	25113.95
501.14	25472.05
501.32	25549.29
501.49	25537.59
501.67	25261.40
501.84	25518.86
502.02	26038.46
502.20	25649.93
502.37	26164.85
502.55	25937.82
502.72	25874.62
502.90	26167.19
503.07	25979.95
503.25	26342.73
503.43	26160.17
503.60	26242.09
503.78	26572.10
503.95	26258.47
504.13	26668.06
504.30	26824.88
504.48	26663.38
504.65	26920.84
504.83	26841.26
505.01	27412.35
505.18	27351.50
505.36	27564.49
505.53	27475.55
505.71	27700.24
505.88	27517.68
506.06	27164.26
506.23	27709.60
506.41	27754.07
506.58	27843.01
506.76	27784.50
506.93	27983.44
507.11	28187.07
507.28	28133.24
507.46	28039.62
507.63	28173.03
507.81	28119.20
507.98	28070.04
508.16	28379.00
508.33	28526.45
508.50	28725.39
508.68	28554.54
508.85	29390.11
509.03	28971.15
509.20	29158.39
509.38	29174.78
509.55	29216.91
509.73	29275.42
509.90	29090.52
510.08	29434.58
510.25	29633.52
510.42	29542.24
510.60	29851.19
510.77	29631.18
510.95	29783.32
511.12	29766.93
511.30	30125.04
511.47	30401.22
511.64	30281.85
511.82	30375.47
511.99	30185.89
512.17	30141.42
512.34	30195.25
512.51	30408.24
512.69	30906.77
512.86	30469.09
513.04	30604.84
513.21	31208.70
513.38	30852.94
513.56	31007.42
513.73	30820.17
513.90	31101.04
514.08	30689.10
514.25	30850.60
514.43	31236.79
514.60	30920.82
514.77	30930.18
514.95	31620.64
515.12	31632.34
515.29	31264.88
515.47	31725.96
515.64	31611.28
515.81	31744.69
515.99	31908.52
516.16	32002.14
516.33	31683.83
516.51	32109.81
516.68	31620.64
516.85	31948.31
517.03	31826.60
517.20	32301.73
517.37	32385.99
517.54	32343.86
517.72	32294.71
517.89	32268.97
518.06	32280.67
518.24	32671.54
518.41	32196.41
518.58	32669.20
518.75	32662.18
518.93	33266.03
519.10	32751.12
519.27	32879.85
519.45	33457.96
519.62	33195.82
519.79	33432.21
519.96	33233.27
520.14	33455.62
520.31	33039.00
520.48	33343.27
520.65	33570.30
520.83	33706.05
521.00	34143.74
521.17	34239.70
521.34	33993.94
521.52	33787.97
521.69	34164.80
521.86	33949.47
522.03	34391.83
522.20	34120.33
522.38	34190.55
522.55	34822.49
522.72	35030.80
522.89	33881.60
523.07	34445.66
523.24	34323.96
523.41	34749.93
523.58	34595.46
523.75	35304.64
523.92	34852.92
524.10	34988.67
524.27	34937.18
524.44	35161.87
524.61	35711.89
524.78	35012.07
524.96	35452.09
525.13	35229.74
525.30	35613.59
525.47	35564.44
525.64	35395.92
525.81	35784.45
525.98	35178.25
526.16	35117.40
526.33	35557.42
526.50	35379.54
526.67	35559.76
526.84	35615.93
527.01	35653.38
527.18	35786.79
527.36	36198.73
527.53	36383.63
527.70	36282.98
527.87	36652.79
528.04	36470.23
528.21	36098.08
528.38	36297.03
528.55	36428.10
528.72	36526.40
528.89	37050.68
529.07	36521.72
529.24	36191.70
529.41	36896.20
529.58	36762.79
529.75	36608.32
529.92	36978.12
530.09	36954.72
530.26	37090.47
530.43	36748.75
530.60	37057.70
530.77	36760.45
530.94	37319.84
531.11	37109.19
531.28	37294.10
531.46	38036.05
531.63	37326.86
531.80	37411.12
531.97	37343.25
532.14	37081.11
532.31	36861.10
532.48	37551.56
532.65	37570.28
532.82	37436.87
532.99	37928.38
533.16	37563.26
533.33	38054.77
533.50	37830.08
533.67	38251.38
533.84	37701.35
534.01	37598.37
534.18	37923.70
534.35	38501.81
534.52	38213.93
534.69	38532.24
534.86	38136.69
535.03	38644.59
535.20	38199.88
535.37	38370.74
535.54	38487.77
535.71	38689.06
535.88	38520.54
536.05	38417.55
536.22	38834.17
536.38	38513.52
536.55	38934.81
536.72	39019.07
536.89	38230.31
537.06	38719.48
537.23	39131.42
537.40	38850.55
537.57	39096.31
537.74	38897.36
537.91	39330.36
538.08	39229.72
538.25	38387.13
538.42	39227.38
538.59	39299.94
538.75	38986.30
538.92	39098.65
539.09	39482.50
539.26	39234.40
539.43	39648.68
539.60	39218.02
539.77	39255.46
539.94	39370.15
540.11	39789.11
540.28	39363.13
540.44	39632.29
540.61	39573.78
540.78	39564.42
540.95	39463.77
541.12	39667.40
541.29	39466.11
541.46	39957.63
541.62	39941.24
541.79	39688.46
541.96	39487.18
542.13	39927.20
542.30	39737.62
542.47	39683.78
542.63	39636.97
542.80	40278.28
542.97	40821.28
543.14	40849.37
543.31	40669.15
543.48	40304.02
543.64	41397.06
543.81	40793.20
543.98	40718.30
544.15	40933.63
544.32	40446.80
544.48	40730.00
544.65	41155.98
544.82	40947.67
544.99	40407.01
545.16	40783.83
545.32	40781.49
545.49	41308.11
545.66	41497.70
545.83	41486.00
546.00	41158.32
546.16	41195.77
546.33	40739.36
546.50	40914.90
546.67	41420.46
546.83	41013.21
547.00	41649.83
547.17	41504.72
547.34	41177.04
547.50	42096.88
547.67	41869.84
547.84	41659.20
548.00	41425.14
548.17	41961.12
548.34	41682.60
548.51	42005.59
548.67	42059.43
548.84	41832.39
549.01	41928.36
549.18	41502.38
549.34	42136.66
549.51	42082.83
549.68	41949.42
549.84	41921.34
550.01	41436.84
550.18	42192.84
550.34	42307.52
550.51	42251.35
550.68	41816.01
550.84	41521.10
551.01	42487.74
551.18	42120.28
551.34	42195.18
551.51	41806.65
551.68	42480.72
551.84	42405.83
552.01	42263.05
552.18	42398.80
552.34	42534.56
552.51	42188.16
552.68	42433.91
552.84	42241.99
553.01	42646.90
553.18	42527.53
553.34	42337.95
553.51	42183.48
553.67	42590.73
553.84	42630.52
554.01	42593.07
554.17	42581.37
554.34	42806.06
554.51	42862.23
554.67	43040.11
554.84	42815.42
555.00	42880.95
555.17	42691.37
555.33	42689.03
555.50	43016.71
555.67	43061.18
555.83	43075.22
556.00	42749.88
556.16	43393.53
556.33	42862.23
556.50	42927.77
556.66	42864.57
556.83	42660.94
556.99	43210.97
557.16	43522.26
557.32	43117.35
557.49	43351.40
557.65	42831.80
557.82	43501.20
557.98	43299.91
558.15	43061.18
558.32	43775.04
558.48	43363.11
558.65	43173.52
558.81	43438.00
558.98	43248.42
559.14	43414.60
559.31	43566.73
559.47	43309.27
559.64	43505.88
559.80	43683.76
559.97	43510.56
560.13	43426.30
560.30	43438.00
560.46	43180.54
560.63	43618.22
560.79	44147.18
560.96	43878.02
561.12	43594.82
561.29	43665.03
561.45	43629.93
561.61	43943.56
561.78	43679.08
561.94	43531.62
562.11	43501.20
562.27	44023.14
562.44	43349.06
562.60	44020.80
562.77	43648.65
562.93	43868.66
563.10	43854.62
563.26	43407.58
563.42	43929.51
563.59	43782.06
563.75	43742.27
563.92	43988.03
564.08	43941.22
564.24	43693.12
564.41	43955.26
564.57	44222.08
564.74	44392.94
564.90	43807.81
565.07	43971.64
565.23	44308.68
565.39	43583.12
565.56	43866.32
565.72	43955.26
565.88	43985.69
566.05	44102.71
566.21	43571.41
566.38	43894.41
566.54	44460.82
566.70	43964.62
566.87	44327.41
567.03	43878.02
567.19	44547.42
567.36	44390.60
567.52	44329.75
567.68	44142.50
567.85	43730.57
568.01	44243.15
568.17	44107.40
568.34	44509.97
568.50	43835.89
568.66	44109.74
568.83	44142.50
568.99	43681.42
569.15	43732.91
569.32	43704.82
569.48	43957.60
569.64	44765.09
569.81	43924.83
569.97	44261.87
570.13	44163.57
570.30	43915.47
570.46	44264.21
570.62	43885.04
570.78	44091.01
570.95	44149.53
571.11	44376.56
571.27	43866.32
571.43	44266.55
571.60	44086.33
571.76	44163.57
571.92	44254.85
572.09	44210.38
572.25	44383.58
572.41	44285.28
572.57	44219.74
572.74	44933.60
572.90	44568.48
573.06	44311.02
573.22	43882.70
573.38	44414.01
573.55	43908.45
573.71	44313.36
573.87	44390.60
574.03	43859.30
574.20	44353.15
574.36	44856.37
574.52	44346.13
574.68	44327.41
574.84	44856.37
575.01	44608.27
575.17	44643.38
575.33	44395.28
575.49	44355.49
575.65	44383.58
575.82	44608.27
575.98	44404.64
576.14	44528.69
576.30	44589.55
576.46	44556.78
576.62	44741.68
576.79	44638.70
576.95	44404.64
577.11	44755.72
577.27	44542.74
577.43	44786.15
577.59	44605.93
577.75	44296.98
577.92	44198.68
578.08	43744.61
578.24	43910.79
578.40	44769.77
578.56	44622.31
578.72	44474.86
578.88	44952.33
579.04	44418.69
579.21	44662.10
579.37	44243.15
579.53	44725.30
579.69	43964.62
579.85	44285.28
580.01	44655.08
580.17	44240.81
580.33	45034.25
580.49	44664.44
580.65	44460.82
580.82	44725.30
580.98	44847.00
581.14	44453.79
581.30	44657.42
581.46	44790.83
581.62	44516.99
581.78	44423.37
581.94	44961.69
582.10	44367.20
582.26	44619.97
582.42	44788.49
582.58	44634.02
582.74	44355.49
582.90	44542.74
583.06	44722.96
583.22	44861.05
583.38	44722.96
583.54	44779.13
583.70	44425.71
583.86	44425.71
584.02	44161.23
584.18	45116.17
584.34	44624.65
584.50	44261.87
584.66	44706.57
584.82	44282.94
584.98	44811.90
585.14	44751.04
585.30	44516.99
585.46	44875.09
585.62	44446.77
585.78	44650.40
585.94	44292.30
586.10	44538.05
586.26	44732.32
586.42	44664.44
586.58	45106.80
586.74	44828.28
586.90	44376.56
587.06	44371.88
587.22	44968.71
587.38	44463.16
587.54	44643.38
587.70	44751.04
587.86	44615.29
588.02	44680.83
588.18	44858.71
588.34	44425.71
588.49	44587.21
588.65	44062.93
588.81	44444.43
588.97	44601.25
589.13	44341.45
589.29	44865.73
589.45	44680.83
589.61	44687.85
589.77	44720.62
589.93	44643.38
590.08	44928.92
590.24	44926.58
