SpectraSuite Data File
++++++++++++++++++++++++++++++++++++
Date: Fri Oct 25 11:24:07 EDT 2013
User: price-jones
Dark Spectrum Present: No
Reference Spectrum Present: No
Number of Sampled Component Spectra: 1
Spectrometers: USB2+H05261
Integration Time (usec): 100000 (USB2+H05261)
Spectra Averaged: 1 (USB2+H05261)
Boxcar Smoothing: 0 (USB2+H05261)
Correct for Electrical Dark: No (USB2+H05261)
Strobe/Lamp Enabled: No (USB2+H05261)
Correct for Detector Non-linearity: No (USB2+H05261)
Correct for Stray Light: No (USB2+H05261)
Number of Pixels in Processed Spectrum: 2048
>>>>>Begin Processed Spectral Data<<<<<
365.73	212.99
365.92	212.99
366.12	212.99
366.32	105.32
366.52	133.41
366.72	191.92
366.91	145.11
367.11	121.71
367.31	124.05
367.51	95.96
367.70	126.39
367.90	91.28
368.10	79.58
368.30	154.48
368.49	135.75
368.69	131.07
368.89	154.48
369.09	168.52
369.28	114.69
369.48	149.79
369.68	84.26
369.87	203.63
370.07	224.69
370.27	215.33
370.47	308.95
370.66	645.99
370.86	653.01
371.06	650.67
371.25	751.31
371.45	664.71
371.65	758.33
371.84	664.71
372.04	688.12
372.24	744.29
372.44	674.07
372.63	758.33
372.83	802.80
373.03	840.25
373.22	713.86
373.42	753.65
373.62	777.06
373.81	861.32
374.01	908.13
374.21	823.87
374.40	837.91
374.60	814.51
374.79	772.38
374.99	814.51
375.19	858.98
375.38	901.11
375.58	866.00
375.78	887.06
375.97	819.19
376.17	887.06
376.37	919.83
376.56	940.90
376.76	793.44
376.95	901.11
377.15	926.85
377.35	915.15
377.54	837.91
377.74	924.51
377.93	966.64
378.13	844.93
378.33	887.06
378.52	901.11
378.72	992.39
378.91	1004.09
379.11	964.30
379.31	980.68
379.50	903.45
379.70	994.73
379.89	983.02
380.09	896.43
380.28	912.81
380.48	957.28
380.68	936.21
380.87	1050.90
381.07	990.05
381.26	1018.13
381.46	1020.47
381.65	1064.94
381.85	1053.24
382.04	1025.15
382.24	1015.79
382.43	1029.84
382.63	1078.99
382.83	1125.80
383.02	1078.99
383.22	1088.35
383.41	1043.88
383.61	1167.93
383.80	1132.82
384.00	1090.69
384.19	1097.71
384.39	1034.52
384.58	1043.88
384.78	1081.33
384.97	1188.99
385.17	1186.65
385.36	1146.86
385.56	1259.21
385.75	1163.25
385.95	1219.42
386.14	1263.89
386.34	1090.69
386.53	1181.97
386.72	1135.16
386.92	1306.02
387.11	1329.42
387.31	1296.66
387.50	1217.08
387.70	1310.70
387.89	1242.82
388.09	1261.55
388.28	1256.87
388.48	1263.89
388.67	1273.25
388.86	1280.27
389.06	1437.09
389.25	1334.11
389.45	1348.15
389.64	1369.21
389.84	1390.28
390.03	1350.49
390.22	1437.09
390.42	1416.02
390.61	1345.81
390.81	1437.09
391.00	1401.98
391.19	1528.37
391.39	1479.22
391.58	1495.60
391.78	1420.71
391.97	1584.54
392.16	1556.46
392.36	1598.59
392.55	1582.20
392.75	1530.71
392.94	1406.66
393.13	1565.82
393.33	1535.39
393.52	1654.76
393.71	1533.05
393.91	1624.33
394.10	1565.82
394.29	1605.61
394.49	1577.52
394.68	1614.97
394.88	1614.97
395.07	1732.00
395.26	1603.27
395.46	1741.36
395.65	1732.00
395.84	1715.61
396.04	1792.85
396.23	1753.06
396.42	1762.42
396.62	1802.21
396.81	1926.26
397.00	1792.85
397.19	1741.36
397.39	1895.83
397.58	1914.56
397.77	1781.15
397.97	1781.15
398.16	1888.81
398.35	1942.64
398.55	1781.15
398.74	1973.07
398.93	1984.77
399.12	1825.62
399.32	1963.71
399.51	1858.39
399.70	2036.27
399.90	1935.62
400.09	1961.37
400.28	2015.20
400.47	2066.69
400.67	2029.24
400.86	2111.16
401.05	2113.50
401.24	2057.33
401.44	2015.20
401.63	2141.59
401.82	2179.04
402.01	2186.06
402.21	2160.31
402.40	2256.28
402.59	2183.72
402.78	2326.49
402.97	2167.34
403.17	2310.11
403.36	2218.83
403.55	2319.47
403.74	2305.43
403.93	2368.62
404.13	2333.51
404.32	2387.35
404.51	2345.22
404.70	2401.39
404.89	2450.54
405.09	2539.48
405.28	2497.35
405.47	2562.89
405.66	2530.12
405.85	2504.37
406.05	2487.99
406.24	2586.29
406.43	2579.27
406.62	2644.81
406.81	2717.36
407.00	2576.93
407.20	2590.97
407.39	2602.68
407.58	2747.79
407.77	2864.82
407.96	2867.16
408.15	2799.28
408.34	2717.36
408.54	2846.09
408.73	2789.92
408.92	2832.05
409.11	2843.75
409.30	2906.95
409.49	2951.42
409.68	3002.91
409.87	3007.59
410.07	3105.89
410.26	2972.48
410.45	3115.25
410.64	3059.08
410.83	3038.02
411.02	3152.70
411.21	3239.30
411.40	3075.46
411.59	3279.09
411.78	3307.18
411.98	3159.72
412.17	3279.09
412.36	3276.75
412.55	3384.41
412.74	3403.14
412.93	3391.44
413.12	3323.56
413.31	3588.04
413.50	3501.44
413.69	3482.72
413.88	3513.14
414.07	3597.40
414.26	3648.90
414.45	3611.45
414.64	3730.81
414.83	3676.98
415.02	3833.80
415.22	3707.41
415.41	3861.88
415.60	3829.12
415.79	3901.67
415.98	4074.87
416.17	4159.13
416.36	4117.00
416.55	4051.47
416.74	4219.99
416.93	4105.30
417.12	4039.76
417.31	4147.43
417.50	4098.28
417.69	4383.82
417.88	4231.69
418.07	4320.63
418.26	4411.91
418.45	4264.46
418.64	4540.64
418.83	4456.38
419.02	4341.69
419.21	4624.90
419.39	4535.96
419.58	4552.34
419.77	4606.17
419.96	4512.55
420.15	4650.64
420.34	4648.30
420.53	4608.51
420.72	4688.09
420.91	4791.08
421.10	4690.43
421.29	4746.61
421.48	4805.12
421.67	4781.71
421.86	4851.93
422.05	4938.53
422.24	4835.55
422.43	4854.27
422.61	4887.04
422.80	5018.11
422.99	5156.20
423.18	5067.26
423.37	5172.58
423.56	4828.53
423.75	4985.34
423.94	4891.72
424.13	4676.39
424.32	4847.25
424.50	5118.75
424.69	5055.56
424.88	4924.49
425.07	5018.11
425.26	4844.91
425.45	4943.21
425.64	5174.92
425.83	4978.32
426.01	5046.20
426.20	5123.43
426.39	5048.54
426.58	5167.90
426.77	5137.48
426.96	5123.43
427.15	5165.56
427.33	5226.42
427.52	5081.30
427.71	5420.68
427.90	5240.46
428.09	5303.65
428.28	5301.31
428.46	5350.46
428.65	5486.22
428.84	5526.00
429.03	5542.39
429.22	5408.98
429.40	5722.61
429.59	5647.71
429.78	5408.98
429.97	5270.89
430.16	5518.98
430.34	5558.77
430.53	5874.74
430.72	5778.78
430.91	5699.20
431.10	5652.39
431.28	5919.21
431.47	5844.32
431.66	5703.89
431.85	5713.25
432.03	6141.57
432.22	5940.28
432.41	5877.09
432.60	5947.30
432.79	6031.56
432.97	6019.86
433.16	5898.15
433.35	6047.94
433.54	6083.05
433.72	6310.08
433.91	6136.88
434.10	6274.98
434.28	6120.50
434.47	6188.38
434.66	6305.40
434.85	6296.04
435.03	6436.47
435.22	6480.94
435.41	6553.50
435.59	6328.81
435.78	6403.71
435.97	6459.88
436.16	6310.08
436.34	6478.60
436.53	6541.80
436.72	6583.93
436.90	6595.63
437.09	6698.61
437.28	6576.91
437.46	6569.88
437.65	6682.23
437.84	6829.68
438.02	6803.94
438.21	6747.76
438.40	6682.23
438.58	7073.10
438.77	6841.39
438.96	6970.12
439.14	7183.10
439.33	7091.82
439.52	7236.94
439.70	7262.68
439.89	7349.28
440.08	7468.65
440.26	7499.08
440.45	7410.14
440.63	7274.38
440.82	7653.55
441.01	7482.69
441.19	7686.32
441.38	7707.38
441.57	7707.38
441.75	7728.45
441.94	8196.56
442.12	7854.84
442.31	8175.49
442.50	8037.40
442.68	8025.70
442.87	8095.91
443.05	8273.79
443.24	8131.02
443.43	8105.28
443.61	8184.85
443.80	8643.60
443.98	8189.53
444.17	7983.57
444.35	8166.13
444.54	8442.31
444.73	8336.99
444.91	8243.37
445.10	8374.44
445.28	8339.33
445.47	8131.02
445.65	8299.54
445.84	8510.19
446.02	8620.19
446.21	8456.36
446.39	8451.67
446.58	8524.23
446.77	8592.11
446.95	8374.44
447.14	8524.23
447.32	8512.53
447.51	8606.15
447.69	8564.02
447.88	8667.00
448.06	8645.94
448.25	8631.90
448.43	8601.47
448.62	8734.88
448.80	8723.18
448.99	8779.35
449.17	8798.07
449.36	8812.12
449.54	8896.38
449.73	9043.83
449.91	9008.72
450.10	8987.66
450.28	9090.64
450.46	9057.87
450.65	9217.03
450.83	9071.92
451.02	8884.67
451.20	9149.15
451.39	9378.53
451.57	9348.10
451.76	9006.38
451.94	9483.85
452.13	9298.95
452.31	9329.38
452.49	9252.14
452.68	9568.11
452.86	9294.27
453.05	9572.79
453.23	9530.66
453.42	9338.74
453.60	9153.84
453.78	9689.82
453.97	9490.87
454.15	9680.46
454.34	9579.81
454.52	9678.12
454.70	9844.29
454.89	9879.40
455.07	9865.36
455.26	9963.66
455.44	10087.71
455.62	9888.76
455.81	10022.17
455.99	10132.18
456.17	10139.20
456.36	10111.11
456.54	10153.24
456.73	10359.21
456.91	10661.14
457.09	10527.73
457.28	10600.29
457.46	10335.81
457.64	10700.93
457.83	10537.09
458.01	10616.67
458.19	10801.57
458.38	10626.03
458.56	10668.16
458.74	10757.10
458.93	10696.25
459.11	10562.84
459.29	10724.33
459.48	10923.28
459.66	10717.31
459.84	11019.24
460.03	11112.86
460.21	10967.75
460.39	11059.03
460.57	10977.11
460.76	11154.99
460.94	11143.29
461.12	11358.62
461.31	11463.94
461.49	11164.36
461.67	11201.80
461.85	11557.57
462.04	11215.85
462.22	11637.14
462.40	11880.56
462.59	11454.58
462.77	11508.41
462.95	11613.74
463.13	11803.32
463.32	11740.13
463.50	11822.05
463.68	11829.07
463.86	11934.39
464.05	11616.08
464.23	11667.57
464.41	11791.62
464.59	11517.78
464.78	12154.40
464.96	12119.29
465.14	11908.65
465.32	12170.79
465.50	12138.02
465.69	12154.40
465.87	12191.85
466.05	12177.81
466.23	12423.56
466.41	12252.70
466.60	12496.12
466.78	12332.28
466.96	12201.21
467.14	12585.06
467.32	12498.46
467.51	12458.67
467.69	12236.32
467.87	12477.40
468.05	12381.43
468.23	12414.20
468.41	12402.50
468.60	12830.82
468.78	12798.05
468.96	12608.47
469.14	13104.66
469.32	13015.72
469.50	12802.73
469.69	12931.46
469.87	13064.87
470.05	13085.94
470.23	13319.99
470.41	13125.72
470.59	13462.76
470.77	13329.35
470.95	13280.20
471.14	13226.37
471.32	13181.90
471.50	13724.90
471.68	13420.63
471.86	13937.89
472.04	13764.69
472.22	14068.96
472.40	13671.07
472.58	13916.83
472.77	13907.46
472.95	14090.02
473.13	14497.28
473.31	13916.83
473.49	14303.01
473.67	14263.22
473.85	14249.18
474.03	14869.42
474.21	14754.74
474.39	14839.00
474.57	14888.15
474.75	14764.10
474.93	14885.81
475.12	15049.64
475.30	15255.61
475.48	15248.59
475.66	15293.06
475.84	15281.36
476.02	15562.22
476.20	15541.16
476.38	15499.03
476.56	16079.48
476.74	16065.44
476.92	15974.16
477.10	15906.28
477.28	16194.17
477.46	16074.80
477.64	16336.94
477.82	16786.32
478.00	17048.46
478.18	16919.73
478.36	16835.47
478.54	17275.49
478.72	17193.58
478.90	17453.37
479.08	17703.81
479.26	17867.65
479.44	17933.18
479.62	17675.73
479.80	18122.77
479.98	18274.90
480.16	18677.48
480.34	18403.63
480.52	18892.80
480.70	18682.16
480.88	18658.75
481.06	18974.72
481.24	19159.63
481.41	19124.52
481.59	19634.75
481.77	19822.00
481.95	19550.49
482.13	20006.90
482.31	20004.56
482.49	20177.76
482.67	20418.83
482.85	20465.64
483.03	20615.44
483.21	20847.15
483.39	20982.90
483.57	20922.05
483.74	21476.76
483.92	21668.68
484.10	21226.32
484.28	21940.18
484.46	22277.22
484.64	22508.93
484.82	21926.14
485.00	22527.66
485.18	22857.67
485.35	22892.78
485.53	22904.48
485.71	23323.44
485.89	23599.62
486.07	23496.64
486.25	23667.50
486.43	23819.63
486.61	24013.90
486.78	24006.87
486.96	24404.77
487.14	24580.31
487.32	24662.22
487.50	24966.49
487.68	24833.08
487.85	25390.13
488.03	25535.24
488.21	25525.88
488.39	26157.83
488.57	26134.42
488.75	26324.01
488.92	26546.36
489.10	26824.88
489.28	26693.81
489.46	27342.14
489.64	27166.60
489.81	27744.71
489.99	27709.60
490.17	27962.38
490.35	27852.38
490.53	28388.36
490.70	28629.43
490.88	28786.25
491.06	29326.91
491.24	29069.45
491.41	29252.02
491.59	29282.44
491.77	29312.87
491.95	29476.71
492.13	30136.74
492.30	29823.11
492.48	30352.07
492.66	30281.85
492.84	30450.37
493.01	30710.17
493.19	30803.79
493.37	31285.94
493.54	31728.30
493.72	32046.62
493.90	31653.40
494.08	32013.85
494.25	32158.96
494.43	32292.37
494.61	32751.12
494.79	32634.09
494.96	32704.31
495.14	33034.32
495.32	33024.96
495.49	33242.63
495.67	33490.73
495.85	33827.76
496.02	33642.86
496.20	33954.15
496.38	34110.97
496.55	34555.67
496.73	35182.93
496.91	34859.94
497.09	35023.78
497.26	35068.25
497.44	35353.79
497.62	35292.94
497.79	35854.67
497.97	35821.90
498.14	36140.21
498.32	36566.19
498.50	36287.67
498.67	36737.05
498.85	37038.98
499.03	37242.60
499.20	37003.87
499.38	36734.71
499.56	37326.86
499.73	37628.79
499.91	37326.86
500.08	37975.19
500.26	37635.81
500.44	37497.72
500.61	37895.61
500.79	37801.99
500.97	38333.29
501.14	38337.98
501.32	38909.07
501.49	38614.16
501.67	38686.71
501.84	39115.03
502.02	39119.71
502.20	38948.85
502.37	39512.92
502.55	39620.59
502.72	39772.72
502.90	39714.21
503.07	39700.17
503.25	39791.45
503.43	39723.57
503.60	40088.70
503.78	40313.39
503.95	40437.44
504.13	40842.35
504.30	40896.18
504.48	40524.04
504.65	40889.16
504.83	40872.78
505.01	41387.69
505.18	41350.24
505.36	41926.02
505.53	41352.58
505.71	41443.87
505.88	41872.18
506.06	41706.01
506.23	42351.99
506.41	42143.69
506.58	42202.20
506.76	42454.98
506.93	42553.28
507.11	42452.64
507.28	42501.79
507.46	42930.11
507.63	43487.15
507.81	43452.05
507.98	43063.52
508.16	43311.61
508.33	43571.41
508.50	43831.21
508.68	43997.39
508.85	43927.17
509.03	44091.01
509.20	44421.03
509.38	44676.15
509.55	44425.71
509.73	44608.27
509.90	44966.37
510.08	44861.05
510.25	44748.70
510.42	45139.57
510.60	45628.74
510.77	45509.38
510.95	45577.25
511.12	45329.16
511.30	45291.71
511.47	45764.49
511.64	45720.02
511.82	46260.69
511.99	46047.70
512.17	45776.20
512.34	46197.49
512.51	46630.49
512.69	46635.17
512.86	46703.05
513.04	46686.67
513.21	46843.48
513.38	47056.47
513.56	47313.93
513.73	47124.35
513.90	47171.16
514.08	47227.33
514.25	47220.31
514.43	47405.21
514.60	47351.38
514.77	47672.03
514.95	47798.42
515.12	47716.50
515.29	47557.35
515.47	48135.46
515.64	48142.48
515.81	48069.92
515.99	48229.08
516.16	48507.60
516.33	48800.17
516.51	49064.65
516.68	48474.84
516.85	48816.55
517.03	49256.57
517.20	48992.09
517.37	48999.12
517.54	49457.86
517.72	48956.99
517.89	49607.65
518.06	49193.38
518.24	49783.19
518.41	49624.04
518.58	49684.89
518.75	49382.96
518.93	50035.97
519.10	50028.95
519.27	49947.03
519.45	49965.76
519.62	49965.76
519.79	50248.96
519.96	50260.66
520.14	50405.78
520.31	50202.15
520.48	50380.03
520.65	50686.64
520.83	50578.98
521.00	50742.81
521.17	50768.56
521.34	50883.25
521.52	51147.73
521.69	51112.62
521.86	51456.68
522.03	51452.00
522.20	51447.32
522.38	52062.88
522.55	51484.76
522.72	51615.83
522.89	51737.54
523.07	51784.35
523.24	51622.86
523.41	51828.82
523.58	51688.39
523.75	51985.64
523.92	52378.85
524.10	52212.67
524.27	52374.17
524.44	52619.92
524.61	52399.91
524.78	52250.12
524.96	52292.25
525.13	52662.05
525.30	52795.46
525.47	52807.17
525.64	52547.37
525.81	52722.91
525.98	52790.78
526.16	52856.32
526.33	52697.16
526.50	53268.25
526.67	52884.40
526.84	52973.34
527.01	53226.12
527.18	53073.99
527.36	53148.88
527.53	53478.90
527.70	53663.80
527.87	53591.25
528.04	53385.28
528.21	53663.80
528.38	53509.33
528.55	53801.89
528.72	53495.28
528.89	53719.98
529.07	53474.22
529.24	53689.55
529.41	53764.45
529.58	53886.15
529.75	53649.76
529.92	53947.01
530.09	54035.95
530.26	53904.88
530.43	54218.51
530.60	53883.81
530.77	53825.30
530.94	54351.92
531.11	54110.85
531.28	54246.60
531.46	54508.74
531.63	54422.14
531.80	54300.43
531.97	54773.22
532.14	54347.24
532.31	54506.40
532.48	55035.36
532.65	54986.21
532.82	54478.31
532.99	55114.94
533.16	54894.92
533.33	55079.83
533.50	55157.06
533.67	54827.05
533.84	55150.04
534.01	54937.05
534.18	55068.12
534.35	55545.59
534.52	55217.92
534.69	55531.55
534.86	55419.20
535.03	55206.22
535.20	55473.04
535.37	55531.55
535.54	55379.42
535.71	55585.38
535.88	55585.38
536.05	55594.74
536.22	55578.36
536.38	55704.75
536.55	55725.81
536.72	55955.19
536.89	55744.54
537.06	55690.71
537.23	56055.83
537.40	55571.34
537.57	56046.47
537.74	55870.93
537.91	56076.90
538.08	56081.58
538.25	55903.70
538.42	55936.46
538.59	56479.47
538.75	56334.35
538.92	56231.37
539.09	56238.39
539.26	56268.82
539.43	56336.69
539.60	56324.99
539.77	56310.95
539.94	56491.17
540.11	56542.66
540.28	56477.13
540.44	56769.69
540.61	56741.61
540.78	56589.47
540.95	56549.68
541.12	56446.70
541.29	56619.90
541.46	56666.71
541.62	56832.89
541.79	56605.86
541.96	56446.70
542.13	56959.28
542.30	56865.66
542.47	56947.57
542.63	57062.26
542.80	57228.44
542.97	57242.48
543.14	57425.04
543.31	57284.61
543.48	57340.78
543.64	57595.90
543.81	57415.68
543.98	57418.02
544.15	57326.74
544.32	57820.59
544.48	57609.95
544.65	57420.36
544.82	57579.52
544.99	57497.60
545.16	57680.16
545.32	57478.88
545.49	57846.34
545.66	57888.47
545.83	57851.02
546.00	57780.81
546.16	57890.81
546.33	57839.32
546.50	57682.50
546.67	57893.15
546.83	57673.14
547.00	57991.45
547.17	57797.19
547.34	57984.43
547.50	58101.46
547.67	58171.67
547.84	58166.99
548.00	58277.00
548.17	58513.39
548.34	58281.68
548.51	58092.10
548.67	58450.20
548.84	58169.33
549.01	58012.52
549.18	58494.67
549.34	58419.77
549.51	58382.32
549.68	58583.61
549.84	58440.84
550.01	58480.63
550.18	58412.75
550.34	58642.12
550.51	58508.71
550.68	58665.53
550.84	58195.08
551.01	58829.37
551.18	58426.79
551.34	58557.86
551.51	58714.68
551.68	58599.99
551.84	58705.32
552.01	58599.99
552.18	58801.28
552.34	58590.63
552.51	59011.93
552.68	58670.21
552.84	58873.84
553.01	59086.82
553.18	58817.66
553.34	58958.09
553.51	58887.88
553.67	58955.75
553.84	58937.03
554.01	59229.60
554.17	59135.98
554.34	59332.58
554.51	59068.10
554.67	59180.45
554.84	59072.78
555.00	59208.53
555.17	59208.53
555.33	59363.01
555.50	59241.30
555.67	59096.19
555.83	59180.45
556.00	59299.81
556.16	59512.80
556.33	59587.70
556.50	59426.20
556.66	59414.50
556.83	59339.60
556.99	59503.44
557.16	59601.74
557.32	59678.98
557.49	59803.03
557.65	59639.19
557.82	59360.67
557.98	59622.81
558.15	59491.74
558.32	59494.08
558.48	59388.75
558.65	59597.06
558.81	59639.19
558.98	59746.86
559.14	59683.66
559.31	59674.30
559.47	59936.44
559.64	59767.92
559.80	59587.70
559.97	59866.22
560.13	59725.79
560.30	59800.69
560.46	60037.08
560.63	59931.76
560.79	60104.96
560.96	59906.01
561.12	60011.34
561.29	60058.15
561.45	60011.34
561.61	59891.97
561.78	59999.63
561.94	59803.03
562.11	60126.02
562.27	59983.25
562.44	60172.83
562.60	60226.66
562.77	60048.78
562.93	59971.55
563.10	60229.01
563.26	60095.60
563.42	60411.57
563.59	60331.99
563.75	60317.95
563.92	60186.88
564.08	60240.71
564.24	60266.45
564.41	60165.81
564.57	60177.51
564.74	60378.80
564.90	60233.69
565.07	60179.85
565.23	60294.54
565.39	60296.88
565.56	60282.84
565.72	60287.52
565.88	60376.46
566.05	60301.56
566.21	60299.22
566.38	60369.44
566.54	60329.65
566.70	60577.75
566.87	60439.65
567.03	60140.07
567.19	60467.74
567.36	60603.49
567.52	60348.37
567.68	60654.98
567.85	60367.10
568.01	60626.90
568.17	60439.65
568.34	60762.65
568.50	60460.72
568.66	60369.44
568.83	60594.13
568.99	60474.76
569.15	60552.00
569.32	60603.49
569.48	60495.83
569.64	60477.10
569.81	60605.83
569.97	60544.98
570.13	60584.77
570.30	60374.12
570.46	60619.88
570.62	60729.88
570.78	60507.53
570.95	60746.26
571.11	60720.52
571.27	60622.22
571.43	60741.58
571.60	60772.01
571.76	60612.85
571.92	60654.98
572.09	60460.72
572.25	60662.00
572.41	60769.67
572.57	60636.26
572.74	61125.43
572.90	60680.73
573.06	60814.14
573.22	60779.03
573.38	60645.62
573.55	60772.01
573.71	61015.43
573.87	60874.99
574.03	60514.55
574.20	60793.07
574.36	60612.85
574.52	60884.36
574.68	61083.30
574.84	61048.19
575.01	60746.26
575.17	60767.33
575.33	60788.39
575.49	60671.37
575.65	60900.74
575.82	60970.96
575.98	61041.17
576.14	60823.50
576.30	61020.11
576.46	61036.49
576.62	60919.46
576.79	60746.26
576.95	60795.42
577.11	60889.04
577.27	61006.06
577.43	61038.83
577.59	60772.01
577.75	60760.31
577.92	60870.31
578.08	60931.17
578.24	60851.59
578.40	61293.95
578.56	61008.40
578.72	61219.05
578.88	61066.92
579.04	61055.21
579.21	61169.90
579.37	61050.53
579.53	61090.32
579.69	60884.36
579.85	60996.70
580.01	61050.53
580.17	60844.57
580.33	60980.32
580.49	60910.10
580.65	61172.24
580.82	60945.21
580.98	60996.70
581.14	60994.36
581.30	61162.88
581.46	61116.07
581.62	60987.34
581.78	60889.04
581.94	61064.58
582.10	61015.43
582.26	61031.81
582.42	61013.08
582.58	61179.26
582.74	61022.45
582.90	61244.80
583.06	61087.98
583.22	60970.96
583.38	61202.67
583.54	61200.33
583.70	61214.37
583.86	61095.00
584.02	61085.64
584.18	60966.27
584.34	61165.22
584.50	60860.95
584.66	60914.78
584.82	61139.47
584.98	61127.77
585.14	61066.92
585.30	60996.70
585.46	61282.25
585.62	61057.56
585.78	61305.65
585.94	60959.25
586.10	61268.20
586.26	61256.50
586.42	61193.31
586.58	61303.31
586.74	61350.12
586.90	61127.77
587.06	61162.88
587.22	61315.01
587.38	61256.50
587.54	61268.20
587.70	61490.55
587.86	61254.16
588.02	61064.58
588.18	61401.61
588.34	61190.97
588.49	61352.46
