SpectraSuite Data File
++++++++++++++++++++++++++++++++++++
Date: Fri Oct 25 11:22:45 EDT 2013
User: price-jones
Dark Spectrum Present: No
Reference Spectrum Present: No
Number of Sampled Component Spectra: 1
Spectrometers: USB2+H05261
Integration Time (usec): 100000 (USB2+H05261)
Spectra Averaged: 1 (USB2+H05261)
Boxcar Smoothing: 0 (USB2+H05261)
Correct for Electrical Dark: No (USB2+H05261)
Strobe/Lamp Enabled: No (USB2+H05261)
Correct for Detector Non-linearity: No (USB2+H05261)
Correct for Stray Light: No (USB2+H05261)
Number of Pixels in Processed Spectrum: 2048
>>>>>Begin Processed Spectral Data<<<<<
365.73	236.39
365.92	236.39
366.12	236.39
366.32	203.63
366.52	77.24
366.72	175.54
366.91	114.69
367.11	95.96
367.31	70.22
367.51	32.77
367.70	152.13
367.90	166.18
368.10	110.01
368.30	161.50
368.49	180.22
368.69	215.33
368.89	124.05
369.09	196.60
369.28	152.13
369.48	154.48
369.68	175.54
369.87	191.92
370.07	198.95
370.27	224.69
370.47	292.57
370.66	545.34
370.86	613.22
371.06	692.80
371.25	667.05
371.45	641.31
371.65	650.67
371.84	660.03
372.04	734.93
372.24	763.01
372.44	723.23
372.63	763.01
372.83	765.36
373.03	730.25
373.22	791.10
373.42	819.19
373.62	716.20
373.81	760.67
374.01	800.46
374.21	807.48
374.40	795.78
374.60	849.61
374.79	779.40
374.99	767.70
375.19	882.38
375.38	887.06
375.58	856.64
375.78	863.66
375.97	875.36
376.17	819.19
376.37	889.40
376.56	905.79
376.76	894.08
376.95	758.33
377.15	926.85
377.35	870.68
377.54	931.53
377.74	903.45
377.93	875.36
378.13	884.72
378.33	896.43
378.52	891.74
378.72	938.55
378.91	1025.15
379.11	866.00
379.31	891.74
379.50	992.39
379.70	938.55
379.89	922.17
380.09	971.32
380.28	1006.43
380.48	987.71
380.68	1062.60
380.87	1102.39
381.07	901.11
381.26	1050.90
381.46	980.68
381.65	959.62
381.85	1067.28
382.04	1029.84
382.24	1043.88
382.43	1086.01
382.63	1053.24
382.83	1160.91
383.02	1076.65
383.22	1207.72
383.41	1118.78
383.61	1151.54
383.80	1177.29
384.00	1165.59
384.19	1100.05
384.39	1177.29
384.58	1139.84
384.78	1109.41
384.97	1165.59
385.17	1095.37
385.36	1107.07
385.56	1163.25
385.75	1151.54
385.95	1086.01
386.14	1165.59
386.34	1170.27
386.53	1217.08
386.72	1104.73
386.92	1242.82
387.11	1198.35
387.31	1306.02
387.50	1151.54
387.70	1240.48
387.89	1210.06
388.09	1254.53
388.28	1289.64
388.48	1247.51
388.67	1291.98
388.86	1362.19
389.06	1256.87
389.25	1418.36
389.45	1327.08
389.64	1380.92
389.84	1341.13
390.03	1376.24
390.22	1409.00
390.42	1336.45
390.61	1392.62
390.81	1376.24
391.00	1401.98
391.19	1467.52
391.39	1437.09
391.58	1434.75
391.78	1322.40
391.97	1507.30
392.16	1413.68
392.36	1521.35
392.55	1437.09
392.75	1511.99
392.94	1502.62
393.13	1493.26
393.33	1495.60
393.52	1591.56
393.71	1514.33
393.91	1593.90
394.10	1650.08
394.29	1605.61
394.49	1540.07
394.68	1675.82
394.88	1607.95
395.07	1715.61
395.26	1659.44
395.46	1732.00
395.65	1650.08
395.84	1666.46
396.04	1743.70
396.23	1818.60
396.42	1732.00
396.62	1717.95
396.81	1729.66
397.00	1701.57
397.19	1713.27
397.39	1895.83
397.58	1870.09
397.77	1790.51
397.97	1792.85
398.16	1858.39
398.35	1928.60
398.55	1858.39
398.74	1834.98
398.93	1907.54
399.12	1959.03
399.32	1867.75
399.51	1926.26
399.70	2127.55
399.90	1888.81
400.09	2052.65
400.28	1940.30
400.47	1980.09
400.67	2099.46
400.86	2139.25
401.05	2129.89
401.24	2155.63
401.44	2066.69
401.63	2179.04
401.82	2078.40
402.01	2148.61
402.21	2176.70
402.40	2214.15
402.59	2120.53
402.78	2197.76
402.97	2223.51
403.17	2331.17
403.36	2340.54
403.55	2256.28
403.74	2406.07
403.93	2319.47
404.13	2399.05
404.32	2380.32
404.51	2319.47
404.70	2452.88
404.89	2319.47
405.09	2546.50
405.28	2497.35
405.47	2490.33
405.66	2572.25
405.85	2464.58
406.05	2509.05
406.24	2705.66
406.43	2600.34
406.62	2569.91
406.81	2661.19
407.00	2487.99
407.20	2576.93
407.39	2588.63
407.58	2782.90
407.77	2848.43
407.96	2743.11
408.15	2773.53
408.34	2768.85
408.54	2848.43
408.73	2867.16
408.92	2785.24
409.11	2932.69
409.30	2918.65
409.49	2867.16
409.68	3012.27
409.87	2967.80
410.07	3082.49
410.26	2974.82
410.45	2923.33
410.64	2878.86
410.83	3105.89
411.02	2991.20
411.21	3180.79
411.40	3138.66
411.59	3396.12
411.78	3288.45
411.98	3262.71
412.17	3229.94
412.36	3290.79
412.55	3426.54
412.74	3309.52
412.93	3382.07
413.12	3365.69
413.31	3609.11
413.50	3421.86
413.69	3492.08
413.88	3581.02
414.07	3557.61
414.26	3705.07
414.45	3583.36
414.64	3658.26
414.83	3730.81
415.02	3705.07
415.22	3932.10
415.41	3908.69
415.60	3833.80
415.79	3925.08
415.98	3936.78
416.17	3992.95
416.36	4016.36
416.55	3922.74
416.74	4109.98
416.93	3976.57
417.12	3962.53
417.31	4170.83
417.50	4248.07
417.69	4339.35
417.88	4358.08
418.07	4329.99
418.26	4358.08
418.45	4400.21
418.64	4610.86
418.83	4421.27
419.02	4470.42
419.21	4704.48
419.39	4428.29
419.58	4285.52
419.77	4575.75
419.96	4599.15
420.15	4550.00
420.34	4552.34
420.53	4592.13
420.72	4856.61
420.91	4732.56
421.10	4629.58
421.29	4812.14
421.48	4800.44
421.67	4814.48
421.86	4854.27
422.05	4704.48
422.24	4908.10
422.43	4884.70
422.61	4861.29
422.80	5004.07
422.99	4826.18
423.18	4997.04
423.37	4945.55
423.56	4992.36
423.75	4938.53
423.94	4851.93
424.13	4521.92
424.32	4720.86
424.50	4950.23
424.69	5149.18
424.88	5193.65
425.07	4966.62
425.26	4961.94
425.45	4868.31
425.64	4919.81
425.83	4894.06
426.01	5043.85
426.20	5172.58
426.39	5053.22
426.58	4887.04
426.77	5093.01
426.96	5203.01
427.15	5231.10
427.33	5219.39
427.52	5008.75
427.71	5345.78
427.90	5174.92
428.09	5458.13
428.28	5392.59
428.46	5383.23
428.65	5263.86
428.84	5544.73
429.03	5565.79
429.22	5432.38
429.40	5359.83
429.59	5467.49
429.78	5336.42
429.97	5310.68
430.16	5486.22
430.34	5593.88
430.53	5680.48
430.72	5722.61
430.91	5678.14
431.10	5729.63
431.28	5734.31
431.47	5942.62
431.66	5944.96
431.85	5729.63
432.03	5867.72
432.22	5982.41
432.41	5877.09
432.60	6001.13
432.79	5926.24
432.97	5973.05
433.16	6101.78
433.35	6033.90
433.54	6136.88
433.72	5937.94
433.91	6015.18
434.10	6324.13
434.28	6171.99
434.47	6235.19
434.66	6221.14
434.85	6429.45
435.03	6462.22
435.22	6214.12
435.41	6544.14
435.59	6466.90
435.78	6487.96
435.97	6380.30
436.16	6473.92
436.34	6392.00
436.53	6539.46
436.72	6614.35
436.90	6502.01
437.09	6509.03
437.28	6572.22
437.46	6696.27
437.65	6576.91
437.84	6834.36
438.02	6546.48
438.21	6656.48
438.40	6689.25
438.58	6766.49
438.77	7103.53
438.96	7014.59
439.14	7288.43
439.33	7302.47
439.52	7194.81
439.70	7122.25
439.89	7346.94
440.08	7241.62
440.26	7433.54
440.45	7344.60
440.63	7639.51
440.82	7517.80
441.01	7562.27
441.19	7723.77
441.38	7693.34
441.57	7756.54
441.75	7681.64
441.94	7868.88
442.12	7934.42
442.31	7962.50
442.50	8060.80
442.68	7901.65
442.87	8030.38
443.05	8067.83
443.24	8215.28
443.43	8105.28
443.61	8264.43
443.80	8547.64
443.98	7953.14
444.17	7892.29
444.35	8208.26
444.54	8400.18
444.73	8329.97
444.91	8128.68
445.10	8421.25
445.28	8273.79
445.47	8297.20
445.65	8437.63
445.84	8367.42
446.02	8622.53
446.21	8430.61
446.39	8451.67
446.58	8592.11
446.77	8674.03
446.95	8482.10
447.14	8393.16
447.32	8610.83
447.51	8493.80
447.69	8620.19
447.88	8533.59
448.06	8599.13
448.25	8603.81
448.43	8582.74
448.62	8540.61
448.80	8451.67
448.99	8638.92
449.17	8739.56
449.36	8734.88
449.54	8688.07
449.73	9057.87
449.91	8947.87
450.10	9146.81
450.28	9102.34
450.46	9050.85
450.65	9132.77
450.83	9135.11
451.02	9146.81
451.20	8947.87
451.39	9156.18
451.57	9474.49
451.76	9130.43
451.94	9261.50
452.13	9401.93
452.31	9256.82
452.49	9235.75
452.68	9212.35
452.86	9296.61
453.05	9528.32
453.23	9689.82
453.42	9352.78
453.60	9298.95
453.78	9696.84
453.97	9565.77
454.15	9547.05
454.34	9432.36
454.52	9804.50
454.70	9657.05
454.89	9572.79
455.07	9741.31
455.26	9753.01
455.44	10083.03
455.62	10040.90
455.81	10104.09
455.99	9987.07
456.17	10033.88
456.36	10125.16
456.54	10183.67
456.73	10281.97
456.91	10443.47
457.09	10457.51
457.28	10415.38
457.46	10359.21
457.64	10602.63
457.83	10516.03
458.01	10237.50
458.19	10808.59
458.38	10640.08
458.56	10780.51
458.74	10824.98
458.93	10843.70
459.11	10867.11
459.29	10853.06
459.48	10993.50
459.66	10848.38
459.84	10916.26
460.03	11052.01
460.21	11108.18
460.39	11229.89
460.57	11021.58
460.76	11208.83
460.94	11325.85
461.12	11211.17
461.31	11363.30
461.49	11173.72
461.67	11433.52
461.85	11433.52
462.04	11246.27
462.22	11793.96
462.40	11686.29
462.59	11531.82
462.77	11646.51
462.95	11800.98
463.13	11595.01
463.32	11686.29
463.50	11850.13
463.68	11873.54
463.86	11716.72
464.05	12028.01
464.23	12030.35
464.41	11796.30
464.59	11847.79
464.78	12259.73
464.96	11967.16
465.14	11674.59
465.32	12177.81
465.50	11985.88
465.69	12486.76
465.87	12063.12
466.05	12304.20
466.23	12362.71
466.41	12086.53
466.60	12533.57
466.78	12149.72
466.96	12358.03
467.14	12299.52
467.32	12517.18
467.51	12613.15
467.69	12233.98
467.87	12589.74
468.05	12807.41
468.23	12681.02
468.41	12533.57
468.60	12720.81
468.78	12868.27
468.96	12709.11
469.14	13057.85
469.32	13135.09
469.50	12688.04
469.69	12968.91
469.87	13069.55
470.05	13252.11
470.23	13280.20
470.41	13202.96
470.59	13390.20
470.77	13219.35
470.95	13532.98
471.14	13710.86
471.32	13378.50
471.50	13743.63
471.68	13706.18
471.86	13650.00
472.04	13809.16
472.22	14176.62
472.40	13907.46
472.58	14054.92
472.77	14047.90
472.95	13987.04
473.13	14511.32
473.31	14078.32
473.49	14239.82
473.67	14244.50
473.85	14235.14
474.03	14506.64
474.21	14525.36
474.39	14963.04
474.57	14883.47
474.75	15098.80
474.93	14757.08
475.12	15054.33
475.30	15136.24
475.48	15009.86
475.66	15129.22
475.84	15131.56
476.02	15604.35
476.20	15264.97
476.38	15784.57
476.56	16114.59
476.74	16112.25
476.92	15946.07
477.10	16058.42
477.28	16257.36
477.46	16418.86
477.64	16287.79
477.82	16603.76
478.00	17097.61
478.18	17092.93
478.36	16828.45
478.54	17097.61
478.72	17343.37
478.90	17788.07
479.08	17699.13
479.26	17872.33
479.44	17865.31
479.62	17942.55
479.80	17867.65
479.98	18370.86
480.16	18904.51
480.34	18335.76
480.52	18647.05
480.70	18398.95
480.88	18588.53
481.06	18820.25
481.24	19040.26
481.41	19164.31
481.59	19431.13
481.77	19929.66
481.95	19800.93
482.13	19775.19
482.31	19983.49
482.49	20402.45
482.67	20547.56
482.85	20582.67
483.03	20767.57
483.21	20863.54
483.39	20989.92
483.57	21287.17
483.74	21193.55
483.92	21247.38
484.10	21216.96
484.28	21837.20
484.46	21788.05
484.64	22228.07
484.82	22319.35
485.00	22588.51
485.18	22679.79
485.35	22836.61
485.53	22852.99
485.71	23262.58
485.89	23627.71
486.07	23173.64
486.25	23831.33
486.43	23674.52
486.61	23737.71
486.78	24271.36
486.96	24617.75
487.14	24683.29
487.32	24552.22
487.50	25076.50
487.68	24954.79
487.85	25640.57
488.03	25661.63
488.21	25827.81
488.39	26204.64
488.57	26284.22
488.75	26471.46
488.92	26382.52
489.10	26885.73
489.28	26532.31
489.46	27035.53
489.64	27325.75
489.81	27714.28
489.99	27840.67
490.17	27850.03
490.35	27962.38
490.53	28472.62
490.70	28811.99
490.88	28568.58
491.06	28793.27
491.24	28615.39
491.41	29315.21
491.59	29425.22
491.77	29146.69
491.95	29921.41
492.13	29909.71
492.30	30349.73
492.48	30129.72
492.66	30064.18
492.84	30448.03
493.01	30658.68
493.19	30602.50
493.37	31267.22
493.54	30904.43
493.72	31964.70
493.90	31744.69
494.08	31842.99
494.25	32226.84
494.43	32215.13
494.61	32479.61
494.79	32484.30
494.96	32950.06
495.14	33020.28
495.32	33544.56
495.49	33493.07
495.67	33385.40
495.85	33574.98
496.02	34405.88
496.20	34293.53
496.38	34363.75
496.55	34590.78
496.73	35086.97
496.91	34927.81
497.09	34885.68
497.26	35332.73
497.44	35129.10
497.62	35365.49
497.79	35655.72
497.97	35625.29
498.14	35962.33
498.32	36673.85
498.50	36416.40
498.67	36655.13
498.85	36818.97
499.03	37188.77
499.20	37148.98
499.38	37097.49
499.56	37361.97
499.73	37694.33
499.91	37736.46
500.08	38139.03
500.26	37963.49
500.44	38167.12
500.61	38567.35
500.79	38237.33
500.97	38579.05
501.14	39023.75
501.32	38574.37
501.49	38831.83
501.67	38590.75
501.84	39480.16
502.02	39145.46
502.20	39339.72
502.37	39489.52
502.55	39856.98
502.72	39587.82
502.90	39758.68
503.07	39435.69
503.25	40264.24
503.43	39786.77
503.60	40484.25
503.78	40215.08
503.95	40807.24
504.13	40942.99
504.30	40737.02
504.48	40739.36
504.65	41095.13
504.83	41586.64
505.01	41212.15
505.18	41062.36
505.36	41673.24
505.53	41427.48
505.71	41691.96
505.88	41970.49
506.06	41755.16
506.23	42305.18
506.41	41858.14
506.58	42300.50
506.76	42710.10
506.93	42799.04
507.11	42518.17
507.28	42880.95
507.46	43335.02
507.63	42920.74
507.81	43166.50
507.98	43550.35
508.16	43388.85
508.33	43807.81
508.50	43765.68
508.68	43885.04
508.85	44037.18
509.03	43875.68
509.20	44198.68
509.38	44837.64
509.55	44694.87
509.73	44524.01
509.90	45090.42
510.08	44959.35
510.25	44945.31
510.42	45043.61
510.60	45331.50
510.77	45446.18
510.95	45708.32
511.12	45265.96
511.30	45743.43
511.47	45511.72
511.64	46129.62
511.82	45998.55
511.99	45734.07
512.17	46344.95
512.34	46036.00
512.51	46897.31
512.69	46658.58
512.86	46829.44
513.04	46887.95
513.21	46742.84
513.38	46897.31
513.56	47269.46
513.73	47004.98
513.90	46967.53
514.08	47367.76
514.25	47243.71
514.43	47835.87
514.60	47756.29
514.77	48027.79
514.95	47751.61
515.12	47927.15
515.29	47901.40
515.47	48329.72
515.64	48484.20
515.81	48044.18
515.99	48315.68
516.16	48800.17
516.33	48727.61
516.51	48846.98
516.68	48531.01
516.85	48804.85
517.03	48734.63
517.20	48903.15
517.37	49076.35
517.54	49085.72
517.72	48982.73
517.89	49247.21
518.06	49401.69
518.24	49233.17
518.41	49574.89
518.58	49794.90
518.75	49621.70
518.93	49841.71
519.10	49979.80
519.27	50045.33
519.45	49731.70
519.62	49998.52
519.79	50120.23
519.96	50085.12
520.14	50181.09
520.31	50602.38
520.48	50459.61
520.65	50717.07
520.83	50759.20
521.00	51040.06
521.17	50649.19
521.34	50707.71
521.52	50887.93
521.69	50969.85
521.86	51440.29
522.03	51121.98
522.20	51447.32
522.38	51995.00
522.55	51480.08
522.72	51618.17
522.89	51529.23
523.07	51873.29
523.24	51995.00
523.41	52081.60
523.58	51824.14
523.75	52083.94
523.92	51950.53
524.10	52350.76
524.27	52273.52
524.44	52362.46
524.61	52467.79
524.78	52231.40
524.96	52367.15
525.13	52390.55
525.30	52549.71
525.47	53102.07
525.64	52657.37
525.81	52612.90
525.98	53048.24
526.16	52690.14
526.33	52947.60
526.50	53172.29
526.67	52956.96
526.84	53434.43
527.01	52858.66
527.18	53020.16
527.36	53268.25
527.53	53202.72
527.70	53427.41
527.87	53734.02
528.04	53212.08
528.21	53509.33
528.38	53492.94
528.55	53656.78
528.72	53776.15
528.89	53684.87
529.07	53460.18
529.24	53542.10
529.41	53689.55
529.58	53876.79
529.75	53591.25
529.92	53862.75
530.09	53909.56
530.26	54059.35
530.43	54340.22
530.60	53984.46
530.77	54136.59
530.94	54160.00
531.11	54005.52
531.28	54440.86
531.46	54251.28
531.63	54501.71
531.80	54349.58
531.97	54518.10
532.14	54780.24
532.31	54494.69
532.48	54688.96
532.65	54864.50
532.82	54585.97
532.99	54885.56
533.16	55016.63
533.33	55035.36
533.50	55253.03
533.67	55119.62
533.84	54801.30
534.01	54972.16
534.18	55004.93
534.35	55503.46
534.52	55084.51
534.69	55419.20
534.86	55281.11
535.03	55189.83
535.20	55491.76
535.37	55704.75
535.54	55655.60
535.71	55569.00
535.88	55573.68
536.05	55494.10
536.22	55700.07
536.38	55641.56
536.55	55683.69
536.72	55765.60
536.89	55650.92
537.06	55634.53
537.23	55899.01
537.40	55697.73
537.57	55877.95
537.74	56126.05
537.91	56285.20
538.08	56002.00
538.25	56055.83
538.42	55943.48
538.59	56254.78
538.75	56123.71
538.92	56074.55
539.09	56566.07
539.26	56317.97
539.43	56296.91
539.60	56217.33
539.77	56282.86
539.94	56690.12
540.11	56491.17
540.28	56142.43
540.44	56589.47
540.61	56631.60
540.78	56683.09
540.95	56816.50
541.12	56655.01
541.29	56603.52
541.46	56451.38
541.62	56741.61
541.79	56713.52
541.96	56498.19
542.13	56875.02
542.30	56884.38
542.47	57228.44
542.63	56952.26
542.80	57036.51
542.97	57169.93
543.14	57343.12
543.31	57190.99
543.48	57399.30
543.64	57478.88
543.81	57373.55
543.98	57492.92
544.15	57462.49
544.32	57661.44
544.48	57745.70
544.65	57471.85
544.82	57532.71
544.99	57361.85
545.16	57691.86
545.32	57544.41
545.49	57528.03
545.66	57879.11
545.83	57733.99
546.00	57780.81
546.16	57785.49
546.33	57836.98
546.50	57523.35
546.67	57862.72
546.83	57556.11
547.00	57939.96
547.17	57787.83
547.34	57991.45
547.50	58136.57
547.67	58398.71
547.84	57946.98
548.00	58316.79
548.17	58513.39
548.34	58300.40
548.51	58305.09
548.67	58269.98
548.84	58323.81
549.01	58262.96
549.18	58466.58
549.34	58354.24
549.51	58539.14
549.68	58468.92
549.84	58288.70
550.01	58508.71
550.18	58157.63
550.34	58681.91
550.51	58534.46
550.68	58550.84
550.84	58548.50
551.01	58571.91
551.18	58834.05
551.34	58759.15
551.51	58913.62
551.68	58698.30
551.84	58710.00
552.01	58599.99
552.18	58827.02
552.34	58527.44
552.51	58918.31
552.68	58876.18
552.84	58885.54
553.01	59061.08
553.18	58983.84
553.34	59044.69
553.51	59187.47
553.67	58906.60
553.84	59178.10
554.01	59147.68
554.17	59014.27
554.34	59217.89
554.51	58993.20
554.67	59302.15
554.84	59126.61
555.00	59234.28
555.17	59152.36
555.33	59313.86
555.50	59037.67
555.67	59229.60
555.83	58930.01
556.00	59327.90
556.16	59554.93
556.33	59187.47
556.50	59494.08
556.66	59473.01
556.83	59463.65
556.99	59433.22
557.16	59606.42
557.32	59583.02
557.49	59627.49
557.65	59447.27
557.82	59590.04
557.98	59576.00
558.15	59590.04
558.32	59664.94
558.48	59545.57
558.65	59503.44
558.81	59646.21
558.98	59812.39
559.14	59810.05
559.31	59770.26
559.47	59798.35
559.64	59889.63
559.80	59742.17
559.97	59753.88
560.13	59662.60
560.30	60032.40
560.46	60032.40
560.63	59999.63
560.79	59973.89
560.96	60165.81
561.12	59983.25
561.29	59870.90
561.45	60001.97
561.61	59962.18
561.78	59903.67
561.94	60055.81
562.11	59936.44
562.27	59898.99
562.44	60229.01
562.60	60301.56
562.77	60252.41
562.93	59866.22
563.10	60095.60
563.26	59952.82
563.42	60388.16
563.59	59889.63
563.75	59887.29
563.92	60292.20
564.08	60039.42
564.24	60308.58
564.41	60149.43
564.57	60299.22
564.74	60329.65
564.90	60479.44
565.07	60268.79
565.23	60418.59
565.39	60287.52
565.56	60456.04
565.72	60266.45
565.88	60385.82
566.05	60533.28
566.21	60207.94
566.38	60491.15
566.54	60477.10
566.70	60434.97
566.87	60573.06
567.03	60252.41
567.19	60495.83
567.36	60472.42
567.52	60465.40
567.68	60743.92
567.85	60343.69
568.01	60610.51
568.17	60486.46
568.34	60673.71
568.50	60254.75
568.66	60488.80
568.83	60573.06
568.99	60629.24
569.15	60477.10
569.32	60502.85
569.48	60647.96
569.64	60570.72
569.81	60544.98
569.97	60603.49
570.13	60552.00
570.30	60598.81
570.46	60530.93
570.62	60622.22
570.78	60673.71
570.95	60570.72
571.11	60638.60
571.27	60706.47
571.43	60547.32
571.60	60856.27
571.76	60755.63
571.92	60612.85
572.09	60727.54
572.25	60860.95
572.41	60676.05
572.57	60783.71
572.74	60804.78
572.90	60818.82
573.06	60772.01
573.22	60535.62
573.38	60734.56
573.55	60816.48
573.71	61200.33
573.87	60924.14
574.03	60849.25
574.20	60694.77
574.36	60725.20
574.52	60882.02
574.68	60764.99
574.84	61111.39
575.01	61085.64
575.17	60645.62
575.33	60877.33
575.49	61022.45
575.65	60966.27
575.82	60877.33
575.98	60912.44
576.14	61083.30
576.30	61183.94
576.46	60788.39
576.62	60846.91
576.79	60837.54
576.95	60650.30
577.11	60692.43
577.27	60973.30
577.43	61052.87
577.59	60905.42
577.75	60846.91
577.92	60797.76
578.08	60891.38
578.24	61008.40
578.40	61003.72
578.56	61066.92
578.72	60886.70
578.88	60865.63
579.04	61340.76
579.21	61059.90
579.37	61183.94
579.53	61099.68
579.69	60954.57
579.85	60996.70
580.01	61062.24
580.17	60846.91
580.33	61244.80
580.49	61069.26
580.65	61055.21
580.82	60872.65
580.98	60839.89
581.14	61020.11
581.30	61148.84
581.46	61221.39
581.62	61029.47
581.78	60975.64
581.94	61123.09
582.10	61038.83
582.26	60947.55
582.42	61020.11
582.58	61073.94
582.74	61055.21
582.90	61038.83
583.06	61167.56
583.22	60928.83
583.38	61212.03
583.54	61291.61
583.70	61233.10
583.86	61254.16
584.02	61048.19
584.18	61162.88
584.34	61249.48
584.50	61205.01
584.66	60889.04
584.82	60961.59
584.98	61284.59
585.14	61109.05
585.30	61090.32
585.46	61179.26
585.62	61083.30
585.78	61174.58
585.94	60907.76
586.10	61169.90
586.26	61151.18
586.42	61237.78
586.58	61289.27
586.74	61212.03
586.90	61090.32
587.06	61263.52
587.22	61350.12
587.38	61237.78
587.54	61389.91
587.70	61471.83
587.86	61193.31
588.02	61188.63
588.18	61235.44
588.34	61277.57
588.49	61272.88
