SpectraSuite Data File
++++++++++++++++++++++++++++++++++++
Date: Fri Oct 25 10:48:20 EDT 2013
User: price-jones
Dark Spectrum Present: No
Reference Spectrum Present: No
Number of Sampled Component Spectra: 1
Spectrometers: USB2+H05261
Integration Time (usec): 100000 (USB2+H05261)
Spectra Averaged: 1 (USB2+H05261)
Boxcar Smoothing: 0 (USB2+H05261)
Correct for Electrical Dark: No (USB2+H05261)
Strobe/Lamp Enabled: No (USB2+H05261)
Correct for Detector Non-linearity: No (USB2+H05261)
Correct for Stray Light: No (USB2+H05261)
Number of Pixels in Processed Spectrum: 2048
>>>>>Begin Processed Spectral Data<<<<<
365.73	128.73
365.92	128.73
366.12	128.73
366.32	32.77
366.52	53.83
366.72	67.88
366.91	72.56
367.11	60.85
367.31	39.79
367.51	79.58
367.70	63.19
367.90	126.39
368.10	42.13
368.30	32.77
368.49	74.90
368.69	84.26
368.89	67.88
369.09	65.54
369.28	49.15
369.48	67.88
369.68	65.54
369.87	110.01
370.07	58.51
370.27	159.16
370.47	250.44
370.66	482.15
370.86	451.72
371.06	557.05
371.25	531.30
371.45	407.25
371.65	484.49
371.84	416.62
372.04	470.45
372.24	521.94
372.44	505.56
372.63	496.19
372.83	568.75
373.03	561.73
373.22	667.05
373.42	601.52
373.62	540.66
373.81	662.37
374.01	613.22
374.21	547.69
374.40	505.56
374.60	589.82
374.79	585.13
374.99	608.54
375.19	681.10
375.38	571.09
375.58	645.99
375.78	664.71
375.97	730.25
376.17	718.54
376.37	580.45
376.56	676.41
376.76	664.71
376.95	683.44
377.15	692.80
377.35	688.12
377.54	725.57
377.74	716.20
377.93	634.29
378.13	718.54
378.33	727.91
378.52	648.33
378.72	685.78
378.91	662.37
379.11	624.92
379.31	685.78
379.50	704.50
379.70	772.38
379.89	718.54
380.09	767.70
380.28	751.31
380.48	784.08
380.68	812.17
380.87	737.27
381.07	688.12
381.26	777.06
381.46	795.78
381.65	821.53
381.85	795.78
382.04	706.84
382.24	786.42
382.43	798.12
382.63	702.16
382.83	755.99
383.02	828.55
383.22	816.85
383.41	741.95
383.61	814.51
383.80	851.96
384.00	807.48
384.19	847.27
384.39	828.55
384.58	875.36
384.78	877.70
384.97	821.53
385.17	910.47
385.36	814.51
385.56	866.00
385.75	856.64
385.95	837.91
386.14	889.40
386.34	875.36
386.53	950.26
386.72	933.87
386.92	910.47
387.11	950.26
387.31	943.24
387.50	866.00
387.70	847.27
387.89	926.85
388.09	922.17
388.28	971.32
388.48	983.02
388.67	959.62
388.86	966.64
389.06	985.37
389.25	959.62
389.45	1039.20
389.64	1034.52
389.84	1064.94
390.03	1046.22
390.22	1032.18
390.42	1001.75
390.61	1057.92
390.81	1116.44
391.00	1081.33
391.19	1156.22
391.39	1179.63
391.58	1125.80
391.78	1212.40
391.97	1198.35
392.16	1078.99
392.36	1121.12
392.55	1062.60
392.75	1090.69
392.94	1043.88
393.13	1001.75
393.33	1013.45
393.52	1128.14
393.71	1139.84
393.91	1116.44
394.10	1130.48
394.29	1242.82
394.49	1188.99
394.68	1289.64
394.88	1287.29
395.07	1317.72
395.26	1296.66
395.46	1310.70
395.65	1254.53
395.84	1371.55
396.04	1376.24
396.23	1198.35
396.42	1081.33
396.62	1336.45
396.81	1282.61
397.00	1315.38
397.19	1439.43
397.39	1390.28
397.58	1453.47
397.77	1462.83
397.97	1612.63
398.16	1511.99
398.35	1591.56
398.55	1542.41
398.74	1547.09
398.93	1640.72
399.12	1643.06
399.32	1633.69
399.51	1561.14
399.70	1732.00
399.90	1600.93
400.09	1551.78
400.28	1771.79
400.47	1680.50
400.67	1797.53
400.86	1785.83
401.05	1701.57
401.24	1846.68
401.44	1762.42
401.63	1682.85
401.82	1879.45
402.01	1764.76
402.21	1825.62
402.40	1774.13
402.59	1891.15
402.78	1949.67
402.97	1809.23
403.17	1944.99
403.36	1888.81
403.55	2045.63
403.74	1973.07
403.93	1928.60
404.13	1870.09
404.32	1921.58
404.51	2022.22
404.70	2036.27
404.89	2122.87
405.09	2204.78
405.28	2047.97
405.47	2106.48
405.66	2085.42
405.85	2066.69
406.05	2118.18
406.24	2108.82
406.43	2132.23
406.62	2263.30
406.81	2312.45
407.00	2277.34
407.20	2139.25
407.39	2218.83
407.58	2258.62
407.77	2286.70
407.96	2389.69
408.15	2303.09
408.34	2373.30
408.54	2324.15
408.73	2335.85
408.92	2375.64
409.11	2389.69
409.30	2457.56
409.49	2434.16
409.68	2389.69
409.87	2424.80
410.07	2436.50
410.26	2448.20
410.45	2410.75
410.64	2457.56
410.83	2616.72
411.02	2668.21
411.21	2661.19
411.40	2717.36
411.59	2661.19
411.78	2754.81
411.98	2843.75
412.17	2832.05
412.36	2864.82
412.55	2892.90
412.74	2829.71
412.93	2850.77
413.12	2890.56
413.31	3026.31
413.50	2974.82
413.69	2944.39
413.88	3028.65
414.07	3038.02
414.26	3007.59
414.45	3183.13
414.64	3073.12
414.83	3206.53
415.02	3187.81
415.22	3215.90
415.41	3269.73
415.60	3300.16
415.79	3428.88
415.98	3375.05
416.17	3414.84
416.36	3431.23
416.55	3382.07
416.74	3463.99
416.93	3489.74
417.12	3548.25
417.31	3459.31
417.50	3510.80
417.69	3796.35
417.88	3679.32
418.07	3585.70
418.26	3737.84
418.45	3581.02
418.64	3723.79
418.83	3653.58
419.02	3742.52
419.21	3768.26
419.39	3749.54
419.58	3716.77
419.77	3737.84
419.96	3770.60
420.15	3892.31
420.34	3894.65
420.53	4035.08
420.72	3885.29
420.91	3936.78
421.10	3934.44
421.29	4025.72
421.48	3964.87
421.67	4014.02
421.86	4011.68
422.05	4032.74
422.24	3918.06
422.43	3936.78
422.61	4060.83
422.80	4018.70
422.99	4156.79
423.18	4095.94
423.37	4135.73
423.56	4152.11
423.75	4030.40
423.94	4187.22
424.13	3859.54
424.32	4023.38
424.50	4231.69
424.69	4016.36
424.88	4264.46
425.07	4222.33
425.26	4117.00
425.45	4311.27
425.64	4147.43
425.83	4124.02
426.01	4320.63
426.20	4236.37
426.39	4058.49
426.58	4161.47
426.77	4098.28
426.96	3941.46
427.15	4131.05
427.33	4276.16
427.52	4285.52
427.71	4372.12
427.90	4222.33
428.09	4362.76
428.28	4259.78
428.46	4313.61
428.65	4280.84
428.84	4353.40
429.03	4477.44
429.22	4189.56
429.40	4322.97
429.59	4280.84
429.78	4133.39
429.97	4074.87
430.16	4212.96
430.34	4442.34
430.53	4175.52
430.72	4241.05
430.91	4435.32
431.10	4557.02
431.28	4657.67
431.47	4823.84
431.66	4809.80
431.85	4851.93
432.03	4751.29
432.22	4887.04
432.41	4718.52
432.60	4851.93
432.79	4861.29
432.97	4933.85
433.16	4905.76
433.35	4903.42
433.54	4800.44
433.72	4844.91
433.91	4931.51
434.10	5071.94
434.28	4952.57
434.47	5130.45
434.66	5207.69
434.85	5081.30
435.03	5109.39
435.22	5111.73
435.41	5221.74
435.59	5329.40
435.78	5371.53
435.97	5420.68
436.16	5275.57
436.34	5238.12
436.53	5399.62
436.72	5434.72
436.90	5268.55
437.09	5516.64
437.28	5394.93
437.46	5472.17
437.65	5378.55
437.84	5373.87
438.02	5357.49
438.21	5416.00
438.40	5345.78
438.58	5509.62
438.77	5689.84
438.96	5596.22
439.14	5846.66
439.33	5863.04
439.52	5914.53
439.70	5865.38
439.89	5961.34
440.08	5694.52
440.26	5921.56
440.45	5867.72
440.63	6050.28
440.82	6356.90
441.01	6146.25
441.19	6195.40
441.38	6333.49
441.57	6375.62
441.75	6473.92
441.94	6473.92
442.12	6614.35
442.31	6644.78
442.50	6511.37
442.68	6539.46
442.87	6630.74
443.05	6623.72
443.24	6832.02
443.43	6757.13
443.61	6815.64
443.80	7026.29
443.98	6712.66
444.17	6595.63
444.35	6937.35
444.54	6953.73
444.73	6705.63
444.91	6836.70
445.10	6752.45
445.28	6700.95
445.47	6827.34
445.65	6717.34
445.84	6916.28
446.02	6827.34
446.21	6724.36
446.39	6806.28
446.58	6972.46
446.77	7007.56
446.95	6843.73
447.14	7129.27
447.32	6986.50
447.51	6876.49
447.69	6885.86
447.88	7007.56
448.06	7012.24
448.25	7077.78
448.43	7136.29
448.62	7084.80
448.80	7124.59
448.99	7159.70
449.17	7206.51
449.36	7129.27
449.54	7204.17
449.73	7534.18
449.91	7492.05
450.10	7435.88
450.28	7592.70
450.46	7384.39
450.65	7609.08
450.83	7545.89
451.02	7583.34
451.20	7559.93
451.39	7756.54
451.57	7665.25
451.76	7442.90
451.94	7662.91
452.13	7639.51
452.31	7590.36
452.49	7328.22
452.68	7396.09
452.86	7492.05
453.05	7456.95
453.23	7609.08
453.42	7538.87
453.60	7740.15
453.78	7798.66
453.97	7770.58
454.15	7683.98
454.34	7735.47
454.52	7995.27
454.70	7812.71
454.89	7967.18
455.07	8030.38
455.26	8056.12
455.44	7978.89
455.62	7962.50
455.81	8332.31
455.99	8287.84
456.17	8058.46
456.36	8320.60
456.54	8306.56
456.73	8360.39
456.91	8517.21
457.09	8336.99
457.28	8549.98
457.46	8355.71
457.64	8524.23
457.83	8512.53
458.01	8383.80
458.19	8552.32
458.38	8451.67
458.56	8659.98
458.74	8678.71
458.93	8493.80
459.11	8559.34
459.29	8655.30
459.48	8514.87
459.66	8608.49
459.84	8767.65
460.03	8926.80
460.21	8681.05
460.39	8910.42
460.57	8748.92
460.76	8957.23
460.94	9025.11
461.12	9046.17
461.31	8943.19
461.49	9025.11
461.67	9170.22
461.85	9282.56
462.04	9144.47
462.22	9783.44
462.40	9387.89
462.59	9221.71
462.77	9317.67
462.95	9472.15
463.13	9404.27
463.32	9327.03
463.50	9177.24
463.68	9408.95
463.86	9572.79
464.05	9137.45
464.23	9249.80
464.41	9472.15
464.59	9261.50
464.78	9502.58
464.96	9542.36
465.14	9455.76
465.32	9472.15
465.50	9448.74
465.69	9591.52
465.87	9570.45
466.05	9563.43
466.23	9518.96
466.41	9809.19
466.60	9886.42
466.78	9654.71
466.96	9778.76
467.14	9720.24
467.32	9998.77
467.51	9872.38
467.69	9666.41
467.87	9947.28
468.05	9834.93
468.23	9633.64
468.41	9856.00
468.60	9989.41
468.78	10047.92
468.96	10010.47
469.14	9905.15
469.32	10094.73
469.50	9926.21
469.69	10073.67
469.87	10108.77
470.05	10106.43
470.23	10401.34
470.41	10237.50
470.59	10420.06
470.77	10408.36
470.95	10331.12
471.14	10705.61
471.32	10455.17
471.50	10459.85
471.68	10724.33
471.86	10672.84
472.04	10855.40
472.22	10934.98
472.40	10778.17
472.58	10789.87
472.77	10729.02
472.95	10747.74
473.13	11428.84
473.31	10726.68
473.49	11021.58
473.67	11007.54
473.85	11323.51
474.03	11489.69
474.21	11611.40
474.39	11302.45
474.57	11735.45
474.75	11325.85
474.93	11522.46
475.12	11604.38
475.30	11695.66
475.48	11833.75
475.66	11833.75
475.84	11676.93
476.02	11929.71
476.20	12105.25
476.38	12231.64
476.56	12533.57
476.74	12416.54
476.92	12210.57
477.10	12138.02
477.28	12613.15
477.46	12610.81
477.64	12657.62
477.82	12774.64
478.00	13092.96
478.18	13069.55
478.36	13011.04
478.54	13004.02
478.72	13376.16
478.90	13584.47
479.08	13701.50
479.26	13832.57
479.44	13783.41
479.62	13813.84
479.80	14031.51
479.98	14017.47
480.16	14174.28
480.34	14113.43
480.52	14338.12
480.70	14464.51
480.88	14237.48
481.06	14508.98
481.24	14434.08
481.41	14689.20
481.59	14941.98
481.77	15227.53
481.95	15173.69
482.13	15279.02
482.31	15143.27
482.49	15681.59
482.67	15426.47
482.85	15417.11
483.03	15779.89
483.21	16152.04
483.39	16049.05
483.57	16112.25
483.74	16313.53
483.92	16374.39
484.10	16116.93
484.28	16418.86
484.46	17095.27
484.64	17121.02
484.82	16638.87
485.00	16835.47
485.18	16903.35
485.35	16978.25
485.53	16798.02
485.71	16765.26
485.89	17097.61
486.07	17111.66
486.25	17146.76
486.43	17654.66
486.61	17774.03
486.78	17902.76
486.96	18052.55
487.14	18382.57
487.32	18651.73
487.50	18719.60
487.68	19115.16
487.85	19058.98
488.03	19351.55
488.21	19583.26
488.39	19243.88
488.57	19140.90
488.75	19283.67
488.92	19817.32
489.10	20049.03
489.28	19946.05
489.46	20350.96
489.64	20259.68
489.81	21219.30
489.99	20999.29
490.17	20947.79
490.35	21369.09
490.53	20762.89
490.70	21298.88
490.88	21268.45
491.06	21921.46
491.24	21607.83
491.41	21722.51
491.59	21699.11
491.77	21179.51
491.95	21928.48
492.13	22190.62
492.30	22616.60
492.48	22948.95
492.66	22485.53
492.84	22497.23
493.01	23000.44
493.19	22991.08
493.37	23171.30
493.54	23365.57
493.72	23440.47
493.90	23328.12
494.08	23721.33
494.25	24081.77
494.43	24592.01
494.61	24236.25
494.79	24311.14
494.96	24297.10
495.14	24269.01
495.32	24355.61
495.49	24367.32
495.67	24929.05
495.85	25017.99
496.02	25230.98
496.20	25652.27
496.38	25362.04
496.55	25603.12
496.73	26106.34
496.91	25631.21
497.09	25886.32
497.26	26143.78
497.44	26064.21
497.62	26022.08
497.79	26712.53
497.97	25912.07
498.14	26178.89
498.32	26754.66
498.50	26780.41
498.67	27330.44
498.85	26843.60
499.03	27255.54
499.20	27222.77
499.38	27323.41
499.56	27358.52
499.73	27522.36
499.91	27625.34
500.08	27510.66
500.26	27510.66
500.44	27697.90
500.61	27564.49
500.79	27683.86
500.97	27487.25
501.14	28156.64
501.32	28187.07
501.49	28437.51
501.67	28781.57
501.84	28531.13
502.02	28170.69
502.20	28865.83
502.37	28786.25
502.55	28851.78
502.72	29315.21
502.90	28865.83
503.07	29216.91
503.25	29081.16
503.43	29184.14
503.60	29516.50
503.78	29130.31
503.95	29149.03
504.13	29495.43
504.30	29638.20
504.48	29553.94
504.65	29872.26
504.83	29858.21
505.01	30101.63
505.18	30328.66
505.36	30705.49
505.53	30448.03
505.71	30719.53
505.88	30756.98
506.06	30082.91
506.23	30881.03
506.41	30890.39
506.58	30773.36
506.76	31096.36
506.93	31484.89
507.11	31487.23
507.28	31115.08
507.46	30785.07
507.63	31094.02
507.81	31187.64
507.98	31264.88
508.16	31578.51
508.33	31901.50
508.50	31709.58
508.68	31817.24
508.85	32290.03
509.03	32360.25
509.20	32074.70
509.38	31960.02
509.55	32418.76
509.73	32540.47
509.90	32554.51
510.08	32496.00
510.25	32402.38
510.42	32737.07
510.60	32856.44
510.77	33050.70
510.95	33532.86
511.12	33078.79
511.30	33429.87
511.47	33261.35
511.64	33661.58
511.82	33720.10
511.99	33530.51
512.17	33296.46
512.34	33369.02
512.51	33598.39
512.69	33879.25
512.86	34005.64
513.04	34286.51
513.21	34050.11
513.38	34059.48
513.56	33940.11
513.73	33717.76
513.90	34501.84
514.08	34389.49
514.25	34340.34
514.43	34356.72
514.60	34616.52
514.77	34838.87
514.95	34925.47
515.12	34728.87
515.29	34906.75
515.47	35157.19
515.64	35274.21
515.81	34646.95
515.99	34866.96
516.16	35014.41
516.33	34433.96
516.51	34869.30
516.68	34321.62
516.85	34478.43
517.03	35370.18
517.20	35070.59
517.37	35498.91
517.54	35653.38
517.72	35473.16
517.89	35042.50
518.06	35400.60
518.24	35700.19
518.41	35508.27
518.58	35585.50
518.75	35515.29
518.93	36233.83
519.10	35971.69
519.27	36282.98
519.45	36573.21
519.62	36325.11
519.79	36741.73
519.96	36823.65
520.14	36833.01
520.31	36818.97
520.48	36807.26
520.65	37031.96
520.83	37088.13
521.00	37280.05
521.17	36933.65
521.34	37156.00
521.52	37493.04
521.69	37928.38
521.86	37603.05
522.03	37509.43
522.20	37436.87
522.38	37577.30
522.55	37661.56
522.72	37535.17
522.89	37483.68
523.07	37354.95
523.24	37823.06
523.41	38160.09
523.58	38092.22
523.75	38508.83
523.92	38426.92
524.10	38354.36
524.27	38763.95
524.44	38455.00
524.61	38469.04
524.78	38569.69
524.96	38916.09
525.13	39023.75
525.30	39005.03
525.47	39253.12
525.64	39000.35
525.81	38782.68
525.98	39028.43
526.16	39035.45
526.33	38267.76
526.50	39276.53
526.67	38888.00
526.84	38761.61
527.01	38450.32
527.18	38871.62
527.36	39477.82
527.53	39578.46
527.70	39969.33
527.87	40179.98
528.04	39370.15
528.21	40069.97
528.38	39791.45
528.55	40252.53
528.72	39957.63
528.89	40222.11
529.07	40304.02
529.24	39854.64
529.41	40041.88
529.58	39742.30
529.75	39779.74
529.92	40479.57
530.09	40460.84
530.26	40453.82
530.43	40961.72
530.60	40357.86
530.77	40952.35
530.94	40739.36
531.11	40280.62
531.28	41029.59
531.46	41151.30
531.63	40786.18
531.80	40999.16
531.97	40907.88
532.14	40444.46
532.31	40538.08
532.48	40566.16
532.65	41057.68
532.82	40938.31
532.99	41230.88
533.16	41319.82
533.33	41060.02
533.50	41235.56
533.67	41532.81
533.84	40942.99
534.01	41464.93
534.18	41354.93
534.35	42078.15
534.52	41275.35
534.69	41764.52
534.86	41956.44
535.03	41361.95
535.20	41968.15
535.37	42199.86
535.54	42136.66
535.71	41598.34
535.88	41918.99
536.05	42021.98
536.22	42195.18
536.38	42059.43
536.55	41551.53
536.72	41947.08
536.89	41942.40
537.06	42124.96
537.23	42656.26
537.40	42181.13
537.57	42658.60
537.74	42363.70
537.91	43107.99
538.08	43196.93
538.25	42696.05
538.42	42146.03
538.59	43072.88
538.75	42012.62
538.92	42628.18
539.09	42555.62
539.26	42684.35
539.43	42401.14
539.60	42784.99
539.77	42586.05
539.94	42834.14
540.11	42525.19
540.28	43096.28
540.44	43119.69
540.61	42955.85
540.78	42742.86
540.95	43243.74
541.12	42869.25
541.29	43161.82
541.46	42953.51
541.62	43124.37
541.79	43363.11
541.96	43143.09
542.13	43297.57
542.30	43613.54
542.47	43552.69
542.63	43381.83
542.80	43393.53
542.97	43871.00
543.14	43908.45
543.31	43821.85
543.48	44091.01
543.64	44563.80
543.81	44421.03
543.98	44128.46
544.15	44516.99
544.32	44273.57
544.48	44739.34
544.65	44177.61
544.82	44418.69
544.99	44034.84
545.16	44608.27
545.32	44371.88
545.49	44900.84
545.66	44732.32
545.83	44505.29
546.00	45104.46
546.16	44669.12
546.33	44720.62
546.50	44509.97
546.67	44446.77
546.83	44271.23
547.00	44673.81
547.17	44343.79
547.34	44582.52
547.50	44294.64
547.67	45123.19
547.84	44725.30
548.00	45268.30
548.17	44818.92
548.34	45151.27
548.51	45352.56
548.67	45146.59
548.84	45237.87
549.01	45591.30
549.18	45481.29
549.34	45186.38
549.51	45441.50
549.68	45277.66
549.84	45312.77
550.01	45485.97
550.18	45336.18
550.34	45125.53
550.51	45619.38
550.68	45191.06
550.84	45123.19
551.01	45422.78
551.18	45476.61
551.34	45504.70
551.51	45090.42
551.68	45954.08
551.84	45696.62
552.01	45406.39
552.18	45595.98
552.34	45010.84
552.51	45457.88
552.68	45886.20
552.84	45766.84
553.01	46021.95
553.18	45698.96
553.34	45605.34
553.51	45476.61
553.67	45951.74
553.84	46504.10
554.01	45823.01
554.17	46010.25
554.34	46176.43
554.51	46080.47
554.67	45818.33
554.84	46234.94
555.00	46174.09
555.17	46096.85
555.33	45965.78
555.50	46288.77
555.67	45940.04
555.83	46382.40
556.00	46396.44
556.16	46614.11
556.33	46417.50
556.50	46410.48
556.66	46904.34
556.83	46026.63
556.99	46117.92
557.16	46410.48
557.32	46396.44
557.49	46869.23
557.65	46370.69
557.82	46206.86
557.98	46279.41
558.15	46457.29
558.32	46571.98
558.48	46162.39
558.65	46543.89
558.81	46211.54
558.98	46344.95
559.14	46358.99
559.31	46248.99
559.47	46689.01
559.64	46932.42
559.80	46799.01
559.97	46831.78
560.13	46583.68
560.30	46487.72
560.46	46869.23
560.63	46885.61
560.79	46946.47
560.96	46827.10
561.12	46422.19
561.29	47173.50
561.45	46747.52
561.61	47051.79
561.78	47000.30
561.94	46665.60
562.11	46937.10
562.27	46712.41
562.44	46855.18
562.60	47096.26
562.77	47100.94
562.93	47012.00
563.10	47222.65
563.26	46770.93
563.42	47224.99
563.59	46754.54
563.75	46836.46
563.92	46979.23
564.08	46719.43
564.24	46997.96
564.41	46745.18
564.57	46820.08
564.74	47131.37
564.90	47292.86
565.07	47021.36
565.23	47019.02
565.39	47105.62
565.56	47351.38
565.72	46913.70
565.88	47175.84
566.05	47019.02
566.21	47119.66
566.38	46920.72
566.54	47283.50
566.70	47260.10
566.87	47854.59
567.03	47271.80
567.19	47255.42
567.36	47051.79
567.52	47164.14
567.68	47533.94
567.85	47194.56
568.01	47274.14
568.17	47154.77
568.34	47473.09
568.50	47395.85
568.66	47178.18
568.83	47496.49
568.99	47089.24
569.15	47276.48
569.32	46951.15
569.48	47496.49
569.64	47955.24
569.81	47077.54
569.97	47206.26
570.13	47313.93
570.30	47075.19
570.46	46733.48
570.62	46593.04
570.78	47049.45
570.95	47114.98
571.11	47173.50
571.27	46906.68
571.43	47189.88
571.60	47327.97
571.76	47131.37
571.92	47381.80
572.09	47346.70
572.25	47339.68
572.41	46909.02
572.57	47594.79
572.74	47835.87
572.90	47239.03
573.06	47487.13
573.22	47388.83
573.38	47217.97
573.55	47304.57
573.71	47342.02
573.87	47168.82
574.03	47107.96
574.20	47812.46
574.36	46799.01
574.52	47578.41
574.68	47042.43
574.84	47533.94
575.01	47215.63
575.17	47494.15
575.33	47082.22
575.49	47414.57
575.65	47632.24
575.82	47887.36
575.98	47618.20
576.14	47290.52
576.30	47281.16
576.46	47599.47
576.62	47538.62
576.79	47564.37
576.95	46993.28
577.11	47327.97
577.27	47126.69
577.43	47732.89
577.59	47599.47
577.75	47281.16
577.92	46611.77
578.08	47416.91
578.24	46972.21
578.40	47171.16
578.56	47068.17
578.72	46923.06
578.88	47611.18
579.04	47555.00
579.21	47086.90
579.37	47229.67
579.53	47370.10
579.69	47028.38
579.85	46916.04
580.01	47351.38
580.17	47828.85
580.33	47714.16
580.49	47618.20
580.65	47807.78
580.82	47636.92
580.98	47760.97
581.14	47302.23
581.30	47629.90
581.46	47435.64
581.62	47695.44
581.78	47306.91
581.94	47800.76
582.10	47501.17
582.26	47845.23
582.42	47632.24
582.58	47571.39
582.74	47131.37
582.90	47838.21
583.06	47409.89
583.22	47695.44
583.38	47466.06
583.54	47604.16
583.70	47892.04
583.86	47812.46
584.02	47461.38
584.18	47540.96
584.34	47583.09
584.50	47604.16
584.66	47276.48
584.82	47377.12
584.98	47531.60
585.14	47615.86
585.30	47306.91
585.46	47686.07
585.62	47096.26
585.78	47367.76
585.94	47028.38
586.10	47091.58
586.26	47393.51
586.42	47957.58
586.58	47494.15
586.74	47522.24
586.90	47508.19
587.06	47306.91
587.22	47824.17
587.38	47269.46
587.54	47721.18
587.70	47955.24
587.86	47435.64
588.02	47543.30
588.18	48058.22
588.34	47325.63
588.49	46876.25
588.65	46918.38
588.81	47124.35
588.97	47168.82
589.13	47065.83
589.29	47332.65
589.45	47089.24
589.61	47232.01
589.77	47601.82
