SpectraSuite Data File
++++++++++++++++++++++++++++++++++++
Date: Fri Oct 25 11:26:32 EDT 2013
User: price-jones
Dark Spectrum Present: No
Reference Spectrum Present: No
Number of Sampled Component Spectra: 1
Spectrometers: USB2+H05261
Integration Time (usec): 100000 (USB2+H05261)
Spectra Averaged: 1 (USB2+H05261)
Boxcar Smoothing: 0 (USB2+H05261)
Correct for Electrical Dark: No (USB2+H05261)
Strobe/Lamp Enabled: No (USB2+H05261)
Correct for Detector Non-linearity: No (USB2+H05261)
Correct for Stray Light: No (USB2+H05261)
Number of Pixels in Processed Spectrum: 2048
>>>>>Begin Processed Spectral Data<<<<<
365.73	189.58
365.92	189.58
366.12	189.58
366.32	191.92
366.52	168.52
366.72	159.16
366.91	180.22
367.11	138.09
367.31	77.24
367.51	128.73
367.70	79.58
367.90	126.39
368.10	110.01
368.30	145.11
368.49	133.41
368.69	238.73
368.89	173.20
369.09	168.52
369.28	273.84
369.48	194.26
369.68	217.67
369.87	210.65
370.07	175.54
370.27	224.69
370.47	365.12
370.66	606.20
370.86	713.86
371.06	655.35
371.25	641.31
371.45	685.78
371.65	664.71
371.84	681.10
372.04	671.73
372.24	758.33
372.44	697.48
372.63	716.20
372.83	770.04
373.03	732.59
373.22	734.93
373.42	833.23
373.62	781.74
373.81	814.51
374.01	809.83
374.21	814.51
374.40	805.14
374.60	828.55
374.79	802.80
374.99	851.96
375.19	922.17
375.38	833.23
375.58	844.93
375.78	898.77
375.97	844.93
376.17	889.40
376.37	858.98
376.56	912.81
376.76	898.77
376.95	866.00
377.15	861.32
377.35	954.94
377.54	978.34
377.74	861.32
377.93	924.51
378.13	891.74
378.33	901.11
378.52	931.53
378.72	959.62
378.91	957.28
379.11	931.53
379.31	933.87
379.50	915.15
379.70	990.05
379.89	929.19
380.09	980.68
380.28	1018.13
380.48	964.30
380.68	999.41
380.87	1013.45
381.07	947.92
381.26	973.66
381.46	1083.67
381.65	1029.84
381.85	1088.35
382.04	1020.47
382.24	1020.47
382.43	1032.18
382.63	1125.80
382.83	1139.84
383.02	1097.71
383.22	1165.59
383.41	1137.50
383.61	1203.04
383.80	1067.28
384.00	1167.93
384.19	1137.50
384.39	1163.25
384.58	1118.78
384.78	1214.74
384.97	1125.80
385.17	1083.67
385.36	1177.29
385.56	1242.82
385.75	1238.14
385.95	1181.97
386.14	1238.14
386.34	1179.63
386.53	1188.99
386.72	1160.91
386.92	1294.32
387.11	1343.47
387.31	1259.21
387.50	1256.87
387.70	1329.42
387.89	1357.51
388.09	1273.25
388.28	1301.34
388.48	1263.89
388.67	1352.83
388.86	1355.17
389.06	1341.13
389.25	1310.70
389.45	1315.38
389.64	1341.13
389.84	1413.68
390.03	1359.85
390.22	1441.77
390.42	1409.00
390.61	1385.60
390.81	1423.05
391.00	1476.88
391.19	1502.62
391.39	1467.52
391.58	1526.03
391.78	1451.13
391.97	1460.49
392.16	1490.92
392.36	1540.07
392.55	1596.25
392.75	1586.88
392.94	1479.22
393.13	1654.76
393.33	1551.78
393.52	1668.80
393.71	1558.80
393.91	1544.75
394.10	1593.90
394.29	1607.95
394.49	1631.35
394.68	1682.85
394.88	1668.80
395.07	1736.68
395.26	1675.82
395.46	1715.61
395.65	1657.10
395.84	1823.28
396.04	1764.76
396.23	1856.04
396.42	1776.47
396.62	1746.04
396.81	1804.55
397.00	1792.85
397.19	1839.66
397.39	1849.02
397.58	1825.62
397.77	1888.81
397.97	1914.56
398.16	1928.60
398.35	1956.69
398.55	1919.24
398.74	1914.56
398.93	1968.39
399.12	1998.82
399.32	1991.80
399.51	1874.77
399.70	1909.88
399.90	1898.17
400.09	2054.99
400.28	2143.93
400.47	1987.11
400.67	2214.15
400.86	2033.93
401.05	2139.25
401.24	2094.78
401.44	2230.53
401.63	2071.37
401.82	2146.27
402.01	2071.37
402.21	2148.61
402.40	2230.53
402.59	2101.80
402.78	2246.91
402.97	2216.49
403.17	2312.45
403.36	2312.45
403.55	2387.35
403.74	2473.95
403.93	2279.68
404.13	2375.64
404.32	2342.88
404.51	2370.96
404.70	2427.14
404.89	2417.77
405.09	2464.58
405.28	2483.31
405.47	2511.39
405.66	2417.77
405.85	2471.61
406.05	2380.32
406.24	2649.49
406.43	2668.21
406.62	2738.43
406.81	2572.25
407.00	2616.72
407.20	2602.68
407.39	2572.25
407.58	2677.57
407.77	2644.81
407.96	2822.69
408.15	2771.19
408.34	2712.68
408.54	2759.49
408.73	2810.98
408.92	2874.18
409.11	2864.82
409.30	2888.22
409.49	2904.60
409.68	2977.16
409.87	2981.84
410.07	2899.92
410.26	3075.46
410.45	2944.39
410.64	3178.45
410.83	3056.74
411.02	3145.68
411.21	3150.36
411.40	3246.32
411.59	3330.58
411.78	3253.34
411.98	3218.24
412.17	3356.33
412.36	3332.92
412.55	3447.61
412.74	3468.67
412.93	3445.27
413.12	3454.63
413.31	3693.37
413.50	3503.78
413.69	3410.16
413.88	3655.92
414.07	3630.17
414.26	3527.19
414.45	3733.15
414.64	3648.90
414.83	3702.73
415.02	3674.64
415.22	3868.91
415.41	3875.93
415.60	3770.60
415.79	3854.86
415.98	3880.61
416.17	3929.76
416.36	3992.95
416.55	3960.19
416.74	4119.34
416.93	4053.81
417.12	4203.60
417.31	4117.00
417.50	4042.11
417.69	4334.67
417.88	4365.10
418.07	4243.39
418.26	4194.24
418.45	4440.00
418.64	4692.77
418.83	4369.78
419.02	4395.53
419.21	4411.91
419.39	4503.19
419.58	4484.47
419.77	4367.44
419.96	4571.07
420.15	4643.62
420.34	4589.79
420.53	4723.20
420.72	4772.35
420.91	4671.71
421.10	4732.56
421.29	4755.97
421.48	4648.30
421.67	4800.44
421.86	4660.01
422.05	4835.55
422.24	4999.38
422.43	4936.19
422.61	4926.83
422.80	4919.81
422.99	4940.87
423.18	5004.07
423.37	5020.45
423.56	4964.28
423.75	4936.19
423.94	4882.36
424.13	4676.39
424.32	4704.48
424.50	4973.64
424.69	5277.91
424.88	5132.79
425.07	4938.53
425.26	5018.11
425.45	4943.21
425.64	4994.70
425.83	4987.68
426.01	4973.64
426.20	5097.69
426.39	5181.95
426.58	5074.28
426.77	5034.49
426.96	5123.43
427.15	5167.90
427.33	5259.18
427.52	5130.45
427.71	5181.95
427.90	5242.80
428.09	5254.50
428.28	5366.85
428.46	5350.46
428.65	5366.85
428.84	5376.21
429.03	5481.53
429.22	5397.28
429.40	5533.03
429.59	5570.48
429.78	5401.96
429.97	5394.93
430.16	5481.53
430.34	5720.27
430.53	5603.24
430.72	5598.56
430.91	5792.83
431.10	5469.83
431.28	5781.12
431.47	5884.11
431.66	6005.81
431.85	5715.59
432.03	5804.53
432.22	5959.00
432.41	5912.19
432.60	5968.37
432.79	5715.59
432.97	6099.44
433.16	6040.92
433.35	5956.66
433.54	6136.88
433.72	6319.45
433.91	6223.48
434.10	6059.65
434.28	6038.58
434.47	6216.46
434.66	6251.57
434.85	6333.49
435.03	6490.31
435.22	6370.94
435.41	6626.06
435.59	6480.94
435.78	6612.01
435.97	6621.38
436.16	6373.28
436.34	6375.62
436.53	6441.15
436.72	6768.83
436.90	6434.13
437.09	6415.41
437.28	6647.12
437.46	6658.82
437.65	6626.06
437.84	6853.09
438.02	6593.29
438.21	6836.70
438.40	6733.72
438.58	7101.19
438.77	7016.93
438.96	7012.24
439.14	7122.25
439.33	7206.51
439.52	7281.41
439.70	7363.33
439.89	7279.07
440.08	7407.80
440.26	7414.82
440.45	7290.77
440.63	7466.31
440.82	7779.94
441.01	7599.72
441.19	7599.72
441.38	7803.35
441.57	7817.39
441.75	7761.22
441.94	8114.64
442.12	7988.25
442.31	7960.16
442.50	8002.29
442.68	7962.50
442.87	8004.63
443.05	8269.11
443.24	8336.99
443.43	8205.92
443.61	8266.77
443.80	8456.36
443.98	8039.74
444.17	7922.71
444.35	8311.24
444.54	8336.99
444.73	8255.07
444.91	8390.82
445.10	8393.16
445.28	8379.12
445.47	8404.86
445.65	8346.35
445.84	8449.33
446.02	8540.61
446.21	8465.72
446.39	8229.32
446.58	8587.43
446.77	8486.78
446.95	8344.01
447.14	8571.04
447.32	8751.26
447.51	8479.76
447.69	8538.27
447.88	8535.93
448.06	8423.59
448.25	8283.16
448.43	8755.94
448.62	8674.03
448.80	8573.38
448.99	8791.05
449.17	8901.06
449.36	8702.11
449.54	9004.04
449.73	9011.06
449.91	9249.80
450.10	9071.92
450.28	9109.36
450.46	8985.32
450.65	9069.58
450.83	9067.24
451.02	9142.13
451.20	9364.48
451.39	8868.29
451.57	9039.15
451.76	9149.15
451.94	9217.03
452.13	9413.63
452.31	9142.13
452.49	9029.79
452.68	9245.12
452.86	9549.39
453.05	9511.94
453.23	9577.47
453.42	9352.78
453.60	9476.83
453.78	9640.67
453.97	9467.47
454.15	9523.64
454.34	9364.48
454.52	9561.09
454.70	9774.08
454.89	9607.90
455.07	9860.68
455.26	9788.12
455.44	10183.67
455.62	9799.82
455.81	10097.07
455.99	10092.39
456.17	10090.05
456.36	10071.33
456.54	10150.90
456.73	10459.85
456.91	10443.47
457.09	10504.32
457.28	10487.94
457.46	10303.04
457.64	10595.61
457.83	10434.11
458.01	10530.07
458.19	10714.97
458.38	10665.82
458.56	10853.06
458.74	10874.13
458.93	10473.90
459.11	10834.34
459.29	10988.82
459.48	10923.28
459.66	10583.90
459.84	10864.77
460.03	11316.49
460.21	10981.79
460.39	11117.54
460.57	10846.04
460.76	11124.57
460.94	11365.64
461.12	11403.09
461.31	11192.44
461.49	11286.06
461.67	11117.54
461.85	11274.36
462.04	11101.16
462.22	11562.25
462.40	11562.25
462.59	11543.52
462.77	11499.05
462.95	11702.68
463.13	11459.26
463.32	11637.14
463.50	11702.68
463.68	11805.66
463.86	11868.86
464.05	11700.34
464.23	11784.60
464.41	11936.73
464.59	11742.47
464.78	12212.92
464.96	12198.87
465.14	11901.62
465.32	12086.53
465.50	12051.42
465.69	12131.00
465.87	12191.85
466.05	12262.07
466.23	12100.57
466.41	12510.16
466.60	12678.68
466.78	12264.41
466.96	12313.56
467.14	12477.40
467.32	12325.26
467.51	12507.82
467.69	12105.25
467.87	12585.06
468.05	12655.28
468.23	12461.01
468.41	12362.71
468.60	12833.16
468.78	12723.15
468.96	12395.48
469.14	12996.99
469.32	13071.89
469.50	12706.77
469.69	13184.24
469.87	13060.19
470.05	12954.87
470.23	13261.48
470.41	13111.68
470.59	13703.84
470.77	13509.57
470.95	13224.03
471.14	13577.45
471.32	12891.67
471.50	13816.18
471.68	13549.36
471.86	13617.24
472.04	13940.23
472.22	13872.36
472.40	13930.87
472.58	14078.32
472.77	14104.07
472.95	14272.59
473.13	14792.19
473.31	14061.94
473.49	14450.47
473.67	14291.31
473.85	14417.70
474.03	14724.31
474.21	14675.16
474.39	15007.52
474.57	14918.57
474.75	15068.37
474.93	15183.06
475.12	15105.82
475.30	15021.56
475.48	15105.82
475.66	15389.02
475.84	15351.57
476.02	15199.44
476.20	15323.49
476.38	15786.91
476.56	15910.96
476.74	16210.55
476.92	15960.11
477.10	15786.91
477.28	16112.25
477.46	16163.74
477.64	16393.11
477.82	16362.69
478.00	16823.77
478.18	16837.81
478.36	17060.16
478.54	16879.94
478.72	17081.23
478.90	17160.81
479.08	17579.76
479.26	17673.39
479.44	17802.11
479.62	17947.23
479.80	18410.65
479.98	18298.31
480.16	18705.56
480.34	18445.76
480.52	18511.30
480.70	18934.93
480.88	18424.70
481.06	18635.35
481.24	18707.90
481.41	19304.74
481.59	19379.64
481.77	19412.40
481.95	19761.14
482.13	19894.55
482.31	19868.81
482.49	19943.70
482.67	20182.44
482.85	20416.49
483.03	20978.22
483.21	20526.50
483.39	21053.12
483.57	20882.26
483.74	21221.64
483.92	21422.92
484.10	21497.82
484.28	21731.87
484.46	21848.90
484.64	22499.57
484.82	22157.85
485.00	22314.67
485.18	22710.22
485.35	23026.19
485.53	22916.19
485.71	23381.95
485.89	23562.17
486.07	23377.27
486.25	23288.33
486.43	23597.28
486.61	23927.30
486.78	24372.00
486.96	24350.93
487.14	24844.79
487.32	24439.87
487.50	24851.81
487.68	24802.66
487.85	25378.43
488.03	25530.56
488.21	25958.88
488.39	26094.63
488.57	25898.03
488.75	26319.32
488.92	26499.55
489.10	26434.01
489.28	26883.39
489.46	27241.50
489.64	26883.39
489.81	27648.75
489.99	27590.24
490.17	27892.16
490.35	28397.72
490.53	28327.50
490.70	28570.92
490.88	28479.64
491.06	29212.23
491.24	28912.64
491.41	28863.49
491.59	29486.07
491.77	29195.84
491.95	29439.26
492.13	29937.79
492.30	30340.36
492.48	29982.26
492.66	30543.99
492.84	30391.86
493.01	30668.04
493.19	30768.68
493.37	31220.41
493.54	31138.49
493.72	31924.91
493.90	31431.05
494.08	31810.22
494.25	32208.11
494.43	32182.37
494.61	32531.11
494.79	32587.28
494.96	32753.46
495.14	32957.08
495.32	33350.29
495.49	33294.12
495.67	33366.68
495.85	33717.76
496.02	33839.47
496.20	34190.55
496.38	34281.83
496.55	34520.56
496.73	34848.24
496.91	34735.89
497.09	34529.92
497.26	35283.58
497.44	35091.65
497.62	35145.48
497.79	35999.78
497.97	36027.87
498.14	36325.11
498.32	36093.40
498.50	36701.94
498.67	36978.12
498.85	36744.07
499.03	36748.75
499.20	36718.32
499.38	37092.81
499.56	37120.90
499.73	37146.64
499.91	37329.20
500.08	37879.23
500.26	37579.64
500.44	37783.27
500.61	37727.10
500.79	38185.84
500.97	38541.60
501.14	38438.62
501.32	38347.34
501.49	38742.89
501.67	38555.64
501.84	39096.31
502.02	39009.71
502.20	39295.25
502.37	39356.11
502.55	39295.25
502.72	39653.36
502.90	39220.36
503.07	39796.13
503.25	39880.39
503.43	39697.83
503.60	40477.22
503.78	40355.52
503.95	40367.22
504.13	40830.65
504.30	40243.17
504.48	40690.21
504.65	40725.32
504.83	41062.36
505.01	41399.40
505.18	41418.12
505.36	41706.01
505.53	41572.60
505.71	41724.73
505.88	42005.59
506.06	41502.38
506.23	42307.52
506.41	42078.15
506.58	42398.80
506.76	42494.77
506.93	42667.97
507.11	41900.27
507.28	42820.10
507.46	42878.61
507.63	43056.50
507.81	43363.11
507.98	43365.45
508.16	43082.24
508.33	43742.27
508.50	43154.80
508.68	43721.21
508.85	44098.03
509.03	44144.84
509.20	44369.54
509.38	44224.42
509.55	44383.58
509.73	44863.39
509.90	44430.39
510.08	44774.45
510.25	44760.40
510.42	45074.04
510.60	45162.98
510.77	45432.14
510.95	45354.90
511.12	45518.74
511.30	45198.09
511.47	45537.46
511.64	45162.98
511.82	45961.10
511.99	45617.04
512.17	46213.88
512.34	46220.90
512.51	46672.62
512.69	46197.49
512.86	46492.40
513.04	47065.83
513.21	47012.00
513.38	46560.28
513.56	46979.23
513.73	46588.36
513.90	46623.47
514.08	47400.53
514.25	47473.09
514.43	47578.41
514.60	47260.10
514.77	47487.13
514.95	48137.80
515.12	47557.35
515.29	47758.63
515.47	47941.19
515.64	48250.14
515.81	48053.54
515.99	47950.56
516.16	48348.45
516.33	48535.69
516.51	48790.81
516.68	48402.28
516.85	48811.87
517.03	48863.36
517.20	48940.60
517.37	49013.16
517.54	49006.14
517.72	49146.57
517.89	49471.90
518.06	49277.64
518.24	49205.08
518.41	49219.13
518.58	49200.40
518.75	49467.22
518.93	49745.75
519.10	49598.29
519.27	50302.79
519.45	49876.82
519.62	50103.85
519.79	50171.72
519.96	50092.15
520.14	50405.78
520.31	50328.54
520.48	50314.50
520.65	50403.44
520.83	50834.10
521.00	50485.36
521.17	50834.10
521.34	50529.83
521.52	50852.82
521.69	50955.80
521.86	50878.57
522.03	51178.15
522.20	51180.49
522.38	51442.63
522.55	51241.35
522.72	51379.44
522.89	51625.20
523.07	51906.06
523.24	51501.15
523.41	52006.70
523.58	51547.96
523.75	51838.18
523.92	52137.77
524.10	51992.66
524.27	52147.14
524.44	51973.94
524.61	52074.58
524.78	52133.09
524.96	52465.45
525.13	52282.89
525.30	52556.73
525.47	52472.47
525.64	52343.74
525.81	52701.84
525.98	52814.19
526.16	52643.33
526.33	53066.97
526.50	53069.31
526.67	52788.44
526.84	53020.16
527.01	52853.98
527.18	52935.90
527.36	52907.81
527.53	53186.33
527.70	53460.18
527.87	53621.67
528.04	53506.99
528.21	53593.59
528.38	53497.62
528.55	53794.87
528.72	53579.54
528.89	53715.29
529.07	53689.55
529.24	53443.79
529.41	53663.80
529.58	53769.13
529.75	53968.07
529.92	54099.14
530.09	53958.71
530.26	54099.14
530.43	54141.27
530.60	54096.80
530.77	53965.73
530.94	54007.86
531.11	54087.44
531.28	54096.80
531.46	54349.58
531.63	54347.24
531.80	54239.57
531.97	54394.05
532.14	54506.40
532.31	54363.62
532.48	54740.45
532.65	54761.51
532.82	54731.09
532.99	54728.75
533.16	54604.70
533.33	54803.64
533.50	55051.74
533.67	55037.70
533.84	54925.35
534.01	55192.17
534.18	54906.63
534.35	55161.75
534.52	55192.17
534.69	55374.73
534.86	55269.41
535.03	55313.88
535.20	55379.42
535.37	55543.25
535.54	55421.55
535.71	55281.11
535.88	55655.60
536.05	55786.67
536.22	55653.26
536.38	55557.30
536.55	55618.15
536.72	55634.53
536.89	55201.53
537.06	55690.71
537.23	55636.87
537.40	55704.75
537.57	55756.24
537.74	55845.18
537.91	56034.77
538.08	56100.30
538.25	55828.80
538.42	55856.88
538.59	56041.79
538.75	55952.85
538.92	56210.31
539.09	56114.34
539.26	56009.02
539.43	56165.84
539.60	56329.67
539.77	56369.46
539.94	56559.05
540.11	56535.64
540.28	56376.48
540.44	56367.12
540.61	56425.64
540.78	56573.09
540.95	56577.77
541.12	56647.99
541.29	56657.35
541.46	56491.17
541.62	56591.81
541.79	56802.46
541.96	56713.52
542.13	56882.04
542.30	56673.73
542.47	57141.84
542.63	57043.54
542.80	56996.73
542.97	57183.97
543.14	57214.40
543.31	57221.42
543.48	57572.50
543.64	57371.21
543.81	57415.68
543.98	57242.48
544.15	57457.81
544.32	57401.64
544.48	57783.15
544.65	57354.83
544.82	57483.56
544.99	57425.04
545.16	57832.30
545.32	57254.18
545.49	57682.50
545.66	57600.58
545.83	57696.55
546.00	58056.99
546.16	57883.79
546.33	57710.59
546.50	57614.63
546.67	57572.50
546.83	57366.53
547.00	57659.10
547.17	57811.23
547.34	57757.40
547.50	58117.84
547.67	58188.06
547.84	57890.81
548.00	58188.06
548.17	58190.40
548.34	58115.50
548.51	58391.68
548.67	58159.97
548.84	58267.64
549.01	58171.67
549.18	58220.83
549.34	58295.72
549.51	58382.32
549.68	58300.40
549.84	58534.46
550.01	58532.12
550.18	58319.13
550.34	58527.44
550.51	58777.87
550.68	58485.31
550.84	58307.43
551.01	58628.08
551.18	58454.88
551.34	58609.35
551.51	58574.25
551.68	58738.08
551.84	58707.66
552.01	58623.40
552.18	58653.82
552.34	58541.48
552.51	58841.07
552.68	58717.02
552.84	58670.21
553.01	59110.23
553.18	59187.47
553.34	58812.98
553.51	58873.84
553.67	58873.84
553.84	59114.91
554.01	59007.25
554.17	59089.16
554.34	59007.25
554.51	59121.93
554.67	59192.15
554.84	59164.06
555.00	59068.10
555.17	59000.22
555.33	59093.85
555.50	59161.72
555.67	59215.55
555.83	59234.28
556.00	59407.48
556.16	59355.99
556.33	59419.18
556.50	59227.26
556.66	59484.72
556.83	59220.23
556.99	59283.43
557.16	59606.42
557.32	59533.87
557.49	59683.66
557.65	59547.91
557.82	59461.31
557.98	59510.46
558.15	59643.87
558.32	59590.04
558.48	59576.00
558.65	59430.88
558.81	59744.51
558.98	59505.78
559.14	59753.88
559.31	59683.66
559.47	59620.47
559.64	59714.09
559.80	59922.40
559.97	59999.63
560.13	59714.09
560.30	59753.88
560.46	59744.51
560.63	59887.29
560.79	59859.20
560.96	59924.74
561.12	59676.64
561.29	59896.65
561.45	60058.15
561.61	59955.16
561.78	59957.50
561.94	59622.81
562.11	59955.16
562.27	59901.33
562.44	59962.18
562.60	60111.98
562.77	60060.49
562.93	60067.51
563.10	60095.60
563.26	59973.89
563.42	60140.07
563.59	60046.44
563.75	60257.09
563.92	60055.81
564.08	59964.52
564.24	60198.58
564.41	60315.61
564.57	60144.75
564.74	60210.28
564.90	60156.45
565.07	60247.73
565.23	60285.18
565.39	60144.75
565.56	60322.63
565.72	60416.25
565.88	60236.03
566.05	60156.45
566.21	60254.75
566.38	60350.71
566.54	60357.74
566.70	60350.71
566.87	60416.25
567.03	60142.41
567.19	60519.23
567.36	60399.86
567.52	60528.59
567.68	60636.26
567.85	60458.38
568.01	60289.86
568.17	60294.54
568.34	60596.47
568.50	60441.99
568.66	60411.57
568.83	60467.74
568.99	60371.78
569.15	60526.25
569.32	60591.79
569.48	60371.78
569.64	60828.18
569.81	60523.91
569.97	60385.82
570.13	60474.76
570.30	60374.12
570.46	60605.83
570.62	60580.09
570.78	60453.70
570.95	60706.47
571.11	60680.73
571.27	60409.23
571.43	60573.06
571.60	60692.43
571.76	60680.73
571.92	60680.73
572.09	60622.22
572.25	60713.50
572.41	60549.66
572.57	60629.24
572.74	60858.61
572.90	60647.96
573.06	60594.13
573.22	60797.76
573.38	60678.39
573.55	60685.41
573.71	60903.08
573.87	60867.97
574.03	60701.79
574.20	60727.54
574.36	60626.90
574.52	60697.11
574.68	60711.16
574.84	60837.54
575.01	60853.93
575.17	60788.39
575.33	60823.50
575.49	60509.87
575.65	60816.48
575.82	60891.38
575.98	60982.66
576.14	61043.51
576.30	61069.26
576.46	60741.58
576.62	60844.57
576.79	60898.40
576.95	60804.78
577.11	60977.98
577.27	60732.22
577.43	60914.78
577.59	61045.85
577.75	60903.08
577.92	60570.72
578.08	60858.61
578.24	60793.07
578.40	61134.79
578.56	61027.13
578.72	60987.34
578.88	61244.80
579.04	60977.98
579.21	60994.36
579.37	61010.74
579.53	61085.64
579.69	60942.87
579.85	60947.55
580.01	61174.58
580.17	60903.08
580.33	60867.97
580.49	60963.93
580.65	60811.80
580.82	61034.15
580.98	60896.06
581.14	60980.32
581.30	61071.60
581.46	61038.83
581.62	61151.18
581.78	60889.04
581.94	61057.56
582.10	61085.64
582.26	60821.16
582.42	61057.56
582.58	61092.66
582.74	60823.50
582.90	60818.82
583.06	60989.68
583.22	60804.78
583.38	61029.47
583.54	60924.14
583.70	60977.98
583.86	61104.37
584.02	61078.62
584.18	61319.70
584.34	61158.20
584.50	61223.73
584.66	60926.49
584.82	60837.54
584.98	61331.40
585.14	61036.49
585.30	61247.14
585.46	61071.60
585.62	61029.47
585.78	61153.52
585.94	60811.80
586.10	60977.98
586.26	61172.24
586.42	61073.94
586.58	61165.22
586.74	61148.84
586.90	60966.27
587.06	61027.13
587.22	61305.65
587.38	61279.91
587.54	61289.27
587.70	61176.92
587.86	61183.94
588.02	61001.38
588.18	61331.40
588.34	61034.15
588.49	61085.64
