SpectraSuite Data File
++++++++++++++++++++++++++++++++++++
Date: Fri Oct 25 10:43:49 EDT 2013
User: price-jones
Dark Spectrum Present: No
Reference Spectrum Present: No
Number of Sampled Component Spectra: 1
Spectrometers: USB2+H05261
Integration Time (usec): 100000 (USB2+H05261)
Spectra Averaged: 1 (USB2+H05261)
Boxcar Smoothing: 0 (USB2+H05261)
Correct for Electrical Dark: No (USB2+H05261)
Strobe/Lamp Enabled: No (USB2+H05261)
Correct for Detector Non-linearity: No (USB2+H05261)
Correct for Stray Light: No (USB2+H05261)
Number of Pixels in Processed Spectrum: 2048
>>>>>Begin Processed Spectral Data<<<<<
365.73	119.37
365.92	119.37
366.12	119.37
366.32	44.47
366.52	0.00
366.72	0.00
366.91	7.02
367.11	42.13
367.31	0.00
367.51	51.49
367.70	0.00
367.90	7.02
368.10	0.00
368.30	100.64
368.49	49.15
368.69	25.75
368.89	58.51
369.09	53.83
369.28	44.47
369.48	32.77
369.68	0.00
369.87	98.30
370.07	88.94
370.27	128.73
370.47	173.20
370.66	313.63
370.86	411.93
371.06	505.56
371.25	482.15
371.45	409.59
371.65	517.26
371.84	416.62
372.04	407.25
372.24	493.85
372.44	540.66
372.63	552.37
372.83	545.34
373.03	510.24
373.22	503.22
373.42	538.32
373.62	491.51
373.81	538.32
374.01	613.22
374.21	557.05
374.40	648.33
374.60	552.37
374.79	554.71
374.99	622.58
375.19	592.16
375.38	585.13
375.58	505.56
375.78	585.13
375.97	521.94
376.17	723.23
376.37	566.41
376.56	688.12
376.76	535.98
376.95	655.35
377.15	655.35
377.35	627.26
377.54	641.31
377.74	587.47
377.93	613.22
378.13	620.24
378.33	669.39
378.52	702.16
378.72	655.35
378.91	720.88
379.11	655.35
379.31	603.86
379.50	685.78
379.70	608.54
379.89	723.23
380.09	620.24
380.28	737.27
380.48	781.74
380.68	709.18
380.87	709.18
381.07	746.63
381.26	732.59
381.46	760.67
381.65	709.18
381.85	678.76
382.04	765.36
382.24	681.10
382.43	734.93
382.63	713.86
382.83	699.82
383.02	662.37
383.22	765.36
383.41	690.46
383.61	786.42
383.80	805.14
384.00	732.59
384.19	800.46
384.39	809.83
384.58	777.06
384.78	856.64
384.97	835.57
385.17	784.08
385.36	748.97
385.56	798.12
385.75	763.01
385.95	746.63
386.14	821.53
386.34	786.42
386.53	763.01
386.72	866.00
386.92	830.89
387.11	849.61
387.31	809.83
387.50	830.89
387.70	837.91
387.89	917.49
388.09	931.53
388.28	863.66
388.48	901.11
388.67	905.79
388.86	976.00
389.06	966.64
389.25	973.66
389.45	994.73
389.64	964.30
389.84	1088.35
390.03	992.39
390.22	1013.45
390.42	964.30
390.61	966.64
390.81	940.90
391.00	1015.79
391.19	983.02
391.39	1053.24
391.58	1029.84
391.78	1090.69
391.97	1034.52
392.16	985.37
392.36	1018.13
392.55	1001.75
392.75	1027.50
392.94	1029.84
393.13	1013.45
393.33	1036.86
393.52	1165.59
393.71	1100.05
393.91	1093.03
394.10	1156.22
394.29	1268.57
394.49	1196.01
394.68	1238.14
394.88	1128.14
395.07	1256.87
395.26	1242.82
395.46	1165.59
395.65	1165.59
395.84	1144.52
396.04	1226.44
396.23	1153.88
396.42	1109.41
396.62	1132.82
396.81	1205.38
397.00	1235.80
397.19	1315.38
397.39	1376.24
397.58	1432.41
397.77	1355.17
397.97	1331.76
398.16	1390.28
398.35	1488.58
398.55	1502.62
398.74	1530.71
398.93	1502.62
399.12	1490.92
399.32	1603.27
399.51	1540.07
399.70	1659.44
399.90	1516.67
400.09	1591.56
400.28	1549.43
400.47	1582.20
400.67	1600.93
400.86	1675.82
401.05	1692.21
401.24	1645.40
401.44	1678.16
401.63	1666.46
401.82	1694.55
402.01	1689.87
402.21	1722.63
402.40	1753.06
402.59	1757.74
402.78	1724.97
402.97	1701.57
403.17	1827.96
403.36	1736.68
403.55	1827.96
403.74	1844.34
403.93	1863.07
404.13	1900.52
404.32	1750.72
404.51	1980.09
404.70	1919.24
404.89	1799.87
405.09	1998.82
405.28	1851.36
405.47	1937.96
405.66	2022.22
405.85	1989.46
406.05	1881.79
406.24	2019.88
406.43	2036.27
406.62	2080.74
406.81	2136.91
407.00	2094.78
407.20	2076.06
407.39	1984.77
407.58	2118.18
407.77	2160.31
407.96	2181.38
408.15	2197.76
408.34	2160.31
408.54	2209.47
408.73	2340.54
408.92	2275.00
409.11	2216.49
409.30	2300.75
409.49	2356.92
409.68	2200.10
409.87	2207.13
410.07	2335.85
410.26	2380.32
410.45	2373.30
410.64	2513.74
410.83	2403.73
411.02	2581.61
411.21	2511.39
411.40	2478.63
411.59	2633.10
411.78	2588.63
411.98	2532.46
412.17	2705.66
412.36	2548.84
412.55	2628.42
412.74	2738.43
412.93	2717.36
413.12	2724.38
413.31	2986.52
413.50	2752.47
413.69	2827.37
413.88	2899.92
414.07	2897.58
414.26	2874.18
414.45	2846.09
414.64	2972.48
414.83	2958.44
415.02	3023.97
415.22	2864.82
415.41	3138.66
415.60	3150.36
415.79	3269.73
415.98	3234.62
416.17	3262.71
416.36	3232.28
416.55	3150.36
416.74	3290.79
416.93	3241.64
417.12	3267.39
417.31	3258.03
417.50	3302.50
417.69	3386.76
417.88	3349.31
418.07	3309.52
418.26	3375.05
418.45	3426.54
418.64	3672.30
418.83	3548.25
419.02	3538.89
419.21	3590.38
419.39	3564.64
419.58	3550.59
419.77	3510.80
419.96	3658.26
420.15	3700.39
420.34	3684.00
420.53	3791.67
420.72	3758.90
420.91	3770.60
421.10	3772.94
421.29	3721.45
421.48	3770.60
421.67	3857.20
421.86	3794.01
422.05	3756.56
422.24	3824.44
422.43	3695.71
422.61	3712.09
422.80	3995.29
422.99	3997.64
423.18	3899.33
423.37	4058.49
423.56	3896.99
423.75	3943.80
423.94	3770.60
424.13	3705.07
424.32	3728.47
424.50	3871.25
424.69	4079.55
424.88	4053.81
425.07	3854.86
425.26	3889.97
425.45	3941.46
425.64	3913.38
425.83	3934.44
426.01	4107.64
426.20	3922.74
426.39	3939.12
426.58	3997.64
426.77	3971.89
426.96	3971.89
427.15	3939.12
427.33	4042.11
427.52	3957.85
427.71	4105.30
427.90	4142.75
428.09	4100.62
428.28	3899.33
428.46	4273.82
428.65	4126.36
428.84	4234.03
429.03	4329.99
429.22	4009.34
429.40	4149.77
429.59	4093.60
429.78	3981.25
429.97	3840.82
430.16	4058.49
430.34	4056.15
430.53	4198.92
430.72	4112.32
430.91	4194.24
431.10	4327.65
431.28	4418.93
431.47	4561.70
431.66	4629.58
431.85	4493.83
432.03	4601.49
432.22	4669.37
432.41	4608.51
432.60	4645.96
432.79	4755.97
432.97	4753.63
433.16	4739.58
433.35	4713.84
433.54	4688.09
433.72	4704.48
433.91	4592.13
434.10	4770.01
434.28	4737.24
434.47	4716.18
434.66	4947.89
434.85	4980.66
435.03	4938.53
435.22	4896.40
435.41	5107.05
435.59	5064.92
435.78	5153.86
435.97	5203.01
436.16	5036.83
436.34	5011.09
436.53	5055.56
436.72	5242.80
436.90	5153.86
437.09	5139.82
437.28	5170.24
437.46	5011.09
437.65	5174.92
437.84	5156.20
438.02	5123.43
438.21	5123.43
438.40	5207.69
438.58	5282.59
438.77	5425.36
438.96	5476.85
439.14	5699.20
439.33	5497.92
439.52	5605.58
439.70	5664.10
439.89	5645.37
440.08	5664.10
440.26	5738.99
440.45	5685.16
440.63	5743.67
440.82	5970.71
441.01	6008.16
441.19	6017.52
441.38	6183.70
441.57	5902.83
441.75	6036.24
441.94	6354.55
442.12	6066.67
442.31	6305.40
442.50	6303.06
442.68	6289.02
442.87	6270.30
443.05	6204.76
443.24	6181.35
443.43	6354.55
443.61	6478.60
443.80	6572.22
443.98	6232.85
444.17	6249.23
444.35	6469.24
444.54	6623.72
444.73	6675.21
444.91	6368.60
445.10	6443.49
445.28	6492.65
445.47	6277.32
445.65	6321.79
445.84	6609.67
446.02	6464.56
446.21	6614.35
446.39	6525.41
446.58	6478.60
446.77	6609.67
446.95	6656.48
447.14	6682.23
447.32	6796.92
447.51	6576.91
447.69	6626.06
447.88	6855.43
448.06	6672.87
448.25	6656.48
448.43	6597.97
448.62	6707.98
448.80	6808.62
448.99	6862.45
449.17	6745.42
449.36	6651.80
449.54	6993.52
449.73	7119.91
449.91	6993.52
450.10	7101.19
450.28	6920.96
450.46	7293.11
450.65	7155.02
450.83	7293.11
451.02	7126.93
451.20	7087.14
451.39	7250.98
451.57	7108.21
451.76	7138.63
451.94	7115.23
452.13	7288.43
452.31	7117.57
452.49	6965.43
452.68	7098.84
452.86	7260.34
453.05	7286.09
453.23	7297.79
453.42	7239.28
453.60	7316.51
453.78	7389.07
453.97	7382.05
454.15	7379.71
454.34	7190.13
454.52	7564.61
454.70	7227.57
454.89	7630.15
455.07	7609.08
455.26	7503.76
455.44	7845.48
455.62	7885.26
455.81	7634.83
455.99	7592.70
456.17	7819.73
456.36	7751.85
456.54	7861.86
456.73	7925.05
456.91	8259.75
457.09	7974.21
457.28	8140.38
457.46	7990.59
457.64	8182.51
457.83	8081.87
458.01	8023.36
458.19	8407.20
458.38	8262.09
458.56	8369.76
458.74	8446.99
458.93	8250.39
459.11	8301.88
459.29	8304.22
459.48	8376.78
459.66	8175.49
459.84	8355.71
460.03	8411.89
460.21	8468.06
460.39	8318.26
460.57	8496.14
460.76	8545.30
460.94	8643.60
461.12	8477.42
461.31	8580.40
461.49	8606.15
461.67	8629.56
461.85	8713.81
462.04	8861.27
462.22	9032.13
462.40	8798.07
462.59	8851.91
462.77	8814.46
462.95	8959.57
463.13	9011.06
463.32	8837.86
463.50	8987.66
463.68	8945.53
463.86	8919.78
464.05	9160.86
464.23	8957.23
464.41	9060.21
464.59	8755.94
464.78	9144.47
464.96	9092.98
465.14	8982.98
465.32	9235.75
465.50	9217.03
465.69	9441.72
465.87	9015.74
466.05	9067.24
466.23	9289.59
466.41	9165.54
466.60	9317.67
466.78	9013.40
466.96	9231.07
467.14	9179.58
467.32	9394.91
467.51	9336.40
467.69	9128.09
467.87	9612.58
468.05	9401.93
468.23	9415.98
468.41	9446.40
468.60	9310.65
468.78	9647.69
468.96	9467.47
469.14	9689.82
469.32	9703.86
469.50	9423.00
469.69	9713.22
469.87	9823.23
470.05	9769.40
470.23	9851.31
470.41	9687.48
470.59	10181.33
470.77	9830.25
470.95	9968.34
471.14	10052.60
471.32	10029.20
471.50	10078.35
471.68	10289.00
471.86	10106.43
472.04	10415.38
472.22	10588.58
472.40	10003.45
472.58	10338.15
472.77	10408.36
472.95	10576.88
473.13	10682.20
473.31	10438.79
473.49	10516.03
473.67	10628.37
473.85	10466.88
474.03	10991.16
474.21	10817.96
474.39	11136.27
474.57	10974.77
474.75	11019.24
474.93	11166.70
475.12	10974.77
475.30	11087.12
475.48	11328.19
475.66	11253.30
475.84	11274.36
476.02	11204.14
476.20	11328.19
476.38	11382.03
476.56	11623.10
476.74	11777.58
476.92	11646.51
477.10	11751.83
477.28	12170.79
477.46	12196.53
477.64	12159.08
477.82	12662.30
478.00	12524.21
478.18	12615.49
478.36	12418.88
478.54	12931.46
478.72	12603.78
478.90	12985.29
479.08	13006.36
479.26	13195.94
479.44	13146.79
479.62	13186.58
479.80	13195.94
479.98	13411.27
480.16	13610.22
480.34	13467.44
480.52	13568.09
480.70	13664.05
480.88	13607.87
481.06	13951.93
481.24	14160.24
481.41	14005.77
481.59	14464.51
481.77	14431.74
481.95	14335.78
482.13	14431.74
482.31	14436.42
482.49	14846.02
482.67	14771.12
482.85	14890.49
483.03	14993.47
483.21	15377.32
483.39	15489.67
483.57	15161.99
483.74	15438.17
483.92	15424.13
484.10	15297.74
484.28	15992.88
484.46	16098.20
484.64	16264.38
484.82	15749.46
485.00	16365.03
485.18	16552.27
485.35	16395.45
485.53	16133.31
485.71	16198.85
485.89	16456.31
486.07	16315.87
486.25	16475.03
486.43	16730.15
486.61	17116.34
486.78	17263.79
486.96	17291.88
487.14	17834.88
487.32	17715.51
487.50	18157.88
487.68	18059.57
487.85	17968.29
488.03	18300.65
488.21	18878.76
488.39	18403.63
488.57	18382.57
488.75	18923.23
488.92	19431.13
489.10	19112.81
489.28	19461.55
489.46	20042.01
489.64	19693.27
489.81	20339.26
489.99	20280.74
490.17	20011.58
490.35	20423.51
490.53	20217.55
490.70	20262.02
490.88	20205.84
491.06	20678.63
491.24	20589.69
491.41	20568.63
491.59	20922.05
491.77	20793.32
491.95	20947.79
492.13	21223.98
492.30	21401.86
492.48	21350.37
492.66	21745.92
492.84	21406.54
493.01	21879.33
493.19	22001.04
493.37	22099.34
493.54	22052.53
493.72	22408.29
493.90	22625.96
494.08	22377.86
494.25	23192.37
494.43	23248.54
494.61	23309.40
494.79	23056.62
494.96	23384.29
495.14	23611.32
495.32	23475.57
495.49	23756.44
495.67	24067.73
495.85	23847.72
496.02	24159.01
496.20	24421.15
496.38	24261.99
496.55	24259.65
496.73	24861.17
496.91	24741.80
497.09	24989.90
497.26	24947.77
497.44	24922.02
497.62	25139.69
497.79	25249.70
497.97	25195.87
498.14	25418.22
498.32	25778.66
498.50	25411.20
498.67	25685.04
498.85	25591.42
499.03	25921.43
499.20	26096.97
499.38	26167.19
499.56	26324.01
499.73	26199.96
499.91	26150.81
500.08	26691.47
500.26	26096.97
500.44	26534.65
500.61	26661.04
500.79	26721.90
500.97	26857.65
501.14	26719.56
501.32	27131.49
501.49	27292.99
501.67	27370.22
501.84	27239.15
502.02	27426.40
502.20	27323.41
502.37	27756.41
502.55	27889.82
502.72	27999.83
502.90	28231.54
503.07	28060.68
503.25	27983.44
503.43	27871.10
503.60	27943.66
503.78	27922.59
503.95	28126.22
504.13	28463.25
504.30	28528.79
504.48	28486.66
504.65	28678.58
504.83	28875.19
505.01	28854.12
505.18	28912.64
505.36	29560.97
505.53	29067.11
505.71	29591.39
505.88	29584.37
506.06	29226.27
506.23	29834.81
506.41	29399.47
506.58	29563.31
506.76	29376.06
506.93	30230.36
507.11	29748.21
507.28	29598.41
507.46	29956.52
507.63	29773.95
507.81	29862.90
507.98	29968.22
508.16	29809.06
508.33	30480.80
508.50	30384.83
508.68	30745.28
508.85	30476.12
509.03	30972.31
509.20	30979.33
509.38	30902.09
509.55	31094.02
509.73	31150.19
509.90	31360.84
510.08	30998.06
510.25	30932.52
510.42	31454.46
510.60	31606.59
510.77	31697.88
510.95	31964.70
511.12	31807.88
511.30	31999.80
511.47	32561.53
511.64	32074.70
511.82	32395.35
511.99	31740.00
512.17	32100.45
512.34	31981.08
512.51	32596.64
512.69	32409.40
512.86	32320.46
513.04	32491.32
513.21	33181.77
513.38	32514.72
513.56	32811.97
513.73	32582.60
513.90	33156.03
514.08	32744.09
514.25	33193.48
514.43	33109.22
514.60	33354.97
514.77	33141.99
514.95	33139.65
515.12	33247.31
515.29	33366.68
515.47	34050.11
515.64	34045.43
515.81	33699.03
515.99	33895.64
516.16	33783.29
516.33	33951.81
516.51	33710.74
516.68	33298.80
516.85	32929.00
517.03	33013.26
517.20	33722.44
517.37	33961.17
517.54	34036.07
517.72	34211.61
517.89	33792.65
518.06	33846.49
518.24	33956.49
518.41	34103.95
518.58	34143.74
518.75	34513.54
518.93	34621.20
519.10	34515.88
519.27	34766.32
519.45	34785.04
519.62	35023.78
519.79	35101.01
519.96	35564.44
520.14	35367.84
520.31	35105.70
520.48	35295.28
520.65	35311.66
520.83	35718.92
521.00	35749.34
521.17	35779.77
521.34	36004.46
521.52	35526.99
521.69	35938.93
521.86	36325.11
522.03	36231.49
522.20	36095.74
522.38	36128.51
522.55	36678.54
522.72	36233.83
522.89	36320.43
523.07	36685.56
523.24	36673.85
523.41	36952.38
523.58	36528.74
523.75	37509.43
523.92	36919.61
524.10	36863.44
524.27	36959.40
524.44	36912.59
524.61	37329.20
524.78	37713.05
524.96	37291.76
525.13	37460.27
525.30	37291.76
525.47	37699.01
525.64	37422.83
525.81	37642.84
525.98	37361.97
526.16	37099.83
526.33	37041.32
526.50	37581.98
526.67	37158.34
526.84	37254.31
527.01	37160.69
527.18	37434.53
527.36	37904.98
527.53	38160.09
527.70	38007.96
527.87	38553.30
528.04	38153.07
528.21	38602.46
528.38	38340.32
528.55	38375.42
528.72	38618.84
528.89	38742.89
529.07	38960.56
529.24	38164.78
529.41	38686.71
529.58	38820.13
529.75	38803.74
529.92	38955.88
530.09	39201.63
530.26	39086.95
530.43	39175.89
530.60	39115.03
530.77	39335.04
530.94	39578.46
531.11	39288.23
531.28	39110.35
531.46	39304.62
531.63	39328.02
531.80	39501.22
531.97	39562.08
532.14	39222.70
532.31	39002.69
532.48	39461.43
532.65	39641.65
532.82	39225.04
532.99	39297.59
533.16	39559.73
533.33	39758.68
533.50	40332.11
533.67	39613.57
533.84	39920.18
534.01	39730.59
534.18	39725.91
534.35	40046.57
534.52	39718.89
534.69	40603.61
534.86	40444.46
535.03	39988.05
535.20	40432.75
535.37	40758.09
535.54	41123.21
535.71	40437.44
535.88	40957.03
536.05	40596.59
536.22	40645.74
536.38	40795.54
536.55	40627.02
536.72	40989.80
536.89	40561.48
537.06	40612.98
537.23	40940.65
537.40	40938.31
537.57	41076.40
537.74	41015.55
537.91	41347.90
538.08	41078.74
538.25	41144.28
538.42	40980.44
538.59	41539.83
538.75	41172.36
538.92	41139.60
539.09	41280.03
539.26	41319.82
539.43	41223.86
539.60	41240.24
539.77	40858.73
539.94	40872.78
540.11	41163.00
540.28	41619.41
540.44	41141.94
540.61	41530.47
540.78	41069.38
540.95	41060.02
541.12	41553.87
541.29	41305.77
541.46	41600.68
541.62	41750.48
541.79	42340.29
541.96	41408.76
542.13	41680.26
542.30	42094.53
542.47	41823.03
542.63	41975.17
542.80	41830.05
542.97	42518.17
543.14	42380.08
543.31	42150.71
543.48	43035.43
543.64	42880.95
543.81	42784.99
543.98	42794.36
544.15	42380.08
544.32	42490.09
544.48	43386.51
544.65	42995.64
544.82	42906.70
544.99	42586.05
545.16	42906.70
545.32	42515.83
545.49	42887.98
545.66	43269.48
545.83	43072.88
546.00	43271.82
546.16	42733.50
546.33	42965.21
546.50	42871.59
546.67	43143.09
546.83	42827.12
547.00	43065.86
547.17	43040.11
547.34	43042.45
547.50	43395.87
547.67	43433.32
547.84	42979.26
548.00	43234.38
548.17	43852.28
548.34	43122.03
548.51	43679.08
548.67	43529.28
548.84	43356.08
549.01	43613.54
549.18	43475.45
549.34	43618.22
549.51	43753.97
549.68	43728.23
549.84	43871.00
550.01	44004.41
550.18	43571.41
550.34	44308.68
550.51	43622.90
550.68	43962.28
550.84	43346.72
551.01	43995.05
551.18	43512.90
551.34	43555.03
551.51	44055.90
551.68	44388.26
551.84	44327.41
552.01	44198.68
552.18	44238.47
552.34	43959.94
552.51	44100.37
552.68	44629.34
552.84	44460.82
553.01	44168.25
553.18	44076.97
553.34	44594.23
553.51	44046.54
553.67	44381.24
553.84	45228.51
554.01	44837.64
554.17	44502.95
554.34	44823.60
554.51	44722.96
554.67	44744.02
554.84	44626.99
555.00	44516.99
555.17	44683.17
555.33	44280.60
555.50	44570.82
555.67	44453.79
555.83	44463.16
556.00	44605.93
556.16	45371.28
556.33	44533.37
556.50	44837.64
556.66	44744.02
556.83	44563.80
556.99	44811.90
557.16	44861.05
557.32	44584.86
557.49	45280.00
557.65	45036.59
557.82	45380.65
557.98	44975.73
558.15	44737.00
558.32	45144.25
558.48	44566.14
558.65	44795.51
558.81	44472.52
558.98	45247.24
559.14	45048.29
559.31	45170.00
559.47	44910.20
559.64	45242.56
559.80	45317.45
559.97	44968.71
560.13	45181.70
560.30	45003.82
560.46	45092.76
560.63	45794.92
560.79	45366.60
560.96	45483.63
561.12	45296.39
561.29	45064.67
561.45	45549.17
561.61	45240.21
561.78	45233.19
561.94	44926.58
562.11	45003.82
562.27	45237.87
562.44	45244.90
562.60	45146.59
562.77	45595.98
562.93	45488.31
563.10	45677.90
563.26	45200.43
563.42	45509.38
563.59	45155.96
563.75	45521.08
563.92	45631.08
564.08	45652.15
564.24	45694.28
564.41	45588.95
564.57	45394.69
564.74	45352.56
564.90	45579.59
565.07	45565.55
565.23	45752.79
565.39	45296.39
565.56	45757.47
565.72	45521.08
565.88	45329.16
566.05	45303.41
566.21	45586.61
566.38	45436.82
566.54	45441.50
566.70	45635.77
566.87	45804.28
567.03	45801.94
567.19	45909.61
567.36	45776.20
567.52	46024.29
567.68	45897.91
567.85	45579.59
568.01	46005.57
568.17	46277.07
568.34	45521.08
568.50	45649.81
568.66	45549.17
568.83	45727.05
568.99	45778.54
569.15	45546.82
569.32	45380.65
569.48	45806.62
569.64	45855.78
569.81	45392.35
569.97	45607.68
570.13	45895.56
570.30	45490.65
570.46	45429.80
570.62	45378.31
570.78	45490.65
570.95	45663.85
571.11	45757.47
571.27	45677.90
571.43	45338.52
571.60	45965.78
571.76	46019.61
571.92	45654.49
572.09	46319.20
572.25	45595.98
572.41	46190.47
572.57	45958.76
572.74	46326.22
572.90	46061.74
573.06	45925.99
573.22	45750.45
573.38	46087.49
573.55	45841.73
573.71	46408.14
573.87	45694.28
574.03	46068.76
574.20	46054.72
574.36	45698.96
574.52	45717.68
574.68	46078.13
574.84	45890.88
575.01	45853.44
575.17	45251.92
575.33	45242.56
575.49	45350.22
575.65	46167.07
575.82	45970.46
575.98	45525.76
576.14	46227.92
576.30	46220.90
576.46	45776.20
576.62	45687.26
576.79	45844.07
576.95	45593.64
577.11	45851.09
577.27	46031.32
577.43	46052.38
577.59	45888.54
577.75	45661.51
577.92	45780.88
578.08	45748.11
578.24	45567.89
578.40	45916.63
578.56	46071.10
578.72	46223.24
578.88	46143.66
579.04	46227.92
579.21	45654.49
579.37	45579.59
579.53	46045.36
579.69	45783.22
579.85	45986.85
580.01	46028.98
580.17	45783.22
580.33	45904.93
580.49	45811.31
580.65	46307.50
580.82	45792.58
580.98	45860.46
581.14	45647.47
581.30	46153.02
581.46	46033.66
581.62	45897.91
581.78	45837.05
581.94	46534.53
582.10	45860.46
582.26	45567.89
582.42	46089.83
582.58	45860.46
582.74	46199.83
582.90	46274.73
583.06	46014.93
583.22	46211.54
583.38	46312.18
583.54	46199.83
583.70	45956.42
583.86	46206.86
584.02	45752.79
584.18	45977.48
584.34	45801.94
584.50	46054.72
584.66	45834.71
584.82	45851.09
584.98	46368.35
585.14	46473.68
585.30	46368.35
585.46	46146.00
585.62	45404.05
585.78	45961.10
585.94	46010.25
586.10	46003.23
586.26	45558.53
586.42	46277.07
586.58	46443.25
586.74	45940.04
586.90	46003.23
587.06	46260.69
587.22	45904.93
587.38	46043.02
587.54	46256.01
587.70	46501.76
587.86	46426.87
588.02	45996.21
588.18	45961.10
588.34	45563.21
588.49	45624.06
588.65	45956.42
588.81	45474.27
588.97	46164.73
589.13	45195.74
589.29	45689.60
589.45	45818.33
589.61	45830.03
589.77	46131.96
589.93	46209.20
590.08	46476.02
