SpectraSuite Data File
++++++++++++++++++++++++++++++++++++
Date: Fri Oct 25 10:44:11 EDT 2013
User: price-jones
Dark Spectrum Present: No
Reference Spectrum Present: No
Number of Sampled Component Spectra: 1
Spectrometers: USB2+H05261
Integration Time (usec): 100000 (USB2+H05261)
Spectra Averaged: 1 (USB2+H05261)
Boxcar Smoothing: 0 (USB2+H05261)
Correct for Electrical Dark: No (USB2+H05261)
Strobe/Lamp Enabled: No (USB2+H05261)
Correct for Detector Non-linearity: No (USB2+H05261)
Correct for Stray Light: No (USB2+H05261)
Number of Pixels in Processed Spectrum: 2048
>>>>>Begin Processed Spectral Data<<<<<
365.73	142.77
365.92	142.77
366.12	142.77
366.32	28.09
366.52	14.04
366.72	0.00
366.91	53.83
367.11	0.00
367.31	14.04
367.51	37.45
367.70	0.00
367.90	4.68
368.10	2.34
368.30	0.00
368.49	28.09
368.69	23.41
368.89	49.15
369.09	63.19
369.28	105.32
369.48	77.24
369.68	32.77
369.87	79.58
370.07	112.35
370.27	142.77
370.47	184.90
370.66	362.78
370.86	308.95
371.06	386.19
371.25	388.53
371.45	491.51
371.65	552.37
371.84	407.25
372.04	416.62
372.24	496.19
372.44	486.83
372.63	397.89
372.83	493.85
373.03	463.43
373.22	585.13
373.42	585.13
373.62	554.71
373.81	535.98
374.01	608.54
374.21	603.86
374.40	526.62
374.60	617.90
374.79	566.41
374.99	585.13
375.19	585.13
375.38	594.50
375.58	543.00
375.78	578.11
375.97	601.52
376.17	615.56
376.37	601.52
376.56	613.22
376.76	568.75
376.95	568.75
377.15	627.26
377.35	620.24
377.54	613.22
377.74	678.76
377.93	683.44
378.13	702.16
378.33	629.60
378.52	683.44
378.72	671.73
378.91	704.50
379.11	622.58
379.31	697.48
379.50	655.35
379.70	753.65
379.89	774.72
380.09	685.78
380.28	681.10
380.48	688.12
380.68	697.48
380.87	650.67
381.07	582.79
381.26	713.86
381.46	704.50
381.65	655.35
381.85	662.37
382.04	753.65
382.24	805.14
382.43	645.99
382.63	709.18
382.83	777.06
383.02	798.12
383.22	748.97
383.41	674.07
383.61	713.86
383.80	823.87
384.00	765.36
384.19	767.70
384.39	828.55
384.58	870.68
384.78	767.70
384.97	891.74
385.17	786.42
385.36	777.06
385.56	849.61
385.75	718.54
385.95	807.48
386.14	851.96
386.34	828.55
386.53	901.11
386.72	777.06
386.92	901.11
387.11	891.74
387.31	835.57
387.50	798.12
387.70	854.30
387.89	901.11
388.09	873.02
388.28	851.96
388.48	891.74
388.67	898.77
388.86	912.81
389.06	980.68
389.25	936.21
389.45	1043.88
389.64	992.39
389.84	1041.54
390.03	983.02
390.22	1032.18
390.42	959.62
390.61	926.85
390.81	1053.24
391.00	1046.22
391.19	1111.75
391.39	1048.56
391.58	1064.94
391.78	1006.43
391.97	1032.18
392.16	1001.75
392.36	1048.56
392.55	1111.75
392.75	1111.75
392.94	983.02
393.13	1071.97
393.33	999.41
393.52	1078.99
393.71	1081.33
393.91	1053.24
394.10	1214.74
394.29	1128.14
394.49	1104.73
394.68	1151.54
394.88	1090.69
395.07	1233.46
395.26	1174.95
395.46	1266.23
395.65	1249.85
395.84	1233.46
396.04	1214.74
396.23	1224.10
396.42	1116.44
396.62	1294.32
396.81	1210.06
397.00	1207.72
397.19	1228.78
397.39	1296.66
397.58	1357.51
397.77	1366.87
397.97	1430.07
398.16	1413.68
398.35	1523.69
398.55	1474.54
398.74	1462.83
398.93	1490.92
399.12	1495.60
399.32	1537.73
399.51	1638.38
399.70	1600.93
399.90	1556.46
400.09	1593.90
400.28	1636.03
400.47	1563.48
400.67	1703.91
400.86	1591.56
401.05	1673.48
401.24	1673.48
401.44	1640.72
401.63	1713.27
401.82	1727.32
402.01	1633.69
402.21	1748.38
402.40	1640.72
402.59	1788.17
402.78	1682.85
402.97	1856.04
403.17	1720.29
403.36	1746.04
403.55	1851.36
403.74	1865.41
403.93	1802.21
404.13	1893.49
404.32	1797.53
404.51	1722.63
404.70	1816.26
404.89	1916.90
405.09	1959.03
405.28	1818.60
405.47	1959.03
405.66	1921.58
405.85	1998.82
406.05	1944.99
406.24	2003.50
406.43	2069.03
406.62	1968.39
406.81	2104.14
407.00	2073.71
407.20	1933.28
407.39	2008.18
407.58	2064.35
407.77	2080.74
407.96	2235.21
408.15	2232.87
408.34	2183.72
408.54	2253.94
408.73	2235.21
408.92	2204.78
409.11	2246.91
409.30	2293.72
409.49	2293.72
409.68	2298.41
409.87	2174.36
410.07	2345.22
410.26	2251.60
410.45	2443.52
410.64	2450.54
410.83	2492.67
411.02	2621.40
411.21	2471.61
411.40	2527.78
411.59	2473.95
411.78	2499.69
411.98	2647.15
412.17	2602.68
412.36	2607.36
412.55	2722.04
412.74	2539.48
412.93	2623.74
413.12	2738.43
413.31	2792.26
413.50	2778.22
413.69	2726.72
413.88	2888.22
414.07	2874.18
414.26	2977.16
414.45	3005.25
414.64	2944.39
414.83	2967.80
415.02	2981.84
415.22	3103.55
415.41	3110.57
415.60	3110.57
415.79	3145.68
415.98	3162.06
416.17	3262.71
416.36	3122.27
416.55	3141.00
416.74	3349.31
416.93	3176.11
417.12	3258.03
417.31	3265.05
417.50	3290.79
417.69	3461.65
417.88	3384.41
418.07	3431.23
418.26	3459.31
418.45	3480.38
418.64	3384.41
418.83	3517.83
419.02	3562.30
419.21	3440.59
419.39	3489.74
419.58	3496.76
419.77	3527.19
419.96	3590.38
420.15	3625.49
420.34	3735.50
420.53	3756.56
420.72	3880.61
420.91	3868.91
421.10	3887.63
421.29	3927.42
421.48	3744.86
421.67	3763.58
421.86	3880.61
422.05	3794.01
422.24	3838.48
422.43	3655.92
422.61	3911.04
422.80	3908.69
422.99	3819.75
423.18	3843.16
423.37	3918.06
423.56	3943.80
423.75	3911.04
423.94	3805.71
424.13	3698.05
424.32	3721.45
424.50	3960.19
424.69	3978.91
424.88	3934.44
425.07	3857.20
425.26	3920.40
425.45	3911.04
425.64	3950.82
425.83	4002.32
426.01	4095.94
426.20	3981.25
426.39	3974.23
426.58	3962.53
426.77	3955.51
426.96	3964.87
427.15	3962.53
427.33	4049.13
427.52	4140.41
427.71	4072.53
427.90	4121.68
428.09	4196.58
428.28	4114.66
428.46	4182.54
428.65	4077.21
428.84	4301.90
429.03	4311.27
429.22	4262.12
429.40	4203.60
429.59	4109.98
429.78	3969.55
429.97	3974.23
430.16	4109.98
430.34	4112.32
430.53	4070.19
430.72	4046.79
430.91	4231.69
431.10	4404.89
431.28	4407.23
431.47	4571.07
431.66	4685.75
431.85	4517.23
432.03	4524.26
432.22	4603.83
432.41	4615.54
432.60	4578.09
432.79	4652.98
432.97	4695.11
433.16	4683.41
433.35	4631.92
433.54	4652.98
433.72	4774.69
433.91	4695.11
434.10	4631.92
434.28	4807.46
434.47	4889.38
434.66	4837.89
434.85	4842.57
435.03	4933.85
435.22	4875.34
435.41	5158.54
435.59	4994.70
435.78	5020.45
435.97	5153.86
436.16	5214.71
436.34	5001.72
436.53	5097.69
436.72	5256.84
436.90	5163.22
437.09	5151.52
437.28	5107.05
437.46	5249.82
437.65	5259.18
437.84	5315.36
438.02	5125.77
438.21	5238.12
438.40	5198.33
438.58	5345.78
438.77	5231.10
438.96	5589.20
439.14	5469.83
439.33	5631.33
439.52	5628.99
439.70	5687.50
439.89	5561.11
440.08	5696.86
440.26	5645.37
440.45	5689.84
440.63	5809.21
440.82	5825.59
441.01	5996.45
441.19	5940.28
441.38	6043.26
441.57	5984.75
441.75	6052.63
441.94	6211.78
442.12	6345.19
442.31	6401.37
442.50	6363.92
442.68	6246.89
442.87	6193.06
443.05	6420.09
443.24	6431.79
443.43	6445.84
443.61	6494.99
443.80	6696.27
443.98	6321.79
444.17	6335.83
444.35	6410.73
444.54	6562.86
444.73	6623.72
444.91	6375.62
445.10	6647.12
445.28	6427.11
445.47	6331.15
445.65	6373.28
445.84	6450.52
446.02	6487.96
446.21	6513.71
446.39	6413.07
446.58	6761.81
446.77	6670.53
446.95	6499.67
447.14	6626.06
447.32	6649.46
447.51	6799.26
447.69	6604.99
447.88	6707.98
448.06	6773.51
448.25	6729.04
448.43	6712.66
448.62	6729.04
448.80	6628.40
448.99	6825.00
449.17	6808.62
449.36	6740.74
449.54	7115.23
449.73	7019.27
449.91	7049.69
450.10	7133.95
450.28	7087.14
450.46	7342.26
450.65	7227.57
450.83	7021.61
451.02	7159.70
451.20	7241.62
451.39	7323.54
451.57	7173.74
451.76	7152.68
451.94	7155.02
452.13	7052.03
452.31	7187.79
452.49	7208.85
452.68	7232.26
452.86	7279.07
453.05	7236.94
453.23	7241.62
453.42	7356.30
453.60	7332.90
453.78	7372.69
453.97	7232.26
454.15	7258.00
454.34	7332.90
454.52	7470.99
454.70	7405.46
454.89	7426.52
455.07	7597.38
455.26	7564.61
455.44	7772.92
455.62	7726.11
455.81	7742.49
455.99	7801.01
456.17	7850.16
456.36	7676.96
456.54	7985.91
456.73	7995.27
456.91	8278.47
457.09	8255.07
457.28	8222.30
457.46	7939.10
457.64	8187.19
457.83	8152.09
458.01	8030.38
458.19	8163.79
458.38	8112.30
458.56	8376.78
458.74	8278.47
458.93	8173.15
459.11	8259.75
459.29	8269.11
459.48	8234.00
459.66	8194.22
459.84	8547.64
460.03	8367.42
460.21	8512.53
460.39	8479.76
460.57	8390.82
460.76	8718.50
460.94	8659.98
461.12	8678.71
461.31	8629.56
461.49	8613.17
461.67	8634.24
461.85	8681.05
462.04	8704.45
462.22	8889.35
462.40	8898.72
462.59	8861.27
462.77	8772.33
462.95	8929.14
463.13	8875.31
463.32	8741.90
463.50	8863.61
463.68	8891.70
463.86	8938.51
464.05	8840.20
464.23	8662.32
464.41	9008.72
464.59	8985.32
464.78	9067.24
464.96	9020.42
465.14	9046.17
465.32	9303.63
465.50	9104.68
465.69	9301.29
465.87	9111.71
466.05	9315.33
466.23	9114.05
466.41	9259.16
466.60	9570.45
466.78	9331.72
466.96	9270.86
467.14	9226.39
467.32	9291.93
467.51	9357.46
467.69	9137.45
467.87	9451.08
468.05	9547.05
468.23	9341.08
468.41	9310.65
468.60	9451.08
468.78	9638.33
468.96	9774.08
469.14	9652.37
469.32	9795.14
469.50	9598.54
469.69	9652.37
469.87	9729.61
470.05	9804.50
470.23	9689.82
470.41	9713.22
470.59	10026.86
470.77	10012.81
470.95	9935.57
471.14	10216.44
471.32	9900.47
471.50	10256.23
471.68	10373.25
471.86	10352.19
472.04	10525.39
472.22	10452.83
472.40	10391.98
472.58	10448.15
472.77	10499.64
472.95	10595.61
473.13	10789.87
473.31	10321.76
473.49	10520.71
473.67	10616.67
473.85	10464.54
474.03	11037.97
474.21	10829.66
474.39	10909.24
474.57	11016.90
474.75	11115.20
474.93	11087.12
475.12	11061.37
475.30	11445.22
475.48	11042.65
475.66	11314.15
475.84	11365.64
476.02	11307.13
476.20	11307.13
476.38	11456.92
476.56	11709.70
476.74	11726.08
476.92	11726.08
477.10	11751.83
477.28	11735.45
477.46	12025.67
477.64	12276.11
477.82	12402.50
478.00	12683.36
478.18	12468.03
478.36	12493.78
478.54	12482.08
478.72	12676.34
478.90	12643.57
479.08	12926.78
479.26	12968.91
479.44	12896.35
479.62	13268.50
479.80	13195.94
479.98	13392.55
480.16	13708.52
480.34	13617.24
480.52	13652.34
480.70	13841.93
480.88	13607.87
481.06	13713.20
481.24	14104.07
481.41	14122.79
481.59	14457.49
481.77	14295.99
481.95	14242.16
482.13	14588.56
482.31	14738.35
482.49	14707.93
482.67	14803.89
482.85	14773.46
483.03	15080.07
483.21	15204.12
483.39	15190.08
483.57	15414.77
483.74	15398.38
483.92	15431.15
484.10	15569.24
484.28	15775.21
484.46	16231.62
484.64	16332.26
484.82	15875.85
485.00	16173.10
485.18	16416.52
485.35	16404.81
485.53	15922.66
485.71	16084.16
485.89	16547.59
486.07	16322.90
486.25	16709.08
486.43	16891.65
486.61	17041.44
486.78	17177.19
486.96	17336.35
487.14	17631.26
487.32	17715.51
487.50	18232.77
487.68	18209.37
487.85	18253.84
488.03	18340.44
488.21	18436.40
488.39	18450.44
488.57	18485.55
488.75	18883.44
488.92	18953.66
489.10	19480.28
489.28	19253.25
489.46	19398.36
489.64	19489.64
489.81	20027.96
489.99	20292.44
490.17	20194.14
490.35	20432.88
490.53	20170.74
490.70	20205.84
490.88	20404.79
491.06	20788.64
491.24	20697.36
491.41	20627.14
491.59	20971.20
491.77	20779.28
491.95	20971.20
492.13	21249.72
492.30	21743.58
492.48	21703.79
492.66	21722.51
492.84	21834.86
493.01	21949.54
493.19	22284.24
493.37	22223.39
493.54	22071.25
493.72	22214.02
493.90	22607.23
494.08	22897.46
494.25	23044.91
494.43	23047.26
494.61	23145.56
494.79	23747.08
494.96	23510.68
495.14	23854.74
495.32	23637.07
495.49	23625.37
495.67	23910.91
495.85	24091.13
496.02	23990.49
496.20	24121.56
496.38	24156.67
496.55	24329.87
496.73	25046.07
496.91	24793.29
497.09	25125.65
497.26	24802.66
497.44	24690.31
497.62	25336.30
497.79	25261.40
497.97	24943.09
498.14	25198.21
498.32	25481.41
498.50	25528.22
498.67	26164.85
498.85	26064.21
499.03	26316.98
499.20	26448.05
499.38	26164.85
499.56	26473.80
499.73	26370.82
499.91	26431.67
500.08	26544.02
500.26	26632.96
500.44	26312.30
500.61	26789.77
500.79	26263.15
500.97	26658.70
501.14	26925.52
501.32	27030.85
501.49	27033.19
501.67	27140.85
501.84	27517.68
502.02	27206.39
502.20	27798.54
502.37	27683.86
502.55	27669.81
502.72	28278.35
502.90	27864.08
503.07	27772.80
503.25	28217.50
503.43	27924.93
503.60	28215.16
503.78	28060.68
503.95	28505.38
504.13	28374.31
504.30	28591.98
504.48	28727.74
504.65	28975.83
504.83	28811.99
505.01	28856.46
505.18	29137.33
505.36	29310.53
505.53	29369.04
505.71	29624.16
505.88	29837.15
506.06	29390.11
506.23	29315.21
506.41	29518.84
506.58	29727.14
506.76	29752.89
506.93	29956.52
507.11	30057.16
507.28	30066.52
507.46	29525.86
507.63	29881.62
507.81	30153.12
507.98	29947.15
508.16	30078.22
508.33	30452.71
508.50	30859.96
508.68	31236.79
508.85	31311.69
509.03	31299.98
509.20	30998.06
509.38	31115.08
509.55	31227.43
509.73	31295.30
509.90	31248.49
510.08	31079.97
510.25	31648.72
510.42	31503.61
510.60	31805.54
510.77	31693.19
510.95	32079.38
511.12	31831.29
511.30	32044.27
511.47	32299.39
511.64	31967.04
511.82	32037.25
511.99	32196.41
512.17	32400.04
512.34	32341.52
512.51	32814.31
512.69	32697.28
512.86	32671.54
513.04	33036.66
513.21	32830.69
513.38	32701.96
513.56	32624.73
513.73	32507.70
513.90	33085.81
514.08	32952.40
514.25	33172.41
514.43	33163.05
514.60	33479.02
514.77	33181.77
514.95	33937.77
515.12	33589.03
515.29	33944.79
515.47	33879.25
515.64	33872.23
515.81	33928.41
515.99	33469.66
516.16	33881.60
516.33	33921.38
516.51	33954.15
516.68	33336.25
516.85	33530.51
517.03	33333.91
517.20	34345.02
517.37	34080.54
517.54	34438.64
517.72	34342.68
517.89	33839.47
518.06	34125.01
518.24	34190.55
518.41	34511.20
518.58	34560.35
518.75	34391.83
518.93	35040.16
519.10	34778.02
519.27	34906.75
519.45	34485.45
519.62	35318.68
519.79	35182.93
519.96	35564.44
520.14	35578.48
520.31	35124.42
520.48	35878.07
520.65	35660.40
520.83	35758.70
521.00	36055.95
521.17	36072.34
521.34	35620.61
521.52	35941.27
521.69	35952.97
521.86	36383.63
522.03	35964.67
522.20	36416.40
522.38	35971.69
522.55	36554.49
522.72	36622.36
522.89	36514.70
523.07	36636.41
523.24	36381.29
523.41	36760.45
523.58	37221.54
523.75	37205.16
523.92	37148.98
524.10	37043.66
524.27	37205.16
524.44	37359.63
524.61	37350.27
524.78	37792.63
524.96	37617.09
525.13	37544.53
525.30	37652.20
525.47	37593.68
525.64	37694.33
525.81	37888.59
525.98	37518.79
526.16	37170.05
526.33	37792.63
526.50	37668.58
526.67	37048.34
526.84	37862.85
527.01	37479.00
527.18	37790.29
527.36	38064.13
527.53	38658.63
527.70	38536.92
527.87	38780.34
528.04	38178.82
528.21	38616.50
528.38	38588.41
528.55	38883.32
528.72	38899.70
528.89	39225.04
529.07	38789.70
529.24	38749.91
529.41	38848.21
529.58	39002.69
529.75	38590.75
529.92	38909.07
530.09	39129.08
530.26	39346.75
530.43	39344.41
530.60	38960.56
530.77	38880.98
530.94	39648.68
531.11	39145.46
531.28	39466.11
531.46	39901.45
531.63	39435.69
531.80	39475.48
531.97	39754.00
532.14	39473.13
532.31	38955.88
532.48	39683.78
532.65	39555.05
532.82	39428.66
532.99	40165.93
533.16	39737.62
533.33	39889.75
533.50	39957.63
533.67	39974.01
533.84	39927.20
534.01	40512.33
534.18	39896.77
534.35	40669.15
534.52	40318.07
534.69	40704.26
534.86	40629.36
535.03	40369.56
535.20	40868.09
535.37	40603.61
535.54	40989.80
535.71	40598.93
535.88	40474.88
536.05	41151.30
536.22	40814.26
536.38	40685.53
536.55	40517.01
536.72	40769.79
536.89	41078.74
537.06	40992.14
537.23	40933.63
537.40	41333.86
537.57	40950.01
537.74	41277.69
537.91	41855.80
538.08	41200.45
538.25	41195.77
538.42	41207.47
538.59	41610.04
538.75	41050.66
538.92	41291.73
539.09	41457.91
539.26	41411.10
539.43	41226.20
539.60	41596.00
539.77	41324.50
539.94	41347.90
540.11	41268.33
540.28	41563.23
540.44	41584.30
540.61	41975.17
540.78	41635.79
540.95	41778.56
541.12	41813.67
541.29	41539.83
541.46	41844.10
541.62	41827.71
541.79	41996.23
541.96	41783.24
542.13	41764.52
542.30	41977.51
542.47	41797.29
542.63	41848.78
542.80	42007.94
542.97	42586.05
543.14	42382.42
543.31	42618.81
543.48	42410.51
543.64	42651.58
543.81	43370.13
543.98	42820.10
544.15	42843.51
544.32	42885.64
544.48	43110.33
544.65	42906.70
544.82	43033.09
544.99	42775.63
545.16	42958.19
545.32	43082.24
545.49	43185.22
545.66	43517.58
545.83	43346.72
546.00	43309.27
546.16	43475.45
546.33	43026.07
546.50	43082.24
546.67	43035.43
546.83	43079.90
547.00	43007.34
547.17	43440.34
547.34	42656.26
547.50	43269.48
547.67	43592.48
547.84	43320.98
548.00	43620.56
548.17	43976.33
548.34	43899.09
548.51	43934.20
548.67	43859.30
548.84	43826.53
549.01	44067.61
549.18	43852.28
549.34	43800.79
549.51	43761.00
549.68	44231.44
549.84	44172.93
550.01	44142.50
550.18	44278.25
550.34	44453.79
550.51	44556.78
550.68	44154.21
550.84	43643.97
551.01	44175.27
551.18	44348.47
551.34	44130.80
551.51	44095.69
551.68	44425.71
551.84	44421.03
552.01	43899.09
552.18	43894.41
552.34	44095.69
552.51	44114.42
552.68	44439.75
552.84	44467.84
553.01	44797.85
553.18	44409.32
553.34	44268.89
553.51	44151.87
553.67	44641.04
553.84	45272.98
554.01	44760.40
554.17	44617.63
554.34	44470.18
554.51	44765.09
554.67	44926.58
554.84	44772.11
555.00	44706.57
555.17	45230.85
555.33	44694.87
555.50	44802.53
555.67	44861.05
555.83	44711.25
556.00	44800.19
556.16	45109.14
556.33	45041.27
556.50	44687.85
556.66	44975.73
556.83	44758.06
556.99	45109.14
557.16	45448.52
557.32	45214.47
557.49	45584.27
557.65	44877.43
557.82	45074.04
557.98	44938.29
558.15	44914.88
558.32	45319.79
558.48	45329.16
558.65	45207.45
558.81	44968.71
558.98	44790.83
559.14	45492.99
559.31	45382.99
559.47	45228.51
559.64	45219.15
559.80	45715.34
559.97	45221.49
560.13	44722.96
560.30	45162.98
560.46	45591.30
560.63	45331.50
560.79	45574.91
560.96	45570.23
561.12	45399.37
561.29	45525.76
561.45	45425.12
561.61	45373.63
561.78	45572.57
561.94	45230.85
562.11	45345.54
562.27	45055.31
562.44	45076.38
562.60	45603.00
562.77	46045.36
562.93	45509.38
563.10	45808.96
563.26	45832.37
563.42	45713.00
563.59	45600.66
563.75	45581.93
563.92	45675.55
564.08	45408.73
564.24	46110.89
564.41	45970.46
564.57	46167.07
564.74	45265.96
564.90	45720.02
565.07	45830.03
565.23	45567.89
565.39	45268.30
565.56	45600.66
565.72	45485.97
565.88	45989.19
566.05	45797.26
566.21	45778.54
566.38	45516.40
566.54	45853.44
566.70	46019.61
566.87	46124.94
567.03	45855.78
567.19	46094.51
567.36	46031.32
567.52	46178.77
567.68	46216.22
567.85	45914.29
568.01	45993.87
568.17	45844.07
568.34	46153.02
568.50	45673.21
568.66	45989.19
568.83	45813.65
568.99	45265.96
569.15	45701.30
569.32	45918.97
569.48	45624.06
569.64	46061.74
569.81	46160.05
569.97	45801.94
570.13	45638.11
570.30	45624.06
570.46	45593.64
570.62	45659.17
570.78	45766.84
570.95	45942.38
571.11	46461.97
571.27	45535.12
571.43	46192.81
571.60	45750.45
571.76	45991.53
571.92	46045.36
572.09	45888.54
572.25	45986.85
572.41	45944.72
572.57	46106.21
572.74	46309.84
572.90	46277.07
573.06	45720.02
573.22	46253.67
573.38	46333.24
573.55	46103.87
573.71	46433.89
573.87	46230.26
574.03	45930.67
574.20	45951.74
574.36	45839.39
574.52	46162.39
574.68	46391.76
574.84	46092.17
575.01	46124.94
575.17	46131.96
575.33	46059.40
575.49	45853.44
575.65	46188.13
575.82	46134.30
575.98	46101.53
576.14	46234.94
576.30	46239.62
576.46	46066.42
576.62	45986.85
576.79	45972.80
576.95	45813.65
577.11	46155.36
577.27	46333.24
577.43	46153.02
577.59	45879.18
577.75	46003.23
577.92	45628.74
578.08	46040.68
578.24	46202.18
578.40	45968.12
578.56	46106.21
578.72	46089.83
578.88	46424.53
579.04	46611.77
579.21	45902.59
579.37	46007.91
579.53	46653.90
579.69	46117.92
579.85	46461.97
580.01	46277.07
580.17	46190.47
580.33	46515.81
580.49	46384.74
580.65	46689.01
580.82	46431.55
580.98	45923.65
581.14	46087.49
581.30	46433.89
581.46	46241.96
581.62	46387.08
581.78	46148.34
581.94	46761.56
582.10	46110.89
582.26	46532.19
582.42	46141.32
582.58	46057.06
582.74	46366.01
582.90	46749.86
583.06	46749.86
583.22	46937.10
583.38	46440.91
583.54	46394.10
583.70	46483.04
583.86	46497.08
584.02	46010.25
584.18	46637.51
584.34	46497.08
584.50	46141.32
584.66	46134.30
584.82	45846.41
584.98	46333.24
585.14	46204.52
585.30	46490.06
585.46	46377.72
585.62	46108.55
585.78	45881.52
585.94	45638.11
586.10	46057.06
586.26	46258.35
586.42	46169.41
586.58	46609.43
586.74	46082.81
586.90	46045.36
587.06	46347.29
587.22	46398.78
587.38	46031.32
587.54	46429.21
587.70	46216.22
587.86	46178.77
588.02	46071.10
588.18	46576.66
588.34	46115.58
588.49	46181.11
588.65	45565.55
588.81	45928.33
588.97	46305.16
589.13	45467.25
589.29	45844.07
589.45	46092.17
589.61	46012.59
589.77	46387.08
589.93	46539.21
