SpectraSuite Data File
++++++++++++++++++++++++++++++++++++
Date: Fri Oct 25 11:33:15 EDT 2013
User: price-jones
Dark Spectrum Present: No
Reference Spectrum Present: No
Number of Sampled Component Spectra: 1
Spectrometers: USB2+H05261
Integration Time (usec): 100000 (USB2+H05261)
Spectra Averaged: 1 (USB2+H05261)
Boxcar Smoothing: 0 (USB2+H05261)
Correct for Electrical Dark: No (USB2+H05261)
Strobe/Lamp Enabled: No (USB2+H05261)
Correct for Detector Non-linearity: No (USB2+H05261)
Correct for Stray Light: No (USB2+H05261)
Number of Pixels in Processed Spectrum: 2048
>>>>>Begin Processed Spectral Data<<<<<
365.73	301.93
365.92	301.93
366.12	301.93
366.32	177.88
366.52	215.33
366.72	189.58
366.91	168.52
367.11	252.78
367.31	114.69
367.51	159.16
367.70	191.92
367.90	208.31
368.10	187.24
368.30	175.54
368.49	168.52
368.69	180.22
368.89	110.01
369.09	147.45
369.28	245.76
369.48	138.09
369.68	191.92
369.87	299.59
370.07	252.78
370.27	341.72
370.47	308.95
370.66	482.15
370.86	578.11
371.06	470.45
371.25	587.47
371.45	571.09
371.65	582.79
371.84	580.45
372.04	552.37
372.24	592.16
372.44	580.45
372.63	603.86
372.83	599.18
373.03	582.79
373.22	683.44
373.42	603.86
373.62	608.54
373.81	657.69
374.01	543.00
374.21	718.54
374.40	608.54
374.60	664.71
374.79	667.05
374.99	627.26
375.19	589.82
375.38	568.75
375.58	594.50
375.78	737.27
375.97	669.39
376.17	791.10
376.37	653.01
376.56	683.44
376.76	704.50
376.95	627.26
377.15	653.01
377.35	638.97
377.54	732.59
377.74	599.18
377.93	674.07
378.13	725.57
378.33	636.63
378.52	683.44
378.72	685.78
378.91	697.48
379.11	718.54
379.31	671.73
379.50	653.01
379.70	727.91
379.89	706.84
380.09	669.39
380.28	727.91
380.48	720.88
380.68	688.12
380.87	716.20
381.07	741.95
381.26	784.08
381.46	751.31
381.65	767.70
381.85	793.44
382.04	779.40
382.24	798.12
382.43	758.33
382.63	746.63
382.83	844.93
383.02	844.93
383.22	863.66
383.41	795.78
383.61	793.44
383.80	866.00
384.00	837.91
384.19	805.14
384.39	821.53
384.58	798.12
384.78	891.74
384.97	800.46
385.17	711.52
385.36	807.48
385.56	873.02
385.75	807.48
385.95	826.21
386.14	854.30
386.34	779.40
386.53	828.55
386.72	842.59
386.92	908.13
387.11	868.34
387.31	889.40
387.50	868.34
387.70	903.45
387.89	968.98
388.09	866.00
388.28	905.79
388.48	898.77
388.67	908.13
388.86	898.77
389.06	905.79
389.25	931.53
389.45	926.85
389.64	903.45
389.84	978.34
390.03	1011.11
390.22	1027.50
390.42	992.39
390.61	961.96
390.81	954.94
391.00	1006.43
391.19	947.92
391.39	1057.92
391.58	1025.15
391.78	1008.77
391.97	1041.54
392.16	1076.65
392.36	1146.86
392.55	1088.35
392.75	1100.05
392.94	1053.24
393.13	1076.65
393.33	1074.31
393.52	1093.03
393.71	1123.46
393.91	1064.94
394.10	1090.69
394.29	1057.92
394.49	1153.88
394.68	1151.54
394.88	1036.86
395.07	1153.88
395.26	1193.67
395.46	1181.97
395.65	1207.72
395.84	1196.01
396.04	1214.74
396.23	1191.33
396.42	1165.59
396.62	1196.01
396.81	1217.08
397.00	1203.04
397.19	1137.50
397.39	1198.35
397.58	1174.95
397.77	1200.69
397.97	1287.29
398.16	1277.93
398.35	1266.23
398.55	1268.57
398.74	1345.81
398.93	1413.68
399.12	1320.06
399.32	1366.87
399.51	1310.70
399.70	1455.81
399.90	1359.85
400.09	1350.49
400.28	1423.05
400.47	1383.26
400.67	1469.86
400.86	1406.66
401.05	1469.86
401.24	1423.05
401.44	1453.47
401.63	1474.54
401.82	1533.05
402.01	1453.47
402.21	1418.36
402.40	1500.28
402.59	1486.24
402.78	1479.22
402.97	1563.48
403.17	1565.82
403.36	1554.12
403.55	1511.99
403.74	1680.50
403.93	1631.35
404.13	1598.59
404.32	1582.20
404.51	1621.99
404.70	1664.12
404.89	1603.27
405.09	1659.44
405.28	1631.35
405.47	1743.70
405.66	1696.89
405.85	1762.42
406.05	1671.14
406.24	1666.46
406.43	1785.83
406.62	1813.92
406.81	1837.32
407.00	1842.00
407.20	1760.08
407.39	1757.74
407.58	1834.98
407.77	1895.83
407.96	1944.99
408.15	1912.22
408.34	1853.70
408.54	1849.02
408.73	1912.22
408.92	2012.86
409.11	1921.58
409.30	1937.96
409.49	1928.60
409.68	2026.90
409.87	2064.35
410.07	2057.33
410.26	1996.48
410.45	2094.78
410.64	2008.18
410.83	2148.61
411.02	2026.90
411.21	2160.31
411.40	2204.78
411.59	2204.78
411.78	2148.61
411.98	2153.29
412.17	2246.91
412.36	2317.13
412.55	2485.65
412.74	2452.88
412.93	2340.54
413.12	2377.98
413.31	2457.56
413.50	2516.08
413.69	2368.62
413.88	2539.48
414.07	2485.65
414.26	2544.16
414.45	2541.82
414.64	2466.92
414.83	2663.53
415.02	2581.61
415.22	2679.91
415.41	2602.68
415.60	2686.94
415.79	2729.06
415.98	2761.83
416.17	2684.59
416.36	2834.39
416.55	2752.47
416.74	2801.62
416.93	2820.35
417.12	2935.03
417.31	2942.05
417.50	2930.35
417.69	2993.55
417.88	3026.31
418.07	2825.03
418.26	2960.78
418.45	3033.33
418.64	3176.11
418.83	3150.36
419.02	3087.17
419.21	3185.47
419.39	3171.43
419.58	3185.47
419.77	2960.78
419.96	3136.32
420.15	3122.27
420.34	3253.34
420.53	3124.62
420.72	3337.60
420.91	3297.81
421.10	3325.90
421.29	3344.63
421.48	3346.97
421.67	3307.18
421.86	3293.13
422.05	3213.56
422.24	3262.71
422.43	3386.76
422.61	3405.48
422.80	3421.86
422.99	3288.45
423.18	3461.65
423.37	3478.04
423.56	3475.70
423.75	3255.69
423.94	3370.37
424.13	3260.37
424.32	3309.52
424.50	3391.44
424.69	3562.30
424.88	3494.42
425.07	3407.82
425.26	3396.12
425.45	3478.04
425.64	3501.44
425.83	3438.25
426.01	3431.23
426.20	3499.10
426.39	3522.51
426.58	3421.86
426.77	3459.31
426.96	3581.02
427.15	3524.85
427.33	3646.55
427.52	3522.51
427.71	3674.64
427.90	3653.58
428.09	3796.35
428.28	3763.58
428.46	3651.24
428.65	3639.53
428.84	3758.90
429.03	3878.27
429.22	3595.06
429.40	3819.75
429.59	3850.18
429.78	3714.43
429.97	3662.94
430.16	3880.61
430.34	3866.56
430.53	3847.84
430.72	3997.64
430.91	3861.88
431.10	3777.62
431.28	3927.42
431.47	4004.66
431.66	4100.62
431.85	3941.46
432.03	4056.15
432.22	4107.64
432.41	4086.58
432.60	4156.79
432.79	4077.21
432.97	4093.60
433.16	4161.47
433.35	4133.39
433.54	4348.72
433.72	4175.52
433.91	4252.75
434.10	4301.90
434.28	4262.12
434.47	4280.84
434.66	4337.01
434.85	4355.74
435.03	4414.25
435.22	4374.46
435.41	4444.68
435.59	4489.15
435.78	4355.74
435.97	4388.50
436.16	4276.16
436.34	4496.17
436.53	4512.55
436.72	4606.17
436.90	4479.79
437.09	4557.02
437.28	4383.82
437.46	4432.97
437.65	4601.49
437.84	4688.09
438.02	4538.30
438.21	4627.24
438.40	4695.11
438.58	4645.96
438.77	4889.38
438.96	4922.15
439.14	4800.44
439.33	4868.31
439.52	5025.13
439.70	4968.96
439.89	5076.62
440.08	5128.11
440.26	5137.48
440.45	5001.72
440.63	5142.16
440.82	5149.18
441.01	5247.48
441.19	5359.83
441.38	5249.82
441.57	5233.44
441.75	5207.69
441.94	5558.77
442.12	5437.06
442.31	5458.13
442.50	5549.41
442.68	5439.40
442.87	5322.38
443.05	5462.81
443.24	5638.35
443.43	5600.90
443.61	5638.35
443.80	5816.23
443.98	5561.11
444.17	5284.93
444.35	5741.33
444.54	5731.97
444.73	5502.60
444.91	5696.86
445.10	5771.76
445.28	5750.70
445.47	5724.95
445.65	5741.33
445.84	5650.05
446.02	5785.80
446.21	5685.16
446.39	5804.53
446.58	5731.97
446.77	5809.21
446.95	5668.78
447.14	5734.31
447.32	5722.61
447.51	5841.98
447.69	5870.06
447.88	5802.19
448.06	5701.54
448.25	5935.60
448.43	5865.38
448.62	5928.58
448.80	5823.25
448.99	6057.31
449.17	6012.84
449.36	5881.77
449.54	6099.44
449.73	6094.76
449.91	6087.73
450.10	6193.06
450.28	6099.44
450.46	6146.25
450.65	6209.44
450.83	6108.80
451.02	6085.39
451.20	6377.96
451.39	6136.88
451.57	6197.74
451.76	6083.05
451.94	6104.12
452.13	6361.58
452.31	6523.07
452.49	6319.45
452.68	6359.24
452.86	6424.77
453.05	6576.91
453.23	6520.73
453.42	6366.26
453.60	6321.79
453.78	6541.80
453.97	6361.58
454.15	6576.91
454.34	6413.07
454.52	6616.69
454.70	6649.46
454.89	6696.27
455.07	6684.57
455.26	6715.00
455.44	6895.22
455.62	6881.18
455.81	6637.76
455.99	6743.08
456.17	6736.06
456.36	6820.32
456.54	6974.80
456.73	6956.07
456.91	7159.70
457.09	6993.52
457.28	7040.33
457.46	6850.75
457.64	7145.66
457.83	7136.29
458.01	7157.36
458.19	7248.64
458.38	7131.61
458.56	7365.67
458.74	7279.07
458.93	7187.79
459.11	7419.50
459.29	7328.22
459.48	7431.20
459.66	7368.01
459.84	7353.96
460.03	7604.40
460.21	7307.15
460.39	7358.64
460.57	7723.77
460.76	7510.78
460.94	7630.15
461.12	7768.24
461.31	7625.47
461.49	7478.01
461.67	7655.89
461.85	7655.89
462.04	7597.38
462.22	8156.77
462.40	7889.95
462.59	7808.03
462.77	7852.50
462.95	7861.86
463.13	7749.51
463.32	7798.66
463.50	7932.08
463.68	7861.86
463.86	7868.88
464.05	7920.37
464.23	7885.26
464.41	8004.63
464.59	7749.51
464.78	8135.70
464.96	8013.99
465.14	8037.40
465.32	8006.97
465.50	8154.43
465.69	8322.94
465.87	8128.68
466.05	8318.26
466.23	8219.96
466.41	8210.60
466.60	8496.14
466.78	8381.46
466.96	8287.84
467.14	8135.70
467.32	8219.96
467.51	8393.16
467.69	8112.30
467.87	8388.48
468.05	8505.51
468.23	8327.63
468.41	8418.91
468.60	8454.02
468.78	8554.66
468.96	8454.02
469.14	8671.68
469.32	8549.98
469.50	8489.12
469.69	8690.41
469.87	8898.72
470.05	8924.46
470.23	8865.95
470.41	8858.93
470.59	8982.98
470.77	8849.57
470.95	8812.12
471.14	9081.28
471.32	8975.95
471.50	9104.68
471.68	9020.42
471.86	9046.17
472.04	9322.35
472.22	9507.26
472.40	9249.80
472.58	9359.80
472.77	9392.57
472.95	9530.66
473.13	9811.53
473.31	9366.82
473.49	9544.70
473.67	9434.70
473.85	9652.37
474.03	9769.40
474.21	9689.82
474.39	9942.60
474.57	9841.95
474.75	10050.26
474.93	10068.98
475.12	10132.18
475.30	10038.56
475.48	9989.41
475.66	10232.82
475.84	10317.08
476.02	10314.74
476.20	10237.50
476.38	10448.15
476.56	10757.10
476.74	10773.49
476.92	10775.83
477.10	10516.03
477.28	10808.59
477.46	10714.97
477.64	10937.32
477.82	11185.42
478.00	11318.83
478.18	11206.48
478.36	11344.58
478.54	11438.20
478.72	11379.68
478.90	11815.02
479.08	11707.36
479.26	11730.76
479.44	11985.88
479.62	11859.49
479.80	12168.45
479.98	12058.44
480.16	12549.95
480.34	12421.22
480.52	12283.13
480.70	12180.15
480.88	12285.47
481.06	12386.12
481.24	12458.67
481.41	12877.63
481.59	12786.35
481.77	13041.46
481.95	12812.09
482.13	13312.97
482.31	12964.23
482.49	13425.31
482.67	13514.25
482.85	13745.97
483.03	13605.53
483.21	13760.01
483.39	13921.51
483.57	13844.27
483.74	14104.07
483.92	14090.02
484.10	14101.73
484.28	14239.82
484.46	14516.00
484.64	14766.44
484.82	14764.10
485.00	14668.14
485.18	14939.64
485.35	15363.28
485.53	15229.87
485.71	15250.93
485.89	15550.52
486.07	15407.75
486.25	15632.44
486.43	15637.12
486.61	15920.32
486.78	16226.93
486.96	16100.55
487.14	16421.20
487.32	16311.19
487.50	16596.74
487.68	16540.57
487.85	16652.91
488.03	16744.19
488.21	17200.60
488.39	17088.25
488.57	17439.33
488.75	17404.22
488.92	17497.84
489.10	17717.86
489.28	17682.75
489.46	17987.02
489.64	18071.28
489.81	18307.67
489.99	18347.46
490.17	18499.59
490.35	18576.83
490.53	18731.31
490.70	18892.80
490.88	18794.50
491.06	19051.96
491.24	19124.52
491.41	19412.40
491.59	19440.49
491.77	19199.41
491.95	19803.27
492.13	19957.75
492.30	19922.64
492.48	19461.55
492.66	20154.35
492.84	20332.23
493.01	20416.49
493.19	20301.81
493.37	20397.77
493.54	20678.63
493.72	20760.55
493.90	20589.69
494.08	20926.73
494.25	21071.84
494.43	21193.55
494.61	21366.75
494.79	21315.26
494.96	21333.98
495.14	21682.72
495.32	21930.82
495.49	21986.99
495.67	22324.03
495.85	22036.14
496.02	22651.70
496.20	22408.29
496.38	22808.52
496.55	22530.00
496.73	23185.35
496.91	22696.17
497.09	22787.46
497.26	23133.86
497.44	23190.03
497.62	23304.71
497.79	23616.01
497.97	23513.02
498.14	23665.16
498.32	23917.93
498.50	23946.02
498.67	24224.54
498.85	24360.30
499.03	24269.01
499.20	24678.61
499.38	24514.77
499.56	24748.82
499.73	24704.35
499.91	25048.41
500.08	25081.18
500.26	25191.19
500.44	24847.13
500.61	25167.78
500.79	24989.90
500.97	25364.39
501.14	25809.09
501.32	25633.55
501.49	25579.71
501.67	25715.47
501.84	25701.42
502.02	25947.18
502.20	26052.50
502.37	26291.24
502.55	26061.87
502.72	26338.05
502.90	26377.84
503.07	26190.59
503.25	26391.88
503.43	26242.09
503.60	26632.96
503.78	26888.07
503.95	26852.97
504.13	26782.75
504.30	27051.91
504.48	26771.05
504.65	27129.15
504.83	27175.96
505.01	27639.39
505.18	27683.86
505.36	27917.91
505.53	27517.68
505.71	27651.09
505.88	27702.58
506.06	27494.27
506.23	27950.68
506.41	27903.87
506.58	27725.99
506.76	28119.20
506.93	28336.87
507.11	28322.82
507.28	28566.24
507.46	28526.45
507.63	28823.70
507.81	28758.16
507.98	28669.22
508.16	28481.98
508.33	29003.92
508.50	29181.80
508.68	28954.77
508.85	29226.27
509.03	29345.64
509.20	29481.39
509.38	29670.97
509.55	29420.53
509.73	29680.33
509.90	29483.73
510.08	29579.69
510.25	29371.38
510.42	29626.50
510.60	30155.46
510.77	30167.16
510.95	30267.81
511.12	30099.29
511.30	30125.04
511.47	30452.71
511.64	30389.52
511.82	31161.89
511.99	30394.20
512.17	30801.45
512.34	30630.59
512.51	30951.24
512.69	31044.87
512.86	31248.49
513.04	31409.99
513.21	31124.44
513.38	31063.59
513.56	31613.62
513.73	31519.99
513.90	31363.18
514.08	31440.42
514.25	31686.17
514.43	31992.78
514.60	31833.63
514.77	31716.60
514.95	32156.62
515.12	31948.31
515.29	32170.66
515.47	32271.31
515.64	32486.64
515.81	32240.88
515.99	32133.21
516.16	32627.07
516.33	32793.25
516.51	33034.32
516.68	32737.07
516.85	32610.68
517.03	33067.09
517.20	33380.72
517.37	32699.62
517.54	33345.61
517.72	33167.73
517.89	32879.85
518.06	33607.75
518.24	33235.61
518.41	33553.92
518.58	33317.53
518.75	33097.52
518.93	33717.76
519.10	33780.95
519.27	33806.70
519.45	34209.27
519.62	34251.40
519.79	34029.05
519.96	33532.86
520.14	34342.68
520.31	34284.17
520.48	34146.08
520.65	34061.82
520.83	34881.00
521.00	35030.80
521.17	34941.86
521.34	35138.46
521.52	34850.58
521.69	35014.41
521.86	35248.47
522.03	34976.97
522.20	35122.08
522.38	35337.41
522.55	35641.68
522.72	35173.57
522.89	35384.22
523.07	35349.11
523.24	35477.84
523.41	35826.58
523.58	35709.55
523.75	36151.91
523.92	35702.53
524.10	35735.30
524.27	36116.81
524.44	36074.68
524.61	36582.57
524.78	35978.72
524.96	36297.03
525.13	36402.35
525.30	36659.81
525.47	36411.71
525.64	36140.21
525.81	36910.25
525.98	36898.55
526.16	36975.78
526.33	36706.62
526.50	36879.82
526.67	36713.64
526.84	36428.10
527.01	36884.50
527.18	36802.58
527.36	37361.97
527.53	37457.93
527.70	37139.62
527.87	37633.47
528.04	37565.60
528.21	37757.52
528.38	37493.04
528.55	37535.17
528.72	37589.00
528.89	37764.54
529.07	37383.04
529.24	37486.02
529.41	37839.44
529.58	37591.34
529.75	38345.00
529.92	38256.06
530.09	38480.75
530.26	37846.46
530.43	37862.85
530.60	37989.24
530.77	38033.71
530.94	38291.16
531.11	38117.96
531.28	38408.19
531.46	38396.49
531.63	38429.26
531.80	38738.21
531.97	38466.70
532.14	38756.93
532.31	38766.29
532.48	38958.22
532.65	38967.58
532.82	38913.75
532.99	38689.06
533.16	38902.04
533.33	39199.29
533.50	39260.15
533.67	39152.48
533.84	38820.13
534.01	39154.82
534.18	38974.60
534.35	39906.13
534.52	39248.44
534.69	39510.58
534.86	39658.04
535.03	39447.39
535.20	40135.51
535.37	39885.07
535.54	40055.93
535.71	39796.13
535.88	40203.38
536.05	39784.43
536.22	39824.22
536.38	40060.61
536.55	39992.73
536.72	39978.69
536.89	40463.18
537.06	40222.11
537.23	40617.66
537.40	39990.39
537.57	40058.27
537.74	40011.46
537.91	40802.56
538.08	40985.12
538.25	40311.05
538.42	40449.14
538.59	40947.67
538.75	40999.16
538.92	41020.23
539.09	41060.02
539.26	40694.89
539.43	41048.32
539.60	41081.08
539.77	40933.63
539.94	41345.56
540.11	41263.64
540.28	41022.57
540.44	41097.47
540.61	41249.60
540.78	40790.86
540.95	41350.24
541.12	41570.25
541.29	41118.53
541.46	41373.65
541.62	41450.89
541.79	42038.36
541.96	41375.99
542.13	41563.23
542.30	41443.87
542.47	41539.83
542.63	41993.89
542.80	42057.09
542.97	41895.59
543.14	42440.93
543.31	42117.94
543.48	42036.02
543.64	42401.14
543.81	42527.53
543.98	42185.82
544.15	42410.51
544.32	42363.70
544.48	43016.71
544.65	42923.08
544.82	42684.35
544.99	42354.33
545.16	42972.24
545.32	42682.01
545.49	42993.30
545.66	43372.47
545.83	43086.92
546.00	43206.29
546.16	42646.90
546.33	42946.49
546.50	42941.81
546.67	43292.89
546.83	42848.19
547.00	43040.11
547.17	42759.25
547.34	42911.38
547.50	43295.23
547.67	43716.53
547.84	43564.39
548.00	43423.96
548.17	43540.99
548.34	43746.95
548.51	43576.09
548.67	44140.16
548.84	43686.10
549.01	43952.92
549.18	43550.35
549.34	44194.00
549.51	43662.69
549.68	43690.78
549.84	43906.11
550.01	43852.28
550.18	43831.21
550.34	43709.50
550.51	44172.93
550.68	44172.93
550.84	43779.72
551.01	44133.14
551.18	43936.54
551.34	44210.38
551.51	44144.84
551.68	44428.05
551.84	44161.23
552.01	43819.51
552.18	44610.61
552.34	44273.57
552.51	44367.20
552.68	43854.62
552.84	44278.25
553.01	44601.25
553.18	44374.22
553.34	44495.92
553.51	44708.91
553.67	44603.59
553.84	44954.67
554.01	44505.29
554.17	44814.24
554.34	45195.74
554.51	44919.56
554.67	44966.37
554.84	45212.13
555.00	44971.05
555.17	44903.18
555.33	44982.76
555.50	45207.45
555.67	45038.93
555.83	45319.79
556.00	44896.16
556.16	45354.90
556.33	45495.33
556.50	45354.90
556.66	45301.07
556.83	44879.77
556.99	45310.43
557.16	45965.78
557.32	45588.95
557.49	45879.18
557.65	45265.96
557.82	45488.31
557.98	45193.40
558.15	45982.16
558.32	45617.04
558.48	45354.90
558.65	45205.11
558.81	45923.65
558.98	45448.52
559.14	45474.27
559.31	45628.74
559.47	45633.42
559.64	46150.68
559.80	45343.20
559.97	46012.59
560.13	45556.19
560.30	45572.57
560.46	45958.76
560.63	46506.44
560.79	46087.49
560.96	46529.85
561.12	46089.83
561.29	46174.09
561.45	46176.43
561.61	45996.21
561.78	46164.73
561.94	45680.24
562.11	46059.40
562.27	46370.69
562.44	46038.34
562.60	46150.68
562.77	46616.45
562.93	46202.18
563.10	46476.02
563.26	46117.92
563.42	46445.59
563.59	45940.04
563.75	46335.59
563.92	46312.18
564.08	46354.31
564.24	46424.53
564.41	46410.48
564.57	46513.47
564.74	46347.29
564.90	46499.42
565.07	46064.08
565.23	46047.70
565.39	46513.47
565.56	46902.00
565.72	46150.68
565.88	46560.28
566.05	46665.60
566.21	46609.43
566.38	46499.42
566.54	46602.41
566.70	46934.76
566.87	46876.25
567.03	46600.07
567.19	46618.79
567.36	46717.09
567.52	46560.28
567.68	47220.31
567.85	46637.51
568.01	47290.52
568.17	46674.96
568.34	47009.66
568.50	46969.87
568.66	47201.58
568.83	46845.82
568.99	46731.14
569.15	46953.49
569.32	47154.77
569.48	46955.83
569.64	47459.04
569.81	47229.67
569.97	47117.32
570.13	47477.77
570.30	47033.07
570.46	47243.71
570.62	47054.13
570.78	46972.21
570.95	47007.32
571.11	47119.66
571.27	46887.95
571.43	47145.41
571.60	47276.48
571.76	46721.77
571.92	47323.29
572.09	46883.27
572.25	46946.47
572.41	47154.77
572.57	47068.17
572.74	47519.90
572.90	47054.13
573.06	47332.65
573.22	47143.07
573.38	47356.06
573.55	47538.62
573.71	47489.47
573.87	47744.59
574.03	47505.85
574.20	47379.46
574.36	47138.39
574.52	47789.06
574.68	47239.03
574.84	47821.83
575.01	47157.11
575.17	47564.37
575.33	47412.23
575.49	47480.11
575.65	47346.70
575.82	47555.00
575.98	47049.45
576.14	47838.21
576.30	47746.93
576.46	47491.81
576.62	47323.29
576.79	47262.44
576.95	47199.24
577.11	47187.54
577.27	47463.72
577.43	47299.89
577.59	47501.17
577.75	47316.27
577.92	46955.83
578.08	47054.13
578.24	47243.71
578.40	47545.64
578.56	47374.78
578.72	47707.14
578.88	47681.39
579.04	47786.72
579.21	47311.59
579.37	47309.25
579.53	47831.19
579.69	47470.75
579.85	47798.42
580.01	47522.24
580.17	47306.91
580.33	47753.95
580.49	47615.86
580.65	47351.38
580.82	47119.66
580.98	47304.57
581.14	47660.33
581.30	47688.42
581.46	47540.96
581.62	47721.18
581.78	47723.52
581.94	48076.94
582.10	47398.19
582.26	47723.52
582.42	48041.84
582.58	47920.13
582.74	47515.22
582.90	47817.14
583.06	47730.54
583.22	47545.64
583.38	47732.89
583.54	48177.59
583.70	47697.78
583.86	47868.64
584.02	47545.64
584.18	47943.53
584.34	47784.38
584.50	47767.99
584.66	47681.39
584.82	47924.81
584.98	48020.77
585.14	48072.26
585.30	47229.67
585.46	47585.43
585.62	47421.59
585.78	47838.21
585.94	47753.95
586.10	47552.66
586.26	47569.05
586.42	47618.20
586.58	47915.45
586.74	47852.25
586.90	48083.97
587.06	47959.92
587.22	47922.47
587.38	47646.29
587.54	47910.77
587.70	48477.18
587.86	47943.53
588.02	47700.12
588.18	47655.65
588.34	48020.77
588.49	47817.14
588.65	47903.74
588.81	47913.11
588.97	47767.99
589.13	47784.38
589.29	47945.87
589.45	48409.30
589.61	48107.37
589.77	48041.84
589.93	47936.51
