SpectraSuite Data File
++++++++++++++++++++++++++++++++++++
Date: Fri Oct 25 11:23:16 EDT 2013
User: price-jones
Dark Spectrum Present: No
Reference Spectrum Present: No
Number of Sampled Component Spectra: 1
Spectrometers: USB2+H05261
Integration Time (usec): 100000 (USB2+H05261)
Spectra Averaged: 1 (USB2+H05261)
Boxcar Smoothing: 0 (USB2+H05261)
Correct for Electrical Dark: No (USB2+H05261)
Strobe/Lamp Enabled: No (USB2+H05261)
Correct for Detector Non-linearity: No (USB2+H05261)
Correct for Stray Light: No (USB2+H05261)
Number of Pixels in Processed Spectrum: 2048
>>>>>Begin Processed Spectral Data<<<<<
365.73	252.78
365.92	252.78
366.12	252.78
366.32	131.07
366.52	102.98
366.72	212.99
366.91	77.24
367.11	128.73
367.31	117.03
367.51	112.35
367.70	140.43
367.90	119.37
368.10	140.43
368.30	168.52
368.49	196.60
368.69	135.75
368.89	173.20
369.09	184.90
369.28	170.86
369.48	149.79
369.68	140.43
369.87	170.86
370.07	182.56
370.27	220.01
370.47	355.76
370.66	519.60
370.86	627.26
371.06	655.35
371.25	683.44
371.45	629.60
371.65	681.10
371.84	650.67
372.04	739.61
372.24	753.65
372.44	746.63
372.63	763.01
372.83	716.20
373.03	737.27
373.22	660.03
373.42	746.63
373.62	772.38
373.81	758.33
374.01	791.10
374.21	791.10
374.40	744.29
374.60	779.40
374.79	830.89
374.99	791.10
375.19	875.36
375.38	837.91
375.58	793.44
375.78	795.78
375.97	844.93
376.17	880.04
376.37	842.59
376.56	875.36
376.76	880.04
376.95	887.06
377.15	877.70
377.35	922.17
377.54	844.93
377.74	896.43
377.93	940.90
378.13	933.87
378.33	919.83
378.52	947.92
378.72	905.79
378.91	908.13
379.11	884.72
379.31	912.81
379.50	917.49
379.70	1076.65
379.89	959.62
380.09	950.26
380.28	1036.86
380.48	1013.45
380.68	947.92
380.87	936.21
381.07	1006.43
381.26	999.41
381.46	983.02
381.65	1046.22
381.85	1053.24
382.04	1064.94
382.24	1062.60
382.43	1015.79
382.63	1167.93
382.83	1039.20
383.02	1158.57
383.22	1111.75
383.41	1132.82
383.61	1081.33
383.80	1132.82
384.00	1163.25
384.19	1046.22
384.39	1219.42
384.58	1114.10
384.78	1128.14
384.97	1165.59
385.17	1107.07
385.36	1196.01
385.56	1193.67
385.75	1149.20
385.95	1235.80
386.14	1301.34
386.34	1104.73
386.53	1156.22
386.72	1128.14
386.92	1170.27
387.11	1214.74
387.31	1224.10
387.50	1266.23
387.70	1327.08
387.89	1303.68
388.09	1277.93
388.28	1310.70
388.48	1303.68
388.67	1380.92
388.86	1259.21
389.06	1249.85
389.25	1418.36
389.45	1385.60
389.64	1359.85
389.84	1416.02
390.03	1366.87
390.22	1455.81
390.42	1287.29
390.61	1444.11
390.81	1486.24
391.00	1511.99
391.19	1486.24
391.39	1420.71
391.58	1516.67
391.78	1530.71
391.97	1537.73
392.16	1451.13
392.36	1565.82
392.55	1526.03
392.75	1490.92
392.94	1535.39
393.13	1563.48
393.33	1474.54
393.52	1500.28
393.71	1582.20
393.91	1577.52
394.10	1582.20
394.29	1753.06
394.49	1610.29
394.68	1563.48
394.88	1643.06
395.07	1631.35
395.26	1647.74
395.46	1624.33
395.65	1680.50
395.84	1699.23
396.04	1830.30
396.23	1795.19
396.42	1778.81
396.62	1856.04
396.81	1809.23
397.00	1872.43
397.19	1900.52
397.39	1853.70
397.58	1916.90
397.77	1832.64
397.97	1809.23
398.16	1853.70
398.35	1916.90
398.55	1785.83
398.74	1954.35
398.93	1987.11
399.12	1933.28
399.32	1846.68
399.51	1982.43
399.70	1987.11
399.90	1961.37
400.09	2033.93
400.28	2057.33
400.47	2040.95
400.67	2106.48
400.86	2076.06
401.05	2010.52
401.24	2125.21
401.44	2176.70
401.63	2118.18
401.82	2237.55
402.01	2148.61
402.21	2174.36
402.40	2118.18
402.59	2251.60
402.78	2139.25
402.97	2193.08
403.17	2260.96
403.36	2335.85
403.55	2389.69
403.74	2382.67
403.93	2406.07
404.13	2256.28
404.32	2420.11
404.51	2410.75
404.70	2473.95
404.89	2462.24
405.09	2408.41
405.28	2490.33
405.47	2464.58
405.66	2445.86
405.85	2572.25
406.05	2469.27
406.24	2583.95
406.43	2434.16
406.62	2644.81
406.81	2612.04
407.00	2539.48
407.20	2661.19
407.39	2527.78
407.58	2818.00
407.77	2644.81
407.96	2719.70
408.15	2679.91
408.34	2705.66
408.54	2843.75
408.73	2825.03
408.92	2818.00
409.11	2853.11
409.30	2932.69
409.49	2899.92
409.68	2923.33
409.87	2916.31
410.07	2956.10
410.26	3030.99
410.45	2949.08
410.64	2958.44
410.83	3045.04
411.02	3094.19
411.21	3136.32
411.40	3262.71
411.59	3258.03
411.78	3438.25
411.98	3234.62
412.17	3323.56
412.36	3300.16
412.55	3234.62
412.74	3442.93
412.93	3473.36
413.12	3400.80
413.31	3543.57
413.50	3454.63
413.69	3503.78
413.88	3599.74
414.07	3613.79
414.26	3674.64
414.45	3676.98
414.64	3723.79
414.83	3742.52
415.02	3798.69
415.22	3784.65
415.41	3843.16
415.60	3906.35
415.79	4021.04
415.98	3997.64
416.17	3955.51
416.36	4014.02
416.55	3964.87
416.74	4133.39
416.93	4063.17
417.12	4224.67
417.31	4187.22
417.50	4329.99
417.69	4329.99
417.88	4430.63
418.07	4238.71
418.26	4241.05
418.45	4334.67
418.64	4629.58
418.83	4430.63
419.02	4447.02
419.21	4627.24
419.39	4550.00
419.58	4580.43
419.77	4484.47
419.96	4699.80
420.15	4531.28
420.34	4692.77
420.53	4648.30
420.72	4737.24
420.91	4835.55
421.10	4767.67
421.29	4844.91
421.48	4793.42
421.67	4844.91
421.86	4931.51
422.05	4868.31
422.24	4868.31
422.43	4875.34
422.61	5095.35
422.80	5025.13
422.99	4980.66
423.18	4999.38
423.37	5055.56
423.56	4961.94
423.75	4807.46
423.94	4950.23
424.13	4652.98
424.32	4882.36
424.50	5062.58
424.69	5188.97
424.88	5067.26
425.07	4983.00
425.26	4816.82
425.45	4940.87
425.64	4891.72
425.83	4968.96
426.01	5188.97
426.20	5217.05
426.39	5137.48
426.58	5088.32
426.77	5174.92
426.96	5163.22
427.15	5184.29
427.33	5170.24
427.52	5071.94
427.71	5338.76
427.90	5125.77
428.09	5352.81
428.28	5327.06
428.46	5406.64
428.65	5249.82
428.84	5610.26
429.03	5551.75
429.22	5406.64
429.40	5643.03
429.59	5579.84
429.78	5486.22
429.97	5308.34
430.16	5645.37
430.34	5736.65
430.53	5467.49
430.72	5701.54
430.91	5802.19
431.10	5706.23
431.28	5961.34
431.47	5682.82
431.66	5996.45
431.85	5832.62
432.03	6008.16
432.22	6015.18
432.41	5956.66
432.60	5891.13
432.79	6001.13
432.97	5963.68
433.16	5959.00
433.35	6059.65
433.54	6019.86
433.72	6106.46
433.91	6115.82
434.10	6258.59
434.28	6291.36
434.47	6253.91
434.66	6345.19
434.85	6321.79
435.03	6581.59
435.22	6410.73
435.41	6537.12
435.59	6546.48
435.78	6532.44
435.97	6551.16
436.16	6377.96
436.34	6574.56
436.53	6607.33
436.72	6796.92
436.90	6630.74
437.09	6623.72
437.28	6581.59
437.46	6642.44
437.65	6757.13
437.84	6745.42
438.02	6801.60
438.21	6813.30
438.40	6864.79
438.58	7082.46
438.77	7136.29
438.96	7098.84
439.14	7096.50
439.33	7199.49
439.52	7356.30
439.70	7155.02
439.89	7407.80
440.08	7456.95
440.26	7445.24
440.45	7403.11
440.63	7449.93
440.82	7566.95
441.01	7449.93
441.19	7756.54
441.38	7803.35
441.57	7733.13
441.75	7812.71
441.94	8013.99
442.12	7925.05
442.31	8086.55
442.50	8121.66
442.68	8098.25
442.87	8126.34
443.05	8114.64
443.24	8184.85
443.43	8229.32
443.61	8156.77
443.80	8706.79
443.98	8201.24
444.17	7817.39
444.35	8449.33
444.54	8423.59
444.73	8439.97
444.91	8311.24
445.10	8451.67
445.28	8444.65
445.47	8362.73
445.65	8311.24
445.84	8512.53
446.02	8484.44
446.21	8475.08
446.39	8552.32
446.58	8542.96
446.77	8470.40
446.95	8283.16
447.14	8514.87
447.32	8521.89
447.51	8571.04
447.69	8730.20
447.88	8692.75
448.06	8716.16
448.25	8580.40
448.43	8769.99
448.62	8720.84
448.80	8561.68
448.99	8849.57
449.17	8894.04
449.36	8580.40
449.54	9048.51
449.73	9212.35
449.91	9048.51
450.10	9025.11
450.28	9221.71
450.46	8999.36
450.65	9130.43
450.83	9315.33
451.02	9142.13
451.20	9413.63
451.39	9116.39
451.57	9308.31
451.76	9107.02
451.94	9146.81
452.13	9408.95
452.31	9378.53
452.49	9280.22
452.68	9549.39
452.86	9305.97
453.05	9584.49
453.23	9411.29
453.42	9453.42
453.60	9565.77
453.78	9650.03
453.97	9474.49
454.15	9809.19
454.34	9607.90
454.52	9757.69
454.70	9525.98
454.89	9844.29
455.07	9736.63
455.26	9820.89
455.44	10160.27
455.62	10059.62
455.81	9926.21
455.99	10010.47
456.17	10141.54
456.36	10143.88
456.54	10181.33
456.73	10293.68
456.91	10604.97
457.09	10342.83
457.28	10686.89
457.46	10436.45
457.64	10523.05
457.83	10696.25
458.01	10478.58
458.19	10670.50
458.38	10579.22
458.56	10761.78
458.74	10773.49
458.93	10733.70
459.11	10897.53
459.29	10888.17
459.48	10909.24
459.66	11000.52
459.84	11016.90
460.03	10953.71
460.21	11129.25
460.39	11180.74
460.57	11133.93
460.76	11339.90
460.94	11248.61
461.12	11265.00
461.31	11323.51
461.49	11358.62
461.67	11463.94
461.85	11501.39
462.04	11431.18
462.22	11648.85
462.40	11871.20
462.59	11742.47
462.77	11496.71
462.95	11824.39
463.13	11932.05
463.32	11611.40
463.50	11999.93
463.68	12006.95
463.86	12016.31
464.05	11810.34
464.23	11882.90
464.41	12269.09
464.59	11798.64
464.78	12243.34
464.96	12053.76
465.14	12053.76
465.32	12325.26
465.50	12229.30
465.69	12439.95
465.87	12131.00
466.05	12262.07
466.23	12091.21
466.41	12292.49
466.60	12594.42
466.78	12491.44
466.96	12379.09
467.14	12128.66
467.32	12376.75
467.51	12629.53
467.69	12292.49
467.87	12514.84
468.05	12989.97
468.23	12634.21
468.41	12732.51
468.60	12751.24
468.78	13001.68
468.96	12791.03
469.14	13083.59
469.32	13135.09
469.50	12739.54
469.69	13231.05
469.87	13181.90
470.05	13104.66
470.23	13291.90
470.41	13373.82
470.59	13497.87
470.77	13488.51
470.95	13680.43
471.14	13722.56
471.32	13256.79
471.50	13858.31
471.68	13799.80
471.86	13970.66
472.04	13661.71
472.22	14244.50
472.40	13881.72
472.58	14005.77
472.77	14012.79
472.95	14487.92
473.13	14696.22
473.31	14249.18
473.49	14291.31
473.67	14286.63
473.85	14431.74
474.03	14829.63
474.21	14803.89
474.39	14909.21
474.57	14803.89
474.75	15047.30
474.93	15250.93
475.12	15042.62
475.30	15396.04
475.48	15150.29
475.66	15232.21
475.84	15293.06
476.02	15721.38
476.20	15714.36
476.38	15901.60
476.56	16304.17
476.74	16283.11
476.92	15885.22
477.10	15983.52
477.28	16545.25
477.46	16308.85
477.64	16580.36
477.82	16893.99
478.00	16964.20
478.18	17132.72
478.36	16861.22
478.54	17432.31
478.72	17373.80
478.90	17774.03
479.08	17816.16
479.26	17900.42
479.44	17844.24
479.62	18125.11
479.80	18251.50
479.98	18253.84
480.16	18651.73
480.34	18490.23
480.52	18930.25
480.70	18738.33
480.88	18796.84
481.06	18874.08
481.24	19356.23
481.41	19370.27
481.59	19466.24
481.77	19564.54
481.95	19800.93
482.13	19955.41
482.31	19969.45
482.49	20512.46
482.67	20283.08
482.85	20730.12
483.03	20999.29
483.21	20982.90
483.39	20912.69
483.57	20837.79
483.74	21425.26
483.92	21556.33
484.10	21834.86
484.28	21907.41
484.46	22410.63
484.64	22476.16
484.82	22295.94
485.00	22663.41
485.18	23204.07
485.35	23124.49
485.53	23033.21
485.71	23157.26
485.89	23765.80
486.07	23740.05
486.25	23468.55
486.43	24147.31
486.61	24137.94
486.78	24297.10
486.96	24362.64
487.14	25116.29
487.32	24858.83
487.50	24889.26
487.68	25399.49
487.85	25649.93
488.03	25745.89
488.21	26017.40
488.39	26111.02
488.57	26534.65
488.75	26429.33
488.92	26930.20
489.10	27211.07
489.28	27061.27
489.46	27311.71
489.64	27166.60
489.81	28011.53
489.99	27859.40
490.17	28428.15
490.35	28287.71
490.53	28149.62
490.70	29053.07
490.88	28554.54
491.06	29081.16
491.24	29188.82
491.41	29420.53
491.59	29759.91
491.77	29542.24
491.95	30197.59
492.13	29764.59
492.30	30239.72
492.48	30698.47
492.66	30637.61
492.84	30789.75
493.01	30771.02
493.19	30789.75
493.37	31510.63
493.54	31655.75
493.72	32313.44
493.90	31857.03
494.08	32067.68
494.25	32336.84
494.43	32339.18
494.61	32498.34
494.79	32601.32
494.96	33013.26
495.14	33134.96
495.32	33715.42
495.49	33394.76
495.67	33811.38
495.85	33457.96
496.02	34108.63
496.20	34089.90
496.38	34429.28
496.55	34192.89
496.73	35332.73
496.91	35093.99
497.09	34913.77
497.26	35140.80
497.44	35103.35
497.62	35840.62
497.79	36528.74
497.97	35969.35
498.14	36477.25
498.32	36917.27
498.50	36624.70
498.67	36774.50
498.85	36856.42
499.03	37111.53
499.20	36971.10
499.38	37322.18
499.56	37642.84
499.73	37385.38
499.91	37809.01
500.08	37780.93
500.26	37855.82
500.44	38085.20
500.61	38518.20
500.79	38405.85
500.97	38543.94
501.14	39164.18
501.32	39419.30
501.49	39260.15
501.67	38998.01
501.84	39414.62
502.02	39433.35
502.20	39349.09
502.37	39798.47
502.55	39641.65
502.72	39775.06
502.90	40011.46
503.07	39517.60
503.25	40556.80
503.43	39885.07
503.60	40554.46
503.78	40505.31
503.95	40566.16
504.13	40830.65
504.30	41179.39
504.48	41141.94
504.65	41031.93
504.83	41397.06
505.01	41757.50
505.18	41715.37
505.36	41944.74
505.53	41677.92
505.71	42361.36
505.88	42108.58
506.06	41668.56
506.23	42181.13
506.41	42103.90
506.58	42597.75
506.76	42527.53
506.93	43005.00
507.11	42890.32
507.28	42672.65
507.46	43180.54
507.63	43196.93
507.81	43943.56
507.98	43302.25
508.16	43573.75
508.33	44044.20
508.50	44030.16
508.68	44044.20
508.85	44584.86
509.03	44512.31
509.20	44491.24
509.38	44954.67
509.55	44425.71
509.73	44828.28
509.90	45265.96
510.08	45013.18
510.25	45390.01
510.42	44985.10
510.60	45495.33
510.77	45832.37
510.95	45769.18
511.12	45762.15
511.30	45584.27
511.47	45705.98
511.64	45918.97
511.82	46635.17
511.99	46021.95
512.17	46337.93
512.34	46490.06
512.51	46852.84
512.69	46681.98
512.86	46616.45
513.04	47124.35
513.21	46909.02
513.38	47089.24
513.56	47515.22
513.73	47285.84
513.90	47386.49
514.08	47433.30
514.25	47428.62
514.43	48088.65
514.60	47863.96
514.77	47920.13
514.95	48172.91
515.12	48126.10
515.29	47992.68
515.47	48395.26
515.64	48442.07
515.81	48315.68
515.99	48507.60
516.16	49027.20
516.33	49188.70
516.51	49123.16
516.68	48992.09
516.85	49373.60
517.03	49387.64
517.20	49188.70
517.37	49317.43
517.54	49345.51
517.72	49460.20
517.89	49329.13
518.06	49886.18
518.24	49663.83
518.41	49720.00
518.58	49860.43
518.75	49769.15
518.93	49841.71
519.10	50064.06
519.27	50033.63
519.45	50536.85
519.62	50454.93
519.79	50534.51
519.96	50394.07
520.14	50232.58
520.31	50333.22
520.48	50747.50
520.65	50677.28
520.83	51234.33
521.00	51271.78
521.17	51026.02
521.34	51119.64
521.52	51325.61
521.69	51365.40
521.86	51510.51
522.03	51428.59
522.20	51751.59
522.38	51629.88
522.55	51721.16
522.72	51700.09
522.89	51774.99
523.07	51931.81
523.24	51892.02
523.41	51859.25
523.58	51681.37
523.75	52453.75
523.92	52062.88
524.10	52486.51
524.27	52519.28
524.44	52275.87
524.61	52516.94
524.78	52566.09
524.96	52556.73
525.13	52907.81
525.30	52811.85
525.47	52884.40
525.64	52729.93
525.81	52837.59
525.98	52982.71
526.16	52982.71
526.33	52743.97
526.50	53626.35
526.67	53247.19
526.84	53235.48
527.01	53406.34
527.18	53141.86
527.36	53270.59
527.53	53476.56
527.70	53616.99
527.87	53895.52
528.04	53499.97
528.21	53853.39
528.38	53595.93
528.55	53916.58
528.72	53551.46
528.89	53834.66
529.07	53624.01
529.24	53516.35
529.41	54035.95
529.58	54021.90
529.75	54096.80
529.92	54096.80
530.09	54066.38
530.26	54106.16
530.43	54234.89
530.60	54028.93
530.77	54155.32
530.94	54262.98
531.11	54403.41
531.28	54609.38
531.46	54578.95
531.63	54862.16
531.80	54478.31
531.97	54707.68
532.14	54911.31
532.31	54749.81
532.48	54901.95
532.65	54829.39
532.82	54873.86
532.99	55215.58
533.16	55054.08
533.33	55105.57
533.50	55241.32
533.67	55194.51
533.84	54777.90
534.01	55304.52
534.18	55136.00
534.35	55414.52
534.52	55536.23
534.69	55351.33
534.86	55512.83
535.03	55358.35
535.20	55398.14
535.37	55671.98
535.54	56048.81
535.71	55627.51
535.88	55702.41
536.05	55852.20
536.22	56142.43
536.38	55971.57
536.55	55959.87
536.72	55847.52
536.89	55910.72
537.06	56119.02
537.23	56123.71
537.40	55737.52
537.57	56107.32
537.74	56023.06
537.91	56514.58
538.08	56512.23
538.25	56074.55
538.42	56381.16
538.59	56409.25
538.75	56051.15
538.92	56392.87
539.09	56409.25
539.26	56545.00
539.43	56484.15
539.60	56446.70
539.77	56772.03
539.94	56542.66
540.11	56750.97
540.28	56800.12
540.44	56814.16
540.61	56734.59
540.78	56886.72
540.95	56760.33
541.12	56788.42
541.29	56797.78
541.46	56762.67
541.62	56898.42
541.79	56807.14
541.96	56563.73
542.13	57073.96
542.30	56978.00
542.47	57205.03
542.63	56900.76
542.80	57301.00
542.97	57305.68
543.14	57593.56
543.31	57205.03
543.48	57481.22
543.64	57825.28
543.81	57535.05
543.98	57684.84
544.15	57371.21
544.32	57661.44
544.48	57771.44
544.65	57652.08
544.82	57883.79
544.99	57474.20
545.16	57741.02
545.32	57528.03
545.49	57869.75
545.66	58164.65
545.83	57801.87
546.00	57773.78
546.16	57963.37
546.33	57773.78
546.50	57904.85
546.67	58162.31
546.83	57862.72
547.00	58033.58
547.17	58096.78
547.34	58323.81
547.50	58185.72
547.67	58344.87
547.84	58258.27
548.00	58541.48
548.17	58693.61
548.34	58494.67
548.51	58482.97
548.67	58525.10
548.84	58557.86
549.01	58333.17
549.18	58431.47
549.34	58529.78
549.51	58583.61
549.68	58637.44
549.84	58862.13
550.01	58635.10
550.18	58372.96
550.34	58681.91
550.51	58759.15
550.68	58827.02
550.84	58560.20
551.01	58724.04
551.18	58714.68
551.34	59030.65
551.51	59021.29
551.68	59011.93
551.84	58777.87
552.01	58983.84
552.18	58934.69
552.34	58632.76
552.51	58922.99
552.68	58784.90
552.84	59054.06
553.01	59180.45
553.18	59037.67
553.34	59166.40
553.51	59166.40
553.67	59063.42
553.84	59082.14
554.01	59437.90
554.17	59143.00
554.34	59290.45
554.51	59164.06
554.67	59365.35
554.84	59241.30
555.00	59327.90
555.17	59267.05
555.33	59311.52
555.50	59089.16
555.67	59482.37
555.83	59152.36
556.00	59484.72
556.16	59606.42
556.33	59330.24
556.50	59494.08
556.66	59620.47
556.83	59428.54
556.99	59730.47
557.16	59788.98
557.32	59838.14
557.49	59817.07
557.65	59627.49
557.82	59590.04
557.98	59648.55
558.15	59702.38
558.32	59955.16
558.48	59592.38
558.65	59737.49
558.81	59842.82
558.98	59847.50
559.14	59870.90
559.31	59856.86
559.47	59959.84
559.64	59887.29
559.80	59962.18
559.97	59950.48
560.13	59821.75
560.30	59896.65
560.46	60053.47
560.63	60093.25
560.79	59992.61
560.96	60271.14
561.12	60046.44
561.29	60177.51
561.45	60048.78
561.61	60065.17
561.78	60411.57
561.94	60058.15
562.11	59994.95
562.27	60191.56
562.44	60083.89
562.60	60229.01
562.77	60107.30
562.93	60144.75
563.10	60233.69
563.26	60060.49
563.42	60446.68
563.59	60221.98
563.75	60324.97
563.92	60437.31
564.08	60348.37
564.24	60362.42
564.41	60320.29
564.57	60477.10
564.74	60486.46
564.90	60254.75
565.07	60233.69
565.23	60416.25
565.39	60383.48
565.56	60444.33
565.72	60327.31
565.88	60357.74
566.05	60425.61
566.21	60594.13
566.38	60411.57
566.54	60432.63
566.70	60587.11
566.87	60566.04
567.03	60364.76
567.19	60816.48
567.36	60582.43
567.52	60589.45
567.68	60823.50
567.85	60685.41
568.01	60790.73
568.17	60467.74
568.34	60657.32
568.50	60622.22
568.66	60465.40
568.83	60713.50
568.99	60629.24
569.15	60594.13
569.32	60537.96
569.48	60612.85
569.64	60772.01
569.81	60633.92
569.97	60619.88
570.13	60764.99
570.30	60519.23
570.46	60779.03
570.62	60842.23
570.78	60725.20
570.95	60781.37
571.11	60935.85
571.27	60729.88
571.43	60865.63
571.60	60844.57
571.76	61097.34
571.92	60818.82
572.09	60882.02
572.25	60821.16
572.41	60816.48
572.57	60720.52
572.74	60898.40
572.90	60884.36
573.06	60863.29
573.22	60849.25
573.38	61057.56
573.55	60846.91
573.71	61066.92
573.87	61015.43
574.03	60910.10
574.20	60959.25
574.36	60767.33
574.52	61038.83
574.68	61064.58
574.84	61130.11
575.01	60872.65
575.17	60837.54
575.33	60903.08
575.49	60973.30
575.65	60975.64
575.82	61076.28
575.98	60891.38
576.14	60942.87
576.30	61197.99
576.46	61034.15
576.62	61160.54
576.79	60931.17
576.95	60619.88
577.11	61080.96
577.27	60963.93
577.43	61249.48
577.59	60959.25
577.75	60956.91
577.92	61045.85
578.08	61066.92
578.24	61200.33
578.40	61104.37
578.56	61027.13
578.72	61230.75
578.88	61186.28
579.04	61345.44
579.21	61043.51
579.37	61155.86
579.53	61226.07
579.69	61279.91
579.85	61057.56
580.01	61083.30
580.17	61059.90
580.33	61144.16
580.49	61364.17
580.65	61457.79
580.82	61172.24
580.98	60952.23
581.14	61034.15
581.30	61272.88
581.46	60949.89
581.62	61165.22
581.78	61083.30
581.94	61076.28
582.10	61148.84
582.26	61113.73
582.42	61104.37
582.58	61169.90
582.74	60999.04
582.90	61209.69
583.06	61392.25
583.22	61071.60
583.38	61212.03
583.54	61151.18
583.70	61284.59
583.86	61158.20
584.02	61137.13
584.18	61307.99
584.34	61233.10
584.50	61226.07
584.66	61183.94
584.82	61137.13
584.98	61272.88
585.14	61237.78
585.30	61041.17
585.46	61202.67
585.62	61034.15
585.78	61525.66
585.94	61197.99
586.10	61305.65
586.26	61331.40
586.42	61481.19
586.58	61315.01
586.74	61289.27
586.90	61169.90
587.06	61076.28
587.22	61347.78
587.38	61291.61
587.54	61382.89
587.70	61413.32
587.86	61350.12
588.02	61359.48
588.18	61478.85
588.34	61209.69
