SpectraSuite Data File
++++++++++++++++++++++++++++++++++++
Date: Fri Oct 25 11:22:43 EDT 2013
User: price-jones
Dark Spectrum Present: No
Reference Spectrum Present: No
Number of Sampled Component Spectra: 1
Spectrometers: USB2+H05261
Integration Time (usec): 100000 (USB2+H05261)
Spectra Averaged: 1 (USB2+H05261)
Boxcar Smoothing: 0 (USB2+H05261)
Correct for Electrical Dark: No (USB2+H05261)
Strobe/Lamp Enabled: No (USB2+H05261)
Correct for Detector Non-linearity: No (USB2+H05261)
Correct for Stray Light: No (USB2+H05261)
Number of Pixels in Processed Spectrum: 2048
>>>>>Begin Processed Spectral Data<<<<<
365.73	121.71
365.92	121.71
366.12	121.71
366.32	98.30
366.52	117.03
366.72	142.77
366.91	142.77
367.11	95.96
367.31	110.01
367.51	140.43
367.70	93.62
367.90	182.56
368.10	154.48
368.30	105.32
368.49	131.07
368.69	152.13
368.89	166.18
369.09	154.48
369.28	203.63
369.48	117.03
369.68	135.75
369.87	220.01
370.07	238.73
370.27	222.35
370.47	306.61
370.66	580.45
370.86	622.58
371.06	688.12
371.25	664.71
371.45	711.52
371.65	664.71
371.84	664.71
372.04	699.82
372.24	723.23
372.44	727.91
372.63	774.72
372.83	753.65
373.03	748.97
373.22	732.59
373.42	791.10
373.62	706.84
373.81	753.65
374.01	798.12
374.21	805.14
374.40	753.65
374.60	858.98
374.79	793.44
374.99	734.93
375.19	880.04
375.38	779.40
375.58	784.08
375.78	844.93
375.97	847.27
376.17	954.94
376.37	933.87
376.56	866.00
376.76	891.74
376.95	868.34
377.15	929.19
377.35	863.66
377.54	994.73
377.74	887.06
377.93	828.55
378.13	910.47
378.33	1011.11
378.52	910.47
378.72	912.81
378.91	985.37
379.11	959.62
379.31	973.66
379.50	940.90
379.70	945.58
379.89	1011.11
380.09	961.96
380.28	980.68
380.48	1041.54
380.68	908.13
380.87	992.39
381.07	976.00
381.26	994.73
381.46	1053.24
381.65	971.32
381.85	980.68
382.04	1013.45
382.24	1121.12
382.43	1006.43
382.63	1053.24
382.83	1076.65
383.02	1057.92
383.22	1156.22
383.41	1053.24
383.61	1041.54
383.80	1167.93
384.00	1046.22
384.19	1132.82
384.39	1130.48
384.58	1100.05
384.78	1193.67
384.97	1137.50
385.17	1214.74
385.36	1050.90
385.56	1221.76
385.75	1139.84
385.95	1214.74
386.14	1207.72
386.34	1160.91
386.53	1310.70
386.72	1261.55
386.92	1219.42
387.11	1226.44
387.31	1240.48
387.50	1284.95
387.70	1242.82
387.89	1245.16
388.09	1252.19
388.28	1299.00
388.48	1296.66
388.67	1287.29
388.86	1226.44
389.06	1345.81
389.25	1301.34
389.45	1338.79
389.64	1350.49
389.84	1369.21
390.03	1343.47
390.22	1359.85
390.42	1366.87
390.61	1357.51
390.81	1383.26
391.00	1432.41
391.19	1446.45
391.39	1451.13
391.58	1341.13
391.78	1535.39
391.97	1495.60
392.16	1404.32
392.36	1504.96
392.55	1507.30
392.75	1509.65
392.94	1572.84
393.13	1490.92
393.33	1535.39
393.52	1497.94
393.71	1495.60
393.91	1621.99
394.10	1614.97
394.29	1584.54
394.49	1680.50
394.68	1586.88
394.88	1575.18
395.07	1645.40
395.26	1687.53
395.46	1673.48
395.65	1696.89
395.84	1629.01
396.04	1769.44
396.23	1708.59
396.42	1703.91
396.62	1802.21
396.81	1816.26
397.00	1732.00
397.19	1956.69
397.39	1748.38
397.58	1825.62
397.77	1811.57
397.97	1912.22
398.16	1797.53
398.35	1888.81
398.55	1846.68
398.74	1923.92
398.93	1987.11
399.12	1914.56
399.32	1870.09
399.51	1839.66
399.70	1921.58
399.90	1996.48
400.09	1884.13
400.28	2038.61
400.47	1984.77
400.67	2001.16
400.86	2003.50
401.05	2092.44
401.24	2076.06
401.44	2118.18
401.63	2179.04
401.82	2080.74
402.01	2120.53
402.21	2104.14
402.40	2054.99
402.59	2176.70
402.78	2232.87
402.97	2179.04
403.17	2218.83
403.36	2195.42
403.55	2298.41
403.74	2361.60
403.93	2349.90
404.13	2455.22
404.32	2431.82
404.51	2361.60
404.70	2424.80
404.89	2438.84
405.09	2579.27
405.28	2373.30
405.47	2448.20
405.66	2459.90
405.85	2525.44
406.05	2544.16
406.24	2518.42
406.43	2583.95
406.62	2672.89
406.81	2609.70
407.00	2595.65
407.20	2693.96
407.39	2722.04
407.58	2759.49
407.77	2743.11
407.96	2731.41
408.15	2796.94
408.34	2722.04
408.54	2862.48
408.73	2855.45
408.92	2911.63
409.11	2890.56
409.30	2984.18
409.49	2902.26
409.68	3023.97
409.87	2970.14
410.07	3005.25
410.26	3040.36
410.45	2923.33
410.64	3091.85
410.83	3077.80
411.02	3136.32
411.21	3211.22
411.40	3122.27
411.59	3136.32
411.78	3192.49
411.98	3248.66
412.17	3330.58
412.36	3318.88
412.55	3424.20
412.74	3323.56
412.93	3344.63
413.12	3419.52
413.31	3536.55
413.50	3501.44
413.69	3398.46
413.88	3634.85
414.07	3447.61
414.26	3487.40
414.45	3599.74
414.64	3679.32
414.83	3796.35
415.02	3861.88
415.22	3852.52
415.41	3859.54
415.60	3927.42
415.79	3941.46
415.98	4051.47
416.17	3873.59
416.36	3868.91
416.55	4002.32
416.74	4065.51
416.93	4042.11
417.12	4142.75
417.31	4173.18
417.50	4093.60
417.69	4210.62
417.88	4304.25
418.07	4369.78
418.26	4297.22
418.45	4365.10
418.64	4437.66
418.83	4322.97
419.02	4461.06
419.21	4568.73
419.39	4524.26
419.58	4437.66
419.77	4353.40
419.96	4545.32
420.15	4695.11
420.34	4587.45
420.53	4610.86
420.72	4664.69
420.91	4667.03
421.10	4690.43
421.29	4873.00
421.48	4622.56
421.67	4634.26
421.86	4830.87
422.05	4856.61
422.24	4802.78
422.43	4931.51
422.61	4807.46
422.80	4903.42
422.99	4910.44
423.18	5067.26
423.37	5029.81
423.56	4961.94
423.75	4966.62
423.94	4964.28
424.13	4671.71
424.32	4695.11
424.50	4905.76
424.69	4992.36
424.88	5149.18
425.07	4947.89
425.26	5055.56
425.45	4940.87
425.64	5083.64
425.83	4983.00
426.01	5050.88
426.20	5034.49
426.39	5137.48
426.58	4936.19
426.77	5060.24
426.96	5203.01
427.15	5116.41
427.33	5324.72
427.52	5203.01
427.71	5291.95
427.90	5205.35
428.09	5444.09
428.28	5413.66
428.46	5369.19
428.65	5397.28
428.84	5511.96
429.03	5495.58
429.22	5350.46
429.40	5352.81
429.59	5572.82
429.78	5437.06
429.97	5408.98
430.16	5565.79
430.34	5643.03
430.53	5600.90
430.72	5701.54
430.91	5795.17
431.10	5610.26
431.28	5769.42
431.47	5706.23
431.66	6045.60
431.85	5736.65
432.03	5895.81
432.22	6092.41
432.41	5837.30
432.60	5987.09
432.79	5977.73
432.97	6001.13
433.16	6040.92
433.35	6066.67
433.54	6125.18
433.72	6249.23
433.91	6183.70
434.10	6150.93
434.28	6197.74
434.47	6134.54
434.66	6289.02
434.85	6209.44
435.03	6380.30
435.22	6277.32
435.41	6370.94
435.59	6483.28
435.78	6525.41
435.97	6579.25
436.16	6396.68
436.34	6384.98
436.53	6335.83
436.72	6743.08
436.90	6604.99
437.09	6710.32
437.28	6464.56
437.46	6696.27
437.65	6560.52
437.84	6668.19
438.02	6836.70
438.21	6944.37
438.40	6766.49
438.58	6981.82
438.77	7185.44
438.96	6878.83
439.14	7133.95
439.33	7159.70
439.52	7227.57
439.70	7204.17
439.89	7382.05
440.08	7325.88
440.26	7599.72
440.45	7356.30
440.63	7492.05
440.82	7503.76
441.01	7634.83
441.19	7789.30
441.38	7616.10
441.57	7632.49
441.75	7616.10
441.94	8013.99
442.12	7857.18
442.31	8021.02
442.50	8051.44
442.68	7903.99
442.87	8025.70
443.05	8194.22
443.24	8205.92
443.43	8175.49
443.61	8336.99
443.80	8423.59
443.98	7990.59
444.17	7882.92
444.35	8187.19
444.54	8463.38
444.73	8456.36
444.91	8262.09
445.10	8503.17
445.28	8358.05
445.47	8219.96
445.65	8418.91
445.84	8414.23
446.02	8514.87
446.21	8463.38
446.39	8435.29
446.58	8468.06
446.77	8519.55
446.95	8219.96
447.14	8475.08
447.32	8477.42
447.51	8458.70
447.69	8589.77
447.88	8540.61
448.06	8571.04
448.25	8603.81
448.43	8636.58
448.62	8659.98
448.80	8554.66
448.99	8627.21
449.17	8688.07
449.36	8592.11
449.54	8922.12
449.73	8964.25
449.91	9195.96
450.10	8931.48
450.28	9156.18
450.46	9092.98
450.65	9160.86
450.83	9050.85
451.02	8997.02
451.20	9212.35
451.39	9027.45
451.57	9165.54
451.76	9179.58
451.94	9430.02
452.13	9320.01
452.31	9303.63
452.49	9188.94
452.68	9296.61
452.86	9376.19
453.05	9451.08
453.23	9518.96
453.42	9366.82
453.60	9118.73
453.78	9495.55
453.97	9420.66
454.15	9785.78
454.34	9525.98
454.52	9525.98
454.70	9736.63
454.89	9961.32
455.07	9760.03
455.26	9837.27
455.44	9980.04
455.62	9867.70
455.81	9907.49
455.99	9781.10
456.17	10024.51
456.36	10111.11
456.54	10176.65
456.73	10174.31
456.91	10541.77
457.09	10265.59
457.28	10558.16
457.46	10354.53
457.64	10764.12
457.83	10602.63
458.01	10438.79
458.19	10679.86
458.38	10504.32
458.56	10972.43
458.74	10661.14
458.93	10614.33
459.11	10860.09
459.29	10719.65
459.48	10799.23
459.66	10476.24
459.84	11005.20
460.03	11052.01
460.21	11164.36
460.39	10995.84
460.57	10998.18
460.76	10890.51
460.94	11293.08
461.12	11375.00
461.31	11147.97
461.49	11197.12
461.67	11304.79
461.85	11438.20
462.04	11300.11
462.22	11796.30
462.40	11667.57
462.59	11428.84
462.77	11393.73
462.95	11712.04
463.13	11658.21
463.32	11606.72
463.50	11569.27
463.68	11967.16
463.86	11843.11
464.05	11728.42
464.23	11688.64
464.41	11990.56
464.59	11803.32
464.78	12271.43
464.96	11946.09
465.14	11754.17
465.32	12138.02
465.50	12093.55
465.69	11988.22
465.87	12325.26
466.05	12313.56
466.23	12203.55
466.41	12257.39
466.60	12475.06
466.78	12142.70
466.96	12477.40
467.14	12292.49
467.32	12482.08
467.51	12901.03
467.69	12119.29
467.87	12491.44
468.05	12631.87
468.23	12498.46
468.41	12498.46
468.60	12620.17
468.78	12451.65
468.96	12692.73
469.14	12662.30
469.32	13025.08
469.50	12727.83
469.69	13074.23
469.87	13088.28
470.05	13298.92
470.23	13322.33
470.41	13291.90
470.59	13415.95
470.77	13401.91
470.95	13364.46
471.14	13497.87
471.32	13308.29
471.50	13598.51
471.68	13532.98
471.86	13722.56
472.04	13617.24
472.22	14022.15
472.40	13937.89
472.58	13762.35
472.77	14118.11
472.95	14209.39
473.13	14506.64
473.31	14134.50
473.49	14169.60
473.67	14214.07
473.85	14190.67
474.03	14736.01
474.21	14581.54
474.39	14911.55
474.57	14677.50
474.75	14773.46
474.93	15133.90
475.12	14909.21
475.30	15426.47
475.48	14970.07
475.66	15459.24
475.84	15328.17
476.02	15676.91
476.20	15356.25
476.38	15513.07
476.56	16011.60
476.74	16269.06
476.92	15730.74
477.10	15817.34
477.28	16231.62
477.46	16212.89
477.64	16341.62
477.82	16526.52
478.00	16865.90
478.18	16704.40
478.36	16999.31
478.54	17043.78
478.72	17212.30
478.90	17549.34
479.08	17554.02
479.26	17858.29
479.44	17722.54
479.62	17895.74
479.80	18211.71
479.98	18139.15
480.16	18635.35
480.34	18441.08
480.52	18485.55
480.70	18583.85
480.88	18691.52
481.06	18586.19
481.24	19016.85
481.41	19131.54
481.59	19513.05
481.77	19491.98
481.95	19683.91
482.13	19969.45
482.31	19637.09
482.49	20210.53
482.67	20336.91
482.85	20458.62
483.03	21001.63
483.21	20870.56
483.39	20788.64
483.57	21055.46
483.74	21305.90
483.92	21329.30
484.10	21104.61
484.28	21933.16
484.46	22092.32
484.64	22611.92
484.82	22178.92
485.00	22197.64
485.18	22874.06
485.35	23068.32
485.53	22895.12
485.71	23159.60
485.89	23440.47
486.07	23784.52
486.25	23461.53
486.43	23747.08
486.61	23981.13
486.78	24095.82
486.96	24137.94
487.14	24437.53
487.32	24725.42
487.50	24767.55
487.68	25083.52
487.85	25364.39
488.03	25715.47
488.21	26099.31
488.39	26354.43
488.57	26026.76
488.75	26141.44
488.92	26525.29
489.10	26930.20
489.28	27044.89
489.46	26941.91
489.64	27234.47
489.81	27974.08
489.99	27943.66
490.17	27880.46
490.35	28390.70
490.53	28266.65
490.70	28355.59
490.88	28503.04
491.06	28814.34
491.24	28943.06
491.41	28987.53
491.59	29106.90
491.77	29439.26
491.95	29895.66
492.13	30003.33
492.30	29963.54
492.48	30057.16
492.66	30223.34
492.84	30740.60
493.01	30649.32
493.19	30574.42
493.37	31356.16
493.54	31365.52
493.72	31536.38
493.90	31913.20
494.08	32011.51
494.25	32102.79
494.43	32245.56
494.61	32175.34
494.79	32584.94
494.96	32472.59
495.14	32875.16
495.32	32837.72
495.49	33097.52
495.67	33319.87
495.85	33757.55
496.02	34050.11
496.20	33977.56
496.38	34445.66
496.55	34122.67
496.73	34878.66
496.91	34506.52
497.09	34787.38
497.26	34754.61
497.44	35009.73
497.62	35269.53
497.79	35723.60
497.97	35515.29
498.14	36037.23
498.32	36652.79
498.50	36397.67
498.67	36598.96
498.85	36327.45
499.03	36739.39
499.20	37383.04
499.38	36577.89
499.56	37242.60
499.73	37415.80
499.91	37617.09
500.08	37235.58
500.26	37809.01
500.44	37930.72
500.61	38022.00
500.79	37724.75
500.97	38185.84
501.14	38368.40
501.32	38394.15
501.49	38780.34
501.67	38728.84
501.84	39005.03
502.02	38632.88
502.20	39416.96
502.37	39875.71
502.55	39400.58
502.72	39517.60
502.90	39391.22
503.07	39583.14
503.25	39882.73
503.43	39852.30
503.60	40612.98
503.78	40816.60
503.95	40568.51
504.13	41106.83
504.30	40617.66
504.48	40744.05
504.65	40884.48
504.83	41378.33
505.01	41647.49
505.18	41228.54
505.36	42064.11
505.53	41436.84
505.71	41347.90
505.88	41565.57
506.06	42071.13
506.23	42274.76
506.41	42141.35
506.58	42464.34
506.76	42171.77
506.93	42234.97
507.11	42466.68
507.28	42471.36
507.46	42632.86
507.63	42990.96
507.81	43112.67
507.98	43072.88
508.16	43510.56
508.33	43831.21
508.50	44144.84
508.68	43592.48
508.85	44023.14
509.03	44491.24
509.20	44039.52
509.38	44720.62
509.55	44804.88
509.73	44800.19
509.90	44680.83
510.08	44676.15
510.25	44779.13
510.42	44842.32
510.60	45090.42
510.77	45209.79
510.95	45525.76
511.12	45319.79
511.30	44971.05
511.47	45291.71
511.64	45792.58
511.82	46028.98
511.99	45713.00
512.17	46309.84
512.34	46211.54
512.51	46326.22
512.69	47009.66
512.86	46342.61
513.04	46431.55
513.21	46873.91
513.38	47117.32
513.56	47122.01
513.73	46911.36
513.90	46890.29
514.08	47103.28
514.25	47283.50
514.43	47281.16
514.60	47753.95
514.77	47988.00
514.95	48170.57
515.12	47648.63
515.29	47690.76
515.47	48137.80
515.64	48348.45
515.81	47786.72
515.99	48633.99
516.16	48648.03
516.33	48554.41
516.51	48926.56
516.68	48849.32
516.85	48722.93
517.03	49207.42
517.20	49172.31
517.37	49043.59
517.54	49188.70
517.72	49132.53
517.89	48905.49
518.06	49329.13
518.24	49345.51
518.41	49429.77
518.58	49467.22
518.75	49448.50
518.93	49254.23
519.10	49701.28
519.27	50124.91
519.45	49834.69
519.62	50330.88
519.79	49745.75
519.96	49961.08
520.14	50532.17
520.31	50087.46
520.48	50546.21
520.65	50394.07
520.83	50761.54
521.00	50808.35
521.17	50941.76
521.34	50908.99
521.52	50862.18
521.69	50806.01
521.86	51189.86
522.03	51437.95
522.20	51358.38
522.38	51470.72
522.55	51416.89
522.72	51533.92
522.89	51452.00
523.07	51604.13
523.24	51735.20
523.41	51655.62
523.58	51461.36
523.75	52055.85
523.92	52053.51
524.10	51859.25
524.27	52285.23
524.44	51987.98
524.61	52402.25
524.78	52474.81
524.96	52219.69
525.13	52467.79
525.30	52355.44
525.47	52802.49
525.64	52243.10
525.81	52732.27
525.98	52704.18
526.16	52856.32
526.33	52870.36
526.50	53336.13
526.67	52940.58
526.84	53497.62
527.01	53034.20
527.18	53059.94
527.36	53050.58
527.53	53230.80
527.70	53322.08
527.87	53375.92
528.04	53277.61
528.21	53506.99
528.38	53626.35
528.55	53738.70
528.72	53432.09
528.89	53757.42
529.07	53380.60
529.24	53549.12
529.41	53904.88
529.58	53776.15
529.75	53616.99
529.92	53900.20
530.09	53652.10
530.26	54415.11
530.43	54157.66
530.60	53984.46
530.77	53942.33
530.94	54262.98
531.11	54078.08
531.28	54199.79
531.46	54162.34
531.63	54525.12
531.80	54459.58
531.97	54611.72
532.14	54497.03
532.31	54813.01
532.48	54794.28
532.65	54670.23
532.82	54761.51
532.99	54717.04
533.16	54677.25
533.33	54614.06
533.50	55014.29
533.67	55100.89
533.84	55119.62
534.01	54920.67
534.18	54937.05
534.35	55234.30
534.52	55313.88
534.69	55480.06
534.86	55414.52
535.03	55164.09
535.20	55360.69
535.37	55400.48
535.54	55477.72
535.71	55716.45
535.88	55702.41
536.05	55646.24
536.22	55852.20
536.38	55758.58
536.55	55821.78
536.72	55681.34
536.89	55894.33
537.06	55641.56
537.23	55877.95
537.40	55840.50
537.57	55868.59
537.74	55793.69
537.91	56046.47
538.08	56051.15
538.25	55891.99
538.42	55983.27
538.59	55999.66
538.75	55952.85
538.92	55948.17
539.09	56275.84
539.26	56299.25
539.43	56334.35
539.60	56392.87
539.77	56264.14
539.94	56793.10
540.11	56477.13
540.28	56559.05
540.44	56547.34
540.61	56528.62
540.78	56285.20
540.95	56643.30
541.12	56612.88
541.29	56484.15
541.46	56811.82
541.62	56655.01
541.79	56807.14
541.96	56449.04
542.13	56650.33
542.30	56736.93
542.47	56753.31
542.63	57069.28
542.80	57041.20
542.97	57382.91
543.14	57389.94
543.31	57422.70
543.48	57233.12
543.64	57567.82
543.81	57485.90
543.98	57539.73
544.15	57628.67
544.32	57710.59
544.48	57607.61
544.65	57443.77
544.82	57593.56
544.99	57357.17
545.16	57563.14
545.32	57593.56
545.49	57949.32
545.66	57888.47
545.83	57801.87
546.00	57766.76
546.16	57642.71
546.33	57560.79
546.50	57530.37
546.67	58014.86
546.83	57790.17
547.00	57888.47
547.17	57881.45
547.34	58038.26
547.50	57972.73
547.67	58115.50
547.84	58183.38
548.00	58176.36
548.17	58333.17
548.34	58141.25
548.51	58305.09
548.67	58408.07
548.84	58234.87
549.01	58279.34
549.18	58166.99
549.34	58361.26
549.51	58269.98
549.68	58351.90
549.84	58585.95
550.01	58557.86
550.18	58269.98
550.34	58492.33
550.51	58829.37
550.68	58330.83
550.84	58387.00
551.01	58548.50
551.18	58602.33
551.34	58852.77
551.51	58747.45
551.68	58843.41
551.84	58454.88
552.01	58665.53
552.18	58702.98
552.34	58665.53
552.51	58922.99
552.68	58787.24
552.84	58798.94
553.01	58986.18
553.18	58754.47
553.34	58967.46
553.51	58972.14
553.67	58667.87
553.84	58873.84
554.01	59061.08
554.17	59040.01
554.34	58974.48
554.51	59107.89
554.67	59150.02
554.84	59100.87
555.00	59126.61
555.17	59114.91
555.33	59194.49
555.50	58958.09
555.67	59215.55
555.83	59089.16
556.00	59201.51
556.16	59456.63
556.33	59213.21
556.50	59281.09
556.66	59501.10
556.83	59278.75
556.99	59437.90
557.16	59475.35
557.32	59690.68
557.49	59721.11
557.65	59370.03
557.82	59430.88
557.98	59339.60
558.15	59660.26
558.32	59419.18
558.48	59491.74
558.65	59543.23
558.81	59646.21
558.98	59831.11
559.14	59641.53
559.31	59814.73
559.47	59889.63
559.64	59971.55
559.80	60025.38
559.97	59941.12
560.13	59796.01
560.30	59686.00
560.46	59800.69
560.63	59859.20
560.79	59987.93
560.96	60044.10
561.12	60189.22
561.29	59980.91
561.45	59934.10
561.61	59814.73
561.78	59920.05
561.94	59711.75
562.11	59854.52
562.27	59983.25
562.44	60168.15
562.60	60123.68
562.77	60158.79
562.93	60090.91
563.10	60261.77
563.26	60069.85
563.42	60404.55
563.59	60032.40
563.75	60172.83
563.92	60310.92
564.08	60161.13
564.24	60170.49
564.41	59913.03
564.57	60032.40
564.74	60170.49
564.90	60289.86
565.07	60133.04
565.23	60193.90
565.39	60252.41
565.56	60341.35
565.72	60219.64
565.88	60392.84
566.05	60219.64
566.21	60331.99
566.38	60339.01
566.54	60512.21
566.70	60385.82
566.87	60458.38
567.03	60341.35
567.19	60516.89
567.36	60598.81
567.52	60399.86
567.68	60617.53
567.85	60542.64
568.01	60853.93
568.17	60268.79
568.34	60542.64
568.50	60416.25
568.66	60523.91
568.83	60378.80
568.99	60467.74
569.15	60308.58
569.32	60659.66
569.48	60441.99
569.64	60603.49
569.81	60582.43
569.97	60587.11
570.13	60509.87
570.30	60444.33
570.46	60640.94
570.62	60736.90
570.78	60633.92
570.95	60687.75
571.11	60734.56
571.27	60722.86
571.43	60699.45
571.60	60725.20
571.76	60659.66
571.92	60786.05
572.09	60725.20
572.25	60736.90
572.41	60647.96
572.57	60502.85
572.74	60975.64
572.90	60718.18
573.06	60839.89
573.22	60664.35
573.38	60736.90
573.55	60811.80
573.71	60889.04
573.87	60867.97
574.03	60575.40
574.20	60851.59
574.36	60786.05
574.52	60886.70
574.68	60926.49
574.84	61027.13
575.01	60825.84
575.17	60755.63
575.33	60828.18
575.49	60779.03
575.65	60779.03
575.82	60924.14
575.98	60886.70
576.14	61006.06
576.30	61050.53
576.46	60989.68
576.62	60807.12
576.79	60636.26
576.95	60750.94
577.11	60982.66
577.27	61090.32
577.43	60800.10
577.59	60980.32
577.75	60814.14
577.92	60790.73
578.08	60907.76
578.24	60987.34
578.40	61109.05
578.56	60977.98
578.72	60884.36
578.88	61102.03
579.04	61151.18
579.21	61029.47
579.37	61134.79
579.53	61003.72
579.69	60903.08
579.85	61153.52
580.01	60924.14
580.17	60945.21
580.33	61036.49
580.49	61197.99
580.65	61113.73
580.82	60949.89
580.98	60818.82
581.14	61022.45
581.30	61270.54
581.46	60912.44
581.62	61052.87
581.78	61244.80
581.94	61193.31
582.10	60893.72
582.26	60893.72
582.42	61111.39
582.58	61130.11
582.74	61059.90
582.90	61109.05
583.06	61001.38
583.22	60898.40
583.38	60994.36
583.54	61219.05
583.70	61024.79
583.86	61064.58
584.02	60863.29
584.18	61038.83
584.34	61169.90
584.50	61172.24
584.66	61066.92
584.82	60757.97
584.98	61087.98
585.14	61106.71
585.30	60954.57
585.46	61144.16
585.62	61123.09
585.78	61190.97
585.94	60959.25
586.10	61080.96
586.26	61357.14
586.42	61371.19
586.58	61371.19
586.74	61062.24
586.90	61045.85
587.06	61118.41
587.22	61387.57
587.38	61333.74
587.54	61338.42
587.70	61207.35
587.86	61052.87
588.02	61087.98
588.18	61315.01
588.34	61095.00
588.49	61146.50
