SpectraSuite Data File
++++++++++++++++++++++++++++++++++++
Date: Fri Oct 25 10:47:44 EDT 2013
User: price-jones
Dark Spectrum Present: No
Reference Spectrum Present: No
Number of Sampled Component Spectra: 1
Spectrometers: USB2+H05261
Integration Time (usec): 100000 (USB2+H05261)
Spectra Averaged: 1 (USB2+H05261)
Boxcar Smoothing: 0 (USB2+H05261)
Correct for Electrical Dark: No (USB2+H05261)
Strobe/Lamp Enabled: No (USB2+H05261)
Correct for Detector Non-linearity: No (USB2+H05261)
Correct for Stray Light: No (USB2+H05261)
Number of Pixels in Processed Spectrum: 2048
>>>>>Begin Processed Spectral Data<<<<<
365.73	117.03
365.92	117.03
366.12	117.03
366.32	121.71
366.52	56.17
366.72	49.15
366.91	88.94
367.11	39.79
367.31	0.00
367.51	2.34
367.70	35.11
367.90	67.88
368.10	0.00
368.30	79.58
368.49	98.30
368.69	42.13
368.89	37.45
369.09	44.47
369.28	37.45
369.48	91.28
369.68	95.96
369.87	84.26
370.07	4.68
370.27	114.69
370.47	255.12
370.66	334.70
370.86	372.15
371.06	463.43
371.25	512.58
371.45	433.00
371.65	433.00
371.84	463.43
372.04	475.13
372.24	402.57
372.44	440.02
372.63	512.58
372.83	498.53
373.03	458.74
373.22	526.62
373.42	493.85
373.62	535.98
373.81	545.34
374.01	531.30
374.21	573.43
374.40	554.71
374.60	521.94
374.79	463.43
374.99	547.69
375.19	615.56
375.38	547.69
375.58	648.33
375.78	489.17
375.97	617.90
376.17	615.56
376.37	641.31
376.56	578.11
376.76	575.77
376.95	559.39
377.15	571.09
377.35	519.60
377.54	638.97
377.74	573.43
377.93	543.00
378.13	571.09
378.33	683.44
378.52	606.20
378.72	692.80
378.91	631.94
379.11	603.86
379.31	650.67
379.50	681.10
379.70	697.48
379.89	568.75
380.09	620.24
380.28	627.26
380.48	650.67
380.68	723.23
380.87	653.01
381.07	657.69
381.26	760.67
381.46	634.29
381.65	699.82
381.85	674.07
382.04	643.65
382.24	681.10
382.43	725.57
382.63	671.73
382.83	634.29
383.02	681.10
383.22	779.40
383.41	627.26
383.61	725.57
383.80	777.06
384.00	746.63
384.19	688.12
384.39	751.31
384.58	723.23
384.78	725.57
384.97	755.99
385.17	784.08
385.36	751.31
385.56	760.67
385.75	741.95
385.95	751.31
386.14	704.50
386.34	798.12
386.53	755.99
386.72	718.54
386.92	772.38
387.11	732.59
387.31	805.14
387.50	816.85
387.70	791.10
387.89	784.08
388.09	835.57
388.28	828.55
388.48	826.21
388.67	875.36
388.86	968.98
389.06	873.02
389.25	908.13
389.45	990.05
389.64	863.66
389.84	908.13
390.03	929.19
390.22	940.90
390.42	940.90
390.61	950.26
390.81	908.13
391.00	1013.45
391.19	936.21
391.39	870.68
391.58	999.41
391.78	971.32
391.97	985.37
392.16	894.08
392.36	1022.81
392.55	912.81
392.75	929.19
392.94	983.02
393.13	978.34
393.33	912.81
393.52	936.21
393.71	1053.24
393.91	954.94
394.10	1001.75
394.29	1034.52
394.49	1107.07
394.68	1064.94
394.88	1144.52
395.07	1074.31
395.26	1151.54
395.46	1088.35
395.65	1060.26
395.84	1076.65
396.04	1214.74
396.23	1165.59
396.42	1135.16
396.62	1088.35
396.81	1109.41
397.00	1125.80
397.19	1238.14
397.39	1184.31
397.58	1277.93
397.77	1256.87
397.97	1249.85
398.16	1196.01
398.35	1336.45
398.55	1273.25
398.74	1284.95
398.93	1256.87
399.12	1362.19
399.32	1226.44
399.51	1406.66
399.70	1376.24
399.90	1416.02
400.09	1327.08
400.28	1441.77
400.47	1406.66
400.67	1446.45
400.86	1500.28
401.05	1439.43
401.24	1472.20
401.44	1497.94
401.63	1563.48
401.82	1420.71
402.01	1444.11
402.21	1439.43
402.40	1535.39
402.59	1404.32
402.78	1483.90
402.97	1481.56
403.17	1556.46
403.36	1483.90
403.55	1586.88
403.74	1640.72
403.93	1593.90
404.13	1664.12
404.32	1706.25
404.51	1572.84
404.70	1682.85
404.89	1652.42
405.09	1748.38
405.28	1633.69
405.47	1701.57
405.66	1710.93
405.85	1724.97
406.05	1678.16
406.24	1671.14
406.43	1778.81
406.62	1870.09
406.81	1832.64
407.00	1729.66
407.20	1849.02
407.39	1757.74
407.58	1973.07
407.77	1970.73
407.96	1940.30
408.15	1928.60
408.34	1888.81
408.54	1968.39
408.73	2029.24
408.92	1984.77
409.11	1989.46
409.30	1980.09
409.49	2078.40
409.68	2080.74
409.87	2038.61
410.07	2003.50
410.26	2019.88
410.45	2202.44
410.64	2204.78
410.83	2167.34
411.02	2237.55
411.21	2406.07
411.40	2232.87
411.59	2289.04
411.78	2286.70
411.98	2155.63
412.17	2225.85
412.36	2338.20
412.55	2385.01
412.74	2401.39
412.93	2441.18
413.12	2310.11
413.31	2490.33
413.50	2490.33
413.69	2548.84
413.88	2511.39
414.07	2605.02
414.26	2492.67
414.45	2682.25
414.64	2647.15
414.83	2665.87
415.02	2630.76
415.22	2663.53
415.41	2703.32
415.60	2796.94
415.79	2918.65
415.98	2766.51
416.17	2834.39
416.36	2808.64
416.55	2841.41
416.74	2895.24
416.93	2843.75
417.12	2888.22
417.31	3019.29
417.50	2932.69
417.69	3070.78
417.88	3049.72
418.07	3073.12
418.26	3016.95
418.45	3021.63
418.64	3159.72
418.83	3180.79
419.02	3091.85
419.21	3199.51
419.39	3183.13
419.58	3166.74
419.77	3112.91
419.96	3368.03
420.15	3414.84
420.34	3211.22
420.53	3225.26
420.72	3323.56
420.91	3480.38
421.10	3295.47
421.29	3304.84
421.48	3276.75
421.67	3424.20
421.86	3293.13
422.05	3346.97
422.24	3295.47
422.43	3368.03
422.61	3538.89
422.80	3438.25
422.99	3566.98
423.18	3473.36
423.37	3531.87
423.56	3419.52
423.75	3669.96
423.94	3463.99
424.13	3227.60
424.32	3449.95
424.50	3522.51
424.69	3538.89
424.88	3487.40
425.07	3365.69
425.26	3456.97
425.45	3494.42
425.64	3449.95
425.83	3471.01
426.01	3590.38
426.20	3599.74
426.39	3550.59
426.58	3517.83
426.77	3590.38
426.96	3583.36
427.15	3644.21
427.33	3557.61
427.52	3602.08
427.71	3522.51
427.90	3658.26
428.09	3686.34
428.28	3744.86
428.46	3702.73
428.65	3756.56
428.84	3754.22
429.03	3782.31
429.22	3672.30
429.40	3765.92
429.59	3737.84
429.78	3585.70
429.97	3623.15
430.16	3555.27
430.34	3822.09
430.53	3817.41
430.72	3894.65
430.91	3840.82
431.10	3817.41
431.28	4016.36
431.47	4098.28
431.66	4287.86
431.85	4091.26
432.03	4093.60
432.22	4147.43
432.41	4117.00
432.60	4198.92
432.79	4194.24
432.97	4294.88
433.16	4252.75
433.35	4032.74
433.54	4152.11
433.72	4348.72
433.91	4159.13
434.10	4255.09
434.28	4344.03
434.47	4353.40
434.66	4435.32
434.85	4437.66
435.03	4374.46
435.22	4594.47
435.41	4514.89
435.59	4430.63
435.78	4496.17
435.97	4425.95
436.16	4451.70
436.34	4589.79
436.53	4486.81
436.72	4540.64
436.90	4655.33
437.09	4557.02
437.28	4564.04
437.46	4725.54
437.65	4755.97
437.84	4564.04
438.02	4690.43
438.21	4854.27
438.40	4713.84
438.58	5013.43
438.77	4828.53
438.96	4865.97
439.14	5043.85
439.33	4983.00
439.52	5022.79
439.70	5001.72
439.89	5128.11
440.08	5097.69
440.26	5081.30
440.45	4980.66
440.63	5203.01
440.82	5378.55
441.01	5146.84
441.19	5046.20
441.38	5565.79
441.57	5394.93
441.75	5526.00
441.94	5544.73
442.12	5507.28
442.31	5675.80
442.50	5455.79
442.68	5703.89
442.87	5638.35
443.05	5701.54
443.24	5792.83
443.43	5657.07
443.61	5612.60
443.80	5809.21
443.98	5579.84
444.17	5502.60
444.35	5832.62
444.54	5781.12
444.73	5682.82
444.91	5722.61
445.10	5750.70
445.28	5755.38
445.47	5636.01
445.65	5877.09
445.84	5727.29
446.02	5977.73
446.21	5872.40
446.39	5750.70
446.58	5823.25
446.77	6050.28
446.95	5738.99
447.14	5898.15
447.32	5820.91
447.51	6094.76
447.69	5886.45
447.88	5839.64
448.06	5795.17
448.25	6069.01
448.43	5902.83
448.62	5879.43
448.80	5937.94
448.99	6160.29
449.17	6099.44
449.36	6050.28
449.54	6242.21
449.73	6228.17
449.91	6366.26
450.10	6010.50
450.28	6317.11
450.46	6333.49
450.65	6389.66
450.83	6434.13
451.02	6340.51
451.20	6342.85
451.39	6555.84
451.57	6265.61
451.76	6473.92
451.94	6335.83
452.13	6497.33
452.31	6377.96
452.49	6321.79
452.68	6532.44
452.86	6431.79
453.05	6445.84
453.23	6506.69
453.42	6581.59
453.60	6506.69
453.78	6616.69
453.97	6459.88
454.15	6597.97
454.34	6672.87
454.52	6726.70
454.70	6656.48
454.89	6724.36
455.07	6801.60
455.26	6780.53
455.44	6869.47
455.62	6972.46
455.81	6724.36
455.99	6953.73
456.17	6991.18
456.36	6834.36
456.54	7028.63
456.73	7119.91
456.91	7145.66
457.09	7239.28
457.28	7344.60
457.46	7145.66
457.64	7213.53
457.83	7386.73
458.01	7129.27
458.19	7499.08
458.38	7267.36
458.56	7379.71
458.74	7243.96
458.93	7454.61
459.11	7473.33
459.29	7428.86
459.48	7393.75
459.66	7304.81
459.84	7489.71
460.03	7536.52
460.21	7379.71
460.39	7599.72
460.57	7597.38
460.76	7602.06
460.94	7831.43
461.12	7559.93
461.31	7789.30
461.49	7658.23
461.67	7545.89
461.85	7793.98
462.04	7623.12
462.22	8093.57
462.40	7740.15
462.59	7679.30
462.77	7990.59
462.95	8011.65
463.13	8004.63
463.32	7852.50
463.50	8093.57
463.68	7810.37
463.86	7967.18
464.05	8051.44
464.23	8006.97
464.41	7988.25
464.59	8098.25
464.78	8067.83
464.96	8196.56
465.14	8116.98
465.32	8119.32
465.50	8287.84
465.69	8449.33
465.87	8229.32
466.05	8369.76
466.23	8454.02
466.41	8191.88
466.60	8540.61
466.78	8163.79
466.96	8524.23
467.14	8386.14
467.32	8358.05
467.51	8554.66
467.69	8318.26
467.87	8285.50
468.05	8531.25
468.23	8358.05
468.41	8475.08
468.60	8592.11
468.78	8540.61
468.96	8744.24
469.14	8821.48
469.32	8648.28
469.50	8444.65
469.69	8758.28
469.87	8950.21
470.05	8788.71
470.23	8922.12
470.41	8828.50
470.59	8882.33
470.77	8844.88
470.95	8926.80
471.14	9135.11
471.32	8905.74
471.50	9411.29
471.68	9149.15
471.86	9109.36
472.04	9327.03
472.22	9525.98
472.40	9263.84
472.58	9289.59
472.77	9135.11
472.95	9404.27
473.13	9987.07
473.31	9420.66
473.49	9607.90
473.67	9465.13
473.85	9727.27
474.03	9781.10
474.21	9919.19
474.39	9806.84
474.57	9947.28
474.75	9961.32
474.93	10150.90
475.12	9907.49
475.30	10188.35
475.48	10078.35
475.66	10059.62
475.84	10164.95
476.02	10183.67
476.20	10312.40
476.38	10384.96
476.56	10633.05
476.74	10647.10
476.92	10832.00
477.10	10518.37
477.28	10876.47
477.46	10913.92
477.64	10724.33
477.82	11052.01
478.00	11269.68
478.18	11295.43
478.36	11463.94
478.54	11571.61
478.72	11211.17
478.90	11768.21
479.08	11665.23
479.26	11868.86
479.44	11798.64
479.62	11819.71
479.80	11871.20
479.98	11836.09
480.16	12446.97
480.34	12255.04
480.52	12367.39
480.70	12472.71
480.88	12212.92
481.06	12446.97
481.24	12507.82
481.41	12755.92
481.59	13107.00
481.77	12978.27
481.95	12919.76
482.13	13125.72
482.31	13212.32
482.49	13350.42
482.67	13308.29
482.85	13383.18
483.03	13657.03
483.21	13544.68
483.39	13982.36
483.57	14008.11
483.74	14127.47
483.92	14340.46
484.10	13933.21
484.28	14347.48
484.46	14445.79
484.64	14551.11
484.82	14434.08
485.00	14661.12
485.18	15131.56
485.35	15040.28
485.53	14967.73
485.71	14773.46
485.89	15042.62
486.07	15094.11
486.25	15035.60
486.43	15515.41
486.61	15810.32
486.78	15978.84
486.96	15873.51
487.14	16091.18
487.32	16116.93
487.50	16346.30
487.68	16449.28
487.85	16542.91
488.03	16762.92
488.21	16903.35
488.39	16924.41
488.57	16912.71
488.75	17090.59
488.92	17390.18
489.10	17193.58
489.28	17528.27
489.46	17907.44
489.64	17884.03
489.81	18246.82
489.99	18260.86
490.17	18244.48
490.35	18384.91
490.53	18476.19
490.70	18555.77
490.88	18885.78
491.06	19028.56
491.24	19112.81
491.41	18965.36
491.59	19325.80
491.77	19091.75
491.95	19475.60
492.13	19676.88
492.30	19726.04
492.48	19733.06
492.66	19508.37
492.84	19831.36
493.01	20109.88
493.19	19843.06
493.37	20514.80
493.54	20538.20
493.72	20166.06
493.90	20650.55
494.08	20732.47
494.25	20961.84
494.43	21032.05
494.61	21397.18
494.79	21411.22
494.96	21329.30
495.14	21228.66
495.32	21699.11
495.49	21762.30
495.67	21614.85
495.85	22031.46
496.02	22099.34
496.20	22214.02
496.38	22087.64
496.55	22398.93
496.73	22623.62
496.91	22429.35
497.09	22850.65
497.26	22937.25
497.44	22508.93
497.62	23002.78
497.79	23285.99
497.97	23014.49
498.14	23543.45
498.32	23168.96
498.50	23513.02
498.67	23728.35
498.85	23679.20
499.03	23777.50
499.20	23749.42
499.38	24053.69
499.56	24114.54
499.73	24133.26
499.91	24219.86
500.08	24456.26
500.26	24144.97
500.44	24741.80
500.61	24666.91
500.79	24243.27
500.97	24690.31
501.14	25399.49
501.32	25460.35
501.49	24933.73
501.67	25081.18
501.84	25104.59
502.02	25200.55
502.20	25523.54
502.37	25736.53
502.55	25312.89
502.72	25851.22
502.90	25820.79
503.07	25528.22
503.25	25783.34
503.43	26075.91
503.60	26008.03
503.78	25825.47
503.95	26239.75
504.13	26181.23
504.30	26235.06
504.48	26223.36
504.65	26604.87
504.83	26670.40
505.01	27199.37
505.18	26532.31
505.36	27124.47
505.53	27103.40
505.71	27239.15
505.88	27328.10
506.06	26747.64
506.23	27201.71
506.41	26918.50
506.58	27566.83
506.76	27480.23
506.93	27452.14
507.11	27484.91
507.28	27835.99
507.46	27821.95
507.63	27592.58
507.81	27941.32
507.98	27824.29
508.16	28095.79
508.33	28383.68
508.50	27936.63
508.68	28208.14
508.85	28659.86
509.03	28449.21
509.20	28793.27
509.38	29111.58
509.55	28613.05
509.73	29242.65
509.90	28835.40
510.08	28900.94
510.25	29006.26
510.42	29123.29
510.60	28952.43
510.77	29240.31
510.95	29694.38
511.12	29708.42
511.30	29467.34
511.47	29717.78
511.64	29614.80
511.82	29876.94
511.99	30043.12
512.17	29565.65
512.34	29706.08
512.51	30143.76
512.69	30518.25
512.86	30092.27
513.04	30340.36
513.21	30239.72
513.38	30623.57
513.56	30431.65
513.73	30478.46
513.90	30965.29
514.08	30485.48
514.25	31037.84
514.43	30808.47
514.60	30930.18
514.77	30834.22
514.95	31103.38
515.12	30932.52
515.29	31157.21
515.47	31255.51
515.64	31700.22
515.81	31101.04
515.99	31489.57
516.16	31299.98
516.33	31452.12
516.51	31529.36
516.68	31335.09
516.85	31688.51
517.03	31707.24
517.20	31992.78
517.37	31433.39
517.54	31927.25
517.72	31835.97
517.89	31826.60
518.06	31791.50
518.24	32266.63
518.41	32044.27
518.58	31960.02
518.75	32517.06
518.93	32395.35
519.10	32168.32
519.27	32992.19
519.45	32690.26
519.62	32847.08
519.79	32779.20
519.96	32968.79
520.14	33237.95
520.31	33364.34
520.48	33088.15
520.65	33549.24
520.83	33593.71
521.00	33397.10
521.17	33390.08
521.34	33469.66
521.52	33617.11
521.69	33968.19
521.86	33713.08
522.03	33965.85
522.20	33947.13
522.38	33865.21
522.55	34094.58
522.72	33944.79
522.89	33886.28
523.07	34190.55
523.24	34148.42
523.41	34101.61
523.58	33886.28
523.75	34476.09
523.92	34335.66
524.10	34597.80
524.27	34529.92
524.44	34684.40
524.61	34740.57
524.78	34944.20
524.96	34890.37
525.13	35019.10
525.30	35409.96
525.47	34888.03
525.64	34986.33
525.81	35103.35
525.98	35152.51
526.16	35075.27
526.33	35751.68
526.50	35651.04
526.67	35035.48
526.84	35171.23
527.01	35328.05
527.18	35585.50
527.36	35718.92
527.53	35859.35
527.70	36091.06
527.87	35845.30
528.04	35976.37
528.21	35796.15
528.38	35868.71
528.55	36297.03
528.72	36229.15
528.89	36086.38
529.07	36573.21
529.24	36016.16
529.41	36385.97
529.58	36514.70
529.75	36285.33
529.92	36435.12
530.09	36334.48
530.26	36701.94
530.43	36643.43
530.60	36091.06
530.77	36797.90
530.94	37249.63
531.11	36917.27
531.28	36844.71
531.46	37333.89
531.63	37088.13
531.80	37195.79
531.97	37237.92
532.14	37055.36
532.31	37251.97
532.48	37333.89
532.65	37347.93
532.82	37439.21
532.99	37387.72
533.16	37003.87
533.33	37504.74
533.50	37855.82
533.67	37420.48
533.84	36987.49
534.01	37085.79
534.18	37773.91
534.35	37820.72
534.52	37858.17
534.69	38003.28
534.86	37785.61
535.03	37689.65
535.20	37937.74
535.37	38403.51
535.54	38513.52
535.71	38293.50
535.88	37972.85
536.05	38087.54
536.22	38689.06
536.38	38195.20
536.55	38089.88
536.72	38567.35
536.89	38213.93
537.06	38527.56
537.23	38335.63
537.40	38902.04
537.57	38658.63
537.74	38761.61
537.91	39358.45
538.08	38937.15
538.25	38672.67
538.42	38958.22
538.59	39002.69
538.75	38745.23
538.92	38986.30
539.09	39384.19
539.26	39082.27
539.43	38864.60
539.60	39180.57
539.77	39093.97
539.94	39473.13
540.11	39030.77
540.28	39459.09
540.44	39218.02
540.61	39136.10
540.78	39269.51
540.95	39416.96
541.12	38581.39
541.29	39393.56
541.46	39955.29
541.62	39533.99
541.79	39718.89
541.96	39601.86
542.13	39583.14
542.30	39676.76
542.47	39648.68
542.63	39917.84
542.80	39817.19
542.97	40034.86
543.14	40418.71
543.31	40676.17
543.48	40252.53
543.64	40762.77
543.81	40596.59
543.98	40187.00
544.15	40425.73
544.32	40521.69
544.48	40903.20
544.65	40598.93
544.82	40282.96
544.99	40203.38
545.16	40531.06
545.32	40708.94
545.49	40500.63
545.66	40996.82
545.83	41350.24
546.00	40856.39
546.16	40950.01
546.33	41024.91
546.50	40926.61
546.67	41347.90
546.83	40643.40
547.00	41326.84
547.17	40898.52
547.34	40802.56
547.50	40821.28
547.67	40921.93
547.84	41179.39
548.00	41436.84
548.17	41455.57
548.34	41659.20
548.51	41427.48
548.67	41804.31
548.84	41521.10
549.01	41579.62
549.18	41453.23
549.34	41598.34
549.51	41333.86
549.68	41642.81
549.84	42010.28
550.01	41841.76
550.18	41317.48
550.34	41689.62
550.51	41567.91
550.68	41673.24
550.84	41591.32
551.01	41872.18
551.18	41574.94
551.34	41872.18
551.51	41563.23
551.68	41944.74
551.84	41869.84
552.01	42007.94
552.18	42518.17
552.34	41923.68
552.51	42457.32
552.68	42426.89
552.84	42515.83
553.01	42536.90
553.18	42171.77
553.34	42499.45
553.51	42068.79
553.67	42625.84
553.84	42822.44
554.01	42770.95
554.17	43180.54
554.34	42483.06
554.51	42635.20
554.67	42693.71
554.84	42696.05
555.00	42883.30
555.17	42256.03
555.33	42515.83
555.50	42855.21
555.67	42820.10
555.83	42368.38
556.00	42667.97
556.16	43241.40
556.33	43143.09
556.50	42878.61
556.66	42824.78
556.83	42773.29
556.99	42918.40
557.16	43232.04
557.32	42983.94
557.49	42700.73
557.65	42398.80
557.82	42609.45
557.98	43005.00
558.15	42794.36
558.32	43033.09
558.48	43232.04
558.65	43318.64
558.81	42763.93
558.98	42934.79
559.14	43262.46
559.31	43264.80
559.47	43189.91
559.64	43786.74
559.80	43550.35
559.97	43564.39
560.13	43009.68
560.30	43023.73
560.46	43370.13
560.63	43285.87
560.79	43239.06
560.96	43299.91
561.12	43391.19
561.29	43833.55
561.45	43290.55
561.61	43131.39
561.78	43388.85
561.94	43117.35
562.11	43592.48
562.27	43653.33
562.44	43423.96
562.60	43735.25
562.77	43828.87
562.93	43613.54
563.10	43896.75
563.26	43473.11
563.42	43709.50
563.59	43990.37
563.75	43709.50
563.92	43835.89
564.08	43784.40
564.24	44119.10
564.41	43938.88
564.57	43386.51
564.74	43248.42
564.90	43873.34
565.07	43983.35
565.23	43676.74
565.39	43665.03
565.56	43889.73
565.72	43702.48
565.88	43903.77
566.05	44186.97
566.21	43863.98
566.38	43672.06
566.54	44027.82
566.70	44088.67
566.87	44306.34
567.03	43695.46
567.19	44729.98
567.36	44381.24
567.52	44313.36
567.68	44388.26
567.85	43931.86
568.01	43753.97
568.17	43948.24
568.34	44367.20
568.50	43849.94
568.66	44002.07
568.83	43995.05
568.99	43957.60
569.15	44109.74
569.32	43648.65
569.48	43718.87
569.64	44126.12
569.81	44615.29
569.97	43885.04
570.13	44311.02
570.30	43866.32
570.46	44201.02
570.62	43814.83
570.78	44240.81
570.95	44130.80
571.11	44184.63
571.27	43878.02
571.43	44018.46
571.60	44659.76
571.76	43997.39
571.92	44282.94
572.09	44205.70
572.25	43971.64
572.41	44037.18
572.57	43938.88
572.74	44767.43
572.90	44334.43
573.06	44212.72
573.22	44524.01
573.38	43889.73
573.55	44062.93
573.71	44397.62
573.87	44381.24
574.03	43999.73
574.20	44360.17
574.36	44383.58
574.52	44308.68
574.68	44369.54
574.84	44917.22
575.01	44353.15
575.17	44418.69
575.33	44041.86
575.49	44217.40
575.65	44332.09
575.82	44779.13
575.98	44612.95
576.14	44130.80
576.30	44727.64
576.46	44442.09
576.62	44229.10
576.79	44556.78
576.95	44133.14
577.11	44533.37
577.27	44353.15
577.43	44371.88
577.59	44573.16
577.75	44540.39
577.92	44109.74
578.08	44165.91
578.24	44053.56
578.40	43952.92
578.56	44343.79
578.72	44502.95
578.88	44449.11
579.04	44704.23
579.21	44189.31
579.37	43873.34
579.53	44542.74
579.69	44458.48
579.85	44463.16
580.01	44673.81
580.17	44549.76
580.33	44636.36
580.49	44741.68
580.65	44708.91
580.82	44458.48
580.98	44446.77
581.14	44355.49
581.30	44811.90
581.46	44509.97
581.62	44505.29
581.78	44381.24
581.94	44650.40
582.10	44395.28
582.26	44638.70
582.42	44516.99
582.58	44720.62
582.74	44299.32
582.90	44596.57
583.06	44982.76
583.22	44458.48
583.38	44751.04
583.54	44690.19
583.70	44224.42
583.86	44566.14
584.02	44041.86
584.18	44524.01
584.34	44760.40
584.50	44481.88
584.66	44727.64
584.82	44685.51
584.98	44844.66
585.14	44573.16
585.30	44500.61
585.46	44224.42
585.62	44135.48
585.78	44744.02
585.94	43934.20
586.10	44423.37
586.26	44435.07
586.42	44917.22
586.58	44500.61
586.74	44369.54
586.90	44191.65
587.06	44018.46
587.22	44502.95
587.38	44938.29
587.54	44467.84
587.70	44872.75
587.86	44772.11
588.02	45172.34
588.18	44938.29
588.34	44638.70
588.49	44161.23
588.65	44580.18
588.81	44369.54
588.97	44505.29
589.13	44371.88
589.29	44371.88
589.45	44577.84
589.61	44676.15
589.77	44964.03
589.93	44694.87
590.08	44568.48
590.24	44811.90
590.40	44982.76
