SpectraSuite Data File
++++++++++++++++++++++++++++++++++++
Date: Fri Oct 25 11:25:34 EDT 2013
User: price-jones
Dark Spectrum Present: No
Reference Spectrum Present: No
Number of Sampled Component Spectra: 1
Spectrometers: USB2+H05261
Integration Time (usec): 100000 (USB2+H05261)
Spectra Averaged: 1 (USB2+H05261)
Boxcar Smoothing: 0 (USB2+H05261)
Correct for Electrical Dark: No (USB2+H05261)
Strobe/Lamp Enabled: No (USB2+H05261)
Correct for Detector Non-linearity: No (USB2+H05261)
Correct for Stray Light: No (USB2+H05261)
Number of Pixels in Processed Spectrum: 2048
>>>>>Begin Processed Spectral Data<<<<<
365.73	259.80
365.92	259.80
366.12	259.80
366.32	84.26
366.52	145.11
366.72	114.69
366.91	107.66
367.11	166.18
367.31	161.50
367.51	147.45
367.70	70.22
367.90	35.11
368.10	133.41
368.30	180.22
368.49	37.45
368.69	156.82
368.89	121.71
369.09	147.45
369.28	231.71
369.48	208.31
369.68	191.92
369.87	189.58
370.07	140.43
370.27	231.71
370.47	358.10
370.66	566.41
370.86	629.60
371.06	643.65
371.25	688.12
371.45	645.99
371.65	732.59
371.84	671.73
372.04	634.29
372.24	732.59
372.44	678.76
372.63	711.52
372.83	744.29
373.03	711.52
373.22	781.74
373.42	791.10
373.62	734.93
373.81	781.74
374.01	866.00
374.21	858.98
374.40	828.55
374.60	753.65
374.79	905.79
374.99	847.27
375.19	800.46
375.38	908.13
375.58	835.57
375.78	868.34
375.97	858.98
376.17	828.55
376.37	940.90
376.56	875.36
376.76	849.61
376.95	945.58
377.15	894.08
377.35	882.38
377.54	915.15
377.74	882.38
377.93	940.90
378.13	924.51
378.33	990.05
378.52	1020.47
378.72	952.60
378.91	990.05
379.11	943.24
379.31	858.98
379.50	915.15
379.70	924.51
379.89	957.28
380.09	1053.24
380.28	931.53
380.48	978.34
380.68	919.83
380.87	1015.79
381.07	968.98
381.26	997.07
381.46	1029.84
381.65	1013.45
381.85	990.05
382.04	1001.75
382.24	1036.86
382.43	1053.24
382.63	1041.54
382.83	1036.86
383.02	1153.88
383.22	1186.65
383.41	1170.27
383.61	1146.86
383.80	1097.71
384.00	1128.14
384.19	1022.81
384.39	1186.65
384.58	1177.29
384.78	1132.82
384.97	1177.29
385.17	1153.88
385.36	1095.37
385.56	1172.61
385.75	1132.82
385.95	1186.65
386.14	1205.38
386.34	1165.59
386.53	1196.01
386.72	1114.10
386.92	1247.51
387.11	1226.44
387.31	1238.14
387.50	1303.68
387.70	1254.53
387.89	1273.25
388.09	1287.29
388.28	1226.44
388.48	1233.46
388.67	1380.92
388.86	1345.81
389.06	1217.08
389.25	1280.27
389.45	1355.17
389.64	1437.09
389.84	1401.98
390.03	1371.55
390.22	1444.11
390.42	1392.62
390.61	1392.62
390.81	1413.68
391.00	1427.73
391.19	1453.47
391.39	1476.88
391.58	1380.92
391.78	1359.85
391.97	1474.54
392.16	1446.45
392.36	1467.52
392.55	1516.67
392.75	1425.39
392.94	1486.24
393.13	1537.73
393.33	1490.92
393.52	1659.44
393.71	1558.80
393.91	1593.90
394.10	1561.14
394.29	1568.16
394.49	1572.84
394.68	1668.80
394.88	1610.29
395.07	1631.35
395.26	1710.93
395.46	1643.06
395.65	1760.08
395.84	1720.29
396.04	1757.74
396.23	1710.93
396.42	1708.59
396.62	1720.29
396.81	1778.81
397.00	1767.10
397.19	1734.34
397.39	1877.11
397.58	1886.47
397.77	1811.57
397.97	1764.76
398.16	1872.43
398.35	1907.54
398.55	1916.90
398.74	1909.88
398.93	1975.41
399.12	1952.01
399.32	1856.04
399.51	1980.09
399.70	1944.99
399.90	1998.82
400.09	2057.33
400.28	2083.08
400.47	2038.61
400.67	2064.35
400.86	2165.00
401.05	2078.40
401.24	2050.31
401.44	2108.82
401.63	2129.89
401.82	2167.34
402.01	2134.57
402.21	2221.17
402.40	2195.42
402.59	2253.94
402.78	2218.83
402.97	2286.70
403.17	2277.34
403.36	2284.36
403.55	2249.25
403.74	2298.41
403.93	2345.22
404.13	2286.70
404.32	2429.48
404.51	2279.68
404.70	2445.86
404.89	2359.26
405.09	2434.16
405.28	2436.50
405.47	2469.27
405.66	2588.63
405.85	2516.08
406.05	2637.78
406.24	2516.08
406.43	2520.76
406.62	2607.36
406.81	2675.23
407.00	2537.14
407.20	2525.44
407.39	2553.52
407.58	2668.21
407.77	2766.51
407.96	2813.32
408.15	2796.94
408.34	2693.96
408.54	2715.02
408.73	2878.86
408.92	2780.56
409.11	2841.41
409.30	2923.33
409.49	2925.67
409.68	2888.22
409.87	3005.25
410.07	2867.16
410.26	2930.35
410.45	3040.36
410.64	3082.49
410.83	2942.05
411.02	3019.29
411.21	3056.74
411.40	3054.40
411.59	3262.71
411.78	3131.64
411.98	3138.66
412.17	3293.13
412.36	3302.50
412.55	3232.28
412.74	3431.23
412.93	3361.01
413.12	3332.92
413.31	3492.08
413.50	3473.36
413.69	3382.07
413.88	3482.72
414.07	3506.12
414.26	3576.34
414.45	3665.28
414.64	3756.56
414.83	3871.25
415.02	3742.52
415.22	3782.31
415.41	3934.44
415.60	3695.71
415.79	3878.27
415.98	3932.10
416.17	3927.42
416.36	3934.44
416.55	3904.01
416.74	4070.19
416.93	3999.98
417.12	4173.18
417.31	4084.23
417.50	4250.41
417.69	4248.07
417.88	4222.33
418.07	4250.41
418.26	4212.96
418.45	4138.07
418.64	4517.23
418.83	4421.27
419.02	4283.18
419.21	4421.27
419.39	4512.55
419.58	4472.76
419.77	4369.78
419.96	4517.23
420.15	4465.74
420.34	4496.17
420.53	4641.28
420.72	4772.35
420.91	4805.12
421.10	4809.80
421.29	4835.55
421.48	4603.83
421.67	4550.00
421.86	4720.86
422.05	4727.88
422.24	4774.69
422.43	5025.13
422.61	4819.16
422.80	4880.02
422.99	4812.14
423.18	4842.57
423.37	4952.57
423.56	4966.62
423.75	4809.80
423.94	4823.84
424.13	4554.68
424.32	4678.73
424.50	4802.78
424.69	5020.45
424.88	4870.65
425.07	4975.98
425.26	4863.63
425.45	4901.08
425.64	4896.40
425.83	5039.17
426.01	4980.66
426.20	5029.81
426.39	5036.83
426.58	5085.98
426.77	5029.81
426.96	5078.96
427.15	5231.10
427.33	5114.07
427.52	5025.13
427.71	5170.24
427.90	5219.39
428.09	5305.99
428.28	5275.57
428.46	5448.77
428.65	5242.80
428.84	5488.56
429.03	5474.51
429.22	5308.34
429.40	5528.35
429.59	5427.70
429.78	5193.65
429.97	5305.99
430.16	5504.94
430.34	5518.98
430.53	5694.52
430.72	5863.04
430.91	5481.53
431.10	5575.16
431.28	5834.96
431.47	5804.53
431.66	5652.39
431.85	5844.32
432.03	5673.46
432.22	5905.17
432.41	5872.40
432.60	5792.83
432.79	5933.26
432.97	5851.34
433.16	5951.98
433.35	6005.81
433.54	6087.73
433.72	6164.97
433.91	6146.25
434.10	6066.67
434.28	5928.58
434.47	6174.33
434.66	6319.45
434.85	6179.01
435.03	6319.45
435.22	6256.25
435.41	6256.25
435.59	6380.30
435.78	6333.49
435.97	6424.77
436.16	6342.85
436.34	6314.77
436.53	6420.09
436.72	6621.38
436.90	6417.75
437.09	6663.51
437.28	6445.84
437.46	6494.99
437.65	6593.29
437.84	6780.53
438.02	6822.66
438.21	6665.85
438.40	6455.20
438.58	6832.02
438.77	6965.43
438.96	6972.46
439.14	7002.88
439.33	6906.92
439.52	7356.30
439.70	7241.62
439.89	7358.64
440.08	7419.50
440.26	7344.60
440.45	7342.26
440.63	7440.56
440.82	7592.70
441.01	7503.76
441.19	7527.16
441.38	7641.85
441.57	7716.75
441.75	7653.55
441.94	7925.05
442.12	7934.42
442.31	7896.97
442.50	7955.48
442.68	7864.20
442.87	8018.68
443.05	8131.02
443.24	8196.56
443.43	8138.04
443.61	8105.28
443.80	8454.02
443.98	8088.89
444.17	7728.45
444.35	8222.30
444.54	8493.80
444.73	8107.62
444.91	8168.47
445.10	8198.90
445.28	8329.97
445.47	8353.37
445.65	8236.35
445.84	8500.83
446.02	8496.14
446.21	8365.07
446.39	8222.30
446.58	8437.63
446.77	8484.44
446.95	8418.91
447.14	8528.91
447.32	8386.14
447.51	8369.76
447.69	8381.46
447.88	8477.42
448.06	8264.43
448.25	8430.61
448.43	8510.19
448.62	8575.72
448.80	8657.64
448.99	8713.81
449.17	8683.39
449.36	8610.83
449.54	8767.65
449.73	8870.63
449.91	8879.99
450.10	8929.14
450.28	8830.84
450.46	8978.30
450.65	8872.97
450.83	9027.45
451.02	9144.47
451.20	9167.88
451.39	9085.96
451.57	9011.06
451.76	8952.55
451.94	9200.65
452.13	9322.35
452.31	9387.89
452.49	9135.11
452.68	9298.95
452.86	9235.75
453.05	9357.46
453.23	9397.25
453.42	9305.97
453.60	9453.42
453.78	9600.88
453.97	9486.19
454.15	9366.82
454.34	9511.94
454.52	9715.56
454.70	9652.37
454.89	9703.86
455.07	9757.69
455.26	9811.53
455.44	9916.85
455.62	9919.19
455.81	9848.97
455.99	9937.91
456.17	10052.60
456.36	10019.83
456.54	10120.48
456.73	10167.29
456.91	10286.65
457.09	10473.90
457.28	10473.90
457.46	10331.12
457.64	10436.45
457.83	10499.64
458.01	10312.40
458.19	10686.89
458.38	10544.11
458.56	10534.75
458.74	10630.71
458.93	10513.69
459.11	10724.33
459.29	10555.82
459.48	10714.97
459.66	10888.17
459.84	10780.51
460.03	10972.43
460.21	10759.44
460.39	10757.10
460.57	10815.62
460.76	11021.58
460.94	11089.46
461.12	11000.52
461.31	11272.02
461.49	11016.90
461.67	11187.76
461.85	11255.64
462.04	11096.48
462.22	11623.10
462.40	11728.42
462.59	11625.44
462.77	11442.88
462.95	11463.94
463.13	11187.76
463.32	11494.37
463.50	11817.36
463.68	11688.64
463.86	11763.53
464.05	11609.06
464.23	11571.61
464.41	11735.45
464.59	11555.22
464.78	11985.88
464.96	11983.54
465.14	11903.96
465.32	12123.98
465.50	12292.49
465.69	12154.40
465.87	11950.78
466.05	12030.35
466.23	12187.17
466.41	12079.50
466.60	12348.67
466.78	12028.01
466.96	12325.26
467.14	12266.75
467.32	12046.74
467.51	12573.36
467.69	12018.65
467.87	12245.68
468.05	12510.16
468.23	12262.07
468.41	12477.40
468.60	12561.66
468.78	12882.31
468.96	12601.44
469.14	12968.91
469.32	12922.10
469.50	12671.66
469.69	12755.92
469.87	12793.37
470.05	12938.48
470.23	13153.81
470.41	12884.65
470.59	13221.69
470.77	13556.38
470.95	13217.01
471.14	13355.10
471.32	12870.61
471.50	13441.70
471.68	13521.27
471.86	13455.74
472.04	13617.24
472.22	14059.60
472.40	13680.43
472.58	13724.90
472.77	13565.74
472.95	14251.52
473.13	14562.81
473.31	14022.15
473.49	13994.06
473.67	13895.76
473.85	14050.24
474.03	14565.15
474.21	14764.10
474.39	14754.74
474.57	14813.25
474.75	14836.66
474.93	14963.04
475.12	14892.83
475.30	15049.64
475.48	14752.40
475.66	15023.90
475.84	15049.64
476.02	15356.25
476.20	15176.03
476.38	15583.29
476.56	15976.50
476.74	15646.48
476.92	15749.46
477.10	15990.54
477.28	16006.92
477.46	16018.63
477.64	16311.19
477.82	16430.56
478.00	16842.50
478.18	16706.74
478.36	17062.51
478.54	17015.69
478.72	17018.04
478.90	17418.27
479.08	17331.67
479.26	17460.40
479.44	17455.72
479.62	17783.39
479.80	17928.50
479.98	18202.35
480.16	18410.65
480.34	18216.39
480.52	18284.26
480.70	18530.02
480.88	18230.43
481.06	18689.18
481.24	18640.03
481.41	18827.27
481.59	19278.99
481.77	19321.12
481.95	19536.45
482.13	19433.47
482.31	19758.80
482.49	19978.81
482.67	20355.64
482.85	20182.44
483.03	20657.57
483.21	20531.18
483.39	20631.82
483.57	20608.42
483.74	20802.68
483.92	21214.62
484.10	21312.92
484.28	21596.12
484.46	21830.18
484.64	22139.13
484.82	21884.01
485.00	22354.46
485.18	22611.92
485.35	22824.90
485.53	22820.22
485.71	22728.94
485.89	23396.00
486.07	23049.60
486.25	23194.71
486.43	23466.21
486.61	23798.57
486.78	23889.85
486.96	24025.60
487.14	24409.45
487.32	24397.74
487.50	24720.74
487.68	24847.13
487.85	25022.67
488.03	25575.03
488.21	25766.96
488.39	25371.41
488.57	25783.34
488.75	25785.68
488.92	26228.04
489.10	26520.61
489.28	26635.30
489.46	27201.71
489.64	26611.89
489.81	27278.94
489.99	27466.19
490.17	27639.39
490.35	27990.47
490.53	27487.25
490.70	28065.36
490.88	28053.66
491.06	28819.02
491.24	28889.23
491.41	28699.65
491.59	29039.03
491.77	29083.50
491.95	29324.57
492.13	29411.17
492.30	29593.73
492.48	29991.62
492.66	30071.20
492.84	30228.02
493.01	30628.25
493.19	30263.13
493.37	31021.46
493.54	30932.52
493.72	31091.68
493.90	31501.27
494.08	31337.43
494.25	31838.31
494.43	32004.49
494.61	32006.83
494.79	32474.93
494.96	32353.23
495.14	32601.32
495.32	32580.26
495.49	32896.23
495.67	32959.42
495.85	33378.38
496.02	33640.52
496.20	33696.69
496.38	34265.44
496.55	34047.77
496.73	34455.03
496.91	34562.69
497.09	34679.72
497.26	35063.57
497.44	34569.71
497.62	34944.20
497.79	35459.12
497.97	35145.48
498.14	35763.39
498.32	36156.60
498.50	36217.45
498.67	36390.65
498.85	36278.30
499.03	36252.56
499.20	36631.72
499.38	36514.70
499.56	36858.76
499.73	36739.39
499.91	37071.75
500.08	37357.29
500.26	37298.78
500.44	37338.57
500.61	37610.07
500.79	37310.48
500.97	38120.31
501.14	38380.10
501.32	38483.09
501.49	38127.33
501.67	38291.16
501.84	38541.60
502.02	38508.83
502.20	39016.73
502.37	38693.74
502.55	38993.32
502.72	39250.78
502.90	39159.50
503.07	39498.88
503.25	39269.51
503.43	39372.49
503.60	39908.47
503.78	40091.04
503.95	39924.86
504.13	40168.27
504.30	40404.67
504.48	40832.99
504.65	40769.79
504.83	40596.59
505.01	40994.48
505.18	40746.39
505.36	41635.79
505.53	40994.48
505.71	41233.22
505.88	41539.83
506.06	41244.92
506.23	41490.68
506.41	41270.67
506.58	41902.61
506.76	41708.35
506.93	42323.91
507.11	41811.33
507.28	42567.32
507.46	42497.11
507.63	43051.81
507.81	43012.02
507.98	42256.03
508.16	43042.45
508.33	43257.78
508.50	43430.98
508.68	43470.77
508.85	43751.63
509.03	43824.19
509.20	43620.56
509.38	44280.60
509.55	44381.24
509.73	44058.24
509.90	44243.15
510.08	44039.52
510.25	44418.69
510.42	44737.00
510.60	45099.78
510.77	44783.81
510.95	44903.18
511.12	44807.22
511.30	45064.67
511.47	45308.09
511.64	45034.25
511.82	45567.89
511.99	45495.33
512.17	45876.84
512.34	45703.64
512.51	46241.96
512.69	46014.93
512.86	46078.13
513.04	46286.43
513.21	46265.37
513.38	46316.86
513.56	46583.68
513.73	46171.75
513.90	46532.19
514.08	47084.56
514.25	47353.72
514.43	46927.74
514.60	47398.19
514.77	46721.77
514.95	47526.92
515.12	47217.97
515.29	47178.18
515.47	47515.22
515.64	47618.20
515.81	47786.72
515.99	47491.81
516.16	48205.67
516.33	48093.33
516.51	48376.53
516.68	48341.42
516.85	48095.67
517.03	48488.88
517.20	48589.52
517.37	49118.48
517.54	48397.60
517.72	48807.19
517.89	48308.66
518.06	48797.83
518.24	49099.76
518.41	49350.20
518.58	49336.15
518.75	49017.84
518.93	49169.97
519.10	49357.22
519.27	49858.09
519.45	49677.87
519.62	49785.54
519.79	49818.30
519.96	49675.53
520.14	50335.56
520.31	49858.09
520.48	50216.19
520.65	50003.20
520.83	50593.02
521.00	50667.92
521.17	50239.60
521.34	50562.59
521.52	50274.71
521.69	50642.17
521.86	50733.45
522.03	50674.94
522.20	51124.32
522.38	51454.34
522.55	51100.92
522.72	51243.69
522.89	51030.70
523.07	51643.92
523.24	51402.85
523.41	51737.54
523.58	51444.98
523.75	51929.47
523.92	51536.26
524.10	51590.09
524.27	51550.30
524.44	51590.09
524.61	51583.07
524.78	52154.16
524.96	52238.42
525.13	51999.68
525.30	52151.82
525.47	52306.29
525.64	52030.11
525.81	52430.34
525.98	52495.88
526.16	52425.66
526.33	52224.37
526.50	52580.13
526.67	52540.35
526.84	52767.38
527.01	52540.35
527.18	52509.92
527.36	52729.93
527.53	52446.72
527.70	53375.92
527.87	53254.21
528.04	52917.17
528.21	53329.11
528.38	53034.20
528.55	53399.32
528.72	52996.75
528.89	53123.14
529.07	53106.76
529.24	53270.59
529.41	53474.22
529.58	53415.71
529.75	53673.16
529.92	53832.32
530.09	53514.01
530.26	53792.53
530.43	53907.22
530.60	53551.46
530.77	53528.05
530.94	54033.61
531.11	53748.06
531.28	54148.29
531.46	53893.18
531.63	54010.20
531.80	54115.53
531.97	54136.59
532.14	54450.22
532.31	54461.93
532.48	54403.41
532.65	54410.43
532.82	54232.55
532.99	54632.78
533.16	54321.49
533.33	54789.60
533.50	54733.43
533.67	54831.73
533.84	54588.31
534.01	54333.20
534.18	54897.27
534.35	55154.72
534.52	55058.76
534.69	54901.95
534.86	55182.81
535.03	54829.39
535.20	54850.45
535.37	55323.24
535.54	55358.35
535.71	55121.96
535.88	55304.52
536.05	54941.74
536.22	55444.95
536.38	55491.76
536.55	55456.65
536.72	55393.46
536.89	55227.28
537.06	55421.55
537.23	55866.25
537.40	55475.38
537.57	55538.57
537.74	55440.27
537.91	55931.78
538.08	55611.13
538.25	55330.26
538.42	55760.92
538.59	55920.08
538.75	55625.17
538.92	55950.51
539.09	56095.62
539.26	55791.35
539.43	55840.50
539.60	56055.83
539.77	56025.40
539.94	56259.46
540.11	56362.44
540.28	56196.26
540.44	56083.92
540.61	56179.88
540.78	56322.65
540.95	56339.04
541.12	56315.63
541.29	56383.51
541.46	56346.06
541.62	56313.29
541.79	56530.96
541.96	56264.14
542.13	56385.85
542.30	56587.13
542.47	56664.37
542.63	56802.46
542.80	56807.14
542.97	56816.50
543.14	57373.55
543.31	56996.73
543.48	56872.68
543.64	57357.17
543.81	57118.43
543.98	57111.41
544.15	56933.53
544.32	57453.13
544.48	57214.40
544.65	57212.06
544.82	57481.22
544.99	57130.14
545.16	57092.69
545.32	57134.82
545.49	57574.84
545.66	57619.31
545.83	57425.04
546.00	57748.04
546.16	57528.03
546.33	57441.43
546.50	57429.72
546.67	57607.61
546.83	57265.89
547.00	57516.32
547.17	57469.51
547.34	57511.64
547.50	57785.49
547.67	58166.99
547.84	57715.27
548.00	58010.18
548.17	57954.00
548.34	57909.53
548.51	58028.90
548.67	58089.76
548.84	57844.00
549.01	58021.88
549.18	57907.19
549.34	57888.47
549.51	58131.89
549.68	58288.70
549.84	58064.01
550.01	58337.85
550.18	58000.82
550.34	58417.43
550.51	58277.00
550.68	58475.94
550.84	58045.29
551.01	58356.58
551.18	58281.68
551.34	58473.60
551.51	58574.25
551.68	58295.72
551.84	58394.03
552.01	58471.26
552.18	58576.59
552.34	58347.21
552.51	58595.31
552.68	58209.12
552.84	58379.98
553.01	58742.77
553.18	58546.16
553.34	58632.76
553.51	58562.54
553.67	58646.80
553.84	58827.02
554.01	58801.28
554.17	58829.37
554.34	58820.00
554.51	58862.13
554.67	58871.49
554.84	58810.64
555.00	58766.17
555.17	58770.85
555.33	58922.99
555.50	58831.71
555.67	58745.11
555.83	58906.60
556.00	58873.84
556.16	59124.27
556.33	58981.50
556.50	59196.83
556.66	59182.79
556.83	58859.79
556.99	59316.20
557.16	59381.73
557.32	59458.97
557.49	59444.93
557.65	59248.32
557.82	59044.69
557.98	59274.07
558.15	59243.64
558.32	59503.44
558.48	59344.28
558.65	59564.29
558.81	59463.65
558.98	59391.09
559.14	59447.27
559.31	59660.26
559.47	59676.64
559.64	59650.89
559.80	59435.56
559.97	59756.22
560.13	59552.59
560.30	59550.25
560.46	59571.32
560.63	59634.51
560.79	59423.86
560.96	59774.94
561.12	59590.04
561.29	59583.02
561.45	59826.43
561.61	59648.55
561.78	59683.66
561.94	59681.32
562.11	59711.75
562.27	59648.55
562.44	59690.68
562.60	59908.35
562.77	59784.30
562.93	59711.75
563.10	59915.37
563.26	59700.04
563.42	60053.47
563.59	59788.98
563.75	59725.79
563.92	59812.39
564.08	59833.46
564.24	59934.10
564.41	60240.71
564.57	60041.76
564.74	59955.16
564.90	60037.08
565.07	59934.10
565.23	60060.49
565.39	59906.01
565.56	60109.64
565.72	59971.55
565.88	60037.08
566.05	60102.62
566.21	60128.36
566.38	60231.35
566.54	60221.98
566.70	60097.94
566.87	60175.17
567.03	60144.75
567.19	60207.94
567.36	60156.45
567.52	60170.49
567.68	60509.87
567.85	60116.66
568.01	60474.76
568.17	60303.90
568.34	60238.37
568.50	60275.82
568.66	60336.67
568.83	60502.85
568.99	60182.19
569.15	60280.50
569.32	60285.18
569.48	60189.22
569.64	60498.17
569.81	60254.75
569.97	60158.79
570.13	60282.84
570.30	60104.96
570.46	60406.89
570.62	60399.86
570.78	60339.01
570.95	60207.94
571.11	60697.11
571.27	60441.99
571.43	60453.70
571.60	60434.97
571.76	60484.12
571.92	60477.10
572.09	60629.24
572.25	60720.52
572.41	60327.31
572.57	60350.71
572.74	60509.87
572.90	60544.98
573.06	60570.72
573.22	60348.37
573.38	60530.93
573.55	60484.12
573.71	60692.43
573.87	60664.35
574.03	60411.57
574.20	60507.53
574.36	60301.56
574.52	60676.05
574.68	60601.15
574.84	60570.72
575.01	60612.85
575.17	60736.90
575.33	60626.90
575.49	60432.63
575.65	60683.07
575.82	60612.85
575.98	60753.29
576.14	60743.92
576.30	60647.96
576.46	60505.19
576.62	60505.19
576.79	60650.30
576.95	60516.89
577.11	60809.46
577.27	60818.82
577.43	60748.60
577.59	60755.63
577.75	60626.90
577.92	60301.56
578.08	60683.07
578.24	60643.28
578.40	60891.38
578.56	60814.14
578.72	60678.39
578.88	60886.70
579.04	60860.95
579.21	60701.79
579.37	60910.10
579.53	60722.86
579.69	60680.73
579.85	60598.81
580.01	60779.03
580.17	60556.68
580.33	60863.29
580.49	60912.44
580.65	60797.76
580.82	60636.26
580.98	60659.66
581.14	60516.89
581.30	60956.91
581.46	60750.94
581.62	60877.33
581.78	60631.58
581.94	60865.63
582.10	60802.44
582.26	60645.62
582.42	60783.71
582.58	60865.63
582.74	60755.63
582.90	60821.16
583.06	60666.69
583.22	60425.61
583.38	60900.74
583.54	60739.24
583.70	60889.04
583.86	60942.87
584.02	60662.00
584.18	60966.27
584.34	60959.25
584.50	60966.27
584.66	60748.60
584.82	60697.11
584.98	60844.57
585.14	60970.96
585.30	60814.14
585.46	60643.28
585.62	60910.10
585.78	60935.85
585.94	60790.73
586.10	60884.36
586.26	60989.68
586.42	61095.00
586.58	61024.79
586.74	60935.85
586.90	60804.78
587.06	60807.12
587.22	61230.75
587.38	60933.51
587.54	61017.77
587.70	61141.81
587.86	60973.30
588.02	60919.46
588.18	61134.79
588.34	60776.69
588.49	60877.33
