SpectraSuite Data File
++++++++++++++++++++++++++++++++++++
Date: Fri Oct 25 11:25:14 EDT 2013
User: price-jones
Dark Spectrum Present: No
Reference Spectrum Present: No
Number of Sampled Component Spectra: 1
Spectrometers: USB2+H05261
Integration Time (usec): 100000 (USB2+H05261)
Spectra Averaged: 1 (USB2+H05261)
Boxcar Smoothing: 0 (USB2+H05261)
Correct for Electrical Dark: No (USB2+H05261)
Strobe/Lamp Enabled: No (USB2+H05261)
Correct for Detector Non-linearity: No (USB2+H05261)
Correct for Stray Light: No (USB2+H05261)
Number of Pixels in Processed Spectrum: 2048
>>>>>Begin Processed Spectral Data<<<<<
365.73	259.80
365.92	259.80
366.12	259.80
366.32	121.71
366.52	133.41
366.72	145.11
366.91	114.69
367.11	149.79
367.31	124.05
367.51	140.43
367.70	124.05
367.90	166.18
368.10	126.39
368.30	156.82
368.49	205.97
368.69	220.01
368.89	217.67
369.09	135.75
369.28	175.54
369.48	152.13
369.68	236.39
369.87	241.08
370.07	215.33
370.27	224.69
370.47	271.50
370.66	610.88
370.86	667.05
371.06	650.67
371.25	664.71
371.45	620.24
371.65	718.54
371.84	774.72
372.04	655.35
372.24	690.46
372.44	732.59
372.63	765.36
372.83	690.46
373.03	772.38
373.22	704.50
373.42	758.33
373.62	828.55
373.81	767.70
374.01	755.99
374.21	802.80
374.40	795.78
374.60	870.68
374.79	842.59
374.99	812.17
375.19	908.13
375.38	910.47
375.58	800.46
375.78	856.64
375.97	828.55
376.17	976.00
376.37	877.70
376.56	898.77
376.76	882.38
376.95	880.04
377.15	968.98
377.35	856.64
377.54	884.72
377.74	1004.09
377.93	868.34
378.13	922.17
378.33	922.17
378.52	957.28
378.72	966.64
378.91	961.96
379.11	990.05
379.31	905.79
379.50	889.40
379.70	926.85
379.89	915.15
380.09	929.19
380.28	1048.56
380.48	992.39
380.68	945.58
380.87	997.07
381.07	1020.47
381.26	992.39
381.46	961.96
381.65	961.96
381.85	1036.86
382.04	980.68
382.24	973.66
382.43	1076.65
382.63	1069.62
382.83	1053.24
383.02	1111.75
383.22	1060.26
383.41	1097.71
383.61	1081.33
383.80	1128.14
384.00	1107.07
384.19	1114.10
384.39	1172.61
384.58	1118.78
384.78	1153.88
384.97	1114.10
385.17	1212.40
385.36	1128.14
385.56	1130.48
385.75	1097.71
385.95	1158.57
386.14	1165.59
386.34	1146.86
386.53	1207.72
386.72	1160.91
386.92	1167.93
387.11	1245.16
387.31	1268.57
387.50	1249.85
387.70	1256.87
387.89	1261.55
388.09	1210.06
388.28	1373.89
388.48	1252.19
388.67	1327.08
388.86	1327.08
389.06	1352.83
389.25	1334.11
389.45	1387.94
389.64	1352.83
389.84	1287.29
390.03	1287.29
390.22	1448.79
390.42	1380.92
390.61	1413.68
390.81	1390.28
391.00	1329.42
391.19	1390.28
391.39	1373.89
391.58	1504.96
391.78	1474.54
391.97	1528.37
392.16	1465.18
392.36	1558.80
392.55	1535.39
392.75	1483.90
392.94	1502.62
393.13	1558.80
393.33	1535.39
393.52	1526.03
393.71	1540.07
393.91	1589.22
394.10	1582.20
394.29	1584.54
394.49	1530.71
394.68	1572.84
394.88	1605.61
395.07	1713.27
395.26	1640.72
395.46	1565.82
395.65	1638.38
395.84	1675.82
396.04	1739.02
396.23	1776.47
396.42	1696.89
396.62	1732.00
396.81	1703.91
397.00	1713.27
397.19	1827.96
397.39	1715.61
397.58	1806.89
397.77	1732.00
397.97	1834.98
398.16	1827.96
398.35	1837.32
398.55	1893.49
398.74	1891.15
398.93	1923.92
399.12	1909.88
399.32	1870.09
399.51	1813.92
399.70	2005.84
399.90	1849.02
400.09	1954.35
400.28	2113.50
400.47	1984.77
400.67	2092.44
400.86	2062.01
401.05	1956.69
401.24	2125.21
401.44	2064.35
401.63	2193.08
401.82	2193.08
402.01	2150.95
402.21	2150.95
402.40	2125.21
402.59	2153.29
402.78	2174.36
402.97	2253.94
403.17	2291.38
403.36	2275.00
403.55	2228.19
403.74	2352.24
403.93	2228.19
404.13	2389.69
404.32	2370.96
404.51	2246.91
404.70	2420.11
404.89	2502.03
405.09	2473.95
405.28	2509.05
405.47	2413.09
405.66	2431.82
405.85	2525.44
406.05	2504.37
406.24	2572.25
406.43	2513.74
406.62	2696.30
406.81	2743.11
407.00	2476.29
407.20	2602.68
407.39	2679.91
407.58	2834.39
407.77	2640.12
407.96	2754.81
408.15	2602.68
408.34	2719.70
408.54	2752.47
408.73	2813.32
408.92	2860.13
409.11	2855.45
409.30	2815.66
409.49	2801.62
409.68	2878.86
409.87	2965.46
410.07	2944.39
410.26	3108.23
410.45	3007.59
410.64	2956.10
410.83	3023.97
411.02	3049.72
411.21	3103.55
411.40	3052.06
411.59	3190.15
411.78	3187.81
411.98	3260.37
412.17	3206.53
412.36	3192.49
412.55	3260.37
412.74	3321.22
412.93	3419.52
413.12	3471.01
413.31	3545.91
413.50	3431.23
413.69	3452.29
413.88	3592.72
414.07	3569.32
414.26	3604.42
414.45	3658.26
414.64	3721.45
414.83	3801.03
415.02	3723.79
415.22	3801.03
415.41	3936.78
415.60	3808.05
415.79	3758.90
415.98	4035.08
416.17	3911.04
416.36	3882.95
416.55	3969.55
416.74	4056.15
416.93	4030.40
417.12	3992.95
417.31	4189.56
417.50	4276.16
417.69	4257.43
417.88	4145.09
418.07	4262.12
418.26	4304.25
418.45	4301.90
418.64	4449.36
418.83	4407.23
419.02	4306.59
419.21	4463.40
419.39	4297.22
419.58	4571.07
419.77	4400.21
419.96	4491.49
420.15	4559.36
420.34	4627.24
420.53	4589.79
420.72	4535.96
420.91	4648.30
421.10	4732.56
421.29	4674.05
421.48	4779.37
421.67	4751.29
421.86	4641.28
422.05	4772.35
422.24	4727.88
422.43	4826.18
422.61	4903.42
422.80	5008.75
422.99	4819.16
423.18	4880.02
423.37	4978.32
423.56	5008.75
423.75	5025.13
423.94	4910.44
424.13	4629.58
424.32	4709.16
424.50	5001.72
424.69	5109.39
424.88	5025.13
425.07	4978.32
425.26	4971.30
425.45	4987.68
425.64	4912.78
425.83	5025.13
426.01	4987.68
426.20	4819.16
426.39	5053.22
426.58	5048.54
426.77	5083.64
426.96	5093.01
427.15	5083.64
427.33	5071.94
427.52	5116.41
427.71	5231.10
427.90	5240.46
428.09	5195.99
428.28	5245.14
428.46	5394.93
428.65	5296.63
428.84	5397.28
429.03	5537.71
429.22	5055.56
429.40	5373.87
429.59	5320.04
429.78	5203.01
429.97	5341.10
430.16	5493.24
430.34	5458.13
430.53	5710.91
430.72	5582.18
430.91	5511.96
431.10	5542.39
431.28	5790.49
431.47	5722.61
431.66	5804.53
431.85	5767.08
432.03	5776.44
432.22	5973.05
432.41	5776.44
432.60	5771.76
432.79	5816.23
432.97	5881.77
433.16	5902.83
433.35	5736.65
433.54	5900.49
433.72	6003.47
433.91	6040.92
434.10	6120.50
434.28	6026.88
434.47	6202.42
434.66	6326.47
434.85	6221.14
435.03	6314.77
435.22	6181.35
435.41	6307.74
435.59	6394.34
435.78	6342.85
435.97	6408.39
436.16	6328.81
436.34	6333.49
436.53	6455.20
436.72	6609.67
436.90	6389.66
437.09	6546.48
437.28	6443.49
437.46	6413.07
437.65	6527.75
437.84	6731.38
438.02	6661.16
438.21	6635.42
438.40	6609.67
438.58	7007.56
438.77	6876.49
438.96	6972.46
439.14	7112.89
439.33	7143.32
439.52	7258.00
439.70	7173.74
439.89	7370.35
440.08	7323.54
440.26	7330.56
440.45	7250.98
440.63	7375.03
440.82	7419.50
441.01	7318.86
441.19	7578.65
441.38	7695.68
441.57	7758.88
441.75	7754.19
441.94	7791.64
442.12	7854.84
442.31	7836.11
442.50	7908.67
442.68	7946.12
442.87	8016.33
443.05	8177.83
443.24	8100.59
443.43	8056.12
443.61	8180.17
443.80	8325.29
443.98	7957.82
444.17	7791.64
444.35	8152.09
444.54	8208.26
444.73	7976.55
444.91	8313.58
445.10	8446.99
445.28	8280.82
445.47	8011.65
445.65	8283.16
445.84	8329.97
446.02	8393.16
446.21	8418.91
446.39	8430.61
446.58	8475.08
446.77	8535.93
446.95	8215.28
447.14	8372.10
447.32	8566.36
447.51	8465.72
447.69	8449.33
447.88	8416.57
448.06	8526.57
448.25	8641.26
448.43	8491.46
448.62	8519.55
448.80	8313.58
448.99	8592.11
449.17	8617.85
449.36	8512.53
449.54	8809.78
449.73	9011.06
449.91	8933.82
450.10	8884.67
450.28	9015.74
450.46	9177.24
450.65	8908.08
450.83	8917.44
451.02	8762.97
451.20	9254.48
451.39	9048.51
451.57	9004.04
451.76	9071.92
451.94	9043.83
452.13	9392.57
452.31	9210.01
452.49	9039.15
452.68	9228.73
452.86	9202.99
453.05	9404.27
453.23	9511.94
453.42	9135.11
453.60	9233.41
453.78	9554.07
453.97	9486.19
454.15	9465.13
454.34	9357.46
454.52	9596.20
454.70	9633.64
454.89	9507.26
455.07	9603.22
455.26	9722.59
455.44	9900.47
455.62	9832.59
455.81	9558.75
455.99	9991.75
456.17	10010.47
456.36	9975.36
456.54	10136.86
456.73	10045.58
456.91	10251.55
457.09	10368.57
457.28	10686.89
457.46	10361.55
457.64	10382.62
457.83	10214.10
458.01	10520.71
458.19	10415.38
458.38	10551.14
458.56	10450.49
458.74	10698.59
458.93	10443.47
459.11	10560.50
459.29	10541.77
459.48	10686.89
459.66	10633.05
459.84	10698.59
460.03	10963.07
460.21	10857.75
460.39	10909.24
460.57	10799.23
460.76	10867.11
460.94	11063.71
461.12	11159.67
461.31	11096.48
461.49	10871.79
461.67	11077.76
461.85	11185.42
462.04	11007.54
462.22	11784.60
462.40	11485.01
462.59	11592.67
462.77	11321.17
462.95	11510.75
463.13	11276.70
463.32	11534.16
463.50	11592.67
463.68	11679.27
463.86	11822.05
464.05	11433.52
464.23	11592.67
464.41	11667.57
464.59	11705.02
464.78	12004.61
464.96	11852.47
465.14	11873.54
465.32	11861.84
465.50	12032.69
465.69	12091.21
465.87	12196.53
466.05	11878.22
466.23	12112.27
466.41	12250.36
466.60	12477.40
466.78	12168.45
466.96	12081.85
467.14	12018.65
467.32	12177.81
467.51	12428.24
467.69	12049.08
467.87	12355.69
468.05	12444.63
468.23	12294.83
468.41	12219.94
468.60	12610.81
468.78	12666.98
468.96	12540.59
469.14	12451.65
469.32	12929.12
469.50	12442.29
469.69	12924.44
469.87	12931.46
470.05	13135.09
470.23	13116.36
470.41	13008.70
470.59	13322.33
470.77	13076.57
470.95	13341.05
471.14	13392.55
471.32	13004.02
471.50	13453.40
471.68	13476.80
471.86	13710.86
472.04	13476.80
472.22	13961.30
472.40	13479.15
472.58	13729.58
472.77	13879.38
472.95	14066.62
473.13	14593.24
473.31	14221.10
473.49	14031.51
473.67	14059.60
473.85	14221.10
474.03	14516.00
474.21	14352.16
474.39	14647.07
474.57	14824.95
474.75	14846.02
474.93	14855.38
475.12	14745.38
475.30	15171.35
475.48	15084.75
475.66	14998.15
475.84	15056.67
476.02	15342.21
476.20	15208.80
476.38	15325.83
476.56	15983.52
476.74	15882.88
476.92	15644.14
477.10	15501.37
477.28	15887.56
477.46	16016.29
477.64	16205.87
477.82	16641.21
478.00	16922.07
478.18	16783.98
478.36	16774.62
478.54	16968.88
478.72	17104.64
478.90	16982.93
479.08	17252.09
479.26	17481.46
479.44	17530.61
479.62	17685.09
479.80	17886.37
479.98	18057.23
480.16	18537.04
480.34	17970.63
480.52	18595.56
480.70	18661.09
480.88	18305.33
481.06	18677.48
481.24	18548.75
481.41	18925.57
481.59	19246.23
481.77	19459.21
481.95	19365.59
482.13	19358.57
482.31	19878.17
482.49	20093.50
482.67	20128.61
482.85	20453.94
483.03	20432.88
483.21	20772.25
483.39	20563.95
483.57	20835.45
483.74	21099.93
483.92	21156.10
484.10	21392.50
484.28	21741.24
484.46	21745.92
484.64	21994.01
484.82	21638.25
485.00	22108.70
485.18	22731.28
485.35	22555.74
485.53	22651.70
485.71	22883.42
485.89	23627.71
486.07	23342.16
486.25	23417.06
486.43	23164.28
486.61	23578.56
486.78	24011.56
486.96	23878.15
487.14	24353.27
487.32	24177.73
487.50	24968.84
487.68	24727.76
487.85	25062.46
488.03	25460.35
488.21	25736.53
488.39	25717.81
488.57	25834.83
488.75	25998.67
488.92	25989.31
489.10	26504.23
489.28	26331.03
489.46	26855.31
489.64	26642.32
489.81	27318.73
489.99	27740.03
490.17	27702.58
490.35	28041.96
490.53	27777.48
490.70	28121.54
490.88	27931.95
491.06	28650.50
491.24	28472.62
491.41	29099.88
491.59	28821.36
491.77	28851.78
491.95	29259.04
492.13	29687.36
492.30	29752.89
492.48	29895.66
492.66	29811.40
492.84	30061.84
493.01	30546.33
493.19	30562.72
493.37	30501.86
493.54	30759.32
493.72	31342.11
493.90	31112.74
494.08	31239.13
494.25	31866.39
494.43	32095.77
494.61	32027.89
494.79	32182.37
494.96	32474.93
495.14	32496.00
495.32	32907.93
495.49	32891.55
495.67	33074.11
495.85	33165.39
496.02	33467.32
496.20	34059.48
496.38	33907.34
496.55	33909.68
496.73	34808.45
496.91	34539.29
497.09	34225.65
497.26	35030.80
497.44	34656.31
497.62	35129.10
497.79	35236.77
497.97	35452.09
498.14	35559.76
498.32	35723.60
498.50	36027.87
498.67	36378.95
498.85	36334.48
499.03	36341.50
499.20	36442.14
499.38	36772.16
499.56	37186.43
499.73	36861.10
499.91	36954.72
500.08	37247.29
500.26	37373.67
500.44	37460.27
500.61	37275.37
500.79	37338.57
500.97	37951.79
501.14	38101.58
501.32	38185.84
501.49	38354.36
501.67	38576.71
501.84	38787.36
502.02	38457.34
502.20	38822.47
502.37	39257.81
502.55	39115.03
502.72	39363.13
502.90	39367.81
503.07	39512.92
503.25	39524.63
503.43	39316.32
503.60	39632.29
503.78	40130.83
503.95	40037.20
504.13	40278.28
504.30	40463.18
504.48	40627.02
504.65	40432.75
504.83	40840.01
505.01	40971.08
505.18	40790.86
505.36	41195.77
505.53	40898.52
505.71	41497.70
505.88	41656.85
506.06	41516.42
506.23	41439.18
506.41	41581.96
506.58	41921.34
506.76	42033.68
506.93	41923.68
507.11	41867.50
507.28	42286.46
507.46	42445.62
507.63	42373.06
507.81	42777.97
507.98	42787.33
508.16	42684.35
508.33	42918.40
508.50	43358.42
508.68	43480.13
508.85	43454.39
509.03	43562.05
509.20	44133.14
509.38	43859.30
509.55	44041.86
509.73	44212.72
509.90	44016.11
510.08	44060.58
510.25	44751.04
510.42	44332.09
510.60	44893.82
510.77	45067.02
510.95	45109.14
511.12	45120.85
511.30	44795.51
511.47	45303.41
511.64	44910.20
511.82	45406.39
511.99	45200.43
512.17	45514.06
512.34	45628.74
512.51	46038.34
512.69	46408.14
512.86	46230.26
513.04	46541.55
513.21	46461.97
513.38	46574.32
513.56	46642.20
513.73	46733.48
513.90	46724.11
514.08	46625.81
514.25	46953.49
514.43	47159.45
514.60	46726.46
514.77	47079.88
514.95	47210.95
515.12	47075.19
515.29	47267.12
515.47	47576.07
515.64	47718.84
515.81	47887.36
515.99	47908.43
516.16	48191.63
516.33	48390.58
516.51	48596.54
516.68	47800.76
516.85	48116.73
517.03	48858.68
517.20	48940.60
517.37	48449.09
517.54	48671.44
517.72	48947.62
517.89	48961.67
518.06	49059.97
518.24	49214.44
518.41	49160.61
518.58	49059.97
518.75	48884.43
518.93	49279.98
519.10	49287.00
519.27	49481.27
519.45	49429.77
519.62	49633.40
519.79	49773.83
519.96	49874.48
520.14	49624.04
520.31	49848.73
520.48	50314.50
520.65	50108.53
520.83	50632.81
521.00	50239.60
521.17	50181.09
521.34	50291.09
521.52	50632.81
521.69	50543.87
521.86	50958.14
522.03	51021.34
522.20	50876.22
522.38	51196.88
522.55	50967.51
522.72	50962.82
522.89	50979.21
523.07	51482.42
523.24	51136.02
523.41	51599.45
523.58	51388.80
523.75	51697.75
523.92	51643.92
524.10	51697.75
524.27	51693.07
524.44	52016.07
524.61	51840.53
524.78	51980.96
524.96	51877.97
525.13	51697.75
525.30	52198.63
525.47	52222.03
525.64	52018.41
525.81	52416.30
525.98	52750.99
526.16	52240.76
526.33	52327.36
526.50	52914.83
526.67	52542.69
526.84	52809.51
527.01	52556.73
527.18	52816.53
527.36	52926.53
527.53	52404.59
527.70	53315.06
527.87	52910.15
528.04	53010.79
528.21	53144.20
528.38	53034.20
528.55	53382.94
528.72	53228.46
528.89	53277.61
529.07	53207.40
529.24	52882.06
529.41	53532.73
529.58	53230.80
529.75	53521.03
529.92	53586.57
530.09	53895.52
530.26	53759.76
530.43	53811.26
530.60	53537.41
530.77	53656.78
530.94	53846.36
531.11	53989.14
531.28	53848.71
531.46	54089.78
531.63	54042.97
531.80	54171.70
531.97	54080.42
532.14	54213.83
532.31	54073.40
532.48	54384.69
532.65	54658.53
532.82	54321.49
532.99	54452.56
533.16	54361.28
533.33	54471.29
533.50	54770.88
533.67	54686.62
533.84	54401.07
534.01	54649.17
534.18	54773.22
534.35	55128.98
534.52	54794.28
534.69	54740.45
534.86	54883.22
535.03	54798.96
535.20	54918.33
535.37	55086.85
535.54	55238.98
535.71	55217.92
535.88	55409.84
536.05	55304.52
536.22	55360.69
536.38	55508.14
536.55	55669.64
536.72	55262.39
536.89	55409.84
537.06	55456.65
537.23	55739.86
537.40	55358.35
537.57	55323.24
537.74	55402.82
537.91	55819.44
538.08	55573.68
538.25	55625.17
538.42	55828.80
538.59	56023.06
538.75	55779.65
538.92	55861.57
539.09	56025.40
539.26	55966.89
539.43	55854.54
539.60	56121.37
539.77	56055.83
539.94	56350.74
540.11	56074.55
540.28	56437.34
540.44	56313.29
540.61	56151.79
540.78	56301.59
540.95	56119.02
541.12	56168.18
541.29	56065.19
541.46	56416.27
541.62	56456.06
541.79	56715.86
541.96	56243.07
542.13	56329.67
542.30	56589.47
542.47	56781.40
542.63	56818.84
542.80	56788.42
542.97	57048.22
543.14	56959.28
543.31	56999.07
543.48	57139.50
543.64	57165.24
543.81	57221.42
543.98	57034.17
544.15	57050.56
544.32	57272.91
544.48	57205.03
544.65	57338.44
544.82	57434.41
544.99	56935.87
545.16	57373.55
545.32	57296.31
545.49	57385.25
545.66	57666.12
545.83	57450.79
546.00	57621.65
546.16	57474.20
546.33	57544.41
546.50	57350.15
546.67	57602.92
546.83	57172.27
547.00	57488.24
547.17	57631.01
547.34	57595.90
547.50	57717.61
547.67	57733.99
547.84	57925.92
548.00	58019.54
548.17	58185.72
548.34	58052.31
548.51	57989.11
548.67	58124.86
548.84	57961.03
549.01	57759.74
549.18	57937.62
549.34	58127.20
549.51	58099.12
549.68	58312.11
549.84	58159.97
550.01	58225.51
550.18	58185.72
550.34	58382.32
550.51	58382.32
550.68	58372.96
550.84	58082.73
551.01	58305.09
551.18	58321.47
551.34	58190.40
551.51	58464.24
551.68	58384.66
551.84	58174.02
552.01	58253.59
552.18	58403.39
552.34	58578.93
552.51	58569.57
552.68	58372.96
552.84	58365.94
553.01	58880.86
553.18	58656.17
553.34	58693.61
553.51	58677.23
553.67	58609.35
553.84	58862.13
554.01	58836.39
554.17	58609.35
554.34	58899.58
554.51	58632.76
554.67	58922.99
554.84	58862.13
555.00	59002.56
555.17	58663.19
555.33	58869.15
555.50	58794.26
555.67	58997.88
555.83	58752.13
556.00	58749.79
556.16	59248.32
556.33	59096.19
556.50	59047.04
556.66	59269.39
556.83	59021.29
556.99	59143.00
557.16	59227.26
557.32	59367.69
557.49	59363.01
557.65	59089.16
557.82	59196.83
557.98	59271.73
558.15	59372.37
558.32	59430.88
558.48	59327.90
558.65	59360.67
558.81	59374.71
558.98	59428.54
559.14	59618.13
559.31	59503.44
559.47	59522.16
559.64	59583.02
559.80	59618.13
559.97	59856.86
560.13	59302.15
560.30	59484.72
560.46	59517.48
560.63	59686.00
560.79	59737.49
560.96	59625.15
561.12	59653.23
561.29	59826.43
561.45	59636.85
561.61	59660.26
561.78	59611.10
561.94	59805.37
562.11	59604.08
562.27	59683.66
562.44	59870.90
562.60	59929.42
562.77	59870.90
562.93	59807.71
563.10	60104.96
563.26	59943.46
563.42	60114.32
563.59	59856.86
563.75	59847.50
563.92	60107.30
564.08	59735.15
564.24	60088.57
564.41	60032.40
564.57	59870.90
564.74	59847.50
564.90	60051.12
565.07	59845.16
565.23	60006.65
565.39	59913.03
565.56	59980.91
565.72	60041.76
565.88	59840.48
566.05	59870.90
566.21	59950.48
566.38	60170.49
566.54	60137.72
566.70	60198.58
566.87	60224.32
567.03	59859.20
567.19	60247.73
567.36	60102.62
567.52	59950.48
567.68	60458.38
567.85	60254.75
568.01	60411.57
568.17	60095.60
568.34	60367.10
568.50	60018.36
568.66	60432.63
568.83	60168.15
568.99	60039.42
569.15	60254.75
569.32	60320.29
569.48	60266.45
569.64	60467.74
569.81	60289.86
569.97	60418.59
570.13	60266.45
570.30	60233.69
570.46	60252.41
570.62	60434.97
570.78	60437.31
570.95	60374.12
571.11	60416.25
571.27	60266.45
571.43	60317.95
571.60	60458.38
571.76	60341.35
571.92	60439.65
572.09	60477.10
572.25	60383.48
572.41	60463.06
572.57	60449.02
572.74	60760.31
572.90	60523.91
573.06	60589.45
573.22	60484.12
573.38	60554.34
573.55	60519.23
573.71	60474.76
573.87	60523.91
574.03	60465.40
574.20	60631.58
574.36	60334.33
574.52	60568.38
574.68	60722.86
574.84	60430.29
575.01	60760.31
575.17	60570.72
575.33	60458.38
575.49	60416.25
575.65	60631.58
575.82	60617.53
575.98	60612.85
576.14	60802.44
576.30	60753.29
576.46	60530.93
576.62	60645.62
576.79	60498.17
576.95	60317.95
577.11	60727.54
577.27	60748.60
577.43	60654.98
577.59	60434.97
577.75	60879.67
577.92	60594.13
578.08	60732.22
578.24	60645.62
578.40	60863.29
578.56	60769.67
578.72	60715.84
578.88	60781.37
579.04	60598.81
579.21	60659.66
579.37	60818.82
579.53	60814.14
579.69	60477.10
579.85	60427.95
580.01	60669.03
580.17	60580.09
580.33	60715.84
580.49	60678.39
580.65	60760.31
580.82	60624.56
580.98	60715.84
581.14	60673.71
581.30	60814.14
581.46	60678.39
581.62	60746.26
581.78	60732.22
581.94	60741.58
582.10	60643.28
582.26	60865.63
582.42	60779.03
582.58	60938.19
582.74	60898.40
582.90	60973.30
583.06	60816.48
583.22	60729.88
583.38	60732.22
583.54	60757.97
583.70	60832.86
583.86	60853.93
584.02	60732.22
584.18	60788.39
584.34	60804.78
584.50	60830.52
584.66	60615.19
584.82	60807.12
584.98	60924.14
585.14	60900.74
585.30	60867.97
585.46	60818.82
585.62	60917.12
585.78	60889.04
585.94	60647.96
586.10	61001.38
586.26	60860.95
586.42	60879.67
586.58	60865.63
586.74	60825.84
586.90	60755.63
587.06	60938.19
587.22	61029.47
587.38	60746.26
587.54	60959.25
587.70	61193.31
587.86	60846.91
588.02	60947.55
588.18	61237.78
588.34	60907.76
588.49	61104.37
