SpectraSuite Data File
++++++++++++++++++++++++++++++++++++
Date: Fri Oct 25 10:47:42 EDT 2013
User: price-jones
Dark Spectrum Present: No
Reference Spectrum Present: No
Number of Sampled Component Spectra: 1
Spectrometers: USB2+H05261
Integration Time (usec): 100000 (USB2+H05261)
Spectra Averaged: 1 (USB2+H05261)
Boxcar Smoothing: 0 (USB2+H05261)
Correct for Electrical Dark: No (USB2+H05261)
Strobe/Lamp Enabled: No (USB2+H05261)
Correct for Detector Non-linearity: No (USB2+H05261)
Correct for Stray Light: No (USB2+H05261)
Number of Pixels in Processed Spectrum: 2048
>>>>>Begin Processed Spectral Data<<<<<
365.73	138.09
365.92	138.09
366.12	138.09
366.32	28.09
366.52	81.92
366.72	112.35
366.91	46.81
367.11	93.62
367.31	21.06
367.51	60.85
367.70	0.00
367.90	58.51
368.10	56.17
368.30	72.56
368.49	32.77
368.69	86.60
368.89	23.41
369.09	81.92
369.28	0.00
369.48	56.17
369.68	60.85
369.87	77.24
370.07	65.54
370.27	196.60
370.47	154.48
370.66	379.17
370.86	376.83
371.06	526.62
371.25	376.83
371.45	447.04
371.65	430.66
371.84	475.13
372.04	482.15
372.24	458.74
372.44	388.53
372.63	519.60
372.83	407.25
373.03	461.09
373.22	451.72
373.42	512.58
373.62	440.02
373.81	547.69
374.01	531.30
374.21	594.50
374.40	596.84
374.60	557.05
374.79	592.16
374.99	566.41
375.19	585.13
375.38	627.26
375.58	589.82
375.78	688.12
375.97	557.05
376.17	648.33
376.37	613.22
376.56	594.50
376.76	622.58
376.95	596.84
377.15	653.01
377.35	627.26
377.54	657.69
377.74	629.60
377.93	571.09
378.13	662.37
378.33	596.84
378.52	561.73
378.72	671.73
378.91	634.29
379.11	592.16
379.31	617.90
379.50	634.29
379.70	741.95
379.89	650.67
380.09	638.97
380.28	596.84
380.48	690.46
380.68	660.03
380.87	662.37
381.07	660.03
381.26	655.35
381.46	678.76
381.65	638.97
381.85	678.76
382.04	697.48
382.24	662.37
382.43	732.59
382.63	653.01
382.83	725.57
383.02	667.05
383.22	727.91
383.41	713.86
383.61	697.48
383.80	753.65
384.00	791.10
384.19	688.12
384.39	699.82
384.58	746.63
384.78	791.10
384.97	807.48
385.17	713.86
385.36	650.67
385.56	713.86
385.75	720.88
385.95	777.06
386.14	816.85
386.34	755.99
386.53	767.70
386.72	765.36
386.92	821.53
387.11	788.76
387.31	814.51
387.50	788.76
387.70	814.51
387.89	861.32
388.09	849.61
388.28	840.25
388.48	725.57
388.67	851.96
388.86	844.93
389.06	816.85
389.25	908.13
389.45	851.96
389.64	866.00
389.84	992.39
390.03	894.08
390.22	898.77
390.42	978.34
390.61	894.08
390.81	924.51
391.00	961.96
391.19	926.85
391.39	987.71
391.58	952.60
391.78	940.90
391.97	997.07
392.16	936.21
392.36	954.94
392.55	880.04
392.75	957.28
392.94	985.37
393.13	971.32
393.33	966.64
393.52	887.06
393.71	994.73
393.91	980.68
394.10	1067.28
394.29	985.37
394.49	987.71
394.68	1153.88
394.88	1097.71
395.07	1104.73
395.26	1093.03
395.46	1078.99
395.65	1076.65
395.84	1135.16
396.04	1191.33
396.23	1083.67
396.42	1139.84
396.62	1203.04
396.81	1137.50
397.00	1100.05
397.19	1174.95
397.39	1212.40
397.58	1256.87
397.77	1221.76
397.97	1284.95
398.16	1238.14
398.35	1383.26
398.55	1259.21
398.74	1226.44
398.93	1362.19
399.12	1331.76
399.32	1261.55
399.51	1301.34
399.70	1324.74
399.90	1420.71
400.09	1331.76
400.28	1444.11
400.47	1472.20
400.67	1430.07
400.86	1383.26
401.05	1369.21
401.24	1479.22
401.44	1605.61
401.63	1556.46
401.82	1451.13
402.01	1497.94
402.21	1432.41
402.40	1467.52
402.59	1502.62
402.78	1533.05
402.97	1511.99
403.17	1598.59
403.36	1488.58
403.55	1626.67
403.74	1647.74
403.93	1575.18
404.13	1582.20
404.32	1598.59
404.51	1664.12
404.70	1668.80
404.89	1687.53
405.09	1832.64
405.28	1813.92
405.47	1736.68
405.66	1652.42
405.85	1767.10
406.05	1806.89
406.24	1783.49
406.43	1757.74
406.62	1830.30
406.81	1760.08
407.00	1884.13
407.20	1837.32
407.39	1834.98
407.58	1982.43
407.77	1870.09
407.96	1980.09
408.15	1963.71
408.34	1877.11
408.54	1980.09
408.73	1991.80
408.92	1975.41
409.11	1975.41
409.30	2136.91
409.49	2017.54
409.68	2062.01
409.87	2146.27
410.07	2054.99
410.26	2157.97
410.45	2038.61
410.64	2202.44
410.83	2169.68
411.02	2186.06
411.21	2162.66
411.40	2214.15
411.59	2340.54
411.78	2300.75
411.98	2197.76
412.17	2307.77
412.36	2319.47
412.55	2401.39
412.74	2455.22
412.93	2576.93
413.12	2380.32
413.31	2485.65
413.50	2502.03
413.69	2495.01
413.88	2464.58
414.07	2487.99
414.26	2619.06
414.45	2562.89
414.64	2672.89
414.83	2745.45
415.02	2738.43
415.22	2729.06
415.41	2881.20
415.60	2773.53
415.79	2789.92
415.98	2906.95
416.17	2836.73
416.36	2867.16
416.55	2853.11
416.74	3063.76
416.93	2846.09
417.12	2937.37
417.31	3066.10
417.50	2902.26
417.69	3136.32
417.88	3108.23
418.07	3126.96
418.26	3105.89
418.45	3091.85
418.64	3258.03
418.83	3096.53
419.02	3045.04
419.21	2951.42
419.39	3150.36
419.58	3215.90
419.77	3143.34
419.96	3276.75
420.15	3286.11
420.34	3229.94
420.53	3241.64
420.72	3314.20
420.91	3370.37
421.10	3403.14
421.29	3281.43
421.48	3262.71
421.67	3353.99
421.86	3314.20
422.05	3342.28
422.24	3534.21
422.43	3318.88
422.61	3550.59
422.80	3604.42
422.99	3445.27
423.18	3559.95
423.37	3620.81
423.56	3499.10
423.75	3386.76
423.94	3529.53
424.13	3314.20
424.32	3358.67
424.50	3482.72
424.69	3662.94
424.88	3520.17
425.07	3510.80
425.26	3403.14
425.45	3461.65
425.64	3520.17
425.83	3482.72
426.01	3581.02
426.20	3578.68
426.39	3440.59
426.58	3606.77
426.77	3548.25
426.96	3658.26
427.15	3707.41
427.33	3583.36
427.52	3391.44
427.71	3613.79
427.90	3602.08
428.09	3796.35
428.28	3672.30
428.46	3819.75
428.65	3808.05
428.84	3922.74
429.03	3857.20
429.22	3786.99
429.40	3915.72
429.59	3801.03
429.78	3669.96
429.97	3529.53
430.16	3609.11
430.34	3805.71
430.53	3836.14
430.72	3852.52
430.91	3964.87
431.10	3985.93
431.28	3943.80
431.47	3981.25
431.66	4166.15
431.85	3925.08
432.03	4152.11
432.22	4236.37
432.41	4063.17
432.60	4166.15
432.79	4142.75
432.97	4210.62
433.16	4297.22
433.35	4039.76
433.54	4344.03
433.72	4175.52
433.91	4290.20
434.10	4278.50
434.28	4379.14
434.47	4262.12
434.66	4390.84
434.85	4491.49
435.03	4365.10
435.22	4393.19
435.41	4542.98
435.59	4610.86
435.78	4514.89
435.97	4681.07
436.16	4465.74
436.34	4521.92
436.53	4496.17
436.72	4578.09
436.90	4479.79
437.09	4606.17
437.28	4512.55
437.46	4526.60
437.65	4695.11
437.84	4748.95
438.02	4533.62
438.21	4697.46
438.40	4758.31
438.58	4837.89
438.77	4826.18
438.96	4842.57
439.14	4819.16
439.33	4915.12
439.52	5032.15
439.70	4971.30
439.89	5268.55
440.08	5121.09
440.26	5022.79
440.45	5144.50
440.63	5359.83
440.82	5228.76
441.01	5177.26
441.19	5348.12
441.38	5371.53
441.57	5472.17
441.75	5472.17
441.94	5659.42
442.12	5673.46
442.31	5729.63
442.50	5671.12
442.68	5701.54
442.87	5760.06
443.05	5547.07
443.24	5788.14
443.43	5533.03
443.61	5858.36
443.80	5877.09
443.98	5731.97
444.17	5444.09
444.35	5664.10
444.54	5961.34
444.73	5776.44
444.91	5820.91
445.10	5760.06
445.28	5731.97
445.47	5561.11
445.65	5743.67
445.84	5870.06
446.02	5790.49
446.21	5980.07
446.39	5919.21
446.58	5860.70
446.77	5942.62
446.95	5795.17
447.14	5827.93
447.32	6010.50
447.51	5935.60
447.69	5956.66
447.88	5935.60
448.06	5947.30
448.25	6061.99
448.43	5923.90
448.62	5792.83
448.80	5968.37
448.99	6045.60
449.17	6061.99
449.36	6057.31
449.54	6230.51
449.73	6279.66
449.91	6237.53
450.10	6153.27
450.28	6466.90
450.46	6429.45
450.65	6345.19
450.83	6352.21
451.02	6413.07
451.20	6476.26
451.39	6274.98
451.57	6401.37
451.76	6363.92
451.94	6415.41
452.13	6518.39
452.31	6581.59
452.49	6284.34
452.68	6562.86
452.86	6333.49
453.05	6628.40
453.23	6583.93
453.42	6558.18
453.60	6700.95
453.78	6684.57
453.97	6663.51
454.15	6609.67
454.34	6565.20
454.52	6764.15
454.70	6670.53
454.89	6789.89
455.07	6623.72
455.26	6848.41
455.44	6916.28
455.62	6827.34
455.81	6773.51
455.99	6925.65
456.17	7009.90
456.36	6960.75
456.54	7171.40
456.73	7052.03
456.91	7260.34
457.09	7311.83
457.28	7396.09
457.46	7087.14
457.64	7253.32
457.83	7276.73
458.01	7236.94
458.19	7321.20
458.38	7272.04
458.56	7555.25
458.74	7412.48
458.93	7454.61
459.11	7269.70
459.29	7225.23
459.48	7433.54
459.66	7375.03
459.84	7470.99
460.03	7716.75
460.21	7424.18
460.39	7566.95
460.57	7592.70
460.76	7712.07
460.94	7651.21
461.12	7733.13
461.31	7859.52
461.49	7850.16
461.67	7576.31
461.85	7929.74
462.04	7782.28
462.22	8451.67
462.40	7915.69
462.59	7929.74
462.77	7786.96
462.95	7915.69
463.13	7915.69
463.32	8201.24
463.50	8208.26
463.68	8053.78
463.86	8191.88
464.05	7955.48
464.23	8013.99
464.41	8170.81
464.59	8189.53
464.78	8255.07
464.96	7992.93
465.14	8161.45
465.32	8205.92
465.50	8329.97
465.69	8421.25
465.87	8222.30
466.05	8367.42
466.23	8208.26
466.41	8336.99
466.60	8540.61
466.78	8212.94
466.96	8147.40
467.14	8271.45
467.32	8559.34
467.51	8706.79
467.69	8325.29
467.87	8388.48
468.05	8851.91
468.23	8348.69
468.41	8468.06
468.60	8615.51
468.78	8678.71
468.96	8360.39
469.14	8929.14
469.32	8753.60
469.50	8753.60
469.69	8952.55
469.87	8777.01
470.05	8842.54
470.23	8702.11
470.41	8887.01
470.59	9060.21
470.77	8849.57
470.95	8936.17
471.14	9254.48
471.32	9046.17
471.50	9413.63
471.68	9259.16
471.86	9294.27
472.04	9441.72
472.22	9701.52
472.40	9329.38
472.58	9282.56
472.77	9221.71
472.95	9322.35
473.13	9708.54
473.31	9495.55
473.49	9483.85
473.67	9401.93
473.85	9750.67
474.03	9879.40
474.21	9764.72
474.39	9858.34
474.57	9970.68
474.75	10008.13
474.93	10150.90
475.12	10104.09
475.30	10076.01
475.48	10260.91
475.66	10406.02
475.84	10211.76
476.02	10143.88
476.20	10209.42
476.38	10583.90
476.56	10675.18
476.74	10724.33
476.92	10661.14
477.10	10780.51
477.28	11131.59
477.46	10801.57
477.64	11082.44
477.82	11208.83
478.00	11276.70
478.18	11344.58
478.36	11286.06
478.54	11634.80
478.72	11337.56
478.90	11578.63
479.08	11751.83
479.26	11798.64
479.44	11864.18
479.62	11948.43
479.80	11941.41
479.98	12149.72
480.16	12376.75
480.34	12177.81
480.52	12416.54
480.70	12414.20
480.88	12369.73
481.06	12662.30
481.24	12456.33
481.41	12875.29
481.59	12788.69
481.77	13097.64
481.95	13013.38
482.13	13352.76
482.31	13111.68
482.49	13568.09
482.67	13455.74
482.85	13703.84
483.03	13577.45
483.21	13586.81
483.39	14038.53
483.57	13998.74
483.74	13886.40
483.92	14197.69
484.10	13928.53
484.28	14448.13
484.46	14656.43
484.64	14785.16
484.82	14375.57
485.00	14705.59
485.18	15000.49
485.35	14977.09
485.53	15080.07
485.71	14892.83
485.89	15367.96
486.07	15077.73
486.25	15176.03
486.43	15370.30
486.61	15782.23
486.78	15494.35
486.96	16243.32
487.14	16224.59
487.32	16217.57
487.50	16580.36
487.68	16369.71
487.85	17088.25
488.03	17074.21
488.21	17067.19
488.39	17081.23
488.57	17144.42
488.75	17055.48
488.92	17708.49
489.10	17575.08
489.28	17804.46
489.46	17776.37
489.64	18094.68
489.81	18345.12
489.99	18380.23
490.17	18139.15
490.35	18567.47
490.53	18452.78
490.70	18850.67
490.88	18693.86
491.06	18951.32
491.24	19154.94
491.41	18899.83
491.59	19323.46
491.77	19084.73
491.95	19363.25
492.13	19688.59
492.30	19812.63
492.48	19491.98
492.66	19681.56
492.84	19936.68
493.01	19974.13
493.19	20175.42
493.37	20514.80
493.54	20629.48
493.72	21083.55
493.90	20999.29
494.08	20929.07
494.25	21113.97
494.43	21207.59
494.61	21256.75
494.79	21462.71
494.96	21153.76
495.14	21455.69
495.32	21916.78
495.49	21827.84
495.67	21947.20
495.85	22108.70
496.02	22417.65
496.20	22366.16
496.38	22684.47
496.55	22548.72
496.73	22963.00
496.91	22712.56
497.09	22831.93
497.26	22600.21
497.44	22841.29
497.62	23328.12
497.79	23101.09
497.97	23164.28
498.14	23604.30
498.32	23737.71
498.50	23616.01
498.67	23981.13
498.85	23946.02
499.03	24013.90
499.20	23995.17
499.38	23896.87
499.56	24070.07
499.73	24610.73
499.91	24386.04
500.08	24332.21
500.26	24149.65
500.44	24280.72
500.61	24610.73
500.79	24795.64
500.97	24730.10
501.14	25329.28
501.32	25191.19
501.49	25195.87
501.67	25200.55
501.84	25249.70
502.02	24982.88
502.20	25788.02
502.37	25626.53
502.55	25645.25
502.72	25446.30
502.90	26153.15
503.07	25701.42
503.25	25968.24
503.43	26052.50
503.60	25996.33
503.78	26288.90
503.95	26345.07
504.13	26183.57
504.30	26464.44
504.48	26419.97
504.65	26600.19
504.83	26923.18
505.01	27192.34
505.18	26717.22
505.36	27215.75
505.53	27087.02
505.71	27475.55
505.88	27402.99
506.06	27524.70
506.23	26981.70
506.41	27346.82
506.58	27508.32
506.76	27510.66
506.93	27761.09
507.11	27807.90
507.28	28020.89
507.46	27651.09
507.63	27793.86
507.81	28233.88
507.98	28093.45
508.16	28285.37
508.33	28023.23
508.50	28325.16
508.68	28357.93
508.85	28727.74
509.03	28648.16
509.20	28802.63
509.38	28936.04
509.55	29146.69
509.73	28879.87
509.90	29371.38
510.08	28821.36
510.25	29359.68
510.42	29130.31
510.60	29277.76
510.77	29640.54
510.95	29659.27
511.12	29479.05
511.30	29696.72
511.47	29802.04
511.64	29900.34
511.82	30136.74
511.99	29795.02
512.17	30085.25
512.34	30045.46
512.51	30581.44
512.69	30352.07
512.86	30473.78
513.04	30576.76
513.21	30389.52
513.38	30300.58
513.56	30642.29
513.73	30253.76
513.90	31040.18
514.08	30405.90
514.25	31000.40
514.43	31115.08
514.60	30686.76
514.77	31283.60
514.95	31250.83
515.12	31187.64
515.29	31276.58
515.47	31491.91
515.64	31512.97
515.81	31442.76
515.99	31730.64
516.16	31604.25
516.33	31934.27
516.51	31672.13
516.68	31285.94
516.85	31407.65
517.03	31761.07
517.20	31992.78
517.37	32044.27
517.54	32280.67
517.72	32154.28
517.89	31824.26
518.06	31845.33
518.24	31990.44
518.41	32086.40
518.58	31882.78
518.75	32336.84
518.93	32685.58
519.10	32360.25
519.27	33071.77
519.45	32921.98
519.62	33198.16
519.79	33071.77
519.96	33153.69
520.14	33490.73
520.31	33130.28
520.48	33441.57
520.65	33240.29
520.83	33607.75
521.00	33504.77
521.17	33453.28
521.34	33830.10
521.52	33390.08
521.69	33979.90
521.86	33900.32
522.03	33785.63
522.20	33897.98
522.38	33977.56
522.55	34176.50
522.72	33928.41
522.89	34047.77
523.07	34553.33
523.24	34319.28
523.41	34450.35
523.58	34607.16
523.75	34675.04
523.92	34866.96
524.10	35075.27
524.27	34843.56
524.44	34810.79
524.61	35131.44
524.78	35037.82
524.96	35309.32
525.13	35082.29
525.30	35604.23
525.47	35452.09
525.64	35283.58
525.81	35548.06
525.98	35517.63
526.16	35241.45
526.33	35281.24
526.50	35414.65
526.67	35377.20
526.84	35519.97
527.01	35250.81
527.18	35566.78
527.36	35505.93
527.53	35637.00
527.70	36369.58
527.87	36025.53
528.04	35637.00
528.21	35950.63
528.38	36161.28
528.55	36378.95
528.72	36325.11
528.89	36411.71
529.07	36463.21
529.24	36109.78
529.41	36472.57
529.58	36301.71
529.75	36680.88
529.92	36964.08
530.09	36711.30
530.26	36615.34
530.43	36800.24
530.60	36414.05
530.77	36802.58
530.94	36905.57
531.11	36671.51
531.28	37212.18
531.46	37109.19
531.63	37251.97
531.80	36964.08
531.97	36723.01
532.14	37397.08
532.31	37359.63
532.48	37418.14
532.65	37701.35
532.82	37301.12
532.99	37553.90
533.16	37617.09
533.33	37450.91
533.50	38148.39
533.67	37614.75
533.84	37464.96
534.01	37977.53
534.18	37680.28
534.35	37996.26
534.52	38082.86
534.69	37926.04
534.86	37926.04
535.03	38005.62
535.20	37949.45
535.37	38146.05
535.54	38675.01
535.71	38279.46
535.88	38066.47
536.05	38506.49
536.22	38698.42
536.38	38611.82
536.55	38300.53
536.72	38361.38
536.89	38087.54
537.06	38321.59
537.23	38188.18
537.40	38616.50
537.57	38866.94
537.74	38520.54
537.91	38752.25
538.08	38918.43
538.25	38878.64
538.42	39026.09
538.59	38913.75
538.75	39185.25
538.92	38866.94
539.09	39044.82
539.26	39171.21
539.43	39264.83
539.60	39065.88
539.77	39187.59
539.94	39445.05
540.11	38955.88
540.28	39559.73
540.44	39042.48
540.61	39414.62
540.78	39337.38
540.95	39739.96
541.12	39440.37
541.29	39328.02
541.46	39480.16
541.62	39927.20
541.79	40027.84
541.96	39339.72
542.13	39653.36
542.30	39756.34
542.47	39718.89
542.63	39899.11
542.80	39812.51
542.97	40638.72
543.14	40598.93
543.31	40708.94
543.48	40437.44
543.64	40818.94
543.81	40318.07
543.98	40594.25
544.15	40720.64
544.32	40399.99
544.48	40767.45
544.65	40514.67
544.82	40802.56
544.99	40678.51
545.16	40940.65
545.32	40498.29
545.49	40987.46
545.66	41029.59
545.83	41195.77
546.00	41317.48
546.16	41151.30
546.33	41092.79
546.50	41041.29
546.67	41067.04
546.83	40718.30
547.00	40847.03
547.17	41254.28
547.34	40924.27
547.50	41219.17
547.67	41298.75
547.84	41163.00
548.00	41027.25
548.17	41647.49
548.34	41467.27
548.51	41570.25
548.67	41565.57
548.84	41486.00
549.01	41254.28
549.18	41621.75
549.34	42068.79
549.51	41790.27
549.68	41361.95
549.84	41993.89
550.01	41771.54
550.18	41954.10
550.34	41675.58
550.51	41886.23
550.68	41635.79
550.84	41642.81
551.01	41890.91
551.18	42014.96
551.34	41886.23
551.51	42068.79
551.68	41926.02
551.84	42244.33
552.01	41991.55
552.18	41750.48
552.34	42141.35
552.51	42368.38
552.68	42155.39
552.84	42373.06
553.01	42288.80
553.18	42464.34
553.34	42106.24
553.51	42209.22
553.67	42146.03
553.84	42728.82
554.01	42684.35
554.17	42803.72
554.34	43182.88
554.51	42902.02
554.67	42841.17
554.84	42555.62
555.00	42579.03
555.17	42581.37
555.33	42649.24
555.50	42960.53
555.67	43079.90
555.83	43058.84
556.00	42960.53
556.16	43353.74
556.33	43210.97
556.50	42682.01
556.66	43122.03
556.83	43129.05
556.99	43075.22
557.16	42911.38
557.32	43283.53
557.49	43222.67
557.65	42749.88
557.82	42499.45
557.98	42817.76
558.15	43337.36
558.32	43337.36
558.48	43089.26
558.65	43227.35
558.81	43236.72
558.98	43419.28
559.14	43274.16
559.31	42859.89
559.47	43711.84
559.64	43395.87
559.80	43732.91
559.97	43463.75
560.13	43239.06
560.30	43484.81
560.46	43681.42
560.63	43552.69
560.79	43540.99
560.96	43632.27
561.12	43489.49
561.29	43540.99
561.45	43409.92
561.61	43807.81
561.78	43913.13
561.94	43328.00
562.11	43615.88
562.27	43241.40
562.44	43583.12
562.60	44011.43
562.77	43501.20
562.93	43782.06
563.10	43962.28
563.26	43707.16
563.42	43997.39
563.59	43782.06
563.75	43573.75
563.92	44002.07
564.08	43683.76
564.24	44041.86
564.41	43999.73
564.57	43658.01
564.74	43746.95
564.90	44142.50
565.07	43508.22
565.23	44259.53
565.39	43882.70
565.56	44140.16
565.72	44100.37
565.88	43805.47
566.05	43746.95
566.21	43779.72
566.38	43894.41
566.54	43800.79
566.70	44273.57
566.87	44170.59
567.03	44051.22
567.19	44147.18
567.36	44140.16
567.52	43763.34
567.68	44282.94
567.85	43978.67
568.01	44086.33
568.17	44154.21
568.34	44177.61
568.50	43962.28
568.66	44030.16
568.83	44498.26
568.99	43978.67
569.15	44154.21
569.32	44390.60
569.48	43753.97
569.64	44605.93
569.81	44360.17
569.97	44165.91
570.13	44217.40
570.30	44027.82
570.46	44126.12
570.62	43929.51
570.78	43805.47
570.95	44039.52
571.11	44142.50
571.27	44144.84
571.43	44334.43
571.60	44107.40
571.76	43959.94
571.92	43990.37
572.09	44296.98
572.25	44144.84
572.41	44074.63
572.57	44250.17
572.74	44718.28
572.90	45022.54
573.06	44257.19
573.22	44460.82
573.38	44505.29
573.55	44474.86
573.71	44676.15
573.87	43985.69
574.03	43945.90
574.20	44631.68
574.36	44051.22
574.52	44732.32
574.68	44516.99
574.84	44540.39
575.01	44285.28
575.17	44318.04
575.33	44367.20
575.49	44121.44
575.65	44357.83
575.82	44563.80
575.98	44406.98
576.14	44814.24
576.30	44495.92
576.46	44119.10
576.62	44315.70
576.79	44236.12
576.95	44065.27
577.11	44273.57
577.27	45029.57
577.43	44629.34
577.59	44699.55
577.75	44289.96
577.92	44091.01
578.08	44013.77
578.24	44013.77
578.40	44559.12
578.56	44896.16
578.72	44547.42
578.88	44921.90
579.04	44430.39
579.21	44685.51
579.37	44683.17
579.53	44505.29
579.69	44502.95
579.85	44591.89
580.01	44603.59
580.17	44432.73
580.33	44648.06
580.49	44561.46
580.65	44751.04
580.82	44676.15
580.98	44257.19
581.14	44243.15
581.30	44828.28
581.46	44404.64
581.62	44549.76
581.78	44589.55
581.94	44758.06
582.10	44481.88
582.26	44830.62
582.42	44697.21
582.58	45059.99
582.74	44673.81
582.90	44531.03
583.06	44828.28
583.22	44800.19
583.38	44739.34
583.54	44744.02
583.70	44570.82
583.86	44395.28
584.02	44460.82
584.18	44538.05
584.34	44336.77
584.50	44673.81
584.66	44334.43
584.82	44444.43
584.98	44868.07
585.14	44753.38
585.30	44505.29
585.46	44406.98
585.62	44556.78
585.78	44875.09
585.94	44196.34
586.10	44538.05
586.26	44790.83
586.42	44596.57
586.58	44568.48
586.74	45081.06
586.90	44722.96
587.06	44442.09
587.22	44825.94
587.38	44491.24
587.54	45284.68
587.70	44978.07
587.86	44879.77
588.02	44935.95
588.18	44556.78
588.34	45029.57
588.49	44603.59
588.65	44409.32
588.81	44247.83
588.97	44275.91
589.13	44374.22
589.29	44472.52
589.45	44809.56
589.61	44559.12
589.77	44825.94
589.93	45095.10
590.08	45504.70
590.24	44594.23
590.40	45059.99
