SpectraSuite Data File
++++++++++++++++++++++++++++++++++++
Date: Fri Oct 25 10:43:47 EDT 2013
User: price-jones
Dark Spectrum Present: No
Reference Spectrum Present: No
Number of Sampled Component Spectra: 1
Spectrometers: USB2+H05261
Integration Time (usec): 100000 (USB2+H05261)
Spectra Averaged: 1 (USB2+H05261)
Boxcar Smoothing: 0 (USB2+H05261)
Correct for Electrical Dark: No (USB2+H05261)
Strobe/Lamp Enabled: No (USB2+H05261)
Correct for Detector Non-linearity: No (USB2+H05261)
Correct for Stray Light: No (USB2+H05261)
Number of Pixels in Processed Spectrum: 2048
>>>>>Begin Processed Spectral Data<<<<<
365.73	100.64
365.92	100.64
366.12	100.64
366.32	39.79
366.52	25.75
366.72	51.49
366.91	11.70
367.11	93.62
367.31	2.34
367.51	0.00
367.70	2.34
367.90	84.26
368.10	44.47
368.30	18.72
368.49	0.00
368.69	46.81
368.89	98.30
369.09	0.00
369.28	35.11
369.48	39.79
369.68	39.79
369.87	91.28
370.07	65.54
370.27	191.92
370.47	121.71
370.66	388.53
370.86	433.00
371.06	470.45
371.25	479.81
371.45	498.53
371.65	475.13
371.84	503.22
372.04	386.19
372.24	468.11
372.44	468.11
372.63	554.71
372.83	566.41
373.03	550.03
373.22	477.47
373.42	561.73
373.62	526.62
373.81	552.37
374.01	514.92
374.21	552.37
374.40	521.94
374.60	601.52
374.79	554.71
374.99	613.22
375.19	531.30
375.38	624.92
375.58	491.51
375.78	606.20
375.97	622.58
376.17	641.31
376.37	578.11
376.56	622.58
376.76	573.43
376.95	617.90
377.15	662.37
377.35	620.24
377.54	627.26
377.74	557.05
377.93	587.47
378.13	617.90
378.33	716.20
378.52	699.82
378.72	638.97
378.91	664.71
379.11	641.31
379.31	594.50
379.50	606.20
379.70	765.36
379.89	746.63
380.09	669.39
380.28	662.37
380.48	695.14
380.68	587.47
380.87	706.84
381.07	725.57
381.26	732.59
381.46	669.39
381.65	746.63
381.85	645.99
382.04	690.46
382.24	615.56
382.43	763.01
382.63	650.67
382.83	725.57
383.02	727.91
383.22	697.48
383.41	744.29
383.61	767.70
383.80	777.06
384.00	763.01
384.19	753.65
384.39	746.63
384.58	774.72
384.78	819.19
384.97	795.78
385.17	840.25
385.36	793.44
385.56	784.08
385.75	791.10
385.95	842.59
386.14	856.64
386.34	793.44
386.53	784.08
386.72	784.08
386.92	856.64
387.11	830.89
387.31	882.38
387.50	896.43
387.70	896.43
387.89	908.13
388.09	823.87
388.28	816.85
388.48	840.25
388.67	894.08
388.86	915.15
389.06	908.13
389.25	976.00
389.45	1004.09
389.64	898.77
389.84	992.39
390.03	961.96
390.22	1055.58
390.42	978.34
390.61	945.58
390.81	945.58
391.00	1149.20
391.19	1071.97
391.39	1027.50
391.58	994.73
391.78	1053.24
391.97	1076.65
392.16	1029.84
392.36	1013.45
392.55	1018.13
392.75	1020.47
392.94	1001.75
393.13	1043.88
393.33	973.66
393.52	987.71
393.71	1093.03
393.91	1013.45
394.10	1076.65
394.29	1167.93
394.49	1170.27
394.68	1191.33
394.88	1306.02
395.07	1186.65
395.26	1193.67
395.46	1191.33
395.65	1156.22
395.84	1188.99
396.04	1212.40
396.23	1149.20
396.42	1203.04
396.62	1111.75
396.81	1233.46
397.00	1210.06
397.19	1205.38
397.39	1338.79
397.58	1373.89
397.77	1397.30
397.97	1345.81
398.16	1416.02
398.35	1434.75
398.55	1465.18
398.74	1458.15
398.93	1497.94
399.12	1511.99
399.32	1495.60
399.51	1490.92
399.70	1465.18
399.90	1504.96
400.09	1526.03
400.28	1610.29
400.47	1610.29
400.67	1664.12
400.86	1640.72
401.05	1621.99
401.24	1671.14
401.44	1701.57
401.63	1675.82
401.82	1715.61
402.01	1727.32
402.21	1717.95
402.40	1703.91
402.59	1743.70
402.78	1813.92
402.97	1823.28
403.17	1849.02
403.36	1762.42
403.55	1785.83
403.74	1769.44
403.93	1842.00
404.13	1769.44
404.32	1802.21
404.51	1874.77
404.70	1863.07
404.89	1937.96
405.09	1968.39
405.28	1947.33
405.47	1858.39
405.66	1846.68
405.85	1973.07
406.05	2015.20
406.24	1877.11
406.43	2031.58
406.62	2094.78
406.81	2146.27
407.00	1944.99
407.20	2015.20
407.39	2019.88
407.58	2085.42
407.77	2125.21
407.96	2188.40
408.15	2284.36
408.34	2155.63
408.54	2286.70
408.73	2328.83
408.92	2370.96
409.11	2291.38
409.30	2244.57
409.49	2267.98
409.68	2279.68
409.87	2129.89
410.07	2246.91
410.26	2282.02
410.45	2359.26
410.64	2286.70
410.83	2413.09
411.02	2546.50
411.21	2609.70
411.40	2473.95
411.59	2602.68
411.78	2445.86
411.98	2541.82
412.17	2672.89
412.36	2546.50
412.55	2743.11
412.74	2726.72
412.93	2651.83
413.12	2738.43
413.31	2778.22
413.50	2869.50
413.69	2738.43
413.88	2951.42
414.07	2803.96
414.26	2864.82
414.45	2951.42
414.64	2881.20
414.83	2956.10
415.02	2965.46
415.22	3016.95
415.41	3101.21
415.60	3094.19
415.79	3197.17
415.98	3159.72
416.17	3349.31
416.36	3143.34
416.55	3229.94
416.74	3262.71
416.93	3119.93
417.12	3304.84
417.31	3204.19
417.50	3241.64
417.69	3398.46
417.88	3372.71
418.07	3419.52
418.26	3358.67
418.45	3515.48
418.64	3602.08
418.83	3482.72
419.02	3454.63
419.21	3646.55
419.39	3712.09
419.58	3548.25
419.77	3473.36
419.96	3468.67
420.15	3646.55
420.34	3695.71
420.53	3737.84
420.72	3679.32
420.91	3756.56
421.10	3836.14
421.29	3896.99
421.48	3676.98
421.67	3786.99
421.86	3808.05
422.05	3705.07
422.24	3810.39
422.43	3801.03
422.61	3852.52
422.80	3929.76
422.99	3864.22
423.18	3990.61
423.37	3887.63
423.56	3878.27
423.75	3761.24
423.94	3896.99
424.13	3667.62
424.32	3672.30
424.50	4014.02
424.69	3878.27
424.88	4025.72
425.07	3873.59
425.26	3878.27
425.45	3812.73
425.64	3852.52
425.83	4009.34
426.01	3999.98
426.20	3962.53
426.39	3985.93
426.58	3915.72
426.77	3920.40
426.96	3978.91
427.15	3899.33
427.33	4011.68
427.52	4002.32
427.71	4065.51
427.90	4042.11
428.09	4098.28
428.28	4102.96
428.46	4002.32
428.65	4248.07
428.84	4203.60
429.03	4245.73
429.22	4079.55
429.40	4180.20
429.59	4070.19
429.78	3808.05
429.97	3875.93
430.16	3999.98
430.34	4224.67
430.53	4131.05
430.72	4100.62
430.91	4109.98
431.10	4243.39
431.28	4533.62
431.47	4554.68
431.66	4648.30
431.85	4512.55
432.03	4479.79
432.22	4765.33
432.41	4540.64
432.60	4542.98
432.79	4645.96
432.97	4748.95
433.16	4695.11
433.35	4636.60
433.54	4674.05
433.72	4669.37
433.91	4468.08
434.10	4643.62
434.28	4688.09
434.47	4858.95
434.66	4774.69
434.85	4744.27
435.03	4854.27
435.22	5001.72
435.41	5097.69
435.59	4959.60
435.78	4994.70
435.97	5067.26
436.16	4959.60
436.34	5078.96
436.53	5067.26
436.72	5167.90
436.90	4978.32
437.09	4971.30
437.28	5069.60
437.46	5205.35
437.65	5280.25
437.84	5289.61
438.02	5132.79
438.21	5160.88
438.40	5097.69
438.58	5404.30
438.77	5584.52
438.96	5364.51
439.14	5444.09
439.33	5699.20
439.52	5589.20
439.70	5558.77
439.89	5511.96
440.08	5685.16
440.26	5558.77
440.45	5647.71
440.63	5628.99
440.82	5994.11
441.01	5846.66
441.19	5959.00
441.38	6174.33
441.57	5970.71
441.75	6101.78
441.94	6244.55
442.12	6340.51
442.31	6462.22
442.50	6267.95
442.68	6356.90
442.87	6450.52
443.05	6284.34
443.24	6523.07
443.43	6384.98
443.61	6389.66
443.80	6504.35
443.98	6237.53
444.17	6031.56
444.35	6464.56
444.54	6597.97
444.73	6431.79
444.91	6324.13
445.10	6499.67
445.28	6527.75
445.47	6244.55
445.65	6352.21
445.84	6375.62
446.02	6562.86
446.21	6698.61
446.39	6548.82
446.58	6623.72
446.77	6693.93
446.95	6406.05
447.14	6476.26
447.32	6682.23
447.51	6558.18
447.69	6532.44
447.88	6377.96
448.06	6768.83
448.25	6731.38
448.43	6726.70
448.62	6616.69
448.80	6619.04
448.99	6815.64
449.17	6815.64
449.36	6686.91
449.54	6899.90
449.73	6958.41
449.91	7094.16
450.10	7215.87
450.28	7290.77
450.46	6970.12
450.65	7052.03
450.83	7260.34
451.02	6991.18
451.20	7129.27
451.39	7040.33
451.57	7124.59
451.76	7066.08
451.94	7232.26
452.13	7250.98
452.31	7166.72
452.49	6935.01
452.68	6923.30
452.86	6960.75
453.05	7246.30
453.23	7108.21
453.42	7295.45
453.60	7239.28
453.78	7489.71
453.97	7243.96
454.15	7435.88
454.34	7370.35
454.52	7379.71
454.70	7360.98
454.89	7459.29
455.07	7382.05
455.26	7653.55
455.44	7721.43
455.62	7662.91
455.81	7618.44
455.99	7798.66
456.17	7665.25
456.36	8006.97
456.54	7985.91
456.73	7903.99
456.91	8009.31
457.09	8009.31
457.28	8067.83
457.46	7936.76
457.64	7946.12
457.83	7892.29
458.01	7960.16
458.19	8325.29
458.38	8095.91
458.56	8149.75
458.74	8236.35
458.93	8189.53
459.11	8147.40
459.29	8042.08
459.48	8255.07
459.66	8208.26
459.84	8229.32
460.03	8449.33
460.21	8348.69
460.39	8320.60
460.57	8531.25
460.76	8334.65
460.94	8395.50
461.12	8592.11
461.31	8702.11
461.49	8652.96
461.67	8744.24
461.85	8746.58
462.04	8674.03
462.22	9029.79
462.40	8929.14
462.59	8798.07
462.77	8730.20
462.95	8884.67
463.13	8842.54
463.32	8987.66
463.50	9074.26
463.68	8912.76
463.86	8985.32
464.05	8917.44
464.23	8854.25
464.41	8943.19
464.59	8872.97
464.78	9308.31
464.96	9055.53
465.14	9078.94
465.32	9198.31
465.50	9305.97
465.69	9312.99
465.87	8945.53
466.05	9088.30
466.23	9029.79
466.41	9020.42
466.60	9430.02
466.78	8919.78
466.96	9280.22
467.14	9282.56
467.32	9259.16
467.51	9327.03
467.69	9022.77
467.87	9558.75
468.05	9500.23
468.23	9362.14
468.41	9540.02
468.60	9355.12
468.78	9605.56
468.96	9465.13
469.14	9612.58
469.32	9795.14
469.50	9329.38
469.69	9610.24
469.87	9743.65
470.05	9694.50
470.23	9659.39
470.41	9481.51
470.59	9757.69
470.77	9984.73
470.95	9795.14
471.14	10005.79
471.32	9968.34
471.50	10244.52
471.68	10171.97
471.86	10232.82
472.04	10281.97
472.22	10494.96
472.40	10387.30
472.58	10284.31
472.77	10513.69
472.95	10553.48
473.13	10803.91
473.31	10431.77
473.49	10448.15
473.67	10462.19
473.85	10604.97
474.03	10714.97
474.21	10726.68
474.39	10934.98
474.57	10998.18
474.75	11201.80
474.93	11227.55
475.12	11108.18
475.30	10993.50
475.48	10806.25
475.66	11316.49
475.84	11138.61
476.02	11218.19
476.20	11026.26
476.38	11339.90
476.56	11672.25
476.74	11932.05
476.92	11597.35
477.10	11999.93
477.28	12105.25
477.46	11896.94
477.64	12133.34
477.82	12264.41
478.00	12564.00
478.18	12304.20
478.36	12205.89
478.54	12643.57
478.72	12622.51
478.90	12947.84
479.08	12870.61
479.26	12961.89
479.44	13095.30
479.62	13282.54
479.80	13378.50
479.98	13156.15
480.16	13727.24
480.34	13296.58
480.52	13713.20
480.70	13577.45
480.88	13518.93
481.06	13771.71
481.24	13738.94
481.41	14244.50
481.59	14174.28
481.77	14363.87
481.95	14235.14
482.13	14516.00
482.31	14539.41
482.49	14707.93
482.67	14654.09
482.85	14771.12
483.03	14953.68
483.21	15407.75
483.39	15044.96
483.57	15108.16
483.74	15302.42
483.92	15470.94
484.10	15379.66
484.28	15838.41
484.46	15807.98
484.64	16297.15
484.82	15974.16
485.00	15917.98
485.18	16311.19
485.35	16648.23
485.53	16168.42
485.71	16130.97
485.89	16533.54
486.07	16418.86
486.25	16585.04
486.43	16807.39
486.61	17069.53
486.78	17104.64
486.96	17298.90
487.14	17497.84
487.32	17617.21
487.50	17741.26
487.68	17729.56
487.85	18192.98
488.03	18270.22
488.21	18295.97
488.39	18094.68
488.57	18555.77
488.75	18848.33
488.92	18960.68
489.10	18916.21
489.28	19288.35
489.46	19466.24
489.64	19470.92
489.81	19690.93
489.99	19939.02
490.17	20112.22
490.35	19941.36
490.53	20173.08
490.70	20142.65
490.88	20226.91
491.06	20521.82
491.24	20570.97
491.41	20360.32
491.59	20449.26
491.77	20446.92
491.95	20863.54
492.13	21186.53
492.30	21420.58
492.48	21834.86
492.66	21752.94
492.84	21799.75
493.01	21867.63
493.19	21671.02
493.37	21865.28
493.54	21956.57
493.72	22354.46
493.90	22572.13
494.08	22829.59
494.25	22796.82
494.43	23080.02
494.61	23157.26
494.79	23428.76
494.96	23241.52
495.14	23147.90
495.32	23861.76
495.49	23580.90
495.67	23527.06
495.85	24168.37
496.02	23866.44
496.20	24444.56
496.38	24259.65
496.55	24006.87
496.73	25064.80
496.91	24301.78
497.09	24978.20
497.26	25144.38
497.44	24592.01
497.62	24961.81
497.79	25324.60
497.97	24720.74
498.14	25205.23
498.32	25303.53
498.50	25317.57
498.67	25560.99
498.85	25823.13
499.03	26075.91
499.20	25816.11
499.38	26080.59
499.56	26181.23
499.73	26242.09
499.91	26527.63
500.08	26391.88
500.26	26202.30
500.44	26164.85
500.61	26668.06
500.79	26562.74
500.97	26600.19
501.14	27023.83
501.32	26878.71
501.49	27012.12
501.67	27180.64
501.84	27124.47
502.02	27332.78
502.20	27744.71
502.37	27527.04
502.55	27531.72
502.72	27798.54
502.90	27793.86
503.07	27714.28
503.25	27894.50
503.43	27700.24
503.60	27733.01
503.78	28093.45
503.95	27969.40
504.13	27906.21
504.30	28332.18
504.48	28748.80
504.65	28641.14
504.83	28994.56
505.01	29352.66
505.18	29177.12
505.36	28627.09
505.53	29312.87
505.71	29479.05
505.88	29762.25
506.06	29275.42
506.23	29509.47
506.41	29242.65
506.58	29535.22
506.76	29610.12
506.93	29603.10
507.11	29823.11
507.28	29757.57
507.46	29776.30
507.63	30134.40
507.81	29879.28
507.98	29729.48
508.16	30012.69
508.33	30558.03
508.50	30359.09
508.68	30174.19
508.85	31110.40
509.03	30878.69
509.20	30834.22
509.38	30958.27
509.55	31054.23
509.73	30696.13
509.90	30728.89
510.08	30785.07
510.25	31311.69
510.42	30925.50
510.60	31700.22
510.77	31477.86
510.95	31789.16
511.12	31637.02
511.30	31693.19
511.47	32081.72
511.64	32163.64
511.82	32259.60
511.99	32032.57
512.17	32259.60
512.34	32074.70
512.51	32582.60
512.69	32940.70
512.86	32470.25
513.04	32353.23
513.21	32641.11
513.38	32514.72
513.56	32786.22
513.73	32596.64
513.90	32830.69
514.08	32725.37
514.25	33237.95
514.43	32868.14
514.60	33074.11
514.77	33064.75
514.95	33195.82
515.12	33179.43
515.29	33273.06
515.47	33479.02
515.64	33579.67
515.81	33619.46
515.99	33656.90
516.16	33387.74
516.33	33710.74
516.51	33525.83
516.68	33214.54
516.85	33312.84
517.03	33303.48
517.20	33816.06
517.37	33720.10
517.54	34412.90
517.72	33905.00
517.89	33860.53
518.06	33729.46
518.24	33640.52
518.41	33841.81
518.58	34452.69
518.75	34480.77
518.93	34773.34
519.10	34548.65
519.27	35005.05
519.45	35007.39
519.62	35138.46
519.79	35086.97
519.96	35185.27
520.14	35196.98
520.31	35040.16
520.48	35316.34
520.65	35498.91
520.83	35800.83
521.00	35522.31
521.17	35651.04
521.34	35440.39
521.52	35997.44
521.69	36044.25
521.86	36046.59
522.03	36423.42
522.20	36243.20
522.38	36170.64
522.55	36275.96
522.72	36039.57
522.89	36264.26
523.07	36900.89
523.24	35976.37
523.41	37020.25
523.58	36718.32
523.75	37364.31
523.92	37319.84
524.10	36552.15
524.27	37053.02
524.44	37027.28
524.61	37399.42
524.78	37216.86
524.96	37282.39
525.13	37317.50
525.30	37090.47
525.47	37647.52
525.64	37471.98
525.81	37425.17
525.98	37308.14
526.16	36992.17
526.33	37041.32
526.50	36751.09
526.67	37092.81
526.84	37509.43
527.01	37064.72
527.18	37193.45
527.36	37308.14
527.53	38122.65
527.70	38583.73
527.87	37944.76
528.04	38171.80
528.21	38576.71
528.38	38330.95
528.55	38382.45
528.72	38307.55
528.89	38787.36
529.07	38541.60
529.24	38164.78
529.41	38700.76
529.58	38340.32
529.75	38717.14
529.92	39206.31
530.09	38342.66
530.26	39225.04
530.43	39171.21
530.60	38857.57
530.77	39108.01
530.94	39695.49
531.11	39093.97
531.28	39246.10
531.46	39604.20
531.63	39480.16
531.80	39290.57
531.97	39271.85
532.14	38958.22
532.31	39267.17
532.48	39157.16
532.65	39723.57
532.82	39395.90
532.99	39861.66
533.16	39828.90
533.33	39768.04
533.50	39510.58
533.67	39718.89
533.84	39887.41
534.01	40016.14
534.18	39821.87
534.35	40629.36
534.52	39819.53
534.69	39915.50
534.86	40374.24
535.03	40404.67
535.20	40430.41
535.37	40854.05
535.54	40580.21
535.71	40453.82
535.88	40563.82
536.05	40432.75
536.22	40390.62
536.38	40947.67
536.55	40512.33
536.72	39805.49
536.89	40371.90
537.06	40175.30
537.23	41008.53
537.40	41001.50
537.57	40926.61
537.74	41174.70
537.91	41195.77
538.08	40711.28
538.25	40849.37
538.42	40727.66
538.59	41340.88
538.75	40570.85
538.92	41249.60
539.09	40809.58
539.26	41219.17
539.43	41010.87
539.60	41605.36
539.77	41048.32
539.94	41338.54
540.11	41202.79
540.28	41605.36
540.44	41251.94
540.61	41579.62
540.78	41074.06
540.95	41053.00
541.12	41509.40
541.29	41495.36
541.46	41633.45
541.62	41736.43
541.79	41832.39
541.96	41558.55
542.13	41366.63
542.30	41270.67
542.47	41521.10
542.63	41645.15
542.80	41729.41
542.97	42361.36
543.14	42445.62
543.31	42150.71
543.48	42321.57
543.64	42763.93
543.81	42494.77
543.98	42628.18
544.15	42071.13
544.32	42705.41
544.48	42941.81
544.65	42625.84
544.82	42848.19
544.99	42220.92
545.16	42546.26
545.32	42572.00
545.49	43157.14
545.66	43433.32
545.83	43269.48
546.00	42628.18
546.16	43145.44
546.33	42808.40
546.50	42852.87
546.67	43150.12
546.83	42892.66
547.00	43019.05
547.17	42932.45
547.34	43154.80
547.50	43159.48
547.67	43557.37
547.84	43367.79
548.00	43374.81
548.17	43435.66
548.34	43613.54
548.51	43653.33
548.67	44245.49
548.84	43442.68
549.01	43445.02
549.18	43615.88
549.34	43512.90
549.51	43323.32
549.68	43786.74
549.84	43173.52
550.01	43723.55
550.18	43803.13
550.34	43751.63
550.51	43438.00
550.68	43730.57
550.84	43138.41
551.01	43831.21
551.18	43533.96
551.34	43985.69
551.51	44287.62
551.68	44339.11
551.84	43878.02
552.01	43882.70
552.18	43735.25
552.34	44201.02
552.51	44100.37
552.68	44083.99
552.84	44385.92
553.01	44273.57
553.18	44287.62
553.34	43880.36
553.51	44334.43
553.67	44231.44
553.84	44690.19
554.01	44318.04
554.17	44971.05
554.34	44402.30
554.51	44914.88
554.67	44229.10
554.84	44315.70
555.00	44355.49
555.17	44474.86
555.33	44926.58
555.50	44814.24
555.67	44428.05
555.83	44594.23
556.00	44622.31
556.16	44940.63
556.33	44605.93
556.50	44753.38
556.66	44528.69
556.83	44519.33
556.99	44411.67
557.16	44863.39
557.32	45113.83
557.49	44793.17
557.65	44830.62
557.82	44706.57
557.98	44711.25
558.15	45001.48
558.32	44727.64
558.48	44954.67
558.65	44645.72
558.81	44739.34
558.98	44666.78
559.14	44861.05
559.31	44907.86
559.47	44968.71
559.64	45570.23
559.80	45010.84
559.97	45057.65
560.13	45382.99
560.30	45085.74
560.46	45373.63
560.63	45432.14
560.79	45352.56
560.96	45263.62
561.12	45177.02
561.29	44825.94
561.45	44942.97
561.61	45214.47
561.78	44961.69
561.94	45244.90
562.11	44945.31
562.27	44643.38
562.44	45315.11
562.60	45191.06
562.77	45455.54
562.93	45429.80
563.10	45858.12
563.26	45158.30
563.42	45488.31
563.59	45099.78
563.75	45553.85
563.92	45312.77
564.08	45340.86
564.24	45390.01
564.41	45371.28
564.57	45633.42
564.74	45364.26
564.90	45792.58
565.07	45226.17
565.23	45738.75
565.39	45413.41
565.56	45771.52
565.72	45294.05
565.88	45226.17
566.05	45291.71
566.21	44947.65
566.38	45427.46
566.54	45614.70
566.70	45544.48
566.87	46094.51
567.03	45518.74
567.19	46129.62
567.36	45914.29
567.52	45848.75
567.68	46024.29
567.85	45382.99
568.01	45469.59
568.17	45755.13
568.34	46232.60
568.50	45815.99
568.66	45598.32
568.83	45759.81
568.99	45216.81
569.15	45647.47
569.32	45277.66
569.48	45170.00
569.64	45909.61
569.81	45549.17
569.97	45605.34
570.13	45652.15
570.30	45546.82
570.46	45406.39
570.62	45207.45
570.78	45174.68
570.95	45516.40
571.11	45830.03
571.27	45483.63
571.43	45698.96
571.60	46073.45
571.76	46141.32
571.92	45593.64
572.09	46089.83
572.25	45808.96
572.41	45497.67
572.57	46045.36
572.74	46340.27
572.90	45879.18
573.06	46157.70
573.22	45720.02
573.38	45961.10
573.55	45876.84
573.71	45837.05
573.87	46054.72
574.03	45804.28
574.20	46000.89
574.36	45907.27
574.52	45806.62
574.68	45701.30
574.84	46534.53
575.01	45736.41
575.17	45352.56
575.33	45815.99
575.49	45427.46
575.65	46115.58
575.82	45771.52
575.98	45584.27
576.14	45909.61
576.30	45736.41
576.46	45839.39
576.62	45879.18
576.79	45645.13
576.95	45427.46
577.11	46415.16
577.27	45996.21
577.43	45851.09
577.59	45647.47
577.75	45785.56
577.92	45294.05
578.08	45172.34
578.24	45715.34
578.40	45911.95
578.56	46000.89
578.72	45659.17
578.88	45895.56
579.04	46185.79
579.21	45652.15
579.37	45848.75
579.53	46209.20
579.69	45844.07
579.85	45839.39
580.01	46054.72
580.17	45560.87
580.33	46082.81
580.49	45979.82
580.65	45867.48
580.82	45881.52
580.98	45886.20
581.14	45689.60
581.30	45764.49
581.46	45902.59
581.62	46307.50
581.78	45907.27
581.94	46351.97
582.10	45904.93
582.26	46302.82
582.42	46141.32
582.58	46295.80
582.74	46167.07
582.90	45862.80
583.06	45951.74
583.22	46396.44
583.38	46447.93
583.54	46405.80
583.70	46440.91
583.86	45865.14
584.02	45806.62
584.18	46340.27
584.34	45928.33
584.50	45776.20
584.66	46113.23
584.82	46000.89
584.98	46356.65
585.14	45883.86
585.30	45745.77
585.46	45776.20
585.62	45820.67
585.78	45729.39
585.94	45574.91
586.10	46014.93
586.26	45701.30
586.42	46239.62
586.58	46054.72
586.74	45715.34
586.90	46246.65
587.06	45846.41
587.22	46167.07
587.38	45963.44
587.54	45801.94
587.70	45998.55
587.86	46244.30
588.02	46064.08
588.18	46256.01
588.34	46136.64
588.49	45413.41
588.65	45221.49
588.81	45771.52
588.97	45860.46
589.13	45811.31
589.29	45787.90
589.45	46014.93
589.61	45860.46
589.77	45942.38
589.93	45930.67
590.08	46050.04
