SpectraSuite Data File
++++++++++++++++++++++++++++++++++++
Date: Fri Oct 25 11:25:33 EDT 2013
User: price-jones
Dark Spectrum Present: No
Reference Spectrum Present: No
Number of Sampled Component Spectra: 1
Spectrometers: USB2+H05261
Integration Time (usec): 100000 (USB2+H05261)
Spectra Averaged: 1 (USB2+H05261)
Boxcar Smoothing: 0 (USB2+H05261)
Correct for Electrical Dark: No (USB2+H05261)
Strobe/Lamp Enabled: No (USB2+H05261)
Correct for Detector Non-linearity: No (USB2+H05261)
Correct for Stray Light: No (USB2+H05261)
Number of Pixels in Processed Spectrum: 2048
>>>>>Begin Processed Spectral Data<<<<<
365.73	234.05
365.92	234.05
366.12	234.05
366.32	220.01
366.52	60.85
366.72	222.35
366.91	184.90
367.11	201.29
367.31	131.07
367.51	149.79
367.70	133.41
367.90	140.43
368.10	131.07
368.30	149.79
368.49	182.56
368.69	203.63
368.89	81.92
369.09	163.84
369.28	142.77
369.48	208.31
369.68	203.63
369.87	198.95
370.07	163.84
370.27	203.63
370.47	372.15
370.66	538.32
370.86	603.86
371.06	704.50
371.25	636.63
371.45	667.05
371.65	697.48
371.84	627.26
372.04	739.61
372.24	699.82
372.44	709.18
372.63	781.74
372.83	746.63
373.03	765.36
373.22	706.84
373.42	732.59
373.62	751.31
373.81	753.65
374.01	711.52
374.21	828.55
374.40	685.78
374.60	809.83
374.79	877.70
374.99	833.23
375.19	868.34
375.38	772.38
375.58	844.93
375.78	863.66
375.97	795.78
376.17	994.73
376.37	851.96
376.56	812.17
376.76	910.47
376.95	896.43
377.15	990.05
377.35	826.21
377.54	915.15
377.74	814.51
377.93	856.64
378.13	919.83
378.33	980.68
378.52	901.11
378.72	908.13
378.91	994.73
379.11	924.51
379.31	1083.67
379.50	950.26
379.70	1078.99
379.89	1022.81
380.09	966.64
380.28	915.15
380.48	968.98
380.68	877.70
380.87	1060.26
381.07	1104.73
381.26	1057.92
381.46	1074.31
381.65	1097.71
381.85	1057.92
382.04	983.02
382.24	1048.56
382.43	1013.45
382.63	1048.56
382.83	1027.50
383.02	1055.58
383.22	1004.09
383.41	1046.22
383.61	1104.73
383.80	1156.22
384.00	1125.80
384.19	1149.20
384.39	1118.78
384.58	1064.94
384.78	1151.54
384.97	1125.80
385.17	1203.04
385.36	1184.31
385.56	1210.06
385.75	1078.99
385.95	1198.35
386.14	1158.57
386.34	1104.73
386.53	1128.14
386.72	1254.53
386.92	1181.97
387.11	1240.48
387.31	1284.95
387.50	1170.27
387.70	1172.61
387.89	1247.51
388.09	1235.80
388.28	1294.32
388.48	1280.27
388.67	1282.61
388.86	1366.87
389.06	1327.08
389.25	1294.32
389.45	1306.02
389.64	1315.38
389.84	1352.83
390.03	1427.73
390.22	1425.39
390.42	1371.55
390.61	1418.36
390.81	1313.04
391.00	1448.79
391.19	1451.13
391.39	1357.51
391.58	1399.64
391.78	1366.87
391.97	1420.71
392.16	1495.60
392.36	1504.96
392.55	1509.65
392.75	1519.01
392.94	1490.92
393.13	1516.67
393.33	1511.99
393.52	1551.78
393.71	1605.61
393.91	1624.33
394.10	1661.78
394.29	1586.88
394.49	1633.69
394.68	1626.67
394.88	1554.12
395.07	1671.14
395.26	1680.50
395.46	1668.80
395.65	1629.01
395.84	1748.38
396.04	1739.02
396.23	1736.68
396.42	1750.72
396.62	1839.66
396.81	1881.79
397.00	1762.42
397.19	1757.74
397.39	1661.78
397.58	1771.79
397.77	1853.70
397.97	1919.24
398.16	1762.42
398.35	1851.36
398.55	1834.98
398.74	1937.96
398.93	1966.05
399.12	1930.94
399.32	1806.89
399.51	2036.27
399.70	1989.46
399.90	2008.18
400.09	1954.35
400.28	2099.46
400.47	1982.43
400.67	2120.53
400.86	2083.08
401.05	2033.93
401.24	2040.95
401.44	2097.12
401.63	2118.18
401.82	2104.14
402.01	2127.55
402.21	2284.36
402.40	2300.75
402.59	2244.57
402.78	2176.70
402.97	2267.98
403.17	2228.19
403.36	2139.25
403.55	2216.49
403.74	2347.56
403.93	2349.90
404.13	2342.88
404.32	2282.02
404.51	2324.15
404.70	2317.13
404.89	2272.66
405.09	2380.32
405.28	2403.73
405.47	2448.20
405.66	2457.56
405.85	2373.30
406.05	2495.01
406.24	2541.82
406.43	2457.56
406.62	2640.12
406.81	2663.53
407.00	2534.80
407.20	2602.68
407.39	2787.58
407.58	2726.72
407.77	2843.75
407.96	2801.62
408.15	2841.41
408.34	2738.43
408.54	2724.38
408.73	2764.17
408.92	2909.29
409.11	2806.30
409.30	2904.60
409.49	2925.67
409.68	2972.48
409.87	2937.37
410.07	2909.29
410.26	2988.86
410.45	3026.31
410.64	3124.62
410.83	3091.85
411.02	2967.80
411.21	3075.46
411.40	3241.64
411.59	3124.62
411.78	3152.70
411.98	3023.97
412.17	3206.53
412.36	3400.80
412.55	3276.75
412.74	3309.52
412.93	3393.78
413.12	3335.26
413.31	3489.74
413.50	3468.67
413.69	3449.95
413.88	3590.38
414.07	3543.57
414.26	3599.74
414.45	3634.85
414.64	3688.68
414.83	3744.86
415.02	3791.67
415.22	3896.99
415.41	3957.85
415.60	3812.73
415.79	3770.60
415.98	3971.89
416.17	3950.82
416.36	4053.81
416.55	3887.63
416.74	4063.17
416.93	3974.23
417.12	4112.32
417.31	3934.44
417.50	4262.12
417.69	4255.09
417.88	4224.67
418.07	4149.77
418.26	4287.86
418.45	4369.78
418.64	4353.40
418.83	4348.72
419.02	4411.91
419.21	4503.19
419.39	4421.27
419.58	4421.27
419.77	4351.06
419.96	4554.68
420.15	4463.40
420.34	4472.76
420.53	4643.62
420.72	4627.24
420.91	4601.49
421.10	4730.22
421.29	4816.82
421.48	4681.07
421.67	4671.71
421.86	4671.71
422.05	4638.94
422.24	4772.35
422.43	4788.74
422.61	4889.38
422.80	4983.00
422.99	4903.42
423.18	4905.76
423.37	5018.11
423.56	4870.65
423.75	4968.96
423.94	4650.64
424.13	4547.66
424.32	4671.71
424.50	4901.08
424.69	5137.48
424.88	4990.02
425.07	4873.00
425.26	4847.25
425.45	5020.45
425.64	4933.85
425.83	5050.88
426.01	5043.85
426.20	5160.88
426.39	4940.87
426.58	4980.66
426.77	4983.00
426.96	5001.72
427.15	5083.64
427.33	5041.51
427.52	5125.77
427.71	5240.46
427.90	5327.06
428.09	5371.53
428.28	5284.93
428.46	5352.81
428.65	5252.16
428.84	5432.38
429.03	5556.43
429.22	5282.59
429.40	5460.47
429.59	5500.26
429.78	5327.06
429.97	5296.63
430.16	5399.62
430.34	5518.98
430.53	5643.03
430.72	5605.58
430.91	5696.86
431.10	5678.14
431.28	5624.31
431.47	5738.99
431.66	5750.70
431.85	5565.79
432.03	5909.85
432.22	5902.83
432.41	5795.17
432.60	5961.34
432.79	5834.96
432.97	5877.09
433.16	5902.83
433.35	5909.85
433.54	6183.70
433.72	5947.30
433.91	6017.52
434.10	6066.67
434.28	6036.24
434.47	6214.12
434.66	6164.97
434.85	6190.72
435.03	6317.11
435.22	6256.25
435.41	6434.13
435.59	6293.70
435.78	6466.90
435.97	6588.61
436.16	6469.24
436.34	6356.90
436.53	6399.02
436.72	6670.53
436.90	6342.85
437.09	6534.78
437.28	6431.79
437.46	6483.28
437.65	6630.74
437.84	6836.70
438.02	6682.23
438.21	6745.42
438.40	6658.82
438.58	6932.67
438.77	6902.24
438.96	6956.07
439.14	7091.82
439.33	7063.74
439.52	7213.53
439.70	7332.90
439.89	7297.79
440.08	7398.43
440.26	7176.08
440.45	7412.48
440.63	7527.16
440.82	7843.14
441.01	7440.56
441.19	7447.58
441.38	7868.88
441.57	7765.90
441.75	7723.77
441.94	7709.72
442.12	7913.35
442.31	7850.16
442.50	7824.41
442.68	7861.86
442.87	8006.97
443.05	8081.87
443.24	8093.57
443.43	8070.17
443.61	8116.98
443.80	8451.67
443.98	8084.21
444.17	7707.38
444.35	8187.19
444.54	8315.92
444.73	8133.36
444.91	8285.50
445.10	8322.94
445.28	8301.88
445.47	8198.90
445.65	8318.26
445.84	8297.20
446.02	8638.92
446.21	8400.18
446.39	8367.42
446.58	8358.05
446.77	8446.99
446.95	8109.96
447.14	8531.25
447.32	8554.66
447.51	8514.87
447.69	8734.88
447.88	8388.48
448.06	8411.89
448.25	8336.99
448.43	8545.30
448.62	8496.14
448.80	8278.47
448.99	8615.51
449.17	8711.47
449.36	8753.60
449.54	8861.27
449.73	8779.35
449.91	9060.21
450.10	8844.88
450.28	8997.02
450.46	9015.74
450.65	8940.85
450.83	8975.95
451.02	8821.48
451.20	9202.99
451.39	9111.71
451.57	9259.16
451.76	9078.94
451.94	9085.96
452.13	9226.39
452.31	9123.41
452.49	9013.40
452.68	9394.91
452.86	9483.85
453.05	9479.17
453.23	9446.40
453.42	9521.30
453.60	9341.08
453.78	9577.47
453.97	9270.86
454.15	9486.19
454.34	9439.38
454.52	9544.70
454.70	9439.38
454.89	9750.67
455.07	9678.12
455.26	9886.42
455.44	9706.20
455.62	9806.84
455.81	9682.80
455.99	9994.09
456.17	9928.55
456.36	10045.58
456.54	10223.46
456.73	10242.18
456.91	10434.11
457.09	10427.09
457.28	10583.90
457.46	10382.62
457.64	10422.41
457.83	10361.55
458.01	10361.55
458.19	10633.05
458.38	10684.55
458.56	10764.12
458.74	10656.46
458.93	10546.45
459.11	10841.36
459.29	10726.68
459.48	10836.68
459.66	10803.91
459.84	10726.68
460.03	11122.23
460.21	10956.05
460.39	10827.32
460.57	11035.63
460.76	10834.34
460.94	11070.73
461.12	11211.17
461.31	11318.83
461.49	11257.98
461.67	11052.01
461.85	11386.71
462.04	11351.60
462.22	11733.11
462.40	11693.32
462.59	11250.96
462.77	11367.98
462.95	11639.48
463.13	11480.33
463.32	11620.76
463.50	11681.61
463.68	11630.12
463.86	11800.98
464.05	11487.35
464.23	11632.46
464.41	11786.94
464.59	11676.93
464.78	12210.57
464.96	11838.43
465.14	11742.47
465.32	11857.15
465.50	11908.65
465.69	12060.78
465.87	11901.62
466.05	12013.97
466.23	12198.87
466.41	12259.73
466.60	12299.52
466.78	12131.00
466.96	12325.26
467.14	12233.98
467.32	12360.37
467.51	12503.14
467.69	11960.14
467.87	12325.26
468.05	12585.06
468.23	12613.15
468.41	12468.03
468.60	12140.36
468.78	12575.70
468.96	12489.10
469.14	12725.49
469.32	13095.30
469.50	12622.51
469.69	13050.83
469.87	13226.37
470.05	12886.99
470.23	12961.89
470.41	12950.18
470.59	13270.84
470.77	13022.74
470.95	13191.26
471.14	13263.82
471.32	12943.16
471.50	13614.90
471.68	13479.15
471.86	13385.52
472.04	13778.73
472.22	13722.56
472.40	13678.09
472.58	13741.29
472.77	13879.38
472.95	14197.69
473.13	14607.28
473.31	14143.86
473.49	14263.22
473.67	14066.62
473.85	14153.22
474.03	14602.60
474.21	14436.42
474.39	14422.38
474.57	14630.69
474.75	14806.23
474.93	15089.43
475.12	15061.35
475.30	14995.81
475.48	14920.92
475.66	15215.82
475.84	14918.57
476.02	15274.34
476.20	15108.16
476.38	15470.94
476.56	16035.01
476.74	15917.98
476.92	15796.28
477.10	15562.22
477.28	15922.66
477.46	16177.78
477.64	16411.84
477.82	16437.58
478.00	16765.26
478.18	16589.72
478.36	16657.59
478.54	17046.12
478.72	17025.06
478.90	17177.19
479.08	17329.33
479.26	17699.13
479.44	17626.57
479.62	17841.90
479.80	17752.96
479.98	18106.38
480.16	18302.99
480.34	18157.88
480.52	18506.62
480.70	18532.36
480.88	18085.32
481.06	18738.33
481.24	18745.35
481.41	19267.29
481.59	19047.28
481.77	19396.02
481.95	19543.47
482.13	19461.55
482.31	19480.28
482.49	20105.20
482.67	19950.73
482.85	20484.37
483.03	20702.04
483.21	20395.43
483.39	20765.23
483.57	20678.63
483.74	20629.48
483.92	21556.33
484.10	21207.59
484.28	21755.28
484.46	22047.85
484.64	22167.21
484.82	21914.44
485.00	22363.82
485.18	22848.31
485.35	23051.94
485.53	22824.90
485.71	22862.35
485.89	23129.17
486.07	22679.79
486.25	23300.03
486.43	23571.54
486.61	23765.80
486.78	24041.98
486.96	23742.39
487.14	24489.03
487.32	24470.30
487.50	24610.73
487.68	24886.92
487.85	24964.15
488.03	25305.87
488.21	25558.65
488.39	25579.71
488.57	25724.83
488.75	25869.94
488.92	26080.59
489.10	26366.13
489.28	26436.35
489.46	26965.31
489.64	26932.54
489.81	28107.49
489.99	27424.06
490.17	27854.72
490.35	27899.19
490.53	28294.74
490.70	28252.61
490.88	27812.59
491.06	28622.41
491.24	28854.12
491.41	28847.10
491.59	28947.75
491.77	29200.52
491.95	29542.24
492.13	29687.36
492.30	29563.31
492.48	29991.62
492.66	30331.00
492.84	30345.05
493.01	30307.60
493.19	30347.39
493.37	30838.90
493.54	31068.27
493.72	31302.32
493.90	31152.53
494.08	31386.58
494.25	31770.43
494.43	31854.69
494.61	31929.59
494.79	32393.01
494.96	32692.60
495.14	32582.60
495.32	32800.27
495.49	33057.73
495.67	33329.23
495.85	33357.32
496.02	34010.32
496.20	34122.67
496.38	33649.88
496.55	33968.19
496.73	34838.87
496.91	34015.01
497.09	34527.58
497.26	35075.27
497.44	34972.28
497.62	35232.08
497.79	35543.38
497.97	35084.63
498.14	35299.96
498.32	35833.60
498.50	36170.64
498.67	36271.28
498.85	36165.96
499.03	36603.64
499.20	36517.04
499.38	36271.28
499.56	36491.29
499.73	36814.29
499.91	37027.28
500.08	37317.50
500.26	37153.66
500.44	37497.72
500.61	37537.51
500.79	37783.27
500.97	38183.50
501.14	38136.69
501.32	38204.56
501.49	38270.10
501.67	38852.89
501.84	38646.93
502.02	38534.58
502.20	38717.14
502.37	39288.23
502.55	39337.38
502.72	39054.18
502.90	39278.87
503.07	39129.08
503.25	39370.15
503.43	39864.00
503.60	39852.30
503.78	40189.34
503.95	40072.31
504.13	40325.09
504.30	40299.34
504.48	40285.30
504.65	40453.82
504.83	40879.80
505.01	40971.08
505.18	41104.49
505.36	41137.26
505.53	40945.33
505.71	41413.44
505.88	41642.81
506.06	40978.10
506.23	42029.00
506.41	41345.56
506.58	41844.10
506.76	41911.97
506.93	42124.96
507.11	41841.76
507.28	42174.11
507.46	42234.97
507.63	42447.96
507.81	43042.45
507.98	42321.57
508.16	42808.40
508.33	43194.59
508.50	43365.45
508.68	43173.52
508.85	43658.01
509.03	43517.58
509.20	44020.80
509.38	43892.07
509.55	44208.04
509.73	44378.90
509.90	44500.61
510.08	44044.20
510.25	44208.04
510.42	44460.82
510.60	44692.53
510.77	45102.12
510.95	45059.99
511.12	45200.43
511.30	45214.47
511.47	45172.34
511.64	45130.21
511.82	45542.14
511.99	45750.45
512.17	46014.93
512.34	45708.32
512.51	45888.54
512.69	46031.32
512.86	46033.66
513.04	46007.91
513.21	46281.75
513.38	46609.43
513.56	46824.76
513.73	46721.77
513.90	46724.11
514.08	46920.72
514.25	46990.94
514.43	47147.75
514.60	47440.32
514.77	47412.23
514.95	47555.00
515.12	47325.63
515.29	47576.07
515.47	47505.85
515.64	47627.56
515.81	47459.04
515.99	48158.86
516.16	48463.13
516.33	48051.20
516.51	48596.54
516.68	48081.63
516.85	48186.95
517.03	48479.52
517.20	48636.33
517.37	48442.07
517.54	48463.13
517.72	49158.27
517.89	48849.32
518.06	48629.31
518.24	49153.59
518.41	48893.79
518.58	49071.67
518.75	49216.78
518.93	49305.73
519.10	48985.07
519.27	49715.32
519.45	49460.20
519.62	49738.72
519.79	49806.60
519.96	49617.02
520.14	49949.37
520.31	49696.59
520.48	50433.86
520.65	50312.16
520.83	50429.18
521.00	50375.35
521.17	50525.14
521.34	50340.24
521.52	50688.98
521.69	50583.66
521.86	50642.17
522.03	51107.94
522.20	50717.07
522.38	51049.42
522.55	51084.53
522.72	51409.87
522.89	51014.32
523.07	51569.02
523.24	51466.04
523.41	51646.26
523.58	51540.94
523.75	51716.48
523.92	51536.26
524.10	51674.35
524.27	51709.46
524.44	52107.35
524.61	51892.02
524.78	52032.45
524.96	51957.55
525.13	52147.14
525.30	52397.57
525.47	52680.78
525.64	52163.52
525.81	52437.36
525.98	52533.32
526.16	52765.04
526.33	52694.82
526.50	52701.84
526.67	52765.04
526.84	53057.60
527.01	52701.84
527.18	52729.93
527.36	52664.39
527.53	52919.51
527.70	52905.47
527.87	53389.96
528.04	52736.95
528.21	53317.40
528.38	53443.79
528.55	53609.97
528.72	53375.92
528.89	53357.19
529.07	53361.87
529.24	53092.71
529.41	53694.23
529.58	53448.47
529.75	53628.69
529.92	53605.29
530.09	53546.78
530.26	53712.95
530.43	53769.13
530.60	53467.20
530.77	53806.58
530.94	53991.48
531.11	53776.15
531.28	53839.34
531.46	54110.85
531.63	54096.80
531.80	54246.60
531.97	54319.15
532.14	54508.74
532.31	54220.85
532.48	54438.52
532.65	54478.31
532.82	54433.84
532.99	54639.81
533.16	54644.49
533.33	54742.79
533.50	54845.77
533.67	54548.53
533.84	54466.61
534.01	54527.46
534.18	54988.55
534.35	55264.73
534.52	55051.74
534.69	54986.21
534.86	55033.02
535.03	54878.54
535.20	54873.86
535.37	55253.03
535.54	54960.46
535.71	55143.02
535.88	55473.04
536.05	55278.77
536.22	55676.66
536.38	55454.31
536.55	55503.46
536.72	55489.42
536.89	55164.09
537.06	55391.12
537.23	55489.42
537.40	55543.25
537.57	55587.72
537.74	55442.61
537.91	55838.16
538.08	55767.94
538.25	55547.93
538.42	55847.52
538.59	56034.77
538.75	55498.78
538.92	55854.54
539.09	56182.22
539.26	56060.51
539.43	55707.09
539.60	55812.41
539.77	56130.73
539.94	56320.31
540.11	56313.29
540.28	56247.75
540.44	56362.44
540.61	56207.97
540.78	56086.26
540.95	56268.82
541.12	56332.01
541.29	56324.99
541.46	56622.24
541.62	56467.76
541.79	56488.83
541.96	56432.66
542.13	56580.11
542.30	56706.50
542.47	57003.75
542.63	56736.93
542.80	56863.32
542.97	56893.74
543.14	57027.15
543.31	56961.62
543.48	57256.53
543.64	57270.57
543.81	57279.93
543.98	57235.46
544.15	57286.95
544.32	57378.23
544.48	57322.06
544.65	57085.67
544.82	57268.23
544.99	57317.38
545.16	57331.42
545.32	57127.80
545.49	57488.24
545.66	57418.02
545.83	57385.25
546.00	57593.56
546.16	57883.79
546.33	57324.40
546.50	57148.86
546.67	57600.58
546.83	57375.89
547.00	57689.52
547.17	57556.11
547.34	57443.77
547.50	57869.75
547.67	57874.43
547.84	57914.22
548.00	57858.04
548.17	58038.26
548.34	57853.36
548.51	57904.85
548.67	57977.41
548.84	57911.88
549.01	57954.00
549.18	58061.67
549.34	57921.24
549.51	58255.93
549.68	58305.09
549.84	58045.29
550.01	58356.58
550.18	58152.95
550.34	58321.47
550.51	58412.75
550.68	58211.46
550.84	58307.43
551.01	58438.50
551.18	58475.94
551.34	58344.87
551.51	58422.11
551.68	58497.01
551.84	58623.40
552.01	58333.17
552.18	58670.21
552.34	58543.82
552.51	58752.13
552.68	58178.70
552.84	58581.27
553.01	58733.40
553.18	58489.99
553.34	58705.32
553.51	58670.21
553.67	58700.64
553.84	58894.90
554.01	58602.33
554.17	58775.53
554.34	58906.60
554.51	59032.99
554.67	58890.22
554.84	59061.08
555.00	58796.60
555.17	58908.94
555.33	59044.69
555.50	58660.85
555.67	58841.07
555.83	59056.40
556.00	59030.65
556.16	59245.98
556.33	59075.12
556.50	58986.18
556.66	59440.24
556.83	58714.68
556.99	59299.81
557.16	59267.05
557.32	59391.09
557.49	59646.21
557.65	59166.40
557.82	59260.02
557.98	59180.45
558.15	59388.75
558.32	59309.18
558.48	59260.02
558.65	59292.79
558.81	59405.14
558.98	59353.65
559.14	59561.95
559.31	59676.64
559.47	59416.84
559.64	59552.59
559.80	59597.06
559.97	59592.38
560.13	59433.22
560.30	59538.55
560.46	59458.97
560.63	59475.35
560.79	59793.67
560.96	59793.67
561.12	59777.28
561.29	59763.24
561.45	59772.60
561.61	59803.03
561.78	59845.16
561.94	59781.96
562.11	59760.90
562.27	59707.07
562.44	59714.09
562.60	59875.58
562.77	59807.71
562.93	59765.58
563.10	59927.08
563.26	59887.29
563.42	60037.08
563.59	59891.97
563.75	59863.88
563.92	59922.40
564.08	59835.80
564.24	60018.36
564.41	59917.71
564.57	59793.67
564.74	59931.76
564.90	60027.72
565.07	59889.63
565.23	60088.57
565.39	59840.48
565.56	60081.55
565.72	60062.83
565.88	60027.72
566.05	59985.59
566.21	59992.61
566.38	60177.51
566.54	60240.71
566.70	60212.62
566.87	60250.07
567.03	59826.43
567.19	60383.48
567.36	60512.21
567.52	60245.39
567.68	60392.84
567.85	60322.63
568.01	60369.44
568.17	60126.02
568.34	60324.97
568.50	60329.65
568.66	60247.73
568.83	60278.16
568.99	60020.70
569.15	60467.74
569.32	60165.81
569.48	60282.84
569.64	60388.16
569.81	60371.78
569.97	60378.80
570.13	60203.26
570.30	60303.90
570.46	60390.50
570.62	60397.52
570.78	60343.69
570.95	60163.47
571.11	60584.77
571.27	60446.68
571.43	60392.84
571.60	60416.25
571.76	60491.15
571.92	60486.46
572.09	60662.00
572.25	60430.29
572.41	60535.62
572.57	60542.64
572.74	60671.37
572.90	60233.69
573.06	60603.49
573.22	60701.79
573.38	60584.77
573.55	60528.59
573.71	60643.28
573.87	60465.40
574.03	60526.25
574.20	60636.26
574.36	60575.40
574.52	60666.69
574.68	60622.22
574.84	60631.58
575.01	60563.70
575.17	60704.13
575.33	60561.36
575.49	60439.65
575.65	60540.30
575.82	60779.03
575.98	60764.99
576.14	60837.54
576.30	60669.03
576.46	60573.06
576.62	60540.30
576.79	60629.24
576.95	60505.19
577.11	60671.37
577.27	60640.94
577.43	60720.52
577.59	60671.37
577.75	60678.39
577.92	60645.62
578.08	60807.12
578.24	60814.14
578.40	60612.85
578.56	60903.08
578.72	60678.39
578.88	60891.38
579.04	60954.57
579.21	60750.94
579.37	60774.35
579.53	60856.27
579.69	60566.04
579.85	60652.64
580.01	60666.69
580.17	60589.45
580.33	60797.76
580.49	60940.53
580.65	60706.47
580.82	60762.65
580.98	60823.50
581.14	60601.15
581.30	60795.42
581.46	60704.13
581.62	60743.92
581.78	60617.53
581.94	60839.89
582.10	60636.26
582.26	60734.56
582.42	60711.16
582.58	60748.60
582.74	60807.12
582.90	60949.89
583.06	60760.31
583.22	60493.49
583.38	60722.86
583.54	60818.82
583.70	60687.75
583.86	60704.13
584.02	60753.29
584.18	61076.28
584.34	60872.65
584.50	60795.42
584.66	60823.50
584.82	60804.78
584.98	60893.72
585.14	61008.40
585.30	60584.77
585.46	60835.20
585.62	60568.38
585.78	61095.00
585.94	60842.23
586.10	60853.93
586.26	61073.94
586.42	60977.98
586.58	61116.07
586.74	61165.22
586.90	60949.89
587.06	60788.39
587.22	61090.32
587.38	61109.05
587.54	61010.74
587.70	61024.79
587.86	61003.72
588.02	60956.91
588.18	61006.06
588.34	60989.68
588.49	60851.59
