SpectraSuite Data File
++++++++++++++++++++++++++++++++++++
Date: Fri Oct 25 11:33:15 EDT 2013
User: price-jones
Dark Spectrum Present: No
Reference Spectrum Present: No
Number of Sampled Component Spectra: 1
Spectrometers: USB2+H05261
Integration Time (usec): 100000 (USB2+H05261)
Spectra Averaged: 1 (USB2+H05261)
Boxcar Smoothing: 0 (USB2+H05261)
Correct for Electrical Dark: No (USB2+H05261)
Strobe/Lamp Enabled: No (USB2+H05261)
Correct for Detector Non-linearity: No (USB2+H05261)
Correct for Stray Light: No (USB2+H05261)
Number of Pixels in Processed Spectrum: 2048
>>>>>Begin Processed Spectral Data<<<<<
365.73	290.23
365.92	290.23
366.12	290.23
366.32	159.16
366.52	133.41
366.72	184.90
366.91	159.16
367.11	241.08
367.31	135.75
367.51	210.65
367.70	147.45
367.90	234.05
368.10	182.56
368.30	194.26
368.49	201.29
368.69	180.22
368.89	145.11
369.09	168.52
369.28	128.73
369.48	189.58
369.68	269.16
369.87	231.71
370.07	215.33
370.27	306.61
370.47	315.97
370.66	468.11
370.86	470.45
371.06	486.83
371.25	463.43
371.45	545.34
371.65	613.22
371.84	512.58
372.04	575.77
372.24	568.75
372.44	517.26
372.63	587.47
372.83	620.24
373.03	643.65
373.22	690.46
373.42	566.41
373.62	624.92
373.81	690.46
374.01	697.48
374.21	629.60
374.40	636.63
374.60	634.29
374.79	629.60
374.99	573.43
375.19	648.33
375.38	657.69
375.58	566.41
375.78	713.86
375.97	741.95
376.17	657.69
376.37	636.63
376.56	704.50
376.76	667.05
376.95	589.82
377.15	734.93
377.35	667.05
377.54	763.01
377.74	716.20
377.93	685.78
378.13	671.73
378.33	744.29
378.52	667.05
378.72	732.59
378.91	746.63
379.11	774.72
379.31	748.97
379.50	744.29
379.70	732.59
379.89	734.93
380.09	671.73
380.28	662.37
380.48	753.65
380.68	770.04
380.87	748.97
381.07	725.57
381.26	788.76
381.46	800.46
381.65	748.97
381.85	786.42
382.04	732.59
382.24	765.36
382.43	805.14
382.63	779.40
382.83	826.21
383.02	840.25
383.22	880.04
383.41	889.40
383.61	866.00
383.80	805.14
384.00	784.08
384.19	877.70
384.39	748.97
384.58	877.70
384.78	882.38
384.97	770.04
385.17	819.19
385.36	807.48
385.56	751.31
385.75	835.57
385.95	858.98
386.14	884.72
386.34	805.14
386.53	821.53
386.72	894.08
386.92	903.45
387.11	887.06
387.31	1015.79
387.50	896.43
387.70	802.80
387.89	919.83
388.09	786.42
388.28	800.46
388.48	849.61
388.67	947.92
388.86	884.72
389.06	861.32
389.25	943.24
389.45	926.85
389.64	994.73
389.84	945.58
390.03	971.32
390.22	973.66
390.42	990.05
390.61	950.26
390.81	922.17
391.00	931.53
391.19	933.87
391.39	1036.86
391.58	985.37
391.78	1004.09
391.97	1069.62
392.16	983.02
392.36	1104.73
392.55	1006.43
392.75	1029.84
392.94	1097.71
393.13	1020.47
393.33	1048.56
393.52	1036.86
393.71	1074.31
393.91	1043.88
394.10	1057.92
394.29	1088.35
394.49	985.37
394.68	1116.44
394.88	1125.80
395.07	1114.10
395.26	1135.16
395.46	1064.94
395.65	1116.44
395.84	1153.88
396.04	1245.16
396.23	1156.22
396.42	1160.91
396.62	1210.06
396.81	1198.35
397.00	1261.55
397.19	1228.78
397.39	1174.95
397.58	1261.55
397.77	1174.95
397.97	1268.57
398.16	1373.89
398.35	1341.13
398.55	1362.19
398.74	1284.95
398.93	1254.53
399.12	1315.38
399.32	1282.61
399.51	1238.14
399.70	1343.47
399.90	1348.15
400.09	1385.60
400.28	1444.11
400.47	1427.73
400.67	1418.36
400.86	1331.76
401.05	1394.96
401.24	1472.20
401.44	1397.30
401.63	1526.03
401.82	1397.30
402.01	1441.77
402.21	1448.79
402.40	1460.49
402.59	1376.24
402.78	1495.60
402.97	1504.96
403.17	1514.33
403.36	1621.99
403.55	1511.99
403.74	1657.10
403.93	1692.21
404.13	1631.35
404.32	1612.63
404.51	1614.97
404.70	1629.01
404.89	1521.35
405.09	1755.40
405.28	1600.93
405.47	1720.29
405.66	1734.34
405.85	1774.13
406.05	1624.33
406.24	1661.78
406.43	1706.25
406.62	1734.34
406.81	1846.68
407.00	1834.98
407.20	1703.91
407.39	1914.56
407.58	1893.49
407.77	1867.75
407.96	1849.02
408.15	1799.87
408.34	1874.77
408.54	1816.26
408.73	1891.15
408.92	1909.88
409.11	2090.10
409.30	1898.17
409.49	2115.84
409.68	1975.41
409.87	2099.46
410.07	2026.90
410.26	2050.31
410.45	2024.56
410.64	2136.91
410.83	2146.27
411.02	2111.16
411.21	2216.49
411.40	2186.06
411.59	2338.20
411.78	2270.32
411.98	2260.96
412.17	2211.81
412.36	2326.49
412.55	2293.72
412.74	2263.30
412.93	2286.70
413.12	2291.38
413.31	2366.28
413.50	2363.94
413.69	2497.35
413.88	2520.76
414.07	2555.86
414.26	2476.29
414.45	2429.48
414.64	2560.55
414.83	2597.99
415.02	2654.17
415.22	2644.81
415.41	2621.40
415.60	2668.21
415.79	2712.68
415.98	2745.45
416.17	2651.83
416.36	2768.85
416.55	2733.75
416.74	2747.79
416.93	2715.02
417.12	2841.41
417.31	2857.79
417.50	2899.92
417.69	2974.82
417.88	2942.05
418.07	2932.69
418.26	2836.73
418.45	2890.56
418.64	3164.40
418.83	2970.14
419.02	3105.89
419.21	3073.12
419.39	3038.02
419.58	3143.34
419.77	3056.74
419.96	3150.36
420.15	3286.11
420.34	3117.59
420.53	3208.87
420.72	3272.07
420.91	3274.41
421.10	3218.24
421.29	3304.84
421.48	3325.90
421.67	3288.45
421.86	3206.53
422.05	3346.97
422.24	3417.18
422.43	3330.58
422.61	3255.69
422.80	3426.54
422.99	3265.05
423.18	3368.03
423.37	3461.65
423.56	3452.29
423.75	3489.74
423.94	3365.69
424.13	3187.81
424.32	3272.07
424.50	3501.44
424.69	3524.85
424.88	3442.93
425.07	3372.71
425.26	3412.50
425.45	3503.78
425.64	3449.95
425.83	3463.99
426.01	3489.74
426.20	3541.23
426.39	3513.14
426.58	3459.31
426.77	3496.76
426.96	3637.19
427.15	3475.70
427.33	3698.05
427.52	3679.32
427.71	3585.70
427.90	3627.83
428.09	3716.77
428.28	3613.79
428.46	3632.51
428.65	3660.60
428.84	3733.15
429.03	3843.16
429.22	3707.41
429.40	3684.00
429.59	3782.31
429.78	3667.62
429.97	3595.06
430.16	3803.37
430.34	3878.27
430.53	3955.51
430.72	3786.99
430.91	3882.95
431.10	3798.69
431.28	3946.14
431.47	3962.53
431.66	4105.30
431.85	3936.78
432.03	4058.49
432.22	4187.22
432.41	3957.85
432.60	4079.55
432.79	4248.07
432.97	4131.05
433.16	4121.68
433.35	3960.19
433.54	4322.97
433.72	4229.35
433.91	4243.39
434.10	4205.94
434.28	4219.99
434.47	4217.65
434.66	4297.22
434.85	4386.16
435.03	4348.72
435.22	4404.89
435.41	4486.81
435.59	4367.44
435.78	4386.16
435.97	4479.79
436.16	4381.48
436.34	4348.72
436.53	4500.85
436.72	4493.83
436.90	4428.29
437.09	4662.35
437.28	4461.06
437.46	4603.83
437.65	4376.80
437.84	4716.18
438.02	4634.26
438.21	4425.95
438.40	4664.69
438.58	4791.08
438.77	4880.02
438.96	4706.82
439.14	4830.87
439.33	4973.64
439.52	4952.57
439.70	5107.05
439.89	5043.85
440.08	5102.37
440.26	4999.38
440.45	4896.40
440.63	5172.58
440.82	5221.74
441.01	5064.92
441.19	5203.01
441.38	5188.97
441.57	5324.72
441.75	5399.62
441.94	5423.02
442.12	5460.47
442.31	5322.38
442.50	5256.84
442.68	5359.83
442.87	5497.92
443.05	5472.17
443.24	5755.38
443.43	5589.20
443.61	5551.75
443.80	5661.76
443.98	5418.34
444.17	5380.89
444.35	5526.00
444.54	5722.61
444.73	5682.82
444.91	5621.97
445.10	5547.07
445.28	5671.12
445.47	5586.86
445.65	5516.64
445.84	5750.70
446.02	5685.16
446.21	5680.48
446.39	5764.74
446.58	5820.91
446.77	5741.33
446.95	5659.42
447.14	5652.39
447.32	5909.85
447.51	5802.19
447.69	5820.91
447.88	5584.52
448.06	5781.12
448.25	5774.10
448.43	5877.09
448.62	5877.09
448.80	5884.11
448.99	5963.68
449.17	5994.11
449.36	5975.39
449.54	6120.50
449.73	6134.54
449.91	6083.05
450.10	6050.28
450.28	6303.06
450.46	6298.38
450.65	6115.82
450.83	6307.74
451.02	6244.55
451.20	6265.61
451.39	6230.51
451.57	6263.27
451.76	6270.30
451.94	6176.67
452.13	6471.58
452.31	6403.71
452.49	6221.14
452.68	6246.89
452.86	6326.47
453.05	6502.01
453.23	6392.00
453.42	6431.79
453.60	6558.18
453.78	6532.44
453.97	6438.81
454.15	6368.60
454.34	6527.75
454.52	6377.96
454.70	6663.51
454.89	6492.65
455.07	6775.85
455.26	6604.99
455.44	6803.94
455.62	6719.68
455.81	6647.12
455.99	6761.81
456.17	6909.26
456.36	6846.07
456.54	7061.40
456.73	6937.35
456.91	6974.80
457.09	6979.48
457.28	7162.04
457.46	7145.66
457.64	7246.30
457.83	6857.77
458.01	7070.76
458.19	7342.26
458.38	7124.59
458.56	7295.45
458.74	7185.44
458.93	7262.68
459.11	7358.64
459.29	7222.89
459.48	7272.04
459.66	7452.27
459.84	7297.79
460.03	7456.95
460.21	7503.76
460.39	7335.24
460.57	7421.84
460.76	7538.87
460.94	7581.00
461.12	7585.68
461.31	7480.35
461.49	7524.82
461.67	7503.76
461.85	7623.12
462.04	7461.63
462.22	7985.91
462.40	7817.39
462.59	7810.37
462.77	7730.79
462.95	8107.62
463.13	7915.69
463.32	7801.01
463.50	7826.75
463.68	8042.08
463.86	8018.68
464.05	8046.76
464.23	7878.24
464.41	8236.35
464.59	7836.11
464.78	8224.64
464.96	8095.91
465.14	8023.36
465.32	7971.86
465.50	8201.24
465.69	8224.64
465.87	8243.37
466.05	8184.85
466.23	8280.82
466.41	8107.62
466.60	8428.27
466.78	8170.81
466.96	8280.82
467.14	8238.69
467.32	8416.57
467.51	8444.65
467.69	8250.39
467.87	8402.52
468.05	8531.25
468.23	8575.72
468.41	8428.27
468.60	8463.38
468.78	8601.47
468.96	8449.33
469.14	8444.65
469.32	8542.96
469.50	8493.80
469.69	8858.93
469.87	8652.96
470.05	8994.68
470.23	8650.62
470.41	8716.16
470.59	9020.42
470.77	8905.74
470.95	8905.74
471.14	9247.46
471.32	8849.57
471.50	9224.05
471.68	9158.52
471.86	9027.45
472.04	9284.91
472.22	9338.74
472.40	9102.34
472.58	9296.61
472.77	9270.86
472.95	9282.56
473.13	9748.33
473.31	9259.16
473.49	9481.51
473.67	9434.70
473.85	9600.88
474.03	9813.87
474.21	9851.31
474.39	9879.40
474.57	9984.73
474.75	9848.97
474.93	9921.53
475.12	9863.02
475.30	10162.61
475.48	10129.84
475.66	10066.64
475.84	10310.06
476.02	10223.46
476.20	10403.68
476.38	10417.72
476.56	10546.45
476.74	10558.16
476.92	10611.99
477.10	10314.74
477.28	10602.63
477.46	10775.83
477.64	10834.34
477.82	10981.79
478.00	11272.02
478.18	11304.79
478.36	11162.01
478.54	11438.20
478.72	11501.39
478.90	11440.54
479.08	11751.83
479.26	11903.96
479.44	11613.74
479.62	11948.43
479.80	11981.20
479.98	12224.62
480.16	12379.09
480.34	12025.67
480.52	12449.31
480.70	12208.23
480.88	12196.53
481.06	12414.20
481.24	12664.64
481.41	12643.57
481.59	12905.71
481.77	12978.27
481.95	12872.95
482.13	13458.08
482.31	13151.47
482.49	13509.57
482.67	13427.65
482.85	13593.83
483.03	13434.68
483.21	13727.24
483.39	13891.08
483.57	13760.01
483.74	14167.26
483.92	14005.77
484.10	14066.62
484.28	14483.24
484.46	14523.02
484.64	14927.94
484.82	14424.72
485.00	14757.08
485.18	15159.65
485.35	15321.15
485.53	14855.38
485.71	15379.66
485.89	15583.29
486.07	15517.75
486.25	15702.65
486.43	15822.02
486.61	15910.96
486.78	15925.00
486.96	16137.99
487.14	16449.28
487.32	16112.25
487.50	16554.61
487.68	16563.97
487.85	16444.60
488.03	16449.28
488.21	17132.72
488.39	17118.68
488.57	17022.72
488.75	17060.16
488.92	17378.48
489.10	17717.86
489.28	17645.30
489.46	17729.56
489.64	17774.03
489.81	18242.14
489.99	18302.99
490.17	18354.48
490.35	18909.19
490.53	18663.43
490.70	18738.33
490.88	18679.82
491.06	18958.34
491.24	19077.71
491.41	19206.44
491.59	19271.97
491.77	19501.34
491.95	19183.03
492.13	19543.47
492.30	19733.06
492.48	19850.08
492.66	20037.33
492.84	19878.17
493.01	20276.06
493.19	20290.10
493.37	20409.47
493.54	20404.79
493.72	20629.48
493.90	20449.26
494.08	20779.28
494.25	21022.69
494.43	21238.02
494.61	21329.30
494.79	21123.33
494.96	21184.19
495.14	21310.58
495.32	21640.59
495.49	21848.90
495.67	21724.85
495.85	22359.14
496.02	22356.80
496.20	22244.45
496.38	22665.75
496.55	22382.54
496.73	23101.09
496.91	22611.92
497.09	23229.82
497.26	22796.82
497.44	22738.30
497.62	23426.42
497.79	23461.53
497.97	23644.09
498.14	23747.08
498.32	23810.27
498.50	23948.36
498.67	24023.26
498.85	23934.32
499.03	24346.25
499.20	24067.73
499.38	24519.45
499.56	24772.23
499.73	24898.62
499.91	24631.80
500.08	24732.44
500.26	24725.42
500.44	25034.37
500.61	24872.87
500.79	24861.17
500.97	24912.66
501.14	25266.08
501.32	25458.01
501.49	25205.23
501.67	25043.73
501.84	25956.54
502.02	25659.29
502.20	25591.42
502.37	25745.89
502.55	25986.97
502.72	26169.53
502.90	26141.44
503.07	26410.60
503.25	26211.66
503.43	26293.58
503.60	26288.90
503.78	26513.59
503.95	26604.87
504.13	26859.99
504.30	26885.73
504.48	26534.65
504.65	27152.55
504.83	27365.54
505.01	27569.17
505.18	27424.06
505.36	27784.50
505.53	27541.08
505.71	27297.67
505.88	27552.79
506.06	27613.64
506.23	27817.27
506.41	27824.29
506.58	27955.36
506.76	28236.22
506.93	28341.55
507.11	28130.90
507.28	28201.11
507.46	28271.33
507.63	28622.41
507.81	28533.47
507.98	27981.10
508.16	28704.33
508.33	28694.97
508.50	28936.04
508.68	29266.06
508.85	29575.01
509.03	29006.26
509.20	29198.18
509.38	29472.03
509.55	29312.87
509.73	29301.17
509.90	29429.90
510.08	29570.33
510.25	29284.78
510.42	29956.52
510.60	29907.37
510.77	30061.84
510.95	30700.81
511.12	30134.40
511.30	30466.75
511.47	30230.36
511.64	30183.55
511.82	30686.76
511.99	30347.39
512.17	30700.81
512.34	30431.65
512.51	31065.93
512.69	30749.96
512.86	31393.61
513.04	31197.00
513.21	31398.29
513.38	31494.25
513.56	31634.68
513.73	31512.97
513.90	31342.11
514.08	31248.49
514.25	31740.00
514.43	32011.51
514.60	31637.02
514.77	31826.60
514.95	31845.33
515.12	31945.97
515.29	31866.39
515.47	32081.72
515.64	32456.21
515.81	32180.03
515.99	32432.80
516.16	32898.57
516.33	32540.47
516.51	32802.61
516.68	32591.96
516.85	32844.74
517.03	32776.86
517.20	32907.93
517.37	33090.49
517.54	33191.14
517.72	33254.33
517.89	33319.87
518.06	33095.18
518.24	32978.15
518.41	33106.88
518.58	33347.95
518.75	33261.35
518.93	33565.62
519.10	33495.41
519.27	33638.18
519.45	33567.96
519.62	33940.11
519.79	33820.74
519.96	33462.64
520.14	33818.40
520.31	34235.02
520.48	34043.09
520.65	34235.02
520.83	34588.44
521.00	34366.09
521.17	34497.16
521.34	34607.16
521.52	34684.40
521.69	34679.72
521.86	34958.24
522.03	35199.32
522.20	35082.29
522.38	35412.31
522.55	35512.95
522.72	34981.65
522.89	35101.01
523.07	35328.05
523.24	35445.07
523.41	35934.24
523.58	35646.36
523.75	35819.56
523.92	35587.85
524.10	35749.34
524.27	35840.62
524.44	36149.57
524.61	36390.65
524.78	35847.64
524.96	36135.53
525.13	36601.30
525.30	36374.27
525.47	36727.69
525.64	36519.38
525.81	36664.49
525.98	36816.63
526.16	36631.72
526.33	36573.21
526.50	36790.88
526.67	36348.52
526.84	37268.35
527.01	36720.66
527.18	36734.71
527.36	37116.22
527.53	36919.61
527.70	37240.26
527.87	37476.66
528.04	36926.63
528.21	37277.71
528.38	37137.28
528.55	37291.76
528.72	37181.75
528.89	37673.26
529.07	37467.30
529.24	37390.06
529.41	38192.86
529.58	37818.38
529.75	37949.45
529.92	38183.50
530.09	37825.40
530.26	37771.57
530.43	38010.30
530.60	37893.27
530.77	37933.06
530.94	38349.68
531.11	38066.47
531.28	38089.88
531.46	38279.46
531.63	38525.22
531.80	38073.49
531.97	38433.94
532.14	38927.79
532.31	39084.61
532.48	38967.58
532.65	38595.43
532.82	38677.35
532.99	39035.45
533.16	38925.45
533.33	39288.23
533.50	39108.01
533.67	39325.68
533.84	38749.91
534.01	39009.71
534.18	39311.64
534.35	39894.43
534.52	39510.58
534.69	39321.00
534.86	40055.93
535.03	39585.48
535.20	39945.92
535.37	39702.51
535.54	40140.19
535.71	39873.37
535.88	39646.33
536.05	39695.49
536.22	40292.32
536.38	39833.58
536.55	39634.63
536.72	39641.65
536.89	39777.40
537.06	40116.78
537.23	40196.36
537.40	40297.00
537.57	40093.38
537.74	40409.35
537.91	40236.15
538.08	40655.11
538.25	40245.51
538.42	40285.30
538.59	40552.12
538.75	40341.47
538.92	40669.15
539.09	40655.11
539.26	40971.08
539.43	40638.72
539.60	40985.12
539.77	40973.42
539.94	41469.61
540.11	41120.87
540.28	40989.80
540.44	41069.38
540.61	41015.55
540.78	41008.53
540.95	41230.88
541.12	41467.27
541.29	41102.15
541.46	41083.42
541.62	41289.39
541.79	41579.62
541.96	41282.37
542.13	40935.97
542.30	41298.75
542.47	41577.28
542.63	41675.58
542.80	41762.18
542.97	42307.52
543.14	42249.01
543.31	42398.80
543.48	42323.91
543.64	42204.54
543.81	42265.39
543.98	42253.69
544.15	42756.91
544.32	42932.45
544.48	42473.70
544.65	42593.07
544.82	42361.36
544.99	41813.67
545.16	42569.66
545.32	42693.71
545.49	42656.26
545.66	42866.91
545.83	43021.39
546.00	43283.53
546.16	42967.55
546.33	43150.12
546.50	42267.73
546.67	43253.10
546.83	42714.78
547.00	43161.82
547.17	42953.51
547.34	42953.51
547.50	43438.00
547.67	43201.61
547.84	42859.89
548.00	43269.48
548.17	43915.47
548.34	43578.43
548.51	43440.34
548.67	43377.15
548.84	43372.47
549.01	43475.45
549.18	43353.74
549.34	43718.87
549.51	43709.50
549.68	44175.27
549.84	43641.63
550.01	44027.82
550.18	43803.13
550.34	43749.29
550.51	44088.67
550.68	43824.19
550.84	43707.16
551.01	44114.42
551.18	43777.38
551.34	43931.86
551.51	44243.15
551.68	44081.65
551.84	44327.41
552.01	43751.63
552.18	44285.28
552.34	43981.01
552.51	44161.23
552.68	43693.12
552.84	44215.06
553.01	44617.63
553.18	44072.29
553.34	44458.48
553.51	44610.61
553.67	44652.74
553.84	45111.49
554.01	44641.04
554.17	44772.11
554.34	45050.63
554.51	45022.54
554.67	45165.32
554.84	44849.35
555.00	44619.97
555.17	44732.32
555.33	44985.10
555.50	44839.98
555.67	44954.67
555.83	45200.43
556.00	44989.78
556.16	45427.46
556.33	45518.74
556.50	45064.67
556.66	45221.49
556.83	45254.26
556.99	45813.65
557.16	46075.79
557.32	45420.44
557.49	45558.53
557.65	45235.53
557.82	45399.37
557.98	45422.78
558.15	45612.36
558.32	45727.05
558.48	45347.88
558.65	45492.99
558.81	45392.35
558.98	45652.15
559.14	45598.32
559.31	45504.70
559.47	45354.90
559.64	45638.11
559.80	45860.46
559.97	45947.06
560.13	45640.45
560.30	45841.73
560.46	45778.54
560.63	45902.59
560.79	45895.56
560.96	45832.37
561.12	45851.09
561.29	45975.14
561.45	46019.61
561.61	45729.39
561.78	45701.30
561.94	46146.00
562.11	45832.37
562.27	46120.26
562.44	46026.63
562.60	46204.52
562.77	46024.29
562.93	46026.63
563.10	46319.20
563.26	45897.91
563.42	46557.94
563.59	45979.82
563.75	45883.86
563.92	46316.86
564.08	46171.75
564.24	46354.31
564.41	46295.80
564.57	46239.62
564.74	46309.84
564.90	46061.74
565.07	46555.60
565.23	46431.55
565.39	46712.41
565.56	46576.66
565.72	46272.39
565.88	46487.72
566.05	46557.94
566.21	46614.11
566.38	46171.75
566.54	46618.79
566.70	46600.07
566.87	46550.91
567.03	46253.67
567.19	46808.37
567.36	46803.69
567.52	46831.78
567.68	46586.02
567.85	46639.86
568.01	46497.08
568.17	46710.07
568.34	46948.81
568.50	46358.99
568.66	46820.08
568.83	46735.82
568.99	47072.85
569.15	46693.69
569.32	46972.21
569.48	46560.28
569.64	47140.73
569.81	46686.67
569.97	47154.77
570.13	46885.61
570.30	46667.94
570.46	46574.32
570.62	46852.84
570.78	47040.09
570.95	46768.58
571.11	47033.07
571.27	46721.77
571.43	46710.07
571.60	47122.01
571.76	46651.56
571.92	47140.73
572.09	47014.34
572.25	47082.22
572.41	46810.71
572.57	47133.71
572.74	47391.17
572.90	46932.42
573.06	47217.97
573.22	47175.84
573.38	47145.41
573.55	47522.24
573.71	47562.03
573.87	47000.30
574.03	47288.18
574.20	47327.97
574.36	47262.44
574.52	47138.39
574.68	47030.72
574.84	47421.59
575.01	47253.08
575.17	47159.45
575.33	47126.69
575.49	47161.79
575.65	47716.50
575.82	47583.09
575.98	47119.66
576.14	47114.98
576.30	47550.32
576.46	47477.77
576.62	46967.53
576.79	46941.78
576.95	47058.81
577.11	47224.99
577.27	47278.82
577.43	46967.53
577.59	47531.60
577.75	47171.16
577.92	47365.42
578.08	47463.72
578.24	47533.94
578.40	47358.40
578.56	47269.46
578.72	47332.65
578.88	47587.77
579.04	47779.70
579.21	47419.25
579.37	47620.54
579.53	47597.13
579.69	47208.61
579.85	47381.80
580.01	47606.50
580.17	47426.28
580.33	47735.23
580.49	47583.09
580.65	47498.83
580.82	47447.34
580.98	47594.79
581.14	47323.29
581.30	47519.90
581.46	47302.23
581.62	47309.25
581.78	47400.53
581.94	47555.00
582.10	47239.03
582.26	47552.66
582.42	47856.93
582.58	47533.94
582.74	47938.85
582.90	47648.63
583.06	47779.70
583.22	47650.97
583.38	47510.53
583.54	47459.04
583.70	47887.36
583.86	47606.50
584.02	47456.70
584.18	48144.82
584.34	47845.23
584.50	47732.89
584.66	47990.34
584.82	47709.48
584.98	48170.57
585.14	48133.12
585.30	47702.46
585.46	47536.28
585.62	47475.43
585.78	47964.60
585.94	47566.71
586.10	47559.69
586.26	47407.55
586.42	47910.77
586.58	47767.99
586.74	47585.43
586.90	47508.19
587.06	47428.62
587.22	48011.41
587.38	47870.98
587.54	48058.22
587.70	48095.67
587.86	48105.03
588.02	48079.28
588.18	47665.01
588.34	47449.68
588.49	47854.59
588.65	48149.50
588.81	47913.11
588.97	47922.47
589.13	47646.29
589.29	47999.71
589.45	48301.64
589.61	47938.85
589.77	48191.63
589.93	47683.73
590.08	47866.30
