SpectraSuite Data File
++++++++++++++++++++++++++++++++++++
Date: Fri Oct 25 11:23:01 EDT 2013
User: price-jones
Dark Spectrum Present: No
Reference Spectrum Present: No
Number of Sampled Component Spectra: 1
Spectrometers: USB2+H05261
Integration Time (usec): 100000 (USB2+H05261)
Spectra Averaged: 1 (USB2+H05261)
Boxcar Smoothing: 0 (USB2+H05261)
Correct for Electrical Dark: No (USB2+H05261)
Strobe/Lamp Enabled: No (USB2+H05261)
Correct for Detector Non-linearity: No (USB2+H05261)
Correct for Stray Light: No (USB2+H05261)
Number of Pixels in Processed Spectrum: 2048
>>>>>Begin Processed Spectral Data<<<<<
365.73	238.73
365.92	238.73
366.12	238.73
366.32	168.52
366.52	114.69
366.72	119.37
366.91	65.54
367.11	56.17
367.31	95.96
367.51	91.28
367.70	168.52
367.90	79.58
368.10	140.43
368.30	124.05
368.49	147.45
368.69	77.24
368.89	177.88
369.09	196.60
369.28	131.07
369.48	154.48
369.68	138.09
369.87	154.48
370.07	196.60
370.27	217.67
370.47	306.61
370.66	585.13
370.86	631.94
371.06	643.65
371.25	770.04
371.45	681.10
371.65	683.44
371.84	624.92
372.04	676.41
372.24	772.38
372.44	704.50
372.63	692.80
372.83	734.93
373.03	758.33
373.22	734.93
373.42	767.70
373.62	741.95
373.81	709.18
374.01	830.89
374.21	798.12
374.40	800.46
374.60	880.04
374.79	802.80
374.99	837.91
375.19	828.55
375.38	791.10
375.58	819.19
375.78	842.59
375.97	908.13
376.17	915.15
376.37	851.96
376.56	898.77
376.76	891.74
376.95	763.01
377.15	866.00
377.35	849.61
377.54	882.38
377.74	800.46
377.93	931.53
378.13	933.87
378.33	933.87
378.52	891.74
378.72	919.83
378.91	835.57
379.11	936.21
379.31	880.04
379.50	856.64
379.70	973.66
379.89	980.68
380.09	952.60
380.28	952.60
380.48	915.15
380.68	940.90
380.87	863.66
381.07	992.39
381.26	1060.26
381.46	1081.33
381.65	1060.26
381.85	1036.86
382.04	997.07
382.24	1062.60
382.43	999.41
382.63	1067.28
382.83	1121.12
383.02	1125.80
383.22	1057.92
383.41	1029.84
383.61	1060.26
383.80	1123.46
384.00	1088.35
384.19	1097.71
384.39	1203.04
384.58	1118.78
384.78	1186.65
384.97	1151.54
385.17	1179.63
385.36	1177.29
385.56	1146.86
385.75	1205.38
385.95	1196.01
386.14	1284.95
386.34	1160.91
386.53	1324.74
386.72	1153.88
386.92	1135.16
387.11	1111.75
387.31	1254.53
387.50	1308.36
387.70	1252.19
387.89	1151.54
388.09	1324.74
388.28	1294.32
388.48	1228.78
388.67	1259.21
388.86	1226.44
389.06	1270.91
389.25	1341.13
389.45	1259.21
389.64	1315.38
389.84	1362.19
390.03	1366.87
390.22	1446.45
390.42	1284.95
390.61	1444.11
390.81	1364.53
391.00	1397.30
391.19	1399.64
391.39	1373.89
391.58	1394.96
391.78	1439.43
391.97	1551.78
392.16	1444.11
392.36	1516.67
392.55	1521.35
392.75	1472.20
392.94	1565.82
393.13	1511.99
393.33	1488.58
393.52	1643.06
393.71	1570.50
393.91	1584.54
394.10	1621.99
394.29	1605.61
394.49	1621.99
394.68	1647.74
394.88	1640.72
395.07	1626.67
395.26	1694.55
395.46	1626.67
395.65	1650.08
395.84	1699.23
396.04	1769.44
396.23	1741.36
396.42	1689.87
396.62	1732.00
396.81	1734.34
397.00	1776.47
397.19	1713.27
397.39	1717.95
397.58	1818.60
397.77	1720.29
397.97	1853.70
398.16	1844.34
398.35	1933.28
398.55	1858.39
398.74	1863.07
398.93	1877.11
399.12	1942.64
399.32	1970.73
399.51	1963.71
399.70	2054.99
399.90	2015.20
400.09	2080.74
400.28	2071.37
400.47	2104.14
400.67	2115.84
400.86	2108.82
401.05	2022.22
401.24	2022.22
401.44	2132.23
401.63	2120.53
401.82	2232.87
402.01	2120.53
402.21	2232.87
402.40	2172.02
402.59	2221.17
402.78	2216.49
402.97	2193.08
403.17	2221.17
403.36	2279.68
403.55	2359.26
403.74	2373.30
403.93	2321.81
404.13	2431.82
404.32	2335.85
404.51	2361.60
404.70	2361.60
404.89	2347.56
405.09	2495.01
405.28	2595.65
405.47	2478.63
405.66	2525.44
405.85	2464.58
406.05	2452.88
406.24	2462.24
406.43	2504.37
406.62	2628.42
406.81	2649.49
407.00	2649.49
407.20	2523.10
407.39	2637.78
407.58	2675.23
407.77	2785.24
407.96	2712.68
408.15	2743.11
408.34	2794.60
408.54	2761.83
408.73	2806.30
408.92	2895.24
409.11	2822.69
409.30	2944.39
409.49	2869.50
409.68	2836.73
409.87	2871.84
410.07	3005.25
410.26	3056.74
410.45	3009.93
410.64	3073.12
410.83	3096.53
411.02	3103.55
411.21	3183.13
411.40	3094.19
411.59	3260.37
411.78	3183.13
411.98	3211.22
412.17	3346.97
412.36	3356.33
412.55	3232.28
412.74	3304.84
412.93	3426.54
413.12	3435.91
413.31	3510.80
413.50	3428.88
413.69	3440.59
413.88	3618.47
414.07	3641.87
414.26	3623.15
414.45	3644.21
414.64	3667.62
414.83	3836.14
415.02	3906.35
415.22	3777.62
415.41	3911.04
415.60	4002.32
415.79	3985.93
415.98	3906.35
416.17	4138.07
416.36	4023.38
416.55	3948.48
416.74	4049.13
416.93	4081.89
417.12	4168.49
417.31	4086.58
417.50	4189.56
417.69	4374.46
417.88	4341.69
418.07	4259.78
418.26	4332.33
418.45	4390.84
418.64	4407.23
418.83	4241.05
419.02	4514.89
419.21	4367.44
419.39	4528.94
419.58	4397.87
419.77	4484.47
419.96	4622.56
420.15	4589.79
420.34	4545.32
420.53	4674.05
420.72	4678.73
420.91	4861.29
421.10	4674.05
421.29	4706.82
421.48	4688.09
421.67	4870.65
421.86	4814.48
422.05	4814.48
422.24	4732.56
422.43	4863.63
422.61	4919.81
422.80	4917.47
422.99	4919.81
423.18	5153.86
423.37	5085.98
423.56	5027.47
423.75	4987.68
423.94	4870.65
424.13	4660.01
424.32	4730.22
424.50	5041.51
424.69	5191.31
424.88	5137.48
425.07	4961.94
425.26	4936.19
425.45	4901.08
425.64	4915.12
425.83	5050.88
426.01	5214.71
426.20	5212.37
426.39	5041.51
426.58	4980.66
426.77	5076.62
426.96	5165.56
427.15	5062.58
427.33	5366.85
427.52	5254.50
427.71	5193.65
427.90	5207.69
428.09	5404.30
428.28	5247.48
428.46	5465.15
428.65	5371.53
428.84	5521.32
429.03	5579.84
429.22	5366.85
429.40	5446.43
429.59	5462.81
429.78	5114.07
429.97	5198.33
430.16	5518.98
430.34	5518.98
430.53	5607.92
430.72	5495.58
430.91	5645.37
431.10	5668.78
431.28	5879.43
431.47	5781.12
431.66	5912.19
431.85	5844.32
432.03	5888.79
432.22	6085.39
432.41	5940.28
432.60	6045.60
432.79	6033.90
432.97	5994.11
433.16	6015.18
433.35	6017.52
433.54	6204.76
433.72	6078.37
433.91	6113.48
434.10	6188.38
434.28	6193.06
434.47	6408.39
434.66	6162.63
434.85	6324.13
435.03	6195.40
435.22	6122.84
435.41	6565.20
435.59	6516.05
435.78	6445.84
435.97	6497.33
436.16	6490.31
436.34	6555.84
436.53	6532.44
436.72	6637.76
436.90	6464.56
437.09	6707.98
437.28	6537.12
437.46	6693.93
437.65	6579.25
437.84	6794.58
438.02	6878.83
438.21	6897.56
438.40	6647.12
438.58	7026.29
438.77	7087.14
438.96	6909.26
439.14	7183.10
439.33	7253.32
439.52	7119.91
439.70	7276.73
439.89	7274.38
440.08	7606.74
440.26	7403.11
440.45	7456.95
440.63	7466.31
440.82	7707.38
441.01	7536.52
441.19	7733.13
441.38	7756.54
441.57	7845.48
441.75	7911.01
441.94	7854.84
442.12	8002.29
442.31	8030.38
442.50	7990.59
442.68	7967.18
442.87	7988.25
443.05	8011.65
443.24	8383.80
443.43	8173.15
443.61	8306.56
443.80	8444.65
443.98	8091.23
444.17	8100.59
444.35	8241.03
444.54	8329.97
444.73	8421.25
444.91	8308.90
445.10	8304.22
445.28	8336.99
445.47	8395.50
445.65	8217.62
445.84	8416.57
446.02	8489.12
446.21	8514.87
446.39	8575.72
446.58	8531.25
446.77	8542.96
446.95	8397.84
447.14	8503.17
447.32	8777.01
447.51	8772.33
447.69	8360.39
447.88	8648.28
448.06	8540.61
448.25	8442.31
448.43	8877.65
448.62	8643.60
448.80	8367.42
448.99	8716.16
449.17	8854.25
449.36	8751.26
449.54	8784.03
449.73	9191.28
449.91	9057.87
450.10	8877.65
450.28	9160.86
450.46	9163.20
450.65	9015.74
450.83	9088.30
451.02	9039.15
451.20	9109.36
451.39	9170.22
451.57	9291.93
451.76	8961.91
451.94	9242.78
452.13	9177.24
452.31	9320.01
452.49	9277.88
452.68	9378.53
452.86	9383.21
453.05	9294.27
453.23	9518.96
453.42	9486.19
453.60	9329.38
453.78	9502.58
453.97	9493.21
454.15	9572.79
454.34	9628.96
454.52	9722.59
454.70	9652.37
454.89	9919.19
455.07	9661.73
455.26	9888.76
455.44	10019.83
455.62	10141.54
455.81	9837.27
455.99	10092.39
456.17	9935.57
456.36	10022.17
456.54	10277.29
456.73	10265.59
456.91	10509.01
457.09	10574.54
457.28	10583.90
457.46	10380.28
457.64	10562.84
457.83	10619.01
458.01	10530.07
458.19	10834.34
458.38	10438.79
458.56	11009.88
458.74	10782.85
458.93	10658.80
459.11	10750.08
459.29	10841.36
459.48	10986.47
459.66	11012.22
459.84	10829.66
460.03	11077.76
460.21	11094.14
460.39	10963.07
460.57	11080.10
460.76	11325.85
460.94	11243.93
461.12	11398.41
461.31	11337.56
461.49	11255.64
461.67	11061.37
461.85	11571.61
462.04	11562.25
462.22	11751.83
462.40	11463.94
462.59	11517.78
462.77	11627.78
462.95	11658.21
463.13	11665.23
463.32	11770.55
463.50	11747.15
463.68	11880.56
463.86	11871.20
464.05	11873.54
464.23	12016.31
464.41	12018.65
464.59	11623.10
464.78	12212.92
464.96	12116.95
465.14	11950.78
465.32	12201.21
465.50	12067.80
465.69	12210.57
465.87	12102.91
466.05	12187.17
466.23	12493.78
466.41	12393.14
466.60	12709.11
466.78	12313.56
466.96	12313.56
467.14	12409.52
467.32	12386.12
467.51	12697.41
467.69	12049.08
467.87	12521.87
468.05	12561.66
468.23	12552.29
468.41	12468.03
468.60	12716.13
468.78	12886.99
468.96	12833.16
469.14	12767.62
469.32	13114.02
469.50	12931.46
469.69	12966.57
469.87	13303.60
470.05	13137.43
470.23	13362.12
470.41	13537.66
470.59	13383.18
470.77	13291.90
470.95	13411.27
471.14	13685.11
471.32	13317.65
471.50	13551.70
471.68	13603.19
471.86	13731.92
472.04	13713.20
472.22	14314.72
472.40	13994.06
472.58	13937.89
472.77	14012.79
472.95	14321.74
473.13	14707.93
473.31	14029.17
473.49	14197.69
473.67	14204.71
473.85	14459.83
474.03	14590.90
474.21	14436.42
474.39	14944.32
474.57	14843.68
474.75	14956.02
474.93	14801.55
475.12	15136.24
475.30	15108.16
475.48	15117.52
475.66	15005.17
475.84	15281.36
476.02	15484.98
476.20	15236.89
476.38	15714.36
476.56	16255.02
476.74	16395.45
476.92	15866.49
477.10	15882.88
477.28	16063.10
477.46	16547.59
477.64	16372.05
477.82	16725.47
478.00	17181.87
478.18	17146.76
478.36	17317.62
478.54	17195.92
478.72	17298.90
478.90	17238.05
479.08	17476.78
479.26	17891.06
479.44	17759.98
479.62	17916.80
479.80	18080.64
479.98	18527.68
480.16	18640.03
480.34	18232.77
480.52	18888.12
480.70	19002.81
480.88	18457.46
481.06	18724.29
481.24	18993.45
481.41	19058.98
481.59	19386.66
481.77	19676.88
481.95	19433.47
482.13	20098.18
482.31	19775.19
482.49	20147.33
482.67	20379.04
482.85	20662.25
483.03	20692.68
483.21	20870.56
483.39	21301.22
483.57	20987.58
483.74	21146.74
483.92	21443.99
484.10	21598.46
484.28	22155.51
484.46	22176.58
484.64	22836.61
484.82	21940.18
485.00	22511.27
485.18	22937.25
485.35	23056.62
485.53	22808.52
485.71	23180.67
485.89	23950.70
486.07	23597.28
486.25	23073.00
486.43	23950.70
486.61	24039.64
486.78	24039.64
486.96	24074.75
487.14	24788.61
487.32	24856.49
487.50	25305.87
487.68	25202.89
487.85	25560.99
488.03	25645.25
488.21	25912.07
488.39	26096.97
488.57	26326.35
488.75	26328.69
488.92	26408.26
489.10	26766.37
489.28	26888.07
489.46	27426.40
489.64	27360.86
489.81	28072.39
489.99	27817.27
490.17	27843.01
490.35	28137.92
490.53	28411.76
490.70	28833.06
490.88	28596.67
491.06	28786.25
491.24	28783.91
491.41	29301.17
491.59	29677.99
491.77	29057.75
491.95	29942.47
492.13	29757.57
492.30	30213.98
492.48	30377.81
492.66	30258.45
492.84	30576.76
493.01	30958.27
493.19	30352.07
493.37	30934.86
493.54	31384.24
493.72	31835.97
493.90	31683.83
494.08	32257.26
494.25	31924.91
494.43	32414.08
494.61	32315.78
494.79	32627.07
494.96	32500.68
495.14	33013.26
495.32	33364.34
495.49	33497.75
495.67	33509.45
495.85	33221.56
496.02	33785.63
496.20	34136.71
496.38	34328.64
496.55	34403.53
496.73	34944.20
496.91	34656.31
497.09	35201.66
497.26	34911.43
497.44	35512.95
497.62	35325.71
497.79	35882.75
497.97	35967.01
498.14	36191.70
498.32	36327.45
498.50	36664.49
498.67	36952.38
498.85	36568.53
499.03	37127.92
499.20	36896.20
499.38	37076.43
499.56	37057.70
499.73	36868.12
499.91	37507.08
500.08	37909.66
500.26	37816.04
500.44	37799.65
500.61	38057.11
500.79	38124.99
500.97	38298.19
501.14	39185.25
501.32	38946.51
501.49	39079.92
501.67	38731.18
501.84	39342.06
502.02	38888.00
502.20	39285.89
502.37	39426.32
502.55	39313.98
502.72	40044.23
502.90	40084.01
503.07	39861.66
503.25	39824.22
503.43	40498.29
503.60	40481.91
503.78	40091.04
503.95	40800.22
504.13	40903.20
504.30	41027.25
504.48	40392.97
504.65	41354.93
504.83	41296.41
505.01	41474.29
505.18	41432.16
505.36	41914.31
505.53	41631.11
505.71	41928.36
505.88	42181.13
506.06	41720.05
506.23	42216.24
506.41	42359.02
506.58	42548.60
506.76	42279.44
506.93	42824.78
507.11	42307.52
507.28	42546.26
507.46	42951.17
507.63	42983.94
507.81	43606.52
507.98	43082.24
508.16	43215.65
508.33	43517.58
508.50	43627.59
508.68	44278.25
508.85	44210.38
509.03	43873.34
509.20	44208.04
509.38	44282.94
509.55	44762.75
509.73	44601.25
509.90	44619.97
510.08	44835.30
510.25	44545.08
510.42	44884.45
510.60	45116.17
510.77	45244.90
510.95	45902.59
511.12	45610.02
511.30	45455.54
511.47	45682.58
511.64	46115.58
511.82	46206.86
511.99	46078.13
512.17	46291.12
512.34	46307.50
512.51	46590.70
512.69	46417.50
512.86	46583.68
513.04	47051.79
513.21	46934.76
513.38	46923.06
513.56	46983.91
513.73	47180.52
513.90	46883.27
514.08	47196.90
514.25	47480.11
514.43	47653.31
514.60	47515.22
514.77	47620.54
514.95	48261.85
515.12	47587.77
515.29	47758.63
515.47	48060.56
515.64	48308.66
515.81	48072.26
515.99	48456.11
516.16	48505.26
516.33	48463.13
516.51	48790.81
516.68	48952.30
516.85	48879.75
517.03	49439.14
517.20	49270.62
517.37	49127.84
517.54	48849.32
517.72	49139.55
517.89	49221.47
518.06	49811.28
518.24	49399.35
518.41	49862.77
518.58	49574.89
518.75	49705.96
518.93	50085.12
519.10	49406.37
519.27	49930.65
519.45	49909.58
519.62	50543.87
519.79	50255.98
519.96	50183.43
520.14	50375.35
520.31	50410.46
520.48	50597.70
520.65	50520.46
520.83	51068.15
521.00	50766.22
521.17	50721.75
521.34	51292.84
521.52	50932.40
521.69	51147.73
521.86	51068.15
522.03	51234.33
522.20	51620.52
522.38	51662.64
522.55	51629.88
522.72	51831.16
522.89	51622.86
523.07	51716.48
523.24	51501.15
523.41	52107.35
523.58	51592.43
523.75	52128.41
523.92	52112.03
524.10	52271.18
524.27	52589.50
524.44	52346.08
524.61	51987.98
524.78	52687.80
524.96	52271.18
525.13	52584.82
525.30	52636.31
525.47	52868.02
525.64	52568.43
525.81	52704.18
525.98	53020.16
526.16	53034.20
526.33	52727.59
526.50	53081.01
526.67	52914.83
526.84	53277.61
527.01	53116.12
527.18	53193.36
527.36	53141.86
527.53	53343.15
527.70	53631.04
527.87	53446.13
528.04	53183.99
528.21	53303.36
528.38	53394.64
528.55	53839.34
528.72	53364.21
528.89	53820.62
529.07	53689.55
529.24	53586.57
529.41	53771.47
529.58	53771.47
529.75	53900.20
529.92	54054.67
530.09	53879.13
530.26	54131.91
530.43	54218.51
530.60	54061.69
530.77	53984.46
530.94	54251.28
531.11	54232.55
531.28	54293.41
531.46	54445.54
531.63	54377.67
531.80	54480.65
531.97	54482.99
532.14	54817.69
532.31	54642.15
532.48	54695.98
532.65	54820.03
532.82	54857.48
532.99	54817.69
533.16	54745.13
533.33	55150.04
533.50	55065.78
533.67	54782.58
533.84	54756.83
534.01	55086.85
534.18	55133.66
534.35	55473.04
534.52	55288.13
534.69	55484.74
534.86	55309.20
535.03	55271.75
535.20	55208.56
535.37	55686.03
535.54	55309.20
535.71	55501.12
535.88	55496.44
536.05	55576.02
536.22	55868.59
536.38	55969.23
536.55	55676.66
536.72	55739.86
536.89	55690.71
537.06	55667.30
537.23	55971.57
537.40	55863.91
537.57	56011.36
537.74	55987.95
537.91	56355.42
538.08	56020.72
538.25	56044.13
538.42	56079.24
538.59	56327.33
538.75	56257.12
538.92	56271.16
539.09	56474.79
539.26	56233.71
539.43	56334.35
539.60	56488.83
539.77	56427.98
539.94	56722.88
540.11	56610.54
540.28	56748.63
540.44	56526.28
540.61	56587.13
540.78	56662.03
540.95	56509.89
541.12	56491.17
541.29	56736.93
541.46	56736.93
541.62	56870.34
541.79	56935.87
541.96	56449.04
542.13	56530.96
542.30	56975.66
542.47	56891.40
542.63	57003.75
542.80	57146.52
542.97	57148.86
543.14	57460.15
543.31	57106.73
543.48	57485.90
543.64	57694.21
543.81	57448.45
543.98	57403.98
544.15	57406.32
544.32	57867.40
544.48	57729.31
544.65	57572.50
544.82	57403.98
544.99	57286.95
545.16	57663.78
545.32	57528.03
545.49	57928.26
545.66	57872.09
545.83	57715.27
546.00	57869.75
546.16	57963.37
546.33	57783.15
546.50	57616.97
546.67	57928.26
546.83	57425.04
547.00	57930.60
547.17	57916.56
547.34	57869.75
547.50	58234.87
547.67	58092.10
547.84	58007.84
548.00	58269.98
548.17	58567.23
548.34	58635.10
548.51	58604.67
548.67	58417.43
548.84	58347.21
549.01	58323.81
549.18	58396.37
549.34	58389.34
549.51	58553.18
549.68	58375.30
549.84	58384.66
550.01	58705.32
550.18	58347.21
550.34	58630.42
550.51	58803.62
550.68	58489.99
550.84	58375.30
551.01	58885.54
551.18	58899.58
551.34	58670.21
551.51	58733.40
551.68	58756.81
551.84	58705.32
552.01	58436.16
552.18	58974.48
552.34	58749.79
552.51	58897.24
552.68	58791.92
552.84	58794.26
553.01	59267.05
553.18	59037.67
553.34	58852.77
553.51	58937.03
553.67	59107.89
553.84	58904.26
554.01	59082.14
554.17	59007.25
554.34	59192.15
554.51	59047.04
554.67	59222.58
554.84	59018.95
555.00	59152.36
555.17	59058.74
555.33	59372.37
555.50	59150.02
555.67	59187.47
555.83	59128.95
556.00	59234.28
556.16	59344.28
556.33	59568.97
556.50	59428.54
556.66	59636.85
556.83	59412.16
556.99	59681.32
557.16	59634.51
557.32	59606.42
557.49	59653.23
557.65	59458.97
557.82	59540.89
557.98	59678.98
558.15	59845.16
558.32	59671.96
558.48	59494.08
558.65	59512.80
558.81	59859.20
558.98	59861.54
559.14	59852.18
559.31	59767.92
559.47	59889.63
559.64	59931.76
559.80	59915.37
559.97	59877.93
560.13	59784.30
560.30	59826.43
560.46	60048.78
560.63	59803.03
560.79	60189.22
560.96	59922.40
561.12	60104.96
561.29	59931.76
561.45	59999.63
561.61	59978.57
561.78	60116.66
561.94	59903.67
562.11	60142.41
562.27	60109.64
562.44	60156.45
562.60	60292.20
562.77	60039.42
562.93	60095.60
563.10	60210.28
563.26	60076.87
563.42	60324.97
563.59	60341.35
563.75	60282.84
563.92	60161.13
564.08	60140.07
564.24	60221.98
564.41	60289.86
564.57	60470.08
564.74	60252.41
564.90	60346.03
565.07	60360.08
565.23	60317.95
565.39	60371.78
565.56	60582.43
565.72	60390.50
565.88	60334.33
566.05	60182.19
566.21	60257.09
566.38	60486.46
566.54	60395.18
566.70	60617.53
566.87	60573.06
567.03	60303.90
567.19	60659.66
567.36	60493.49
567.52	60512.21
567.68	60626.90
567.85	60472.42
568.01	60479.44
568.17	60495.83
568.34	60566.04
568.50	60444.33
568.66	60498.17
568.83	60479.44
568.99	60460.72
569.15	60493.49
569.32	60666.69
569.48	60673.71
569.64	60786.05
569.81	60449.02
569.97	60446.68
570.13	60631.58
570.30	60626.90
570.46	60479.44
570.62	60685.41
570.78	60413.91
570.95	60753.29
571.11	60821.16
571.27	60722.86
571.43	60832.86
571.60	60985.00
571.76	60643.28
571.92	60814.14
572.09	60837.54
572.25	60650.30
572.41	60615.19
572.57	60795.42
572.74	60956.91
572.90	60910.10
573.06	60654.98
573.22	60814.14
573.38	60505.19
573.55	60781.37
573.71	60966.27
573.87	60720.52
574.03	60669.03
574.20	60891.38
574.36	60863.29
574.52	60650.30
574.68	60921.80
574.84	61076.28
575.01	60921.80
575.17	60718.18
575.33	60764.99
575.49	60835.20
575.65	61097.34
575.82	60917.12
575.98	60872.65
576.14	61279.91
576.30	61010.74
576.46	60889.04
576.62	60753.29
576.79	60832.86
576.95	60804.78
577.11	60865.63
577.27	60921.80
577.43	61095.00
577.59	61045.85
577.75	60970.96
577.92	60919.46
578.08	61003.72
578.24	61132.45
578.40	61148.84
578.56	61071.60
578.72	61008.40
578.88	60952.23
579.04	61233.10
579.21	61193.31
579.37	61106.71
579.53	61209.69
579.69	60863.29
579.85	60970.96
580.01	61055.21
580.17	60760.31
580.33	61031.81
580.49	60931.17
580.65	60935.85
580.82	60996.70
580.98	60860.95
581.14	60809.46
581.30	61221.39
581.46	60917.12
581.62	60900.74
581.78	61020.11
581.94	61176.92
582.10	61092.66
582.26	61183.94
582.42	60762.65
582.58	60980.32
582.74	60928.83
582.90	61090.32
583.06	61020.11
583.22	60893.72
583.38	61104.37
583.54	61106.71
583.70	61050.53
583.86	61034.15
584.02	60954.57
584.18	61249.48
584.34	61158.20
584.50	61195.65
584.66	61113.73
584.82	60989.68
584.98	61062.24
585.14	61387.57
585.30	60942.87
585.46	61235.44
585.62	61130.11
585.78	61387.57
585.94	61120.75
586.10	61102.03
586.26	61071.60
586.42	61228.41
586.58	61485.87
586.74	61282.25
586.90	61010.74
587.06	61237.78
587.22	61331.40
587.38	61237.78
587.54	61251.82
587.70	61478.85
587.86	61090.32
588.02	61125.43
588.18	61338.42
588.34	61375.87
588.49	61197.99
