SpectraSuite Data File
++++++++++++++++++++++++++++++++++++
Date: Fri Oct 25 11:23:41 EDT 2013
User: price-jones
Dark Spectrum Present: No
Reference Spectrum Present: No
Number of Sampled Component Spectra: 1
Spectrometers: USB2+H05261
Integration Time (usec): 100000 (USB2+H05261)
Spectra Averaged: 1 (USB2+H05261)
Boxcar Smoothing: 0 (USB2+H05261)
Correct for Electrical Dark: No (USB2+H05261)
Strobe/Lamp Enabled: No (USB2+H05261)
Correct for Detector Non-linearity: No (USB2+H05261)
Correct for Stray Light: No (USB2+H05261)
Number of Pixels in Processed Spectrum: 2048
>>>>>Begin Processed Spectral Data<<<<<
365.73	262.14
365.92	262.14
366.12	262.14
366.32	198.95
366.52	173.20
366.72	187.24
366.91	67.88
367.11	117.03
367.31	110.01
367.51	161.50
367.70	145.11
367.90	65.54
368.10	91.28
368.30	154.48
368.49	117.03
368.69	231.71
368.89	145.11
369.09	173.20
369.28	67.88
369.48	191.92
369.68	121.71
369.87	140.43
370.07	215.33
370.27	229.37
370.47	259.80
370.66	627.26
370.86	716.20
371.06	603.86
371.25	688.12
371.45	575.77
371.65	720.88
371.84	681.10
372.04	711.52
372.24	674.07
372.44	753.65
372.63	734.93
372.83	751.31
373.03	758.33
373.22	699.82
373.42	765.36
373.62	788.76
373.81	725.57
374.01	770.04
374.21	758.33
374.40	835.57
374.60	833.23
374.79	786.42
374.99	814.51
375.19	851.96
375.38	837.91
375.58	837.91
375.78	884.72
375.97	870.68
376.17	887.06
376.37	800.46
376.56	891.74
376.76	870.68
376.95	849.61
377.15	929.19
377.35	847.27
377.54	917.49
377.74	898.77
377.93	961.96
378.13	882.38
378.33	798.12
378.52	842.59
378.72	947.92
378.91	877.70
379.11	889.40
379.31	917.49
379.50	1008.77
379.70	966.64
379.89	964.30
380.09	973.66
380.28	947.92
380.48	1043.88
380.68	976.00
380.87	961.96
381.07	1060.26
381.26	1015.79
381.46	1081.33
381.65	1039.20
381.85	966.64
382.04	1006.43
382.24	1111.75
382.43	1053.24
382.63	1041.54
382.83	1071.97
383.02	1015.79
383.22	1083.67
383.41	1036.86
383.61	1174.95
383.80	1029.84
384.00	1081.33
384.19	1165.59
384.39	1186.65
384.58	1153.88
384.78	1191.33
384.97	1125.80
385.17	1114.10
385.36	1184.31
385.56	1139.84
385.75	1174.95
385.95	1217.08
386.14	1184.31
386.34	1235.80
386.53	1172.61
386.72	1188.99
386.92	1306.02
387.11	1193.67
387.31	1240.48
387.50	1249.85
387.70	1240.48
387.89	1191.33
388.09	1322.40
388.28	1369.21
388.48	1343.47
388.67	1334.11
388.86	1270.91
389.06	1334.11
389.25	1306.02
389.45	1364.53
389.64	1308.36
389.84	1404.32
390.03	1362.19
390.22	1439.43
390.42	1371.55
390.61	1430.07
390.81	1418.36
391.00	1462.83
391.19	1437.09
391.39	1430.07
391.58	1413.68
391.78	1502.62
391.97	1490.92
392.16	1514.33
392.36	1516.67
392.55	1462.83
392.75	1575.18
392.94	1572.84
393.13	1530.71
393.33	1645.40
393.52	1547.09
393.71	1544.75
393.91	1687.53
394.10	1476.88
394.29	1572.84
394.49	1589.22
394.68	1612.63
394.88	1614.97
395.07	1659.44
395.26	1612.63
395.46	1692.21
395.65	1647.74
395.84	1722.63
396.04	1781.15
396.23	1696.89
396.42	1687.53
396.62	1746.04
396.81	1708.59
397.00	1685.19
397.19	1785.83
397.39	1802.21
397.58	1713.27
397.77	1792.85
397.97	1804.55
398.16	1858.39
398.35	1849.02
398.55	1818.60
398.74	1956.69
398.93	1968.39
399.12	1874.77
399.32	1851.36
399.51	1954.35
399.70	2122.87
399.90	1994.14
400.09	1982.43
400.28	2033.93
400.47	2148.61
400.67	2076.06
400.86	2040.95
401.05	2083.08
401.24	2076.06
401.44	2120.53
401.63	2139.25
401.82	2050.31
402.01	2120.53
402.21	2132.23
402.40	2265.64
402.59	2211.81
402.78	2260.96
402.97	2141.59
403.17	2284.36
403.36	2183.72
403.55	2340.54
403.74	2312.45
403.93	2359.26
404.13	2289.04
404.32	2317.13
404.51	2340.54
404.70	2413.09
404.89	2387.35
405.09	2403.73
405.28	2532.46
405.47	2523.10
405.66	2555.86
405.85	2534.80
406.05	2569.91
406.24	2621.40
406.43	2555.86
406.62	2640.12
406.81	2705.66
407.00	2506.71
407.20	2686.94
407.39	2677.57
407.58	2693.96
407.77	2670.55
407.96	2785.24
408.15	2810.98
408.34	2778.22
408.54	2869.50
408.73	2733.75
408.92	2836.73
409.11	2825.03
409.30	2951.42
409.49	2822.69
409.68	3002.91
409.87	2923.33
410.07	2942.05
410.26	2946.73
410.45	3005.25
410.64	2998.23
410.83	2970.14
411.02	3091.85
411.21	3056.74
411.40	3204.19
411.59	3155.04
411.78	3129.30
411.98	3176.11
412.17	3281.43
412.36	3314.20
412.55	3405.48
412.74	3524.85
412.93	3424.20
413.12	3400.80
413.31	3611.45
413.50	3379.73
413.69	3503.78
413.88	3536.55
414.07	3665.28
414.26	3552.93
414.45	3700.39
414.64	3695.71
414.83	3679.32
415.02	3852.52
415.22	3772.94
415.41	4016.36
415.60	3831.46
415.79	3880.61
415.98	3976.57
416.17	4091.26
416.36	3859.54
416.55	4159.13
416.74	4028.06
416.93	4021.04
417.12	3962.53
417.31	4170.83
417.50	4133.39
417.69	4205.94
417.88	4198.92
418.07	4278.50
418.26	4308.93
418.45	4325.31
418.64	4393.19
418.83	4535.96
419.02	4418.93
419.21	4421.27
419.39	4512.55
419.58	4421.27
419.77	4315.95
419.96	4606.17
420.15	4561.70
420.34	4557.02
420.53	4624.90
420.72	4837.89
420.91	4835.55
421.10	4791.08
421.29	4805.12
421.48	4744.27
421.67	4943.21
421.86	4922.15
422.05	4706.82
422.24	4840.23
422.43	4947.89
422.61	4816.82
422.80	4903.42
422.99	4994.70
423.18	4809.80
423.37	4905.76
423.56	4908.10
423.75	4882.36
423.94	4887.04
424.13	4580.43
424.32	4737.24
424.50	4858.95
424.69	5130.45
424.88	5261.52
425.07	5067.26
425.26	4873.00
425.45	4765.33
425.64	5029.81
425.83	5001.72
426.01	5139.82
426.20	5165.56
426.39	5060.24
426.58	5085.98
426.77	5139.82
426.96	5125.77
427.15	5263.86
427.33	5163.22
427.52	4968.96
427.71	5284.93
427.90	5139.82
428.09	5418.34
428.28	5418.34
428.46	5355.15
428.65	5338.76
428.84	5528.35
429.03	5413.66
429.22	5364.51
429.40	5469.83
429.59	5493.24
429.78	5394.93
429.97	5294.29
430.16	5458.13
430.34	5600.90
430.53	5746.02
430.72	5753.04
430.91	5605.58
431.10	5643.03
431.28	5795.17
431.47	5884.11
431.66	5895.81
431.85	5654.73
432.03	5886.45
432.22	6008.16
432.41	5966.03
432.60	6050.28
432.79	6052.63
432.97	6066.67
433.16	6167.31
433.35	5846.66
433.54	6043.26
433.72	6111.14
433.91	6094.76
434.10	6249.23
434.28	6071.35
434.47	6188.38
434.66	6120.50
434.85	6218.80
435.03	6249.23
435.22	6251.57
435.41	6626.06
435.59	6502.01
435.78	6394.34
435.97	6382.64
436.16	6387.32
436.34	6534.78
436.53	6497.33
436.72	6642.44
436.90	6544.14
437.09	6715.00
437.28	6586.27
437.46	6616.69
437.65	6693.93
437.84	6892.88
438.02	6857.77
438.21	6698.61
438.40	6619.04
438.58	7054.37
438.77	7066.08
438.96	6913.94
439.14	7183.10
439.33	7126.93
439.52	7082.46
439.70	7311.83
439.89	7295.45
440.08	7323.54
440.26	7494.40
440.45	7396.09
440.63	7496.74
440.82	7473.33
441.01	7492.05
441.19	7683.98
441.38	7836.11
441.57	7920.37
441.75	7679.30
441.94	7969.52
442.12	8116.98
442.31	7896.97
442.50	8063.15
442.68	7861.86
442.87	7969.52
443.05	8332.31
443.24	8259.75
443.43	8021.02
443.61	8159.11
443.80	8299.54
443.98	8257.41
444.17	7946.12
444.35	8049.10
444.54	8168.47
444.73	8194.22
444.91	8325.29
445.10	8255.07
445.28	8470.40
445.47	8278.47
445.65	8322.94
445.84	8393.16
446.02	8524.23
446.21	8353.37
446.39	8538.27
446.58	8554.66
446.77	8390.82
446.95	8269.11
447.14	8601.47
447.32	8599.13
447.51	8575.72
447.69	8393.16
447.88	8627.21
448.06	8477.42
448.25	8573.38
448.43	8755.94
448.62	8716.16
448.80	8535.93
448.99	8592.11
449.17	8659.98
449.36	8652.96
449.54	8833.18
449.73	8807.44
449.91	9020.42
450.10	9177.24
450.28	9083.62
450.46	9006.38
450.65	9151.49
450.83	9177.24
451.02	9006.38
451.20	9312.99
451.39	9245.12
451.57	9144.47
451.76	9085.96
451.94	9385.55
452.13	9380.87
452.31	9160.86
452.49	9270.86
452.68	9481.51
452.86	9254.48
453.05	9593.86
453.23	9565.77
453.42	9355.12
453.60	9378.53
453.78	9680.46
453.97	9500.23
454.15	9591.52
454.34	9507.26
454.52	9774.08
454.70	9797.48
454.89	9816.21
455.07	9949.62
455.26	9881.74
455.44	9949.62
455.62	10008.13
455.81	10064.30
455.99	9987.07
456.17	10005.79
456.36	10129.84
456.54	10003.45
456.73	10279.63
456.91	10626.03
457.09	10380.28
457.28	10635.39
457.46	10256.23
457.64	10567.52
457.83	10499.64
458.01	10291.34
458.19	10663.48
458.38	10806.25
458.56	10693.91
458.74	10672.84
458.93	10647.10
459.11	10743.06
459.29	10815.62
459.48	10806.25
459.66	10876.47
459.84	11054.35
460.03	11143.29
460.21	10860.09
460.39	11096.48
460.57	11066.05
460.76	11206.48
460.94	11138.61
461.12	11243.93
461.31	11269.68
461.49	11140.95
461.67	11213.51
461.85	11679.27
462.04	11279.04
462.22	11550.54
462.40	11391.39
462.59	11522.46
462.77	11641.82
462.95	11786.94
463.13	11618.42
463.32	11496.71
463.50	11791.62
463.68	11674.59
463.86	11681.61
464.05	11812.68
464.23	11817.36
464.41	11847.79
464.59	11793.96
464.78	12203.55
464.96	11997.59
465.14	12116.95
465.32	12107.59
465.50	12140.36
465.69	12053.76
465.87	12044.40
466.05	12182.49
466.23	12248.02
466.41	12250.36
466.60	12837.84
466.78	12367.39
466.96	12320.58
467.14	12468.03
467.32	12430.59
467.51	12765.28
467.69	12102.91
467.87	12390.80
468.05	12643.57
468.23	12582.72
468.41	12573.36
468.60	12734.85
468.78	13015.72
468.96	12507.82
469.14	12727.83
469.32	13046.15
469.50	12592.08
469.69	12823.80
469.87	12805.07
470.05	13317.65
470.23	13256.79
470.41	13212.32
470.59	13387.86
470.77	13544.68
470.95	13303.60
471.14	13659.37
471.32	13327.01
471.50	13488.51
471.68	13823.20
471.86	13797.46
472.04	13675.75
472.22	13994.06
472.40	13638.30
472.58	13834.91
472.77	14272.59
472.95	14429.40
473.13	14892.83
473.31	14354.51
473.49	14115.77
473.67	14115.77
473.85	14312.38
474.03	14651.75
474.21	14827.29
474.39	15047.30
474.57	14920.92
474.75	14930.28
474.93	15206.46
475.12	14913.89
475.30	15201.78
475.48	15360.94
475.66	15318.81
475.84	15349.23
476.02	15323.49
476.20	15461.58
476.38	15562.22
476.56	16203.53
476.74	16065.44
476.92	15861.81
477.10	15646.48
477.28	16201.19
477.46	16168.42
477.64	16327.58
477.82	16613.12
478.00	17128.04
478.18	16828.45
478.36	17076.55
478.54	17198.26
478.72	17266.13
478.90	17207.62
479.08	17539.97
479.26	17935.53
479.44	17741.26
479.62	17898.08
479.80	18298.31
479.98	18438.74
480.16	18670.45
480.34	18349.80
480.52	18684.50
480.70	18714.92
480.88	18328.74
481.06	18569.81
481.24	19103.45
481.41	19152.60
481.59	19583.26
481.77	19398.36
481.95	19454.53
482.13	19723.69
482.31	19866.47
482.49	19889.87
482.67	20154.35
482.85	20854.17
483.03	20336.91
483.21	21071.84
483.39	20896.30
483.57	21270.79
483.74	21050.78
483.92	21577.40
484.10	21355.05
484.28	21968.27
484.46	21944.86
484.64	22455.10
484.82	22188.28
485.00	22221.05
485.18	22911.50
485.35	23433.44
485.53	23276.63
485.71	23105.77
485.89	23342.16
486.07	23381.95
486.25	22953.63
486.43	23864.10
486.61	24006.87
486.78	24243.27
486.96	24135.60
487.14	24514.77
487.32	24723.08
487.50	24931.39
487.68	25322.26
487.85	25392.47
488.03	25532.90
488.21	25713.13
488.39	25851.22
488.57	26361.45
488.75	26389.54
488.92	26534.65
489.10	26911.48
489.28	26836.58
489.46	27182.98
489.64	27103.40
489.81	27763.43
489.99	27559.81
490.17	27892.16
490.35	28252.61
490.53	28112.17
490.70	28315.80
490.88	28329.84
491.06	28858.81
491.24	28884.55
491.41	29188.82
491.59	29380.74
491.77	29350.32
491.95	29839.49
492.13	29991.62
492.30	30127.38
492.48	30185.89
492.66	30506.54
492.84	30529.95
493.01	30646.97
493.19	30684.42
493.37	31108.06
493.54	31290.62
493.72	31974.06
493.90	31452.12
494.08	31931.93
494.25	32245.56
494.43	32173.00
494.61	32198.75
494.79	32542.81
494.96	32582.60
495.14	32730.05
495.32	33137.30
495.49	32957.08
495.67	33387.74
495.85	33577.33
496.02	34005.64
496.20	34298.21
496.38	33905.00
496.55	34195.23
496.73	35145.48
496.91	34581.42
497.09	34972.28
497.26	35424.01
497.44	34948.88
497.62	35449.75
497.79	35585.50
497.97	35824.24
498.14	36498.31
498.32	36058.29
498.50	36446.82
498.67	36727.69
498.85	36715.98
499.03	36900.89
499.20	36460.87
499.38	37130.26
499.56	37118.56
499.73	37317.50
499.91	37497.72
500.08	37778.59
500.26	37619.43
500.44	37745.82
500.61	37738.80
500.79	37869.87
500.97	38298.19
501.14	38670.33
501.32	38667.99
501.49	38464.36
501.67	38642.24
501.84	39239.08
502.02	39218.02
502.20	39215.68
502.37	39325.68
502.55	39629.95
502.72	39512.92
502.90	39800.81
503.07	39856.98
503.25	39896.77
503.43	40229.13
503.60	40224.45
503.78	40067.63
503.95	40266.58
504.13	40807.24
504.30	40832.99
504.48	40587.23
504.65	40652.76
504.83	41209.81
505.01	41684.94
505.18	41825.37
505.36	42000.91
505.53	41808.99
505.71	42040.70
505.88	41989.21
506.06	41635.79
506.23	42017.30
506.41	41930.70
506.58	42120.28
506.76	42569.66
506.93	42759.25
507.11	42794.36
507.28	42834.14
507.46	42368.38
507.63	43330.34
507.81	43349.06
507.98	42864.57
508.16	42869.25
508.33	43508.22
508.50	43718.87
508.68	43969.30
508.85	43585.46
509.03	44238.47
509.20	44322.72
509.38	44512.31
509.55	44318.04
509.73	44631.68
509.90	44524.01
510.08	44671.46
510.25	44729.98
510.42	44884.45
510.60	44905.52
510.77	45179.36
510.95	45755.13
511.12	45462.57
511.30	45769.18
511.47	45811.31
511.64	45797.26
511.82	46316.86
511.99	46136.64
512.17	45818.33
512.34	46405.80
512.51	46775.61
512.69	46555.60
512.86	46356.65
513.04	46707.73
513.21	47068.17
513.38	46712.41
513.56	47154.77
513.73	46789.65
513.90	47330.31
514.08	47166.48
514.25	47608.84
514.43	47391.17
514.60	47323.29
514.77	47592.45
514.95	47983.32
515.12	47388.83
515.29	47985.66
515.47	47934.17
515.64	48439.73
515.81	47812.46
515.99	48523.99
516.16	48357.81
516.33	48392.92
516.51	49104.44
516.68	48786.13
516.85	48437.39
517.03	49195.72
517.20	48811.87
517.37	48746.34
517.54	48804.85
517.72	49116.14
517.89	49214.44
518.06	49727.02
518.24	49525.74
518.41	49331.47
518.58	49579.57
518.75	49137.21
518.93	49837.03
519.10	50012.57
519.27	49794.90
519.45	49558.50
519.62	50108.53
519.79	50211.51
519.96	49876.82
520.14	50454.93
520.31	49932.99
520.48	50445.57
520.65	50494.72
520.83	50740.47
521.00	51049.42
521.17	50681.96
521.34	51180.49
521.52	50997.93
521.69	51105.60
521.86	51494.13
522.03	51405.19
522.20	51487.10
522.38	51491.79
522.55	51477.74
522.72	51470.72
522.89	51508.17
523.07	52051.17
523.24	51669.67
523.41	51805.42
523.58	51667.33
523.75	52156.50
523.92	51931.81
524.10	52025.43
524.27	52175.22
524.44	52135.43
524.61	52238.42
524.78	52189.27
524.96	52329.70
525.13	52378.85
525.30	52449.06
525.47	52699.50
525.64	52519.28
525.81	52828.23
525.98	52767.38
526.16	52758.02
526.33	52671.42
526.50	53277.61
526.67	52933.56
526.84	53113.78
527.01	53146.54
527.18	52985.05
527.36	52940.58
527.53	53102.07
527.70	53904.88
527.87	53382.94
528.04	53483.58
528.21	53663.80
528.38	53481.24
528.55	53771.47
528.72	53411.02
528.89	53443.79
529.07	53497.62
529.24	53577.20
529.41	53703.59
529.58	53741.04
529.75	53925.94
529.92	53645.08
530.09	54127.23
530.26	53989.14
530.43	54213.83
530.60	53911.90
530.77	53928.28
530.94	54190.42
531.11	54270.00
531.28	53998.50
531.46	54337.88
531.63	54478.31
531.80	54440.86
531.97	54555.55
532.14	54635.13
532.31	54796.62
532.48	54663.21
532.65	54607.04
532.82	54209.15
532.99	54742.79
533.16	54817.69
533.33	54873.86
533.50	55136.00
533.67	55021.31
533.84	54700.66
534.01	54820.03
534.18	55224.94
534.35	55442.61
534.52	55182.81
534.69	55416.86
534.86	55327.92
535.03	55367.71
535.20	55030.68
535.37	55477.72
535.54	55536.23
535.71	55306.86
535.88	55732.84
536.05	55671.98
536.22	55742.20
536.38	55613.47
536.55	55882.63
536.72	55817.10
536.89	55664.96
537.06	55721.13
537.23	55903.70
537.40	55700.07
537.57	55657.94
537.74	55772.63
537.91	56339.04
538.08	56044.13
538.25	55707.09
538.42	55969.23
538.59	56247.75
538.75	55985.61
538.92	56360.10
539.09	56605.86
539.26	56184.56
539.43	56299.25
539.60	56200.94
539.77	56336.69
539.94	56690.12
540.11	56493.51
540.28	56655.01
540.44	56669.05
540.61	56582.45
540.78	56526.28
540.95	56563.73
541.12	56594.15
541.29	56512.23
541.46	56811.82
541.62	56575.43
541.79	56872.68
541.96	56549.68
542.13	56638.62
542.30	56814.16
542.47	57055.24
542.63	57073.96
542.80	57080.98
542.97	57165.24
543.14	57134.82
543.31	57396.96
543.48	57240.14
543.64	57523.35
543.81	57427.38
543.98	57593.56
544.15	57481.22
544.32	57525.69
544.48	57593.56
544.65	57439.09
544.82	57439.09
544.99	57516.32
545.16	57530.37
545.32	57619.31
545.49	57605.26
545.66	57769.10
545.83	57623.99
546.00	57745.70
546.16	57942.30
546.33	57717.61
546.50	57612.29
546.67	57963.37
546.83	57396.96
547.00	57874.43
547.17	57900.17
547.34	58220.83
547.50	57968.05
547.67	58183.38
547.84	57937.62
548.00	58087.42
548.17	58307.43
548.34	58120.18
548.51	58328.49
548.67	58281.68
548.84	58230.19
549.01	58155.29
549.18	58227.85
549.34	58351.90
549.51	58387.00
549.68	58504.03
549.84	58653.82
550.01	58562.54
550.18	58489.99
550.34	58733.40
550.51	58621.06
550.68	58541.48
550.84	58218.49
551.01	58747.45
551.18	58609.35
551.34	58712.34
551.51	58543.82
551.68	58590.63
551.84	58658.51
552.01	58674.89
552.18	58770.85
552.34	58801.28
552.51	58852.77
552.68	58775.53
552.84	58747.45
553.01	59084.48
553.18	58930.01
553.34	59089.16
553.51	58805.96
553.67	58901.92
553.84	58986.18
554.01	59161.72
554.17	59241.30
554.34	59128.95
554.51	59231.94
554.67	59103.21
554.84	59121.93
555.00	58986.18
555.17	59047.04
555.33	59311.52
555.50	58986.18
555.67	59330.24
555.83	59217.89
556.00	58958.09
556.16	59487.06
556.33	59222.58
556.50	59222.58
556.66	59550.25
556.83	59295.13
556.99	59421.52
557.16	59564.29
557.32	59437.90
557.49	59728.13
557.65	59505.78
557.82	59489.40
557.98	59358.33
558.15	59473.01
558.32	59618.13
558.48	59255.34
558.65	59529.19
558.81	59550.25
558.98	59662.60
559.14	59786.64
559.31	59840.48
559.47	59650.89
559.64	59854.52
559.80	59793.67
559.97	59913.03
560.13	59737.49
560.30	59767.92
560.46	59819.41
560.63	59721.11
560.79	59788.98
560.96	60126.02
561.12	59913.03
561.29	60060.49
561.45	59690.68
561.61	59882.61
561.78	59983.25
561.94	59929.42
562.11	59915.37
562.27	59973.89
562.44	60027.72
562.60	60259.43
562.77	60135.38
562.93	59906.01
563.10	60163.47
563.26	59842.82
563.42	60416.25
563.59	60135.38
563.75	59891.97
563.92	59931.76
564.08	60053.47
564.24	60177.51
564.41	60341.35
564.57	60158.79
564.74	60156.45
564.90	60271.14
565.07	60254.75
565.23	60182.19
565.39	60046.44
565.56	60327.31
565.72	60383.48
565.88	60097.94
566.05	60135.38
566.21	60219.64
566.38	60420.93
566.54	60301.56
566.70	60561.36
566.87	60329.65
567.03	60193.90
567.19	60575.40
567.36	60533.28
567.52	60371.78
567.68	60610.51
567.85	60395.18
568.01	60523.91
568.17	60451.36
568.34	60566.04
568.50	60552.00
568.66	60346.03
568.83	60544.98
568.99	60411.57
569.15	60402.21
569.32	60470.08
569.48	60446.68
569.64	60460.72
569.81	60498.17
569.97	60502.85
570.13	60671.37
570.30	60460.72
570.46	60779.03
570.62	60743.92
570.78	60570.72
570.95	60542.64
571.11	60566.04
571.27	60626.90
571.43	60516.89
571.60	60729.88
571.76	60750.94
571.92	60774.35
572.09	60608.17
572.25	60540.30
572.41	60657.32
572.57	60636.26
572.74	60748.60
572.90	60699.45
573.06	60715.84
573.22	60500.51
573.38	60867.97
573.55	60753.29
573.71	60926.49
573.87	60781.37
574.03	60626.90
574.20	60830.52
574.36	60413.91
574.52	60779.03
574.68	61062.24
574.84	61001.38
575.01	60903.08
575.17	60781.37
575.33	60825.84
575.49	60610.51
575.65	61045.85
575.82	61036.49
575.98	60842.23
576.14	60935.85
576.30	61045.85
576.46	60879.67
576.62	60697.11
576.79	60900.74
576.95	60692.43
577.11	60757.97
577.27	60919.46
577.43	61116.07
577.59	60987.34
577.75	60889.04
577.92	60673.71
578.08	60788.39
578.24	60952.23
578.40	61127.77
578.56	60830.52
578.72	60884.36
578.88	60896.06
579.04	61010.74
579.21	60956.91
579.37	61029.47
579.53	61038.83
579.69	60757.97
579.85	60842.23
580.01	60907.76
580.17	60729.88
580.33	61048.19
580.49	61237.78
580.65	61095.00
580.82	60956.91
580.98	60879.67
581.14	60917.12
581.30	61179.26
581.46	60966.27
581.62	61013.08
581.78	61013.08
581.94	61102.03
582.10	60917.12
582.26	60872.65
582.42	61015.43
582.58	60949.89
582.74	60945.21
582.90	60947.55
583.06	61001.38
583.22	60954.57
583.38	60987.34
583.54	61015.43
583.70	61160.54
583.86	60963.93
584.02	61205.01
584.18	60980.32
584.34	61006.06
584.50	61104.37
584.66	60877.33
584.82	60781.37
584.98	61057.56
585.14	61148.84
585.30	60802.44
585.46	61371.19
585.62	61029.47
585.78	61275.22
585.94	60938.19
586.10	61141.81
586.26	60952.23
586.42	61137.13
586.58	61209.69
586.74	61020.11
586.90	61090.32
587.06	61118.41
587.22	61202.67
587.38	61179.26
587.54	61275.22
587.70	61263.52
587.86	61167.56
588.02	61109.05
588.18	61399.27
588.34	60872.65
588.49	61127.77
