SpectraSuite Data File
++++++++++++++++++++++++++++++++++++
Date: Fri Oct 25 11:25:57 EDT 2013
User: price-jones
Dark Spectrum Present: No
Reference Spectrum Present: No
Number of Sampled Component Spectra: 1
Spectrometers: USB2+H05261
Integration Time (usec): 100000 (USB2+H05261)
Spectra Averaged: 1 (USB2+H05261)
Boxcar Smoothing: 0 (USB2+H05261)
Correct for Electrical Dark: No (USB2+H05261)
Strobe/Lamp Enabled: No (USB2+H05261)
Correct for Detector Non-linearity: No (USB2+H05261)
Correct for Stray Light: No (USB2+H05261)
Number of Pixels in Processed Spectrum: 2048
>>>>>Begin Processed Spectral Data<<<<<
365.73	271.50
365.92	271.50
366.12	271.50
366.32	114.69
366.52	163.84
366.72	177.88
366.91	156.82
367.11	60.85
367.31	56.17
367.51	154.48
367.70	114.69
367.90	91.28
368.10	102.98
368.30	107.66
368.49	88.94
368.69	220.01
368.89	145.11
369.09	105.32
369.28	175.54
369.48	124.05
369.68	159.16
369.87	182.56
370.07	285.55
370.27	290.23
370.47	341.72
370.66	599.18
370.86	695.14
371.06	678.76
371.25	697.48
371.45	624.92
371.65	657.69
371.84	596.84
372.04	638.97
372.24	699.82
372.44	723.23
372.63	730.25
372.83	786.42
373.03	748.97
373.22	716.20
373.42	788.76
373.62	734.93
373.81	798.12
374.01	858.98
374.21	802.80
374.40	840.25
374.60	821.53
374.79	781.74
374.99	826.21
375.19	835.57
375.38	830.89
375.58	889.40
375.78	940.90
375.97	816.85
376.17	945.58
376.37	828.55
376.56	870.68
376.76	868.34
376.95	912.81
377.15	903.45
377.35	933.87
377.54	992.39
377.74	987.71
377.93	835.57
378.13	957.28
378.33	943.24
378.52	894.08
378.72	898.77
378.91	884.72
379.11	896.43
379.31	936.21
379.50	903.45
379.70	903.45
379.89	936.21
380.09	1001.75
380.28	1001.75
380.48	973.66
380.68	997.07
380.87	952.60
381.07	1008.77
381.26	1095.37
381.46	1018.13
381.65	1071.97
381.85	1011.11
382.04	1057.92
382.24	1111.75
382.43	1090.69
382.63	1041.54
382.83	1076.65
383.02	1121.12
383.22	1139.84
383.41	1086.01
383.61	1149.20
383.80	1081.33
384.00	1142.18
384.19	1088.35
384.39	1057.92
384.58	1078.99
384.78	1193.67
384.97	1097.71
385.17	1177.29
385.36	1172.61
385.56	1153.88
385.75	1071.97
385.95	1247.51
386.14	1254.53
386.34	1170.27
386.53	1144.52
386.72	1200.69
386.92	1280.27
387.11	1249.85
387.31	1245.16
387.50	1207.72
387.70	1233.46
387.89	1287.29
388.09	1210.06
388.28	1203.04
388.48	1242.82
388.67	1434.75
388.86	1352.83
389.06	1348.15
389.25	1383.26
389.45	1334.11
389.64	1378.58
389.84	1451.13
390.03	1329.42
390.22	1380.92
390.42	1418.36
390.61	1348.15
390.81	1350.49
391.00	1315.38
391.19	1509.65
391.39	1455.81
391.58	1413.68
391.78	1469.86
391.97	1502.62
392.16	1451.13
392.36	1526.03
392.55	1453.47
392.75	1547.09
392.94	1528.37
393.13	1558.80
393.33	1514.33
393.52	1432.41
393.71	1500.28
393.91	1533.05
394.10	1584.54
394.29	1741.36
394.49	1584.54
394.68	1633.69
394.88	1652.42
395.07	1694.55
395.26	1661.78
395.46	1645.40
395.65	1572.84
395.84	1689.87
396.04	1781.15
396.23	1673.48
396.42	1668.80
396.62	1853.70
396.81	1774.13
397.00	1788.17
397.19	1774.13
397.39	1795.19
397.58	1764.76
397.77	1783.49
397.97	1820.94
398.16	1820.94
398.35	1846.68
398.55	1949.67
398.74	1830.30
398.93	2031.58
399.12	1909.88
399.32	1888.81
399.51	1959.03
399.70	2043.29
399.90	1944.99
400.09	2052.65
400.28	2050.31
400.47	2003.50
400.67	2094.78
400.86	2064.35
401.05	2083.08
401.24	2073.71
401.44	2160.31
401.63	2176.70
401.82	2120.53
402.01	2200.10
402.21	2174.36
402.40	2155.63
402.59	2167.34
402.78	2122.87
402.97	2251.60
403.17	2282.02
403.36	2235.21
403.55	2289.04
403.74	2272.66
403.93	2228.19
404.13	2403.73
404.32	2389.69
404.51	2401.39
404.70	2331.17
404.89	2438.84
405.09	2534.80
405.28	2396.71
405.47	2408.41
405.66	2476.29
405.85	2436.50
406.05	2593.31
406.24	2581.61
406.43	2534.80
406.62	2583.95
406.81	2764.17
407.00	2459.90
407.20	2527.78
407.39	2614.38
407.58	2761.83
407.77	2710.34
407.96	2724.38
408.15	2696.30
408.34	2705.66
408.54	2768.85
408.73	2738.43
408.92	2813.32
409.11	2958.44
409.30	2796.94
409.49	2935.03
409.68	2902.26
409.87	2860.13
410.07	2942.05
410.26	2991.20
410.45	3073.12
410.64	3002.91
410.83	2974.82
411.02	3117.59
411.21	3162.06
411.40	3251.00
411.59	3232.28
411.78	3042.70
411.98	3077.80
412.17	3197.17
412.36	3304.84
412.55	3351.65
412.74	3300.16
412.93	3445.27
413.12	3332.92
413.31	3548.25
413.50	3379.73
413.69	3616.13
413.88	3499.10
414.07	3424.20
414.26	3590.38
414.45	3637.19
414.64	3726.13
414.83	3723.79
415.02	3653.58
415.22	3829.12
415.41	3880.61
415.60	3801.03
415.79	3789.33
415.98	3974.23
416.17	4007.00
416.36	3817.41
416.55	3941.46
416.74	3896.99
416.93	4018.70
417.12	4126.36
417.31	4100.62
417.50	4065.51
417.69	4395.53
417.88	4124.02
418.07	4173.18
418.26	4299.56
418.45	4306.59
418.64	4325.31
418.83	4390.84
419.02	4388.50
419.21	4447.02
419.39	4507.87
419.58	4573.41
419.77	4348.72
419.96	4585.11
420.15	4594.47
420.34	4521.92
420.53	4554.68
420.72	4737.24
420.91	4758.31
421.10	4795.76
421.29	4657.67
421.48	4573.41
421.67	4767.67
421.86	4746.61
422.05	4795.76
422.24	4770.01
422.43	4798.10
422.61	4802.78
422.80	4926.83
422.99	4821.50
423.18	5090.67
423.37	5032.15
423.56	4898.74
423.75	4805.12
423.94	4779.37
424.13	4603.83
424.32	4835.55
424.50	4954.91
424.69	5022.79
424.88	4975.98
425.07	4910.44
425.26	4858.95
425.45	4990.02
425.64	4779.37
425.83	4880.02
426.01	5001.72
426.20	5041.51
426.39	4997.04
426.58	5064.92
426.77	4980.66
426.96	5097.69
427.15	5261.52
427.33	5301.31
427.52	5046.20
427.71	5205.35
427.90	5228.76
428.09	5411.32
428.28	5247.48
428.46	5350.46
428.65	5240.46
428.84	5448.77
429.03	5488.56
429.22	5303.65
429.40	5621.97
429.59	5408.98
429.78	5343.44
429.97	5357.49
430.16	5509.62
430.34	5689.84
430.53	5806.87
430.72	5636.01
430.91	5521.32
431.10	5526.00
431.28	5680.48
431.47	5795.17
431.66	5750.70
431.85	5841.98
432.03	5914.53
432.22	5963.68
432.41	5837.30
432.60	6040.92
432.79	5874.74
432.97	6113.48
433.16	6010.50
433.35	5954.32
433.54	6242.21
433.72	6029.22
433.91	6026.88
434.10	5968.37
434.28	6066.67
434.47	6054.97
434.66	6328.81
434.85	6314.77
435.03	6218.80
435.22	6216.46
435.41	6616.69
435.59	6480.94
435.78	6471.58
435.97	6647.12
436.16	6307.74
436.34	6396.68
436.53	6523.07
436.72	6729.04
436.90	6359.24
437.09	6590.95
437.28	6513.71
437.46	6682.23
437.65	6677.55
437.84	6665.85
438.02	6766.49
438.21	6691.59
438.40	6429.45
438.58	7073.10
438.77	7052.03
438.96	6913.94
439.14	6998.20
439.33	7243.96
439.52	7129.27
439.70	7241.62
439.89	7316.51
440.08	7330.56
440.26	7571.63
440.45	7386.73
440.63	7330.56
440.82	7709.72
441.01	7475.67
441.19	7571.63
441.38	7555.25
441.57	7751.85
441.75	7728.45
441.94	7824.41
442.12	7962.50
442.31	7974.21
442.50	8006.97
442.68	7866.54
442.87	8093.57
443.05	8266.77
443.24	7969.52
443.43	8112.30
443.61	7995.27
443.80	8578.06
443.98	7934.42
444.17	7918.03
444.35	8180.17
444.54	8318.26
444.73	8358.05
444.91	8168.47
445.10	8299.54
445.28	8175.49
445.47	8358.05
445.65	8446.99
445.84	8388.48
446.02	8344.01
446.21	8585.08
446.39	8421.25
446.58	8535.93
446.77	8383.80
446.95	8304.22
447.14	8304.22
447.32	8568.70
447.51	8463.38
447.69	8308.90
447.88	8533.59
448.06	8484.44
448.25	8655.30
448.43	8561.68
448.62	8465.72
448.80	8400.18
448.99	8505.51
449.17	8477.42
449.36	8554.66
449.54	8882.33
449.73	8706.79
449.91	8809.78
450.10	8833.18
450.28	9123.41
450.46	9100.00
450.65	8978.30
450.83	9001.70
451.02	8896.38
451.20	9212.35
451.39	9256.82
451.57	9254.48
451.76	9055.53
451.94	9053.19
452.13	9430.02
452.31	9334.06
452.49	9158.52
452.68	9282.56
452.86	9376.19
453.05	9334.06
453.23	9476.83
453.42	9263.84
453.60	9336.40
453.78	9355.12
453.97	9394.91
454.15	9413.63
454.34	9507.26
454.52	9755.35
454.70	9575.13
454.89	9628.96
455.07	9863.02
455.26	9769.40
455.44	9977.70
455.62	9867.70
455.81	9839.61
455.99	9858.34
456.17	10008.13
456.36	10097.07
456.54	10012.81
456.73	10012.81
456.91	10209.42
457.09	10328.78
457.28	10457.51
457.46	10148.56
457.64	10359.21
457.83	10534.75
458.01	10375.59
458.19	10803.91
458.38	10314.74
458.56	10684.55
458.74	10511.35
458.93	10541.77
459.11	10817.96
459.29	10696.25
459.48	10806.25
459.66	10707.95
459.84	10878.81
460.03	10733.70
460.21	10761.78
460.39	10860.09
460.57	10686.89
460.76	11016.90
460.94	11197.12
461.12	11180.74
461.31	11047.33
461.49	10995.84
461.67	11227.55
461.85	11428.84
462.04	11061.37
462.22	11669.91
462.40	11639.48
462.59	11382.03
462.77	11386.71
462.95	11419.47
463.13	11543.52
463.32	11709.70
463.50	11534.16
463.68	11903.96
463.86	11676.93
464.05	11705.02
464.23	11424.15
464.41	11840.77
464.59	11719.06
464.78	11744.81
464.96	11885.24
465.14	11634.80
465.32	11934.39
465.50	12018.65
465.69	11929.71
465.87	12119.29
466.05	12414.20
466.23	12233.98
466.41	11857.15
466.60	12657.62
466.78	12093.55
466.96	12116.95
467.14	12304.20
467.32	12339.30
467.51	12517.18
467.69	11957.80
467.87	12444.63
468.05	12613.15
468.23	12414.20
468.41	12435.27
468.60	12461.01
468.78	12748.90
468.96	12713.79
469.14	12805.07
469.32	12950.18
469.50	12566.34
469.69	12896.35
469.87	13116.36
470.05	12966.57
470.23	12945.50
470.41	13167.85
470.59	13247.43
470.77	13062.53
470.95	13109.34
471.14	13504.89
471.32	13284.88
471.50	13626.60
471.68	13507.23
471.86	13362.12
472.04	13650.00
472.22	13900.44
472.40	13795.12
472.58	13804.48
472.77	13771.71
472.95	14256.20
473.13	14668.14
473.31	13975.34
473.49	14200.03
473.67	14164.92
473.85	14370.89
474.03	14506.64
474.21	14396.64
474.39	14789.85
474.57	14743.03
474.75	14836.66
474.93	14979.43
475.12	15208.80
475.30	15037.94
475.48	14906.87
475.66	15000.49
475.84	15194.76
476.02	15143.27
476.20	15454.56
476.38	15576.27
476.56	15836.06
476.74	15929.69
476.92	15763.51
477.10	15807.98
477.28	16189.49
477.46	15948.41
477.64	16259.70
477.82	16542.91
478.00	16833.13
478.18	16774.62
478.36	16800.37
478.54	16952.50
478.72	17078.89
478.90	17303.58
479.08	17228.68
479.26	17823.18
479.44	17724.88
479.62	17778.71
479.80	17975.31
479.98	18038.51
480.16	18640.03
480.34	18207.03
480.52	18789.82
480.70	18618.96
480.88	18368.52
481.06	18574.49
481.24	18607.26
481.41	19030.90
481.59	19194.73
481.77	19597.31
481.95	19463.90
482.13	19538.79
482.31	19653.48
482.49	20203.50
482.67	20006.90
482.85	20285.42
483.03	20301.81
483.21	20477.35
483.39	20844.81
483.57	20547.56
483.74	20971.20
483.92	21209.93
484.10	20755.87
484.28	21642.93
484.46	21776.34
484.64	22441.06
484.82	21949.54
485.00	22300.62
485.18	22476.16
485.35	22995.76
485.53	22672.77
485.71	22719.58
485.89	22934.91
486.07	23042.57
486.25	23388.97
486.43	23510.68
486.61	23838.36
486.78	23821.97
486.96	23679.20
487.14	24343.91
487.32	24561.58
487.50	24790.95
487.68	24821.38
487.85	25146.72
488.03	25146.72
488.21	25642.91
488.39	25364.39
488.57	25944.84
488.75	26078.25
488.92	26302.94
489.10	26410.60
489.28	26513.59
489.46	26771.05
489.64	26948.93
489.81	27314.05
489.99	27417.04
490.17	27534.06
490.35	28130.90
490.53	28079.41
490.70	28257.29
490.88	27906.21
491.06	28533.47
491.24	28521.77
491.41	29020.30
491.59	29399.47
491.77	29137.33
491.95	29577.35
492.13	29764.59
492.30	30010.35
492.48	29867.58
492.66	29806.72
492.84	30129.72
493.01	30501.86
493.19	30375.47
493.37	30771.02
493.54	31194.66
493.72	31276.58
493.90	31449.78
494.08	31646.38
494.25	32098.11
494.43	31779.79
494.61	32053.64
494.79	31941.29
494.96	32402.38
495.14	32818.99
495.32	33010.92
495.49	32954.74
495.67	32760.48
495.85	33509.45
496.02	33567.96
496.20	33734.14
496.38	33935.43
496.55	34181.18
496.73	34487.79
496.91	34665.67
497.09	34625.89
497.26	34714.83
497.44	34768.66
497.62	35021.44
497.79	35618.27
497.97	35175.91
498.14	35849.99
498.32	35880.41
498.50	36306.39
498.67	36486.61
498.85	36355.54
499.03	36144.89
499.20	36706.62
499.38	36264.26
499.56	37347.93
499.73	36985.15
499.91	37188.77
500.08	37366.65
500.26	37010.89
500.44	37612.41
500.61	37404.10
500.79	37361.97
500.97	37684.97
501.14	38101.58
501.32	38412.87
501.49	38565.01
501.67	38218.61
501.84	38614.16
502.02	38635.22
502.20	39150.14
502.37	39304.62
502.55	39175.89
502.72	39133.76
502.90	39480.16
503.07	39175.89
503.25	39407.60
503.43	39473.13
503.60	39807.83
503.78	39845.28
503.95	40041.88
504.13	40514.67
504.30	40507.65
504.48	40247.85
504.65	40360.20
504.83	40823.62
505.01	41432.16
505.18	40830.65
505.36	41106.83
505.53	41322.16
505.71	41172.36
505.88	41453.23
506.06	41109.17
506.23	42036.02
506.41	41471.95
506.58	41771.54
506.76	41914.31
506.93	42476.04
507.11	42220.92
507.28	42239.65
507.46	42321.57
507.63	43061.18
507.81	43185.22
507.98	42366.04
508.16	43119.69
508.33	43166.50
508.50	43269.48
508.68	43091.60
508.85	43496.52
509.03	43529.28
509.20	43725.89
509.38	44158.89
509.55	43817.17
509.73	43800.79
509.90	44348.47
510.08	44360.17
510.25	44435.07
510.42	44273.57
510.60	44662.10
510.77	44879.77
510.95	45588.95
511.12	45146.59
511.30	44973.39
511.47	45209.79
511.64	45876.84
511.82	45474.27
511.99	45546.82
512.17	46337.93
512.34	45769.18
512.51	46216.22
512.69	46190.47
512.86	46164.73
513.04	46426.87
513.21	46071.10
513.38	46052.38
513.56	46859.87
513.73	46850.50
513.90	46789.65
514.08	46321.54
514.25	47084.56
514.43	47150.09
514.60	47360.74
514.77	47262.44
514.95	47468.40
515.12	47107.96
515.29	47185.20
515.47	47983.32
515.64	47789.06
515.81	47622.88
515.99	47632.24
516.16	48238.44
516.33	48041.84
516.51	48474.84
516.68	48418.66
516.85	48264.19
517.03	48549.73
517.20	48432.71
517.37	48678.46
517.54	48657.40
517.72	48774.42
517.89	48645.69
518.06	49134.87
518.24	49413.39
518.41	49045.93
518.58	48952.30
518.75	49015.50
518.93	49537.44
519.10	49123.16
519.27	49670.85
519.45	49766.81
519.62	49865.11
519.79	49947.03
519.96	49663.83
520.14	50408.12
520.31	50068.74
520.48	50155.34
520.65	50052.36
520.83	50569.61
521.00	50667.92
521.17	50419.82
521.34	50801.33
521.52	50791.97
521.69	50525.14
521.86	50686.64
522.03	50859.84
522.20	50969.85
522.38	51440.29
522.55	51271.78
522.72	50677.28
522.89	50953.46
523.07	51278.80
523.24	51168.79
523.41	51643.92
523.58	51447.32
523.75	51906.06
523.92	51452.00
524.10	51725.84
524.27	51896.70
524.44	52126.07
524.61	52332.04
524.78	51938.83
524.96	52215.01
525.13	52294.59
525.30	52172.88
525.47	52779.08
525.64	52348.42
525.81	52584.82
525.98	52734.61
526.16	52390.55
526.33	52498.22
526.50	52608.22
526.67	52261.82
526.84	52828.23
527.01	52715.89
527.18	52570.77
527.36	52858.66
527.53	52954.62
527.70	53165.27
527.87	52825.89
528.04	52491.19
528.21	53343.15
528.38	53132.50
528.55	53111.44
528.72	53469.54
528.89	53275.27
529.07	53160.59
529.24	53169.95
529.41	53579.54
529.58	53275.27
529.75	53904.88
529.92	53537.41
530.09	53904.88
530.26	53804.24
530.43	53834.66
530.60	53624.01
530.77	53701.25
530.94	53790.19
531.11	53879.13
531.28	53858.07
531.46	53851.05
531.63	54171.70
531.80	54321.49
531.97	53921.26
532.14	54251.28
532.31	54216.17
532.48	54480.65
532.65	54251.28
532.82	54115.53
532.99	54611.72
533.16	54536.82
533.33	54857.48
533.50	54649.17
533.67	54660.87
533.84	54553.21
534.01	54770.88
534.18	54766.20
534.35	55030.68
534.52	54904.29
534.69	55131.32
534.86	55040.04
535.03	54780.24
535.20	55004.93
535.37	55157.06
535.54	55194.51
535.71	55171.11
535.88	55269.41
536.05	55405.16
536.22	55646.24
536.38	55667.30
536.55	55353.67
536.72	55388.78
536.89	55285.79
537.06	55576.02
537.23	55767.94
537.40	55367.71
537.57	55704.75
537.74	55711.77
537.91	56013.70
538.08	55561.98
538.25	55604.11
538.42	55903.70
538.59	56076.90
538.75	55611.13
538.92	55973.91
539.09	56107.32
539.26	56179.88
539.43	55999.66
539.60	56088.60
539.77	56324.99
539.94	56236.05
540.11	56268.82
540.28	56355.42
540.44	56224.35
540.61	56308.61
540.78	56275.84
540.95	56133.07
541.12	56306.27
541.29	56404.57
541.46	56268.82
541.62	56427.98
541.79	56566.07
541.96	56444.36
542.13	56477.13
542.30	56589.47
542.47	56582.45
542.63	56566.07
542.80	56610.54
542.97	56727.56
543.14	56849.27
543.31	57041.20
543.48	56947.57
543.64	57366.53
543.81	57293.97
543.98	57146.52
544.15	57146.52
544.32	57169.93
544.48	57598.24
544.65	57361.85
544.82	57179.29
544.99	57059.92
545.16	57289.29
545.32	57298.65
545.49	57848.68
545.66	57471.85
545.83	57675.48
546.00	57813.57
546.16	57532.71
546.33	57373.55
546.50	57324.40
546.67	57504.62
546.83	57151.20
547.00	57586.54
547.17	57755.06
547.34	57820.59
547.50	57869.75
547.67	57956.35
547.84	57921.24
548.00	57813.57
548.17	58185.72
548.34	57977.41
548.51	57869.75
548.67	58087.42
548.84	58028.90
549.01	58024.22
549.18	57963.37
549.34	58141.25
549.51	58197.42
549.68	58141.25
549.84	58136.57
550.01	58358.92
550.18	58113.16
550.34	58209.12
550.51	58319.13
550.68	58291.04
550.84	58003.16
551.01	58541.48
551.18	58574.25
551.34	58218.49
551.51	58625.74
551.68	58394.03
551.84	58408.07
552.01	58382.32
552.18	58417.43
552.34	58248.91
552.51	58644.46
552.68	58466.58
552.84	58679.57
553.01	58780.21
553.18	58508.71
553.34	58887.88
553.51	58817.66
553.67	58433.81
553.84	58791.92
554.01	58859.79
554.17	58843.41
554.34	58894.90
554.51	58859.79
554.67	58827.02
554.84	58623.40
555.00	58927.67
555.17	58944.05
555.33	58794.26
555.50	58815.32
555.67	59126.61
555.83	58829.37
556.00	59037.67
556.16	59126.61
556.33	59075.12
556.50	59243.64
556.66	59014.27
556.83	59004.91
556.99	59257.68
557.16	59344.28
557.32	59323.22
557.49	59428.54
557.65	59297.47
557.82	59175.76
557.98	59344.28
558.15	59271.73
558.32	59217.89
558.48	59241.30
558.65	59297.47
558.81	59379.39
558.98	59302.15
559.14	59547.91
559.31	59529.19
559.47	59576.00
559.64	59576.00
559.80	59494.08
559.97	59386.41
560.13	59512.80
560.30	59664.94
560.46	59693.02
560.63	59421.52
560.79	59725.79
560.96	59786.64
561.12	59615.79
561.29	59788.98
561.45	59683.66
561.61	59903.67
561.78	59742.17
561.94	59608.76
562.11	59524.50
562.27	59653.23
562.44	59882.61
562.60	59863.88
562.77	59767.92
562.93	59447.27
563.10	59927.08
563.26	59931.76
563.42	60011.34
563.59	59931.76
563.75	60079.21
563.92	60037.08
564.08	59730.47
564.24	60149.43
564.41	59980.91
564.57	60065.17
564.74	60221.98
564.90	60023.04
565.07	60037.08
565.23	60032.40
565.39	60046.44
565.56	60238.37
565.72	59870.90
565.88	60067.51
566.05	59964.52
566.21	60009.00
566.38	60278.16
566.54	60100.28
566.70	60147.09
566.87	60158.79
567.03	59971.55
567.19	60287.52
567.36	60151.77
567.52	60076.87
567.68	60257.09
567.85	60303.90
568.01	60081.55
568.17	60081.55
568.34	60299.22
568.50	60032.40
568.66	60346.03
568.83	60444.33
568.99	60151.77
569.15	60329.65
569.32	60142.41
569.48	60243.05
569.64	60331.99
569.81	60236.03
569.97	60093.25
570.13	60406.89
570.30	60383.48
570.46	60329.65
570.62	60493.49
570.78	60409.23
570.95	60371.78
571.11	60650.30
571.27	60353.05
571.43	60336.67
571.60	60577.75
571.76	60420.93
571.92	60409.23
572.09	60582.43
572.25	60357.74
572.41	60463.06
572.57	60530.93
572.74	60610.51
572.90	60479.44
573.06	60434.97
573.22	60350.71
573.38	60601.15
573.55	60549.66
573.71	60666.69
573.87	60425.61
574.03	60425.61
574.20	60397.52
574.36	60488.80
574.52	60790.73
574.68	60821.16
574.84	60484.12
575.01	60624.56
575.17	60643.28
575.33	60509.87
575.49	60243.05
575.65	60638.60
575.82	60818.82
575.98	60647.96
576.14	60956.91
576.30	60701.79
576.46	60533.28
576.62	60647.96
576.79	60568.38
576.95	60683.07
577.11	60809.46
577.27	60722.86
577.43	60828.18
577.59	60725.20
577.75	60552.00
577.92	60488.80
578.08	60582.43
578.24	60603.49
578.40	60839.89
578.56	60823.50
578.72	60750.94
578.88	60959.25
579.04	60945.21
579.21	60650.30
579.37	60760.31
579.53	60816.48
579.69	60519.23
579.85	60685.41
580.01	60858.61
580.17	60662.00
580.33	60764.99
580.49	60828.18
580.65	60736.90
580.82	60626.90
580.98	60783.71
581.14	60797.76
581.30	60903.08
581.46	60598.81
581.62	60837.54
581.78	60636.26
581.94	60736.90
582.10	60793.07
582.26	60779.03
582.42	60823.50
582.58	60816.48
582.74	60790.73
582.90	60772.01
583.06	60828.18
583.22	60767.33
583.38	60938.19
583.54	60851.59
583.70	60858.61
583.86	61001.38
584.02	60725.20
584.18	61066.92
584.34	60755.63
584.50	60762.65
584.66	60739.24
584.82	60666.69
584.98	61064.58
585.14	61137.13
585.30	60664.35
585.46	60987.34
585.62	60776.69
585.78	60928.83
585.94	60774.35
586.10	60842.23
586.26	60949.89
586.42	61071.60
586.58	60853.93
586.74	60867.97
586.90	60863.29
587.06	60989.68
587.22	61137.13
587.38	60842.23
587.54	61109.05
587.70	61090.32
587.86	60865.63
588.02	60963.93
588.18	61076.28
588.34	60853.93
588.49	60926.49
