SpectraSuite Data File
++++++++++++++++++++++++++++++++++++
Date: Fri Oct 25 10:48:29 EDT 2013
User: price-jones
Dark Spectrum Present: No
Reference Spectrum Present: No
Number of Sampled Component Spectra: 1
Spectrometers: USB2+H05261
Integration Time (usec): 100000 (USB2+H05261)
Spectra Averaged: 1 (USB2+H05261)
Boxcar Smoothing: 0 (USB2+H05261)
Correct for Electrical Dark: No (USB2+H05261)
Strobe/Lamp Enabled: No (USB2+H05261)
Correct for Detector Non-linearity: No (USB2+H05261)
Correct for Stray Light: No (USB2+H05261)
Number of Pixels in Processed Spectrum: 2048
>>>>>Begin Processed Spectral Data<<<<<
365.73	117.03
365.92	117.03
366.12	117.03
366.32	67.88
366.52	37.45
366.72	133.41
366.91	77.24
367.11	42.13
367.31	11.70
367.51	56.17
367.70	30.43
367.90	28.09
368.10	42.13
368.30	72.56
368.49	65.54
368.69	51.49
368.89	49.15
369.09	0.00
369.28	159.16
369.48	65.54
369.68	91.28
369.87	110.01
370.07	133.41
370.27	128.73
370.47	250.44
370.66	430.66
370.86	442.36
371.06	491.51
371.25	489.17
371.45	475.13
371.65	496.19
371.84	437.68
372.04	528.96
372.24	458.74
372.44	521.94
372.63	571.09
372.83	524.28
373.03	566.41
373.22	557.05
373.42	547.69
373.62	517.26
373.81	631.94
374.01	582.79
374.21	566.41
374.40	589.82
374.60	617.90
374.79	624.92
374.99	685.78
375.19	645.99
375.38	543.00
375.58	589.82
375.78	638.97
375.97	681.10
376.17	695.14
376.37	622.58
376.56	615.56
376.76	528.96
376.95	748.97
377.15	727.91
377.35	699.82
377.54	653.01
377.74	599.18
377.93	638.97
378.13	683.44
378.33	685.78
378.52	690.46
378.72	730.25
378.91	706.84
379.11	741.95
379.31	650.67
379.50	725.57
379.70	688.12
379.89	685.78
380.09	737.27
380.28	669.39
380.48	732.59
380.68	765.36
380.87	709.18
381.07	678.76
381.26	786.42
381.46	716.20
381.65	730.25
381.85	730.25
382.04	730.25
382.24	861.32
382.43	697.48
382.63	681.10
382.83	643.65
383.02	800.46
383.22	777.06
383.41	720.88
383.61	809.83
383.80	798.12
384.00	849.61
384.19	725.57
384.39	882.38
384.58	835.57
384.78	793.44
384.97	894.08
385.17	842.59
385.36	779.40
385.56	812.17
385.75	880.04
385.95	863.66
386.14	844.93
386.34	915.15
386.53	915.15
386.72	887.06
386.92	880.04
387.11	910.47
387.31	943.24
387.50	903.45
387.70	917.49
387.89	915.15
388.09	870.68
388.28	866.00
388.48	842.59
388.67	868.34
388.86	968.98
389.06	1008.77
389.25	985.37
389.45	966.64
389.64	1043.88
389.84	1102.39
390.03	987.71
390.22	1097.71
390.42	1004.09
390.61	1069.62
390.81	1083.67
391.00	1121.12
391.19	1062.60
391.39	1160.91
391.58	1125.80
391.78	1043.88
391.97	1130.48
392.16	1029.84
392.36	1078.99
392.55	1043.88
392.75	1041.54
392.94	1034.52
393.13	1067.28
393.33	1036.86
393.52	1184.31
393.71	1128.14
393.91	1181.97
394.10	1170.27
394.29	1217.08
394.49	1142.18
394.68	1179.63
394.88	1198.35
395.07	1306.02
395.26	1277.93
395.46	1207.72
395.65	1266.23
395.84	1270.91
396.04	1322.40
396.23	1263.89
396.42	1135.16
396.62	1179.63
396.81	1226.44
397.00	1245.16
397.19	1252.19
397.39	1329.42
397.58	1359.85
397.77	1486.24
397.97	1533.05
398.16	1404.32
398.35	1523.69
398.55	1451.13
398.74	1465.18
398.93	1469.86
399.12	1486.24
399.32	1554.12
399.51	1666.46
399.70	1671.14
399.90	1661.78
400.09	1605.61
400.28	1579.86
400.47	1617.31
400.67	1638.38
400.86	1710.93
401.05	1647.74
401.24	1748.38
401.44	1708.59
401.63	1748.38
401.82	1764.76
402.01	1809.23
402.21	1664.12
402.40	1612.63
402.59	1797.53
402.78	1811.57
402.97	1820.94
403.17	1851.36
403.36	1928.60
403.55	1846.68
403.74	1893.49
403.93	1825.62
404.13	1888.81
404.32	1783.49
404.51	2005.84
404.70	2101.80
404.89	1825.62
405.09	1980.09
405.28	1973.07
405.47	2015.20
405.66	1989.46
405.85	2094.78
406.05	1863.07
406.24	1853.70
406.43	2104.14
406.62	2097.12
406.81	2181.38
407.00	2031.58
407.20	2045.63
407.39	2169.68
407.58	2319.47
407.77	2176.70
407.96	2270.32
408.15	2190.74
408.34	2272.66
408.54	2256.28
408.73	2246.91
408.92	2347.56
409.11	2394.37
409.30	2289.04
409.49	2279.68
409.68	2267.98
409.87	2445.86
410.07	2471.61
410.26	2385.01
410.45	2452.88
410.64	2483.31
410.83	2487.99
411.02	2483.31
411.21	2628.42
411.40	2532.46
411.59	2633.10
411.78	2590.97
411.98	2651.83
412.17	2745.45
412.36	2696.30
412.55	2752.47
412.74	2658.85
412.93	2803.96
413.12	2778.22
413.31	2911.63
413.50	2857.79
413.69	2899.92
413.88	2951.42
414.07	2970.14
414.26	3108.23
414.45	2928.01
414.64	2874.18
414.83	3047.38
415.02	2972.48
415.22	3157.38
415.41	3185.47
415.60	3164.40
415.79	3211.22
415.98	3185.47
416.17	3206.53
416.36	3295.47
416.55	3227.60
416.74	3208.87
416.93	3194.83
417.12	3269.73
417.31	3337.60
417.50	3265.05
417.69	3403.14
417.88	3384.41
418.07	3447.61
418.26	3424.20
418.45	3482.72
418.64	3789.33
418.83	3599.74
419.02	3712.09
419.21	3698.05
419.39	3597.40
419.58	3644.21
419.77	3691.02
419.96	3674.64
420.15	3735.50
420.34	3688.68
420.53	3660.60
420.72	3754.22
420.91	3627.83
421.10	3922.74
421.29	4035.08
421.48	3845.50
421.67	3887.63
421.86	3819.75
422.05	3824.44
422.24	3721.45
422.43	3836.14
422.61	3864.22
422.80	3875.93
422.99	3857.20
423.18	3974.23
423.37	4060.83
423.56	3904.01
423.75	3990.61
423.94	3925.08
424.13	3698.05
424.32	3868.91
424.50	3943.80
424.69	4070.19
424.88	4039.76
425.07	3934.44
425.26	3899.33
425.45	3971.89
425.64	4074.87
425.83	3936.78
426.01	3941.46
426.20	4063.17
426.39	4102.96
426.58	4058.49
426.77	3962.53
426.96	4126.36
427.15	4009.34
427.33	4243.39
427.52	4175.52
427.71	4276.16
427.90	4154.45
428.09	4098.28
428.28	4322.97
428.46	4119.34
428.65	4376.80
428.84	4351.06
429.03	4379.14
429.22	4182.54
429.40	4051.47
429.59	4320.63
429.78	4119.34
429.97	4112.32
430.16	4098.28
430.34	4175.52
430.53	4238.71
430.72	4231.69
430.91	4210.62
431.10	4315.95
431.28	4449.36
431.47	4667.03
431.66	4718.52
431.85	4402.55
432.03	4568.73
432.22	4648.30
432.41	4706.82
432.60	4678.73
432.79	4901.08
432.97	4873.00
433.16	4636.60
433.35	4744.27
433.54	4760.65
433.72	4674.05
433.91	4727.88
434.10	4739.58
434.28	4922.15
434.47	4896.40
434.66	4959.60
434.85	5048.54
435.03	5212.37
435.22	4994.70
435.41	5296.63
435.59	5181.95
435.78	5137.48
435.97	5163.22
436.16	5149.18
436.34	5039.17
436.53	5203.01
436.72	5493.24
436.90	5055.56
437.09	5240.46
437.28	4990.02
437.46	5181.95
437.65	5177.26
437.84	5259.18
438.02	5259.18
438.21	5310.68
438.40	5352.81
438.58	5343.44
438.77	5413.66
438.96	5612.60
439.14	5664.10
439.33	5526.00
439.52	5544.73
439.70	5703.89
439.89	5626.65
440.08	5785.80
440.26	5795.17
440.45	5570.48
440.63	5900.49
440.82	6059.65
441.01	5973.05
441.19	5975.39
441.38	6272.64
441.57	5944.96
441.75	6305.40
441.94	6228.17
442.12	6450.52
442.31	6417.75
442.50	6485.62
442.68	6331.15
442.87	6354.55
443.05	6331.15
443.24	6427.11
443.43	6303.06
443.61	6413.07
443.80	6614.35
443.98	6361.58
444.17	6136.88
444.35	6487.96
444.54	6551.16
444.73	6647.12
444.91	6471.58
445.10	6504.35
445.28	6541.80
445.47	6476.26
445.65	6668.19
445.84	6593.29
446.02	6651.80
446.21	6612.01
446.39	6595.63
446.58	6778.19
446.77	6867.13
446.95	6569.88
447.14	6899.90
447.32	6810.96
447.51	6614.35
447.69	6476.26
447.88	6628.40
448.06	6658.82
448.25	6707.98
448.43	6649.46
448.62	6963.09
448.80	6782.87
448.99	6848.41
449.17	6712.66
449.36	6822.66
449.54	7014.59
449.73	7239.28
449.91	7260.34
450.10	7300.13
450.28	7407.80
450.46	7248.64
450.65	7342.26
450.83	7358.64
451.02	7267.36
451.20	7143.32
451.39	7314.17
451.57	7236.94
451.76	7314.17
451.94	7208.85
452.13	7412.48
452.31	7112.89
452.49	7187.79
452.68	7157.36
452.86	7243.96
453.05	7470.99
453.23	7391.41
453.42	7414.82
453.60	7426.52
453.78	7625.47
453.97	7440.56
454.15	7482.69
454.34	7344.60
454.52	7499.08
454.70	7590.36
454.89	7557.59
455.07	7527.16
455.26	7548.23
455.44	7852.50
455.62	7901.65
455.81	7798.66
455.99	7838.45
456.17	7742.49
456.36	7971.86
456.54	8124.00
456.73	8025.70
456.91	8355.71
457.09	8109.96
457.28	8365.07
457.46	7960.16
457.64	8451.67
457.83	8280.82
458.01	8002.29
458.19	8538.27
458.38	8299.54
458.56	8290.18
458.74	8489.12
458.93	8299.54
459.11	8280.82
459.29	8341.67
459.48	8524.23
459.66	8493.80
459.84	8423.59
460.03	8425.93
460.21	8655.30
460.39	8704.45
460.57	8610.83
460.76	8601.47
460.94	8638.92
461.12	8645.94
461.31	8994.68
461.49	8730.20
461.67	8641.26
461.85	8695.09
462.04	8833.18
462.22	9242.78
462.40	8865.95
462.59	8975.95
462.77	9053.19
462.95	8985.32
463.13	9076.60
463.32	8994.68
463.50	9144.47
463.68	9261.50
463.86	9043.83
464.05	8966.59
464.23	8870.63
464.41	9114.05
464.59	8999.36
464.78	9540.02
464.96	9179.58
465.14	9036.81
465.32	9394.91
465.50	9486.19
465.69	9483.85
465.87	9357.46
466.05	9095.32
466.23	9266.18
466.41	9210.01
466.60	9682.80
466.78	9366.82
466.96	9327.03
467.14	9371.50
467.32	9458.10
467.51	9743.65
467.69	9291.93
467.87	9458.10
468.05	9657.05
468.23	9418.32
468.41	9774.08
468.60	9767.06
468.78	9596.20
468.96	9624.28
469.14	9848.97
469.32	9841.95
469.50	9579.81
469.69	9741.31
469.87	9966.00
470.05	9743.65
470.23	10068.98
470.41	9870.04
470.59	10153.24
470.77	9973.02
470.95	10225.80
471.14	10104.09
471.32	10150.90
471.50	10408.36
471.68	10289.00
471.86	10452.83
472.04	10396.66
472.22	10604.97
472.40	10228.14
472.58	10384.96
472.77	10640.08
472.95	10752.42
473.13	11169.04
473.31	10740.72
473.49	10712.63
473.67	10677.52
473.85	10899.87
474.03	11026.26
474.21	11080.10
474.39	11166.70
474.57	11225.21
474.75	11192.44
474.93	11363.30
475.12	11342.24
475.30	11459.26
475.48	11421.81
475.66	11543.52
475.84	11517.78
476.02	11442.88
476.20	11576.29
476.38	11747.15
476.56	12236.32
476.74	11955.46
476.92	11651.19
477.10	11808.00
477.28	12231.64
477.46	12217.60
477.64	12601.44
477.82	12718.47
478.00	12685.70
478.18	12755.92
478.36	12737.20
478.54	12765.28
478.72	12791.03
478.90	13121.04
479.08	13074.23
479.26	13439.36
479.44	13263.82
479.62	13362.12
479.80	13404.25
479.98	13565.74
480.16	13774.05
480.34	13830.23
480.52	14047.90
480.70	13987.04
480.88	13851.29
481.06	14083.00
481.24	14026.83
481.41	14466.85
481.59	14628.35
481.77	14445.79
481.95	14377.91
482.13	14834.32
482.31	14719.63
482.49	15021.56
482.67	14993.47
482.85	15398.38
483.03	15208.80
483.21	15300.08
483.39	15557.54
483.57	15548.18
483.74	15704.99
483.92	15756.49
484.10	15634.78
484.28	15889.90
484.46	16123.95
484.64	16498.44
484.82	16318.22
485.00	16318.22
485.18	16732.49
485.35	16587.38
485.53	16624.83
485.71	16266.72
485.89	16559.29
486.07	16475.03
486.25	16889.31
486.43	16926.75
486.61	17039.10
486.78	17500.19
486.96	17666.36
487.14	17872.33
487.32	17844.24
487.50	18288.95
487.68	18122.77
487.85	18469.17
488.03	18817.91
488.21	18682.16
488.39	18649.39
488.57	18836.63
488.75	19286.01
488.92	19058.98
489.10	19836.04
489.28	19838.38
489.46	19669.86
489.64	20032.65
489.81	20219.89
489.99	20498.41
490.17	20594.37
490.35	20659.91
490.53	20599.05
490.70	20760.55
490.88	20666.93
491.06	21135.04
491.24	20992.26
491.41	21116.31
491.59	20889.28
491.77	21298.88
491.95	21345.69
492.13	21558.67
492.30	21818.47
492.48	21745.92
492.66	22202.32
492.84	22043.17
493.01	22288.92
493.19	22267.86
493.37	22675.11
493.54	22773.41
493.72	22754.69
493.90	22740.64
494.08	23274.29
494.25	23173.64
494.43	23616.01
494.61	23721.33
494.79	23805.59
494.96	23690.90
495.14	23597.28
495.32	23906.23
495.49	23924.96
495.67	24016.24
495.85	24329.87
496.02	24191.78
496.20	24561.58
496.38	24659.88
496.55	24676.27
496.73	25486.09
496.91	24905.64
497.09	25160.76
497.26	25631.21
497.44	25233.32
497.62	25263.74
497.79	25778.66
497.97	25305.87
498.14	26092.29
498.32	26146.12
498.50	25942.50
498.67	26120.38
498.85	26237.41
499.03	26752.32
499.20	26735.94
499.38	26426.99
499.56	26672.74
499.73	26773.39
499.91	26738.28
500.08	27234.47
500.26	26904.46
500.44	27143.19
500.61	26902.12
500.79	26967.65
500.97	27281.28
501.14	27763.43
501.32	27042.55
501.49	27103.40
501.67	27461.51
501.84	27388.95
502.02	27843.01
502.20	27700.24
502.37	28123.88
502.55	28116.86
502.72	28151.96
502.90	28037.28
503.07	28254.95
503.25	28428.15
503.43	28308.78
503.60	29024.98
503.78	28423.47
503.95	28617.73
504.13	28645.82
504.30	29032.00
504.48	29186.48
504.65	29256.70
504.83	29369.04
505.01	29820.77
505.18	29450.96
505.36	30188.23
505.53	29790.34
505.71	29675.65
505.88	30115.67
506.06	29848.85
506.23	29699.06
506.41	29600.76
506.58	30167.16
506.76	30464.41
506.93	30536.97
507.11	30342.70
507.28	30625.91
507.46	30567.40
507.63	30579.10
507.81	31072.95
507.98	30525.27
508.16	30892.73
508.33	31044.87
508.50	31346.79
508.68	31358.50
508.85	31903.84
509.03	31435.74
509.20	31655.75
509.38	31512.97
509.55	31449.78
509.73	32151.94
509.90	32121.51
510.08	31627.66
510.25	32163.64
510.42	32219.81
510.60	32439.82
510.77	32493.66
510.95	32247.90
511.12	32680.90
511.30	32371.95
511.47	32678.56
511.64	32938.36
511.82	33333.91
511.99	32765.16
512.17	32978.15
512.34	32795.59
512.51	33139.65
512.69	33350.29
512.86	33249.65
513.04	33729.46
513.21	33319.87
513.38	33319.87
513.56	33397.10
513.73	33188.80
513.90	33488.38
514.08	33448.60
514.25	33315.19
514.43	33434.55
514.60	33408.81
514.77	33469.66
514.95	34157.78
515.12	34019.69
515.29	34305.23
515.47	34567.37
515.64	34560.35
515.81	34127.35
515.99	34321.62
516.16	33977.56
516.33	34239.70
516.51	34029.05
516.68	33832.44
516.85	33907.34
517.03	34174.16
517.20	34188.21
517.37	34845.90
517.54	35400.60
517.72	34679.72
517.89	34520.56
518.06	34513.54
518.24	34859.94
518.41	34766.32
518.58	34782.70
518.75	34600.14
518.93	35019.10
519.10	35419.33
519.27	35695.51
519.45	35274.21
519.62	35693.17
519.79	35416.99
519.96	35997.44
520.14	35990.42
520.31	35739.98
520.48	36133.19
520.65	35887.43
520.83	36215.11
521.00	36182.34
521.17	36184.68
521.34	36107.44
521.52	36655.13
521.69	37158.34
521.86	36975.78
522.03	36720.66
522.20	36877.48
522.38	37366.65
522.55	37024.93
522.72	36718.32
522.89	36828.33
523.07	37118.56
523.24	36751.09
523.41	37631.13
523.58	37020.25
523.75	37661.56
523.92	37874.55
524.10	37408.78
524.27	38045.41
524.44	37867.53
524.61	37759.86
524.78	37816.04
524.96	38031.36
525.13	38256.06
525.30	38822.47
525.47	38450.32
525.64	38583.73
525.81	38094.56
525.98	38321.59
526.16	37900.29
526.33	37682.62
526.50	38169.46
526.67	37677.94
526.84	37909.66
527.01	38089.88
527.18	38398.83
527.36	38951.20
527.53	38801.40
527.70	39220.36
527.87	38962.90
528.04	38794.38
528.21	39103.33
528.38	39175.89
528.55	39358.45
528.72	38913.75
528.89	39662.72
529.07	39524.63
529.24	39049.50
529.41	39697.83
529.58	39306.96
529.75	39068.22
529.92	39604.20
530.09	39728.25
530.26	39393.56
530.43	39751.66
530.60	39484.84
530.77	39791.45
530.94	40271.26
531.11	39770.38
531.28	39594.84
531.46	40165.93
531.63	40390.62
531.80	40060.61
531.97	39878.05
532.14	40247.85
532.31	39917.84
532.48	40030.18
532.65	40261.90
532.82	40257.21
532.99	40245.51
533.16	40229.13
533.33	40978.10
533.50	40608.29
533.67	40643.40
533.84	40472.54
534.01	40886.82
534.18	40779.15
534.35	41193.43
534.52	41240.24
534.69	41413.44
534.86	41113.85
535.03	40917.25
535.20	41083.42
535.37	41399.40
535.54	41460.25
535.71	41106.83
535.88	41027.25
536.05	41045.97
536.22	41773.88
536.38	41184.07
536.55	41649.83
536.72	41251.94
536.89	41326.84
537.06	41670.90
537.23	41605.36
537.40	41675.58
537.57	41645.15
537.74	41848.78
537.91	42485.40
538.08	41759.84
538.25	41591.32
538.42	41841.76
538.59	41750.48
538.75	41628.77
538.92	41776.22
539.09	42291.14
539.26	41993.89
539.43	42265.39
539.60	42153.05
539.77	41841.76
539.94	42122.62
540.11	41961.12
540.28	41635.79
540.44	42300.50
540.61	41858.14
540.78	41659.20
540.95	42155.39
541.12	41890.91
541.29	42359.02
541.46	42265.39
541.62	42354.33
541.79	42784.99
541.96	42604.77
542.13	42883.30
542.30	42974.58
542.47	42934.79
542.63	42651.58
542.80	42632.86
542.97	43433.32
543.14	43318.64
543.31	43243.74
543.48	43276.51
543.64	43599.50
543.81	43810.15
543.98	43681.42
544.15	43491.83
544.32	43388.85
544.48	44177.61
544.65	43981.01
544.82	43409.92
544.99	43253.10
545.16	43636.95
545.32	43461.41
545.49	44191.65
545.66	44240.81
545.83	43789.08
546.00	43756.32
546.16	44065.27
546.33	43587.80
546.50	43292.89
546.67	43976.33
546.83	43606.52
547.00	43674.40
547.17	43405.23
547.34	44051.22
547.50	44088.67
547.67	44289.96
547.84	43903.77
548.00	44388.26
548.17	44502.95
548.34	44545.08
548.51	44397.62
548.67	44795.51
548.84	44390.60
549.01	44016.11
549.18	44268.89
549.34	44428.05
549.51	44481.88
549.68	44629.34
549.84	44729.98
550.01	44673.81
550.18	44570.82
550.34	44362.51
550.51	44612.95
550.68	44809.56
550.84	44767.43
551.01	44624.65
551.18	44641.04
551.34	44678.49
551.51	45006.16
551.68	44996.80
551.84	45160.64
552.01	44741.68
552.18	44994.46
552.34	44596.57
552.51	45436.82
552.68	44907.86
552.84	44919.56
553.01	45237.87
553.18	44935.95
553.34	44968.71
553.51	44861.05
553.67	44907.86
553.84	45230.85
554.01	45148.93
554.17	45610.02
554.34	45579.59
554.51	45469.59
554.67	45525.76
554.84	45455.54
555.00	44891.48
555.17	44928.92
555.33	45584.27
555.50	45523.42
555.67	45464.91
555.83	45640.45
556.00	45888.54
556.16	46036.00
556.33	45705.98
556.50	45558.53
556.66	45340.86
556.83	45202.77
556.99	46014.93
557.16	45743.43
557.32	45961.10
557.49	45404.05
557.65	45453.20
557.82	45778.54
557.98	45544.48
558.15	45581.93
558.32	46078.13
558.48	45670.87
558.65	45673.21
558.81	45275.32
558.98	45755.13
559.14	45759.81
559.31	45544.48
559.47	45659.17
559.64	46106.21
559.80	46590.70
559.97	46066.42
560.13	45680.24
560.30	45893.22
560.46	46188.13
560.63	45933.01
560.79	46087.49
560.96	46410.48
561.12	45914.29
561.29	46026.63
561.45	46054.72
561.61	46579.00
561.78	46150.68
561.94	46054.72
562.11	46190.47
562.27	46096.85
562.44	46188.13
562.60	46335.59
562.77	46625.81
562.93	46344.95
563.10	46253.67
563.26	46270.05
563.42	46244.30
563.59	46279.41
563.75	46394.10
563.92	46344.95
564.08	46667.94
564.24	46639.86
564.41	46511.13
564.57	46314.52
564.74	46286.43
564.90	46321.54
565.07	46880.93
565.23	46005.57
565.39	46232.60
565.56	46485.38
565.72	46321.54
565.88	46251.33
566.05	46270.05
566.21	46476.02
566.38	46251.33
566.54	46227.92
566.70	46923.06
566.87	47033.07
567.03	46712.41
567.19	47145.41
567.36	46593.04
567.52	46600.07
567.68	46841.14
567.85	46354.31
568.01	46281.75
568.17	46520.49
568.34	46913.70
568.50	46476.02
568.66	46398.78
568.83	46405.80
568.99	46520.49
569.15	47103.28
569.32	46581.34
569.48	46354.31
569.64	46532.19
569.81	46667.94
569.97	46412.82
570.13	46354.31
570.30	46218.56
570.46	46869.23
570.62	46220.90
570.78	46314.52
570.95	46405.80
571.11	46822.42
571.27	46330.90
571.43	46511.13
571.60	46841.14
571.76	46241.96
571.92	46515.81
572.09	46555.60
572.25	46536.87
572.41	46714.75
572.57	46752.20
572.74	47330.31
572.90	47260.10
573.06	46763.90
573.22	46768.58
573.38	46988.60
573.55	46742.84
573.71	47007.32
573.87	46677.30
574.03	46333.24
574.20	47208.61
574.36	46209.20
574.52	46892.63
574.68	47288.18
574.84	46855.18
575.01	46569.64
575.17	46791.99
575.33	46466.66
575.49	46677.30
575.65	47199.24
575.82	47009.66
575.98	46674.96
576.14	46799.01
576.30	46852.84
576.46	46693.69
576.62	46904.34
576.79	46621.13
576.95	46302.82
577.11	46717.09
577.27	47065.83
577.43	46696.03
577.59	46827.10
577.75	46815.40
577.92	46550.91
578.08	46656.24
578.24	46487.72
578.40	46485.38
578.56	46473.68
578.72	46611.77
578.88	46857.52
579.04	47070.51
579.21	46520.49
579.37	47023.70
579.53	46958.17
579.69	46323.88
579.85	46852.84
580.01	47103.28
580.17	46621.13
580.33	46946.47
580.49	46836.46
580.65	47004.98
580.82	46791.99
580.98	46810.71
581.14	46234.94
581.30	47274.14
581.46	47061.15
581.62	46841.14
581.78	47016.68
581.94	47309.25
582.10	46974.55
582.26	47047.11
582.42	46909.02
582.58	47208.61
582.74	46862.21
582.90	46862.21
583.06	47072.85
583.22	47409.89
583.38	46911.36
583.54	46724.11
583.70	47168.82
583.86	47072.85
584.02	46487.72
584.18	46794.33
584.34	46773.27
584.50	47016.68
584.66	46642.20
584.82	46452.61
584.98	47381.80
585.14	47140.73
585.30	46890.29
585.46	46768.58
585.62	46913.70
585.78	46890.29
585.94	46501.76
586.10	46878.59
586.26	46796.67
586.42	47030.72
586.58	47363.08
586.74	47023.70
586.90	46880.93
587.06	47077.54
587.22	47232.01
587.38	46728.80
587.54	47009.66
587.70	47454.36
587.86	46960.51
588.02	46557.94
588.18	47014.34
588.34	46581.34
588.49	46335.59
588.65	46061.74
588.81	46667.94
588.97	46314.52
589.13	46335.59
589.29	46450.27
589.45	46358.99
589.61	46543.89
589.77	47402.87
