SpectraSuite Data File
++++++++++++++++++++++++++++++++++++
Date: Fri Oct 25 11:23:11 EDT 2013
User: price-jones
Dark Spectrum Present: No
Reference Spectrum Present: No
Number of Sampled Component Spectra: 1
Spectrometers: USB2+H05261
Integration Time (usec): 100000 (USB2+H05261)
Spectra Averaged: 1 (USB2+H05261)
Boxcar Smoothing: 0 (USB2+H05261)
Correct for Electrical Dark: No (USB2+H05261)
Strobe/Lamp Enabled: No (USB2+H05261)
Correct for Detector Non-linearity: No (USB2+H05261)
Correct for Stray Light: No (USB2+H05261)
Number of Pixels in Processed Spectrum: 2048
>>>>>Begin Processed Spectral Data<<<<<
365.73	140.43
365.92	140.43
366.12	140.43
366.32	203.63
366.52	149.79
366.72	124.05
366.91	124.05
367.11	56.17
367.31	98.30
367.51	161.50
367.70	107.66
367.90	117.03
368.10	98.30
368.30	72.56
368.49	110.01
368.69	198.95
368.89	203.63
369.09	166.18
369.28	180.22
369.48	175.54
369.68	191.92
369.87	175.54
370.07	170.86
370.27	248.10
370.47	311.29
370.66	653.01
370.86	629.60
371.06	617.90
371.25	727.91
371.45	575.77
371.65	674.07
371.84	690.46
372.04	671.73
372.24	744.29
372.44	758.33
372.63	678.76
372.83	770.04
373.03	807.48
373.22	791.10
373.42	800.46
373.62	786.42
373.81	758.33
374.01	758.33
374.21	861.32
374.40	816.85
374.60	837.91
374.79	849.61
374.99	903.45
375.19	835.57
375.38	847.27
375.58	877.70
375.78	908.13
375.97	866.00
376.17	840.25
376.37	842.59
376.56	858.98
376.76	861.32
376.95	875.36
377.15	971.32
377.35	903.45
377.54	884.72
377.74	922.17
377.93	805.14
378.13	894.08
378.33	887.06
378.52	961.96
378.72	980.68
378.91	992.39
379.11	926.85
379.31	873.02
379.50	924.51
379.70	978.34
379.89	938.55
380.09	1015.79
380.28	1004.09
380.48	1008.77
380.68	971.32
380.87	915.15
381.07	936.21
381.26	987.71
381.46	1006.43
381.65	1034.52
381.85	1027.50
382.04	1055.58
382.24	1060.26
382.43	999.41
382.63	1095.37
382.83	1167.93
383.02	1097.71
383.22	1100.05
383.41	1088.35
383.61	1151.54
383.80	1156.22
384.00	1083.67
384.19	1135.16
384.39	1107.07
384.58	1170.27
384.78	1046.22
384.97	1107.07
385.17	1172.61
385.36	1046.22
385.56	1188.99
385.75	1252.19
385.95	1214.74
386.14	1184.31
386.34	1247.51
386.53	1247.51
386.72	1240.48
386.92	1231.12
387.11	1200.69
387.31	1238.14
387.50	1252.19
387.70	1219.42
387.89	1235.80
388.09	1266.23
388.28	1238.14
388.48	1306.02
388.67	1378.58
388.86	1303.68
389.06	1352.83
389.25	1327.08
389.45	1362.19
389.64	1327.08
389.84	1383.26
390.03	1362.19
390.22	1369.21
390.42	1348.15
390.61	1556.46
390.81	1455.81
391.00	1453.47
391.19	1455.81
391.39	1394.96
391.58	1437.09
391.78	1497.94
391.97	1476.88
392.16	1495.60
392.36	1479.22
392.55	1469.86
392.75	1593.90
392.94	1537.73
393.13	1486.24
393.33	1577.52
393.52	1607.95
393.71	1558.80
393.91	1544.75
394.10	1631.35
394.29	1678.16
394.49	1540.07
394.68	1577.52
394.88	1664.12
395.07	1654.76
395.26	1699.23
395.46	1703.91
395.65	1743.70
395.84	1713.27
396.04	1732.00
396.23	1753.06
396.42	1743.70
396.62	1804.55
396.81	1680.50
397.00	1671.14
397.19	1757.74
397.39	1809.23
397.58	1771.79
397.77	1797.53
397.97	1825.62
398.16	1832.64
398.35	1886.47
398.55	1860.73
398.74	1837.32
398.93	1900.52
399.12	1954.35
399.32	1856.04
399.51	1916.90
399.70	1900.52
399.90	1959.03
400.09	1968.39
400.28	2001.16
400.47	2090.10
400.67	2097.12
400.86	2057.33
401.05	2076.06
401.24	2092.44
401.44	2359.26
401.63	2176.70
401.82	2104.14
402.01	2150.95
402.21	2162.66
402.40	2172.02
402.59	2148.61
402.78	2237.55
402.97	2218.83
403.17	2242.23
403.36	2275.00
403.55	2246.91
403.74	2324.15
403.93	2382.67
404.13	2321.81
404.32	2289.04
404.51	2445.86
404.70	2485.65
404.89	2382.67
405.09	2530.12
405.28	2490.33
405.47	2602.68
405.66	2464.58
405.85	2649.49
406.05	2553.52
406.24	2595.65
406.43	2675.23
406.62	2630.76
406.81	2679.91
407.00	2637.78
407.20	2609.70
407.39	2712.68
407.58	2768.85
407.77	2766.51
407.96	2712.68
408.15	2780.56
408.34	2698.64
408.54	2904.60
408.73	2913.97
408.92	2855.45
409.11	2855.45
409.30	3047.38
409.49	2946.73
409.68	2956.10
409.87	2920.99
410.07	3035.67
410.26	3096.53
410.45	2972.48
410.64	3068.44
410.83	3033.33
411.02	3028.65
411.21	3201.85
411.40	3159.72
411.59	3178.45
411.78	3253.34
411.98	3197.17
412.17	3386.76
412.36	3234.62
412.55	3433.57
412.74	3384.41
412.93	3433.57
413.12	3419.52
413.31	3485.06
413.50	3426.54
413.69	3492.08
413.88	3487.40
414.07	3705.07
414.26	3548.25
414.45	3658.26
414.64	3686.34
414.83	3705.07
415.02	3737.84
415.22	3962.53
415.41	3880.61
415.60	3957.85
415.79	3920.40
415.98	3983.59
416.17	4098.28
416.36	3913.38
416.55	4070.19
416.74	4107.64
416.93	4112.32
417.12	4070.19
417.31	4297.22
417.50	4269.14
417.69	4325.31
417.88	4395.53
418.07	4540.64
418.26	4404.89
418.45	4341.69
418.64	4528.94
418.83	4535.96
419.02	4533.62
419.21	4468.08
419.39	4561.70
419.58	4550.00
419.77	4423.61
419.96	4566.39
420.15	4648.30
420.34	4638.94
420.53	4758.31
420.72	4645.96
420.91	4772.35
421.10	4685.75
421.29	4823.84
421.48	4873.00
421.67	4571.07
421.86	5020.45
422.05	4901.08
422.24	4767.67
422.43	4994.70
422.61	5006.41
422.80	4936.19
422.99	4975.98
423.18	4943.21
423.37	4975.98
423.56	4954.91
423.75	4891.72
423.94	4901.08
424.13	4617.88
424.32	4898.74
424.50	4830.87
424.69	5165.56
424.88	5071.94
425.07	5025.13
425.26	4952.57
425.45	4903.42
425.64	4861.29
425.83	4901.08
426.01	5249.82
426.20	4966.62
426.39	5132.79
426.58	5041.51
426.77	5125.77
426.96	5207.69
427.15	5149.18
427.33	5282.59
427.52	5224.08
427.71	5261.52
427.90	5282.59
428.09	5401.96
428.28	5441.75
428.46	5203.01
428.65	5329.40
428.84	5565.79
429.03	5628.99
429.22	5483.88
429.40	5556.43
429.59	5547.07
429.78	5495.58
429.97	5359.83
430.16	5533.03
430.34	5617.29
430.53	5846.66
430.72	5731.97
430.91	5804.53
431.10	5671.12
431.28	5738.99
431.47	5837.30
431.66	5912.19
431.85	5731.97
432.03	6003.47
432.22	5959.00
432.41	6052.63
432.60	5959.00
432.79	5935.60
432.97	6069.01
433.16	6193.06
433.35	5970.71
433.54	6134.54
433.72	6228.17
433.91	6195.40
434.10	6143.91
434.28	6059.65
434.47	6284.34
434.66	6445.84
434.85	6104.12
435.03	6392.00
435.22	6293.70
435.41	6558.18
435.59	6551.16
435.78	6377.96
435.97	6516.05
436.16	6658.82
436.34	6450.52
436.53	6595.63
436.72	6651.80
436.90	6434.13
437.09	6834.36
437.28	6424.77
437.46	6431.79
437.65	6801.60
437.84	6750.10
438.02	6813.30
438.21	6857.77
438.40	6712.66
438.58	7007.56
438.77	6974.80
438.96	7089.48
439.14	7243.96
439.33	7246.30
439.52	7297.79
439.70	7328.22
439.89	7433.54
440.08	7545.89
440.26	7353.96
440.45	7253.32
440.63	7454.61
440.82	7658.23
441.01	7625.47
441.19	7779.94
441.38	7815.05
441.57	7723.77
441.75	7728.45
441.94	8210.60
442.12	7992.93
442.31	8084.21
442.50	8025.70
442.68	8191.88
442.87	7962.50
443.05	8067.83
443.24	8355.71
443.43	8372.10
443.61	8217.62
443.80	8397.84
443.98	8142.72
444.17	7908.67
444.35	8152.09
444.54	8369.76
444.73	8231.66
444.91	8454.02
445.10	8409.54
445.28	8297.20
445.47	8308.90
445.65	8404.86
445.84	8610.83
446.02	8702.11
446.21	8634.24
446.39	8582.74
446.58	8674.03
446.77	8704.45
446.95	8329.97
447.14	8430.61
447.32	8678.71
447.51	8573.38
447.69	8631.90
447.88	8603.81
448.06	8678.71
448.25	8596.79
448.43	8667.00
448.62	8629.56
448.80	8519.55
448.99	8723.18
449.17	8730.20
449.36	8685.73
449.54	9046.17
449.73	8842.54
449.91	9050.85
450.10	9188.94
450.28	9186.60
450.46	9224.05
450.65	9041.49
450.83	9170.22
451.02	9177.24
451.20	9174.90
451.39	9303.63
451.57	9193.62
451.76	9020.42
451.94	9270.86
452.13	9289.59
452.31	9408.95
452.49	9345.76
452.68	9584.49
452.86	9575.13
453.05	9598.54
453.23	9671.09
453.42	9415.98
453.60	9380.87
453.78	9776.42
453.97	9490.87
454.15	9596.20
454.34	9701.52
454.52	9762.37
454.70	9521.30
454.89	9769.40
455.07	9687.48
455.26	9839.61
455.44	10017.49
455.62	9900.47
455.81	9996.43
455.99	10143.88
456.17	10057.28
456.36	10277.29
456.54	10656.46
456.73	10303.04
456.91	10576.88
457.09	10281.97
457.28	10548.79
457.46	10499.64
457.64	10586.24
457.83	10452.83
458.01	10677.52
458.19	11014.56
458.38	10754.76
458.56	10972.43
458.74	10794.55
458.93	10696.25
459.11	11002.86
459.29	10864.77
459.48	11197.12
459.66	11002.86
459.84	11248.61
460.03	11140.95
460.21	11262.66
460.39	11110.52
460.57	11124.57
460.76	11220.53
460.94	11367.98
461.12	11246.27
461.31	11346.92
461.49	11346.92
461.67	11129.25
461.85	11632.46
462.04	11536.50
462.22	11625.44
462.40	11665.23
462.59	11503.73
462.77	11641.82
462.95	11969.50
463.13	11775.24
463.32	11669.91
463.50	11999.93
463.68	11939.07
463.86	11983.54
464.05	11999.93
464.23	11871.20
464.41	11967.16
464.59	11941.41
464.78	12453.99
464.96	12119.29
465.14	12011.63
465.32	12222.28
465.50	12086.53
465.69	12210.57
465.87	12451.65
466.05	12322.92
466.23	12528.89
466.41	12287.81
466.60	12765.28
466.78	12243.34
466.96	12283.13
467.14	12554.63
467.32	12519.53
467.51	12769.96
467.69	12278.45
467.87	12666.98
468.05	12711.45
468.23	12692.73
468.41	12746.56
468.60	12533.57
468.78	12767.62
468.96	12823.80
469.14	13067.21
469.32	12994.65
469.50	12718.47
469.69	13027.42
469.87	13291.90
470.05	13540.00
470.23	13151.47
470.41	13322.33
470.59	13439.36
470.77	13341.05
470.95	13469.78
471.14	13748.31
471.32	13163.17
471.50	13727.24
471.68	13731.92
471.86	13987.04
472.04	13706.18
472.22	14455.15
472.40	13855.97
472.58	14052.58
472.77	14155.56
472.95	14239.82
473.13	14977.09
473.31	14106.41
473.49	14728.99
473.67	14221.10
473.85	14452.81
474.03	14803.89
474.21	14787.50
474.39	14810.91
474.57	14661.12
474.75	15063.69
474.93	15103.48
475.12	15215.82
475.30	15187.74
475.48	15386.68
475.66	15452.22
475.84	15192.42
476.02	15536.48
476.20	15489.67
476.38	16233.96
476.56	16191.83
476.74	15840.75
476.92	15850.11
477.10	15915.64
477.28	16070.12
477.46	16514.82
477.64	16643.55
477.82	16833.13
478.00	17366.78
478.18	17139.74
478.36	17041.44
478.54	17315.28
478.72	17345.71
478.90	17640.62
479.08	17722.54
479.26	18010.42
479.44	18061.91
479.62	18108.72
479.80	18218.73
479.98	18370.86
480.16	18757.05
480.34	18452.78
480.52	19019.19
480.70	18768.76
480.88	18597.90
481.06	18991.11
481.24	18995.79
481.41	19545.81
481.59	19702.63
481.77	19564.54
481.95	19751.78
482.13	19880.51
482.31	20060.73
482.49	20645.87
482.67	20624.80
482.85	20734.81
483.03	20688.00
483.21	20800.34
483.39	21083.55
483.57	21195.89
483.74	21607.83
483.92	21441.65
484.10	21605.49
484.28	22059.55
484.46	22164.87
484.64	22637.66
484.82	22153.17
485.00	22728.94
485.18	22876.40
485.35	23243.86
485.53	23126.83
485.71	23527.06
485.89	24002.19
486.07	23576.22
486.25	23768.14
486.43	23807.93
486.61	24126.24
486.78	24339.23
486.96	24322.85
487.14	24673.93
487.32	24702.01
487.50	25275.45
487.68	25310.55
487.85	25385.45
488.03	25556.31
488.21	26059.52
488.39	26230.38
488.57	26022.08
488.75	26260.81
488.92	26665.72
489.10	26979.36
489.28	27489.59
489.46	27868.76
489.64	27150.21
489.81	28020.89
489.99	28175.37
490.17	28142.60
490.35	28219.84
490.53	28575.60
490.70	28741.78
490.88	28697.31
491.06	29289.46
491.24	29088.18
491.41	29696.72
491.59	29352.66
491.77	29621.82
491.95	29869.92
492.13	30267.81
492.30	30237.38
492.48	30356.75
492.66	30511.22
492.84	30752.30
493.01	31063.59
493.19	31087.00
493.37	31452.12
493.54	31637.02
493.72	31967.04
493.90	31630.00
494.08	32275.99
494.25	32407.06
494.43	32634.09
494.61	32596.64
494.79	32882.19
494.96	32959.42
495.14	33043.68
495.32	33401.79
495.49	33593.71
495.67	33589.03
495.85	33958.83
496.02	34309.91
496.20	34026.71
496.38	34347.36
496.55	34199.91
496.73	35211.02
496.91	35367.84
497.09	35349.11
497.26	35632.32
497.44	35328.05
497.62	35428.69
497.79	36301.71
497.97	35812.54
498.14	36428.10
498.32	36514.70
498.50	36545.12
498.67	37104.51
498.85	36786.20
499.03	37036.64
499.20	37277.71
499.38	37069.40
499.56	37333.89
499.73	37581.98
499.91	37736.46
500.08	37876.89
500.26	37923.70
500.44	38052.43
500.61	38265.42
500.79	38120.31
500.97	38562.67
501.14	39225.04
501.32	39388.88
501.49	38663.31
501.67	39103.33
501.84	39604.20
502.02	39505.90
502.20	39496.54
502.37	39770.38
502.55	39487.18
502.72	39969.33
502.90	39908.47
503.07	40147.21
503.25	39959.97
503.43	39838.26
503.60	40711.28
503.78	40982.78
503.95	40786.18
504.13	41268.33
504.30	41305.77
504.48	40715.96
504.65	41120.87
504.83	41432.16
505.01	42087.51
505.18	41661.54
505.36	41989.21
505.53	41670.90
505.71	41902.61
505.88	42534.56
506.06	41694.30
506.23	42607.11
506.41	42249.01
506.58	42784.99
506.76	42759.25
506.93	43093.94
507.11	42635.20
507.28	42988.62
507.46	43325.66
507.63	43484.81
507.81	43545.67
507.98	43337.36
508.16	43529.28
508.33	43611.20
508.50	43992.71
508.68	44163.57
508.85	44346.13
509.03	44863.39
509.20	44516.99
509.38	44973.39
509.55	44891.48
509.73	44622.31
509.90	45181.70
510.08	44708.91
510.25	45418.10
510.42	45043.61
510.60	45492.99
510.77	45560.87
510.95	45970.46
511.12	45544.48
511.30	45565.55
511.47	46277.07
511.64	45991.53
511.82	46478.36
511.99	46113.23
512.17	46836.46
512.34	46452.61
512.51	46557.94
512.69	46962.85
512.86	46513.47
513.04	47100.94
513.21	47323.29
513.38	47299.89
513.56	47281.16
513.73	47414.57
513.90	47583.09
514.08	47234.35
514.25	47620.54
514.43	47807.78
514.60	47800.76
514.77	47845.23
514.95	48360.15
515.12	48109.71
515.29	48243.12
515.47	48133.12
515.64	48807.19
515.81	48067.58
515.99	48559.09
516.16	49015.50
516.33	48596.54
516.51	49134.87
516.68	49382.96
516.85	49209.76
517.03	49382.96
517.20	49261.26
517.37	48992.09
517.54	49120.82
517.72	49380.62
517.89	49481.27
518.06	49764.47
518.24	49776.17
518.41	49612.34
518.58	50019.59
518.75	49497.65
518.93	50138.96
519.10	50183.43
519.27	50204.49
519.45	50129.59
519.62	50089.80
519.79	50464.29
519.96	50688.98
520.14	50370.67
520.31	50075.76
520.48	50939.42
520.65	50789.62
520.83	51065.81
521.00	51178.15
521.17	50953.46
521.34	51250.71
521.52	51199.22
521.69	51213.26
521.86	51543.28
522.03	51756.27
522.20	51571.36
522.38	51646.26
522.55	51700.09
522.72	51756.27
522.89	51906.06
523.07	52327.36
523.24	51765.63
523.41	52294.59
523.58	51774.99
523.75	51973.94
523.92	52006.70
524.10	52027.77
524.27	52383.53
524.44	52577.79
524.61	52528.64
524.78	52528.64
524.96	52376.51
525.13	52596.52
525.30	52938.24
525.47	53088.03
525.64	52882.06
525.81	53111.44
525.98	52938.24
526.16	53130.16
526.33	53233.14
526.50	53572.52
526.67	52849.30
526.84	53364.21
527.01	53191.01
527.18	53441.45
527.36	53312.72
527.53	53350.17
527.70	53942.33
527.87	53815.94
528.04	53506.99
528.21	53675.51
528.38	53614.65
528.55	53621.67
528.72	53790.19
528.89	53708.27
529.07	53652.10
529.24	53881.47
529.41	54270.00
529.58	54012.54
529.75	54148.29
529.92	53986.80
530.09	54035.95
530.26	54258.30
530.43	54312.13
530.60	54363.62
530.77	54281.70
530.94	54279.36
531.11	54277.02
531.28	54571.93
531.46	54749.81
531.63	54639.81
531.80	54698.32
531.97	54707.68
532.14	55033.02
532.31	54864.50
532.48	54948.76
532.65	55028.34
532.82	54782.58
532.99	55063.44
533.16	55096.21
533.33	55358.35
533.50	55173.45
533.67	54958.12
533.84	55157.06
534.01	55379.42
534.18	55154.72
534.35	55681.34
534.52	55505.80
534.69	55377.08
534.86	55454.31
535.03	55606.45
535.20	55777.31
535.37	55655.60
535.54	55938.80
535.71	55515.17
535.88	55732.84
536.05	55744.54
536.22	55877.95
536.38	56144.77
536.55	56018.38
536.72	56069.87
536.89	55805.39
537.06	55929.44
537.23	56165.84
537.40	56002.00
537.57	56161.15
537.74	56231.37
537.91	56334.35
538.08	56310.95
538.25	56081.58
538.42	56119.02
538.59	56816.50
538.75	56088.60
538.92	56484.15
539.09	56498.19
539.26	56484.15
539.43	56449.04
539.60	56460.74
539.77	56493.51
539.94	56781.40
540.11	56608.20
540.28	56561.39
540.44	56671.39
540.61	56750.97
540.78	56680.75
540.95	56502.87
541.12	56411.59
541.29	56952.26
541.46	57057.58
541.62	56662.03
541.79	56949.92
541.96	56743.95
542.13	56626.92
542.30	56898.42
542.47	57195.67
542.63	56975.66
542.80	57144.18
542.97	57261.21
543.14	57455.47
543.31	57595.90
543.48	57551.43
543.64	57780.81
543.81	57616.97
543.98	57621.65
544.15	57572.50
544.32	57794.85
544.48	58019.54
544.65	57703.57
544.82	57689.52
544.99	57696.55
545.16	57724.63
545.32	57696.55
545.49	57961.03
545.66	57986.77
545.83	58040.60
546.00	58040.60
546.16	57963.37
546.33	57963.37
546.50	57649.74
546.67	58047.63
546.83	57738.68
547.00	58085.07
547.17	58145.93
547.34	57865.06
547.50	58358.92
547.67	58372.96
547.84	58134.23
548.00	58398.71
548.17	58574.25
548.34	58429.13
548.51	58443.18
548.67	58337.85
548.84	58426.79
549.01	58515.73
549.18	58522.76
549.34	58628.08
549.51	58784.90
549.68	58550.84
549.84	58602.33
550.01	58939.37
550.18	58665.53
550.34	58834.05
550.51	58820.00
550.68	58710.00
550.84	58660.85
551.01	58815.32
551.18	58724.04
551.34	58852.77
551.51	58815.32
551.68	58955.75
551.84	58815.32
552.01	58698.30
552.18	59068.10
552.34	58979.16
552.51	58922.99
552.68	58749.79
552.84	58824.68
553.01	59248.32
553.18	59264.70
553.34	59276.41
553.51	58988.52
553.67	59114.91
553.84	59297.47
554.01	59264.70
554.17	59323.22
554.34	59363.01
554.51	59365.35
554.67	59243.64
554.84	59311.52
555.00	59348.96
555.17	59325.56
555.33	59370.03
555.50	59213.21
555.67	59358.33
555.83	59353.65
556.00	59405.14
556.16	59629.83
556.33	59407.48
556.50	59416.84
556.66	59622.81
556.83	59398.12
556.99	59662.60
557.16	59964.52
557.32	59707.07
557.49	59962.18
557.65	59508.12
557.82	59550.25
557.98	59538.55
558.15	59690.68
558.32	59840.48
558.48	59538.55
558.65	59915.37
558.81	59891.97
558.98	59997.29
559.14	59992.61
559.31	59807.71
559.47	60097.94
559.64	59920.05
559.80	59987.93
559.97	60104.96
560.13	59884.95
560.30	59931.76
560.46	59957.50
560.63	59990.27
560.79	60055.81
560.96	60224.32
561.12	60034.74
561.29	60093.25
561.45	60182.19
561.61	60133.04
561.78	60252.41
561.94	60079.21
562.11	59973.89
562.27	60198.58
562.44	59957.50
562.60	60336.67
562.77	60149.43
562.93	59765.58
563.10	60348.37
563.26	60090.91
563.42	60533.28
563.59	60308.58
563.75	60339.01
563.92	60397.52
564.08	60224.32
564.24	60537.96
564.41	60189.22
564.57	60346.03
564.74	60331.99
564.90	60739.24
565.07	60378.80
565.23	60420.93
565.39	60376.46
565.56	60411.57
565.72	60498.17
565.88	60521.57
566.05	60381.14
566.21	60404.55
566.38	60500.51
566.54	60404.55
566.70	60577.75
566.87	60694.77
567.03	60446.68
567.19	60610.51
567.36	60566.04
567.52	60491.15
567.68	60804.78
567.85	60528.59
568.01	60786.05
568.17	60449.02
568.34	60802.44
568.50	60636.26
568.66	60669.03
568.83	60640.94
568.99	60708.82
569.15	60725.20
569.32	60633.92
569.48	60659.66
569.64	60844.57
569.81	60748.60
569.97	60701.79
570.13	60802.44
570.30	60643.28
570.46	60795.42
570.62	60783.71
570.78	60725.20
570.95	60514.55
571.11	61006.06
571.27	60774.35
571.43	60800.10
571.60	60844.57
571.76	60676.05
571.92	60830.52
572.09	60802.44
572.25	60715.84
572.41	60910.10
572.57	60725.20
572.74	61244.80
572.90	60708.82
573.06	60874.99
573.22	60928.83
573.38	60910.10
573.55	60849.25
573.71	61090.32
573.87	60959.25
574.03	60739.24
574.20	61102.03
574.36	60825.84
574.52	60905.42
574.68	60987.34
574.84	61022.45
575.01	60917.12
575.17	60935.85
575.33	61050.53
575.49	60851.59
575.65	60877.33
575.82	61207.35
575.98	61073.94
576.14	61169.90
576.30	61045.85
576.46	61064.58
576.62	60926.49
576.79	60949.89
576.95	60973.30
577.11	61052.87
577.27	61043.51
577.43	61200.33
577.59	61031.81
577.75	61073.94
577.92	60903.08
578.08	61104.37
578.24	61137.13
578.40	61123.09
578.56	61146.50
578.72	61265.86
578.88	61317.35
579.04	61216.71
579.21	61221.39
579.37	61169.90
579.53	61329.06
579.69	60844.57
579.85	60804.78
580.01	61305.65
580.17	61041.17
580.33	61317.35
580.49	61183.94
580.65	61104.37
580.82	61102.03
580.98	61020.11
581.14	60910.10
581.30	60970.96
581.46	61024.79
581.62	61223.73
581.78	61174.58
581.94	61228.41
582.10	61240.12
582.26	61169.90
582.42	61071.60
582.58	61148.84
582.74	61064.58
582.90	61048.19
583.06	61141.81
583.22	61120.75
583.38	61172.24
583.54	61169.90
583.70	61282.25
583.86	61141.81
584.02	61190.97
584.18	61307.99
584.34	61102.03
584.50	61282.25
584.66	61209.69
584.82	61034.15
584.98	61368.85
585.14	61272.88
585.30	61230.75
585.46	61357.14
585.62	61310.33
585.78	61298.63
585.94	61123.09
586.10	61230.75
586.26	61303.31
586.42	61284.59
586.58	61392.25
586.74	61221.39
586.90	61350.12
587.06	61279.91
587.22	61352.46
587.38	61478.85
587.54	61591.20
587.70	61394.59
587.86	61183.94
588.02	61343.10
588.18	61481.19
588.34	61291.61
588.49	61427.36
