SpectraSuite Data File
++++++++++++++++++++++++++++++++++++
Date: Fri Oct 25 11:34:12 EDT 2013
User: price-jones
Dark Spectrum Present: No
Reference Spectrum Present: No
Number of Sampled Component Spectra: 1
Spectrometers: USB2+H05261
Integration Time (usec): 100000 (USB2+H05261)
Spectra Averaged: 1 (USB2+H05261)
Boxcar Smoothing: 0 (USB2+H05261)
Correct for Electrical Dark: No (USB2+H05261)
Strobe/Lamp Enabled: No (USB2+H05261)
Correct for Detector Non-linearity: No (USB2+H05261)
Correct for Stray Light: No (USB2+H05261)
Number of Pixels in Processed Spectrum: 2048
>>>>>Begin Processed Spectral Data<<<<<
365.73	320.65
365.92	320.65
366.12	320.65
366.32	170.86
366.52	203.63
366.72	142.77
366.91	161.50
367.11	210.65
367.31	166.18
367.51	205.97
367.70	168.52
367.90	191.92
368.10	121.71
368.30	170.86
368.49	145.11
368.69	142.77
368.89	187.24
369.09	217.67
369.28	203.63
369.48	147.45
369.68	208.31
369.87	262.14
370.07	308.95
370.27	297.25
370.47	308.95
370.66	463.43
370.86	458.74
371.06	559.39
371.25	545.34
371.45	561.73
371.65	664.71
371.84	491.51
372.04	517.26
372.24	535.98
372.44	554.71
372.63	599.18
372.83	564.07
373.03	575.77
373.22	678.76
373.42	629.60
373.62	568.75
373.81	606.20
374.01	631.94
374.21	641.31
374.40	582.79
374.60	648.33
374.79	699.82
374.99	650.67
375.19	613.22
375.38	671.73
375.58	608.54
375.78	690.46
375.97	723.23
376.17	657.69
376.37	645.99
376.56	695.14
376.76	737.27
376.95	664.71
377.15	695.14
377.35	690.46
377.54	753.65
377.74	627.26
377.93	669.39
378.13	657.69
378.33	741.95
378.52	655.35
378.72	685.78
378.91	758.33
379.11	699.82
379.31	706.84
379.50	720.88
379.70	725.57
379.89	711.52
380.09	718.54
380.28	739.61
380.48	709.18
380.68	702.16
380.87	748.97
381.07	802.80
381.26	779.40
381.46	763.01
381.65	718.54
381.85	807.48
382.04	777.06
382.24	763.01
382.43	739.61
382.63	737.27
382.83	781.74
383.02	779.40
383.22	746.63
383.41	802.80
383.61	800.46
383.80	821.53
384.00	732.59
384.19	819.19
384.39	884.72
384.58	805.14
384.78	781.74
384.97	929.19
385.17	830.89
385.36	863.66
385.56	833.23
385.75	753.65
385.95	805.14
386.14	898.77
386.34	861.32
386.53	821.53
386.72	847.27
386.92	833.23
387.11	854.30
387.31	957.28
387.50	842.59
387.70	823.87
387.89	849.61
388.09	898.77
388.28	898.77
388.48	917.49
388.67	882.38
388.86	901.11
389.06	922.17
389.25	917.49
389.45	957.28
389.64	821.53
389.84	905.79
390.03	966.64
390.22	966.64
390.42	985.37
390.61	905.79
390.81	1015.79
391.00	950.26
391.19	917.49
391.39	940.90
391.58	983.02
391.78	898.77
391.97	997.07
392.16	978.34
392.36	992.39
392.55	1020.47
392.75	1029.84
392.94	1004.09
393.13	1032.18
393.33	1076.65
393.52	1083.67
393.71	1069.62
393.91	1057.92
394.10	1074.31
394.29	1015.79
394.49	1050.90
394.68	1114.10
394.88	1109.41
395.07	1081.33
395.26	1029.84
395.46	1165.59
395.65	1123.46
395.84	1100.05
396.04	1226.44
396.23	1219.42
396.42	1196.01
396.62	1235.80
396.81	1163.25
397.00	1228.78
397.19	1205.38
397.39	1242.82
397.58	1299.00
397.77	1188.99
397.97	1252.19
398.16	1245.16
398.35	1273.25
398.55	1219.42
398.74	1252.19
398.93	1242.82
399.12	1315.38
399.32	1310.70
399.51	1324.74
399.70	1352.83
399.90	1259.21
400.09	1320.06
400.28	1380.92
400.47	1266.23
400.67	1439.43
400.86	1331.76
401.05	1401.98
401.24	1320.06
401.44	1420.71
401.63	1394.96
401.82	1469.86
402.01	1444.11
402.21	1409.00
402.40	1453.47
402.59	1369.21
402.78	1416.02
402.97	1348.15
403.17	1507.30
403.36	1582.20
403.55	1476.88
403.74	1540.07
403.93	1558.80
404.13	1537.73
404.32	1643.06
404.51	1621.99
404.70	1666.46
404.89	1561.14
405.09	1640.72
405.28	1577.52
405.47	1652.42
405.66	1680.50
405.85	1582.20
406.05	1598.59
406.24	1692.21
406.43	1764.76
406.62	1774.13
406.81	1771.79
407.00	1741.36
407.20	1708.59
407.39	1781.15
407.58	1834.98
407.77	1820.94
407.96	1832.64
408.15	1813.92
408.34	1739.02
408.54	1898.17
408.73	1860.73
408.92	1863.07
409.11	1902.86
409.30	2092.44
409.49	1944.99
409.68	1947.33
409.87	1891.15
410.07	1914.56
410.26	1937.96
410.45	2029.24
410.64	2026.90
410.83	2029.24
411.02	2111.16
411.21	2127.55
411.40	1970.73
411.59	2134.57
411.78	2143.93
411.98	2108.82
412.17	2230.53
412.36	2179.04
412.55	2249.25
412.74	2211.81
412.93	2214.15
413.12	2218.83
413.31	2356.92
413.50	2277.34
413.69	2399.05
413.88	2457.56
414.07	2466.92
414.26	2380.32
414.45	2434.16
414.64	2485.65
414.83	2469.27
415.02	2513.74
415.22	2534.80
415.41	2544.16
415.60	2504.37
415.79	2640.12
415.98	2738.43
416.17	2668.21
416.36	2635.44
416.55	2525.44
416.74	2715.02
416.93	2813.32
417.12	2686.94
417.31	2785.24
417.50	2782.90
417.69	2888.22
417.88	2864.82
418.07	2836.73
418.26	2909.29
418.45	2820.35
418.64	3030.99
418.83	2951.42
419.02	3045.04
419.21	3070.78
419.39	3197.17
419.58	3023.97
419.77	3073.12
419.96	3009.93
420.15	3103.55
420.34	3016.95
420.53	3035.67
420.72	3131.64
420.91	3108.23
421.10	3201.85
421.29	3253.34
421.48	3119.93
421.67	3129.30
421.86	3152.70
422.05	3232.28
422.24	3295.47
422.43	3293.13
422.61	3243.98
422.80	3279.09
422.99	3358.67
423.18	3204.19
423.37	3456.97
423.56	3300.16
423.75	3384.41
423.94	3281.43
424.13	3141.00
424.32	3251.00
424.50	3304.84
424.69	3412.50
424.88	3321.22
425.07	3283.77
425.26	3297.81
425.45	3356.33
425.64	3337.60
425.83	3421.86
426.01	3412.50
426.20	3435.91
426.39	3346.97
426.58	3314.20
426.77	3260.37
426.96	3386.76
427.15	3435.91
427.33	3426.54
427.52	3435.91
427.71	3625.49
427.90	3562.30
428.09	3655.92
428.28	3571.66
428.46	3660.60
428.65	3562.30
428.84	3719.11
429.03	3749.54
429.22	3602.08
429.40	3761.24
429.59	3609.11
429.78	3595.06
429.97	3665.28
430.16	3674.64
430.34	3782.31
430.53	3667.62
430.72	3761.24
430.91	3765.92
431.10	3700.39
431.28	3927.42
431.47	3836.14
431.66	3913.38
431.85	3789.33
432.03	3756.56
432.22	3999.98
432.41	4042.11
432.60	3983.59
432.79	4023.38
432.97	4053.81
433.16	4032.74
433.35	4011.68
433.54	4100.62
433.72	4149.77
433.91	4002.32
434.10	4194.24
434.28	4161.47
434.47	4070.19
434.66	4194.24
434.85	4133.39
435.03	4294.88
435.22	4360.42
435.41	4322.97
435.59	4121.68
435.78	4369.78
435.97	4285.52
436.16	4285.52
436.34	4327.65
436.53	4400.21
436.72	4468.08
436.90	4285.52
437.09	4432.97
437.28	4234.03
437.46	4301.90
437.65	4418.93
437.84	4638.94
438.02	4381.48
438.21	4585.11
438.40	4341.69
438.58	4683.41
438.77	4732.56
438.96	4648.30
439.14	4592.13
439.33	4765.33
439.52	4772.35
439.70	4814.48
439.89	4950.23
440.08	4863.63
440.26	4849.59
440.45	4727.88
440.63	5057.90
440.82	5069.60
441.01	4910.44
441.19	4936.19
441.38	5156.20
441.57	5167.90
441.75	5130.45
441.94	5132.79
442.12	5284.93
442.31	5270.89
442.50	5376.21
442.68	5235.78
442.87	5376.21
443.05	5313.02
443.24	5455.79
443.43	5345.78
443.61	5490.90
443.80	5467.49
443.98	5233.44
444.17	5146.84
444.35	5507.28
444.54	5596.22
444.73	5458.13
444.91	5516.64
445.10	5507.28
445.28	5572.82
445.47	5610.26
445.65	5479.19
445.84	5619.63
446.02	5671.12
446.21	5558.77
446.39	5399.62
446.58	5554.09
446.77	5530.69
446.95	5540.05
447.14	5561.11
447.32	5551.75
447.51	5621.97
447.69	5607.92
447.88	5596.22
448.06	5603.24
448.25	5633.67
448.43	5568.13
448.62	5762.40
448.80	5607.92
448.99	5673.46
449.17	5715.59
449.36	5722.61
449.54	5781.12
449.73	5996.45
449.91	5998.79
450.10	6003.47
450.28	5996.45
450.46	5863.04
450.65	5898.15
450.83	5984.75
451.02	5921.56
451.20	5881.77
451.39	5951.98
451.57	6047.94
451.76	5940.28
451.94	6136.88
452.13	6087.73
452.31	6043.26
452.49	6073.69
452.68	6279.66
452.86	6298.38
453.05	6076.03
453.23	6174.33
453.42	6087.73
453.60	6246.89
453.78	6195.40
453.97	6321.79
454.15	6317.11
454.34	6125.18
454.52	6207.10
454.70	6296.04
454.89	6368.60
455.07	6403.71
455.26	6347.53
455.44	6574.56
455.62	6483.28
455.81	6445.84
455.99	6684.57
456.17	6502.01
456.36	6665.85
456.54	6825.00
456.73	6630.74
456.91	6829.68
457.09	6906.92
457.28	6817.98
457.46	6579.25
457.64	6988.84
457.83	6794.58
458.01	6869.47
458.19	6848.41
458.38	6923.30
458.56	7005.22
458.74	6860.11
458.93	7080.12
459.11	7159.70
459.29	6960.75
459.48	7077.78
459.66	6995.86
459.84	7061.40
460.03	7302.47
460.21	7283.75
460.39	7262.68
460.57	7124.59
460.76	7330.56
460.94	7513.12
461.12	7344.60
461.31	7250.98
461.49	7330.56
461.67	7353.96
461.85	7557.59
462.04	7339.92
462.22	7920.37
462.40	7543.55
462.59	7571.63
462.77	7307.15
462.95	7552.91
463.13	7351.62
463.32	7573.97
463.50	7658.23
463.68	7672.28
463.86	7845.48
464.05	7716.75
464.23	7623.12
464.41	7632.49
464.59	7859.52
464.78	7922.71
464.96	7854.84
465.14	7749.51
465.32	7815.05
465.50	8030.38
465.69	7918.03
465.87	7880.58
466.05	7815.05
466.23	7978.89
466.41	7808.03
466.60	8119.32
466.78	7915.69
466.96	8039.74
467.14	7852.50
467.32	8236.35
467.51	8231.66
467.69	7763.56
467.87	8049.10
468.05	8238.69
468.23	8077.19
468.41	8154.43
468.60	8177.83
468.78	8283.16
468.96	8224.64
469.14	8444.65
469.32	8388.48
469.50	8266.77
469.69	8601.47
469.87	8531.25
470.05	8432.95
470.23	8702.11
470.41	8587.43
470.59	8617.85
470.77	8624.87
470.95	8798.07
471.14	8816.80
471.32	8430.61
471.50	8910.42
471.68	9015.74
471.86	8863.61
472.04	9008.72
472.22	8997.02
472.40	8877.65
472.58	9027.45
472.77	9188.94
472.95	9387.89
473.13	9408.95
473.31	9085.96
473.49	9247.46
473.67	9130.43
473.85	9277.88
474.03	9652.37
474.21	9408.95
474.39	9525.98
474.57	9701.52
474.75	9537.68
474.93	9624.28
475.12	9652.37
475.30	9867.70
475.48	9643.01
475.66	9664.07
475.84	9944.94
476.02	9717.90
476.20	9799.82
476.38	10204.74
476.56	10307.72
476.74	10459.85
476.92	10085.37
477.10	9998.77
477.28	10429.43
477.46	10408.36
477.64	10677.52
477.82	10764.12
478.00	11002.86
478.18	10808.59
478.36	10974.77
478.54	10874.13
478.72	11199.46
478.90	11229.89
479.08	11281.38
479.26	11501.39
479.44	11447.56
479.62	11403.09
479.80	11630.12
479.98	11679.27
480.16	11871.20
480.34	11885.24
480.52	12044.40
480.70	11915.67
480.88	11885.24
481.06	11936.73
481.24	12170.79
481.41	12355.69
481.59	12582.72
481.77	12559.31
481.95	12821.45
482.13	12674.00
482.31	12517.18
482.49	12830.82
482.67	12999.34
482.85	13034.44
483.03	13209.98
483.21	13205.30
483.39	13355.10
483.57	13373.82
483.74	13504.89
483.92	13462.76
484.10	13474.46
484.28	13921.51
484.46	14008.11
484.64	14293.65
484.82	14244.50
485.00	14204.71
485.18	14420.04
485.35	14640.05
485.53	14527.71
485.71	14792.19
485.89	15070.71
486.07	14843.68
486.25	15077.73
486.43	15393.70
486.61	15180.71
486.78	15431.15
486.96	15489.67
487.14	15683.93
487.32	15693.29
487.50	15807.98
487.68	15988.20
487.85	16306.51
488.03	16154.38
488.21	16418.86
488.39	16339.28
488.57	16582.70
488.75	16964.20
488.92	16723.13
489.10	17088.25
489.28	17020.38
489.46	17404.22
489.64	17334.01
489.81	17453.37
489.99	17647.64
490.17	17743.60
490.35	17809.14
490.53	17818.50
490.70	18162.56
490.88	18071.28
491.06	18565.13
491.24	18441.08
491.41	18668.11
491.59	18700.88
491.77	18698.54
491.95	18883.44
492.13	19033.24
492.30	19009.83
492.48	19243.88
492.66	19295.38
492.84	19407.72
493.01	19445.17
493.19	19220.48
493.37	19768.16
493.54	19726.04
493.72	19822.00
493.90	19786.89
494.08	20128.61
494.25	20421.17
494.43	20411.81
494.61	20695.02
494.79	20727.78
494.96	20776.94
495.14	20739.49
495.32	20980.56
495.49	21006.31
495.67	21436.97
495.85	21261.43
496.02	21811.45
496.20	21589.10
496.38	21764.64
496.55	21537.61
496.73	22391.91
496.91	22026.78
497.09	22333.39
497.26	22265.52
497.44	22368.50
497.62	22319.35
497.79	22874.06
497.97	22511.27
498.14	22958.31
498.32	22904.48
498.50	22761.71
498.67	23257.90
498.85	22965.34
499.03	23360.89
499.20	23550.47
499.38	23384.29
499.56	23529.41
499.73	23924.96
499.91	23711.97
500.08	24013.90
500.26	23803.25
500.44	24159.01
500.61	23910.91
500.79	23852.40
500.97	24357.96
501.14	24711.38
501.32	24795.64
501.49	24720.74
501.67	25214.59
501.84	24734.78
502.02	24863.51
502.20	24936.07
502.37	24940.75
502.55	24985.22
502.72	25359.70
502.90	25294.17
503.07	25207.57
503.25	25074.16
503.43	25088.20
503.60	25362.04
503.78	25575.03
503.95	25525.88
504.13	25762.28
504.30	25972.92
504.48	25853.56
504.65	26202.30
504.83	26424.65
505.01	26497.20
505.18	26363.79
505.36	26368.48
505.53	26649.34
505.71	26441.03
505.88	26986.38
506.06	26534.65
506.23	26740.62
506.41	26714.87
506.58	26974.67
506.76	27187.66
506.93	27328.10
507.11	27353.84
507.28	27454.48
507.46	27723.65
507.63	27754.07
507.81	27578.53
507.98	27744.71
508.16	27772.80
508.33	27456.82
508.50	27962.38
508.68	28194.09
508.85	28184.73
509.03	28048.98
509.20	28259.63
509.38	28444.53
509.55	28177.71
509.73	28552.20
509.90	28973.49
510.08	28460.91
510.25	28936.04
510.42	28580.28
510.60	29041.37
510.77	28507.72
510.95	29195.84
511.12	28767.52
511.30	29008.60
511.47	29165.42
511.64	29387.77
511.82	29553.94
511.99	29282.44
512.17	29659.27
512.34	29556.28
512.51	30036.09
512.69	29647.57
512.86	29734.17
513.04	29830.13
513.21	30478.46
513.38	30319.30
513.56	30274.83
513.73	30230.36
513.90	30015.03
514.08	30132.06
514.25	30291.21
514.43	30593.14
514.60	30927.84
514.77	30789.75
514.95	31000.40
515.12	30593.14
515.29	31140.83
515.47	31084.65
515.64	31400.63
515.81	31180.62
515.99	30892.73
516.16	31290.62
516.33	31316.37
516.51	31339.77
516.68	31419.35
516.85	31419.35
517.03	31686.17
517.20	31945.97
517.37	31522.34
517.54	31651.06
517.72	31934.27
517.89	31910.86
518.06	31976.40
518.24	31967.04
518.41	32006.83
518.58	32184.71
518.75	31929.59
518.93	32329.82
519.10	32526.42
519.27	32477.27
519.45	32554.51
519.62	32627.07
519.79	32800.27
519.96	32849.42
520.14	32769.84
520.31	32657.49
520.48	33165.39
520.65	32989.85
520.83	33689.67
521.00	33481.36
521.17	33500.09
521.34	33546.90
521.52	33729.46
521.69	33460.30
521.86	33631.16
522.03	33460.30
522.20	33963.51
522.38	34178.84
522.55	34195.23
522.72	33893.30
522.89	34043.09
523.07	34263.10
523.24	34370.77
523.41	34148.42
523.58	34040.75
523.75	34298.21
523.92	34321.62
524.10	34387.15
524.27	34948.88
524.44	34520.56
524.61	34754.61
524.78	34941.86
524.96	35042.50
525.13	35234.42
525.30	35206.34
525.47	34969.94
525.64	34897.39
525.81	35524.65
525.98	35438.05
526.16	35269.53
526.33	35211.02
526.50	35646.36
526.67	34937.18
526.84	35693.17
527.01	35868.71
527.18	35805.52
527.36	36098.08
527.53	35852.33
527.70	35859.35
527.87	35945.95
528.04	36034.89
528.21	36271.28
528.38	36112.13
528.55	36297.03
528.72	36201.07
528.89	36252.56
529.07	36189.36
529.24	36332.14
529.41	36458.52
529.58	36376.61
529.75	36357.88
529.92	36615.34
530.09	36505.34
530.26	36914.93
530.43	36786.20
530.60	36287.67
530.77	36935.99
530.94	37179.41
531.11	37036.64
531.28	37167.71
531.46	36802.58
531.63	36833.01
531.80	36980.46
531.97	37495.38
532.14	37319.84
532.31	37237.92
532.48	37455.59
532.65	37694.33
532.82	37457.93
532.99	37329.20
533.16	37233.24
533.33	37923.70
533.50	37738.80
533.67	37755.18
533.84	37490.70
534.01	37848.80
534.18	37649.86
534.35	38033.71
534.52	38293.50
534.69	38234.99
534.86	38195.20
535.03	38169.46
535.20	38473.73
535.37	38447.98
535.54	38457.34
535.71	38337.98
535.88	38653.95
536.05	38419.89
536.22	38639.90
536.38	38792.04
536.55	38637.56
536.72	38555.64
536.89	38700.76
537.06	38663.31
537.23	39302.28
537.40	38824.81
537.57	38302.87
537.74	38916.09
537.91	38962.90
538.08	39187.59
538.25	38742.89
538.42	39014.39
538.59	39519.95
538.75	38808.42
538.92	39651.02
539.09	39512.92
539.26	39192.27
539.43	39461.43
539.60	39328.02
539.77	39562.08
539.94	39800.81
540.11	39777.40
540.28	39309.30
540.44	39681.44
540.61	39288.23
540.78	39934.22
540.95	39571.44
541.12	39505.90
541.29	39335.04
541.46	40098.06
541.62	39945.92
541.79	40072.31
541.96	39730.59
542.13	39882.73
542.30	39936.56
542.47	40032.52
542.63	40493.61
542.80	40135.51
542.97	40304.02
543.14	40814.26
543.31	40556.80
543.48	40442.12
543.64	41170.02
543.81	41139.60
543.98	41031.93
544.15	40842.35
544.32	41125.55
544.48	41146.62
544.65	41067.04
544.82	41076.40
544.99	40816.60
545.16	41413.44
545.32	41148.96
545.49	41322.16
545.66	41366.63
545.83	41518.76
546.00	41361.95
546.16	41785.58
546.33	41303.43
546.50	41088.10
546.67	41904.95
546.83	41331.52
547.00	41537.49
547.17	41357.27
547.34	41764.52
547.50	41780.90
547.67	42302.84
547.84	42057.09
548.00	41890.91
548.17	42284.12
548.34	42106.24
548.51	42120.28
548.67	42302.84
548.84	42054.75
549.01	42293.48
549.18	42192.84
549.34	42611.79
549.51	42199.86
549.68	42576.69
549.84	42316.89
550.01	42609.45
550.18	41954.10
550.34	42595.41
550.51	42501.79
550.68	42234.97
550.84	41654.51
551.01	42604.77
551.18	42508.81
551.34	42990.96
551.51	42752.23
551.68	42529.87
551.84	42417.53
552.01	42717.12
552.18	42632.86
552.34	42504.13
552.51	43115.01
552.68	42707.76
552.84	42679.67
553.01	43262.46
553.18	42677.33
553.34	43449.70
553.51	42866.91
553.67	42810.74
553.84	43377.15
554.01	43601.84
554.17	42944.15
554.34	42941.81
554.51	43391.19
554.67	43515.24
554.84	43386.51
555.00	43243.74
555.17	43079.90
555.33	43761.00
555.50	43309.27
555.67	43313.95
555.83	43468.43
556.00	43641.63
556.16	43756.32
556.33	44098.03
556.50	43299.91
556.66	43402.89
556.83	43210.97
556.99	44126.12
557.16	44074.63
557.32	43690.78
557.49	44191.65
557.65	43807.81
557.82	43849.94
557.98	43988.03
558.15	44158.89
558.32	43824.19
558.48	43922.49
558.65	43833.55
558.81	44102.71
558.98	44046.54
559.14	43957.60
559.31	44512.31
559.47	43683.76
559.64	44364.85
559.80	43753.97
559.97	44116.76
560.13	43859.30
560.30	43662.69
560.46	44191.65
560.63	44619.97
560.79	45024.89
560.96	44765.09
561.12	44538.05
561.29	44734.66
561.45	44619.97
561.61	44282.94
561.78	44376.56
561.94	44463.16
562.11	44493.58
562.27	44655.08
562.44	44083.99
562.60	44320.38
562.77	44739.34
562.93	44783.81
563.10	44847.00
563.26	44575.50
563.42	45092.76
563.59	44685.51
563.75	44329.75
563.92	44783.81
564.08	44683.17
564.24	45184.04
564.41	44870.41
564.57	44610.61
564.74	44989.78
564.90	45057.65
565.07	44355.49
565.23	44854.03
565.39	44783.81
565.56	45062.33
565.72	45050.63
565.88	45074.04
566.05	45043.61
566.21	45013.18
566.38	44692.53
566.54	45272.98
566.70	45308.09
566.87	45071.70
567.03	45146.59
567.19	45104.46
567.36	45127.87
567.52	45368.94
567.68	45235.53
567.85	45261.28
568.01	45322.13
568.17	45085.74
568.34	45614.70
568.50	45268.30
568.66	45038.93
568.83	45193.40
568.99	45336.18
569.15	45177.02
569.32	44879.77
569.48	45198.09
569.64	45682.58
569.81	45511.72
569.97	45216.81
570.13	45539.80
570.30	45062.33
570.46	45563.21
570.62	45354.90
570.78	45502.35
570.95	45329.16
571.11	45659.17
571.27	45397.03
571.43	45385.33
571.60	45490.65
571.76	45020.20
571.92	45298.73
572.09	45476.61
572.25	45565.55
572.41	45191.06
572.57	45731.73
572.74	45818.33
572.90	45069.36
573.06	45567.89
573.22	45839.39
573.38	45942.38
573.55	45720.02
573.71	45785.56
573.87	46019.61
574.03	45612.36
574.20	45542.14
574.36	45961.10
574.52	45827.69
574.68	45862.80
574.84	45549.17
575.01	46340.27
575.17	45818.33
575.33	45720.02
575.49	45855.78
575.65	45883.86
575.82	46492.40
575.98	45771.52
576.14	46358.99
576.30	46101.53
576.46	45631.08
576.62	45642.79
576.79	46136.64
576.95	45567.89
577.11	45659.17
577.27	45621.72
577.43	45811.31
577.59	46127.28
577.75	45911.95
577.92	45364.26
578.08	46003.23
578.24	45553.85
578.40	46239.62
578.56	46183.45
578.72	46356.65
578.88	46014.93
579.04	46162.39
579.21	45610.02
579.37	45940.04
579.53	46017.27
579.69	46005.57
579.85	46263.03
580.01	45862.80
580.17	46120.26
580.33	46174.09
580.49	46003.23
580.65	46281.75
580.82	45815.99
580.98	45675.55
581.14	45691.94
581.30	45846.41
581.46	45708.32
581.62	45837.05
581.78	46281.75
581.94	46178.77
582.10	45937.69
582.26	46113.23
582.42	45968.12
582.58	46286.43
582.74	46057.06
582.90	45968.12
583.06	46330.90
583.22	45930.67
583.38	45785.56
583.54	45928.33
583.70	46295.80
583.86	46363.67
584.02	45720.02
584.18	46422.19
584.34	46160.05
584.50	46588.36
584.66	46632.83
584.82	46284.09
584.98	46546.23
585.14	46284.09
585.30	45940.04
585.46	46068.76
585.62	46197.49
585.78	46267.71
585.94	46040.68
586.10	45982.16
586.26	45865.14
586.42	46300.48
586.58	46417.50
586.74	46000.89
586.90	45998.55
587.06	46136.64
587.22	46216.22
587.38	46094.51
587.54	46080.47
587.70	46122.60
587.86	46691.35
588.02	46232.60
588.18	46188.13
588.34	46188.13
588.49	46267.71
588.65	46059.40
588.81	46197.49
588.97	46286.43
589.13	46181.11
589.29	46127.28
589.45	46450.27
589.61	46759.22
589.77	46536.87
589.93	46394.10
590.08	46586.02
