SpectraSuite Data File
++++++++++++++++++++++++++++++++++++
Date: Fri Oct 25 11:34:38 EDT 2013
User: price-jones
Dark Spectrum Present: No
Reference Spectrum Present: No
Number of Sampled Component Spectra: 1
Spectrometers: USB2+H05261
Integration Time (usec): 100000 (USB2+H05261)
Spectra Averaged: 1 (USB2+H05261)
Boxcar Smoothing: 0 (USB2+H05261)
Correct for Electrical Dark: No (USB2+H05261)
Strobe/Lamp Enabled: No (USB2+H05261)
Correct for Detector Non-linearity: No (USB2+H05261)
Correct for Stray Light: No (USB2+H05261)
Number of Pixels in Processed Spectrum: 2048
>>>>>Begin Processed Spectral Data<<<<<
365.73	248.10
365.92	248.10
366.12	248.10
366.32	252.78
366.52	133.41
366.72	245.76
366.91	142.77
367.11	212.99
367.31	166.18
367.51	124.05
367.70	152.13
367.90	154.48
368.10	217.67
368.30	138.09
368.49	140.43
368.69	154.48
368.89	166.18
369.09	147.45
369.28	236.39
369.48	271.50
369.68	138.09
369.87	220.01
370.07	257.46
370.27	322.99
370.47	358.10
370.66	489.17
370.86	517.26
371.06	512.58
371.25	575.77
371.45	486.83
371.65	585.13
371.84	538.32
372.04	561.73
372.24	606.20
372.44	596.84
372.63	531.30
372.83	559.39
373.03	582.79
373.22	524.28
373.42	582.79
373.62	662.37
373.81	608.54
374.01	678.76
374.21	683.44
374.40	582.79
374.60	645.99
374.79	631.94
374.99	608.54
375.19	594.50
375.38	615.56
375.58	582.79
375.78	667.05
375.97	636.63
376.17	758.33
376.37	631.94
376.56	697.48
376.76	638.97
376.95	723.23
377.15	648.33
377.35	641.31
377.54	699.82
377.74	744.29
377.93	685.78
378.13	683.44
378.33	702.16
378.52	566.41
378.72	697.48
378.91	667.05
379.11	634.29
379.31	702.16
379.50	664.71
379.70	653.01
379.89	748.97
380.09	711.52
380.28	739.61
380.48	718.54
380.68	645.99
380.87	730.25
381.07	739.61
381.26	720.88
381.46	767.70
381.65	795.78
381.85	760.67
382.04	748.97
382.24	737.27
382.43	730.25
382.63	765.36
382.83	763.01
383.02	816.85
383.22	795.78
383.41	798.12
383.61	784.08
383.80	788.76
384.00	751.31
384.19	786.42
384.39	802.80
384.58	823.87
384.78	854.30
384.97	816.85
385.17	826.21
385.36	800.46
385.56	814.51
385.75	800.46
385.95	746.63
386.14	837.91
386.34	868.34
386.53	868.34
386.72	844.93
386.92	830.89
387.11	847.27
387.31	870.68
387.50	765.36
387.70	877.70
387.89	866.00
388.09	856.64
388.28	828.55
388.48	912.81
388.67	898.77
388.86	851.96
389.06	887.06
389.25	873.02
389.45	931.53
389.64	940.90
389.84	870.68
390.03	929.19
390.22	1055.58
390.42	945.58
390.61	912.81
390.81	961.96
391.00	976.00
391.19	940.90
391.39	929.19
391.58	882.38
391.78	1039.20
391.97	968.98
392.16	973.66
392.36	1109.41
392.55	990.05
392.75	957.28
392.94	1020.47
393.13	999.41
393.33	1081.33
393.52	1036.86
393.71	1032.18
393.91	1055.58
394.10	987.71
394.29	1071.97
394.49	1083.67
394.68	1006.43
394.88	1062.60
395.07	1160.91
395.26	1095.37
395.46	1083.67
395.65	1135.16
395.84	1090.69
396.04	1214.74
396.23	1116.44
396.42	1247.51
396.62	1188.99
396.81	1188.99
397.00	1240.48
397.19	1177.29
397.39	1109.41
397.58	1186.65
397.77	1219.42
397.97	1203.04
398.16	1280.27
398.35	1205.38
398.55	1203.04
398.74	1191.33
398.93	1235.80
399.12	1268.57
399.32	1306.02
399.51	1266.23
399.70	1301.34
399.90	1284.95
400.09	1359.85
400.28	1289.64
400.47	1341.13
400.67	1273.25
400.86	1376.24
401.05	1324.74
401.24	1425.39
401.44	1401.98
401.63	1425.39
401.82	1336.45
402.01	1362.19
402.21	1483.90
402.40	1366.87
402.59	1446.45
402.78	1448.79
402.97	1504.96
403.17	1521.35
403.36	1488.58
403.55	1537.73
403.74	1519.01
403.93	1507.30
404.13	1554.12
404.32	1467.52
404.51	1614.97
404.70	1652.42
404.89	1561.14
405.09	1465.18
405.28	1600.93
405.47	1593.90
405.66	1643.06
405.85	1633.69
406.05	1675.82
406.24	1713.27
406.43	1668.80
406.62	1703.91
406.81	1764.76
407.00	1654.76
407.20	1614.97
407.39	1753.06
407.58	1788.17
407.77	1746.04
407.96	1853.70
408.15	1823.28
408.34	1804.55
408.54	1872.43
408.73	1872.43
408.92	1820.94
409.11	1858.39
409.30	1914.56
409.49	1830.30
409.68	1947.33
409.87	1956.69
410.07	1998.82
410.26	2054.99
410.45	2038.61
410.64	2031.58
410.83	1902.86
411.02	2031.58
411.21	2050.31
411.40	2026.90
411.59	2115.84
411.78	1996.48
411.98	1996.48
412.17	2134.57
412.36	2139.25
412.55	2286.70
412.74	2232.87
412.93	2209.47
413.12	2136.91
413.31	2317.13
413.50	2298.41
413.69	2335.85
413.88	2385.01
414.07	2324.15
414.26	2441.18
414.45	2333.51
414.64	2424.80
414.83	2480.97
415.02	2487.99
415.22	2595.65
415.41	2473.95
415.60	2523.10
415.79	2576.93
415.98	2473.95
416.17	2586.29
416.36	2658.85
416.55	2654.17
416.74	2677.57
416.93	2665.87
417.12	2633.10
417.31	2654.17
417.50	2715.02
417.69	2958.44
417.88	2785.24
418.07	2771.19
418.26	2888.22
418.45	2874.18
418.64	2988.86
418.83	3075.46
419.02	2883.54
419.21	2949.08
419.39	2885.88
419.58	3000.57
419.77	2932.69
419.96	2829.71
420.15	3087.17
420.34	3056.74
420.53	3075.46
420.72	3038.02
420.91	3101.21
421.10	3122.27
421.29	3126.96
421.48	3150.36
421.67	3122.27
421.86	3129.30
422.05	3176.11
422.24	3136.32
422.43	3173.77
422.61	3155.04
422.80	3300.16
422.99	3234.62
423.18	3239.30
423.37	3349.31
423.56	3304.84
423.75	3124.62
423.94	3269.73
424.13	3038.02
424.32	3028.65
424.50	3288.45
424.69	3243.98
424.88	3126.96
425.07	3241.64
425.26	3148.02
425.45	3342.28
425.64	3332.92
425.83	3337.60
426.01	3372.71
426.20	3417.18
426.39	3241.64
426.58	3283.77
426.77	3304.84
426.96	3323.56
427.15	3487.40
427.33	3412.50
427.52	3442.93
427.71	3447.61
427.90	3353.99
428.09	3536.55
428.28	3510.80
428.46	3595.06
428.65	3604.42
428.84	3623.15
429.03	3653.58
429.22	3506.12
429.40	3585.70
429.59	3559.95
429.78	3515.48
429.97	3520.17
430.16	3599.74
430.34	3562.30
430.53	3733.15
430.72	3702.73
430.91	3878.27
431.10	3747.20
431.28	3770.60
431.47	3763.58
431.66	3726.13
431.85	3763.58
432.03	3899.33
432.22	3981.25
432.41	4009.34
432.60	3812.73
432.79	4014.02
432.97	3866.56
433.16	3875.93
433.35	3824.44
433.54	4021.04
433.72	3997.64
433.91	4032.74
434.10	4014.02
434.28	3922.74
434.47	4070.19
434.66	4046.79
434.85	4166.15
435.03	4067.85
435.22	4072.53
435.41	4297.22
435.59	4301.90
435.78	4358.08
435.97	4217.65
436.16	4311.27
436.34	4079.55
436.53	4208.28
436.72	4348.72
436.90	4236.37
437.09	4372.12
437.28	4180.20
437.46	4322.97
437.65	4374.46
437.84	4470.42
438.02	4355.74
438.21	4372.12
438.40	4369.78
438.58	4538.30
438.77	4552.34
438.96	4578.09
439.14	4503.19
439.33	4580.43
439.52	4608.51
439.70	4706.82
439.89	4662.35
440.08	4755.97
440.26	4891.72
440.45	4699.80
440.63	4777.03
440.82	4973.64
441.01	4873.00
441.19	4954.91
441.38	4943.21
441.57	5020.45
441.75	5041.51
441.94	5093.01
442.12	4999.38
442.31	5228.76
442.50	5151.52
442.68	5315.36
442.87	5057.90
443.05	5170.24
443.24	5376.21
443.43	5270.89
443.61	5214.71
443.80	5280.25
443.98	5289.61
444.17	4966.62
444.35	5158.54
444.54	5301.31
444.73	5350.46
444.91	5359.83
445.10	5526.00
445.28	5350.46
445.47	5373.87
445.65	5331.74
445.84	5460.47
446.02	5460.47
446.21	5357.49
446.39	5472.17
446.58	5291.95
446.77	5535.37
446.95	5364.51
447.14	5261.52
447.32	5434.72
447.51	5490.90
447.69	5479.19
447.88	5526.00
448.06	5586.86
448.25	5444.09
448.43	5493.24
448.62	5624.31
448.80	5483.88
448.99	5596.22
449.17	5661.76
449.36	5626.65
449.54	5706.23
449.73	5760.06
449.91	5851.34
450.10	5832.62
450.28	5902.83
450.46	5729.63
450.65	5783.46
450.83	5767.08
451.02	5856.02
451.20	5879.43
451.39	5858.36
451.57	5881.77
451.76	5734.31
451.94	5795.17
452.13	5900.49
452.31	6019.86
452.49	5813.89
452.68	6143.91
452.86	6019.86
453.05	6132.20
453.23	6087.73
453.42	6106.46
453.60	5989.43
453.78	6012.84
453.97	6078.37
454.15	6143.91
454.34	6225.82
454.52	6221.14
454.70	6260.93
454.89	6258.59
455.07	6251.57
455.26	6328.81
455.44	6384.98
455.62	6469.24
455.81	6338.17
455.99	6478.60
456.17	6511.37
456.36	6415.41
456.54	6516.05
456.73	6523.07
456.91	6656.48
457.09	6700.95
457.28	6799.26
457.46	6565.20
457.64	6743.08
457.83	6754.79
458.01	6593.29
458.19	6909.26
458.38	6698.61
458.56	6810.96
458.74	6820.32
458.93	6822.66
459.11	6958.41
459.29	6869.47
459.48	6918.62
459.66	6764.15
459.84	6984.16
460.03	7183.10
460.21	7101.19
460.39	7063.74
460.57	7171.40
460.76	7150.34
460.94	7089.48
461.12	7040.33
461.31	7045.01
461.49	7094.16
461.67	7248.64
461.85	7309.49
462.04	7187.79
462.22	7592.70
462.40	7281.41
462.59	7211.19
462.77	7290.77
462.95	7342.26
463.13	7356.30
463.32	7389.07
463.50	7403.11
463.68	7440.56
463.86	7618.44
464.05	7578.65
464.23	7494.40
464.41	7590.36
464.59	7295.45
464.78	7817.39
464.96	7573.97
465.14	7531.84
465.32	7810.37
465.50	7599.72
465.69	7723.77
465.87	7740.15
466.05	7763.56
466.23	7901.65
466.41	7625.47
466.60	7822.07
466.78	7651.21
466.96	7709.72
467.14	7756.54
467.32	7798.66
467.51	7901.65
467.69	7524.82
467.87	7698.02
468.05	7873.56
468.23	8086.55
468.41	7882.92
468.60	7978.89
468.78	8030.38
468.96	8002.29
469.14	8264.43
469.32	8503.17
469.50	8159.11
469.69	8266.77
469.87	8241.03
470.05	8243.37
470.23	8308.90
470.41	8299.54
470.59	8528.91
470.77	8278.47
470.95	8449.33
471.14	8657.64
471.32	8329.97
471.50	8430.61
471.68	8648.28
471.86	8542.96
472.04	8709.13
472.22	8762.97
472.40	8472.74
472.58	8716.16
472.77	8744.24
472.95	8901.06
473.13	9305.97
473.31	8912.76
473.49	8978.30
473.67	8950.21
473.85	8872.97
474.03	9160.86
474.21	9221.71
474.39	9123.41
474.57	9156.18
474.75	9320.01
474.93	9399.59
475.12	9488.53
475.30	9563.43
475.48	9589.17
475.66	9659.39
475.84	9633.64
476.02	9640.67
476.20	9755.35
476.38	9966.00
476.56	9832.59
476.74	9975.36
476.92	10157.92
477.10	9926.21
477.28	10043.24
477.46	10214.10
477.64	10410.70
477.82	10389.64
478.00	10581.56
478.18	10464.54
478.36	10527.73
478.54	10773.49
478.72	10565.18
478.90	10977.11
479.08	10993.50
479.26	11087.12
479.44	10963.07
479.62	11204.14
479.80	11204.14
479.98	11218.19
480.16	11449.90
480.34	11566.93
480.52	11861.84
480.70	11719.06
480.88	11492.03
481.06	11983.54
481.24	11960.14
481.41	12152.06
481.59	12191.85
481.77	12285.47
481.95	12231.64
482.13	12248.02
482.31	12126.32
482.49	12657.62
482.67	12636.55
482.85	13034.44
483.03	12882.31
483.21	13163.17
483.39	13069.55
483.57	13170.19
483.74	13144.45
483.92	13453.40
484.10	13132.75
484.28	13465.10
484.46	13694.47
484.64	13837.25
484.82	13886.40
485.00	13811.50
485.18	14307.69
485.35	14286.63
485.53	14075.98
485.71	14436.42
485.89	14429.40
486.07	14480.89
486.25	14757.08
486.43	14731.33
486.61	14579.20
486.78	15105.82
486.96	15332.85
487.14	15318.81
487.32	15522.43
487.50	15543.50
487.68	15613.71
487.85	15864.15
488.03	15915.64
488.21	16084.16
488.39	16023.31
488.57	16306.51
488.75	16201.19
488.92	16367.37
489.10	16882.28
489.28	16697.38
489.46	16847.18
489.64	16762.92
489.81	17172.51
489.99	17069.53
490.17	17060.16
490.35	17441.67
490.53	17605.51
490.70	17839.56
490.88	17624.23
491.06	17944.89
491.24	18225.75
491.41	18059.57
491.59	18185.96
491.77	18015.10
491.95	18382.57
492.13	18721.95
492.30	18625.98
492.48	18693.86
492.66	18773.44
492.84	19000.47
493.01	19091.75
493.19	19222.82
493.37	19278.99
493.54	19119.84
493.72	19398.36
493.90	19255.59
494.08	19814.98
494.25	19744.76
494.43	19800.93
494.61	20009.24
494.79	20128.61
494.96	20102.86
495.14	20088.82
495.32	20428.20
495.49	20446.92
495.67	20690.34
495.85	20891.62
496.02	21221.64
496.20	21362.07
496.38	21158.44
496.55	21139.72
496.73	21703.79
496.91	21724.85
497.09	21490.80
497.26	21979.97
497.44	21708.47
497.62	21841.88
497.79	22003.38
497.97	22057.21
498.14	22394.25
498.32	22199.98
498.50	22403.61
498.67	22567.45
498.85	22560.42
499.03	22806.18
499.20	23037.89
499.38	23012.15
499.56	23150.24
499.73	23075.34
499.91	23269.61
500.08	23241.52
500.26	23232.16
500.44	23442.81
500.61	23344.50
500.79	23552.81
500.97	23929.64
501.14	23896.87
501.32	24088.79
501.49	24037.30
501.67	24149.65
501.84	24109.86
502.02	24173.05
502.20	24388.38
502.37	24250.29
502.55	24182.42
502.72	24538.18
502.90	24634.14
503.07	24627.12
503.25	25015.65
503.43	24393.06
503.60	24533.50
503.78	24905.64
503.95	25116.29
504.13	25095.22
504.30	25745.89
504.48	24739.46
504.65	25425.24
504.83	25556.31
505.01	25750.57
505.18	25773.98
505.36	26307.62
505.53	25844.20
505.71	25907.39
505.88	25755.26
506.06	26001.01
506.23	26295.92
506.41	26223.36
506.58	26012.71
506.76	26405.92
506.93	26445.71
507.11	26822.54
507.28	26459.76
507.46	26820.20
507.63	26593.17
507.81	26986.38
507.98	26817.86
508.16	27047.23
508.33	27243.84
508.50	27145.53
508.68	27262.56
508.85	27440.44
509.03	27246.18
509.20	27550.45
509.38	27461.51
509.55	27531.72
509.73	27536.40
509.90	27690.88
510.08	27761.09
510.25	28144.94
510.42	28074.73
510.60	28268.99
510.77	28521.77
510.95	28690.29
511.12	28301.76
511.30	28393.04
511.47	28783.91
511.64	28486.66
511.82	28987.53
511.99	28613.05
512.17	28718.37
512.34	28858.81
512.51	29294.14
512.69	28982.85
512.86	29034.35
513.04	29579.69
513.21	29078.82
513.38	29369.04
513.56	29486.07
513.73	29567.99
513.90	29467.34
514.08	29249.67
514.25	29989.28
514.43	30000.99
514.60	29680.33
514.77	29926.09
514.95	30153.12
515.12	30003.33
515.29	30101.63
515.47	30305.26
515.64	30506.54
515.81	30103.97
515.99	30630.59
516.16	30932.52
516.33	30426.96
516.51	30841.24
516.68	30710.17
516.85	30689.10
517.03	31264.88
517.20	30991.03
517.37	30792.09
517.54	30951.24
517.72	31051.89
517.89	31470.84
518.06	31337.43
518.24	31192.32
518.41	31379.56
518.58	31117.42
518.75	31651.06
518.93	31700.22
519.10	31140.83
519.27	31395.95
519.45	31620.64
519.62	32123.85
519.79	31880.44
519.96	32004.49
520.14	32100.45
520.31	31948.31
520.48	32226.84
520.65	31756.39
520.83	32767.50
521.00	32741.75
521.17	32617.71
521.34	32690.26
521.52	32470.25
521.69	32741.75
521.86	32676.22
522.03	32753.46
522.20	32886.87
522.38	32957.08
522.55	32982.83
522.72	33141.99
522.89	33125.60
523.07	33563.28
523.24	32725.37
523.41	33415.83
523.58	33184.12
523.75	33659.24
523.92	33326.89
524.10	33474.34
524.27	34209.27
524.44	33844.15
524.61	34022.03
524.78	34148.42
524.96	34143.74
525.13	34162.46
525.30	34249.06
525.47	34256.08
525.64	34546.31
525.81	34225.65
525.98	34440.98
526.16	34431.62
526.33	34579.07
526.50	34735.89
526.67	34274.80
526.84	34679.72
527.01	34824.83
527.18	34419.92
527.36	34904.41
527.53	34913.77
527.70	35419.33
527.87	35416.99
528.04	35070.59
528.21	35152.51
528.38	35063.57
528.55	35613.59
528.72	35204.00
528.89	35374.86
529.07	35543.38
529.24	35274.21
529.41	35915.52
529.58	35613.59
529.75	35236.77
529.92	35442.73
530.09	35885.09
530.26	35964.67
530.43	35864.03
530.60	35473.16
530.77	36002.12
530.94	35503.59
531.11	35681.47
531.28	35927.22
531.46	36034.89
531.63	36180.00
531.80	36088.72
531.97	36062.97
532.14	36374.27
532.31	36238.51
532.48	36629.38
532.65	36914.93
532.82	36243.20
532.99	36285.33
533.16	36498.31
533.33	36615.34
533.50	36552.15
533.67	36542.78
533.84	36428.10
534.01	36247.88
534.18	36893.86
534.35	37439.21
534.52	37453.25
534.69	37624.11
534.86	37013.23
535.03	37298.78
535.20	37371.33
535.37	37069.40
535.54	37291.76
535.71	37516.45
535.88	37518.79
536.05	37530.49
536.22	37839.44
536.38	37727.10
536.55	37523.47
536.72	37839.44
536.89	37305.80
537.06	37935.40
537.23	37682.62
537.40	37202.82
537.57	37635.81
537.74	37778.59
537.91	37993.92
538.08	37439.21
538.25	37837.10
538.42	38309.89
538.59	38534.58
538.75	38422.23
538.92	38403.51
539.09	38593.09
539.26	38433.94
539.43	38040.73
539.60	38220.95
539.77	38642.24
539.94	39072.90
540.11	38888.00
540.28	38646.93
540.44	38600.12
540.61	38190.52
540.78	38293.50
540.95	38738.21
541.12	38511.17
541.29	38836.51
541.46	38595.43
541.62	38873.96
541.79	39105.67
541.96	38614.16
542.13	39012.05
542.30	38951.20
542.47	39260.15
542.63	39278.87
542.80	39557.39
542.97	39370.15
543.14	39854.64
543.31	39531.65
543.48	39599.52
543.64	40067.63
543.81	40009.12
543.98	39812.51
544.15	40048.91
544.32	40203.38
544.48	40308.71
544.65	40037.20
544.82	40006.78
544.99	39803.15
545.16	39943.58
545.32	40086.36
545.49	40472.54
545.66	40779.15
545.83	40320.41
546.00	40542.76
546.16	40346.15
546.33	40163.59
546.50	40215.08
546.67	40601.27
546.83	40076.99
547.00	40444.46
547.17	40060.61
547.34	40612.98
547.50	40751.07
547.67	40870.43
547.84	40573.19
548.00	40950.01
548.17	40875.12
548.34	40870.43
548.51	40975.76
548.67	40889.16
548.84	40615.32
549.01	41043.63
549.18	40708.94
549.34	41406.42
549.51	41170.02
549.68	41184.07
549.84	41085.76
550.01	41713.03
550.18	41141.94
550.34	41406.42
550.51	41797.29
550.68	41361.95
550.84	40772.13
551.01	41778.56
551.18	41296.41
551.34	41500.04
551.51	41518.76
551.68	41273.01
551.84	41148.96
552.01	41684.94
552.18	41897.93
552.34	41481.31
552.51	41474.29
552.68	41743.45
552.84	41551.53
553.01	41691.96
553.18	41811.33
553.34	42263.05
553.51	41827.71
553.67	41818.35
553.84	42429.23
554.01	42188.16
554.17	41902.61
554.34	42429.23
554.51	42071.13
554.67	42494.77
554.84	42569.66
555.00	42204.54
555.17	42621.16
555.33	42450.30
555.50	42396.46
555.67	42384.76
555.83	42223.26
556.00	42462.00
556.16	43030.75
556.33	42731.16
556.50	42934.79
556.66	42452.64
556.83	42583.71
556.99	42845.85
557.16	43072.88
557.32	42890.32
557.49	42974.58
557.65	42368.38
557.82	42440.93
557.98	42595.41
558.15	42850.53
558.32	42986.28
558.48	43054.15
558.65	42784.99
558.81	42829.46
558.98	42745.20
559.14	43138.41
559.31	42834.14
559.47	42462.00
559.64	43021.39
559.80	43033.09
559.97	43000.32
560.13	42960.53
560.30	43271.82
560.46	43009.68
560.63	43225.01
560.79	43363.11
560.96	43878.02
561.12	43482.47
561.29	43241.40
561.45	43243.74
561.61	43278.85
561.78	43594.82
561.94	43463.75
562.11	43290.55
562.27	43234.38
562.44	43220.33
562.60	43751.63
562.77	43459.07
562.93	43456.73
563.10	44027.82
563.26	43421.62
563.42	43976.33
563.59	43899.09
563.75	43377.15
563.92	43765.68
564.08	43388.85
564.24	43739.93
564.41	43646.31
564.57	43548.01
564.74	43856.96
564.90	43763.34
565.07	43555.03
565.23	43405.23
565.39	43866.32
565.56	43622.90
565.72	43681.42
565.88	44041.86
566.05	43892.07
566.21	43665.03
566.38	43903.77
566.54	43728.23
566.70	44306.34
566.87	43969.30
567.03	44018.46
567.19	44016.11
567.36	44306.34
567.52	44046.54
567.68	44175.27
567.85	44247.83
568.01	44226.76
568.17	43725.89
568.34	44404.64
568.50	44105.06
568.66	43669.72
568.83	44254.85
568.99	43964.62
569.15	44154.21
569.32	44315.70
569.48	44109.74
569.64	44500.61
569.81	44219.74
569.97	44676.15
570.13	44839.98
570.30	44320.38
570.46	44208.04
570.62	44304.00
570.78	44399.96
570.95	44273.57
571.11	44238.47
571.27	44224.42
571.43	44294.64
571.60	44402.30
571.76	44423.37
571.92	44315.70
572.09	44304.00
572.25	44175.27
572.41	44243.15
572.57	44584.86
572.74	44666.78
572.90	44268.89
573.06	44594.23
573.22	44678.49
573.38	44481.88
573.55	44491.24
573.71	44982.76
573.87	44914.88
574.03	44320.38
574.20	44715.93
574.36	45216.81
574.52	44996.80
574.68	44727.64
574.84	44713.59
575.01	44622.31
575.17	44786.15
575.33	44626.99
575.49	44605.93
575.65	44552.10
575.82	44439.75
575.98	44329.75
576.14	45186.38
576.30	45181.70
576.46	44708.91
576.62	44601.25
576.79	44863.39
576.95	44727.64
577.11	44409.32
577.27	44804.88
577.43	44898.50
577.59	44535.71
577.75	44650.40
577.92	44186.97
578.08	44832.96
578.24	44774.45
578.40	44938.29
578.56	44985.10
578.72	44762.75
578.88	44940.63
579.04	44999.14
579.21	45024.89
579.37	44680.83
579.53	44928.92
579.69	44692.53
579.85	44666.78
580.01	44872.75
580.17	44725.30
580.33	45427.46
580.49	44891.48
580.65	45059.99
580.82	44811.90
580.98	44823.60
581.14	44547.42
581.30	45048.29
581.46	45326.81
581.62	45177.02
581.78	44722.96
581.94	44945.31
582.10	45027.23
582.26	45202.77
582.42	44744.02
582.58	44875.09
582.74	45186.38
582.90	44877.43
583.06	44975.73
583.22	45052.97
583.38	44978.07
583.54	44961.69
583.70	45097.44
583.86	45181.70
584.02	45081.06
584.18	45305.75
584.34	45392.35
584.50	45331.50
584.66	45326.81
584.82	44790.83
584.98	45628.74
585.14	45055.31
585.30	44652.74
585.46	44870.41
585.62	45006.16
585.78	44797.85
585.94	44741.68
586.10	45067.02
586.26	44800.19
586.42	45055.31
586.58	44687.85
586.74	45188.72
586.90	44847.00
587.06	45130.21
587.22	45118.51
587.38	45160.64
587.54	45488.31
587.70	45289.37
587.86	45263.62
588.02	44790.83
588.18	45270.64
588.34	45364.26
588.49	45249.58
588.65	44928.92
588.81	45071.70
588.97	45441.50
589.13	45125.53
589.29	45109.14
589.45	45097.44
589.61	45450.86
589.77	45397.03
589.93	45738.75
590.08	45572.57
590.24	45764.49
