SpectraSuite Data File
++++++++++++++++++++++++++++++++++++
Date: Fri Oct 25 11:23:18 EDT 2013
User: price-jones
Dark Spectrum Present: No
Reference Spectrum Present: No
Number of Sampled Component Spectra: 1
Spectrometers: USB2+H05261
Integration Time (usec): 100000 (USB2+H05261)
Spectra Averaged: 1 (USB2+H05261)
Boxcar Smoothing: 0 (USB2+H05261)
Correct for Electrical Dark: No (USB2+H05261)
Strobe/Lamp Enabled: No (USB2+H05261)
Correct for Detector Non-linearity: No (USB2+H05261)
Correct for Stray Light: No (USB2+H05261)
Number of Pixels in Processed Spectrum: 2048
>>>>>Begin Processed Spectral Data<<<<<
365.73	159.16
365.92	159.16
366.12	159.16
366.32	166.18
366.52	119.37
366.72	182.56
366.91	121.71
367.11	180.22
367.31	79.58
367.51	79.58
367.70	58.51
367.90	133.41
368.10	51.49
368.30	138.09
368.49	119.37
368.69	93.62
368.89	140.43
369.09	133.41
369.28	177.88
369.48	154.48
369.68	205.97
369.87	187.24
370.07	138.09
370.27	149.79
370.47	311.29
370.66	561.73
370.86	653.01
371.06	606.20
371.25	606.20
371.45	638.97
371.65	683.44
371.84	664.71
372.04	737.27
372.24	737.27
372.44	645.99
372.63	793.44
372.83	697.48
373.03	727.91
373.22	809.83
373.42	755.99
373.62	730.25
373.81	800.46
374.01	889.40
374.21	835.57
374.40	809.83
374.60	798.12
374.79	798.12
374.99	816.85
375.19	809.83
375.38	826.21
375.58	734.93
375.78	873.02
375.97	866.00
376.17	922.17
376.37	933.87
376.56	819.19
376.76	861.32
376.95	837.91
377.15	901.11
377.35	851.96
377.54	880.04
377.74	870.68
377.93	910.47
378.13	924.51
378.33	954.94
378.52	992.39
378.72	940.90
378.91	887.06
379.11	961.96
379.31	940.90
379.50	896.43
379.70	1004.09
379.89	968.98
380.09	992.39
380.28	1029.84
380.48	1018.13
380.68	987.71
380.87	912.81
381.07	1025.15
381.26	990.05
381.46	1078.99
381.65	997.07
381.85	990.05
382.04	1025.15
382.24	1095.37
382.43	1036.86
382.63	1036.86
382.83	1100.05
383.02	1114.10
383.22	1158.57
383.41	1064.94
383.61	1083.67
383.80	1090.69
384.00	1069.62
384.19	1116.44
384.39	1100.05
384.58	1198.35
384.78	1121.12
384.97	1167.93
385.17	1149.20
385.36	1104.73
385.56	1238.14
385.75	1170.27
385.95	1158.57
386.14	1102.39
386.34	1163.25
386.53	1207.72
386.72	1156.22
386.92	1261.55
387.11	1144.52
387.31	1179.63
387.50	1310.70
387.70	1245.16
387.89	1231.12
388.09	1270.91
388.28	1373.89
388.48	1282.61
388.67	1242.82
388.86	1280.27
389.06	1270.91
389.25	1380.92
389.45	1366.87
389.64	1390.28
389.84	1425.39
390.03	1495.60
390.22	1406.66
390.42	1324.74
390.61	1280.27
390.81	1359.85
391.00	1425.39
391.19	1331.76
391.39	1390.28
391.58	1533.05
391.78	1542.41
391.97	1411.34
392.16	1362.19
392.36	1551.78
392.55	1530.71
392.75	1547.09
392.94	1533.05
393.13	1504.96
393.33	1500.28
393.52	1568.16
393.71	1617.31
393.91	1554.12
394.10	1593.90
394.29	1675.82
394.49	1657.10
394.68	1629.01
394.88	1643.06
395.07	1654.76
395.26	1748.38
395.46	1724.97
395.65	1746.04
395.84	1769.44
396.04	1797.53
396.23	1832.64
396.42	1764.76
396.62	1792.85
396.81	1832.64
397.00	1769.44
397.19	1853.70
397.39	1792.85
397.58	1809.23
397.77	1863.07
397.97	1863.07
398.16	1781.15
398.35	1842.00
398.55	1872.43
398.74	1949.67
398.93	1912.22
399.12	1909.88
399.32	1909.88
399.51	1860.73
399.70	1884.13
399.90	1937.96
400.09	2012.86
400.28	1980.09
400.47	1982.43
400.67	2010.52
400.86	2073.71
401.05	2122.87
401.24	2120.53
401.44	2157.97
401.63	2258.62
401.82	2125.21
402.01	2186.06
402.21	2073.71
402.40	2223.51
402.59	2228.19
402.78	2289.04
402.97	2265.64
403.17	2244.57
403.36	2284.36
403.55	2373.30
403.74	2331.17
403.93	2401.39
404.13	2438.84
404.32	2396.71
404.51	2408.41
404.70	2429.48
404.89	2462.24
405.09	2581.61
405.28	2448.20
405.47	2424.80
405.66	2473.95
405.85	2394.37
406.05	2469.27
406.24	2490.33
406.43	2581.61
406.62	2593.31
406.81	2595.65
407.00	2478.63
407.20	2569.91
407.39	2747.79
407.58	2743.11
407.77	2715.02
407.96	2771.19
408.15	2808.64
408.34	2724.38
408.54	2876.52
408.73	2822.69
408.92	2803.96
409.11	2937.37
409.30	2981.84
409.49	2939.71
409.68	3000.57
409.87	2988.86
410.07	3042.70
410.26	3040.36
410.45	2977.16
410.64	3040.36
410.83	3082.49
411.02	3143.34
411.21	3157.38
411.40	3155.04
411.59	3260.37
411.78	3164.40
411.98	3211.22
412.17	3382.07
412.36	3431.23
412.55	3337.60
412.74	3473.36
412.93	3536.55
413.12	3375.05
413.31	3595.06
413.50	3440.59
413.69	3524.85
413.88	3634.85
414.07	3672.30
414.26	3604.42
414.45	3611.45
414.64	3719.11
414.83	3777.62
415.02	3819.75
415.22	3901.67
415.41	3801.03
415.60	4014.02
415.79	3953.16
415.98	3997.64
416.17	4007.00
416.36	4079.55
416.55	4014.02
416.74	4252.75
416.93	3941.46
417.12	4077.21
417.31	4224.67
417.50	4201.26
417.69	4329.99
417.88	4362.76
418.07	4311.27
418.26	4372.12
418.45	4191.90
418.64	4414.25
418.83	4451.70
419.02	4386.16
419.21	4657.67
419.39	4589.79
419.58	4645.96
419.77	4463.40
419.96	4631.92
420.15	4678.73
420.34	4610.86
420.53	4713.84
420.72	4737.24
420.91	4699.80
421.10	4716.18
421.29	4994.70
421.48	4741.93
421.67	4882.36
421.86	4760.65
422.05	4884.70
422.24	4933.85
422.43	4971.30
422.61	4837.89
422.80	5142.16
422.99	5078.96
423.18	4971.30
423.37	5027.47
423.56	5025.13
423.75	5078.96
423.94	4849.59
424.13	4547.66
424.32	4875.34
424.50	5172.58
424.69	5100.03
424.88	5263.86
425.07	4905.76
425.26	5039.17
425.45	4985.34
425.64	4990.02
425.83	5158.54
426.01	5102.37
426.20	5078.96
426.39	5055.56
426.58	5121.09
426.77	5163.22
426.96	5284.93
427.15	5130.45
427.33	5336.42
427.52	5193.65
427.71	5296.63
427.90	5266.21
428.09	5399.62
428.28	5397.28
428.46	5390.25
428.65	5261.52
428.84	5544.73
429.03	5530.69
429.22	5408.98
429.40	5444.09
429.59	5404.30
429.78	5373.87
429.97	5228.76
430.16	5416.00
430.34	5633.67
430.53	5694.52
430.72	5703.89
430.91	5769.42
431.10	5748.36
431.28	5682.82
431.47	5776.44
431.66	5954.32
431.85	5846.66
432.03	5968.37
432.22	6024.54
432.41	6026.88
432.60	6071.35
432.79	5930.92
432.97	6090.07
433.16	6125.18
433.35	6064.33
433.54	6171.99
433.72	6127.52
433.91	6181.35
434.10	6270.30
434.28	6249.23
434.47	6253.91
434.66	6326.47
434.85	6289.02
435.03	6349.87
435.22	6258.59
435.41	6604.99
435.59	6539.46
435.78	6403.71
435.97	6509.03
436.16	6523.07
436.34	6459.88
436.53	6614.35
436.72	6841.39
436.90	6562.86
437.09	6642.44
437.28	6640.10
437.46	6483.28
437.65	6825.00
437.84	6817.98
438.02	6843.73
438.21	7002.88
438.40	6757.13
438.58	6920.96
438.77	7061.40
438.96	7054.37
439.14	7110.55
439.33	7204.17
439.52	7309.49
439.70	7201.83
439.89	7250.98
440.08	7529.50
440.26	7536.52
440.45	7424.18
440.63	7449.93
440.82	7637.17
441.01	7548.23
441.19	7719.09
441.38	7777.60
441.57	7702.70
441.75	7784.62
441.94	8142.72
442.12	8142.72
442.31	8187.19
442.50	7880.58
442.68	8133.36
442.87	8028.04
443.05	8088.89
443.24	8203.58
443.43	8257.41
443.61	8301.88
443.80	8664.66
443.98	8301.88
444.17	7772.92
444.35	8365.07
444.54	8404.86
444.73	8542.96
444.91	8397.84
445.10	8571.04
445.28	8517.21
445.47	8472.74
445.65	8489.12
445.84	8620.19
446.02	8898.72
446.21	8622.53
446.39	8617.85
446.58	8547.64
446.77	8446.99
446.95	8390.82
447.14	8695.09
447.32	8650.62
447.51	8561.68
447.69	8603.81
447.88	8755.94
448.06	8510.19
448.25	8774.67
448.43	8681.05
448.62	8554.66
448.80	8521.89
448.99	8683.39
449.17	8903.40
449.36	8924.46
449.54	8987.66
449.73	8997.02
449.91	9088.30
450.10	8936.17
450.28	9212.35
450.46	9252.14
450.65	9158.52
450.83	9336.40
451.02	9301.29
451.20	9125.75
451.39	9125.75
451.57	9273.20
451.76	9048.51
451.94	9441.72
452.13	9441.72
452.31	9266.18
452.49	9291.93
452.68	9561.09
452.86	9392.57
453.05	9568.11
453.23	9544.70
453.42	9472.15
453.60	9540.02
453.78	9671.09
453.97	9638.33
454.15	9430.02
454.34	9687.48
454.52	9666.41
454.70	9643.01
454.89	9900.47
455.07	9848.97
455.26	10090.05
455.44	10181.33
455.62	10113.45
455.81	9921.53
455.99	10090.05
456.17	10113.45
456.36	10186.01
456.54	10260.91
456.73	10270.27
456.91	10391.98
457.09	10401.34
457.28	10733.70
457.46	10525.39
457.64	10602.63
457.83	10541.77
458.01	10621.35
458.19	10876.47
458.38	10452.83
458.56	10738.38
458.74	10843.70
458.93	10780.51
459.11	10878.81
459.29	10916.26
459.48	11075.42
459.66	10712.63
459.84	11103.50
460.03	11379.68
460.21	11049.67
460.39	11164.36
460.57	11000.52
460.76	11262.66
460.94	11393.73
461.12	11482.67
461.31	11311.81
461.49	11435.86
461.67	11229.89
461.85	11499.05
462.04	11452.24
462.22	11805.66
462.40	11726.08
462.59	11576.29
462.77	11789.28
462.95	11920.35
463.13	11798.64
463.32	11747.15
463.50	11978.86
463.68	12023.33
463.86	11955.46
464.05	11754.17
464.23	11861.84
464.41	11885.24
464.59	11922.69
464.78	12299.52
464.96	12035.03
465.14	12138.02
465.32	12304.20
465.50	12241.00
465.69	12311.22
465.87	12156.74
466.05	12233.98
466.23	12273.77
466.41	12264.41
466.60	12571.02
466.78	12081.85
466.96	12285.47
467.14	12351.01
467.32	12603.78
467.51	12746.56
467.69	12332.28
467.87	12566.34
468.05	12854.22
468.23	12746.56
468.41	12521.87
468.60	12664.64
468.78	12875.29
468.96	12690.38
469.14	12629.53
469.32	12987.63
469.50	12856.56
469.69	12959.55
469.87	13144.45
470.05	13135.09
470.23	13427.65
470.41	13268.50
470.59	13458.08
470.77	13369.14
470.95	13455.74
471.14	13617.24
471.32	13437.02
471.50	13886.40
471.68	13851.29
471.86	13982.36
472.04	13750.65
472.22	14129.81
472.40	13781.07
472.58	14183.65
472.77	14197.69
472.95	14434.08
473.13	14923.26
473.31	14258.54
473.49	14202.37
473.67	14310.04
473.85	14635.37
474.03	14888.15
474.21	14841.34
474.39	14771.12
474.57	14813.25
474.75	14881.13
474.93	15112.84
475.12	14991.13
475.30	15620.74
475.48	15187.74
475.66	15503.71
475.84	15389.02
476.02	15733.08
476.20	15632.44
476.38	15807.98
476.56	16142.67
476.74	16180.12
476.92	16105.23
477.10	16044.37
477.28	16215.23
477.46	16475.03
477.64	16711.42
477.82	16936.12
478.00	17315.28
478.18	16950.16
478.36	17282.52
478.54	17678.07
478.72	17247.41
478.90	17593.81
479.08	17511.89
479.26	18139.15
479.44	17947.23
479.62	17825.52
479.80	18321.71
479.98	18588.53
480.16	18899.83
480.34	18565.13
480.52	18951.32
480.70	18820.25
480.88	18567.47
481.06	18810.89
481.24	19178.35
481.41	19264.95
481.59	19414.74
481.77	19726.04
481.95	19733.06
482.13	19672.20
482.31	19639.44
482.49	20210.53
482.67	20072.43
482.85	20842.47
483.03	20664.59
483.21	21032.05
483.39	21266.11
483.57	21025.03
483.74	21298.88
483.92	21694.43
484.10	21436.97
484.28	21769.32
484.46	22317.01
484.64	22623.62
484.82	22132.11
485.00	22719.58
485.18	22490.21
485.35	23019.17
485.53	22963.00
485.71	23271.95
485.89	23756.44
486.07	23789.20
486.25	23702.61
486.43	23803.25
486.61	24318.17
486.78	24362.64
486.96	24212.84
487.14	24830.74
487.32	25273.10
487.50	25425.24
487.68	25450.99
487.85	25663.97
488.03	25816.11
488.21	25860.58
488.39	26256.13
488.57	26174.21
488.75	26331.03
488.92	27028.51
489.10	27026.17
489.28	27248.52
489.46	27351.50
489.64	27393.63
489.81	28393.04
489.99	27695.56
490.17	28070.04
490.35	28432.83
490.53	28615.39
490.70	29104.56
490.88	28634.11
491.06	29469.69
491.24	29083.50
491.41	29347.98
491.59	29795.02
491.77	29338.62
491.95	30162.48
492.13	30258.45
492.30	30228.02
492.48	30525.27
492.66	31087.00
492.84	31044.87
493.01	31016.78
493.19	30850.60
493.37	31292.96
493.54	31578.51
493.72	31658.09
493.90	31761.07
494.08	32271.31
494.25	32402.38
494.43	32357.91
494.61	32737.07
494.79	32987.51
494.96	32671.54
495.14	32968.79
495.32	33282.42
495.49	33486.04
495.67	33633.50
495.85	34176.50
496.02	34164.80
496.20	34206.93
496.38	34368.43
496.55	34625.89
496.73	35187.61
496.91	35075.27
497.09	35346.77
497.26	35318.68
497.44	35239.11
497.62	35445.07
497.79	35735.30
497.97	35882.75
498.14	36062.97
498.32	36147.23
498.50	37376.01
498.67	37062.38
498.85	36868.12
499.03	37223.88
499.20	36961.74
499.38	37308.14
499.56	36931.31
499.73	37631.13
499.91	37886.25
500.08	37790.29
500.26	37392.40
500.44	38087.54
500.61	38162.43
500.79	37940.08
500.97	38263.08
501.14	39529.31
501.32	39100.99
501.49	39159.50
501.67	39047.16
501.84	39342.06
502.02	39068.22
502.20	39702.51
502.37	39700.17
502.55	39775.06
502.72	40172.96
502.90	40158.91
503.07	40037.20
503.25	40467.86
503.43	40201.04
503.60	40460.84
503.78	40446.80
503.95	40582.55
504.13	41165.34
504.30	41186.41
504.48	40891.50
504.65	40989.80
504.83	41455.57
505.01	42096.88
505.18	41734.09
505.36	42085.17
505.53	41170.02
505.71	41720.05
505.88	41832.39
506.06	41776.22
506.23	42499.45
506.41	42052.41
506.58	42787.33
506.76	42548.60
506.93	43185.22
507.11	42660.94
507.28	43058.84
507.46	43360.76
507.63	43494.18
507.81	43845.26
507.98	43372.47
508.16	43377.15
508.33	43929.51
508.50	43770.36
508.68	43941.22
508.85	43903.77
509.03	44385.92
509.20	44500.61
509.38	44498.26
509.55	44811.90
509.73	44870.41
509.90	45153.62
510.08	45017.86
510.25	45031.91
510.42	45425.12
510.60	45284.68
510.77	45652.15
510.95	46061.74
511.12	45762.15
511.30	45876.84
511.47	45626.40
511.64	46080.47
511.82	46506.44
511.99	46134.30
512.17	46597.73
512.34	46490.06
512.51	47313.93
512.69	46777.95
512.86	46770.93
513.04	46979.23
513.21	46948.81
513.38	47430.96
513.56	47437.98
513.73	47435.64
513.90	47599.47
514.08	47327.97
514.25	48172.91
514.43	47421.59
514.60	48004.39
514.77	47585.43
514.95	47821.83
515.12	47992.68
515.29	47819.49
515.47	48311.00
515.64	48381.21
515.81	48172.91
515.99	48619.95
516.16	49010.82
516.33	48418.66
516.51	49195.72
516.68	48655.06
516.85	48825.92
517.03	49127.84
517.20	49207.42
517.37	49263.60
517.54	49340.83
517.72	49298.70
517.89	49507.01
518.06	49371.26
518.24	49822.98
518.41	49509.35
518.58	49764.47
518.75	49684.89
518.93	50014.91
519.10	49750.43
519.27	50281.73
519.45	50199.81
519.62	50422.16
519.79	50494.72
519.96	50408.12
520.14	50876.22
520.31	50185.77
520.48	50742.81
520.65	50866.86
520.83	50906.65
521.00	51267.09
521.17	50976.87
521.34	51063.47
521.52	51103.26
521.69	51124.32
521.86	51131.34
522.03	51688.39
522.20	51819.46
522.38	51819.46
522.55	51646.26
522.72	51452.00
522.89	51887.34
523.07	52086.28
523.24	51707.12
523.41	51529.23
523.58	51917.76
523.75	52439.70
523.92	52179.90
524.10	52222.03
524.27	52432.68
524.44	52336.72
524.61	52521.62
524.78	52650.35
524.96	52629.29
525.13	52978.03
525.30	52692.48
525.47	52865.68
525.64	52903.13
525.81	53155.91
525.98	52933.56
526.16	52963.98
526.33	53036.54
526.50	53434.43
526.67	53296.34
526.84	53605.29
527.01	53034.20
527.18	53202.72
527.36	53640.40
527.53	53352.51
527.70	53712.95
527.87	53506.99
528.04	53553.80
528.21	53565.50
528.38	53581.88
528.55	53769.13
528.72	53982.12
528.89	54000.84
529.07	53890.83
529.24	53799.55
529.41	53876.79
529.58	54103.82
529.75	54061.69
529.92	53979.78
530.09	54232.55
530.26	54012.54
530.43	54471.29
530.60	54115.53
530.77	54293.41
530.94	54487.67
531.11	54445.54
531.28	54515.76
531.46	54438.52
531.63	54581.29
531.80	54571.93
531.97	54939.39
532.14	54932.37
532.31	54501.71
532.48	55037.70
532.65	54761.51
532.82	54733.43
532.99	54901.95
533.16	54731.09
533.33	54986.21
533.50	55126.64
533.67	55140.68
533.84	54955.78
534.01	55323.24
534.18	55098.55
534.35	55517.51
534.52	55358.35
534.69	55444.95
534.86	55728.16
535.03	55510.49
535.20	55456.65
535.37	55487.08
535.54	55866.25
535.71	55512.83
535.88	55749.22
536.05	55723.47
536.22	55980.93
536.38	55941.14
536.55	56317.97
536.72	55842.84
536.89	55990.30
537.06	55758.58
537.23	55903.70
537.40	56037.11
537.57	55957.53
537.74	56170.52
537.91	56498.19
538.08	56296.91
538.25	56102.64
538.42	56114.34
538.59	56332.01
538.75	56364.78
538.92	56353.08
539.09	56535.64
539.26	56458.40
539.43	56371.80
539.60	56577.77
539.77	56559.05
539.94	56905.44
540.11	56783.74
540.28	56671.39
540.44	56502.87
540.61	56973.32
540.78	56577.77
540.95	56460.74
541.12	56652.67
541.29	56706.50
541.46	56816.50
541.62	57102.05
541.79	56968.64
541.96	56683.09
542.13	56807.14
542.30	57354.83
542.47	57158.22
542.63	57317.38
542.80	57174.61
542.97	57434.41
543.14	57450.79
543.31	57567.82
543.48	57511.64
543.64	57991.45
543.81	57619.31
543.98	57663.78
544.15	57633.35
544.32	57750.38
544.48	57705.91
544.65	57607.61
544.82	57712.93
544.99	57450.79
545.16	57961.03
545.32	57691.86
545.49	58014.86
545.66	57855.70
545.83	57986.77
546.00	57942.30
546.16	58171.67
546.33	57954.00
546.50	57701.23
546.67	57982.09
546.83	57860.38
547.00	57858.04
547.17	58021.88
547.34	57954.00
547.50	58307.43
547.67	58244.23
547.84	58363.60
548.00	58248.91
548.17	58480.63
548.34	58286.36
548.51	58513.39
548.67	58583.61
548.84	58415.09
549.01	58426.79
549.18	58309.77
549.34	58438.50
549.51	58569.57
549.68	58614.04
549.84	58609.35
550.01	58951.07
550.18	58548.50
550.34	58812.98
550.51	58965.12
550.68	58738.08
550.84	58532.12
551.01	58955.75
551.18	58752.13
551.34	58651.48
551.51	58670.21
551.68	59037.67
551.84	58717.02
552.01	58674.89
552.18	58958.09
552.34	58972.14
552.51	59096.19
552.68	59011.93
552.84	58843.41
553.01	59206.19
553.18	59091.51
553.34	59166.40
553.51	58913.62
553.67	58997.88
553.84	59145.34
554.01	59084.48
554.17	59182.79
554.34	59370.03
554.51	59306.83
554.67	59447.27
554.84	59227.26
555.00	59278.75
555.17	59201.51
555.33	59442.59
555.50	59306.83
555.67	59334.92
555.83	59117.25
556.00	59423.86
556.16	59662.60
556.33	59566.63
556.50	59428.54
556.66	59590.04
556.83	59540.89
556.99	59693.02
557.16	59753.88
557.32	59784.30
557.49	59767.92
557.65	59611.10
557.82	59576.00
557.98	59695.36
558.15	59676.64
558.32	59814.73
558.48	59540.89
558.65	59704.73
558.81	59648.55
558.98	59866.22
559.14	59887.29
559.31	59791.33
559.47	60013.68
559.64	60161.13
559.80	60032.40
559.97	60020.70
560.13	59920.05
560.30	59863.88
560.46	60130.70
560.63	60140.07
560.79	60135.38
560.96	60100.28
561.12	60006.65
561.29	60151.77
561.45	60107.30
561.61	60168.15
561.78	60107.30
561.94	60151.77
562.11	60051.12
562.27	60214.96
562.44	60039.42
562.60	60067.51
562.77	60268.79
562.93	60245.39
563.10	60156.45
563.26	60189.22
563.42	60376.46
563.59	60268.79
563.75	60264.11
563.92	60320.29
564.08	60196.24
564.24	60467.74
564.41	60282.84
564.57	60509.87
564.74	60451.36
564.90	60481.78
565.07	60310.92
565.23	60264.11
565.39	60502.85
565.56	60514.55
565.72	60341.35
565.88	60282.84
566.05	60238.37
566.21	60329.65
566.38	60603.49
566.54	60624.56
566.70	60821.16
566.87	60573.06
567.03	60467.74
567.19	60746.26
567.36	60470.08
567.52	60509.87
567.68	60734.56
567.85	60615.19
568.01	60832.86
568.17	60657.32
568.34	60552.00
568.50	60472.42
568.66	60537.96
568.83	60610.51
568.99	60500.51
569.15	60715.84
569.32	60699.45
569.48	60612.85
569.64	60739.24
569.81	60676.05
569.97	60591.79
570.13	60596.47
570.30	60584.77
570.46	60940.53
570.62	60882.02
570.78	60811.80
570.95	60736.90
571.11	60748.60
571.27	60645.62
571.43	60741.58
571.60	60818.82
571.76	60830.52
571.92	60870.31
572.09	60748.60
572.25	60996.70
572.41	60970.96
572.57	60931.17
572.74	60921.80
572.90	60961.59
573.06	60786.05
573.22	60942.87
573.38	60828.18
573.55	60711.16
573.71	61102.03
573.87	60975.64
574.03	60846.91
574.20	61080.96
574.36	60736.90
574.52	60790.73
574.68	60898.40
574.84	61113.73
575.01	60942.87
575.17	60839.89
575.33	60725.20
575.49	60811.80
575.65	61041.17
575.82	61102.03
575.98	61085.64
576.14	61331.40
576.30	60898.40
576.46	60865.63
576.62	61008.40
576.79	61048.19
576.95	60935.85
577.11	61017.77
577.27	61116.07
577.43	61087.98
577.59	60999.04
577.75	60912.44
577.92	60952.23
578.08	61027.13
578.24	61277.57
578.40	61205.01
578.56	61219.05
578.72	60968.61
578.88	61158.20
579.04	61350.12
579.21	60999.04
579.37	61197.99
579.53	61017.77
579.69	61120.75
579.85	61174.58
580.01	61162.88
580.17	61029.47
580.33	61228.41
580.49	61083.30
580.65	61158.20
580.82	61048.19
580.98	61080.96
581.14	61001.38
581.30	61153.52
581.46	61279.91
581.62	61008.40
581.78	61059.90
581.94	61160.54
582.10	61162.88
582.26	61125.43
582.42	61104.37
582.58	61186.28
582.74	61155.86
582.90	61113.73
583.06	61069.26
583.22	61219.05
583.38	61235.44
583.54	61293.95
583.70	61202.67
583.86	61310.33
584.02	61151.18
584.18	61401.61
584.34	61197.99
584.50	61305.65
584.66	61272.88
584.82	61200.33
584.98	61244.80
585.14	61256.50
585.30	61141.81
585.46	61343.10
585.62	61305.65
585.78	61359.48
585.94	60954.57
586.10	61172.24
586.26	61160.54
586.42	61106.71
586.58	61474.17
586.74	61146.50
586.90	61387.57
587.06	61371.19
587.22	61317.35
587.38	61453.11
587.54	61462.47
587.70	61457.79
587.86	61436.72
588.02	61329.06
588.18	61539.71
588.34	61373.53
588.49	61228.41
