SpectraSuite Data File
++++++++++++++++++++++++++++++++++++
Date: Fri Oct 25 11:25:01 EDT 2013
User: price-jones
Dark Spectrum Present: No
Reference Spectrum Present: No
Number of Sampled Component Spectra: 1
Spectrometers: USB2+H05261
Integration Time (usec): 100000 (USB2+H05261)
Spectra Averaged: 1 (USB2+H05261)
Boxcar Smoothing: 0 (USB2+H05261)
Correct for Electrical Dark: No (USB2+H05261)
Strobe/Lamp Enabled: No (USB2+H05261)
Correct for Detector Non-linearity: No (USB2+H05261)
Correct for Stray Light: No (USB2+H05261)
Number of Pixels in Processed Spectrum: 2048
>>>>>Begin Processed Spectral Data<<<<<
365.73	224.69
365.92	224.69
366.12	224.69
366.32	159.16
366.52	88.94
366.72	224.69
366.91	135.75
367.11	142.77
367.31	107.66
367.51	42.13
367.70	88.94
367.90	100.64
368.10	161.50
368.30	196.60
368.49	159.16
368.69	191.92
368.89	187.24
369.09	77.24
369.28	198.95
369.48	147.45
369.68	217.67
369.87	227.03
370.07	166.18
370.27	208.31
370.47	320.65
370.66	650.67
370.86	568.75
371.06	676.41
371.25	746.63
371.45	690.46
371.65	786.42
371.84	690.46
372.04	746.63
372.24	653.01
372.44	678.76
372.63	819.19
372.83	784.08
373.03	767.70
373.22	856.64
373.42	723.23
373.62	760.67
373.81	730.25
374.01	854.30
374.21	842.59
374.40	837.91
374.60	854.30
374.79	800.46
374.99	809.83
375.19	798.12
375.38	837.91
375.58	823.87
375.78	905.79
375.97	833.23
376.17	880.04
376.37	840.25
376.56	915.15
376.76	875.36
376.95	922.17
377.15	847.27
377.35	915.15
377.54	861.32
377.74	877.70
377.93	912.81
378.13	954.94
378.33	866.00
378.52	964.30
378.72	943.24
378.91	943.24
379.11	924.51
379.31	931.53
379.50	931.53
379.70	1053.24
379.89	978.34
380.09	1013.45
380.28	957.28
380.48	936.21
380.68	994.73
380.87	1022.81
381.07	985.37
381.26	1114.10
381.46	1015.79
381.65	1053.24
381.85	983.02
382.04	987.71
382.24	1064.94
382.43	1086.01
382.63	1090.69
382.83	1039.20
383.02	1097.71
383.22	1076.65
383.41	997.07
383.61	1104.73
383.80	1104.73
384.00	1177.29
384.19	1139.84
384.39	1071.97
384.58	1116.44
384.78	1114.10
384.97	1226.44
385.17	1114.10
385.36	1158.57
385.56	1160.91
385.75	1102.39
385.95	1158.57
386.14	1233.46
386.34	1219.42
386.53	1217.08
386.72	1306.02
386.92	1240.48
387.11	1282.61
387.31	1310.70
387.50	1235.80
387.70	1233.46
387.89	1207.72
388.09	1294.32
388.28	1238.14
388.48	1268.57
388.67	1394.96
388.86	1294.32
389.06	1310.70
389.25	1399.64
389.45	1308.36
389.64	1376.24
389.84	1413.68
390.03	1359.85
390.22	1348.15
390.42	1413.68
390.61	1362.19
390.81	1446.45
391.00	1416.02
391.19	1369.21
391.39	1444.11
391.58	1392.62
391.78	1514.33
391.97	1497.94
392.16	1469.86
392.36	1504.96
392.55	1530.71
392.75	1476.88
392.94	1589.22
393.13	1495.60
393.33	1537.73
393.52	1490.92
393.71	1643.06
393.91	1619.65
394.10	1533.05
394.29	1617.31
394.49	1603.27
394.68	1685.19
394.88	1558.80
395.07	1624.33
395.26	1647.74
395.46	1680.50
395.65	1701.57
395.84	1565.82
396.04	1799.87
396.23	1757.74
396.42	1734.34
396.62	1771.79
396.81	1699.23
397.00	1753.06
397.19	1755.40
397.39	1795.19
397.58	1820.94
397.77	1743.70
397.97	1809.23
398.16	1928.60
398.35	1874.77
398.55	1806.89
398.74	1930.94
398.93	1935.62
399.12	1830.30
399.32	1884.13
399.51	1973.07
399.70	1977.75
399.90	1968.39
400.09	1933.28
400.28	2059.67
400.47	1987.11
400.67	2036.27
400.86	2024.56
401.05	2139.25
401.24	2148.61
401.44	2118.18
401.63	2172.02
401.82	2134.57
402.01	2150.95
402.21	2193.08
402.40	2267.98
402.59	2221.17
402.78	2239.89
402.97	2165.00
403.17	2272.66
403.36	2303.09
403.55	2385.01
403.74	2312.45
403.93	2260.96
404.13	2359.26
404.32	2260.96
404.51	2380.32
404.70	2427.14
404.89	2406.07
405.09	2450.54
405.28	2572.25
405.47	2525.44
405.66	2495.01
405.85	2541.82
406.05	2466.92
406.24	2544.16
406.43	2544.16
406.62	2516.08
406.81	2614.38
407.00	2600.34
407.20	2562.89
407.39	2661.19
407.58	2689.28
407.77	2691.62
407.96	2619.06
408.15	2761.83
408.34	2719.70
408.54	2883.54
408.73	2672.89
408.92	2736.09
409.11	2925.67
409.30	2820.35
409.49	2930.35
409.68	3033.33
409.87	2953.76
410.07	3000.57
410.26	2909.29
410.45	2974.82
410.64	3007.59
410.83	3016.95
411.02	3213.56
411.21	3169.09
411.40	3038.02
411.59	3185.47
411.78	3157.38
411.98	3138.66
412.17	3241.64
412.36	3262.71
412.55	3318.88
412.74	3349.31
412.93	3337.60
413.12	3321.22
413.31	3463.99
413.50	3468.67
413.69	3492.08
413.88	3529.53
414.07	3613.79
414.26	3606.77
414.45	3756.56
414.64	3641.87
414.83	3747.20
415.02	3871.25
415.22	3829.12
415.41	3850.18
415.60	3929.76
415.79	3847.84
415.98	4004.66
416.17	4138.07
416.36	3969.55
416.55	4025.72
416.74	4088.92
416.93	3960.19
417.12	4182.54
417.31	4067.85
417.50	4105.30
417.69	4365.10
417.88	4231.69
418.07	4145.09
418.26	4353.40
418.45	4339.35
418.64	4400.21
418.83	4472.76
419.02	4404.89
419.21	4578.09
419.39	4482.13
419.58	4423.61
419.77	4224.67
419.96	4573.41
420.15	4585.11
420.34	4638.94
420.53	4615.54
420.72	4751.29
420.91	4645.96
421.10	4732.56
421.29	4786.40
421.48	4854.27
421.67	4884.70
421.86	4676.39
422.05	4777.03
422.24	4870.65
422.43	4807.46
422.61	4781.71
422.80	4917.47
422.99	4805.12
423.18	5046.20
423.37	5067.26
423.56	4980.66
423.75	4999.38
423.94	4842.57
424.13	4449.36
424.32	4727.88
424.50	4922.15
424.69	5013.43
424.88	4987.68
425.07	4973.64
425.26	4795.76
425.45	4940.87
425.64	4968.96
425.83	5018.11
426.01	4873.00
426.20	5146.84
426.39	5013.43
426.58	5067.26
426.77	5118.75
426.96	5048.54
427.15	5121.09
427.33	5303.65
427.52	5095.35
427.71	5132.79
427.90	5200.67
428.09	5385.57
428.28	5390.25
428.46	5355.15
428.65	5270.89
428.84	5535.37
429.03	5500.26
429.22	5408.98
429.40	5411.32
429.59	5507.28
429.78	5160.88
429.97	5373.87
430.16	5394.93
430.34	5460.47
430.53	5624.31
430.72	5689.84
430.91	5621.97
431.10	5528.35
431.28	5785.80
431.47	5809.21
431.66	5870.06
431.85	5687.50
432.03	6008.16
432.22	5921.56
432.41	5743.67
432.60	5827.93
432.79	6153.27
432.97	5879.43
433.16	5949.64
433.35	5870.06
433.54	6001.13
433.72	6094.76
433.91	6083.05
434.10	6071.35
434.28	6120.50
434.47	6331.15
434.66	6321.79
434.85	6305.40
435.03	6354.55
435.22	6195.40
435.41	6450.52
435.59	6272.64
435.78	6504.35
435.97	6384.98
436.16	6335.83
436.34	6382.64
436.53	6473.92
436.72	6700.95
436.90	6392.00
437.09	6525.41
437.28	6438.81
437.46	6607.33
437.65	6593.29
437.84	6619.04
438.02	6541.80
438.21	6691.59
438.40	6663.51
438.58	6867.13
438.77	7119.91
438.96	6867.13
439.14	7201.83
439.33	7115.23
439.52	7318.86
439.70	7138.63
439.89	7349.28
440.08	7332.90
440.26	7276.73
440.45	7258.00
440.63	7384.39
440.82	7602.06
441.01	7550.57
441.19	7578.65
441.38	7655.89
441.57	7562.27
441.75	7939.10
441.94	7915.69
442.12	7864.20
442.31	8030.38
442.50	8093.57
442.68	7700.36
442.87	7964.84
443.05	8091.23
443.24	8304.22
443.43	8180.17
443.61	8271.45
443.80	8475.08
443.98	8238.69
444.17	7786.96
444.35	8154.43
444.54	8276.13
444.73	8166.13
444.91	8379.12
445.10	8168.47
445.28	8135.70
445.47	8191.88
445.65	8322.94
445.84	8367.42
446.02	8456.36
446.21	8313.58
446.39	8327.63
446.58	8444.65
446.77	8517.21
446.95	8142.72
447.14	8402.52
447.32	8425.93
447.51	8308.90
447.69	8166.13
447.88	8575.72
448.06	8531.25
448.25	8723.18
448.43	8622.53
448.62	8709.13
448.80	8512.53
448.99	8692.75
449.17	8835.52
449.36	8706.79
449.54	8975.95
449.73	8872.97
449.91	8809.78
450.10	8982.98
450.28	8982.98
450.46	9004.04
450.65	8971.27
450.83	9057.87
451.02	9174.90
451.20	9149.15
451.39	9235.75
451.57	9177.24
451.76	9027.45
451.94	9020.42
452.13	9240.44
452.31	9366.82
452.49	9071.92
452.68	9268.52
452.86	9401.93
453.05	9614.92
453.23	9334.06
453.42	9453.42
453.60	9366.82
453.78	9439.38
453.97	9586.83
454.15	9312.99
454.34	9343.42
454.52	9741.31
454.70	9785.78
454.89	9703.86
455.07	9956.64
455.26	9858.34
455.44	9937.91
455.62	9572.79
455.81	9841.95
455.99	9930.89
456.17	9949.62
456.36	10090.05
456.54	10099.41
456.73	10281.97
456.91	10286.65
457.09	10368.57
457.28	10525.39
457.46	10370.91
457.64	10501.98
457.83	10520.71
458.01	10452.83
458.19	10597.95
458.38	10448.15
458.56	10794.55
458.74	10693.91
458.93	10492.62
459.11	10696.25
459.29	10785.19
459.48	10855.40
459.66	10796.89
459.84	10827.32
460.03	11068.39
460.21	11194.78
460.39	11105.84
460.57	10909.24
460.76	10867.11
460.94	11302.45
461.12	11290.74
461.31	11215.85
461.49	11215.85
461.67	11166.70
461.85	11253.30
462.04	11171.38
462.22	11538.84
462.40	11592.67
462.59	11672.25
462.77	11515.44
462.95	11667.57
463.13	11506.07
463.32	11597.35
463.50	11686.29
463.68	11763.53
463.86	11817.36
464.05	11559.91
464.23	11754.17
464.41	11854.81
464.59	11705.02
464.78	12287.81
464.96	11988.22
465.14	11964.82
465.32	12205.89
465.50	12287.81
465.69	12109.93
465.87	12194.19
466.05	12037.38
466.23	12184.83
466.41	12051.42
466.60	12554.63
466.78	12105.25
466.96	12210.57
467.14	12430.59
467.32	12493.78
467.51	12491.44
467.69	12212.92
467.87	12482.08
468.05	12599.10
468.23	12320.58
468.41	12472.71
468.60	12472.71
468.78	12812.09
468.96	12568.68
469.14	12744.22
469.32	12856.56
469.50	12507.82
469.69	12971.25
469.87	13128.06
470.05	13130.41
470.23	13170.19
470.41	13132.75
470.59	13404.25
470.77	12926.78
470.95	13217.01
471.14	13268.50
471.32	13123.38
471.50	13598.51
471.68	13827.88
471.86	13619.58
472.04	13631.28
472.22	14015.13
472.40	13532.98
472.58	13881.72
472.77	14015.13
472.95	14295.99
473.13	14618.99
473.31	14029.17
473.49	14218.75
473.67	14246.84
473.85	14518.34
474.03	14661.12
474.21	14530.05
474.39	14611.96
474.57	14857.72
474.75	14736.01
474.93	15042.62
475.12	15000.49
475.30	15136.24
475.48	14923.26
475.66	15112.84
475.84	15089.43
476.02	15150.29
476.20	15300.08
476.38	15702.65
476.56	15878.19
476.74	16027.99
476.92	15627.76
477.10	15564.56
477.28	16320.56
477.46	16238.64
477.64	16404.81
477.82	16645.89
478.00	16847.18
478.18	16662.27
478.36	16840.15
478.54	16952.50
478.72	17097.61
478.90	17348.05
479.08	17226.34
479.26	17633.60
479.44	17472.10
479.62	17956.59
479.80	18104.04
479.98	17958.93
480.16	18368.52
480.34	18167.24
480.52	18483.21
480.70	18658.75
480.88	18824.93
481.06	18611.94
481.24	18651.73
481.41	19108.13
481.59	19281.33
481.77	19461.55
481.95	19391.34
482.13	19641.78
482.31	19704.97
482.49	20290.10
482.67	20044.35
482.85	20233.93
483.03	20519.48
483.21	20514.80
483.39	21029.71
483.57	20699.70
483.74	21275.47
483.92	21680.38
484.10	21123.33
484.28	21673.36
484.46	22017.42
484.64	22448.08
484.82	22160.19
485.00	22787.46
485.18	22661.07
485.35	22965.34
485.53	22850.65
485.71	22761.71
485.89	23777.50
486.07	22939.59
486.25	23381.95
486.43	23484.94
486.61	23702.61
486.78	24217.52
486.96	24006.87
487.14	24456.26
487.32	24828.40
487.50	24706.70
487.68	25113.95
487.85	25245.02
488.03	25481.41
488.21	25741.21
488.39	26103.99
488.57	25977.61
488.75	26183.57
488.92	26684.45
489.10	26714.87
489.28	26785.09
489.46	27168.94
489.64	27063.61
489.81	27583.21
489.99	27566.83
490.17	27913.23
490.35	28126.22
490.53	28243.24
490.70	28439.85
490.88	28182.39
491.06	29017.96
491.24	28638.80
491.41	28765.18
491.59	29413.51
491.77	29085.84
491.95	29369.04
492.13	29778.64
492.30	29785.66
492.48	29912.05
492.66	30059.50
492.84	30370.79
493.01	30707.83
493.19	30583.78
493.37	30808.47
493.54	31098.70
493.72	31475.52
493.90	31367.86
494.08	31527.02
494.25	31765.75
494.43	32020.87
494.61	32205.77
494.79	32526.42
494.96	32048.96
495.14	32507.70
495.32	32870.48
495.49	33200.50
495.67	32896.23
495.85	33497.75
496.02	33731.80
496.20	34071.18
496.38	33855.85
496.55	33900.32
496.73	35021.44
496.91	34637.59
497.09	34932.50
497.26	34607.16
497.44	34806.11
497.62	35194.64
497.79	35510.61
497.97	35435.71
498.14	35613.59
498.32	35899.14
498.50	36517.04
498.67	36259.58
498.85	36397.67
499.03	36517.04
499.20	36774.50
499.38	36584.91
499.56	37235.58
499.73	37200.47
499.91	37614.75
500.08	37317.50
500.26	37261.33
500.44	37801.99
500.61	37773.91
500.79	37752.84
500.97	38082.86
501.14	38792.04
501.32	38761.61
501.49	38401.17
501.67	38401.17
501.84	38946.51
502.02	39124.40
502.20	39068.22
502.37	39246.10
502.55	39278.87
502.72	39608.89
502.90	39646.33
503.07	39234.40
503.25	39688.46
503.43	39662.72
503.60	39927.20
503.78	40273.60
503.95	40364.88
504.13	40346.15
504.30	40411.69
504.48	40196.36
504.65	40582.55
504.83	41151.30
505.01	41418.12
505.18	41308.11
505.36	41673.24
505.53	40952.35
505.71	41317.48
505.88	41895.59
506.06	41104.49
506.23	41619.41
506.41	41991.55
506.58	41816.01
506.76	41942.40
506.93	42590.73
507.11	42387.10
507.28	42646.90
507.46	42651.58
507.63	42674.99
507.81	42990.96
507.98	42419.87
508.16	43051.81
508.33	43592.48
508.50	43718.87
508.68	43550.35
508.85	43751.63
509.03	43618.22
509.20	43924.83
509.38	44458.48
509.55	44072.29
509.73	44587.21
509.90	44399.96
510.08	44540.39
510.25	44577.84
510.42	44758.06
510.60	44737.00
510.77	44959.35
510.95	45425.12
511.12	45464.91
511.30	45116.17
511.47	45275.32
511.64	45305.75
511.82	45797.26
511.99	45675.55
512.17	45661.51
512.34	46260.69
512.51	46483.04
512.69	46298.14
512.86	46071.10
513.04	46469.00
513.21	46738.16
513.38	46925.40
513.56	46569.64
513.73	46515.81
513.90	47033.07
514.08	46890.29
514.25	47496.49
514.43	47213.29
514.60	47283.50
514.77	47398.19
514.95	47508.19
515.12	47292.86
515.29	47407.55
515.47	47758.63
515.64	48065.24
515.81	47573.73
515.99	48378.87
516.16	48526.33
516.33	48334.40
516.51	48753.36
516.68	48559.09
516.85	48472.49
517.03	48828.26
517.20	48736.98
517.37	48463.13
517.54	48725.27
517.72	48844.64
517.89	49207.42
518.06	49343.17
518.24	49090.40
518.41	49317.43
518.58	49186.36
518.75	49347.86
518.93	49794.90
519.10	49436.80
519.27	49371.26
519.45	49549.14
519.62	49696.59
519.79	49902.56
519.96	49928.31
520.14	49930.65
520.31	50218.53
520.48	50438.54
520.65	50403.44
520.83	50574.30
521.00	50749.84
521.17	50918.35
521.34	50459.61
521.52	50920.70
521.69	50555.57
521.86	50857.50
522.03	51189.86
522.20	51164.11
522.38	51477.74
522.55	51262.41
522.72	51131.34
522.89	51435.61
523.07	51501.15
523.24	51381.78
523.41	51796.06
523.58	51313.90
523.75	52065.22
523.92	51641.58
524.10	52053.51
524.27	52140.11
524.44	52088.62
524.61	52203.31
524.78	51995.00
524.96	52310.97
525.13	52149.48
525.30	52390.55
525.47	52179.90
525.64	52172.88
525.81	52149.48
525.98	52640.99
526.16	52739.29
526.33	52411.62
526.50	53062.29
526.67	52793.12
526.84	53015.47
527.01	53010.79
527.18	53200.38
527.36	52896.11
527.53	52905.47
527.70	53518.69
527.87	53160.59
528.04	53205.06
528.21	53371.24
528.38	53286.98
528.55	53448.47
528.72	53371.24
528.89	53443.79
529.07	53464.86
529.24	53537.41
529.41	53766.79
529.58	53769.13
529.75	53539.75
529.92	53708.27
530.09	53879.13
530.26	53958.71
530.43	53947.01
530.60	54000.84
530.77	53794.87
530.94	53837.00
531.11	54384.69
531.28	54085.10
531.46	54206.81
531.63	54218.51
531.80	54394.05
531.97	54239.57
532.14	54450.22
532.31	54426.82
532.48	54550.87
532.65	54532.14
532.82	54630.44
532.99	54822.37
533.16	54497.03
533.33	54803.64
533.50	54944.08
533.67	54890.24
533.84	54693.64
534.01	54843.43
534.18	54911.31
534.35	55351.33
534.52	55079.83
534.69	55255.37
534.86	55477.72
535.03	55203.88
535.20	55028.34
535.37	55442.61
535.54	55164.09
535.71	54855.14
535.88	55379.42
536.05	55664.96
536.22	55789.01
536.38	55487.08
536.55	55416.86
536.72	55529.21
536.89	55150.04
537.06	55477.72
537.23	55643.90
537.40	55388.78
537.57	55686.03
537.74	55730.50
537.91	55861.57
538.08	55650.92
538.25	55718.79
538.42	55767.94
538.59	56032.42
538.75	55828.80
538.92	55868.59
539.09	56250.09
539.26	55882.63
539.43	55913.06
539.60	56123.71
539.77	56399.89
539.94	56282.86
540.11	56404.57
540.28	56339.04
540.44	56516.92
540.61	56240.73
540.78	56303.93
540.95	56332.01
541.12	56390.53
541.29	56184.56
541.46	56488.83
541.62	56657.35
541.79	56369.46
541.96	56348.40
542.13	56559.05
542.30	56584.79
542.47	56926.51
542.63	56868.00
542.80	56996.73
542.97	57235.46
543.14	57396.96
543.31	56938.21
543.48	57275.25
543.64	57455.47
543.81	57279.93
543.98	57366.53
544.15	57357.17
544.32	57340.78
544.48	57656.76
544.65	57303.34
544.82	57272.91
544.99	57118.43
545.16	57528.03
545.32	57071.62
545.49	57733.99
545.66	57818.25
545.83	57389.94
546.00	57757.40
546.16	57621.65
546.33	57401.64
546.50	57623.99
546.67	57872.09
546.83	57403.98
547.00	57748.04
547.17	57560.79
547.34	57881.45
547.50	57804.21
547.67	57986.77
547.84	58087.42
548.00	57900.17
548.17	58195.08
548.34	57954.00
548.51	58237.21
548.67	58101.46
548.84	58323.81
549.01	58244.23
549.18	58101.46
549.34	58218.49
549.51	58501.69
549.68	58309.77
549.84	58134.23
550.01	58314.45
550.18	58129.54
550.34	58436.16
550.51	58515.73
550.68	58478.28
550.84	58288.70
551.01	58316.79
551.18	58597.65
551.34	58368.28
551.51	58653.82
551.68	58635.10
551.84	58691.27
552.01	58588.29
552.18	58700.64
552.34	58607.01
552.51	58805.96
552.68	58532.12
552.84	58805.96
553.01	58934.69
553.18	58869.15
553.34	58920.65
553.51	58794.26
553.67	58974.48
553.84	59028.31
554.01	58990.86
554.17	58922.99
554.34	58852.77
554.51	59028.31
554.67	58925.33
554.84	58934.69
555.00	58883.20
555.17	59128.95
555.33	59091.51
555.50	58714.68
555.67	59089.16
555.83	59047.04
556.00	59035.33
556.16	59377.05
556.33	59128.95
556.50	59117.25
556.66	59316.20
556.83	59166.40
556.99	59311.52
557.16	59290.45
557.32	59112.57
557.49	59545.57
557.65	59372.37
557.82	59372.37
557.98	59386.41
558.15	59405.14
558.32	59377.05
558.48	59473.01
558.65	59318.54
558.81	59547.91
558.98	59437.90
559.14	59559.61
559.31	59454.29
559.47	59512.80
559.64	59690.68
559.80	59707.07
559.97	59758.56
560.13	59547.91
560.30	59643.87
560.46	59695.36
560.63	59877.93
560.79	59753.88
560.96	59877.93
561.12	59859.20
561.29	59751.54
561.45	59749.20
561.61	59821.75
561.78	59749.20
561.94	59805.37
562.11	59781.96
562.27	59824.09
562.44	60004.31
562.60	60161.13
562.77	60037.08
562.93	59718.77
563.10	59959.84
563.26	59833.46
563.42	60060.49
563.59	60104.96
563.75	60104.96
563.92	60093.25
564.08	59894.31
564.24	60053.47
564.41	60142.41
564.57	60186.88
564.74	60062.83
564.90	60163.47
565.07	59927.08
565.23	60111.98
565.39	60041.76
565.56	60224.32
565.72	60097.94
565.88	60119.00
566.05	60123.68
566.21	60090.91
566.38	60231.35
566.54	60310.92
566.70	60446.68
566.87	60521.57
567.03	60060.49
567.19	60367.10
567.36	60233.69
567.52	60140.07
567.68	60493.49
567.85	60212.62
568.01	60315.61
568.17	60179.85
568.34	60420.93
568.50	60507.53
568.66	59997.29
568.83	60411.57
568.99	60441.99
569.15	60434.97
569.32	60360.08
569.48	60317.95
569.64	60568.38
569.81	60348.37
569.97	60240.71
570.13	60453.70
570.30	60409.23
570.46	60439.65
570.62	60444.33
570.78	60439.65
570.95	60320.29
571.11	60521.57
571.27	60418.59
571.43	60512.21
571.60	60566.04
571.76	60554.34
571.92	60537.96
572.09	60439.65
572.25	60683.07
572.41	60610.51
572.57	60523.91
572.74	60500.51
572.90	60680.73
573.06	60706.47
573.22	60563.70
573.38	60577.75
573.55	60542.64
573.71	60769.67
573.87	60687.75
574.03	60523.91
574.20	60690.09
574.36	60601.15
574.52	60662.00
574.68	60535.62
574.84	60706.47
575.01	60816.48
575.17	60743.92
575.33	60451.36
575.49	60523.91
575.65	60802.44
575.82	60807.12
575.98	60736.90
576.14	61045.85
576.30	60680.73
576.46	60757.97
576.62	60750.94
576.79	60706.47
576.95	60678.39
577.11	60764.99
577.27	60685.41
577.43	60853.93
577.59	60687.75
577.75	60856.27
577.92	60645.62
578.08	60835.20
578.24	60762.65
578.40	60774.35
578.56	60753.29
578.72	60912.44
578.88	61109.05
579.04	61001.38
579.21	60741.58
579.37	60816.48
579.53	61069.26
579.69	60919.46
579.85	60954.57
580.01	60790.73
580.17	60577.75
580.33	60931.17
580.49	60849.25
580.65	60968.61
580.82	60722.86
580.98	60928.83
581.14	60772.01
581.30	61158.20
581.46	60757.97
581.62	60867.97
581.78	60769.67
581.94	60851.59
582.10	60741.58
582.26	60800.10
582.42	60856.27
582.58	60914.78
582.74	60849.25
582.90	60928.83
583.06	60987.34
583.22	60624.56
583.38	60942.87
583.54	61064.58
583.70	60954.57
583.86	60872.65
584.02	60797.76
584.18	61078.62
584.34	60963.93
584.50	60898.40
584.66	60884.36
584.82	60631.58
584.98	61186.28
585.14	60945.21
585.30	60711.16
585.46	60973.30
585.62	60933.51
585.78	61048.19
585.94	60767.33
586.10	61085.64
586.26	61111.39
586.42	60970.96
586.58	61064.58
586.74	60900.74
586.90	61106.71
587.06	60928.83
587.22	61113.73
587.38	61146.50
587.54	61113.73
587.70	61099.68
587.86	60928.83
588.02	60823.50
588.18	61104.37
588.34	61151.18
588.49	61062.24
