SpectraSuite Data File
++++++++++++++++++++++++++++++++++++
Date: Fri Oct 25 11:23:53 EDT 2013
User: price-jones
Dark Spectrum Present: No
Reference Spectrum Present: No
Number of Sampled Component Spectra: 1
Spectrometers: USB2+H05261
Integration Time (usec): 100000 (USB2+H05261)
Spectra Averaged: 1 (USB2+H05261)
Boxcar Smoothing: 0 (USB2+H05261)
Correct for Electrical Dark: No (USB2+H05261)
Strobe/Lamp Enabled: No (USB2+H05261)
Correct for Detector Non-linearity: No (USB2+H05261)
Correct for Stray Light: No (USB2+H05261)
Number of Pixels in Processed Spectrum: 2048
>>>>>Begin Processed Spectral Data<<<<<
365.73	210.65
365.92	210.65
366.12	210.65
366.32	147.45
366.52	133.41
366.72	180.22
366.91	182.56
367.11	81.92
367.31	149.79
367.51	138.09
367.70	131.07
367.90	133.41
368.10	95.96
368.30	147.45
368.49	154.48
368.69	98.30
368.89	187.24
369.09	58.51
369.28	184.90
369.48	119.37
369.68	105.32
369.87	203.63
370.07	220.01
370.27	194.26
370.47	322.99
370.66	547.69
370.86	596.84
371.06	636.63
371.25	655.35
371.45	678.76
371.65	676.41
371.84	753.65
372.04	660.03
372.24	699.82
372.44	629.60
372.63	758.33
372.83	755.99
373.03	713.86
373.22	772.38
373.42	718.54
373.62	802.80
373.81	798.12
374.01	837.91
374.21	791.10
374.40	847.27
374.60	866.00
374.79	767.70
374.99	868.34
375.19	877.70
375.38	896.43
375.58	821.53
375.78	823.87
375.97	901.11
376.17	868.34
376.37	898.77
376.56	891.74
376.76	798.12
376.95	830.89
377.15	800.46
377.35	919.83
377.54	908.13
377.74	884.72
377.93	884.72
378.13	870.68
378.33	1053.24
378.52	994.73
378.72	964.30
378.91	896.43
379.11	929.19
379.31	961.96
379.50	894.08
379.70	990.05
379.89	992.39
380.09	926.85
380.28	901.11
380.48	980.68
380.68	997.07
380.87	966.64
381.07	1086.01
381.26	1057.92
381.46	1043.88
381.65	1027.50
381.85	999.41
382.04	1083.67
382.24	1088.35
382.43	1032.18
382.63	999.41
382.83	1076.65
383.02	1078.99
383.22	1109.41
383.41	1053.24
383.61	1111.75
383.80	1125.80
384.00	1146.86
384.19	1078.99
384.39	1036.86
384.58	1135.16
384.78	1149.20
384.97	1219.42
385.17	1121.12
385.36	1151.54
385.56	1142.18
385.75	1107.07
385.95	1224.10
386.14	1249.85
386.34	1235.80
386.53	1313.04
386.72	1240.48
386.92	1273.25
387.11	1219.42
387.31	1205.38
387.50	1172.61
387.70	1240.48
387.89	1224.10
388.09	1153.88
388.28	1308.36
388.48	1249.85
388.67	1289.64
388.86	1327.08
389.06	1355.17
389.25	1320.06
389.45	1287.29
389.64	1324.74
389.84	1399.64
390.03	1404.32
390.22	1483.90
390.42	1345.81
390.61	1362.19
390.81	1399.64
391.00	1446.45
391.19	1364.53
391.39	1493.26
391.58	1474.54
391.78	1380.92
391.97	1490.92
392.16	1474.54
392.36	1432.41
392.55	1511.99
392.75	1500.28
392.94	1467.52
393.13	1537.73
393.33	1556.46
393.52	1575.18
393.71	1547.09
393.91	1671.14
394.10	1521.35
394.29	1610.29
394.49	1661.78
394.68	1654.76
394.88	1521.35
395.07	1617.31
395.26	1715.61
395.46	1621.99
395.65	1748.38
395.84	1654.76
396.04	1732.00
396.23	1699.23
396.42	1650.08
396.62	1846.68
396.81	1795.19
397.00	1806.89
397.19	1832.64
397.39	1713.27
397.58	1781.15
397.77	1788.17
397.97	1830.30
398.16	1895.83
398.35	1977.75
398.55	1818.60
398.74	1844.34
398.93	1933.28
399.12	1949.67
399.32	1942.64
399.51	1994.14
399.70	1921.58
399.90	2012.86
400.09	1935.62
400.28	2155.63
400.47	1989.46
400.67	2083.08
400.86	2076.06
401.05	2087.76
401.24	2108.82
401.44	2221.17
401.63	2099.46
401.82	2111.16
402.01	2057.33
402.21	2139.25
402.40	2094.78
402.59	2228.19
402.78	2204.78
402.97	2209.47
403.17	2345.22
403.36	2239.89
403.55	2284.36
403.74	2361.60
403.93	2415.43
404.13	2415.43
404.32	2469.27
404.51	2305.43
404.70	2356.92
404.89	2413.09
405.09	2518.42
405.28	2387.35
405.47	2382.67
405.66	2511.39
405.85	2466.92
406.05	2429.48
406.24	2511.39
406.43	2670.55
406.62	2562.89
406.81	2649.49
407.00	2567.57
407.20	2605.02
407.39	2607.36
407.58	2693.96
407.77	2750.13
407.96	2684.59
408.15	2869.50
408.34	2693.96
408.54	2888.22
408.73	2820.35
408.92	2883.54
409.11	2956.10
409.30	2972.48
409.49	2918.65
409.68	2958.44
409.87	3012.27
410.07	2988.86
410.26	2984.18
410.45	2981.84
410.64	2920.99
410.83	3070.78
411.02	3143.34
411.21	3150.36
411.40	3056.74
411.59	3295.47
411.78	3089.51
411.98	3290.79
412.17	3339.94
412.36	3187.81
412.55	3332.92
412.74	3377.39
412.93	3403.14
413.12	3463.99
413.31	3494.42
413.50	3449.95
413.69	3562.30
413.88	3492.08
414.07	3534.21
414.26	3604.42
414.45	3684.00
414.64	3782.31
414.83	3653.58
415.02	3639.53
415.22	3826.78
415.41	3875.93
415.60	3758.90
415.79	3801.03
415.98	3887.63
416.17	4046.79
416.36	3815.07
416.55	3915.72
416.74	4060.83
416.93	4170.83
417.12	4147.43
417.31	4119.34
417.50	4126.36
417.69	4306.59
417.88	4306.59
418.07	4217.65
418.26	4264.46
418.45	4241.05
418.64	4620.22
418.83	4421.27
419.02	4533.62
419.21	4559.36
419.39	4620.22
419.58	4416.59
419.77	4444.68
419.96	4444.68
420.15	4582.77
420.34	4566.39
420.53	4699.80
420.72	4732.56
420.91	4645.96
421.10	4762.99
421.29	4709.16
421.48	4807.46
421.67	4798.10
421.86	4655.33
422.05	4812.14
422.24	4912.78
422.43	4849.59
422.61	4910.44
422.80	5004.07
422.99	4870.65
423.18	4901.08
423.37	5104.71
423.56	4865.97
423.75	4945.55
423.94	4732.56
424.13	4718.52
424.32	4695.11
424.50	5011.09
424.69	5013.43
424.88	5050.88
425.07	4938.53
425.26	5097.69
425.45	4929.17
425.64	4795.76
425.83	4880.02
426.01	5142.16
426.20	5062.58
426.39	4999.38
426.58	5048.54
426.77	5256.84
426.96	5277.91
427.15	5139.82
427.33	5280.25
427.52	5062.58
427.71	5371.53
427.90	5163.22
428.09	5291.95
428.28	5390.25
428.46	5455.79
428.65	5327.06
428.84	5500.26
429.03	5528.35
429.22	5418.34
429.40	5556.43
429.59	5507.28
429.78	5385.57
429.97	5217.05
430.16	5596.22
430.34	5699.20
430.53	5678.14
430.72	5720.27
430.91	5727.29
431.10	5624.31
431.28	5884.11
431.47	5771.76
431.66	5905.17
431.85	5722.61
432.03	6022.20
432.22	5928.58
432.41	6076.03
432.60	5900.49
432.79	5912.19
432.97	6031.56
433.16	6090.07
433.35	5900.49
433.54	6113.48
433.72	6143.91
433.91	5975.39
434.10	6104.12
434.28	6008.16
434.47	6176.67
434.66	6038.58
434.85	6202.42
435.03	6282.00
435.22	6211.78
435.41	6600.31
435.59	6424.77
435.78	6513.71
435.97	6565.20
436.16	6551.16
436.34	6450.52
436.53	6476.26
436.72	6684.57
436.90	6345.19
437.09	6677.55
437.28	6506.69
437.46	6600.31
437.65	6707.98
437.84	6757.13
438.02	6600.31
438.21	6710.32
438.40	6700.95
438.58	7042.67
438.77	7073.10
438.96	6836.70
439.14	7206.51
439.33	7213.53
439.52	7232.26
439.70	7110.55
439.89	7417.16
440.08	7403.11
440.26	7351.62
440.45	7243.96
440.63	7602.06
440.82	7545.89
441.01	7360.98
441.19	7592.70
441.38	7705.04
441.57	7634.83
441.75	7709.72
441.94	7927.39
442.12	7861.86
442.31	7857.18
442.50	8053.78
442.68	7983.57
442.87	7964.84
443.05	8198.90
443.24	8088.89
443.43	8072.51
443.61	8252.73
443.80	8411.89
443.98	7950.80
444.17	7941.44
444.35	8374.44
444.54	8386.14
444.73	8329.97
444.91	8271.45
445.10	8444.65
445.28	8189.53
445.47	8196.56
445.65	8276.13
445.84	8606.15
446.02	8519.55
446.21	8435.29
446.39	8699.77
446.58	8524.23
446.77	8512.53
446.95	8271.45
447.14	8470.40
447.32	8746.58
447.51	8367.42
447.69	8547.64
447.88	8411.89
448.06	8489.12
448.25	8631.90
448.43	8491.46
448.62	8463.38
448.80	8751.26
448.99	8748.92
449.17	8664.66
449.36	8655.30
449.54	8809.78
449.73	8891.70
449.91	8943.19
450.10	8954.89
450.28	9109.36
450.46	9142.13
450.65	8741.90
450.83	9139.79
451.02	9001.70
451.20	9172.56
451.39	9174.90
451.57	9291.93
451.76	9156.18
451.94	9235.75
452.13	9467.47
452.31	9423.00
452.49	9071.92
452.68	9343.42
452.86	9364.48
453.05	9343.42
453.23	9673.43
453.42	9380.87
453.60	9341.08
453.78	9614.92
453.97	9348.10
454.15	9535.34
454.34	9413.63
454.52	9561.09
454.70	9804.50
454.89	9628.96
455.07	9846.63
455.26	9760.03
455.44	9811.53
455.62	9851.31
455.81	10029.20
455.99	10092.39
456.17	9944.94
456.36	10178.99
456.54	10050.26
456.73	10225.80
456.91	10544.11
457.09	10394.32
457.28	10410.70
457.46	10333.47
457.64	10555.82
457.83	10665.82
458.01	10387.30
458.19	10668.16
458.38	10516.03
458.56	10635.39
458.74	10794.55
458.93	10677.52
459.11	10719.65
459.29	10759.44
459.48	10726.68
459.66	10885.83
459.84	10923.28
460.03	11349.26
460.21	11052.01
460.39	11159.67
460.57	10897.53
460.76	11150.31
460.94	11269.68
461.12	11253.30
461.31	10934.98
461.49	11169.04
461.67	11131.59
461.85	11356.28
462.04	11344.58
462.22	11613.74
462.40	11595.01
462.59	11555.22
462.77	11449.90
462.95	11655.87
463.13	11485.01
463.32	11815.02
463.50	11929.71
463.68	11833.75
463.86	12011.63
464.05	11695.66
464.23	11758.85
464.41	11997.59
464.59	12072.48
464.78	12084.19
464.96	11922.69
465.14	11889.92
465.32	11878.22
465.50	12119.29
465.69	12241.00
465.87	12306.54
466.05	11885.24
466.23	12163.76
466.41	12236.32
466.60	12435.27
466.78	12039.72
466.96	12372.07
467.14	12297.17
467.32	12390.80
467.51	12542.93
467.69	12252.70
467.87	12421.22
468.05	12587.40
468.23	12561.66
468.41	12554.63
468.60	12666.98
468.78	12847.20
468.96	12568.68
469.14	12989.97
469.32	12971.25
469.50	12360.37
469.69	12961.89
469.87	13268.50
470.05	13139.77
470.23	13322.33
470.41	12992.31
470.59	13289.56
470.77	13153.81
470.95	13109.34
471.14	13570.43
471.32	13261.48
471.50	13673.41
471.68	13738.94
471.86	13975.34
472.04	13820.86
472.22	14122.79
472.40	13596.17
472.58	13778.73
472.77	14038.53
472.95	14146.20
473.13	14499.62
473.31	14118.11
473.49	14043.21
473.67	14195.35
473.85	14375.57
474.03	14623.67
474.21	14736.01
474.39	14764.10
474.57	14780.48
474.75	14827.29
474.93	15054.33
475.12	14916.23
475.30	15026.24
475.48	15112.84
475.66	15445.20
475.84	14970.07
476.02	15194.76
476.20	15470.94
476.38	15751.81
476.56	16065.44
476.74	15990.54
476.92	15812.66
477.10	16002.24
477.28	16170.76
477.46	16046.71
477.64	16135.65
477.82	16765.26
478.00	17106.98
478.18	16741.85
478.36	16905.69
478.54	17104.64
478.72	17277.83
478.90	17596.15
479.08	17624.23
479.26	17799.77
479.44	17657.00
479.62	17884.03
479.80	18265.54
479.98	18333.42
480.16	18544.06
480.34	18422.36
480.52	18902.17
480.70	18766.42
480.88	18499.59
481.06	18710.24
481.24	19110.47
481.41	18944.30
481.59	19307.08
481.77	19716.67
481.95	19609.01
482.13	19735.40
482.31	19740.08
482.49	20278.40
482.67	20336.91
482.85	20404.79
483.03	20730.12
483.21	20577.99
483.39	20954.82
483.57	20865.88
483.74	21331.64
483.92	21317.60
484.10	21343.35
484.28	21858.26
484.46	22022.10
484.64	22249.13
484.82	22033.80
485.00	22235.09
485.18	22939.59
485.35	22834.27
485.53	22565.10
485.71	22953.63
485.89	23548.13
486.07	23089.38
486.25	23213.43
486.43	23592.60
486.61	23854.74
486.78	23985.81
486.96	24166.03
487.14	24641.16
487.32	24606.05
487.50	24683.29
487.68	25149.06
487.85	25329.28
488.03	25511.84
488.21	26068.89
488.39	25823.13
488.57	26333.37
488.75	26286.56
488.92	26707.85
489.10	27049.57
489.28	26977.01
489.46	27300.01
489.64	26902.12
489.81	27805.56
489.99	27988.13
490.17	27861.74
490.35	28182.39
490.53	28362.61
490.70	28224.52
490.88	28306.44
491.06	28811.99
491.24	28868.17
491.41	29067.11
491.59	29296.49
491.77	29504.79
491.95	29640.54
492.13	29818.42
492.30	30202.27
492.48	29912.05
492.66	29954.18
492.84	30164.82
493.01	30551.01
493.19	30579.10
493.37	31236.79
493.54	31372.54
493.72	32105.13
493.90	31606.59
494.08	31850.01
494.25	32287.69
494.43	31641.70
494.61	32547.49
494.79	32627.07
494.96	32673.88
495.14	32662.18
495.32	33455.62
495.49	33394.76
495.67	33310.50
495.85	33855.85
496.02	33923.72
496.20	34066.50
496.38	34288.85
496.55	34274.80
496.73	34759.30
496.91	34361.40
497.09	34983.99
497.26	34740.57
497.44	35079.95
497.62	35372.52
497.79	35957.65
497.97	35821.90
498.14	36002.12
498.32	36493.63
498.50	36472.57
498.67	36507.68
498.85	36301.71
499.03	36627.04
499.20	37067.06
499.38	36737.05
499.56	37251.97
499.73	36987.49
499.91	37366.65
500.08	37467.30
500.26	37383.04
500.44	37469.64
500.61	37708.37
500.79	37820.72
500.97	38099.24
501.14	38862.26
501.32	38799.06
501.49	38319.25
501.67	38890.34
501.84	38958.22
502.02	38628.20
502.20	39517.60
502.37	39295.25
502.55	39414.62
502.72	39878.05
502.90	39470.79
503.07	39543.35
503.25	39826.56
503.43	40055.93
503.60	39840.60
503.78	40084.01
503.95	40847.03
504.13	40542.76
504.30	40961.72
504.48	40627.02
504.65	41069.38
504.83	40905.54
505.01	41603.02
505.18	41310.46
505.36	41675.58
505.53	41743.45
505.71	41460.25
505.88	41593.66
506.06	41823.03
506.23	42244.33
506.41	41998.57
506.58	41876.86
506.76	42319.23
506.93	42665.63
507.11	42197.52
507.28	42756.91
507.46	43215.65
507.63	43063.52
507.81	43061.18
507.98	42770.95
508.16	43159.48
508.33	43339.70
508.50	43812.49
508.68	43812.49
508.85	43882.70
509.03	43423.96
509.20	43910.79
509.38	44493.58
509.55	44385.92
509.73	44769.77
509.90	44603.59
510.08	44186.97
510.25	45146.59
510.42	45031.91
510.60	45134.89
510.77	45404.05
510.95	45687.26
511.12	45336.18
511.30	44989.78
511.47	45888.54
511.64	45368.94
511.82	46167.07
511.99	45862.80
512.17	46326.22
512.34	45935.35
512.51	46548.57
512.69	46951.15
512.86	46089.83
513.04	46358.99
513.21	46815.40
513.38	46686.67
513.56	47154.77
513.73	46583.68
513.90	47093.92
514.08	47051.79
514.25	47175.84
514.43	47206.26
514.60	47342.02
514.77	47334.99
514.95	47840.55
515.12	47442.66
515.29	47849.91
515.47	48165.88
515.64	48044.18
515.81	48339.08
515.99	48030.13
516.16	48512.28
516.33	48545.05
516.51	48399.94
516.68	48814.21
516.85	48732.29
517.03	49027.20
517.20	48914.86
517.37	49076.35
517.54	48615.27
517.72	49387.64
517.89	49237.85
518.06	49221.47
518.24	48947.62
518.41	49347.86
518.58	49680.21
518.75	49212.10
518.93	49631.06
519.10	49546.80
519.27	49902.56
519.45	49881.50
519.62	50216.19
519.79	50068.74
519.96	50052.36
520.14	50274.71
520.31	50330.88
520.48	50452.59
520.65	50354.29
520.83	50899.63
521.00	50639.83
521.17	50461.95
521.34	50569.61
521.52	50803.67
521.69	50674.94
521.86	51044.74
522.03	51164.11
522.20	51236.67
522.38	51728.18
522.55	51559.66
522.72	51257.73
522.89	50988.57
523.07	51704.77
523.24	51480.08
523.41	51730.52
523.58	51402.85
523.75	52093.30
523.92	52037.13
524.10	52175.22
524.27	52137.77
524.44	52310.97
524.61	51938.83
524.78	52395.23
524.96	52212.67
525.13	52273.52
525.30	52509.92
525.47	52715.89
525.64	52182.24
525.81	52706.52
525.98	52547.37
526.16	52879.72
526.33	53212.08
526.50	53041.22
526.67	52987.39
526.84	53022.50
527.01	52868.02
527.18	53244.85
527.36	53418.05
527.53	53242.51
527.70	53612.31
527.87	53256.55
528.04	53394.64
528.21	53605.29
528.38	53389.96
528.55	53616.99
528.72	53581.88
528.89	53357.19
529.07	53581.88
529.24	53436.77
529.41	53434.43
529.58	53724.66
529.75	53893.18
529.92	53902.54
530.09	53729.34
530.26	53790.19
530.43	53851.05
530.60	53783.17
530.77	54087.44
530.94	54288.73
531.11	54031.27
531.28	54131.91
531.46	54319.15
531.63	54574.27
531.80	54134.25
531.97	54372.99
532.14	54681.94
532.31	54508.74
532.48	54695.98
532.65	54567.25
532.82	54742.79
532.99	54745.13
533.16	54876.20
533.33	54906.63
533.50	54894.92
533.67	54637.47
533.84	54752.15
534.01	54988.55
534.18	55110.25
534.35	55458.99
534.52	55210.90
534.69	55407.50
534.86	55320.90
535.03	54946.42
535.20	55267.07
535.37	55267.07
535.54	55578.36
535.71	55559.64
535.88	55379.42
536.05	55580.70
536.22	55791.35
536.38	55824.12
536.55	55814.76
536.72	55648.58
536.89	55594.74
537.06	55646.24
537.23	55908.38
537.40	55634.53
537.57	55955.19
537.74	55723.47
537.91	55952.85
538.08	55868.59
538.25	55690.71
538.42	55824.12
538.59	56151.79
538.75	56137.75
538.92	56203.28
539.09	56203.28
539.26	56203.28
539.43	56420.95
539.60	56264.14
539.77	56163.50
539.94	56734.59
540.11	56442.02
540.28	56409.25
540.44	56439.68
540.61	56390.53
540.78	56348.40
540.95	56498.19
541.12	56451.38
541.29	56722.88
541.46	56605.86
541.62	56619.90
541.79	56823.53
541.96	56526.28
542.13	56587.13
542.30	56711.18
542.47	57024.81
542.63	56949.92
542.80	57024.81
542.97	57183.97
543.14	57111.41
543.31	57492.92
543.48	57174.61
543.64	57546.75
543.81	57375.89
543.98	57111.41
544.15	57345.47
544.32	57551.43
544.48	57670.80
544.65	57448.45
544.82	57464.83
544.99	57322.06
545.16	57471.85
545.32	57591.22
545.49	57588.88
545.66	57764.42
545.83	57963.37
546.00	57642.71
546.16	57832.30
546.33	57640.37
546.50	57509.30
546.67	57972.73
546.83	57616.97
547.00	57825.28
547.17	57694.21
547.34	57895.49
547.50	58124.86
547.67	58225.51
547.84	58005.50
548.00	58192.74
548.17	58234.87
548.34	58181.04
548.51	58251.25
548.67	58220.83
548.84	58202.10
549.01	57977.41
549.18	58136.57
549.34	58162.31
549.51	58323.81
549.68	58611.70
549.84	58300.40
550.01	58433.81
550.18	58253.59
550.34	58614.04
550.51	58628.08
550.68	58576.59
550.84	58330.83
551.01	58630.42
551.18	58604.67
551.34	58571.91
551.51	58852.77
551.68	58665.53
551.84	58824.68
552.01	58539.14
552.18	58642.12
552.34	58688.93
552.51	58969.80
552.68	58693.61
552.84	58794.26
553.01	59049.38
553.18	58827.02
553.34	58876.18
553.51	58873.84
553.67	59007.25
553.84	59128.95
554.01	58946.39
554.17	58871.49
554.34	59140.66
554.51	59112.57
554.67	59140.66
554.84	58934.69
555.00	59082.14
555.17	59061.08
555.33	59117.25
555.50	58885.54
555.67	59231.94
555.83	58979.16
556.00	59098.53
556.16	59241.30
556.33	59309.18
556.50	59292.79
556.66	59402.80
556.83	59215.55
556.99	59604.08
557.16	59510.46
557.32	59758.56
557.49	59664.94
557.65	59327.90
557.82	59681.32
557.98	59451.95
558.15	59526.84
558.32	59660.26
558.48	59489.40
558.65	59353.65
558.81	59702.38
558.98	59611.10
559.14	59931.76
559.31	59765.58
559.47	59714.09
559.64	59723.45
559.80	59880.27
559.97	59606.42
560.13	59784.30
560.30	59695.36
560.46	59770.26
560.63	59826.43
560.79	59964.52
560.96	60076.87
561.12	60053.47
561.29	59859.20
561.45	59756.22
561.61	59891.97
561.78	59966.87
561.94	59948.14
562.11	59774.94
562.27	59838.14
562.44	60079.21
562.60	60097.94
562.77	60058.15
562.93	59938.78
563.10	60161.13
563.26	59711.75
563.42	60313.26
563.59	60137.72
563.75	59929.42
563.92	60044.10
564.08	60048.78
564.24	60320.29
564.41	60161.13
564.57	60109.64
564.74	60219.64
564.90	60203.26
565.07	60296.88
565.23	60168.15
565.39	60165.81
565.56	60294.54
565.72	60294.54
565.88	60399.86
566.05	60245.39
566.21	60261.77
566.38	60266.45
566.54	60308.58
566.70	60498.17
566.87	60404.55
567.03	60367.10
567.19	60582.43
567.36	60339.01
567.52	60453.70
567.68	60851.59
567.85	60542.64
568.01	60631.58
568.17	60310.92
568.34	60465.40
568.50	60446.68
568.66	60512.21
568.83	60369.44
568.99	60289.86
569.15	60203.26
569.32	60331.99
569.48	60413.91
569.64	60573.06
569.81	60563.70
569.97	60601.15
570.13	60271.14
570.30	60432.63
570.46	60722.86
570.62	60626.90
570.78	60683.07
570.95	60568.38
571.11	60704.13
571.27	60608.17
571.43	60626.90
571.60	60849.25
571.76	60704.13
571.92	60786.05
572.09	60573.06
572.25	60779.03
572.41	60561.36
572.57	60647.96
572.74	60781.37
572.90	60654.98
573.06	60748.60
573.22	60416.25
573.38	60816.48
573.55	60694.77
573.71	60814.14
573.87	60601.15
574.03	60552.00
574.20	60786.05
574.36	60755.63
574.52	60739.24
574.68	60842.23
574.84	60886.70
575.01	60886.70
575.17	60931.17
575.33	60802.44
575.49	60690.09
575.65	60678.39
575.82	60739.24
575.98	60764.99
576.14	60884.36
576.30	60879.67
576.46	60727.54
576.62	60851.59
576.79	60750.94
576.95	60528.59
577.11	60856.27
577.27	60903.08
577.43	60870.31
577.59	60774.35
577.75	60846.91
577.92	60886.70
578.08	60956.91
578.24	61104.37
578.40	61132.45
578.56	60926.49
578.72	60809.46
578.88	60835.20
579.04	61261.18
579.21	61080.96
579.37	60851.59
579.53	61158.20
579.69	60669.03
579.85	60846.91
580.01	61010.74
580.17	60807.12
580.33	61010.74
580.49	60917.12
580.65	60963.93
580.82	60807.12
580.98	60856.27
581.14	60963.93
581.30	61132.45
581.46	61069.26
581.62	61104.37
581.78	60947.55
581.94	60985.00
582.10	60928.83
582.26	60959.25
582.42	60999.04
582.58	61052.87
582.74	60903.08
582.90	60989.68
583.06	60942.87
583.22	60907.76
583.38	60931.17
583.54	60963.93
583.70	61029.47
583.86	61127.77
584.02	60954.57
584.18	61090.32
584.34	61050.53
584.50	60945.21
584.66	61045.85
584.82	60921.80
584.98	61235.44
585.14	61073.94
585.30	61029.47
585.46	61043.51
585.62	60973.30
585.78	61099.68
585.94	61036.49
586.10	61062.24
586.26	61151.18
586.42	61113.73
586.58	61289.27
586.74	61181.60
586.90	61127.77
587.06	60959.25
587.22	61333.74
587.38	61202.67
587.54	61275.22
587.70	61366.51
587.86	61043.51
588.02	61286.93
588.18	61202.67
588.34	61116.07
588.49	61080.96
