SpectraSuite Data File
++++++++++++++++++++++++++++++++++++
Date: Fri Oct 25 11:25:56 EDT 2013
User: price-jones
Dark Spectrum Present: No
Reference Spectrum Present: No
Number of Sampled Component Spectra: 1
Spectrometers: USB2+H05261
Integration Time (usec): 100000 (USB2+H05261)
Spectra Averaged: 1 (USB2+H05261)
Boxcar Smoothing: 0 (USB2+H05261)
Correct for Electrical Dark: No (USB2+H05261)
Strobe/Lamp Enabled: No (USB2+H05261)
Correct for Detector Non-linearity: No (USB2+H05261)
Correct for Stray Light: No (USB2+H05261)
Number of Pixels in Processed Spectrum: 2048
>>>>>Begin Processed Spectral Data<<<<<
365.73	266.82
365.92	266.82
366.12	266.82
366.32	177.88
366.52	138.09
366.72	187.24
366.91	128.73
367.11	131.07
367.31	74.90
367.51	126.39
367.70	121.71
367.90	194.26
368.10	173.20
368.30	126.39
368.49	142.77
368.69	114.69
368.89	152.13
369.09	110.01
369.28	210.65
369.48	182.56
369.68	88.94
369.87	201.29
370.07	271.50
370.27	236.39
370.47	341.72
370.66	566.41
370.86	650.67
371.06	662.37
371.25	704.50
371.45	568.75
371.65	725.57
371.84	760.67
372.04	695.14
372.24	664.71
372.44	732.59
372.63	697.48
372.83	730.25
373.03	683.44
373.22	685.78
373.42	763.01
373.62	718.54
373.81	793.44
374.01	821.53
374.21	741.95
374.40	854.30
374.60	826.21
374.79	741.95
374.99	926.85
375.19	830.89
375.38	826.21
375.58	863.66
375.78	791.10
375.97	849.61
376.17	840.25
376.37	816.85
376.56	915.15
376.76	931.53
376.95	873.02
377.15	917.49
377.35	896.43
377.54	924.51
377.74	833.23
377.93	866.00
378.13	952.60
378.33	908.13
378.52	884.72
378.72	915.15
378.91	936.21
379.11	915.15
379.31	950.26
379.50	999.41
379.70	917.49
379.89	936.21
380.09	959.62
380.28	1064.94
380.48	976.00
380.68	1018.13
380.87	1050.90
381.07	1025.15
381.26	1046.22
381.46	980.68
381.65	990.05
381.85	950.26
382.04	1036.86
382.24	1050.90
382.43	1090.69
382.63	1022.81
382.83	1078.99
383.02	1167.93
383.22	1104.73
383.41	1163.25
383.61	1170.27
383.80	1200.69
384.00	1001.75
384.19	1130.48
384.39	1196.01
384.58	1090.69
384.78	1107.07
384.97	1200.69
385.17	1188.99
385.36	1107.07
385.56	1191.33
385.75	1118.78
385.95	1114.10
386.14	1254.53
386.34	1210.06
386.53	1240.48
386.72	1191.33
386.92	1254.53
387.11	1238.14
387.31	1165.59
387.50	1294.32
387.70	1301.34
387.89	1284.95
388.09	1348.15
388.28	1287.29
388.48	1296.66
388.67	1270.91
388.86	1233.46
389.06	1299.00
389.25	1345.81
389.45	1320.06
389.64	1376.24
389.84	1289.64
390.03	1352.83
390.22	1404.32
390.42	1441.77
390.61	1401.98
390.81	1399.64
391.00	1460.49
391.19	1509.65
391.39	1348.15
391.58	1406.66
391.78	1488.58
391.97	1465.18
392.16	1472.20
392.36	1584.54
392.55	1493.26
392.75	1486.24
392.94	1488.58
393.13	1542.41
393.33	1544.75
393.52	1575.18
393.71	1643.06
393.91	1619.65
394.10	1633.69
394.29	1563.48
394.49	1598.59
394.68	1551.78
394.88	1605.61
395.07	1633.69
395.26	1668.80
395.46	1664.12
395.65	1802.21
395.84	1710.93
396.04	1865.41
396.23	1767.10
396.42	1678.16
396.62	1797.53
396.81	1816.26
397.00	1715.61
397.19	1739.02
397.39	1734.34
397.58	1844.34
397.77	1802.21
397.97	1863.07
398.16	1898.17
398.35	1909.88
398.55	1902.86
398.74	1888.81
398.93	1921.58
399.12	1891.15
399.32	1881.79
399.51	1849.02
399.70	2029.24
399.90	1973.07
400.09	1944.99
400.28	2120.53
400.47	2094.78
400.67	2078.40
400.86	2022.22
401.05	2136.91
401.24	2022.22
401.44	2195.42
401.63	2195.42
401.82	2122.87
402.01	2209.47
402.21	2139.25
402.40	2148.61
402.59	2242.23
402.78	2246.91
402.97	2214.15
403.17	2277.34
403.36	2232.87
403.55	2157.97
403.74	2202.44
403.93	2359.26
404.13	2457.56
404.32	2214.15
404.51	2338.20
404.70	2469.27
404.89	2396.71
405.09	2464.58
405.28	2513.74
405.47	2431.82
405.66	2443.52
405.85	2509.05
406.05	2677.57
406.24	2633.10
406.43	2628.42
406.62	2647.15
406.81	2677.57
407.00	2546.50
407.20	2668.21
407.39	2586.29
407.58	2675.23
407.77	2602.68
407.96	2672.89
408.15	2768.85
408.34	2642.46
408.54	2932.69
408.73	2778.22
408.92	2810.98
409.11	2888.22
409.30	2984.18
409.49	2785.24
409.68	2942.05
409.87	2836.73
410.07	2942.05
410.26	3049.72
410.45	2937.37
410.64	3066.10
410.83	3063.76
411.02	3068.44
411.21	3178.45
411.40	3236.96
411.59	3171.43
411.78	3166.74
411.98	3222.92
412.17	3328.24
412.36	3302.50
412.55	3227.60
412.74	3440.59
412.93	3283.77
413.12	3414.84
413.31	3557.61
413.50	3471.01
413.69	3435.91
413.88	3641.87
414.07	3566.98
414.26	3702.73
414.45	3667.62
414.64	3679.32
414.83	3719.11
415.02	3896.99
415.22	3772.94
415.41	3915.72
415.60	3852.52
415.79	3866.56
415.98	3955.51
416.17	3836.14
416.36	3955.51
416.55	4053.81
416.74	4203.60
416.93	4023.38
417.12	4117.00
417.31	4269.14
417.50	4292.54
417.69	4306.59
417.88	4231.69
418.07	4472.76
418.26	4234.03
418.45	4484.47
418.64	4365.10
418.83	4381.48
419.02	4432.97
419.21	4472.76
419.39	4500.85
419.58	4606.17
419.77	4564.04
419.96	4535.96
420.15	4734.90
420.34	4624.90
420.53	4671.71
420.72	4631.92
420.91	4681.07
421.10	4739.58
421.29	4746.61
421.48	4645.96
421.67	4884.70
421.86	4802.78
422.05	4816.82
422.24	4788.74
422.43	4791.08
422.61	4891.72
422.80	4938.53
422.99	4959.60
423.18	5062.58
423.37	4985.34
423.56	4842.57
423.75	4917.47
423.94	4784.06
424.13	4615.54
424.32	4631.92
424.50	4936.19
424.69	5064.92
424.88	5022.79
425.07	4961.94
425.26	4865.97
425.45	4945.55
425.64	5011.09
425.83	4985.34
426.01	4987.68
426.20	4917.47
426.39	5025.13
426.58	5093.01
426.77	5104.71
426.96	5060.24
427.15	5111.73
427.33	5266.21
427.52	5114.07
427.71	5294.29
427.90	5233.44
428.09	5350.46
428.28	5350.46
428.46	5320.04
428.65	5186.63
428.84	5603.24
429.03	5657.07
429.22	5404.30
429.40	5462.81
429.59	5568.13
429.78	5509.62
429.97	5423.02
430.16	5430.04
430.34	5579.84
430.53	5699.20
430.72	5661.76
430.91	5488.56
431.10	5652.39
431.28	5795.17
431.47	5771.76
431.66	5727.29
431.85	5802.19
432.03	5795.17
432.22	5933.26
432.41	5923.90
432.60	5827.93
432.79	5951.98
432.97	5970.71
433.16	5994.11
433.35	6043.26
433.54	5916.87
433.72	6218.80
433.91	5984.75
434.10	6270.30
434.28	6143.91
434.47	6183.70
434.66	6221.14
434.85	6340.51
435.03	6190.72
435.22	6342.85
435.41	6499.67
435.59	6335.83
435.78	6506.69
435.97	6480.94
436.16	6485.62
436.34	6319.45
436.53	6565.20
436.72	6513.71
436.90	6478.60
437.09	6689.25
437.28	6478.60
437.46	6679.89
437.65	6733.72
437.84	6633.08
438.02	6534.78
438.21	6862.45
438.40	6677.55
438.58	6937.35
438.77	6773.51
438.96	6862.45
439.14	7173.74
439.33	6855.43
439.52	7159.70
439.70	7215.87
439.89	7360.98
440.08	7342.26
440.26	7262.68
440.45	7370.35
440.63	7258.00
440.82	7557.59
441.01	7442.90
441.19	7581.00
441.38	7719.09
441.57	7686.32
441.75	7775.26
441.94	7978.89
442.12	7955.48
442.31	7789.30
442.50	8107.62
442.68	8126.34
442.87	7913.35
443.05	8128.68
443.24	8269.11
443.43	7988.25
443.61	8301.88
443.80	8456.36
443.98	7899.31
444.17	7953.14
444.35	8231.66
444.54	8308.90
444.73	8290.18
444.91	8145.06
445.10	8348.69
445.28	8358.05
445.47	8390.82
445.65	8243.37
445.84	8191.88
446.02	8549.98
446.21	8369.76
446.39	8346.35
446.58	8379.12
446.77	8472.74
446.95	8147.40
447.14	8327.63
447.32	8465.72
447.51	8622.53
447.69	8430.61
447.88	8510.19
448.06	8461.04
448.25	8479.76
448.43	8540.61
448.62	8547.64
448.80	8620.19
448.99	8615.51
449.17	8840.20
449.36	8592.11
449.54	8851.91
449.73	8912.76
449.91	8903.40
450.10	8870.63
450.28	9055.53
450.46	8837.86
450.65	8945.53
450.83	8943.19
451.02	8926.80
451.20	9100.00
451.39	9177.24
451.57	9032.13
451.76	9210.01
451.94	9334.06
452.13	9394.91
452.31	9305.97
452.49	9078.94
452.68	9376.19
452.86	9289.59
453.05	9383.21
453.23	9205.33
453.42	9352.78
453.60	9275.54
453.78	9376.19
453.97	9528.32
454.15	9549.39
454.34	9427.68
454.52	9654.71
454.70	9802.16
454.89	9666.41
455.07	9748.33
455.26	9856.00
455.44	9919.19
455.62	9893.44
455.81	9848.97
455.99	9820.89
456.17	10029.20
456.36	10054.94
456.54	10202.40
456.73	9998.77
456.91	10532.41
457.09	10478.58
457.28	10520.71
457.46	10368.57
457.64	10548.79
457.83	10492.62
458.01	10356.87
458.19	10389.64
458.38	10562.84
458.56	10574.54
458.74	10839.02
458.93	10546.45
459.11	10953.71
459.29	10752.42
459.48	10824.98
459.66	10724.33
459.84	10836.68
460.03	10965.41
460.21	10906.90
460.39	11152.65
460.57	10927.96
460.76	11042.65
460.94	11117.54
461.12	11236.91
461.31	11157.33
461.49	11007.54
461.67	11206.48
461.85	11485.01
462.04	11225.21
462.22	11913.33
462.40	11627.78
462.59	11625.44
462.77	11302.45
462.95	11426.50
463.13	11386.71
463.32	11508.41
463.50	11749.49
463.68	11894.60
463.86	11524.80
464.05	11377.34
464.23	11644.17
464.41	11803.32
464.59	11810.34
464.78	11992.90
464.96	12072.48
465.14	11847.79
465.32	11786.94
465.50	12159.08
465.69	12161.42
465.87	12421.22
466.05	12035.03
466.23	12374.41
466.41	12257.39
466.60	12435.27
466.78	12079.50
466.96	12152.06
467.14	12512.50
467.32	12376.75
467.51	12610.81
467.69	12189.51
467.87	12491.44
468.05	12678.68
468.23	12194.19
468.41	12521.87
468.60	12681.02
468.78	12533.57
468.96	12528.89
469.14	12709.11
469.32	13130.41
469.50	12610.81
469.69	12849.54
469.87	13135.09
470.05	13074.23
470.23	13151.47
470.41	13128.06
470.59	13240.41
470.77	13268.50
470.95	13198.28
471.14	13537.66
471.32	13327.01
471.50	13301.26
471.68	13301.26
471.86	13741.29
472.04	13806.82
472.22	13914.48
472.40	13572.77
472.58	13750.65
472.77	14075.98
472.95	14003.43
473.13	14628.35
473.31	13846.61
473.49	14286.63
473.67	14101.73
473.85	14370.89
474.03	14534.73
474.21	14719.63
474.39	14726.65
474.57	14733.67
474.75	14988.79
474.93	15140.93
475.12	14693.88
475.30	14993.47
475.48	15019.22
475.66	14956.02
475.84	15136.24
476.02	15400.72
476.20	15566.90
476.38	15449.88
476.56	15807.98
476.74	15763.51
476.92	15651.16
477.10	16039.69
477.28	16053.73
477.46	15978.84
477.64	16355.66
477.82	16486.73
478.00	17071.87
478.18	16879.94
478.36	17165.49
478.54	17329.33
478.72	17163.15
478.90	17481.46
479.08	17446.35
479.26	17774.03
479.44	17500.19
479.62	17631.26
479.80	18082.98
479.98	18094.68
480.16	18689.18
480.34	18478.53
480.52	18567.47
480.70	18204.69
480.88	18726.63
481.06	18597.90
481.24	18895.14
481.41	18953.66
481.59	19370.27
481.77	19609.01
481.95	19452.19
482.13	19480.28
482.31	19515.39
482.49	20367.34
482.67	20107.54
482.85	20404.79
483.03	20535.86
483.21	20676.29
483.39	20758.21
483.57	20781.62
483.74	21001.63
483.92	21238.02
484.10	21275.47
484.28	21834.86
484.46	21905.07
484.64	22436.38
484.82	21968.27
485.00	22223.39
485.18	22504.25
485.35	22679.79
485.53	22843.63
485.71	22794.48
485.89	23515.36
486.07	23484.94
486.25	23388.97
486.43	23697.92
486.61	23840.70
486.78	24049.00
486.96	24044.32
487.14	24587.33
487.32	24566.26
487.50	25109.27
487.68	25046.07
487.85	24915.00
488.03	25689.72
488.21	26003.35
488.39	25752.91
488.57	26195.28
488.75	26061.87
488.92	26525.29
489.10	26602.53
489.28	26473.80
489.46	27349.16
489.64	26937.23
489.81	27782.16
489.99	27480.23
490.17	27943.66
490.35	27896.85
490.53	28053.66
490.70	28470.28
490.88	28299.42
491.06	28886.89
491.24	28910.30
491.41	28762.84
491.59	29029.66
491.77	29134.99
491.95	29193.50
492.13	29727.14
492.30	29680.33
492.48	30019.71
492.66	30256.11
492.84	30274.83
493.01	30726.55
493.19	30319.30
493.37	31040.18
493.54	31070.61
493.72	31536.38
493.90	31632.34
494.08	31784.48
494.25	32025.55
494.43	31695.53
494.61	32006.83
494.79	32472.59
494.96	32793.25
495.14	32521.74
495.32	33118.58
495.49	32645.79
495.67	33132.62
495.85	33092.83
496.02	33764.57
496.20	34040.75
496.38	34038.41
496.55	34239.70
496.73	34766.32
496.91	34419.92
497.09	35208.68
497.26	34780.36
497.44	34792.06
497.62	35222.72
497.79	35695.51
497.97	35236.77
498.14	36074.68
498.32	35810.20
498.50	36091.06
498.67	36921.95
498.85	36460.87
499.03	37031.96
499.20	36500.65
499.38	37099.83
499.56	37223.88
499.73	37181.75
499.91	37394.74
500.08	37827.74
500.26	37357.29
500.44	37404.10
500.61	37799.65
500.79	37404.10
500.97	38249.03
501.14	38272.44
501.32	38384.79
501.49	38298.19
501.67	38845.87
501.84	39227.38
502.02	38855.23
502.20	39374.83
502.37	39246.10
502.55	38932.47
502.72	39372.49
502.90	39428.66
503.07	39447.39
503.25	39651.02
503.43	39557.39
503.60	39746.98
503.78	40257.21
503.95	40240.83
504.13	40051.25
504.30	40421.05
504.48	40385.94
504.65	40636.38
504.83	40905.54
505.01	41155.98
505.18	41146.62
505.36	41556.21
505.53	41450.89
505.71	41308.11
505.88	41584.30
506.06	42054.75
506.23	41998.57
506.41	42349.65
506.58	41776.22
506.76	42188.16
506.93	42724.14
507.11	42508.81
507.28	42471.36
507.46	42391.78
507.63	42656.26
507.81	42845.85
507.98	42834.14
508.16	42958.19
508.33	43356.08
508.50	43213.31
508.68	43611.20
508.85	44076.97
509.03	43653.33
509.20	43679.08
509.38	43920.15
509.55	44374.22
509.73	44296.98
509.90	44624.65
510.08	44236.12
510.25	44706.57
510.42	44769.77
510.60	45413.41
510.77	44865.73
510.95	45603.00
511.12	45010.84
511.30	44931.26
511.47	45141.91
511.64	45413.41
511.82	45881.52
511.99	45549.17
512.17	46012.59
512.34	46138.98
512.51	46335.59
512.69	46492.40
512.86	46033.66
513.04	46564.96
513.21	46220.90
513.38	46609.43
513.56	46937.10
513.73	46799.01
513.90	46813.05
514.08	46892.63
514.25	47297.55
514.43	47175.84
514.60	47138.39
514.77	47044.77
514.95	47466.06
515.12	47501.17
515.29	47370.10
515.47	47604.16
515.64	47653.31
515.81	47751.61
515.99	47870.98
516.16	48158.86
516.33	48341.42
516.51	48170.57
516.68	48495.90
516.85	48505.26
517.03	48626.97
517.20	48886.77
517.37	48589.52
517.54	48830.60
517.72	48456.11
517.89	48729.95
518.06	48924.22
518.24	49144.23
518.41	49535.10
518.58	49193.38
518.75	48989.75
518.93	49277.64
519.10	49640.42
519.27	49792.56
519.45	49785.54
519.62	49918.95
519.79	49886.18
519.96	49862.77
520.14	50143.64
520.31	50080.44
520.48	50171.72
520.65	50099.17
520.83	50759.20
521.00	50644.51
521.17	50649.19
521.34	50663.24
521.52	50850.48
521.69	50518.12
521.86	50831.75
522.03	50806.01
522.20	51187.52
522.38	51505.83
522.55	51224.96
522.72	51016.66
522.89	51253.05
523.07	51526.89
523.24	51391.14
523.41	51819.46
523.58	51604.13
523.75	51739.88
523.92	51423.91
524.10	52093.30
524.27	51903.72
524.44	51763.29
524.61	51931.81
524.78	51964.57
524.96	52151.82
525.13	52102.67
525.30	52397.57
525.47	52060.54
525.64	52289.91
525.81	52545.03
525.98	52650.35
526.16	52229.05
526.33	52575.45
526.50	53008.45
526.67	52734.61
526.84	52942.92
527.01	52956.96
527.18	52891.43
527.36	52802.49
527.53	52846.96
527.70	53352.51
527.87	53109.10
528.04	53041.22
528.21	53277.61
528.38	53198.04
528.55	53315.06
528.72	53244.85
528.89	53326.77
529.07	53668.48
529.24	53537.41
529.41	53694.23
529.58	53530.39
529.75	53710.61
529.92	53633.38
530.09	53785.51
530.26	53858.07
530.43	53900.20
530.60	53876.79
530.77	53668.48
530.94	54138.93
531.11	53804.24
531.28	53979.78
531.46	54230.21
531.63	54167.02
531.80	54225.53
531.97	54265.32
532.14	54532.14
532.31	54340.22
532.48	54450.22
532.65	54672.57
532.82	54569.59
532.99	54607.04
533.16	54473.63
533.33	54777.90
533.50	54824.71
533.67	54836.41
533.84	54791.94
534.01	54703.00
534.18	54829.39
534.35	55278.77
534.52	54829.39
534.69	55276.43
534.86	55367.71
535.03	55150.04
535.20	55107.91
535.37	55295.16
535.54	55351.33
535.71	55426.23
535.88	55231.96
536.05	55325.58
536.22	55594.74
536.38	55648.58
536.55	55576.02
536.72	55419.20
536.89	55592.40
537.06	55566.66
537.23	55688.37
537.40	55604.11
537.57	55573.68
537.74	55943.48
537.91	55868.59
538.08	56069.87
538.25	55636.87
538.42	55854.54
538.59	56107.32
538.75	55913.06
538.92	55962.21
539.09	56135.41
539.26	56067.53
539.43	56093.28
539.60	56156.47
539.77	56355.42
539.94	56299.25
540.11	56343.72
540.28	56498.19
540.44	56470.11
540.61	56210.31
540.78	56350.74
540.95	56378.82
541.12	56378.82
541.29	56165.84
541.46	56545.00
541.62	56711.18
541.79	56633.94
541.96	56030.08
542.13	56502.87
542.30	56963.96
542.47	56762.67
542.63	56830.55
542.80	56821.19
542.97	57076.30
543.14	57230.78
543.31	57116.09
543.48	57308.02
543.64	57453.13
543.81	57205.03
543.98	57092.69
544.15	57223.76
544.32	57354.83
544.48	57752.72
544.65	57265.89
544.82	57214.40
544.99	57176.95
545.16	57446.11
545.32	57123.11
545.49	57647.39
545.66	57586.54
545.83	57530.37
546.00	57544.41
546.16	57525.69
546.33	57497.60
546.50	57413.34
546.67	57780.81
546.83	57434.41
547.00	57717.61
547.17	57434.41
547.34	57893.15
547.50	57780.81
547.67	58113.16
547.84	57787.83
548.00	57904.85
548.17	58368.28
548.34	57921.24
548.51	58234.87
548.67	58262.96
548.84	58143.59
549.01	57986.77
549.18	58094.44
549.34	58342.53
549.51	58169.33
549.68	58220.83
549.84	58384.66
550.01	58300.40
550.18	58241.89
550.34	58468.92
550.51	58356.58
550.68	58302.74
550.84	58227.85
551.01	58391.68
551.18	58532.12
551.34	58527.44
551.51	58574.25
551.68	58607.01
551.84	58588.29
552.01	58396.37
552.18	58749.79
552.34	58543.82
552.51	58777.87
552.68	58471.26
552.84	58590.63
553.01	58784.90
553.18	58672.55
553.34	58796.60
553.51	58754.47
553.67	58618.72
553.84	59054.06
554.01	58990.86
554.17	58922.99
554.34	59035.33
554.51	58848.09
554.67	59025.97
554.84	58997.88
555.00	58717.02
555.17	59032.99
555.33	58993.20
555.50	58763.83
555.67	58937.03
555.83	59040.01
556.00	59215.55
556.16	59178.10
556.33	59318.54
556.50	59117.25
556.66	59178.10
556.83	59164.06
556.99	59515.14
557.16	59323.22
557.32	59543.23
557.49	59451.95
557.65	59194.49
557.82	59147.68
557.98	59224.92
558.15	59358.33
558.32	59634.51
558.48	59430.88
558.65	59360.67
558.81	59414.50
558.98	59433.22
559.14	59489.40
559.31	59568.97
559.47	59416.84
559.64	59538.55
559.80	59805.37
559.97	59779.62
560.13	59323.22
560.30	59470.67
560.46	59550.25
560.63	59590.04
560.79	59854.52
560.96	59936.44
561.12	59730.47
561.29	59737.49
561.45	59987.93
561.61	59875.58
561.78	59915.37
561.94	59765.58
562.11	59821.75
562.27	59800.69
562.44	59976.23
562.60	59971.55
562.77	59952.82
562.93	59564.29
563.10	59924.74
563.26	59810.05
563.42	60151.77
563.59	59952.82
563.75	59894.31
563.92	59884.95
564.08	59835.80
564.24	60186.88
564.41	60107.30
564.57	60182.19
564.74	60128.36
564.90	59966.87
565.07	60023.04
565.23	59973.89
565.39	60062.83
565.56	60278.16
565.72	60062.83
565.88	60317.95
566.05	60037.08
566.21	60069.85
566.38	60282.84
566.54	60006.65
566.70	60477.10
566.87	60329.65
567.03	60135.38
567.19	60397.52
567.36	60158.79
567.52	60275.82
567.68	60570.72
567.85	60306.24
568.01	60385.82
568.17	60331.99
568.34	60243.05
568.50	60423.27
568.66	60184.54
568.83	60350.71
568.99	60214.96
569.15	60404.55
569.32	60409.23
569.48	60285.18
569.64	60556.68
569.81	60285.18
569.97	60083.89
570.13	60353.05
570.30	60280.50
570.46	60425.61
570.62	60505.19
570.78	60472.42
570.95	60327.31
571.11	60460.72
571.27	60402.21
571.43	60470.08
571.60	60556.68
571.76	60612.85
571.92	60427.95
572.09	60526.25
572.25	60395.18
572.41	60699.45
572.57	60493.49
572.74	60743.92
572.90	60439.65
573.06	60692.43
573.22	60549.66
573.38	60561.36
573.55	60568.38
573.71	60640.94
573.87	60708.82
574.03	60505.19
574.20	60645.62
574.36	60722.86
574.52	60629.24
574.68	60835.20
574.84	60587.11
575.01	60949.89
575.17	60477.10
575.33	60800.10
575.49	60657.32
575.65	60746.26
575.82	60699.45
575.98	60849.25
576.14	61003.72
576.30	60753.29
576.46	60598.81
576.62	60704.13
576.79	60584.77
576.95	60514.55
577.11	60725.20
577.27	60898.40
577.43	60561.36
577.59	60797.76
577.75	60610.51
577.92	60643.28
578.08	60594.13
578.24	60739.24
578.40	60846.91
578.56	61008.40
578.72	60708.82
578.88	60896.06
579.04	60870.31
579.21	60860.95
579.37	60980.32
579.53	60781.37
579.69	60711.16
579.85	60659.66
580.01	60701.79
580.17	60692.43
580.33	60853.93
580.49	60926.49
580.65	60816.48
580.82	60750.94
580.98	60767.33
581.14	60795.42
581.30	60940.53
581.46	61020.11
581.62	60837.54
581.78	60697.11
581.94	60973.30
582.10	60800.10
582.26	60977.98
582.42	60945.21
582.58	60725.20
582.74	60683.07
582.90	60900.74
583.06	60919.46
583.22	60790.73
583.38	60837.54
583.54	60865.63
583.70	60825.84
583.86	61069.26
584.02	60633.92
584.18	61069.26
584.34	60867.97
584.50	60795.42
584.66	60779.03
584.82	60898.40
584.98	61085.64
585.14	61251.82
585.30	60804.78
585.46	60999.04
585.62	61146.50
585.78	61090.32
585.94	60891.38
586.10	61062.24
586.26	60886.70
586.42	61008.40
586.58	61034.15
586.74	60940.53
586.90	60947.55
587.06	60844.57
587.22	60858.61
587.38	60985.00
587.54	61240.12
587.70	61109.05
587.86	61116.07
588.02	61078.62
588.18	61116.07
588.34	61109.05
588.49	60945.21
