SpectraSuite Data File
++++++++++++++++++++++++++++++++++++
Date: Fri Oct 25 11:24:05 EDT 2013
User: price-jones
Dark Spectrum Present: No
Reference Spectrum Present: No
Number of Sampled Component Spectra: 1
Spectrometers: USB2+H05261
Integration Time (usec): 100000 (USB2+H05261)
Spectra Averaged: 1 (USB2+H05261)
Boxcar Smoothing: 0 (USB2+H05261)
Correct for Electrical Dark: No (USB2+H05261)
Strobe/Lamp Enabled: No (USB2+H05261)
Correct for Detector Non-linearity: No (USB2+H05261)
Correct for Stray Light: No (USB2+H05261)
Number of Pixels in Processed Spectrum: 2048
>>>>>Begin Processed Spectral Data<<<<<
365.73	196.60
365.92	196.60
366.12	196.60
366.32	220.01
366.52	220.01
366.72	131.07
366.91	149.79
367.11	102.98
367.31	112.35
367.51	201.29
367.70	154.48
367.90	166.18
368.10	114.69
368.30	149.79
368.49	67.88
368.69	107.66
368.89	128.73
369.09	166.18
369.28	203.63
369.48	166.18
369.68	198.95
369.87	222.35
370.07	145.11
370.27	212.99
370.47	376.83
370.66	571.09
370.86	648.33
371.06	667.05
371.25	617.90
371.45	641.31
371.65	664.71
371.84	636.63
372.04	723.23
372.24	741.95
372.44	704.50
372.63	772.38
372.83	711.52
373.03	805.14
373.22	770.04
373.42	692.80
373.62	765.36
373.81	830.89
374.01	898.77
374.21	725.57
374.40	774.72
374.60	875.36
374.79	760.67
374.99	758.33
375.19	854.30
375.38	854.30
375.58	908.13
375.78	887.06
375.97	964.30
376.17	894.08
376.37	826.21
376.56	887.06
376.76	908.13
376.95	901.11
377.15	898.77
377.35	868.34
377.54	847.27
377.74	840.25
377.93	887.06
378.13	945.58
378.33	910.47
378.52	968.98
378.72	976.00
378.91	978.34
379.11	887.06
379.31	866.00
379.50	952.60
379.70	1071.97
379.89	880.04
380.09	875.36
380.28	891.74
380.48	990.05
380.68	947.92
380.87	945.58
381.07	1039.20
381.26	976.00
381.46	1011.11
381.65	1050.90
381.85	1078.99
382.04	1111.75
382.24	1081.33
382.43	1128.14
382.63	1025.15
382.83	1027.50
383.02	1118.78
383.22	1048.56
383.41	1107.07
383.61	1142.18
383.80	1142.18
384.00	1100.05
384.19	1109.41
384.39	1104.73
384.58	1163.25
384.78	1149.20
384.97	1174.95
385.17	1125.80
385.36	1149.20
385.56	1172.61
385.75	1132.82
385.95	1184.31
386.14	1179.63
386.34	1165.59
386.53	1217.08
386.72	1181.97
386.92	1273.25
387.11	1181.97
387.31	1228.78
387.50	1277.93
387.70	1249.85
387.89	1233.46
388.09	1296.66
388.28	1238.14
388.48	1322.40
388.67	1308.36
388.86	1294.32
389.06	1320.06
389.25	1362.19
389.45	1329.42
389.64	1362.19
389.84	1345.81
390.03	1331.76
390.22	1416.02
390.42	1380.92
390.61	1338.79
390.81	1390.28
391.00	1380.92
391.19	1418.36
391.39	1392.62
391.58	1474.54
391.78	1467.52
391.97	1479.22
392.16	1437.09
392.36	1469.86
392.55	1350.49
392.75	1476.88
392.94	1460.49
393.13	1519.01
393.33	1472.20
393.52	1481.56
393.71	1614.97
393.91	1598.59
394.10	1549.43
394.29	1572.84
394.49	1584.54
394.68	1657.10
394.88	1664.12
395.07	1715.61
395.26	1652.42
395.46	1671.14
395.65	1732.00
395.84	1739.02
396.04	1720.29
396.23	1802.21
396.42	1781.15
396.62	1781.15
396.81	1678.16
397.00	1722.63
397.19	1753.06
397.39	1830.30
397.58	1851.36
397.77	1874.77
397.97	1809.23
398.16	1849.02
398.35	1998.82
398.55	1872.43
398.74	1935.62
398.93	1909.88
399.12	1944.99
399.32	1914.56
399.51	1991.80
399.70	2045.63
399.90	1970.73
400.09	1989.46
400.28	2071.37
400.47	2083.08
400.67	2022.22
400.86	2043.29
401.05	2118.18
401.24	2076.06
401.44	2132.23
401.63	2193.08
401.82	2221.17
402.01	2022.22
402.21	2108.82
402.40	2162.66
402.59	2181.38
402.78	2143.93
402.97	2146.27
403.17	2312.45
403.36	2387.35
403.55	2342.88
403.74	2373.30
403.93	2345.22
404.13	2490.33
404.32	2382.67
404.51	2448.20
404.70	2359.26
404.89	2368.62
405.09	2375.64
405.28	2434.16
405.47	2464.58
405.66	2558.21
405.85	2518.42
406.05	2448.20
406.24	2450.54
406.43	2583.95
406.62	2773.53
406.81	2576.93
407.00	2729.06
407.20	2560.55
407.39	2672.89
407.58	2665.87
407.77	2679.91
407.96	2677.57
408.15	2801.62
408.34	2731.41
408.54	2754.81
408.73	2825.03
408.92	2878.86
409.11	2813.32
409.30	2810.98
409.49	2911.63
409.68	2946.73
409.87	2904.60
410.07	3049.72
410.26	3000.57
410.45	2963.12
410.64	3047.38
410.83	3145.68
411.02	3115.25
411.21	3194.83
411.40	3068.44
411.59	3122.27
411.78	3265.05
411.98	3164.40
412.17	3199.51
412.36	3213.56
412.55	3204.19
412.74	3454.63
412.93	3454.63
413.12	3314.20
413.31	3456.97
413.50	3449.95
413.69	3454.63
413.88	3599.74
414.07	3625.49
414.26	3765.92
414.45	3625.49
414.64	3801.03
414.83	3819.75
415.02	3644.21
415.22	3808.05
415.41	3878.27
415.60	3836.14
415.79	4002.32
415.98	4219.99
416.17	4039.76
416.36	3983.59
416.55	4025.72
416.74	4042.11
416.93	3967.21
417.12	4063.17
417.31	4131.05
417.50	4238.71
417.69	4322.97
417.88	4248.07
418.07	4180.20
418.26	4266.80
418.45	4278.50
418.64	4526.60
418.83	4355.74
419.02	4259.78
419.21	4615.54
419.39	4454.04
419.58	4554.68
419.77	4512.55
419.96	4571.07
420.15	4603.83
420.34	4636.60
420.53	4678.73
420.72	4795.76
420.91	4713.84
421.10	4812.14
421.29	4823.84
421.48	4739.58
421.67	4950.23
421.86	4725.54
422.05	4760.65
422.24	4744.27
422.43	4858.95
422.61	5043.85
422.80	4861.29
422.99	4898.74
423.18	4994.70
423.37	5055.56
423.56	4987.68
423.75	5076.62
423.94	4819.16
424.13	4486.81
424.32	4863.63
424.50	5039.17
424.69	5116.41
424.88	5116.41
425.07	4947.89
425.26	4922.15
425.45	5022.79
425.64	5088.32
425.83	5064.92
426.01	5055.56
426.20	5083.64
426.39	5074.28
426.58	5111.73
426.77	5186.63
426.96	4997.04
427.15	5095.35
427.33	5214.71
427.52	5151.52
427.71	5289.61
427.90	5170.24
428.09	5191.31
428.28	5371.53
428.46	5343.44
428.65	5430.04
428.84	5451.11
429.03	5591.54
429.22	5313.02
429.40	5460.47
429.59	5476.85
429.78	5205.35
429.97	5362.17
430.16	5446.43
430.34	5495.58
430.53	5771.76
430.72	5612.60
430.91	5717.93
431.10	5682.82
431.28	5614.95
431.47	5703.89
431.66	5970.71
431.85	5790.49
432.03	5865.38
432.22	5923.90
432.41	6015.18
432.60	6005.81
432.79	6026.88
432.97	5944.96
433.16	6153.27
433.35	6022.20
433.54	5991.77
433.72	6225.82
433.91	6143.91
434.10	6090.07
434.28	6125.18
434.47	6312.42
434.66	6160.29
434.85	6310.08
435.03	6239.87
435.22	6363.92
435.41	6408.39
435.59	6342.85
435.78	6420.09
435.97	6408.39
436.16	6420.09
436.34	6525.41
436.53	6516.05
436.72	6675.21
436.90	6396.68
437.09	6768.83
437.28	6513.71
437.46	6626.06
437.65	6665.85
437.84	6988.84
438.02	6799.26
438.21	6829.68
438.40	6761.81
438.58	7220.55
438.77	7140.97
438.96	6967.77
439.14	7061.40
439.33	7351.62
439.52	7171.40
439.70	7225.23
439.89	7288.43
440.08	7400.77
440.26	7583.34
440.45	7274.38
440.63	7543.55
440.82	7634.83
441.01	7555.25
441.19	7407.80
441.38	7882.92
441.57	7770.58
441.75	7651.21
441.94	7967.18
442.12	7950.80
442.31	7978.89
442.50	7990.59
442.68	7967.18
442.87	8035.06
443.05	8367.42
443.24	8376.78
443.43	8196.56
443.61	8152.09
443.80	8409.54
443.98	7955.48
444.17	7735.47
444.35	8318.26
444.54	8479.76
444.73	8411.89
444.91	8388.48
445.10	8496.14
445.28	8369.76
445.47	8442.31
445.65	8329.97
445.84	8753.60
446.02	8535.93
446.21	8461.04
446.39	8622.53
446.58	8634.24
446.77	8484.44
446.95	8346.35
447.14	8489.12
447.32	8737.22
447.51	8395.50
447.69	8461.04
447.88	8367.42
448.06	8465.72
448.25	8582.74
448.43	8685.73
448.62	8730.20
448.80	8475.08
448.99	8657.64
449.17	8896.38
449.36	8659.98
449.54	9081.28
449.73	9071.92
449.91	8746.58
450.10	9207.67
450.28	9060.21
450.46	9261.50
450.65	9062.55
450.83	8887.01
451.02	9095.32
451.20	9184.26
451.39	9074.26
451.57	9092.98
451.76	9214.69
451.94	9345.76
452.13	9423.00
452.31	9423.00
452.49	9163.20
452.68	9284.91
452.86	9256.82
453.05	9582.15
453.23	9420.66
453.42	9275.54
453.60	9507.26
453.78	9694.50
453.97	9474.49
454.15	9514.28
454.34	9668.75
454.52	9837.27
454.70	9771.74
454.89	9921.53
455.07	9799.82
455.26	9865.36
455.44	10015.15
455.62	9888.76
455.81	10054.94
455.99	10200.05
456.17	10207.08
456.36	10085.37
456.54	10298.36
456.73	10380.28
456.91	10675.18
457.09	10415.38
457.28	10483.26
457.46	10434.11
457.64	10686.89
457.83	10579.22
458.01	10452.83
458.19	10857.75
458.38	10574.54
458.56	10593.26
458.74	10710.29
458.93	10740.72
459.11	10934.98
459.29	10553.48
459.48	10836.68
459.66	10808.59
459.84	10946.69
460.03	11169.04
460.21	11115.20
460.39	10743.06
460.57	11049.67
460.76	11321.17
460.94	11417.13
461.12	11283.72
461.31	11162.01
461.49	11190.10
461.67	11215.85
461.85	11349.26
462.04	11449.90
462.22	11510.75
462.40	11599.70
462.59	11438.20
462.77	11543.52
462.95	11808.00
463.13	11721.40
463.32	11623.10
463.50	11632.46
463.68	11885.24
463.86	11864.18
464.05	11733.11
464.23	11613.74
464.41	11838.43
464.59	12100.57
464.78	12336.96
464.96	12032.69
465.14	11850.13
465.32	12250.36
465.50	12046.74
465.69	12297.17
465.87	12140.36
466.05	12210.57
466.23	12208.23
466.41	12269.09
466.60	12652.94
466.78	12088.87
466.96	12119.29
467.14	12367.39
467.32	12510.16
467.51	12666.98
467.69	12348.67
467.87	12379.09
468.05	12697.41
468.23	12461.01
468.41	12610.81
468.60	12617.83
468.78	12992.31
468.96	12521.87
469.14	13015.72
469.32	13261.48
469.50	12704.43
469.69	13043.81
469.87	13224.03
470.05	13270.84
470.23	13191.26
470.41	13128.06
470.59	13224.03
470.77	13242.75
470.95	13322.33
471.14	13394.89
471.32	13025.08
471.50	13453.40
471.68	13664.05
471.86	13549.36
472.04	13645.32
472.22	13994.06
472.40	13928.53
472.58	13813.84
472.77	14085.34
472.95	14359.19
473.13	14672.82
473.31	14230.46
473.49	14188.33
473.67	14319.40
473.85	14218.75
474.03	14525.36
474.21	14618.99
474.39	15073.05
474.57	14867.08
474.75	15040.28
474.93	15049.64
475.12	15145.61
475.30	15384.34
475.48	15220.50
475.66	15286.04
475.84	15183.06
476.02	15267.31
476.20	15693.29
476.38	15826.70
476.56	16142.67
476.74	15880.53
476.92	16023.31
477.10	15925.00
477.28	16379.07
477.46	16318.22
477.64	16358.00
477.82	16575.67
478.00	16908.03
478.18	16992.29
478.36	16966.54
478.54	17198.26
478.72	17504.87
478.90	17444.01
479.08	17706.15
479.26	17879.35
479.44	17610.19
479.62	18033.83
479.80	18192.98
479.98	18443.42
480.16	18672.79
480.34	18134.47
480.52	18733.65
480.70	18724.29
480.88	18497.25
481.06	18876.42
481.24	18848.33
481.41	19342.19
481.59	19538.79
481.77	19623.05
481.95	19686.25
482.13	19786.89
482.31	19744.76
482.49	20212.87
482.67	20032.65
482.85	20592.03
483.03	20737.15
483.21	20877.58
483.39	21069.50
483.57	20884.60
483.74	20945.45
483.92	21729.53
484.10	21383.13
484.28	21766.98
484.46	22183.60
484.64	22403.61
484.82	22141.47
485.00	22403.61
485.18	22745.33
485.35	23028.53
485.53	22916.19
485.71	23285.99
485.89	23520.04
486.07	23405.36
486.25	23531.75
486.43	23566.85
486.61	24123.90
486.78	24283.06
486.96	24531.15
487.14	24624.78
487.32	24753.51
487.50	25113.95
487.68	25259.06
487.85	25474.39
488.03	25692.06
488.21	26199.96
488.39	26134.42
488.57	26162.51
488.75	26143.78
488.92	26672.74
489.10	26934.88
489.28	26897.44
489.46	27204.05
489.64	26984.04
489.81	27627.68
489.99	27962.38
490.17	27735.35
490.35	28091.11
490.53	28252.61
490.70	28357.93
490.88	28170.69
491.06	28851.78
491.24	29074.13
491.41	29252.02
491.59	29411.17
491.77	29670.97
491.95	29696.72
492.13	29846.51
492.30	30061.84
492.48	29972.90
492.66	30459.73
492.84	30443.35
493.01	30859.96
493.19	30429.30
493.37	31461.48
493.54	31049.55
493.72	31613.62
493.90	31412.33
494.08	32067.68
494.25	32334.50
494.43	32418.76
494.61	32570.90
494.79	32879.85
494.96	32774.52
495.14	32992.19
495.32	33254.33
495.49	33362.00
495.67	33111.56
495.85	33743.50
496.02	33729.46
496.20	34206.93
496.38	34274.80
496.55	34525.24
496.73	34672.70
496.91	34555.67
497.09	34979.31
497.26	35321.02
497.44	35173.57
497.62	36034.89
497.79	36123.83
497.97	35145.48
498.14	36320.43
498.32	36142.55
498.50	36797.90
498.67	36765.14
498.85	36699.60
499.03	36882.16
499.20	36678.54
499.38	37216.86
499.56	36973.44
499.73	37132.60
499.91	37387.72
500.08	37897.95
500.26	37497.72
500.44	37708.37
500.61	37886.25
500.79	38174.14
500.97	38188.18
501.14	38501.81
501.32	38602.46
501.49	39014.39
501.67	38895.02
501.84	39063.54
502.02	39012.05
502.20	39220.36
502.37	39461.43
502.55	39526.97
502.72	39646.33
502.90	40100.40
503.07	39662.72
503.25	40191.68
503.43	39746.98
503.60	40287.64
503.78	40142.53
503.95	40458.50
504.13	40737.02
504.30	40926.61
504.48	40942.99
504.65	41198.11
504.83	41125.55
505.01	41511.74
505.18	41298.75
505.36	42178.79
505.53	41319.82
505.71	41844.10
505.88	41710.69
506.06	41085.76
506.23	42431.57
506.41	42160.07
506.58	42450.30
506.76	42677.33
506.93	42462.00
507.11	42354.33
507.28	42391.78
507.46	42628.18
507.63	42958.19
507.81	43253.10
507.98	43187.56
508.16	43405.23
508.33	43669.72
508.50	43728.23
508.68	43887.39
508.85	44020.80
509.03	44060.58
509.20	44201.02
509.38	44226.76
509.55	44292.30
509.73	44924.24
509.90	44884.45
510.08	44779.13
510.25	44559.12
510.42	45081.06
510.60	45305.75
510.77	45106.80
510.95	45488.31
511.12	45509.38
511.30	45324.47
511.47	45825.35
511.64	45984.51
511.82	45977.48
511.99	45507.04
512.17	45923.65
512.34	46258.35
512.51	46433.89
512.69	46263.03
512.86	46653.90
513.04	46571.98
513.21	47103.28
513.38	46649.22
513.56	47459.04
513.73	47140.73
513.90	47152.43
514.08	46866.89
514.25	47655.65
514.43	47482.45
514.60	47702.46
514.77	47751.61
514.95	48128.44
515.12	47744.59
515.29	48109.71
515.47	48142.48
515.64	48332.06
515.81	48105.03
515.99	48470.15
516.16	48690.16
516.33	48797.83
516.51	49013.16
516.68	48629.31
516.85	48598.88
517.03	48931.24
517.20	49195.72
517.37	49043.59
517.54	49628.72
517.72	48975.71
517.89	49394.67
518.06	49422.75
518.24	49223.81
518.41	49652.12
518.58	49815.96
518.75	49949.37
518.93	49778.51
519.10	49492.97
519.27	49930.65
519.45	49635.74
519.62	49918.95
519.79	50361.31
519.96	50475.99
520.14	49949.37
520.31	50176.40
520.48	50426.84
520.65	50749.84
520.83	50784.94
521.00	50714.73
521.17	50873.88
521.34	50653.87
521.52	50880.91
521.69	50857.50
521.86	51452.00
522.03	51194.54
522.20	51573.70
522.38	51660.30
522.55	51510.51
522.72	51679.03
522.89	51562.00
523.07	51580.73
523.24	51416.89
523.41	52121.39
523.58	51849.89
523.75	52177.56
523.92	52076.92
524.10	52243.10
524.27	52458.43
524.44	51992.66
524.61	52336.72
524.78	52268.84
524.96	52219.69
525.13	52748.65
525.30	52521.62
525.47	52762.70
525.64	52376.51
525.81	52755.68
525.98	52893.77
526.16	52622.26
526.33	52818.87
526.50	53155.91
526.67	52849.30
526.84	53237.83
527.01	52863.34
527.18	52975.69
527.36	53237.83
527.53	53160.59
527.70	53570.18
527.87	53684.87
528.04	53406.34
528.21	53359.53
528.38	53450.81
528.55	53783.17
528.72	53565.50
528.89	53745.72
529.07	53710.61
529.24	53499.97
529.41	53776.15
529.58	53642.74
529.75	53710.61
529.92	54248.94
530.09	53654.44
530.26	53998.50
530.43	54190.42
530.60	54157.66
530.77	54174.04
530.94	54192.76
531.11	54160.00
531.28	54078.08
531.46	54316.81
531.63	54546.18
531.80	54218.51
531.97	54490.01
532.14	54651.51
532.31	54714.70
532.48	54548.53
532.65	54813.01
532.82	54855.14
532.99	54850.45
533.16	54789.60
533.33	55035.36
533.50	55150.04
533.67	54972.16
533.84	54981.52
534.01	54925.35
534.18	54979.18
534.35	55423.89
534.52	55220.26
534.69	55215.58
534.86	55206.22
535.03	55173.45
535.20	55143.02
535.37	55477.72
535.54	55751.56
535.71	55423.89
535.88	55473.04
536.05	55700.07
536.22	55690.71
536.38	55824.12
536.55	55693.05
536.72	55709.43
536.89	55657.94
537.06	55597.09
537.23	55936.46
537.40	55772.63
537.57	55547.93
537.74	56013.70
537.91	56069.87
538.08	56041.79
538.25	55828.80
538.42	56156.47
538.59	56442.02
538.75	56044.13
538.92	56245.41
539.09	56416.27
539.26	56116.68
539.43	56336.69
539.60	56259.46
539.77	56259.46
539.94	56512.23
540.11	56671.39
540.28	56591.81
540.44	56636.28
540.61	56182.22
540.78	56521.60
540.95	56537.98
541.12	56542.66
541.29	56432.66
541.46	56779.06
541.62	56835.23
541.79	56809.48
541.96	56528.62
542.13	56926.51
542.30	56905.44
542.47	56961.62
542.63	56851.61
542.80	56835.23
542.97	57127.80
543.14	57193.33
543.31	57286.95
543.48	57340.78
543.64	57476.54
543.81	57563.14
543.98	57443.77
544.15	57511.64
544.32	57474.20
544.48	57708.25
544.65	57584.20
544.82	57563.14
544.99	57326.74
545.16	57460.15
545.32	57375.89
545.49	57687.18
545.66	57736.34
545.83	57771.44
546.00	57858.04
546.16	57783.15
546.33	57738.68
546.50	57687.18
546.67	57942.30
546.83	57806.55
547.00	58106.14
547.17	57956.35
547.34	58080.39
547.50	58078.05
547.67	58206.78
547.84	58262.96
548.00	58237.21
548.17	58438.50
548.34	58005.50
548.51	58478.28
548.67	58525.10
548.84	58272.32
549.01	58185.72
549.18	58300.40
549.34	58314.45
549.51	58333.17
549.68	58550.84
549.84	58298.06
550.01	58574.25
550.18	58389.34
550.34	58712.34
550.51	58635.10
550.68	58443.18
550.84	58225.51
551.01	58651.48
551.18	58672.55
551.34	58543.82
551.51	58817.66
551.68	58822.34
551.84	58597.65
552.01	58550.84
552.18	58824.68
552.34	58473.60
552.51	58812.98
552.68	58567.23
552.84	58859.79
553.01	58906.60
553.18	59056.40
553.34	58843.41
553.51	58852.77
553.67	59030.65
553.84	58981.50
554.01	59196.83
554.17	59131.29
554.34	59068.10
554.51	59208.53
554.67	59236.62
554.84	59297.47
555.00	59072.78
555.17	59178.10
555.33	59276.41
555.50	59000.22
555.67	58988.52
555.83	59075.12
556.00	59285.77
556.16	59636.85
556.33	59515.14
556.50	59224.92
556.66	59604.08
556.83	59208.53
556.99	59517.48
557.16	59650.89
557.32	59601.74
557.49	59831.11
557.65	59440.24
557.82	59515.14
557.98	59639.19
558.15	59372.37
558.32	59475.35
558.48	59480.03
558.65	59576.00
558.81	59641.53
558.98	59604.08
559.14	59833.46
559.31	59653.23
559.47	59877.93
559.64	59943.46
559.80	59810.05
559.97	59913.03
560.13	59646.21
560.30	59791.33
560.46	59746.86
560.63	59817.07
560.79	59901.33
560.96	59796.01
561.12	59835.80
561.29	59856.86
561.45	59952.82
561.61	59966.87
561.78	59877.93
561.94	59884.95
562.11	59978.57
562.27	60133.04
562.44	59973.89
562.60	60219.64
562.77	60189.22
562.93	59767.92
563.10	60257.09
563.26	59980.91
563.42	60149.43
563.59	60130.70
563.75	59992.61
563.92	60308.58
564.08	60121.34
564.24	60285.18
564.41	60224.32
564.57	60261.77
564.74	60273.48
564.90	60299.22
565.07	60048.78
565.23	60182.19
565.39	59922.40
565.56	60381.14
565.72	60233.69
565.88	60214.96
566.05	60385.82
566.21	60369.44
566.38	60357.74
566.54	60458.38
566.70	60552.00
566.87	60561.36
567.03	60289.86
567.19	60568.38
567.36	60418.59
567.52	60416.25
567.68	60678.39
567.85	60467.74
568.01	60657.32
568.17	60357.74
568.34	60566.04
568.50	60512.21
568.66	60434.97
568.83	60460.72
568.99	60441.99
569.15	60577.75
569.32	60580.09
569.48	60254.75
569.64	60718.18
569.81	60488.80
569.97	60664.35
570.13	60500.51
570.30	60540.30
570.46	60577.75
570.62	60603.49
570.78	60683.07
570.95	60657.32
571.11	60757.97
571.27	60507.53
571.43	60580.09
571.60	60647.96
571.76	60687.75
571.92	60729.88
572.09	60743.92
572.25	60725.20
572.41	60376.46
572.57	60650.30
572.74	60872.65
572.90	60739.24
573.06	60835.20
573.22	60736.90
573.38	60797.76
573.55	60860.95
573.71	61031.81
573.87	60739.24
574.03	60507.53
574.20	60931.17
574.36	60727.54
574.52	60767.33
574.68	60872.65
574.84	60896.06
575.01	60598.81
575.17	60926.49
575.33	60900.74
575.49	60554.34
575.65	60865.63
575.82	60846.91
575.98	60963.93
576.14	61106.71
576.30	60949.89
576.46	60898.40
576.62	60982.66
576.79	60921.80
576.95	60729.88
577.11	60954.57
577.27	61050.53
577.43	60928.83
577.59	60877.33
577.75	60652.64
577.92	60797.76
578.08	60804.78
578.24	60947.55
578.40	61102.03
578.56	60956.91
578.72	61038.83
578.88	61289.27
579.04	61396.93
579.21	60933.51
579.37	61212.03
579.53	61097.34
579.69	60842.23
579.85	60809.46
580.01	61064.58
580.17	60860.95
580.33	61167.56
580.49	61300.97
580.65	61106.71
580.82	60856.27
580.98	60999.04
581.14	60940.53
581.30	61216.71
581.46	61118.41
581.62	61120.75
581.78	61085.64
581.94	61024.79
582.10	61080.96
582.26	61010.74
582.42	60921.80
582.58	60921.80
582.74	60945.21
582.90	61102.03
583.06	61064.58
583.22	61095.00
583.38	61181.60
583.54	61132.45
583.70	61123.09
583.86	61174.58
584.02	60966.27
584.18	61106.71
584.34	60886.70
584.50	61099.68
584.66	61148.84
584.82	60917.12
584.98	61207.35
585.14	61148.84
585.30	61083.30
585.46	61092.66
585.62	61076.28
585.78	61261.18
585.94	61066.92
586.10	61155.86
586.26	61071.60
586.42	61219.05
586.58	61193.31
586.74	61219.05
586.90	61024.79
587.06	61106.71
587.22	61062.24
587.38	61001.38
587.54	61226.07
587.70	61432.04
587.86	61083.30
588.02	61179.26
588.18	61446.08
588.34	61111.39
588.49	61162.88
