SpectraSuite Data File
++++++++++++++++++++++++++++++++++++
Date: Fri Oct 25 10:48:32 EDT 2013
User: price-jones
Dark Spectrum Present: No
Reference Spectrum Present: No
Number of Sampled Component Spectra: 1
Spectrometers: USB2+H05261
Integration Time (usec): 100000 (USB2+H05261)
Spectra Averaged: 1 (USB2+H05261)
Boxcar Smoothing: 0 (USB2+H05261)
Correct for Electrical Dark: No (USB2+H05261)
Strobe/Lamp Enabled: No (USB2+H05261)
Correct for Detector Non-linearity: No (USB2+H05261)
Correct for Stray Light: No (USB2+H05261)
Number of Pixels in Processed Spectrum: 2048
>>>>>Begin Processed Spectral Data<<<<<
365.73	184.90
365.92	184.90
366.12	184.90
366.32	79.58
366.52	46.81
366.72	95.96
366.91	14.04
367.11	16.38
367.31	14.04
367.51	42.13
367.70	0.00
367.90	114.69
368.10	0.00
368.30	7.02
368.49	39.79
368.69	28.09
368.89	117.03
369.09	51.49
369.28	28.09
369.48	95.96
369.68	81.92
369.87	98.30
370.07	74.90
370.27	159.16
370.47	177.88
370.66	369.80
370.86	416.62
371.06	402.57
371.25	512.58
371.45	451.72
371.65	533.64
371.84	477.47
372.04	479.81
372.24	561.73
372.44	503.22
372.63	533.64
372.83	472.79
373.03	552.37
373.22	498.53
373.42	465.77
373.62	585.13
373.81	634.29
374.01	617.90
374.21	610.88
374.40	580.45
374.60	681.10
374.79	636.63
374.99	599.18
375.19	627.26
375.38	564.07
375.58	613.22
375.78	603.86
375.97	676.41
376.17	648.33
376.37	650.67
376.56	660.03
376.76	620.24
376.95	568.75
377.15	636.63
377.35	657.69
377.54	669.39
377.74	730.25
377.93	648.33
378.13	730.25
378.33	653.01
378.52	608.54
378.72	697.48
378.91	678.76
379.11	730.25
379.31	655.35
379.50	671.73
379.70	718.54
379.89	791.10
380.09	671.73
380.28	697.48
380.48	739.61
380.68	704.50
380.87	732.59
381.07	784.08
381.26	779.40
381.46	718.54
381.65	688.12
381.85	788.76
382.04	709.18
382.24	777.06
382.43	727.91
382.63	699.82
382.83	772.38
383.02	779.40
383.22	786.42
383.41	706.84
383.61	807.48
383.80	770.04
384.00	863.66
384.19	823.87
384.39	819.19
384.58	835.57
384.78	898.77
384.97	828.55
385.17	849.61
385.36	849.61
385.56	781.74
385.75	784.08
385.95	854.30
386.14	873.02
386.34	812.17
386.53	917.49
386.72	933.87
386.92	954.94
387.11	922.17
387.31	912.81
387.50	814.51
387.70	931.53
387.89	805.14
388.09	905.79
388.28	887.06
388.48	971.32
388.67	1013.45
388.86	976.00
389.06	999.41
389.25	985.37
389.45	1036.86
389.64	992.39
389.84	1100.05
390.03	1081.33
390.22	1004.09
390.42	1067.28
390.61	1048.56
390.81	1062.60
391.00	1069.62
391.19	1165.59
391.39	1097.71
391.58	1167.93
391.78	1048.56
391.97	1111.75
392.16	1212.40
392.36	1128.14
392.55	1067.28
392.75	1074.31
392.94	1055.58
393.13	1078.99
393.33	1086.01
393.52	1104.73
393.71	1210.06
393.91	1116.44
394.10	1142.18
394.29	1233.46
394.49	1221.76
394.68	1226.44
394.88	1083.67
395.07	1303.68
395.26	1315.38
395.46	1233.46
395.65	1313.04
395.84	1249.85
396.04	1181.97
396.23	1273.25
396.42	1261.55
396.62	1207.72
396.81	1188.99
397.00	1296.66
397.19	1294.32
397.39	1413.68
397.58	1476.88
397.77	1437.09
397.97	1504.96
398.16	1493.26
398.35	1488.58
398.55	1521.35
398.74	1554.12
398.93	1565.82
399.12	1556.46
399.32	1558.80
399.51	1495.60
399.70	1535.39
399.90	1607.95
400.09	1703.91
400.28	1589.22
400.47	1687.53
400.67	1614.97
400.86	1619.65
401.05	1666.46
401.24	1769.44
401.44	1722.63
401.63	1689.87
401.82	1736.68
402.01	1797.53
402.21	1741.36
402.40	1764.76
402.59	1795.19
402.78	1776.47
402.97	1895.83
403.17	1870.09
403.36	1792.85
403.55	1928.60
403.74	1935.62
403.93	1975.41
404.13	1877.11
404.32	1954.35
404.51	1973.07
404.70	1966.05
404.89	1998.82
405.09	2120.53
405.28	2031.58
405.47	1977.75
405.66	2003.50
405.85	2022.22
406.05	2113.50
406.24	2071.37
406.43	2031.58
406.62	2115.84
406.81	2186.06
407.00	2106.48
407.20	2143.93
407.39	2179.04
407.58	2188.40
407.77	2277.34
407.96	2385.01
408.15	2293.72
408.34	2272.66
408.54	2258.62
408.73	2300.75
408.92	2279.68
409.11	2422.45
409.30	2317.13
409.49	2312.45
409.68	2363.94
409.87	2286.70
410.07	2368.62
410.26	2452.88
410.45	2429.48
410.64	2539.48
410.83	2527.78
411.02	2691.62
411.21	2761.83
411.40	2750.13
411.59	2623.74
411.78	2752.47
411.98	2537.14
412.17	2731.41
412.36	2729.06
412.55	2752.47
412.74	2740.77
412.93	2733.75
413.12	2750.13
413.31	2920.99
413.50	2848.43
413.69	2902.26
413.88	2913.97
414.07	2874.18
414.26	2923.33
414.45	3082.49
414.64	2932.69
414.83	3108.23
415.02	3084.83
415.22	3122.27
415.41	3187.81
415.60	3155.04
415.79	3213.56
415.98	3297.81
416.17	3438.25
416.36	3288.45
416.55	3314.20
416.74	3487.40
416.93	3337.60
417.12	3330.58
417.31	3435.91
417.50	3485.06
417.69	3492.08
417.88	3569.32
418.07	3522.51
418.26	3562.30
418.45	3550.59
418.64	3641.87
418.83	3676.98
419.02	3489.74
419.21	3632.51
419.39	3623.15
419.58	3595.06
419.77	3604.42
419.96	3700.39
420.15	3763.58
420.34	3756.56
420.53	3786.99
420.72	3929.76
420.91	3815.07
421.10	3887.63
421.29	3887.63
421.48	3845.50
421.67	3908.69
421.86	3866.56
422.05	3995.29
422.24	3850.18
422.43	3920.40
422.61	4014.02
422.80	3929.76
422.99	4046.79
423.18	4107.64
423.37	4037.42
423.56	4016.36
423.75	4044.45
423.94	4124.02
424.13	3672.30
424.32	3852.52
424.50	4060.83
424.69	4107.64
424.88	3995.29
425.07	4018.70
425.26	4051.47
425.45	4002.32
425.64	3899.33
425.83	4016.36
426.01	4163.81
426.20	4163.81
426.39	4184.88
426.58	3999.98
426.77	4086.58
426.96	4037.42
427.15	4009.34
427.33	4222.33
427.52	4044.45
427.71	4227.01
427.90	4184.88
428.09	4154.45
428.28	4255.09
428.46	4271.48
428.65	4194.24
428.84	4477.44
429.03	4365.10
429.22	4081.89
429.40	4292.54
429.59	4301.90
429.78	4021.04
429.97	3953.16
430.16	4112.32
430.34	4311.27
430.53	4290.20
430.72	4404.89
430.91	4266.80
431.10	4564.04
431.28	4550.00
431.47	4692.77
431.66	4798.10
431.85	4538.30
432.03	4678.73
432.22	4767.67
432.41	4847.25
432.60	4840.23
432.79	4685.75
432.97	4919.81
433.16	4751.29
433.35	4723.20
433.54	4585.11
433.72	4674.05
433.91	4877.68
434.10	4910.44
434.28	4957.25
434.47	4919.81
434.66	4940.87
434.85	5107.05
435.03	5135.14
435.22	5046.20
435.41	5261.52
435.59	5151.52
435.78	5109.39
435.97	5231.10
436.16	5207.69
436.34	5214.71
436.53	5193.65
436.72	5427.70
436.90	5203.01
437.09	5423.02
437.28	5238.12
437.46	5144.50
437.65	5153.86
437.84	5507.28
438.02	5338.76
438.21	5249.82
438.40	5334.08
438.58	5448.77
438.77	5530.69
438.96	5530.69
439.14	5764.74
439.33	5846.66
439.52	5657.07
439.70	5710.91
439.89	5659.42
440.08	5942.62
440.26	5820.91
440.45	5767.08
440.63	5921.56
440.82	6066.67
441.01	5975.39
441.19	6183.70
441.38	6284.34
441.57	6197.74
441.75	6136.88
441.94	6459.88
442.12	6438.81
442.31	6511.37
442.50	6574.56
442.68	6352.21
442.87	6518.39
443.05	6480.94
443.24	6684.57
443.43	6420.09
443.61	6532.44
443.80	6864.79
443.98	6541.80
444.17	6368.60
444.35	6651.80
444.54	6733.72
444.73	6874.15
444.91	6698.61
445.10	6747.76
445.28	6619.04
445.47	6546.48
445.65	6555.84
445.84	6740.74
446.02	6878.83
446.21	6616.69
446.39	6691.59
446.58	6888.20
446.77	6808.62
446.95	6855.43
447.14	6759.47
447.32	6890.54
447.51	6839.05
447.69	6794.58
447.88	6883.52
448.06	6750.10
448.25	6827.34
448.43	6967.77
448.62	6733.72
448.80	6906.92
448.99	7133.95
449.17	6888.20
449.36	6913.94
449.54	7052.03
449.73	7494.40
449.91	7290.77
450.10	7323.54
450.28	7248.64
450.46	7241.62
450.65	7220.55
450.83	7435.88
451.02	7283.75
451.20	7297.79
451.39	7346.94
451.57	7342.26
451.76	7318.86
451.94	7335.24
452.13	7459.29
452.31	7356.30
452.49	7346.94
452.68	7501.42
452.86	7281.41
453.05	7449.93
453.23	7454.61
453.42	7515.46
453.60	7552.91
453.78	7531.84
453.97	7438.22
454.15	7573.97
454.34	7651.21
454.52	7597.38
454.70	7585.68
454.89	7751.85
455.07	7550.57
455.26	7889.95
455.44	7941.44
455.62	7967.18
455.81	7934.42
455.99	7978.89
456.17	7740.15
456.36	7838.45
456.54	8107.62
456.73	8222.30
456.91	8374.44
457.09	8411.89
457.28	8393.16
457.46	8140.38
457.64	8224.64
457.83	8257.41
458.01	8353.37
458.19	8407.20
458.38	8454.02
458.56	8475.08
458.74	8456.36
458.93	8599.13
459.11	8510.19
459.29	8432.95
459.48	8662.32
459.66	8451.67
459.84	8578.06
460.03	8872.97
460.21	8531.25
460.39	8800.41
460.57	8627.21
460.76	8894.04
460.94	8664.66
461.12	8798.07
461.31	8659.98
461.49	8805.10
461.67	8884.67
461.85	9036.81
462.04	8861.27
462.22	9614.92
462.40	9090.64
462.59	9242.78
462.77	9004.04
462.95	8910.42
463.13	9156.18
463.32	9224.05
463.50	9111.71
463.68	9198.31
463.86	9373.85
464.05	9277.88
464.23	9083.62
464.41	9364.48
464.59	9167.88
464.78	9387.89
464.96	9128.09
465.14	9163.20
465.32	9490.87
465.50	9301.29
465.69	9446.40
465.87	9249.80
466.05	9483.85
466.23	9423.00
466.41	9394.91
466.60	9671.09
466.78	9434.70
466.96	9488.53
467.14	9760.03
467.32	9832.59
467.51	9652.37
467.69	9558.75
467.87	9568.11
468.05	9839.61
468.23	9507.26
468.41	9575.13
468.60	9757.69
468.78	9399.59
468.96	9825.57
469.14	9853.66
469.32	9813.87
469.50	9764.72
469.69	10008.13
469.87	10120.48
470.05	9966.00
470.23	9998.77
470.41	10076.01
470.59	10057.28
470.77	10024.51
470.95	10221.12
471.14	10195.37
471.32	9958.98
471.50	10595.61
471.68	10267.93
471.86	10635.39
472.04	10452.83
472.22	10986.47
472.40	10452.83
472.58	10590.92
472.77	10616.67
472.95	10745.40
473.13	11009.88
473.31	10810.93
473.49	10836.68
473.67	10733.70
473.85	10942.00
474.03	10972.43
474.21	11337.56
474.39	11272.02
474.57	11061.37
474.75	11201.80
474.93	11405.43
475.12	11522.46
475.30	11501.39
475.48	11342.24
475.66	11552.88
475.84	11489.69
476.02	11545.86
476.20	11808.00
476.38	11871.20
476.56	11964.82
476.74	11983.54
476.92	12243.34
477.10	12400.16
477.28	12449.31
477.46	12430.59
477.64	12353.35
477.82	12510.16
478.00	12877.63
478.18	12814.43
478.36	13123.38
478.54	12989.97
478.72	12987.63
478.90	13209.98
479.08	13312.97
479.26	13474.46
479.44	13469.78
479.62	13411.27
479.80	13570.43
479.98	13774.05
480.16	14230.46
480.34	13657.03
480.52	14054.92
480.70	14101.73
480.88	14167.26
481.06	14047.90
481.24	14225.78
481.41	14663.46
481.59	14867.08
481.77	14677.50
481.95	14600.26
482.13	14867.08
482.31	14562.81
482.49	15166.67
482.67	15293.06
482.85	15524.77
483.03	15517.75
483.21	15620.74
483.39	15775.21
483.57	15707.34
483.74	15765.85
483.92	15922.66
484.10	15943.73
484.28	16231.62
484.46	16500.78
484.64	16786.32
484.82	16608.44
485.00	16765.26
485.18	16704.40
485.35	16847.18
485.53	16322.90
485.71	16491.41
485.89	16847.18
486.07	16821.43
486.25	17001.65
486.43	17467.42
486.61	17287.20
486.78	17549.34
486.96	17752.96
487.14	17881.69
487.32	18223.41
487.50	18284.26
487.68	18574.49
487.85	18637.69
488.03	19061.32
488.21	18878.76
488.39	18808.54
488.57	19199.41
488.75	19178.35
488.92	19529.43
489.10	19688.59
489.28	19892.21
489.46	20086.48
489.64	20140.31
489.81	20552.24
489.99	20453.94
490.17	20442.24
490.35	21167.80
490.53	20954.82
490.70	20968.86
490.88	20730.12
491.06	21069.50
491.24	21273.13
491.41	21214.62
491.59	21525.91
491.77	21479.10
491.95	21490.80
492.13	21750.60
492.30	21991.67
492.48	22132.11
492.66	22300.62
492.84	22508.93
493.01	22394.25
493.19	22539.36
493.37	22677.45
493.54	22684.47
493.72	22984.06
493.90	23229.82
494.08	23733.03
494.25	23480.25
494.43	23690.90
494.61	23899.21
494.79	23875.80
494.96	23744.73
495.14	24053.69
495.32	24149.65
495.49	24332.21
495.67	24411.79
495.85	24580.31
496.02	25074.16
496.20	24671.59
496.38	25027.35
496.55	25001.60
496.73	25469.71
496.91	25191.19
497.09	25694.40
497.26	25965.90
497.44	25788.02
497.62	25343.32
497.79	25963.56
497.97	25600.78
498.14	26202.30
498.32	26270.17
498.50	26115.70
498.67	26759.34
498.85	26651.68
499.03	26906.80
499.20	26686.79
499.38	27061.27
499.56	26899.78
499.73	27009.78
499.91	27136.17
500.08	27222.77
500.26	27075.32
500.44	27398.31
500.61	27311.71
500.79	27442.78
500.97	27300.01
501.14	27667.47
501.32	27648.75
501.49	27707.26
501.67	27725.99
501.84	28144.94
502.02	27953.02
502.20	28271.33
502.37	28610.71
502.55	28357.93
502.72	28437.51
502.90	28631.77
503.07	29099.88
503.25	28772.21
503.43	28481.98
503.60	28599.01
503.78	28947.75
503.95	29153.71
504.13	29170.10
504.30	29212.23
504.48	29008.60
504.65	29582.03
504.83	29912.05
505.01	30160.14
505.18	30038.44
505.36	30654.00
505.53	30195.25
505.71	30368.45
505.88	30403.56
506.06	29851.19
506.23	30335.68
506.41	30349.73
506.58	30354.41
506.76	30525.27
506.93	30918.48
507.11	30642.29
507.28	30609.53
507.46	30731.23
507.63	30703.15
507.81	30859.96
507.98	30817.83
508.16	30719.53
508.33	31337.43
508.50	31234.45
508.68	31545.74
508.85	31894.48
509.03	31658.09
509.20	31810.22
509.38	31756.39
509.55	31835.97
509.73	31758.73
509.90	32142.58
510.08	32233.86
510.25	31814.90
510.42	32606.00
510.60	32526.42
510.77	32521.74
510.95	32711.33
511.12	32606.00
511.30	32718.35
511.47	32891.55
511.64	32982.83
511.82	33081.13
511.99	32701.96
512.17	33003.89
512.34	33263.69
512.51	33167.73
512.69	33502.43
512.86	33537.54
513.04	33706.05
513.21	33577.33
513.38	33448.60
513.56	33647.54
513.73	33497.75
513.90	33776.27
514.08	33481.36
514.25	33764.57
514.43	33982.24
514.60	33865.21
514.77	34169.48
514.95	34602.48
515.12	34277.15
515.29	34263.10
515.47	34778.02
515.64	34873.98
515.81	34597.80
515.99	34176.50
516.16	34609.50
516.33	34223.31
516.51	33961.17
516.68	34054.79
516.85	34422.26
517.03	34349.70
517.20	34579.07
517.37	34756.96
517.54	35234.42
517.72	34745.25
517.89	34808.45
518.06	34637.59
518.24	34572.05
518.41	35180.59
518.58	35152.51
518.75	35306.98
518.93	35569.12
519.10	35473.16
519.27	35669.76
519.45	35964.67
519.62	36264.26
519.79	35943.61
519.96	36198.73
520.14	36353.20
520.31	35899.14
520.48	36552.15
520.65	36531.08
520.83	36746.41
521.00	36650.45
521.17	36655.13
521.34	37001.53
521.52	36811.95
521.69	37006.21
521.86	36994.51
522.03	37062.38
522.20	36877.48
522.38	37359.63
522.55	37340.91
522.72	37102.17
522.89	37069.40
523.07	37539.85
523.24	37137.28
523.41	37783.27
523.58	37376.01
523.75	38227.97
523.92	37804.33
524.10	38059.45
524.27	37813.70
524.44	38677.35
524.61	38316.91
524.78	38052.43
524.96	38307.55
525.13	38462.02
525.30	38937.15
525.47	38487.77
525.64	38190.52
525.81	38525.22
525.98	38443.30
526.16	38382.45
526.33	38143.71
526.50	38328.61
526.67	38171.80
526.84	38499.47
527.01	38478.41
527.18	38377.76
527.36	39215.68
527.53	38941.83
527.70	39426.32
527.87	39351.43
528.04	39402.92
528.21	39412.28
528.38	39103.33
528.55	39786.77
528.72	39573.78
528.89	39529.31
529.07	39625.27
529.24	39746.98
529.41	39660.38
529.58	39627.61
529.75	39721.23
529.92	40535.74
530.09	40196.36
530.26	40371.90
530.43	40172.96
530.60	39847.62
530.77	40208.06
530.94	40711.28
531.11	40201.04
531.28	40172.96
531.46	40603.61
531.63	40566.16
531.80	40376.58
531.97	40804.90
532.14	40524.04
532.31	39908.47
532.48	40357.86
532.65	40683.19
532.82	40540.42
532.99	40751.07
533.16	40538.08
533.33	40573.19
533.50	40992.14
533.67	40835.33
533.84	40547.44
534.01	40961.72
534.18	40732.34
534.35	41134.92
534.52	41006.19
534.69	41518.76
534.86	41347.90
535.03	41144.28
535.20	41766.86
535.37	41563.23
535.54	41827.71
535.71	41808.99
535.88	41996.23
536.05	41404.08
536.22	41797.29
536.38	41584.30
536.55	41462.59
536.72	41670.90
536.89	41794.95
537.06	41706.01
537.23	41926.02
537.40	41544.51
537.57	41890.91
537.74	42040.70
537.91	42033.68
538.08	42021.98
538.25	42120.28
538.42	42050.06
538.59	42501.79
538.75	41872.18
538.92	42124.96
539.09	42527.53
539.26	42326.25
539.43	42225.60
539.60	42192.84
539.77	42237.31
539.94	42335.61
540.11	42169.43
540.28	41993.89
540.44	42532.22
540.61	42621.16
540.78	42387.10
540.95	42218.58
541.12	42246.67
541.29	42391.78
541.46	42705.41
541.62	42857.55
541.79	42911.38
541.96	42305.18
542.13	42747.54
542.30	42855.21
542.47	43292.89
542.63	43241.40
542.80	42887.98
542.97	43716.53
543.14	43370.13
543.31	43440.34
543.48	43555.03
543.64	43627.59
543.81	43868.66
543.98	43803.13
544.15	43337.36
544.32	44081.65
544.48	43817.17
544.65	43938.88
544.82	43655.67
544.99	43791.42
545.16	43723.55
545.32	43517.58
545.49	44048.88
545.66	44367.20
545.83	44184.63
546.00	44083.99
546.16	44088.67
546.33	44217.40
546.50	44271.23
546.67	44456.14
546.83	43648.65
547.00	44170.59
547.17	44109.74
547.34	43838.23
547.50	44198.68
547.67	44470.18
547.84	44584.86
548.00	44767.43
548.17	44493.58
548.34	44493.58
548.51	44912.54
548.67	44411.67
548.84	44790.83
549.01	44744.02
549.18	45008.50
549.34	44659.76
549.51	44648.06
549.68	44954.67
549.84	45186.38
550.01	45088.08
550.18	44886.79
550.34	44884.45
550.51	44692.53
550.68	44626.99
550.84	44938.29
551.01	44720.62
551.18	44893.82
551.34	45207.45
551.51	44961.69
551.68	45326.81
551.84	45294.05
552.01	45034.25
552.18	45343.20
552.34	44495.92
552.51	44992.12
552.68	44949.99
552.84	45537.46
553.01	45935.35
553.18	45427.46
553.34	45687.26
553.51	45888.54
553.67	45198.09
553.84	45839.39
554.01	45361.92
554.17	45567.89
554.34	45947.06
554.51	45956.42
554.67	45830.03
554.84	45624.06
555.00	45731.73
555.17	45397.03
555.33	45909.61
555.50	45790.24
555.67	45687.26
555.83	46012.59
556.00	46024.29
556.16	45940.04
556.33	46138.98
556.50	45818.33
556.66	46096.85
556.83	45579.59
556.99	45825.35
557.16	46131.96
557.32	46113.23
557.49	45970.46
557.65	45925.99
557.82	46045.36
557.98	46209.20
558.15	46143.66
558.32	45705.98
558.48	46174.09
558.65	46188.13
558.81	46092.17
558.98	45876.84
559.14	45975.14
559.31	45996.21
559.47	46293.46
559.64	46431.55
559.80	46382.40
559.97	46288.77
560.13	46323.88
560.30	46258.35
560.46	46419.84
560.63	45874.50
560.79	46632.83
560.96	46504.10
561.12	46150.68
561.29	45925.99
561.45	46574.32
561.61	46373.03
561.78	46726.46
561.94	46106.21
562.11	46464.32
562.27	46284.09
562.44	46639.86
562.60	46569.64
562.77	46976.89
562.93	46422.19
563.10	46579.00
563.26	46562.62
563.42	46653.90
563.59	46499.42
563.75	46447.93
563.92	46817.74
564.08	46328.56
564.24	46916.04
564.41	46649.22
564.57	46902.00
564.74	46602.41
564.90	46602.41
565.07	46450.27
565.23	46630.49
565.39	46176.43
565.56	47290.52
565.72	46471.34
565.88	46595.38
566.05	46930.08
566.21	46923.06
566.38	46630.49
566.54	46539.21
566.70	46597.73
566.87	47180.52
567.03	46911.36
567.19	47093.92
567.36	47084.56
567.52	46677.30
567.68	47239.03
567.85	46597.73
568.01	47056.47
568.17	46794.33
568.34	46899.65
568.50	46745.18
568.66	46443.25
568.83	46476.02
568.99	46492.40
569.15	46897.31
569.32	46712.41
569.48	46663.26
569.64	47445.00
569.81	46845.82
569.97	46848.16
570.13	47040.09
570.30	46803.69
570.46	46586.02
570.62	46731.14
570.78	46630.49
570.95	47009.66
571.11	46976.89
571.27	46871.57
571.43	46869.23
571.60	47124.35
571.76	47054.13
571.92	46770.93
572.09	47035.41
572.25	47232.01
572.41	46735.82
572.57	47112.64
572.74	47562.03
572.90	47051.79
573.06	47016.68
573.22	47243.71
573.38	46983.91
573.55	46726.46
573.71	46782.63
573.87	47000.30
574.03	47068.17
574.20	47353.72
574.36	46920.72
574.52	47145.41
574.68	47255.42
574.84	46808.37
575.01	46827.10
575.17	47035.41
575.33	46663.26
575.49	46827.10
575.65	47285.84
575.82	47316.27
575.98	47210.95
576.14	47288.18
576.30	47283.50
576.46	46719.43
576.62	46742.84
576.79	46689.01
576.95	46579.00
577.11	47220.31
577.27	46937.10
577.43	47131.37
577.59	46752.20
577.75	47269.46
577.92	46731.14
578.08	46791.99
578.24	46625.81
578.40	46859.87
578.56	47126.69
578.72	47351.38
578.88	47203.92
579.04	47435.64
579.21	47267.12
579.37	46787.31
579.53	46962.85
579.69	46749.86
579.85	47103.28
580.01	47187.54
580.17	46953.49
580.33	47791.40
580.49	46979.23
580.65	47381.80
580.82	47084.56
580.98	46724.11
581.14	47159.45
581.30	47257.76
581.46	46932.42
581.62	47185.20
581.78	47566.71
581.94	47089.24
582.10	47187.54
582.26	46988.60
582.42	47250.74
582.58	47297.55
582.74	47161.79
582.90	47147.75
583.06	47370.10
583.22	47463.72
583.38	47257.76
583.54	47182.86
583.70	47281.16
583.86	47136.05
584.02	47164.14
584.18	46969.87
584.34	47229.67
584.50	47402.87
584.66	47129.03
584.82	47232.01
584.98	47021.36
585.14	47461.38
585.30	47065.83
585.46	47365.42
585.62	46646.88
585.78	47030.72
585.94	46993.28
586.10	47145.41
586.26	47061.15
586.42	47512.88
586.58	47295.21
586.74	47047.11
586.90	47021.36
587.06	47168.82
587.22	47447.34
587.38	47131.37
587.54	47611.18
587.70	47393.51
587.86	47030.72
588.02	46836.46
588.18	47192.22
588.34	47107.96
588.49	46363.67
588.65	46721.77
588.81	46581.34
588.97	46415.16
589.13	46820.08
589.29	46934.76
589.45	46775.61
589.61	47098.60
589.77	46948.81
