SpectraSuite Data File
++++++++++++++++++++++++++++++++++++
Date: Fri Oct 25 11:34:46 EDT 2013
User: price-jones
Dark Spectrum Present: No
Reference Spectrum Present: No
Number of Sampled Component Spectra: 1
Spectrometers: USB2+H05261
Integration Time (usec): 100000 (USB2+H05261)
Spectra Averaged: 1 (USB2+H05261)
Boxcar Smoothing: 0 (USB2+H05261)
Correct for Electrical Dark: No (USB2+H05261)
Strobe/Lamp Enabled: No (USB2+H05261)
Correct for Detector Non-linearity: No (USB2+H05261)
Correct for Stray Light: No (USB2+H05261)
Number of Pixels in Processed Spectrum: 2048
>>>>>Begin Processed Spectral Data<<<<<
365.73	320.65
365.92	320.65
366.12	320.65
366.32	215.33
366.52	234.05
366.72	170.86
366.91	189.58
367.11	175.54
367.31	173.20
367.51	128.73
367.70	198.95
367.90	147.45
368.10	210.65
368.30	140.43
368.49	236.39
368.69	222.35
368.89	182.56
369.09	194.26
369.28	161.50
369.48	269.16
369.68	236.39
369.87	250.44
370.07	262.14
370.27	273.84
370.47	330.02
370.66	449.38
370.86	482.15
371.06	519.60
371.25	592.16
371.45	547.69
371.65	545.34
371.84	500.87
372.04	580.45
372.24	521.94
372.44	603.86
372.63	674.07
372.83	613.22
373.03	681.10
373.22	521.94
373.42	615.56
373.62	648.33
373.81	624.92
374.01	617.90
374.21	620.24
374.40	641.31
374.60	648.33
374.79	669.39
374.99	685.78
375.19	702.16
375.38	702.16
375.58	660.03
375.78	662.37
375.97	641.31
376.17	702.16
376.37	631.94
376.56	622.58
376.76	704.50
376.95	795.78
377.15	587.47
377.35	739.61
377.54	622.58
377.74	653.01
377.93	744.29
378.13	718.54
378.33	725.57
378.52	716.20
378.72	697.48
378.91	664.71
379.11	711.52
379.31	636.63
379.50	674.07
379.70	681.10
379.89	676.41
380.09	634.29
380.28	730.25
380.48	669.39
380.68	737.27
380.87	678.76
381.07	704.50
381.26	795.78
381.46	741.95
381.65	770.04
381.85	699.82
382.04	767.70
382.24	720.88
382.43	720.88
382.63	627.26
382.83	655.35
383.02	814.51
383.22	781.74
383.41	727.91
383.61	767.70
383.80	821.53
384.00	753.65
384.19	770.04
384.39	861.32
384.58	828.55
384.78	744.29
384.97	779.40
385.17	856.64
385.36	704.50
385.56	819.19
385.75	807.48
385.95	795.78
386.14	795.78
386.34	842.59
386.53	779.40
386.72	826.21
386.92	898.77
387.11	936.21
387.31	842.59
387.50	765.36
387.70	884.72
387.89	844.93
388.09	828.55
388.28	847.27
388.48	858.98
388.67	929.19
388.86	1008.77
389.06	922.17
389.25	903.45
389.45	837.91
389.64	950.26
389.84	952.60
390.03	861.32
390.22	954.94
390.42	997.07
390.61	990.05
390.81	959.62
391.00	940.90
391.19	976.00
391.39	985.37
391.58	1001.75
391.78	943.24
391.97	1055.58
392.16	973.66
392.36	971.32
392.55	973.66
392.75	1071.97
392.94	987.71
393.13	1001.75
393.33	1034.52
393.52	945.58
393.71	1053.24
393.91	1006.43
394.10	940.90
394.29	1027.50
394.49	1041.54
394.68	1111.75
394.88	1104.73
395.07	1158.57
395.26	1132.82
395.46	1102.39
395.65	1074.31
395.84	1142.18
396.04	1203.04
396.23	1093.03
396.42	1095.37
396.62	1186.65
396.81	1219.42
397.00	1207.72
397.19	1219.42
397.39	1130.48
397.58	1224.10
397.77	1144.52
397.97	1226.44
398.16	1242.82
398.35	1254.53
398.55	1224.10
398.74	1200.69
398.93	1256.87
399.12	1233.46
399.32	1306.02
399.51	1245.16
399.70	1366.87
399.90	1306.02
400.09	1324.74
400.28	1376.24
400.47	1345.81
400.67	1345.81
400.86	1306.02
401.05	1315.38
401.24	1420.71
401.44	1350.49
401.63	1401.98
401.82	1383.26
402.01	1362.19
402.21	1371.55
402.40	1444.11
402.59	1380.92
402.78	1392.62
402.97	1497.94
403.17	1474.54
403.36	1479.22
403.55	1411.34
403.74	1406.66
403.93	1465.18
404.13	1577.52
404.32	1554.12
404.51	1526.03
404.70	1586.88
404.89	1549.43
405.09	1657.10
405.28	1544.75
405.47	1598.59
405.66	1577.52
405.85	1598.59
406.05	1603.27
406.24	1605.61
406.43	1593.90
406.62	1619.65
406.81	1673.48
407.00	1600.93
407.20	1743.70
407.39	1732.00
407.58	1682.85
407.77	1724.97
407.96	1776.47
408.15	1790.51
408.34	1717.95
408.54	1853.70
408.73	1802.21
408.92	1827.96
409.11	1902.86
409.30	1856.04
409.49	1832.64
409.68	1834.98
409.87	1853.70
410.07	2054.99
410.26	1914.56
410.45	1921.58
410.64	1984.77
410.83	1975.41
411.02	2019.88
411.21	2076.06
411.40	2157.97
411.59	2160.31
411.78	2129.89
411.98	2064.35
412.17	2120.53
412.36	2242.23
412.55	2139.25
412.74	2237.55
412.93	2298.41
413.12	2211.81
413.31	2347.56
413.50	2242.23
413.69	2188.40
413.88	2324.15
414.07	2275.00
414.26	2408.41
414.45	2387.35
414.64	2368.62
414.83	2354.58
415.02	2466.92
415.22	2492.67
415.41	2436.50
415.60	2562.89
415.79	2495.01
415.98	2565.23
416.17	2532.46
416.36	2583.95
416.55	2623.74
416.74	2644.81
416.93	2633.10
417.12	2740.77
417.31	2850.77
417.50	2759.49
417.69	2752.47
417.88	2747.79
418.07	2834.39
418.26	2799.28
418.45	2850.77
418.64	2890.56
418.83	2911.63
419.02	2850.77
419.21	2846.09
419.39	2883.54
419.58	2932.69
419.77	2979.50
419.96	2986.52
420.15	3061.42
420.34	3087.17
420.53	2895.24
420.72	3023.97
420.91	3117.59
421.10	3066.10
421.29	3122.27
421.48	3148.02
421.67	3171.43
421.86	3211.22
422.05	3243.98
422.24	3038.02
422.43	3103.55
422.61	3129.30
422.80	3136.32
422.99	3192.49
423.18	3239.30
423.37	3255.69
423.56	3248.66
423.75	3229.94
423.94	3152.70
424.13	3059.08
424.32	3117.59
424.50	3283.77
424.69	3272.07
424.88	3213.56
425.07	3220.58
425.26	3129.30
425.45	3267.39
425.64	3262.71
425.83	3213.56
426.01	3290.79
426.20	3309.52
426.39	3206.53
426.58	3220.58
426.77	3274.41
426.96	3377.39
427.15	3361.01
427.33	3379.73
427.52	3300.16
427.71	3449.95
427.90	3316.54
428.09	3510.80
428.28	3428.88
428.46	3513.14
428.65	3463.99
428.84	3662.94
429.03	3676.98
429.22	3578.68
429.40	3517.83
429.59	3653.58
429.78	3597.40
429.97	3459.31
430.16	3463.99
430.34	3620.81
430.53	3808.05
430.72	3730.81
430.91	3758.90
431.10	3599.74
431.28	3714.43
431.47	3686.34
431.66	3794.01
431.85	3777.62
432.03	3784.65
432.22	3894.65
432.41	3803.37
432.60	3946.14
432.79	3854.86
432.97	3854.86
433.16	3871.25
433.35	3901.67
433.54	3948.48
433.72	3941.46
433.91	3906.35
434.10	4007.00
434.28	3946.14
434.47	3871.25
434.66	3925.08
434.85	4018.70
435.03	4056.15
435.22	4194.24
435.41	4252.75
435.59	4053.81
435.78	4205.94
435.97	4135.73
436.16	4109.98
436.34	4021.04
436.53	4109.98
436.72	4348.72
436.90	4018.70
437.09	4142.75
437.28	4117.00
437.46	4170.83
437.65	4341.69
437.84	4432.97
438.02	4353.40
438.21	4292.54
438.40	4397.87
438.58	4451.70
438.77	4573.41
438.96	4386.16
439.14	4664.69
439.33	4622.56
439.52	4655.33
439.70	4667.03
439.89	4807.46
440.08	4821.50
440.26	4671.71
440.45	4718.52
440.63	4709.16
440.82	4802.78
441.01	4887.04
441.19	5018.11
441.38	4901.08
441.57	4980.66
441.75	5085.98
441.94	5034.49
442.12	5240.46
442.31	5174.92
442.50	5247.48
442.68	5114.07
442.87	5158.54
443.05	5100.03
443.24	5345.78
443.43	5336.42
443.61	5371.53
443.80	5432.38
443.98	5107.05
444.17	5025.13
444.35	5256.84
444.54	5352.81
444.73	5305.99
444.91	5465.15
445.10	5240.46
445.28	5322.38
445.47	5355.15
445.65	5301.31
445.84	5268.55
446.02	5343.44
446.21	5383.23
446.39	5287.27
446.58	5355.15
446.77	5495.58
446.95	5394.93
447.14	5355.15
447.32	5472.17
447.51	5451.11
447.69	5322.38
447.88	5535.37
448.06	5476.85
448.25	5537.71
448.43	5514.30
448.62	5439.40
448.80	5504.94
448.99	5565.79
449.17	5542.39
449.36	5451.11
449.54	5657.07
449.73	5710.91
449.91	5734.31
450.10	5694.52
450.28	5914.53
450.46	5743.67
450.65	5818.57
450.83	5694.52
451.02	5935.60
451.20	5858.36
451.39	5921.56
451.57	5898.15
451.76	5832.62
451.94	5980.07
452.13	5912.19
452.31	5738.99
452.49	5797.51
452.68	5905.17
452.86	5937.94
453.05	5944.96
453.23	5879.43
453.42	5975.39
453.60	6031.56
453.78	6111.14
453.97	5991.77
454.15	6050.28
454.34	5982.41
454.52	6174.33
454.70	6314.77
454.89	6277.32
455.07	6164.97
455.26	6263.27
455.44	6303.06
455.62	6307.74
455.81	6232.85
455.99	6328.81
456.17	6307.74
456.36	6363.92
456.54	6377.96
456.73	6532.44
456.91	6560.52
457.09	6595.63
457.28	6579.25
457.46	6609.67
457.64	6642.44
457.83	6569.88
458.01	6579.25
458.19	6616.69
458.38	6724.36
458.56	6871.81
458.74	6722.02
458.93	6668.19
459.11	6829.68
459.29	6757.13
459.48	6956.07
459.66	6965.43
459.84	6967.77
460.03	7002.88
460.21	6918.62
460.39	6977.14
460.57	6953.73
460.76	6932.67
460.94	6925.65
461.12	7110.55
461.31	6920.96
461.49	7005.22
461.67	7014.59
461.85	7243.96
462.04	7218.21
462.22	7445.24
462.40	7389.07
462.59	7211.19
462.77	7342.26
462.95	7435.88
463.13	7164.38
463.32	7344.60
463.50	7218.21
463.68	7461.63
463.86	7536.52
464.05	7309.49
464.23	7300.13
464.41	7337.58
464.59	7389.07
464.78	7831.43
464.96	7557.59
465.14	7592.70
465.32	7489.71
465.50	7651.21
465.69	7779.94
465.87	7784.62
466.05	7683.98
466.23	7744.83
466.41	7625.47
466.60	7742.49
466.78	7864.20
466.96	7779.94
467.14	7644.19
467.32	7777.60
467.51	7878.24
467.69	7651.21
467.87	7801.01
468.05	7887.61
468.23	7653.55
468.41	7793.98
468.60	7824.41
468.78	7906.33
468.96	7887.61
469.14	7943.78
469.32	8255.07
469.50	7967.18
469.69	8116.98
469.87	8327.63
470.05	8124.00
470.23	8271.45
470.41	8217.62
470.59	8369.76
470.77	8292.52
470.95	8372.10
471.14	8477.42
471.32	8238.69
471.50	8564.02
471.68	8571.04
471.86	8751.26
472.04	8468.06
472.22	8662.32
472.40	8578.06
472.58	8711.47
472.77	8767.65
472.95	8868.29
473.13	9233.41
473.31	8730.20
473.49	8784.03
473.67	8772.33
473.85	8849.57
474.03	9210.01
474.21	9144.47
474.39	9200.65
474.57	9217.03
474.75	9291.93
474.93	9451.08
475.12	9324.69
475.30	9441.72
475.48	9242.78
475.66	9598.54
475.84	9387.89
476.02	9495.55
476.20	9687.48
476.38	9785.78
476.56	9966.00
476.74	9856.00
476.92	10003.45
477.10	9923.87
477.28	10167.29
477.46	10228.14
477.64	10267.93
477.82	10253.89
478.00	10593.26
478.18	10504.32
478.36	10448.15
478.54	10747.74
478.72	10513.69
478.90	10878.81
479.08	10984.13
479.26	10988.82
479.44	10836.68
479.62	11033.29
479.80	11033.29
479.98	11180.74
480.16	11517.78
480.34	11293.08
480.52	11452.24
480.70	11595.01
480.88	11454.58
481.06	11627.78
481.24	11770.55
481.41	11784.60
481.59	12004.61
481.77	12147.38
481.95	12252.70
482.13	12243.34
482.31	12138.02
482.49	12470.37
482.67	12620.17
482.85	12784.01
483.03	13107.00
483.21	12823.80
483.39	13067.21
483.57	12922.10
483.74	12929.12
483.92	13270.84
484.10	13102.32
484.28	13329.35
484.46	13778.73
484.64	13961.30
484.82	13582.13
485.00	13771.71
485.18	14382.59
485.35	14036.19
485.53	13926.19
485.71	14153.22
485.89	14523.02
486.07	14516.00
486.25	14286.63
486.43	14630.69
486.61	14562.81
486.78	14684.52
486.96	14822.61
487.14	15330.51
487.32	15080.07
487.50	15543.50
487.68	15260.29
487.85	15426.47
488.03	15545.84
488.21	15822.02
488.39	16098.20
488.57	16100.55
488.75	16217.57
488.92	16573.33
489.10	16273.74
489.28	16812.07
489.46	16709.08
489.64	16592.06
489.81	17200.60
489.99	17425.29
490.17	17137.40
490.35	17469.76
490.53	17432.31
490.70	17635.94
490.88	17617.21
491.06	17783.39
491.24	17781.05
491.41	17884.03
491.59	17956.59
491.77	18005.74
491.95	17930.84
492.13	18384.91
492.30	18593.22
492.48	18588.53
492.66	18523.00
492.84	18822.59
493.01	18735.99
493.19	18892.80
493.37	19019.19
493.54	19288.35
493.72	19260.27
493.90	19440.49
494.08	19302.40
494.25	19445.17
494.43	19969.45
494.61	19983.49
494.79	20023.28
494.96	19988.18
495.14	20156.69
495.32	20386.07
495.49	20577.99
495.67	20774.60
495.85	20573.31
496.02	20603.74
496.20	20968.86
496.38	20823.75
496.55	20849.49
496.73	21624.21
496.91	21291.85
497.09	21568.04
497.26	21748.26
497.44	21394.84
497.62	21439.31
497.79	21771.66
497.97	21956.57
498.14	22106.36
498.32	22097.00
498.50	22258.49
498.67	22452.76
498.85	22366.16
499.03	22628.30
499.20	22574.47
499.38	22520.63
499.56	22705.54
499.73	22909.16
499.91	23049.60
500.08	23131.51
500.26	23246.20
500.44	23185.35
500.61	23103.43
500.79	23328.12
500.97	23264.92
501.14	23854.74
501.32	23927.30
501.49	23379.61
501.67	23939.00
501.84	24177.73
502.02	23885.17
502.20	23995.17
502.37	24177.73
502.55	24049.00
502.72	24161.35
502.90	24477.32
503.07	24182.42
503.25	24652.86
503.43	24709.04
503.60	24819.04
503.78	24685.63
503.95	24751.17
504.13	25069.48
504.30	24865.85
504.48	24968.84
504.65	25127.99
504.83	25245.02
505.01	25399.49
505.18	25446.30
505.36	25338.64
505.53	25671.00
505.71	25429.92
505.88	25799.73
506.06	25546.95
506.23	25827.81
506.41	25813.77
506.58	26111.02
506.76	26003.35
506.93	26178.89
507.11	26216.34
507.28	26490.18
507.46	26331.03
507.63	26148.46
507.81	26492.52
507.98	26656.36
508.16	26766.37
508.33	26965.31
508.50	27143.19
508.68	27049.57
508.85	27199.37
509.03	26745.30
509.20	27072.98
509.38	27414.69
509.55	27405.33
509.73	27363.20
509.90	27761.09
510.08	27440.44
510.25	27344.48
510.42	27812.59
510.60	27983.44
510.77	28109.83
510.95	28566.24
511.12	27850.03
511.30	27941.32
511.47	28133.24
511.64	28053.66
511.82	28222.18
511.99	28554.54
512.17	28542.83
512.34	28701.99
512.51	28835.40
512.69	28748.80
512.86	28709.01
513.04	29041.37
513.21	28699.65
513.38	29163.08
513.56	29158.39
513.73	28900.94
513.90	29333.93
514.08	29291.80
514.25	29394.79
514.43	29436.92
514.60	29415.85
514.77	29582.03
514.95	29738.85
515.12	29589.05
515.29	29844.17
515.47	29769.27
515.64	30314.62
515.81	29759.91
515.99	29984.60
516.16	30382.49
516.33	30726.55
516.51	30361.43
516.68	30431.65
516.85	30707.83
517.03	30658.68
517.20	30637.61
517.37	30817.83
517.54	30628.25
517.72	30946.56
517.89	30590.80
518.06	31147.85
518.24	31124.44
518.41	30616.55
518.58	31051.89
518.75	31189.98
518.93	30930.18
519.10	31339.77
519.27	31491.91
519.45	31154.87
519.62	31948.31
519.79	31992.78
519.96	31910.86
520.14	31630.00
520.31	31690.85
520.48	32198.75
520.65	31992.78
520.83	32437.48
521.00	32474.93
521.17	32144.92
521.34	32191.73
521.52	32332.16
521.69	32283.01
521.86	32423.44
522.03	32730.05
522.20	32816.65
522.38	32945.38
522.55	32718.35
522.72	32697.28
522.89	32814.31
523.07	33195.82
523.24	33043.68
523.41	33134.96
523.58	33263.69
523.75	33507.11
523.92	33261.35
524.10	33165.39
524.27	33516.47
524.44	33436.89
524.61	33684.99
524.78	33413.49
524.96	33998.62
525.13	33476.68
525.30	34120.33
525.47	34031.39
525.64	33982.24
525.81	34370.77
525.98	34010.32
526.16	33752.87
526.33	33633.50
526.50	34211.61
526.67	34127.35
526.84	34380.13
527.01	34480.77
527.18	34157.78
527.36	34838.87
527.53	34787.38
527.70	35295.28
527.87	34639.93
528.04	34700.78
528.21	34469.07
528.38	34916.11
528.55	35194.64
528.72	34845.90
528.89	35323.36
529.07	35005.05
529.24	34663.33
529.41	35138.46
529.58	35274.21
529.75	35182.93
529.92	35143.14
530.09	35325.71
530.26	35246.13
530.43	35501.25
530.60	35199.32
530.77	35545.72
530.94	35414.65
531.11	35627.63
531.28	35365.49
531.46	35810.20
531.63	36039.57
531.80	35866.37
531.97	36095.74
532.14	35845.30
532.31	35522.31
532.48	36353.20
532.65	36168.30
532.82	36023.19
532.99	36226.81
533.16	36292.35
533.33	36446.82
533.50	36334.48
533.67	36437.46
533.84	36191.70
534.01	36467.89
534.18	36676.19
534.35	36985.15
534.52	36804.92
534.69	36992.17
534.86	36964.08
535.03	36638.75
535.20	37050.68
535.37	36856.42
535.54	37228.56
535.71	37191.11
535.88	37233.24
536.05	37446.23
536.22	37479.00
536.38	37366.65
536.55	37207.50
536.72	37319.84
536.89	37371.33
537.06	37329.20
537.23	37750.50
537.40	37439.21
537.57	37460.27
537.74	37631.13
537.91	38167.12
538.08	37483.68
538.25	37902.64
538.42	37818.38
538.59	37954.13
538.75	37474.32
538.92	38288.82
539.09	38337.98
539.26	37991.58
539.43	38176.48
539.60	38057.11
539.77	37993.92
539.94	38450.32
540.11	38190.52
540.28	37907.32
540.44	38169.46
540.61	38312.23
540.78	38204.56
540.95	38504.15
541.12	38010.30
541.29	38452.66
541.46	38237.33
541.62	38740.55
541.79	38667.99
541.96	38237.33
542.13	38431.60
542.30	38810.76
542.47	38588.41
542.63	38625.86
542.80	39028.43
542.97	39124.40
543.14	39360.79
543.31	39281.21
543.48	39035.45
543.64	39445.05
543.81	39562.08
543.98	39536.33
544.15	38808.42
544.32	39550.37
544.48	39903.79
544.65	39625.27
544.82	39924.86
544.99	39639.31
545.16	39894.43
545.32	39379.51
545.49	40165.93
545.66	39936.56
545.83	39693.15
546.00	40034.86
546.16	39714.21
546.33	39742.30
546.50	39618.25
546.67	40051.25
546.83	39377.17
547.00	40030.18
547.17	40226.79
547.34	40086.36
547.50	40194.02
547.67	40804.90
547.84	40692.55
548.00	40381.26
548.17	41081.08
548.34	40177.64
548.51	40755.75
548.67	40730.00
548.84	40706.60
549.01	40872.78
549.18	40538.08
549.34	40720.64
549.51	40622.34
549.68	40837.67
549.84	40863.41
550.01	40982.78
550.18	40715.96
550.34	41174.70
550.51	41083.42
550.68	41195.77
550.84	40767.45
551.01	41036.61
551.18	41088.10
551.34	40966.40
551.51	41427.48
551.68	41120.87
551.84	41123.21
552.01	41170.02
552.18	41053.00
552.34	41373.65
552.51	41509.40
552.68	41179.39
552.84	41048.32
553.01	41462.59
553.18	41223.86
553.34	41677.92
553.51	41504.72
553.67	41614.72
553.84	41530.47
554.01	41724.73
554.17	41808.99
554.34	41916.65
554.51	42014.96
554.67	42249.01
554.84	42003.25
555.00	42040.70
555.17	41911.97
555.33	42351.99
555.50	41897.93
555.67	41881.55
555.83	42202.20
556.00	41804.31
556.16	42637.54
556.33	42300.50
556.50	42422.21
556.66	42230.29
556.83	42021.98
556.99	42223.26
557.16	42749.88
557.32	42375.40
557.49	41984.53
557.65	42541.58
557.82	42012.62
557.98	42665.63
558.15	42670.31
558.32	42314.55
558.48	42466.68
558.65	42508.81
558.81	42590.73
558.98	42555.62
559.14	42616.47
559.31	42436.25
559.47	42295.82
559.64	42717.12
559.80	42747.54
559.97	42576.69
560.13	42370.72
560.30	42705.41
560.46	42869.25
560.63	43124.37
560.79	42775.63
560.96	43091.60
561.12	43110.33
561.29	43093.94
561.45	42983.94
561.61	42997.98
561.78	43058.84
561.94	42927.77
562.11	43250.76
562.27	42824.78
562.44	43061.18
562.60	43285.87
562.77	43332.68
562.93	43063.52
563.10	43129.05
563.26	43030.75
563.42	43709.50
563.59	42726.48
563.75	43412.26
563.92	42916.06
564.08	42981.60
564.24	43714.19
564.41	43386.51
564.57	42951.17
564.74	43227.35
564.90	42902.02
565.07	43164.16
565.23	43318.64
565.39	43377.15
565.56	43419.28
565.72	43784.40
565.88	43229.69
566.05	43281.19
566.21	43323.32
566.38	43917.81
566.54	43372.47
566.70	43882.70
566.87	43452.05
567.03	43213.31
567.19	44474.86
567.36	43751.63
567.52	43819.51
567.68	43931.86
567.85	43632.27
568.01	44025.48
568.17	43302.25
568.34	43470.77
568.50	43807.81
568.66	43447.36
568.83	43700.14
568.99	43742.27
569.15	44116.76
569.32	43260.12
569.48	43435.66
569.64	44179.95
569.81	43842.92
569.97	43849.94
570.13	43952.92
570.30	43964.62
570.46	43863.98
570.62	43955.26
570.78	43866.32
570.95	43978.67
571.11	44144.84
571.27	43735.25
571.43	43791.42
571.60	43618.22
571.76	43824.19
571.92	43681.42
572.09	43976.33
572.25	44168.25
572.41	43838.23
572.57	44055.90
572.74	44657.42
572.90	43868.66
573.06	43966.96
573.22	44034.84
573.38	44105.06
573.55	44023.14
573.71	44687.85
573.87	44027.82
574.03	44261.87
574.20	44126.12
574.36	44301.66
574.52	44112.08
574.68	44442.09
574.84	44594.23
575.01	44491.24
575.17	44341.45
575.33	44577.84
575.49	43959.94
575.65	44282.94
575.82	44559.12
575.98	44210.38
576.14	44294.64
576.30	44472.52
576.46	44334.43
576.62	44374.22
576.79	44547.42
576.95	43845.26
577.11	44252.51
577.27	44067.61
577.43	44179.95
577.59	44093.35
577.75	44116.76
577.92	44044.20
578.08	44402.30
578.24	44236.12
578.40	44779.13
578.56	44418.69
578.72	44500.61
578.88	44591.89
579.04	44854.03
579.21	44697.21
579.37	44399.96
579.53	44446.77
579.69	44509.97
579.85	44299.32
580.01	44346.13
580.17	44191.65
580.33	44423.37
580.49	44748.70
580.65	44353.15
580.82	44561.46
580.98	44348.47
581.14	44608.27
581.30	44439.75
581.46	44395.28
581.62	44458.48
581.78	44392.94
581.94	44406.98
582.10	44383.58
582.26	44673.81
582.42	44460.82
582.58	44671.46
582.74	44648.06
582.90	44809.56
583.06	44210.38
583.22	44432.73
583.38	44406.98
583.54	44563.80
583.70	44680.83
583.86	44659.76
584.02	44144.84
584.18	44835.30
584.34	44774.45
584.50	44839.98
584.66	44619.97
584.82	44655.08
584.98	45478.95
585.14	44781.47
585.30	44353.15
585.46	44769.77
585.62	44460.82
585.78	44669.12
585.94	44498.26
586.10	44746.36
586.26	44411.67
586.42	44367.20
586.58	44891.48
586.74	44889.13
586.90	44540.39
587.06	44851.69
587.22	44769.77
587.38	44369.54
587.54	44767.43
587.70	44928.92
587.86	44884.45
588.02	44790.83
588.18	44463.16
588.34	44804.88
588.49	44821.26
588.65	44629.34
588.81	44940.63
588.97	44912.54
589.13	44512.31
589.29	44886.79
589.45	45289.37
589.61	44903.18
589.77	45214.47
589.93	44732.32
590.08	44872.75
590.24	45361.92
