SpectraSuite Data File
++++++++++++++++++++++++++++++++++++
Date: Fri Oct 25 11:33:40 EDT 2013
User: price-jones
Dark Spectrum Present: No
Reference Spectrum Present: No
Number of Sampled Component Spectra: 1
Spectrometers: USB2+H05261
Integration Time (usec): 100000 (USB2+H05261)
Spectra Averaged: 1 (USB2+H05261)
Boxcar Smoothing: 0 (USB2+H05261)
Correct for Electrical Dark: No (USB2+H05261)
Strobe/Lamp Enabled: No (USB2+H05261)
Correct for Detector Non-linearity: No (USB2+H05261)
Correct for Stray Light: No (USB2+H05261)
Number of Pixels in Processed Spectrum: 2048
>>>>>Begin Processed Spectral Data<<<<<
365.73	290.23
365.92	290.23
366.12	290.23
366.32	208.31
366.52	208.31
366.72	196.60
366.91	210.65
367.11	170.86
367.31	128.73
367.51	201.29
367.70	110.01
367.90	243.42
368.10	149.79
368.30	203.63
368.49	168.52
368.69	220.01
368.89	184.90
369.09	264.48
369.28	189.58
369.48	166.18
369.68	238.73
369.87	259.80
370.07	264.48
370.27	217.67
370.47	325.33
370.66	482.15
370.86	491.51
371.06	547.69
371.25	620.24
371.45	550.03
371.65	587.47
371.84	543.00
372.04	540.66
372.24	582.79
372.44	613.22
372.63	615.56
372.83	573.43
373.03	578.11
373.22	547.69
373.42	678.76
373.62	568.75
373.81	711.52
374.01	648.33
374.21	622.58
374.40	578.11
374.60	636.63
374.79	631.94
374.99	695.14
375.19	688.12
375.38	690.46
375.58	669.39
375.78	704.50
375.97	723.23
376.17	734.93
376.37	648.33
376.56	667.05
376.76	580.45
376.95	704.50
377.15	716.20
377.35	655.35
377.54	695.14
377.74	669.39
377.93	627.26
378.13	751.31
378.33	755.99
378.52	711.52
378.72	727.91
378.91	748.97
379.11	699.82
379.31	706.84
379.50	671.73
379.70	713.86
379.89	697.48
380.09	746.63
380.28	709.18
380.48	765.36
380.68	725.57
380.87	746.63
381.07	711.52
381.26	784.08
381.46	793.44
381.65	746.63
381.85	741.95
382.04	765.36
382.24	748.97
382.43	755.99
382.63	767.70
382.83	798.12
383.02	770.04
383.22	873.02
383.41	828.55
383.61	781.74
383.80	858.98
384.00	858.98
384.19	821.53
384.39	833.23
384.58	781.74
384.78	861.32
384.97	837.91
385.17	849.61
385.36	830.89
385.56	894.08
385.75	861.32
385.95	821.53
386.14	844.93
386.34	863.66
386.53	863.66
386.72	863.66
386.92	912.81
387.11	873.02
387.31	915.15
387.50	901.11
387.70	940.90
387.89	903.45
388.09	947.92
388.28	903.45
388.48	898.77
388.67	901.11
388.86	915.15
389.06	896.43
389.25	884.72
389.45	950.26
389.64	919.83
389.84	952.60
390.03	1018.13
390.22	929.19
390.42	1053.24
390.61	973.66
390.81	980.68
391.00	980.68
391.19	1076.65
391.39	919.83
391.58	1015.79
391.78	1081.33
391.97	1067.28
392.16	1034.52
392.36	1053.24
392.55	1104.73
392.75	1102.39
392.94	1100.05
393.13	1125.80
393.33	1027.50
393.52	1022.81
393.71	1128.14
393.91	1149.20
394.10	1102.39
394.29	1074.31
394.49	1156.22
394.68	1076.65
394.88	1144.52
395.07	1100.05
395.26	1231.12
395.46	1132.82
395.65	1210.06
395.84	1179.63
396.04	1242.82
396.23	1200.69
396.42	1205.38
396.62	1179.63
396.81	1291.98
397.00	1188.99
397.19	1221.76
397.39	1191.33
397.58	1210.06
397.77	1233.46
397.97	1324.74
398.16	1287.29
398.35	1252.19
398.55	1219.42
398.74	1221.76
398.93	1394.96
399.12	1392.62
399.32	1306.02
399.51	1331.76
399.70	1301.34
399.90	1273.25
400.09	1392.62
400.28	1432.41
400.47	1350.49
400.67	1350.49
400.86	1432.41
401.05	1411.34
401.24	1495.60
401.44	1437.09
401.63	1474.54
401.82	1511.99
402.01	1385.60
402.21	1495.60
402.40	1467.52
402.59	1444.11
402.78	1472.20
402.97	1526.03
403.17	1643.06
403.36	1472.20
403.55	1516.67
403.74	1547.09
403.93	1600.93
404.13	1666.46
404.32	1617.31
404.51	1591.56
404.70	1617.31
404.89	1551.78
405.09	1621.99
405.28	1703.91
405.47	1701.57
405.66	1678.16
405.85	1823.28
406.05	1621.99
406.24	1764.76
406.43	1774.13
406.62	1760.08
406.81	1884.13
407.00	1753.06
407.20	1685.19
407.39	1867.75
407.58	1884.13
407.77	1870.09
407.96	1930.94
408.15	1879.45
408.34	1930.94
408.54	1825.62
408.73	1858.39
408.92	1900.52
409.11	1966.05
409.30	2026.90
409.49	2010.52
409.68	2059.67
409.87	2010.52
410.07	2059.67
410.26	2069.03
410.45	2094.78
410.64	2097.12
410.83	2043.29
411.02	2080.74
411.21	2235.21
411.40	2115.84
411.59	2235.21
411.78	2193.08
411.98	2038.61
412.17	2289.04
412.36	2258.62
412.55	2214.15
412.74	2354.58
412.93	2448.20
413.12	2401.39
413.31	2506.71
413.50	2420.11
413.69	2347.56
413.88	2417.77
414.07	2558.21
414.26	2502.03
414.45	2445.86
414.64	2394.37
414.83	2619.06
415.02	2593.31
415.22	2600.34
415.41	2766.51
415.60	2696.30
415.79	2708.00
415.98	2780.56
416.17	2752.47
416.36	2780.56
416.55	2743.11
416.74	2883.54
416.93	2839.07
417.12	2750.13
417.31	2963.12
417.50	2853.11
417.69	3038.02
417.88	2981.84
418.07	2946.73
418.26	2928.01
418.45	3009.93
418.64	3110.57
418.83	3096.53
419.02	3061.42
419.21	3152.70
419.39	3054.40
419.58	3098.87
419.77	3054.40
419.96	3141.00
420.15	3091.85
420.34	3229.94
420.53	3183.13
420.72	3267.39
420.91	3321.22
421.10	3318.88
421.29	3330.58
421.48	3220.58
421.67	3150.36
421.86	3269.73
422.05	3501.44
422.24	3379.73
422.43	3323.56
422.61	3384.41
422.80	3494.42
422.99	3403.14
423.18	3391.44
423.37	3351.65
423.56	3323.56
423.75	3398.46
423.94	3398.46
424.13	3173.77
424.32	3356.33
424.50	3438.25
424.69	3487.40
424.88	3637.19
425.07	3492.08
425.26	3517.83
425.45	3440.59
425.64	3445.27
425.83	3513.14
426.01	3471.01
426.20	3370.37
426.39	3456.97
426.58	3337.60
426.77	3417.18
426.96	3531.87
427.15	3627.83
427.33	3632.51
427.52	3529.53
427.71	3639.53
427.90	3599.74
428.09	3653.58
428.28	3646.55
428.46	3772.94
428.65	3658.26
428.84	3847.84
429.03	3868.91
429.22	3716.77
429.40	3824.44
429.59	3740.18
429.78	3716.77
429.97	3684.00
430.16	3751.88
430.34	3796.35
430.53	3857.20
430.72	3878.27
430.91	3824.44
431.10	3747.20
431.28	3978.91
431.47	3983.59
431.66	4154.45
431.85	4100.62
432.03	3988.27
432.22	4147.43
432.41	3999.98
432.60	4042.11
432.79	4091.26
432.97	4159.13
433.16	4131.05
433.35	4112.32
433.54	4098.28
433.72	4219.99
433.91	4269.14
434.10	4196.58
434.28	4121.68
434.47	4241.05
434.66	4341.69
434.85	4376.80
435.03	4557.02
435.22	4285.52
435.41	4486.81
435.59	4458.72
435.78	4383.82
435.97	4477.44
436.16	4381.48
436.34	4355.74
436.53	4484.47
436.72	4575.75
436.90	4409.57
437.09	4519.57
437.28	4425.95
437.46	4573.41
437.65	4493.83
437.84	4629.58
438.02	4552.34
438.21	4631.92
438.40	4578.09
438.58	4711.50
438.77	4767.67
438.96	4849.59
439.14	4950.23
439.33	4945.55
439.52	4990.02
439.70	5018.11
439.89	5064.92
440.08	5015.77
440.26	5085.98
440.45	4992.36
440.63	5195.99
440.82	5217.05
441.01	5095.35
441.19	5226.42
441.38	5296.63
441.57	5277.91
441.75	5317.70
441.94	5348.12
442.12	5355.15
442.31	5664.10
442.50	5453.45
442.68	5514.30
442.87	5444.09
443.05	5385.57
443.24	5504.94
443.43	5600.90
443.61	5675.80
443.80	5565.79
443.98	5439.40
444.17	5387.91
444.35	5556.43
444.54	5753.04
444.73	5563.45
444.91	5783.46
445.10	5753.04
445.28	5738.99
445.47	5696.86
445.65	5612.60
445.84	5708.57
446.02	5776.44
446.21	5621.97
446.39	5809.21
446.58	5640.69
446.77	5692.18
446.95	5636.01
447.14	5827.93
447.32	5827.93
447.51	5797.51
447.69	5701.54
447.88	5804.53
448.06	5713.25
448.25	5860.70
448.43	5715.59
448.62	5949.64
448.80	5860.70
448.99	5827.93
449.17	5895.81
449.36	5767.08
449.54	5914.53
449.73	6094.76
449.91	6183.70
450.10	6019.86
450.28	6181.35
450.46	6008.16
450.65	6024.54
450.83	6164.97
451.02	6263.27
451.20	6310.08
451.39	6305.40
451.57	6289.02
451.76	6221.14
451.94	6195.40
452.13	6483.28
452.31	6471.58
452.49	6422.43
452.68	6319.45
452.86	6396.68
453.05	6321.79
453.23	6562.86
453.42	6354.55
453.60	6293.70
453.78	6450.52
453.97	6565.20
454.15	6560.52
454.34	6457.54
454.52	6548.82
454.70	6513.71
454.89	6555.84
455.07	6480.94
455.26	6612.01
455.44	6853.09
455.62	6778.19
455.81	6619.04
455.99	6810.96
456.17	6705.63
456.36	6827.34
456.54	6878.83
456.73	6923.30
456.91	7229.91
457.09	7136.29
457.28	7183.10
457.46	6951.39
457.64	7143.32
457.83	7049.69
458.01	7056.72
458.19	7316.51
458.38	7255.66
458.56	7262.68
458.74	7183.10
458.93	7358.64
459.11	7131.61
459.29	7194.81
459.48	7295.45
459.66	7248.64
459.84	7307.15
460.03	7459.29
460.21	7307.15
460.39	7421.84
460.57	7283.75
460.76	7473.33
460.94	7630.15
461.12	7606.74
461.31	7606.74
461.49	7557.59
461.67	7517.80
461.85	7712.07
462.04	7524.82
462.22	7992.93
462.40	7899.31
462.59	7805.69
462.77	7742.49
462.95	7777.60
463.13	7847.82
463.32	7875.90
463.50	7908.67
463.68	7817.39
463.86	7929.74
464.05	7817.39
464.23	7840.79
464.41	8021.02
464.59	7882.92
464.78	8018.68
464.96	8009.31
465.14	8011.65
465.32	8116.98
465.50	8191.88
465.69	8205.92
465.87	8124.00
466.05	8140.38
466.23	8411.89
466.41	8311.24
466.60	8458.70
466.78	8226.98
466.96	8135.70
467.14	8156.77
467.32	8418.91
467.51	8379.12
467.69	8182.51
467.87	8313.58
468.05	8301.88
468.23	8498.49
468.41	8212.94
468.60	8505.51
468.78	8554.66
468.96	8299.54
469.14	8599.13
469.32	8781.69
469.50	8564.02
469.69	8627.21
469.87	8664.66
470.05	8835.52
470.23	8769.99
470.41	9050.85
470.59	8915.10
470.77	8903.40
470.95	9006.38
471.14	9228.73
471.32	8875.31
471.50	9069.58
471.68	9188.94
471.86	9090.64
472.04	9179.58
472.22	9530.66
472.40	9144.47
472.58	9139.79
472.77	9451.08
472.95	9411.29
473.13	9884.08
473.31	9430.02
473.49	9462.79
473.67	9369.16
473.85	9666.41
474.03	9832.59
474.21	9870.04
474.39	9987.07
474.57	9708.54
474.75	9884.08
474.93	10143.88
475.12	9661.73
475.30	10162.61
475.48	10003.45
475.66	10052.60
475.84	10064.30
476.02	10083.03
476.20	10300.70
476.38	10223.46
476.56	10738.38
476.74	10717.31
476.92	10626.03
477.10	10558.16
477.28	10642.42
477.46	10778.17
477.64	10892.85
477.82	10979.45
478.00	11201.80
478.18	10981.79
478.36	11279.04
478.54	11288.40
478.72	11599.70
478.90	11515.44
479.08	11791.62
479.26	11557.57
479.44	11742.47
479.62	11836.09
479.80	11761.19
479.98	12259.73
480.16	12250.36
480.34	12245.68
480.52	12482.08
480.70	12526.55
480.88	12287.81
481.06	12430.59
481.24	12456.33
481.41	12594.42
481.59	12706.77
481.77	13071.89
481.95	12959.55
482.13	13135.09
482.31	13142.11
482.49	13209.98
482.67	13488.51
482.85	13446.38
483.03	13528.30
483.21	13792.78
483.39	13916.83
483.57	13652.34
483.74	14054.92
483.92	13970.66
484.10	13792.78
484.28	14122.79
484.46	14789.85
484.64	14731.33
484.82	14450.47
485.00	14899.85
485.18	14984.11
485.35	15248.59
485.53	15241.57
485.71	15215.82
485.89	15353.91
486.07	15499.03
486.25	15487.32
486.43	15756.49
486.61	15503.71
486.78	15826.70
486.96	15880.53
487.14	16283.11
487.32	16233.96
487.50	16233.96
487.68	16425.88
487.85	16636.53
488.03	16830.79
488.21	16844.84
488.39	16999.31
488.57	17406.56
488.75	17380.82
488.92	17687.43
489.10	17813.82
489.28	17537.63
489.46	18113.41
489.64	17645.30
489.81	18108.72
489.99	18553.43
490.17	18396.61
490.35	18232.77
490.53	18757.05
490.70	19157.28
490.88	18539.38
491.06	19016.85
491.24	19115.16
491.41	18904.51
491.59	19400.70
491.77	19262.61
491.95	19641.78
492.13	19594.96
492.30	19908.60
492.48	19616.03
492.66	19873.49
492.84	19859.45
493.01	20152.01
493.19	20355.64
493.37	20409.47
493.54	20446.92
493.72	20856.51
493.90	20673.95
494.08	20964.18
494.25	21226.32
494.43	20971.20
494.61	21282.49
494.79	21301.22
494.96	21188.87
495.14	21586.76
495.32	21766.98
495.49	21673.36
495.67	21762.30
495.85	22139.13
496.02	22356.80
496.20	22450.42
496.38	22494.89
496.55	22361.48
496.73	23246.20
496.91	22998.10
497.09	22649.36
497.26	23103.43
497.44	22876.40
497.62	23246.20
497.79	23522.38
497.97	23435.78
498.14	23899.21
498.32	23791.55
498.50	23927.30
498.67	24280.72
498.85	23946.02
499.03	24011.56
499.20	24369.66
499.38	24357.96
499.56	24313.48
499.73	24437.53
499.91	24601.37
500.08	24947.77
500.26	24608.39
500.44	25048.41
500.61	24844.79
500.79	24968.84
500.97	25179.48
501.14	25504.82
501.32	25422.90
501.49	25043.73
501.67	25694.40
501.84	25942.50
502.02	25621.84
502.20	25855.90
502.37	26008.03
502.55	25811.43
502.72	25841.85
502.90	26087.61
503.07	26087.61
503.25	26068.89
503.43	26101.65
503.60	26218.68
503.78	26384.86
503.95	26214.00
504.13	26513.59
504.30	26838.92
504.48	26838.92
504.65	26885.73
504.83	26969.99
505.01	27473.21
505.18	27147.87
505.36	27725.99
505.53	27475.55
505.71	27491.93
505.88	27871.10
506.06	27175.96
506.23	28006.85
506.41	27428.74
506.58	27665.13
506.76	28154.30
506.93	28034.94
507.11	28189.41
507.28	28423.47
507.46	28098.13
507.63	28477.30
507.81	28816.68
507.98	28240.90
508.16	28711.35
508.33	28491.34
508.50	28933.70
508.68	28732.42
508.85	28973.49
509.03	29252.02
509.20	29198.18
509.38	29483.73
509.55	29652.25
509.73	29696.72
509.90	29453.30
510.08	29275.42
510.25	29528.20
510.42	29621.82
510.60	29685.01
510.77	30122.69
510.95	30103.97
511.12	30125.04
511.30	30204.61
511.47	30258.45
511.64	30059.50
511.82	30546.33
511.99	30441.01
512.17	30754.64
512.34	30852.94
512.51	30735.92
512.69	30639.95
512.86	30960.61
513.04	31044.87
513.21	30892.73
513.38	31115.08
513.56	31112.74
513.73	30941.88
513.90	31260.20
514.08	31173.60
514.25	31487.23
514.43	31611.28
514.60	31754.05
514.77	31625.32
514.95	31529.36
515.12	31545.74
515.29	31779.79
515.47	32032.57
515.64	32173.00
515.81	31835.97
515.99	32271.31
516.16	32828.35
516.33	32306.41
516.51	32769.84
516.68	32318.12
516.85	32589.62
517.03	32952.40
517.20	32594.30
517.37	32737.07
517.54	33048.36
517.72	33308.16
517.89	33088.15
518.06	33291.78
518.24	32926.66
518.41	32753.46
518.58	33076.45
518.75	33081.13
518.93	33209.86
519.10	33310.50
519.27	33968.19
519.45	33748.18
519.62	34022.03
519.79	34263.10
519.96	33890.96
520.14	34010.32
520.31	33619.46
520.48	34033.73
520.65	34370.77
520.83	34452.69
521.00	34623.54
521.17	34143.74
521.34	34714.83
521.52	34459.71
521.69	34916.11
521.86	34689.08
522.03	34850.58
522.20	34836.53
522.38	35000.37
522.55	35091.65
522.72	35325.71
522.89	35311.66
523.07	35440.39
523.24	34817.81
523.41	35526.99
523.58	35674.45
523.75	35941.27
523.92	35445.07
524.10	35742.32
524.27	35943.61
524.44	35840.62
524.61	36044.25
524.78	35606.57
524.96	36156.60
525.13	36032.55
525.30	36505.34
525.47	36545.12
525.64	36484.27
525.81	36451.50
525.98	36390.65
526.16	36662.15
526.33	36837.69
526.50	36959.40
526.67	36177.66
526.84	36486.61
527.01	36678.54
527.18	36753.43
527.36	36842.37
527.53	37078.77
527.70	37221.54
527.87	36943.02
528.04	37153.66
528.21	37200.47
528.38	37268.35
528.55	37626.45
528.72	37579.64
528.89	37626.45
529.07	37188.77
529.24	37329.20
529.41	38012.64
529.58	37598.37
529.75	37607.73
529.92	37703.69
530.09	37331.54
530.26	38153.07
530.43	37951.79
530.60	37979.87
530.77	38141.37
530.94	38370.74
531.11	38054.77
531.28	38256.06
531.46	38117.96
531.63	38703.10
531.80	38157.75
531.97	38398.83
532.14	38646.93
532.31	38763.95
532.48	38675.01
532.65	38775.66
532.82	38782.68
532.99	38557.99
533.16	38658.63
533.33	38979.28
533.50	38831.83
533.67	39014.39
533.84	38581.39
534.01	38794.38
534.18	38911.41
534.35	39426.32
534.52	39353.77
534.69	39597.18
534.86	39536.33
535.03	39370.15
535.20	39559.73
535.37	39665.06
535.54	39814.85
535.71	39428.66
535.88	39447.39
536.05	39089.29
536.22	40098.06
536.38	39955.29
536.55	39618.25
536.72	39962.31
536.89	39751.66
537.06	39997.41
537.23	40538.08
537.40	40502.97
537.57	39658.04
537.74	39833.58
537.91	40465.52
538.08	40311.05
538.25	40315.73
538.42	40404.67
538.59	40875.12
538.75	40374.24
538.92	40622.34
539.09	40587.23
539.26	40631.70
539.43	40509.99
539.60	40910.22
539.77	40715.96
539.94	41244.92
540.11	41207.47
540.28	40601.27
540.44	40985.12
540.61	41074.06
540.78	40556.80
540.95	41071.72
541.12	40825.96
541.29	40994.48
541.46	41207.47
541.62	41289.39
541.79	41319.82
541.96	40758.09
542.13	41209.81
542.30	41219.17
542.47	41364.29
542.63	41242.58
542.80	41364.29
542.97	42368.38
543.14	42302.84
543.31	41703.67
543.48	41867.50
543.64	42408.17
543.81	42241.99
543.98	42178.79
544.15	42092.19
544.32	42689.03
544.48	42426.89
544.65	42216.24
544.82	42623.50
544.99	42628.18
545.16	42309.86
545.32	42782.65
545.49	42838.83
545.66	43016.71
545.83	42784.99
546.00	42946.49
546.16	42665.63
546.33	42670.31
546.50	42658.60
546.67	43131.39
546.83	42962.87
547.00	42848.19
547.17	42572.00
547.34	42677.33
547.50	43363.11
547.67	43700.14
547.84	43395.87
548.00	43320.98
548.17	43665.03
548.34	43475.45
548.51	43196.93
548.67	43353.74
548.84	43463.75
549.01	43030.75
549.18	43655.67
549.34	43454.39
549.51	44091.01
549.68	43782.06
549.84	43725.89
550.01	43620.56
550.18	43641.63
550.34	43854.62
550.51	44203.36
550.68	43742.27
550.84	43845.26
551.01	44091.01
551.18	43852.28
551.34	43763.34
551.51	44135.48
551.68	43831.21
551.84	44261.87
552.01	43866.32
552.18	44442.09
552.34	44072.29
552.51	44442.09
552.68	43906.11
552.84	44360.17
553.01	44456.14
553.18	44313.36
553.34	44589.55
553.51	44271.23
553.67	44472.52
553.84	44350.81
554.01	44488.90
554.17	44563.80
554.34	44797.85
554.51	44699.55
554.67	45057.65
554.84	44875.09
555.00	44479.54
555.17	44470.18
555.33	44673.81
555.50	44741.68
555.67	44708.91
555.83	44610.61
556.00	45162.98
556.16	45579.59
556.33	45144.25
556.50	45116.17
556.66	44779.13
556.83	45055.31
556.99	45420.44
557.16	45331.50
557.32	45549.17
557.49	45387.67
557.65	45043.61
557.82	45446.18
557.98	44996.80
558.15	45411.07
558.32	45345.54
558.48	45350.22
558.65	45151.27
558.81	45209.79
558.98	45364.26
559.14	45244.90
559.31	45085.74
559.47	44987.44
559.64	45378.31
559.80	45558.53
559.97	45977.48
560.13	45591.30
560.30	45762.15
560.46	45476.61
560.63	45748.11
560.79	45797.26
560.96	45815.99
561.12	45588.95
561.29	45656.83
561.45	45659.17
561.61	46155.36
561.78	45722.37
561.94	45794.92
562.11	45933.01
562.27	46131.96
562.44	46122.60
562.60	46005.57
562.77	46082.81
562.93	45874.50
563.10	45996.21
563.26	46005.57
563.42	46679.64
563.59	46160.05
563.75	46078.13
563.92	46263.03
564.08	45867.48
564.24	46005.57
564.41	46267.71
564.57	46234.94
564.74	45942.38
564.90	45965.78
565.07	45642.79
565.23	46024.29
565.39	46415.16
565.56	46305.16
565.72	46478.36
565.88	45989.19
566.05	46485.38
566.21	46497.08
566.38	46405.80
566.54	46700.71
566.70	46614.11
566.87	46562.62
567.03	45954.08
567.19	46618.79
567.36	46286.43
567.52	46192.81
567.68	46719.43
567.85	46616.45
568.01	46710.07
568.17	46106.21
568.34	46506.44
568.50	46810.71
568.66	46557.94
568.83	46312.18
568.99	46581.34
569.15	46782.63
569.32	46756.88
569.48	46569.64
569.64	46876.25
569.81	46883.27
569.97	46672.62
570.13	46616.45
570.30	46590.70
570.46	46810.71
570.62	46780.29
570.78	46969.87
570.95	46586.02
571.11	47014.34
571.27	46726.46
571.43	46791.99
571.60	46852.84
571.76	46674.96
571.92	47063.49
572.09	46569.64
572.25	46763.90
572.41	46845.82
572.57	46775.61
572.74	47098.60
572.90	46972.21
573.06	47049.45
573.22	47248.39
573.38	47105.62
573.55	46925.40
573.71	47143.07
573.87	47040.09
574.03	47199.24
574.20	47601.82
574.36	47077.54
574.52	47306.91
574.68	47374.78
574.84	47697.78
575.01	47473.09
575.17	47246.05
575.33	47255.42
575.49	47077.54
575.65	47304.57
575.82	47232.01
575.98	47040.09
576.14	47182.86
576.30	47239.03
576.46	47379.46
576.62	47299.89
576.79	47459.04
576.95	46831.78
577.11	47166.48
577.27	47229.67
577.43	47091.58
577.59	47501.17
577.75	46958.17
577.92	46679.64
578.08	47800.76
578.24	47351.38
578.40	47377.12
578.56	47459.04
578.72	47180.52
578.88	47210.95
579.04	47374.78
579.21	47075.19
579.37	47957.58
579.53	47524.58
579.69	47353.72
579.85	47100.94
580.01	47737.57
580.17	47250.74
580.33	47789.06
580.49	47213.29
580.65	47557.35
580.82	47122.01
580.98	47421.59
581.14	47157.11
581.30	47503.51
581.46	47547.98
581.62	47009.66
581.78	46869.23
581.94	47320.95
582.10	47445.00
582.26	47377.12
582.42	47107.96
582.58	47618.20
582.74	47505.85
582.90	47580.75
583.06	47522.24
583.22	47571.39
583.38	47714.16
583.54	47529.26
583.70	47386.49
583.86	47374.78
584.02	47374.78
584.18	47969.28
584.34	47653.31
584.50	47625.22
584.66	47688.42
584.82	47274.14
584.98	47723.52
585.14	47398.19
585.30	47435.64
585.46	47461.38
585.62	47576.07
585.78	47594.79
585.94	47136.05
586.10	47632.24
586.26	47655.65
586.42	47271.80
586.58	47416.91
586.74	47409.89
586.90	47440.32
587.06	47686.07
587.22	47814.80
587.38	47721.18
587.54	47508.19
587.70	47913.11
587.86	47765.65
588.02	47306.91
588.18	47501.17
588.34	47360.74
588.49	47842.89
588.65	47580.75
588.81	47721.18
588.97	47772.67
589.13	47433.30
589.29	47447.34
589.45	47779.70
589.61	47934.17
589.77	47775.02
589.93	47620.54
