SpectraSuite Data File
++++++++++++++++++++++++++++++++++++
Date: Fri Oct 25 11:26:42 EDT 2013
User: price-jones
Dark Spectrum Present: No
Reference Spectrum Present: No
Number of Sampled Component Spectra: 1
Spectrometers: USB2+H05261
Integration Time (usec): 100000 (USB2+H05261)
Spectra Averaged: 1 (USB2+H05261)
Boxcar Smoothing: 0 (USB2+H05261)
Correct for Electrical Dark: No (USB2+H05261)
Strobe/Lamp Enabled: No (USB2+H05261)
Correct for Detector Non-linearity: No (USB2+H05261)
Correct for Stray Light: No (USB2+H05261)
Number of Pixels in Processed Spectrum: 2048
>>>>>Begin Processed Spectral Data<<<<<
365.73	271.50
365.92	271.50
366.12	271.50
366.32	117.03
366.52	184.90
366.72	184.90
366.91	131.07
367.11	147.45
367.31	131.07
367.51	201.29
367.70	166.18
367.90	236.39
368.10	149.79
368.30	205.97
368.49	184.90
368.69	170.86
368.89	173.20
369.09	138.09
369.28	110.01
369.48	149.79
369.68	182.56
369.87	161.50
370.07	159.16
370.27	283.20
370.47	407.25
370.66	578.11
370.86	664.71
371.06	643.65
371.25	723.23
371.45	664.71
371.65	692.80
371.84	720.88
372.04	741.95
372.24	795.78
372.44	774.72
372.63	681.10
372.83	802.80
373.03	636.63
373.22	763.01
373.42	844.93
373.62	791.10
373.81	748.97
374.01	767.70
374.21	802.80
374.40	777.06
374.60	830.89
374.79	755.99
374.99	805.14
375.19	917.49
375.38	814.51
375.58	814.51
375.78	919.83
375.97	849.61
376.17	938.55
376.37	875.36
376.56	880.04
376.76	896.43
376.95	873.02
377.15	936.21
377.35	943.24
377.54	849.61
377.74	922.17
377.93	1001.75
378.13	954.94
378.33	861.32
378.52	891.74
378.72	1011.11
378.91	1032.18
379.11	990.05
379.31	915.15
379.50	940.90
379.70	1046.22
379.89	978.34
380.09	926.85
380.28	961.96
380.48	1071.97
380.68	976.00
380.87	992.39
381.07	1015.79
381.26	1081.33
381.46	1057.92
381.65	999.41
381.85	1006.43
382.04	1050.90
382.24	1114.10
382.43	1032.18
382.63	1125.80
382.83	1060.26
383.02	1104.73
383.22	1135.16
383.41	1160.91
383.61	1156.22
383.80	1146.86
384.00	1177.29
384.19	1097.71
384.39	1158.57
384.58	1149.20
384.78	1203.04
384.97	1137.50
385.17	1193.67
385.36	1219.42
385.56	1184.31
385.75	1219.42
385.95	1165.59
386.14	1245.16
386.34	1174.95
386.53	1254.53
386.72	1324.74
386.92	1238.14
387.11	1310.70
387.31	1303.68
387.50	1289.64
387.70	1219.42
387.89	1282.61
388.09	1186.65
388.28	1284.95
388.48	1336.45
388.67	1397.30
388.86	1343.47
389.06	1308.36
389.25	1277.93
389.45	1324.74
389.64	1320.06
389.84	1362.19
390.03	1448.79
390.22	1418.36
390.42	1451.13
390.61	1397.30
390.81	1444.11
391.00	1444.11
391.19	1479.22
391.39	1467.52
391.58	1521.35
391.78	1327.08
391.97	1453.47
392.16	1526.03
392.36	1687.53
392.55	1493.26
392.75	1570.50
392.94	1469.86
393.13	1626.67
393.33	1533.05
393.52	1598.59
393.71	1645.40
393.91	1572.84
394.10	1589.22
394.29	1621.99
394.49	1558.80
394.68	1724.97
394.88	1708.59
395.07	1657.10
395.26	1661.78
395.46	1600.93
395.65	1785.83
395.84	1703.91
396.04	1767.10
396.23	1748.38
396.42	1732.00
396.62	1781.15
396.81	1806.89
397.00	1734.34
397.19	1788.17
397.39	1750.72
397.58	1860.73
397.77	1816.26
397.97	1912.22
398.16	1834.98
398.35	1970.73
398.55	1895.83
398.74	1827.96
398.93	1865.41
399.12	1884.13
399.32	1966.05
399.51	2064.35
399.70	2085.42
399.90	1977.75
400.09	2029.24
400.28	2076.06
400.47	2015.20
400.67	2083.08
400.86	2111.16
401.05	2106.48
401.24	2104.14
401.44	2165.00
401.63	2115.84
401.82	2195.42
402.01	2125.21
402.21	2275.00
402.40	2228.19
402.59	2272.66
402.78	2239.89
402.97	2172.02
403.17	2282.02
403.36	2385.01
403.55	2298.41
403.74	2415.43
403.93	2434.16
404.13	2368.62
404.32	2396.71
404.51	2450.54
404.70	2478.63
404.89	2373.30
405.09	2586.29
405.28	2518.42
405.47	2471.61
405.66	2612.04
405.85	2509.05
406.05	2492.67
406.24	2595.65
406.43	2579.27
406.62	2715.02
406.81	2684.59
407.00	2569.91
407.20	2626.08
407.39	2682.25
407.58	2724.38
407.77	2768.85
407.96	2766.51
408.15	2717.36
408.34	2757.15
408.54	2871.84
408.73	2895.24
408.92	2825.03
409.11	2803.96
409.30	2829.71
409.49	2986.52
409.68	2932.69
409.87	2820.35
410.07	2967.80
410.26	3112.91
410.45	3002.91
410.64	2963.12
410.83	3019.29
411.02	3122.27
411.21	3117.59
411.40	3197.17
411.59	3180.79
411.78	3258.03
411.98	3325.90
412.17	3297.81
412.36	3251.00
412.55	3283.77
412.74	3363.35
412.93	3524.85
413.12	3412.50
413.31	3510.80
413.50	3550.59
413.69	3517.83
413.88	3613.79
414.07	3489.74
414.26	3681.66
414.45	3691.02
414.64	3740.18
414.83	3765.92
415.02	3962.53
415.22	4039.76
415.41	3826.78
415.60	3904.01
415.79	3815.07
415.98	3969.55
416.17	4135.73
416.36	3894.65
416.55	4159.13
416.74	4081.89
416.93	4093.60
417.12	4030.40
417.31	4168.49
417.50	4241.05
417.69	4318.29
417.88	4315.95
418.07	4234.03
418.26	4407.23
418.45	4374.46
418.64	4283.18
418.83	4582.77
419.02	4428.29
419.21	4596.81
419.39	4573.41
419.58	4414.25
419.77	4636.60
419.96	4655.33
420.15	4734.90
420.34	4573.41
420.53	4601.49
420.72	4781.71
420.91	4751.29
421.10	4685.75
421.29	4772.35
421.48	4608.51
421.67	4905.76
421.86	4699.80
422.05	4685.75
422.24	4945.55
422.43	4877.68
422.61	5048.54
422.80	4964.28
422.99	4945.55
423.18	4936.19
423.37	5053.22
423.56	4880.02
423.75	4898.74
423.94	4826.18
424.13	4461.06
424.32	4753.63
424.50	4936.19
424.69	5167.90
424.88	5111.73
425.07	4957.25
425.26	5011.09
425.45	4954.91
425.64	4983.00
425.83	5011.09
426.01	5151.52
426.20	5123.43
426.39	5107.05
426.58	4992.36
426.77	5242.80
426.96	5210.03
427.15	5242.80
427.33	5135.14
427.52	5343.44
427.71	5149.18
427.90	5310.68
428.09	5282.59
428.28	5404.30
428.46	5467.49
428.65	5500.26
428.84	5591.54
429.03	5689.84
429.22	5397.28
429.40	5392.59
429.59	5401.96
429.78	5280.25
429.97	5254.50
430.16	5530.69
430.34	5645.37
430.53	5671.12
430.72	5591.54
430.91	5753.04
431.10	5795.17
431.28	5738.99
431.47	5666.44
431.66	5839.64
431.85	5809.21
432.03	5951.98
432.22	6015.18
432.41	5951.98
432.60	5996.45
432.79	6099.44
432.97	6237.53
433.16	6153.27
433.35	6118.16
433.54	6129.86
433.72	6204.76
433.91	6293.70
434.10	6235.19
434.28	6207.10
434.47	6434.13
434.66	6190.72
434.85	6359.24
435.03	6354.55
435.22	6319.45
435.41	6569.88
435.59	6347.53
435.78	6502.01
435.97	6626.06
436.16	6520.73
436.34	6457.54
436.53	6537.12
436.72	6677.55
436.90	6602.65
437.09	6677.55
437.28	6434.13
437.46	6640.10
437.65	6726.70
437.84	6827.34
438.02	6752.45
438.21	6792.23
438.40	6679.89
438.58	7140.97
438.77	7080.12
438.96	6906.92
439.14	7037.99
439.33	7112.89
439.52	7192.47
439.70	7173.74
439.89	7449.93
440.08	7351.62
440.26	7522.48
440.45	7438.22
440.63	7424.18
440.82	7676.96
441.01	7562.27
441.19	7543.55
441.38	7548.23
441.57	7672.28
441.75	7887.61
441.94	8093.57
442.12	7929.74
442.31	7983.57
442.50	7880.58
442.68	8196.56
442.87	7999.95
443.05	8133.36
443.24	8236.35
443.43	8266.77
443.61	8280.82
443.80	8463.38
443.98	8051.44
444.17	7861.86
444.35	8142.72
444.54	8645.94
444.73	8538.27
444.91	8514.87
445.10	8390.82
445.28	8362.73
445.47	8416.57
445.65	8463.38
445.84	8432.95
446.02	8603.81
446.21	8470.40
446.39	8367.42
446.58	8535.93
446.77	8423.59
446.95	8423.59
447.14	8496.14
447.32	8439.97
447.51	8603.81
447.69	8552.32
447.88	8559.34
448.06	8470.40
448.25	8676.37
448.43	8517.21
448.62	8854.25
448.80	8652.96
448.99	8720.84
449.17	8929.14
449.36	8760.63
449.54	8762.97
449.73	8870.63
449.91	8982.98
450.10	9081.28
450.28	9109.36
450.46	9083.62
450.65	9050.85
450.83	9125.75
451.02	9116.39
451.20	9441.72
451.39	9474.49
451.57	9249.80
451.76	9160.86
451.94	9334.06
452.13	9408.95
452.31	9240.44
452.49	9074.26
452.68	9392.57
452.86	9357.46
453.05	9350.44
453.23	9699.18
453.42	9533.00
453.60	9411.29
453.78	9441.72
453.97	9511.94
454.15	9535.34
454.34	9521.30
454.52	9708.54
454.70	9617.26
454.89	9802.16
455.07	9792.80
455.26	9816.21
455.44	9907.49
455.62	9851.31
455.81	9914.51
455.99	10097.07
456.17	10099.41
456.36	10001.11
456.54	10270.27
456.73	10211.76
456.91	10466.88
457.09	10349.85
457.28	10651.78
457.46	10384.96
457.64	10544.11
457.83	10509.01
458.01	10501.98
458.19	10640.08
458.38	10712.63
458.56	10822.64
458.74	10867.11
458.93	10787.53
459.11	10799.23
459.29	10743.06
459.48	10827.32
459.66	10787.53
459.84	10925.62
460.03	11201.80
460.21	11073.07
460.39	10979.45
460.57	11014.56
460.76	11318.83
460.94	11480.33
461.12	11154.99
461.31	11115.20
461.49	11314.15
461.67	11049.67
461.85	11494.37
462.04	11356.28
462.22	11730.76
462.40	11508.41
462.59	11438.20
462.77	11321.17
462.95	11447.56
463.13	11522.46
463.32	11765.87
463.50	11946.09
463.68	11686.29
463.86	11920.35
464.05	11709.70
464.23	12049.08
464.41	11822.05
464.59	11768.21
464.78	12142.70
464.96	12037.38
465.14	11901.62
465.32	12095.89
465.50	12182.49
465.69	12290.15
465.87	12100.57
466.05	12299.52
466.23	12116.95
466.41	12255.04
466.60	12613.15
466.78	12191.85
466.96	12147.38
467.14	12294.83
467.32	12556.97
467.51	12383.77
467.69	12205.89
467.87	12308.88
468.05	12718.47
468.23	12346.33
468.41	12624.85
468.60	12760.60
468.78	12954.87
468.96	12390.80
469.14	12765.28
469.32	12833.16
469.50	12868.27
469.69	12987.63
469.87	13284.88
470.05	13394.89
470.23	13081.25
470.41	13308.29
470.59	13366.80
470.77	13364.46
470.95	13254.45
471.14	13687.45
471.32	13394.89
471.50	13811.50
471.68	13666.39
471.86	13944.91
472.04	13762.35
472.22	14050.24
472.40	13802.14
472.58	13696.82
472.77	13951.93
472.95	14347.48
473.13	14789.85
473.31	14183.65
473.49	14293.65
473.67	14265.57
473.85	14101.73
474.03	14977.09
474.21	14609.62
474.39	14773.46
474.57	14703.25
474.75	15033.26
474.93	15150.29
475.12	14984.11
475.30	15173.69
475.48	14984.11
475.66	15342.21
475.84	15126.88
476.02	15253.27
476.20	15257.95
476.38	15915.64
476.56	16194.17
476.74	15925.00
476.92	16201.19
477.10	15674.57
477.28	16032.67
477.46	16053.73
477.64	16573.33
477.82	16599.08
478.00	16886.97
478.18	16748.87
478.36	17099.95
478.54	17228.68
478.72	17132.72
478.90	17486.14
479.08	17584.44
479.26	17762.33
479.44	17788.07
479.62	17722.54
479.80	18104.04
479.98	18328.74
480.16	18874.08
480.34	18298.31
480.52	18600.24
480.70	18635.35
480.88	18525.34
481.06	18696.20
481.24	19178.35
481.41	19391.34
481.59	19311.76
481.77	19889.87
481.95	19651.14
482.13	19974.13
482.31	20020.94
482.49	20025.62
482.67	20112.22
482.85	20629.48
483.03	20657.57
483.21	20816.72
483.39	20697.36
483.57	20760.55
483.74	21376.11
483.92	21633.57
484.10	21158.44
484.28	21923.80
484.46	22085.30
484.64	22469.14
484.82	22317.01
485.00	22792.14
485.18	22913.84
485.35	23234.50
485.53	22948.95
485.71	23241.52
485.89	23604.30
486.07	23229.82
486.25	23433.44
486.43	23859.42
486.61	23702.61
486.78	24173.05
486.96	24533.50
487.14	24875.21
487.32	24734.78
487.50	25165.44
487.68	25228.63
487.85	25553.97
488.03	25359.70
488.21	25671.00
488.39	25933.14
488.57	26216.34
488.75	26122.72
488.92	26597.85
489.10	26864.67
489.28	27014.46
489.46	27442.78
489.64	27346.82
489.81	27751.73
489.99	27747.05
490.17	28240.90
490.35	28458.57
490.53	28304.10
490.70	28713.69
490.88	28573.26
491.06	28961.79
491.24	29188.82
491.41	29046.05
491.59	29511.81
491.77	29336.27
491.95	29560.97
492.13	29937.79
492.30	30178.87
492.48	29991.62
492.66	30508.88
492.84	30639.95
493.01	30771.02
493.19	31096.36
493.37	31285.94
493.54	31438.08
493.72	31821.92
493.90	31651.06
494.08	31681.49
494.25	32385.99
494.43	31950.65
494.61	32849.42
494.79	32460.89
494.96	32650.47
495.14	32797.93
495.32	33062.41
495.49	33486.04
495.67	33558.60
495.85	34054.79
496.02	33940.11
496.20	34323.96
496.38	34139.05
496.55	34639.93
496.73	35154.85
496.91	34534.60
497.09	35044.84
497.26	35473.16
497.44	35253.15
497.62	35922.54
497.79	36226.81
497.97	35739.98
498.14	36102.76
498.32	36163.62
498.50	36191.70
498.67	37132.60
498.85	36840.03
499.03	36830.67
499.20	37116.22
499.38	36746.41
499.56	37127.92
499.73	37361.97
499.91	37425.17
500.08	37818.38
500.26	37532.83
500.44	37949.45
500.61	37858.17
500.79	38003.28
500.97	38043.07
501.14	38843.53
501.32	38738.21
501.49	38541.60
501.67	38700.76
501.84	38937.15
502.02	39100.99
502.20	39426.32
502.37	39452.07
502.55	39384.19
502.72	39676.76
502.90	39313.98
503.07	39772.72
503.25	40158.91
503.43	39896.77
503.60	39732.93
503.78	40542.76
503.95	40268.92
504.13	40732.34
504.30	40788.52
504.48	40788.52
504.65	40804.90
504.83	41249.60
505.01	41268.33
505.18	41109.17
505.36	41780.90
505.53	41766.86
505.71	42270.08
505.88	42192.84
506.06	41977.51
506.23	42143.69
506.41	42087.51
506.58	41977.51
506.76	42920.74
506.93	42564.98
507.11	42443.27
507.28	42796.70
507.46	42974.58
507.63	42859.89
507.81	43370.13
507.98	43283.53
508.16	43496.52
508.33	43758.66
508.50	43557.37
508.68	43798.44
508.85	44165.91
509.03	43920.15
509.20	44144.84
509.38	44215.06
509.55	44521.67
509.73	44580.18
509.90	44896.16
510.08	45116.17
510.25	44870.41
510.42	44797.85
510.60	44821.26
510.77	45750.45
510.95	45579.59
511.12	45397.03
511.30	45123.19
511.47	45680.24
511.64	45876.84
511.82	46092.17
511.99	46040.68
512.17	46082.81
512.34	46326.22
512.51	46705.39
512.69	46775.61
512.86	46272.39
513.04	46431.55
513.21	46738.16
513.38	47049.45
513.56	46965.19
513.73	46670.28
513.90	47180.52
514.08	46944.12
514.25	47232.01
514.43	47793.74
514.60	47564.37
514.77	47187.54
514.95	48126.10
515.12	47505.85
515.29	47885.02
515.47	48083.97
515.64	48610.59
515.81	47990.34
515.99	48013.75
516.16	48744.00
516.33	48477.18
516.51	48790.81
516.68	48596.54
516.85	48629.31
517.03	49038.90
517.20	48931.24
517.37	49153.59
517.54	49045.93
517.72	49200.40
517.89	49663.83
518.06	49661.49
518.24	49429.77
518.41	49455.52
518.58	49560.84
518.75	49279.98
518.93	49918.95
519.10	49839.37
519.27	49916.61
519.45	49940.01
519.62	49977.46
519.79	50057.04
519.96	50389.39
520.14	50347.26
520.31	50370.67
520.48	50464.29
520.65	50513.44
520.83	50944.10
521.00	50738.13
521.17	50611.74
521.34	50707.71
521.52	50794.31
521.69	50747.50
521.86	51129.00
522.03	51065.81
522.20	51124.32
522.38	51545.62
522.55	51454.34
522.72	51449.66
522.89	51377.10
523.07	51842.87
523.24	51894.36
523.41	51721.16
523.58	51660.30
523.75	51971.60
523.92	51812.44
524.10	51957.55
524.27	52032.45
524.44	52046.49
524.61	52573.11
524.78	52140.11
524.96	52292.25
525.13	52563.75
525.30	52388.21
525.47	52739.29
525.64	52488.85
525.81	52898.45
525.98	52879.72
526.16	52926.53
526.33	52858.66
526.50	53450.81
526.67	52594.18
526.84	53228.46
527.01	52882.06
527.18	53076.33
527.36	53146.54
527.53	53162.93
527.70	53546.78
527.87	53350.17
528.04	53029.52
528.21	53251.87
528.38	53673.16
528.55	53481.24
528.72	53434.43
528.89	53764.45
529.07	53537.41
529.24	53514.01
529.41	53684.87
529.58	53911.90
529.75	53815.94
529.92	53851.05
530.09	54094.46
530.26	53787.85
530.43	54014.88
530.60	53900.20
530.77	53984.46
530.94	54288.73
531.11	54152.97
531.28	54438.52
531.46	54316.81
531.63	54391.71
531.80	54578.95
531.97	54632.78
532.14	54595.34
532.31	54585.97
532.48	54663.21
532.65	54810.67
532.82	54798.96
532.99	54705.34
533.16	54644.49
533.33	54831.73
533.50	55044.72
533.67	55084.51
533.84	55025.99
534.01	55054.08
534.18	54890.24
534.35	55267.07
534.52	54979.18
534.69	55269.41
534.86	55597.09
535.03	55395.80
535.20	55044.72
535.37	55580.70
535.54	55456.65
535.71	55618.15
535.88	55557.30
536.05	55772.63
536.22	55852.20
536.38	55863.91
536.55	55845.18
536.72	55536.23
536.89	55388.78
537.06	55903.70
537.23	55920.08
537.40	55587.72
537.57	55763.26
537.74	55737.52
537.91	55906.04
538.08	56107.32
538.25	55901.36
538.42	56004.34
538.59	56362.44
538.75	56072.21
538.92	56250.09
539.09	56402.23
539.26	56336.69
539.43	56198.60
539.60	56362.44
539.77	56369.46
539.94	56584.79
540.11	56456.06
540.28	56612.88
540.44	56507.55
540.61	56699.48
540.78	56537.98
540.95	56676.07
541.12	56720.54
541.29	56598.83
541.46	56655.01
541.62	56547.34
541.79	56921.83
541.96	56605.86
542.13	56891.40
542.30	56732.25
542.47	57137.16
542.63	57045.88
542.80	57050.56
542.97	57116.09
543.14	57277.59
543.31	57322.06
543.48	57378.23
543.64	57588.88
543.81	57460.15
543.98	57469.51
544.15	57357.17
544.32	57513.98
544.48	57766.76
544.65	57490.58
544.82	57694.21
544.99	57574.84
545.16	57799.53
545.32	57560.79
545.49	57822.93
545.66	57916.56
545.83	57745.70
546.00	57729.31
546.16	57584.20
546.33	57829.96
546.50	57485.90
546.67	57806.55
546.83	57623.99
547.00	57865.06
547.17	57731.65
547.34	57954.00
547.50	58061.67
547.67	57986.77
547.84	58059.33
548.00	58260.62
548.17	58288.70
548.34	58155.29
548.51	58417.43
548.67	58415.09
548.84	58335.51
549.01	58192.74
549.18	58351.90
549.34	58487.65
549.51	58272.32
549.68	58532.12
549.84	58356.58
550.01	58590.63
550.18	58482.97
550.34	58557.86
550.51	58504.03
550.68	58429.13
550.84	58536.80
551.01	58614.04
551.18	58368.28
551.34	58628.08
551.51	58623.40
551.68	58749.79
551.84	58733.40
552.01	58721.70
552.18	58574.25
552.34	58475.94
552.51	58759.15
552.68	58541.48
552.84	58995.54
553.01	58981.50
553.18	58820.00
553.34	58855.11
553.51	58899.58
553.67	58939.37
553.84	58953.41
554.01	59173.42
554.17	59159.38
554.34	59126.61
554.51	59040.01
554.67	59234.28
554.84	59117.25
555.00	58948.73
555.17	59128.95
555.33	59098.53
555.50	58969.80
555.67	59021.29
555.83	59128.95
556.00	58899.58
556.16	59489.40
556.33	59372.37
556.50	59281.09
556.66	59716.43
556.83	59264.70
556.99	59566.63
557.16	59796.01
557.32	59774.94
557.49	59646.21
557.65	59480.03
557.82	59629.83
557.98	59573.66
558.15	59456.63
558.32	59465.99
558.48	59465.99
558.65	59636.85
558.81	59594.72
558.98	59690.68
559.14	59765.58
559.31	59835.80
559.47	59608.76
559.64	59611.10
559.80	59671.96
559.97	59955.16
560.13	59767.92
560.30	59990.27
560.46	59870.90
560.63	60009.00
560.79	60062.83
560.96	59957.50
561.12	59929.42
561.29	59962.18
561.45	59992.61
561.61	59978.57
561.78	59969.21
561.94	59915.37
562.11	59955.16
562.27	59693.02
562.44	60130.70
562.60	60200.92
562.77	60109.64
562.93	60046.44
563.10	60285.18
563.26	59891.97
563.42	60329.65
563.59	60257.09
563.75	60193.90
563.92	60175.17
564.08	60097.94
564.24	60128.36
564.41	60280.50
564.57	60196.24
564.74	60336.67
564.90	60231.35
565.07	60161.13
565.23	60313.26
565.39	60348.37
565.56	60327.31
565.72	60280.50
565.88	60526.25
566.05	60205.60
566.21	60289.86
566.38	60292.20
566.54	60301.56
566.70	60299.22
566.87	60516.89
567.03	60362.42
567.19	60357.74
567.36	60498.17
567.52	60374.12
567.68	60463.06
567.85	60594.13
568.01	60654.98
568.17	60488.80
568.34	60409.23
568.50	60437.31
568.66	60528.59
568.83	60713.50
568.99	60486.46
569.15	60743.92
569.32	60484.12
569.48	60369.44
569.64	60580.09
569.81	60498.17
569.97	60444.33
570.13	60505.19
570.30	60299.22
570.46	60640.94
570.62	60633.92
570.78	60687.75
570.95	60493.49
571.11	60767.33
571.27	60474.76
571.43	60542.64
571.60	60741.58
571.76	60615.19
571.92	60629.24
572.09	60582.43
572.25	60687.75
572.41	60617.53
572.57	60619.88
572.74	60867.97
572.90	60584.77
573.06	60591.79
573.22	60832.86
573.38	60783.71
573.55	60783.71
573.71	60872.65
573.87	60772.01
574.03	60849.25
574.20	60764.99
574.36	60580.09
574.52	61015.43
574.68	60917.12
574.84	61003.72
575.01	60903.08
575.17	60942.87
575.33	60774.35
575.49	60802.44
575.65	60748.60
575.82	60851.59
575.98	61027.13
576.14	61052.87
576.30	60952.23
576.46	60973.30
576.62	60945.21
576.79	61015.43
576.95	60776.69
577.11	60898.40
577.27	60816.48
577.43	61212.03
577.59	60954.57
577.75	60846.91
577.92	60762.65
578.08	60945.21
578.24	61022.45
578.40	61008.40
578.56	60973.30
578.72	61045.85
578.88	61099.68
579.04	61200.33
579.21	60830.52
579.37	60987.34
579.53	61186.28
579.69	60886.70
579.85	60903.08
580.01	60977.98
580.17	60786.05
580.33	61127.77
580.49	60947.55
580.65	61029.47
580.82	61050.53
580.98	60764.99
581.14	60818.82
581.30	61092.66
581.46	61034.15
581.62	60893.72
581.78	61027.13
581.94	61031.81
582.10	60985.00
582.26	61095.00
582.42	60842.23
582.58	61146.50
582.74	60989.68
582.90	61024.79
583.06	60996.70
583.22	60924.14
583.38	60858.61
583.54	61188.63
583.70	61167.56
583.86	60996.70
584.02	60989.68
584.18	61193.31
584.34	61148.84
584.50	61127.77
584.66	61169.90
584.82	60856.27
584.98	61188.63
585.14	61207.35
585.30	61141.81
585.46	61228.41
585.62	61230.75
585.78	61092.66
585.94	60977.98
586.10	61102.03
586.26	61080.96
586.42	61153.52
586.58	61146.50
586.74	61132.45
586.90	61043.51
587.06	61134.79
587.22	61446.08
587.38	61071.60
587.54	61272.88
587.70	61291.61
587.86	61113.73
588.02	61212.03
588.18	61188.63
588.34	61221.39
