SpectraSuite Data File
++++++++++++++++++++++++++++++++++++
Date: Fri Oct 25 10:44:08 EDT 2013
User: price-jones
Dark Spectrum Present: No
Reference Spectrum Present: No
Number of Sampled Component Spectra: 1
Spectrometers: USB2+H05261
Integration Time (usec): 100000 (USB2+H05261)
Spectra Averaged: 1 (USB2+H05261)
Boxcar Smoothing: 0 (USB2+H05261)
Correct for Electrical Dark: No (USB2+H05261)
Strobe/Lamp Enabled: No (USB2+H05261)
Correct for Detector Non-linearity: No (USB2+H05261)
Correct for Stray Light: No (USB2+H05261)
Number of Pixels in Processed Spectrum: 2048
>>>>>Begin Processed Spectral Data<<<<<
365.73	138.09
365.92	138.09
366.12	138.09
366.32	14.04
366.52	21.06
366.72	74.90
366.91	0.00
367.11	0.00
367.31	0.00
367.51	46.81
367.70	14.04
367.90	11.70
368.10	18.72
368.30	0.00
368.49	0.00
368.69	49.15
368.89	60.85
369.09	0.00
369.28	72.56
369.48	72.56
369.68	9.36
369.87	58.51
370.07	86.60
370.27	196.60
370.47	154.48
370.66	397.89
370.86	351.08
371.06	461.09
371.25	493.85
371.45	505.56
371.65	442.36
371.84	489.17
372.04	521.94
372.24	468.11
372.44	489.17
372.63	472.79
372.83	550.03
373.03	510.24
373.22	571.09
373.42	484.49
373.62	521.94
373.81	610.88
374.01	552.37
374.21	477.47
374.40	496.19
374.60	528.96
374.79	660.03
374.99	606.20
375.19	580.45
375.38	580.45
375.58	617.90
375.78	631.94
375.97	578.11
376.17	653.01
376.37	543.00
376.56	608.54
376.76	676.41
376.95	627.26
377.15	638.97
377.35	606.20
377.54	636.63
377.74	723.23
377.93	641.31
378.13	667.05
378.33	763.01
378.52	631.94
378.72	676.41
378.91	713.86
379.11	624.92
379.31	585.13
379.50	657.69
379.70	636.63
379.89	587.47
380.09	650.67
380.28	704.50
380.48	657.69
380.68	716.20
380.87	727.91
381.07	624.92
381.26	748.97
381.46	704.50
381.65	720.88
381.85	692.80
382.04	660.03
382.24	688.12
382.43	702.16
382.63	662.37
382.83	692.80
383.02	755.99
383.22	678.76
383.41	615.56
383.61	779.40
383.80	755.99
384.00	760.67
384.19	744.29
384.39	793.44
384.58	739.61
384.78	877.70
384.97	828.55
385.17	774.72
385.36	795.78
385.56	751.31
385.75	856.64
385.95	767.70
386.14	908.13
386.34	802.80
386.53	851.96
386.72	772.38
386.92	791.10
387.11	889.40
387.31	830.89
387.50	945.58
387.70	866.00
387.89	999.41
388.09	849.61
388.28	844.93
388.48	828.55
388.67	891.74
388.86	905.79
389.06	954.94
389.25	943.24
389.45	1036.86
389.64	1001.75
389.84	1041.54
390.03	961.96
390.22	1013.45
390.42	940.90
390.61	931.53
390.81	1008.77
391.00	1050.90
391.19	1121.12
391.39	1022.81
391.58	1090.69
391.78	1027.50
391.97	1036.86
392.16	922.17
392.36	1139.84
392.55	987.71
392.75	926.85
392.94	980.68
393.13	985.37
393.33	1027.50
393.52	1046.22
393.71	994.73
393.91	1043.88
394.10	1144.52
394.29	1163.25
394.49	1132.82
394.68	1299.00
394.88	1228.78
395.07	1324.74
395.26	1277.93
395.46	1184.31
395.65	1254.53
395.84	1198.35
396.04	1242.82
396.23	1156.22
396.42	1064.94
396.62	1221.76
396.81	1109.41
397.00	1242.82
397.19	1233.46
397.39	1345.81
397.58	1310.70
397.77	1352.83
397.97	1425.39
398.16	1446.45
398.35	1502.62
398.55	1441.77
398.74	1455.81
398.93	1554.12
399.12	1465.18
399.32	1493.26
399.51	1533.05
399.70	1598.59
399.90	1530.71
400.09	1558.80
400.28	1638.38
400.47	1586.88
400.67	1549.43
400.86	1668.80
401.05	1666.46
401.24	1685.19
401.44	1638.38
401.63	1804.55
401.82	1795.19
402.01	1584.54
402.21	1748.38
402.40	1774.13
402.59	1713.27
402.78	1755.40
402.97	1783.49
403.17	1736.68
403.36	1802.21
403.55	1837.32
403.74	1858.39
403.93	1994.14
404.13	1898.17
404.32	1879.45
404.51	1947.33
404.70	1849.02
404.89	1909.88
405.09	1923.92
405.28	1952.01
405.47	1975.41
405.66	1991.80
405.85	1928.60
406.05	1914.56
406.24	1858.39
406.43	2026.90
406.62	2019.88
406.81	2108.82
407.00	2008.18
407.20	2003.50
407.39	2087.76
407.58	2111.16
407.77	2174.36
407.96	2251.60
408.15	2179.04
408.34	2183.72
408.54	2202.44
408.73	2270.32
408.92	2249.25
409.11	2368.62
409.30	2286.70
409.49	2340.54
409.68	2260.96
409.87	2305.43
410.07	2314.79
410.26	2246.91
410.45	2427.14
410.64	2443.52
410.83	2483.31
411.02	2420.11
411.21	2544.16
411.40	2546.50
411.59	2633.10
411.78	2593.31
411.98	2525.44
412.17	2551.18
412.36	2675.23
412.55	2724.38
412.74	2733.75
412.93	2705.66
413.12	2759.49
413.31	2766.51
413.50	2691.62
413.69	2684.59
413.88	2913.97
414.07	2818.00
414.26	2850.77
414.45	2841.41
414.64	2916.31
414.83	2946.73
415.02	2963.12
415.22	3080.14
415.41	3124.62
415.60	3035.67
415.79	3136.32
415.98	3316.54
416.17	3211.22
416.36	3293.13
416.55	3236.96
416.74	3091.85
416.93	3234.62
417.12	3068.44
417.31	3382.07
417.50	3339.94
417.69	3421.86
417.88	3463.99
418.07	3501.44
418.26	3361.01
418.45	3417.18
418.64	3609.11
418.83	3602.08
419.02	3482.72
419.21	3541.23
419.39	3576.34
419.58	3522.51
419.77	3510.80
419.96	3616.13
420.15	3740.18
420.34	3686.34
420.53	3812.73
420.72	3927.42
420.91	3686.34
421.10	3852.52
421.29	3805.71
421.48	3681.66
421.67	3782.31
421.86	3808.05
422.05	3747.20
422.24	3754.22
422.43	3852.52
422.61	3901.67
422.80	3815.07
422.99	3850.18
423.18	3929.76
423.37	4058.49
423.56	3985.93
423.75	3878.27
423.94	3768.26
424.13	3676.98
424.32	3770.60
424.50	3805.71
424.69	4140.41
424.88	4011.68
425.07	3904.01
425.26	3763.58
425.45	3946.14
425.64	3836.14
425.83	3918.06
426.01	3943.80
426.20	3969.55
426.39	3889.97
426.58	3878.27
426.77	3971.89
426.96	4063.17
427.15	3906.35
427.33	4004.66
427.52	4046.79
427.71	4091.26
427.90	4133.39
428.09	4273.82
428.28	4280.84
428.46	4194.24
428.65	4131.05
428.84	4238.71
429.03	4175.52
429.22	4147.43
429.40	4147.43
429.59	4177.86
429.78	3808.05
429.97	3889.97
430.16	4004.66
430.34	4105.30
430.53	4056.15
430.72	4126.36
430.91	4194.24
431.10	4432.97
431.28	4561.70
431.47	4449.36
431.66	4414.25
431.85	4496.17
432.03	4685.75
432.22	4582.77
432.41	4599.15
432.60	4629.58
432.79	4690.43
432.97	4699.80
433.16	4779.37
433.35	4648.30
433.54	4514.89
433.72	4657.67
433.91	4571.07
434.10	4685.75
434.28	4737.24
434.47	4865.97
434.66	4786.40
434.85	4791.08
435.03	4851.93
435.22	4924.49
435.41	5142.16
435.59	5085.98
435.78	5076.62
435.97	5095.35
436.16	5078.96
436.34	5062.58
436.53	5167.90
436.72	5261.52
436.90	5090.67
437.09	5135.14
437.28	5081.30
437.46	5100.03
437.65	5205.35
437.84	5135.14
438.02	4966.62
438.21	5291.95
438.40	5104.71
438.58	5432.38
438.77	5383.23
438.96	5418.34
439.14	5717.93
439.33	5518.98
439.52	5591.54
439.70	5369.19
439.89	5682.82
440.08	5636.01
440.26	5685.16
440.45	5493.24
440.63	5816.23
440.82	6038.58
441.01	5781.12
441.19	5991.77
441.38	5987.09
441.57	6010.50
441.75	6092.41
441.94	6223.48
442.12	6319.45
442.31	6375.62
442.50	6270.30
442.68	6258.59
442.87	6179.01
443.05	6143.91
443.24	6392.00
443.43	6244.55
443.61	6466.90
443.80	6509.03
443.98	6207.10
444.17	6160.29
444.35	6546.48
444.54	6698.61
444.73	6424.77
444.91	6464.56
445.10	6469.24
445.28	6469.24
445.47	6230.51
445.65	6511.37
445.84	6476.26
446.02	6518.39
446.21	6583.93
446.39	6494.99
446.58	6504.35
446.77	6621.38
446.95	6480.94
447.14	6743.08
447.32	6635.42
447.51	6710.32
447.69	6736.06
447.88	6576.91
448.06	6696.27
448.25	6635.42
448.43	6644.78
448.62	6691.59
448.80	6665.85
448.99	6822.66
449.17	6820.32
449.36	6792.23
449.54	6963.09
449.73	6988.84
449.91	6979.48
450.10	7220.55
450.28	7047.35
450.46	7180.76
450.65	7045.01
450.83	7117.57
451.02	7192.47
451.20	7225.23
451.39	7150.34
451.57	7082.46
451.76	7187.79
451.94	7279.07
452.13	7318.86
452.31	7159.70
452.49	6995.86
452.68	7150.34
452.86	7220.55
453.05	7236.94
453.23	7194.81
453.42	7358.64
453.60	7412.48
453.78	7627.81
453.97	7386.73
454.15	7246.30
454.34	7260.34
454.52	7496.74
454.70	7328.22
454.89	7382.05
455.07	7461.63
455.26	7765.90
455.44	7609.08
455.62	7588.02
455.81	7705.04
455.99	7726.11
456.17	7889.95
456.36	7985.91
456.54	7899.31
456.73	7913.35
456.91	8098.25
457.09	7990.59
457.28	8102.93
457.46	7978.89
457.64	8119.32
457.83	8161.45
458.01	7999.95
458.19	8180.17
458.38	8215.28
458.56	8280.82
458.74	8109.96
458.93	8107.62
459.11	8243.37
459.29	8257.41
459.48	8205.92
459.66	8105.28
459.84	8362.73
460.03	8468.06
460.21	8587.43
460.39	8557.00
460.57	8549.98
460.76	8685.73
460.94	8603.81
461.12	8510.19
461.31	8528.91
461.49	8477.42
461.67	8613.17
461.85	8812.12
462.04	8741.90
462.22	9418.32
462.40	8968.93
462.59	8807.44
462.77	8905.74
462.95	9069.58
463.13	8872.97
463.32	9137.45
463.50	8999.36
463.68	9083.62
463.86	8704.45
464.05	8755.94
464.23	8987.66
464.41	8786.37
464.59	8964.25
464.78	9221.71
464.96	8917.44
465.14	8915.10
465.32	9118.73
465.50	9247.46
465.69	9174.90
465.87	9142.13
466.05	8952.55
466.23	9062.55
466.41	9125.75
466.60	9385.55
466.78	9118.73
466.96	9181.92
467.14	9205.33
467.32	9167.88
467.51	9418.32
467.69	9160.86
467.87	9329.38
468.05	9455.76
468.23	9397.25
468.41	9364.48
468.60	9493.21
468.78	9551.73
468.96	9570.45
469.14	9703.86
469.32	9631.30
469.50	9371.50
469.69	9394.91
469.87	9717.90
470.05	9968.34
470.23	9792.80
470.41	9874.72
470.59	9860.68
470.77	9781.10
470.95	9996.43
471.14	9998.77
471.32	9823.23
471.50	10415.38
471.68	10202.40
471.86	10129.84
472.04	10466.88
472.22	10565.18
472.40	10272.61
472.58	10487.94
472.77	10347.51
472.95	10399.00
473.13	11052.01
473.31	10490.28
473.49	10455.17
473.67	10567.52
473.85	10588.58
474.03	10890.51
474.21	10815.62
474.39	10855.40
474.57	11087.12
474.75	11035.63
474.93	11154.99
475.12	11103.50
475.30	11325.85
475.48	11122.23
475.66	11384.37
475.84	11332.87
476.02	11112.86
476.20	11339.90
476.38	11541.18
476.56	11779.92
476.74	11707.36
476.92	11768.21
477.10	11903.96
477.28	12049.08
477.46	11988.22
477.64	12018.65
477.82	12168.45
478.00	12531.23
478.18	12322.92
478.36	12540.59
478.54	12395.48
478.72	12695.07
478.90	12730.17
479.08	12982.95
479.26	13041.46
479.44	12919.76
479.62	13263.82
479.80	13114.02
479.98	13329.35
480.16	13362.12
480.34	13357.44
480.52	13523.62
480.70	13640.64
480.88	13640.64
481.06	13617.24
481.24	14087.68
481.41	14078.32
481.59	14265.57
481.77	14207.05
481.95	14155.56
482.13	14452.81
482.31	14356.85
482.49	14925.60
482.67	14651.75
482.85	14930.28
483.03	15080.07
483.21	14998.15
483.39	15197.10
483.57	15082.41
483.74	15522.43
483.92	15637.12
484.10	15267.31
484.28	15672.23
484.46	15606.69
484.64	16222.25
484.82	15985.86
485.00	15969.48
485.18	16086.50
485.35	16233.96
485.53	16016.29
485.71	16084.16
485.89	16245.66
486.07	16503.12
486.25	16741.85
486.43	16994.63
486.61	17233.36
486.78	17067.19
486.96	17228.68
487.14	17319.96
487.32	17689.77
487.50	17525.93
487.68	18085.32
487.85	18434.06
488.03	18143.83
488.21	18490.23
488.39	18593.22
488.57	18427.04
488.75	18820.25
488.92	19119.84
489.10	19199.41
489.28	19393.68
489.46	19344.53
489.64	19459.21
489.81	20086.48
489.99	19999.88
490.17	20208.19
490.35	20074.77
490.53	20025.62
490.70	20283.08
490.88	20542.88
491.06	20992.26
491.24	20407.13
491.41	20643.52
491.59	20549.90
491.77	20655.23
491.95	21156.10
492.13	21296.53
492.30	21298.88
492.48	21785.71
492.66	21792.73
492.84	21551.65
493.01	22167.21
493.19	21989.33
493.37	22305.31
493.54	22230.41
493.72	22520.63
493.90	22391.91
494.08	22899.80
494.25	22899.80
494.43	23145.56
494.61	23260.24
494.79	23168.96
494.96	23529.41
495.14	23346.84
495.32	23513.02
495.49	23297.69
495.67	23496.64
495.85	23906.23
496.02	24266.67
496.20	24128.58
496.38	24137.94
496.55	24367.32
496.73	24826.06
496.91	24641.16
497.09	24957.13
497.26	24875.21
497.44	24620.10
497.62	25284.81
497.79	25575.03
497.97	24751.17
498.14	25025.01
498.32	25652.27
498.50	25460.35
498.67	25989.31
498.85	25778.66
499.03	26576.78
499.20	26258.47
499.38	26026.76
499.56	26396.56
499.73	26452.73
499.91	26068.89
500.08	26689.13
500.26	26253.79
500.44	26176.55
500.61	26415.29
500.79	26480.82
500.97	26764.03
501.14	26794.45
501.32	26944.25
501.49	26951.27
501.67	26859.99
501.84	27274.26
502.02	27131.49
502.20	27578.53
502.37	27711.94
502.55	27700.24
502.72	27817.27
502.90	28137.92
503.07	27590.24
503.25	27936.63
503.43	27716.62
503.60	27725.99
503.78	27885.14
503.95	27957.70
504.13	28528.79
504.30	28247.93
504.48	28694.97
504.65	28917.32
504.83	29118.60
505.01	28922.00
505.18	29053.07
505.36	29273.08
505.53	28936.04
505.71	29511.81
505.88	29551.60
506.06	29390.11
506.23	29619.48
506.41	29017.96
506.58	29645.23
506.76	29792.68
506.93	30029.07
507.11	29984.60
507.28	29785.66
507.46	29851.19
507.63	30213.98
507.81	30115.67
507.98	30099.29
508.16	30160.14
508.33	30567.40
508.50	30373.13
508.68	30658.68
508.85	31094.02
509.03	30778.04
509.20	31129.12
509.38	31115.08
509.55	30871.67
509.73	31409.99
509.90	31094.02
510.08	30810.81
510.25	31323.39
510.42	31285.94
510.60	31531.70
510.77	31681.49
510.95	31810.22
511.12	31721.28
511.30	31868.73
511.47	32030.23
511.64	32250.24
511.82	32126.19
511.99	32114.49
512.17	32781.54
512.34	32173.00
512.51	32458.55
512.69	32327.48
512.86	32737.07
513.04	33160.71
513.21	32493.66
513.38	32500.68
513.56	33041.34
513.73	32496.00
513.90	32905.59
514.08	32786.22
514.25	33357.32
514.43	33212.20
514.60	33411.15
514.77	32973.47
514.95	33472.00
515.12	33455.62
515.29	33546.90
515.47	33720.10
515.64	33977.56
515.81	33542.22
515.99	33724.78
516.16	33855.85
516.33	33851.17
516.51	33577.33
516.68	32961.76
516.85	33490.73
517.03	33490.73
517.20	33750.52
517.37	33984.58
517.54	34340.34
517.72	33968.19
517.89	33951.81
518.06	33673.29
518.24	34059.48
518.41	34328.64
518.58	34108.63
518.75	34529.92
518.93	34778.02
519.10	34808.45
519.27	34611.84
519.45	34897.39
519.62	35075.27
519.79	35304.64
519.96	35229.74
520.14	35538.69
520.31	35328.05
520.48	35241.45
520.65	35079.95
520.83	35920.20
521.00	35988.08
521.17	35995.10
521.34	35576.14
521.52	35800.83
521.69	36364.90
521.86	36519.38
522.03	36318.09
522.20	35840.62
522.38	36133.19
522.55	36575.55
522.72	36016.16
522.89	36226.81
523.07	36488.95
523.24	36350.86
523.41	36842.37
523.58	36830.67
523.75	37249.63
523.92	36999.19
524.10	37266.01
524.27	37352.61
524.44	37106.85
524.61	37195.79
524.78	37230.90
524.96	37186.43
525.13	37514.11
525.30	37874.55
525.47	37647.52
525.64	37539.85
525.81	37521.13
525.98	37897.95
526.16	37450.91
526.33	37055.36
526.50	37682.62
526.67	37097.49
526.84	37207.50
527.01	37240.26
527.18	37741.14
527.36	38071.15
527.53	38359.04
527.70	38279.46
527.87	38026.68
528.04	38190.52
528.21	38756.93
528.38	38785.02
528.55	38965.24
528.72	38614.16
528.89	38932.47
529.07	38293.50
529.24	38565.01
529.41	38948.85
529.58	38384.79
529.75	38632.88
529.92	38714.80
530.09	39007.37
530.26	39192.27
530.43	39105.67
530.60	39058.86
530.77	39044.82
530.94	39353.77
531.11	39023.75
531.28	39225.04
531.46	39241.42
531.63	39732.93
531.80	39124.40
531.97	39180.57
532.14	39370.15
532.31	38483.09
532.48	39374.83
532.65	39299.94
532.82	39697.83
532.99	39688.46
533.16	39349.09
533.33	40013.80
533.50	40364.88
533.67	40219.77
533.84	39873.37
534.01	40053.59
534.18	39754.00
534.35	40311.05
534.52	39889.75
534.69	40020.82
534.86	40425.73
535.03	40353.18
535.20	40891.50
535.37	40708.94
535.54	41020.23
535.71	40645.74
535.88	40348.50
536.05	40409.35
536.22	40797.88
536.38	40708.94
536.55	40596.59
536.72	40931.29
536.89	40685.53
537.06	40690.21
537.23	41144.28
537.40	40538.08
537.57	40832.99
537.74	40900.86
537.91	41659.20
538.08	41310.46
538.25	40935.97
538.42	41083.42
538.59	41097.47
538.75	41125.55
538.92	41074.06
539.09	41219.17
539.26	41385.35
539.43	41179.39
539.60	41055.34
539.77	41319.82
539.94	41235.56
540.11	41380.67
540.28	41104.49
540.44	41631.11
540.61	41680.26
540.78	41397.06
540.95	41385.35
541.12	41811.33
541.29	41539.83
541.46	41698.98
541.62	41221.52
541.79	41926.02
541.96	41338.54
542.13	41914.31
542.30	41820.69
542.47	41916.65
542.63	42014.96
542.80	42029.00
542.97	42546.26
543.14	42845.85
543.31	42391.78
543.48	42471.36
543.64	42995.64
543.81	43250.76
543.98	42759.25
544.15	42614.13
544.32	42834.14
544.48	43072.88
544.65	42616.47
544.82	43098.62
544.99	42665.63
545.16	42890.32
545.32	42909.04
545.49	43510.56
545.66	43459.07
545.83	43161.82
546.00	43765.68
546.16	43278.85
546.33	42731.16
546.50	42899.68
546.67	43522.26
546.83	42560.30
547.00	43531.62
547.17	43037.77
547.34	42953.51
547.50	43091.60
547.67	43538.65
547.84	43508.22
548.00	43739.93
548.17	43917.81
548.34	43938.88
548.51	43922.49
548.67	43784.40
548.84	43910.79
549.01	43253.10
549.18	43438.00
549.34	43730.57
549.51	43903.77
549.68	43716.53
549.84	43938.88
550.01	44371.88
550.18	43746.95
550.34	44046.54
550.51	43639.29
550.68	43693.12
550.84	43477.79
551.01	43995.05
551.18	44046.54
551.34	44147.18
551.51	44271.23
551.68	44350.81
551.84	44322.72
552.01	44154.21
552.18	44083.99
552.34	43777.38
552.51	44264.21
552.68	44332.09
552.84	44629.34
553.01	44369.54
553.18	44514.65
553.34	44385.92
553.51	43995.05
553.67	44053.56
553.84	44622.31
554.01	44577.84
554.17	44418.69
554.34	44549.76
554.51	44790.83
554.67	44713.59
554.84	44552.10
555.00	44449.11
555.17	44994.46
555.33	44460.82
555.50	44645.72
555.67	44774.45
555.83	44978.07
556.00	44893.82
556.16	44938.29
556.33	44807.22
556.50	44931.26
556.66	44769.77
556.83	44404.64
556.99	44802.53
557.16	45151.27
557.32	44877.43
557.49	44886.79
557.65	44617.63
557.82	44779.13
557.98	45530.44
558.15	44992.12
558.32	45291.71
558.48	44837.64
558.65	44634.02
558.81	45214.47
558.98	44816.58
559.14	45237.87
559.31	44851.69
559.47	45308.09
559.64	45141.91
559.80	45345.54
559.97	45298.73
560.13	45097.44
560.30	45261.28
560.46	45256.60
560.63	45528.10
560.79	45631.08
560.96	45584.27
561.12	45413.41
561.29	45343.20
561.45	45343.20
561.61	45315.11
561.78	45500.01
561.94	45294.05
562.11	45432.14
562.27	44907.86
562.44	45134.89
562.60	45078.72
562.77	45778.54
562.93	45282.34
563.10	45439.16
563.26	44987.44
563.42	45570.23
563.59	45090.42
563.75	45612.36
563.92	45736.41
564.08	45385.33
564.24	45841.73
564.41	45762.15
564.57	45532.78
564.74	45574.91
564.90	45666.19
565.07	45640.45
565.23	45956.42
565.39	45720.02
565.56	45647.47
565.72	45233.19
565.88	45661.51
566.05	45708.32
566.21	45956.42
566.38	45495.33
566.54	45621.72
566.70	45689.60
566.87	45792.58
567.03	45869.82
567.19	46281.75
567.36	45752.79
567.52	45804.28
567.68	45874.50
567.85	45427.46
568.01	45794.92
568.17	45762.15
568.34	45876.84
568.50	45998.55
568.66	45619.38
568.83	45525.76
568.99	45443.84
569.15	45411.07
569.32	45698.96
569.48	45769.18
569.64	46192.81
569.81	45975.14
569.97	45846.41
570.13	45937.69
570.30	45420.44
570.46	45710.66
570.62	45577.25
570.78	45764.49
570.95	45684.92
571.11	45584.27
571.27	45359.58
571.43	45771.52
571.60	45455.54
571.76	45855.78
571.92	45815.99
572.09	45879.18
572.25	45961.10
572.41	45813.65
572.57	46209.20
572.74	46356.65
572.90	45584.27
573.06	45942.38
573.22	46274.73
573.38	45944.72
573.55	45841.73
573.71	45984.51
573.87	46010.25
574.03	45792.58
574.20	45825.35
574.36	45940.04
574.52	45799.60
574.68	45584.27
574.84	46370.69
575.01	46148.34
575.17	45907.27
575.33	45691.94
575.49	45523.42
575.65	45949.40
575.82	46068.76
575.98	45815.99
576.14	45858.12
576.30	45790.24
576.46	46136.64
576.62	46031.32
576.79	46094.51
576.95	45478.95
577.11	46197.49
577.27	46146.00
577.43	46150.68
577.59	45668.53
577.75	45986.85
577.92	46064.08
578.08	45635.77
578.24	45565.55
578.40	45708.32
578.56	46117.92
578.72	46323.88
578.88	46380.06
579.04	46141.32
579.21	45844.07
579.37	45769.18
579.53	45794.92
579.69	46017.27
579.85	46129.62
580.01	46080.47
580.17	45963.44
580.33	46167.07
580.49	46277.07
580.65	46122.60
580.82	45933.01
580.98	46141.32
581.14	46309.84
581.30	46473.68
581.46	46389.42
581.62	46852.84
581.78	45935.35
581.94	46387.08
582.10	46155.36
582.26	45872.16
582.42	46045.36
582.58	45860.46
582.74	46387.08
582.90	46146.00
583.06	46415.16
583.22	45914.29
583.38	46216.22
583.54	46571.98
583.70	46031.32
583.86	46373.03
584.02	46202.18
584.18	46241.96
584.34	46017.27
584.50	46153.02
584.66	46354.31
584.82	46064.08
584.98	46298.14
585.14	46707.73
585.30	46066.42
585.46	46021.95
585.62	46384.74
585.78	45972.80
585.94	45794.92
586.10	46199.83
586.26	46094.51
586.42	46239.62
586.58	45830.03
586.74	46349.63
586.90	46122.60
587.06	45947.06
587.22	46469.00
587.38	46000.89
587.54	46487.72
587.70	46494.74
587.86	46389.42
588.02	45956.42
588.18	46223.24
588.34	45820.67
588.49	45773.86
588.65	45305.75
588.81	45455.54
588.97	45640.45
589.13	45631.08
589.29	45439.16
589.45	46302.82
589.61	46036.00
589.77	45977.48
589.93	46344.95
590.08	46110.89
