SpectraSuite Data File
++++++++++++++++++++++++++++++++++++
Date: Fri Oct 25 10:43:54 EDT 2013
User: price-jones
Dark Spectrum Present: No
Reference Spectrum Present: No
Number of Sampled Component Spectra: 1
Spectrometers: USB2+H05261
Integration Time (usec): 100000 (USB2+H05261)
Spectra Averaged: 1 (USB2+H05261)
Boxcar Smoothing: 0 (USB2+H05261)
Correct for Electrical Dark: No (USB2+H05261)
Strobe/Lamp Enabled: No (USB2+H05261)
Correct for Detector Non-linearity: No (USB2+H05261)
Correct for Stray Light: No (USB2+H05261)
Number of Pixels in Processed Spectrum: 2048
>>>>>Begin Processed Spectral Data<<<<<
365.73	126.39
365.92	126.39
366.12	126.39
366.32	42.13
366.52	44.47
366.72	39.79
366.91	30.43
367.11	37.45
367.31	51.49
367.51	28.09
367.70	0.00
367.90	0.00
368.10	23.41
368.30	32.77
368.49	14.04
368.69	39.79
368.89	0.00
369.09	67.88
369.28	0.00
369.48	9.36
369.68	138.09
369.87	58.51
370.07	42.13
370.27	168.52
370.47	154.48
370.66	337.04
370.86	407.25
371.06	472.79
371.25	517.26
371.45	461.09
371.65	489.17
371.84	428.32
372.04	491.51
372.24	496.19
372.44	552.37
372.63	486.83
372.83	491.51
373.03	477.47
373.22	484.49
373.42	486.83
373.62	580.45
373.81	622.58
374.01	573.43
374.21	589.82
374.40	512.58
374.60	613.22
374.79	580.45
374.99	528.96
375.19	575.77
375.38	664.71
375.58	617.90
375.78	671.73
375.97	713.86
376.17	688.12
376.37	601.52
376.56	601.52
376.76	662.37
376.95	547.69
377.15	594.50
377.35	599.18
377.54	634.29
377.74	638.97
377.93	653.01
378.13	648.33
378.33	692.80
378.52	669.39
378.72	610.88
378.91	716.20
379.11	699.82
379.31	671.73
379.50	669.39
379.70	699.82
379.89	688.12
380.09	741.95
380.28	739.61
380.48	727.91
380.68	674.07
380.87	713.86
381.07	667.05
381.26	706.84
381.46	648.33
381.65	748.97
381.85	699.82
382.04	674.07
382.24	704.50
382.43	751.31
382.63	702.16
382.83	751.31
383.02	739.61
383.22	716.20
383.41	739.61
383.61	699.82
383.80	823.87
384.00	753.65
384.19	704.50
384.39	917.49
384.58	837.91
384.78	798.12
384.97	849.61
385.17	774.72
385.36	835.57
385.56	781.74
385.75	891.74
385.95	880.04
386.14	826.21
386.34	912.81
386.53	819.19
386.72	910.47
386.92	851.96
387.11	877.70
387.31	901.11
387.50	830.89
387.70	901.11
387.89	931.53
388.09	922.17
388.28	943.24
388.48	950.26
388.67	976.00
388.86	1015.79
389.06	1036.86
389.25	1057.92
389.45	987.71
389.64	976.00
389.84	1043.88
390.03	1067.28
390.22	1104.73
390.42	1025.15
390.61	1107.07
390.81	1130.48
391.00	1116.44
391.19	1111.75
391.39	1088.35
391.58	1074.31
391.78	1064.94
391.97	1093.03
392.16	1116.44
392.36	1116.44
392.55	1097.71
392.75	1076.65
392.94	1060.26
393.13	1020.47
393.33	1029.84
393.52	1114.10
393.71	1104.73
393.91	1121.12
394.10	1104.73
394.29	1130.48
394.49	1191.33
394.68	1329.42
394.88	1203.04
395.07	1327.08
395.26	1277.93
395.46	1289.64
395.65	1369.21
395.84	1256.87
396.04	1334.11
396.23	1256.87
396.42	1219.42
396.62	1261.55
396.81	1310.70
397.00	1200.69
397.19	1306.02
397.39	1362.19
397.58	1455.81
397.77	1418.36
397.97	1528.37
398.16	1467.52
398.35	1563.48
398.55	1535.39
398.74	1535.39
398.93	1633.69
399.12	1568.16
399.32	1542.41
399.51	1533.05
399.70	1699.23
399.90	1724.97
400.09	1645.40
400.28	1732.00
400.47	1713.27
400.67	1755.40
400.86	1776.47
401.05	1785.83
401.24	1788.17
401.44	1799.87
401.63	1743.70
401.82	1825.62
402.01	1818.60
402.21	1849.02
402.40	1858.39
402.59	1853.70
402.78	1905.20
402.97	1884.13
403.17	1842.00
403.36	1858.39
403.55	1891.15
403.74	1893.49
403.93	1982.43
404.13	1844.34
404.32	1907.54
404.51	1891.15
404.70	1989.46
404.89	1867.75
405.09	2057.33
405.28	2043.29
405.47	2054.99
405.66	2026.90
405.85	2115.84
406.05	2106.48
406.24	2078.40
406.43	2038.61
406.62	2263.30
406.81	2118.18
407.00	2230.53
407.20	2239.89
407.39	2148.61
407.58	2200.10
407.77	2270.32
407.96	2157.97
408.15	2239.89
408.34	2347.56
408.54	2455.22
408.73	2368.62
408.92	2464.58
409.11	2457.56
409.30	2443.52
409.49	2380.32
409.68	2415.43
409.87	2406.07
410.07	2469.27
410.26	2469.27
410.45	2445.86
410.64	2516.08
410.83	2605.02
411.02	2637.78
411.21	2633.10
411.40	2698.64
411.59	2693.96
411.78	2757.15
411.98	2691.62
412.17	2785.24
412.36	2726.72
412.55	2815.66
412.74	2925.67
412.93	2871.84
413.12	2799.28
413.31	2963.12
413.50	2899.92
413.69	2986.52
413.88	3150.36
414.07	3047.38
414.26	3150.36
414.45	3035.67
414.64	3052.06
414.83	3101.21
415.02	3220.58
415.22	3227.60
415.41	3307.18
415.60	3279.09
415.79	3398.46
415.98	3454.63
416.17	3183.13
416.36	3424.20
416.55	3346.97
416.74	3459.31
416.93	3463.99
417.12	3363.35
417.31	3510.80
417.50	3440.59
417.69	3602.08
417.88	3599.74
418.07	3527.19
418.26	3681.66
418.45	3527.19
418.64	3829.12
418.83	3756.56
419.02	3810.39
419.21	3672.30
419.39	3812.73
419.58	3702.73
419.77	3660.60
419.96	3737.84
420.15	3829.12
420.34	3758.90
420.53	4007.00
420.72	3955.51
420.91	3906.35
421.10	4056.15
421.29	4018.70
421.48	4030.40
421.67	4065.51
421.86	4056.15
422.05	3985.93
422.24	3922.74
422.43	3974.23
422.61	4100.62
422.80	3978.91
422.99	4028.06
423.18	4037.42
423.37	4290.20
423.56	4081.89
423.75	4170.83
423.94	3873.59
424.13	3995.29
424.32	3988.27
424.50	4238.71
424.69	4313.61
424.88	4147.43
425.07	4133.39
425.26	4152.11
425.45	4051.47
425.64	4119.34
425.83	4170.83
426.01	4301.90
426.20	4219.99
426.39	4112.32
426.58	4102.96
426.77	4035.08
426.96	4266.80
427.15	4077.21
427.33	4215.30
427.52	4145.09
427.71	4290.20
427.90	4374.46
428.09	4351.06
428.28	4243.39
428.46	4264.46
428.65	4517.23
428.84	4456.38
429.03	4496.17
429.22	4250.41
429.40	4381.48
429.59	4198.92
429.78	4126.36
429.97	4004.66
430.16	4056.15
430.34	4315.95
430.53	4257.43
430.72	4337.01
430.91	4381.48
431.10	4559.36
431.28	4716.18
431.47	4786.40
431.66	5004.07
431.85	4770.01
432.03	5004.07
432.22	4931.51
432.41	4966.62
432.60	4854.27
432.79	4947.89
432.97	5013.43
433.16	4931.51
433.35	4891.72
433.54	4894.06
433.72	4917.47
433.91	4868.31
434.10	5013.43
434.28	5078.96
434.47	5128.11
434.66	5132.79
434.85	5062.58
435.03	5158.54
435.22	5256.84
435.41	5233.44
435.59	5235.78
435.78	5334.08
435.97	5427.70
436.16	5493.24
436.34	5423.02
436.53	5277.91
436.72	5486.22
436.90	5308.34
437.09	5411.32
437.28	5469.83
437.46	5247.48
437.65	5364.51
437.84	5296.63
438.02	5401.96
438.21	5320.04
438.40	5315.36
438.58	5568.13
438.77	5621.97
438.96	5748.36
439.14	5605.58
439.33	5907.51
439.52	6083.05
439.70	5907.51
439.89	5909.85
440.08	5975.39
440.26	6059.65
440.45	5991.77
440.63	6225.82
440.82	6197.74
441.01	6286.68
441.19	6282.00
441.38	6478.60
441.57	6459.88
441.75	6534.78
441.94	6637.76
442.12	6586.27
442.31	6759.47
442.50	6649.46
442.68	6434.13
442.87	6558.18
443.05	6431.79
443.24	6733.72
443.43	6766.49
443.61	6640.10
443.80	6771.17
443.98	6731.38
444.17	6621.38
444.35	7000.54
444.54	6850.75
444.73	6960.75
444.91	6672.87
445.10	6780.53
445.28	6717.34
445.47	6698.61
445.65	6719.68
445.84	6829.68
446.02	6815.64
446.21	6834.36
446.39	6883.52
446.58	6986.50
446.77	6846.07
446.95	6846.07
447.14	6890.54
447.32	7204.17
447.51	6923.30
447.69	6932.67
447.88	7056.72
448.06	7054.37
448.25	6906.92
448.43	7295.45
448.62	7138.63
448.80	6956.07
448.99	7110.55
449.17	7180.76
449.36	7176.08
449.54	7377.37
449.73	7492.05
449.91	7442.90
450.10	7391.41
450.28	7597.38
450.46	7386.73
450.65	7513.12
450.83	7625.47
451.02	7463.97
451.20	7599.72
451.39	7702.70
451.57	7508.44
451.76	7421.84
451.94	7485.03
452.13	7623.12
452.31	7456.95
452.49	7517.80
452.68	7571.63
452.86	7501.42
453.05	7712.07
453.23	7763.56
453.42	7604.40
453.60	7627.81
453.78	7829.09
453.97	7632.49
454.15	7761.22
454.34	7616.10
454.52	7889.95
454.70	7829.09
454.89	7990.59
455.07	7871.22
455.26	8051.44
455.44	8037.40
455.62	8025.70
455.81	7948.46
455.99	7948.46
456.17	8154.43
456.36	8140.38
456.54	8402.52
456.73	8248.05
456.91	8659.98
457.09	8472.74
457.28	8557.00
457.46	8400.18
457.64	8533.59
457.83	8514.87
458.01	8554.66
458.19	8629.56
458.38	8620.19
458.56	8631.90
458.74	8423.59
458.93	8636.58
459.11	8400.18
459.29	8650.62
459.48	8732.54
459.66	8589.77
459.84	8830.84
460.03	8849.57
460.21	8940.85
460.39	9032.13
460.57	8901.06
460.76	8936.17
460.94	9060.21
461.12	8926.80
461.31	8936.17
461.49	9125.75
461.67	9057.87
461.85	9210.01
462.04	9132.77
462.22	9224.05
462.40	9312.99
462.59	9085.96
462.77	9366.82
462.95	9371.50
463.13	9095.32
463.32	9397.25
463.50	9561.09
463.68	9359.80
463.86	9465.13
464.05	9193.62
464.23	9617.26
464.41	9558.75
464.59	9177.24
464.78	9760.03
464.96	9575.13
465.14	9528.32
465.32	9657.05
465.50	9619.60
465.69	9643.01
465.87	9664.07
466.05	9596.20
466.23	9558.75
466.41	9666.41
466.60	9771.74
466.78	9612.58
466.96	9572.79
467.14	9565.77
467.32	9734.29
467.51	9870.04
467.69	9696.84
467.87	9809.19
468.05	9856.00
468.23	9860.68
468.41	9652.37
468.60	9933.23
468.78	10080.69
468.96	9926.21
469.14	9970.68
469.32	10289.00
469.50	9935.57
469.69	10038.56
469.87	10223.46
470.05	10228.14
470.23	10239.84
470.41	10181.33
470.59	10333.47
470.77	10478.58
470.95	10466.88
471.14	10576.88
471.32	10211.76
471.50	10796.89
471.68	10630.71
471.86	10745.40
472.04	11002.86
472.22	11084.78
472.40	10492.62
472.58	10822.64
472.77	10897.53
472.95	11201.80
473.13	11232.23
473.31	10977.11
473.49	11056.69
473.67	11211.17
473.85	11073.07
474.03	11276.70
474.21	11634.80
474.39	11461.60
474.57	11442.88
474.75	11583.31
474.93	11611.40
475.12	11705.02
475.30	11829.07
475.48	11555.22
475.66	11850.13
475.84	11918.01
476.02	11733.11
476.20	11702.68
476.38	12226.96
476.56	12395.48
476.74	12325.26
476.92	12468.03
477.10	12173.13
477.28	12528.89
477.46	12547.61
477.64	12519.53
477.82	12798.05
478.00	13046.15
478.18	13245.09
478.36	13018.06
478.54	13139.77
478.72	13298.92
478.90	13507.23
479.08	13624.26
479.26	13734.26
479.44	13584.47
479.62	13837.25
479.80	13867.67
479.98	13998.74
480.16	14242.16
480.34	14047.90
480.52	14398.98
480.70	14380.25
480.88	14223.44
481.06	14448.13
481.24	14305.35
481.41	14817.93
481.59	15232.21
481.77	15208.80
481.95	15033.26
482.13	15335.19
482.31	15232.21
482.49	15665.21
482.67	15609.03
482.85	15829.04
483.03	15847.77
483.21	15868.83
483.39	16084.16
483.57	15887.56
483.74	16086.50
483.92	16292.47
484.10	16098.20
484.28	16500.78
484.46	16706.74
484.64	16858.88
484.82	16533.54
485.00	16870.58
485.18	17083.57
485.35	17212.30
485.53	16531.20
485.71	16624.83
485.89	16961.86
486.07	16877.60
486.25	17186.55
486.43	17448.69
486.61	17720.20
486.78	17837.22
486.96	17806.80
487.14	18108.72
487.32	18768.76
487.50	18768.76
487.68	18724.29
487.85	18916.21
488.03	18925.57
488.21	19119.84
488.39	19300.06
488.57	19534.11
488.75	19091.75
488.92	19796.25
489.10	20020.94
489.28	20102.86
489.46	20390.75
489.64	20240.95
489.81	21020.35
489.99	20545.22
490.17	21081.21
490.35	21256.75
490.53	21085.89
490.70	21170.15
490.88	21123.33
491.06	21940.18
491.24	21474.42
491.41	21823.16
491.59	21666.34
491.77	21586.76
491.95	21584.42
492.13	22150.83
492.30	22628.30
492.48	22300.62
492.66	22799.16
492.84	22651.70
493.01	23122.15
493.19	22927.89
493.37	23229.82
493.54	23257.90
493.72	23726.01
493.90	23414.72
494.08	23702.61
494.25	23616.01
494.43	23964.75
494.61	24308.80
494.79	24114.54
494.96	24521.79
495.14	24348.59
495.32	24390.72
495.49	24650.52
495.67	24797.98
495.85	24863.51
496.02	25228.63
496.20	25142.03
496.38	24915.00
496.55	25528.22
496.73	26263.15
496.91	25649.93
497.09	26008.03
497.26	25928.45
497.44	26073.57
497.62	26132.08
497.79	26345.07
497.97	25902.71
498.14	26483.16
498.32	26661.04
498.50	26820.20
498.67	27077.66
498.85	26789.77
499.03	27143.19
499.20	27239.15
499.38	27461.51
499.56	27321.07
499.73	27571.51
499.91	27356.18
500.08	27679.18
500.26	27285.97
500.44	27431.08
500.61	27840.67
500.79	27414.69
500.97	27821.95
501.14	27950.68
501.32	28133.24
501.49	28112.17
501.67	28273.67
501.84	28292.40
502.02	28411.76
502.20	28716.03
502.37	28837.74
502.55	28493.68
502.72	29083.50
502.90	28833.06
503.07	28975.83
503.25	29008.60
503.43	29062.43
503.60	28800.29
503.78	29139.67
503.95	29186.48
504.13	29462.66
504.30	29530.54
504.48	29647.57
504.65	29942.47
504.83	29956.52
505.01	30403.56
505.18	29860.55
505.36	30508.88
505.53	30541.65
505.71	30581.44
505.88	30815.49
506.06	30450.37
506.23	30855.28
506.41	30710.17
506.58	30829.54
506.76	31225.09
506.93	30698.47
507.11	30871.67
507.28	30733.57
507.46	30866.98
507.63	31063.59
507.81	31498.93
507.98	31480.21
508.16	31351.48
508.33	31618.30
508.50	31583.19
508.68	31892.14
508.85	32655.15
509.03	32020.87
509.20	31793.84
509.38	32191.73
509.55	32243.22
509.73	32484.30
509.90	32313.44
510.08	32451.53
510.25	32109.81
510.42	31995.12
510.60	32708.99
510.77	32762.82
510.95	33027.30
511.12	33139.65
511.30	33298.80
511.47	33298.80
511.64	33883.94
511.82	33963.51
511.99	33331.57
512.17	33668.61
512.34	33146.67
512.51	33748.18
512.69	33481.36
512.86	33738.82
513.04	34213.95
513.21	33944.79
513.38	33516.47
513.56	33577.33
513.73	33797.34
513.90	33907.34
514.08	33755.21
514.25	34146.08
514.43	34452.69
514.60	34284.17
514.77	34766.32
514.95	34518.22
515.12	34597.80
515.29	34754.61
515.47	34845.90
515.64	35051.86
515.81	34836.53
515.99	34352.04
516.16	34567.37
516.33	34696.10
516.51	34534.60
516.68	34235.02
516.85	33977.56
517.03	34333.32
517.20	34630.57
517.37	35117.40
517.54	35318.68
517.72	35620.61
517.89	35037.82
518.06	34632.91
518.24	35236.77
518.41	34976.97
518.58	35580.82
518.75	35950.63
518.93	36044.25
519.10	35934.24
519.27	36027.87
519.45	36299.37
519.62	36542.78
519.79	36671.51
519.96	36683.22
520.14	36636.41
520.31	35929.56
520.48	36336.82
520.65	36634.06
520.83	37008.55
521.00	37212.18
521.17	36783.86
521.34	37027.28
521.52	36994.51
521.69	37055.36
521.86	37359.63
522.03	37401.76
522.20	37067.06
522.38	37621.77
522.55	37385.38
522.72	37516.45
522.89	37727.10
523.07	38029.02
523.24	37722.41
523.41	38033.71
523.58	38436.28
523.75	38242.01
523.92	38361.38
524.10	38436.28
524.27	38815.44
524.44	38403.51
524.61	38789.70
524.78	38469.04
524.96	38597.77
525.13	38862.26
525.30	39201.63
525.47	39449.73
525.64	38567.35
525.81	38611.82
525.98	38548.62
526.16	38469.04
526.33	38253.72
526.50	38478.41
526.67	38010.30
526.84	38211.59
527.01	38476.07
527.18	39208.65
527.36	39161.84
527.53	39512.92
527.70	39735.27
527.87	39665.06
528.04	39529.31
528.21	39501.22
528.38	39597.18
528.55	40002.10
528.72	39882.73
528.89	40112.10
529.07	40367.22
529.24	39718.89
529.41	40027.84
529.58	39880.39
529.75	39978.69
529.92	40292.32
530.09	40407.01
530.26	40308.71
530.43	40790.86
530.60	40456.16
530.77	40289.98
530.94	40678.51
531.11	40432.75
531.28	41090.44
531.46	41029.59
531.63	40680.85
531.80	40655.11
531.97	40402.33
532.14	40615.32
532.31	40203.38
532.48	40907.88
532.65	40858.73
532.82	40685.53
532.99	41195.77
533.16	40818.94
533.33	41357.27
533.50	41429.82
533.67	40947.67
533.84	40767.45
534.01	41596.00
534.18	40774.47
534.35	41411.10
534.52	41354.93
534.69	41572.60
534.86	41387.69
535.03	41525.78
535.20	42087.51
535.37	42101.56
535.54	41715.37
535.71	42192.84
535.88	41755.16
536.05	41633.45
536.22	41593.66
536.38	41902.61
536.55	41881.55
536.72	41708.35
536.89	41588.98
537.06	41635.79
537.23	42564.98
537.40	42052.41
537.57	41890.91
537.74	42433.91
537.91	42515.83
538.08	42190.50
538.25	41865.16
538.42	42267.73
538.59	42838.83
538.75	42408.17
538.92	42646.90
539.09	42277.10
539.26	42483.06
539.43	42525.19
539.60	42745.20
539.77	42382.42
539.94	42464.34
540.11	42621.16
540.28	42707.76
540.44	42731.16
540.61	42721.80
540.78	42452.64
540.95	42782.65
541.12	42403.49
541.29	42871.59
541.46	42728.82
541.62	43103.31
541.79	43435.66
541.96	42682.01
542.13	42724.14
542.30	42969.90
542.47	43419.28
542.63	43063.52
542.80	43019.05
542.97	43419.28
543.14	43665.03
543.31	43435.66
543.48	43826.53
543.64	43976.33
543.81	43683.76
543.98	43976.33
544.15	44107.40
544.32	44311.02
544.48	44449.11
544.65	44065.27
544.82	44369.54
544.99	43700.14
545.16	44004.41
545.32	43735.25
545.49	44353.15
545.66	44306.34
545.83	44264.21
546.00	44196.34
546.16	44502.95
546.33	44191.65
546.50	43990.37
546.67	44491.24
546.83	44203.36
547.00	44224.42
547.17	44439.75
547.34	43920.15
547.50	44449.11
547.67	44332.09
547.84	44533.37
548.00	44924.24
548.17	44893.82
548.34	44802.53
548.51	45184.04
548.67	44907.86
548.84	44870.41
549.01	44428.05
549.18	44788.49
549.34	44528.69
549.51	45237.87
549.68	45359.58
549.84	44662.10
550.01	45130.21
550.18	45448.52
550.34	45074.04
550.51	45083.40
550.68	44758.06
550.84	44697.21
551.01	44832.96
551.18	45366.60
551.34	45188.72
551.51	45476.61
551.68	45415.76
551.84	45434.48
552.01	45298.73
552.18	45340.86
552.34	44690.19
552.51	45214.47
552.68	45621.72
552.84	45361.92
553.01	45638.11
553.18	45553.85
553.34	44975.73
553.51	45165.32
553.67	45586.61
553.84	46134.30
554.01	45848.75
554.17	45727.05
554.34	46007.91
554.51	45984.51
554.67	45818.33
554.84	45577.25
555.00	45621.72
555.17	45537.46
555.33	46000.89
555.50	46089.83
555.67	45492.99
555.83	45724.71
556.00	45823.01
556.16	45841.73
556.33	46021.95
556.50	46054.72
556.66	45921.31
556.83	45975.14
556.99	45909.61
557.16	46358.99
557.32	46134.30
557.49	46068.76
557.65	45928.33
557.82	45825.35
557.98	46028.98
558.15	46028.98
558.32	46155.36
558.48	45287.03
558.65	46080.47
558.81	45823.01
558.98	45895.56
559.14	46230.26
559.31	46012.59
559.47	46344.95
559.64	46469.00
559.80	46377.72
559.97	46239.62
560.13	46288.77
560.30	45867.48
560.46	46560.28
560.63	46419.84
560.79	46579.00
560.96	46674.96
561.12	46188.13
561.29	46188.13
561.45	46340.27
561.61	46101.53
561.78	46188.13
561.94	46459.63
562.11	46232.60
562.27	46583.68
562.44	46300.48
562.60	46696.03
562.77	46576.66
562.93	46260.69
563.10	46314.52
563.26	45965.78
563.42	46899.65
563.59	46373.03
563.75	46398.78
563.92	46649.22
564.08	46536.87
564.24	46878.59
564.41	46557.94
564.57	46571.98
564.74	46476.02
564.90	46590.70
565.07	46653.90
565.23	46672.62
565.39	46555.60
565.56	46410.48
565.72	46120.26
565.88	46527.51
566.05	46513.47
566.21	46876.25
566.38	46539.21
566.54	46869.23
566.70	46946.47
566.87	46967.53
567.03	46703.05
567.19	47426.28
567.36	46967.53
567.52	46731.14
567.68	46873.91
567.85	46859.87
568.01	46756.88
568.17	46726.46
568.34	47030.72
568.50	46848.16
568.66	46813.05
568.83	47070.51
568.99	46653.90
569.15	46796.67
569.32	46962.85
569.48	46412.82
569.64	46979.23
569.81	46370.69
569.97	46883.27
570.13	46705.39
570.30	46555.60
570.46	46607.09
570.62	46277.07
570.78	46148.34
570.95	46244.30
571.11	46782.63
571.27	46972.21
571.43	46932.42
571.60	47192.22
571.76	47114.98
571.92	47325.63
572.09	46813.05
572.25	46892.63
572.41	46579.00
572.57	46728.80
572.74	47370.10
572.90	47058.81
573.06	47019.02
573.22	47068.17
573.38	46955.83
573.55	46698.37
573.71	47037.75
573.87	46689.01
574.03	46724.11
574.20	47000.30
574.36	46480.70
574.52	47082.22
574.68	46960.51
574.84	46981.57
575.01	47075.19
575.17	47089.24
575.33	46527.51
575.49	46417.50
575.65	47014.34
575.82	47290.52
575.98	46770.93
576.14	46789.65
576.30	46721.77
576.46	46955.83
576.62	47061.15
576.79	47086.90
576.95	46674.96
577.11	46843.48
577.27	47079.88
577.43	47206.26
577.59	46497.08
577.75	46506.44
577.92	46429.21
578.08	46436.23
578.24	46625.81
578.40	46824.76
578.56	47105.62
578.72	46621.13
578.88	47056.47
579.04	47107.96
579.21	46969.87
579.37	47288.18
579.53	46939.44
579.69	47026.04
579.85	46866.89
580.01	47026.04
580.17	47419.25
580.33	46904.34
580.49	46988.60
580.65	46801.35
580.82	47351.38
580.98	46983.91
581.14	46581.34
581.30	47054.13
581.46	47026.04
581.62	47594.79
581.78	46976.89
581.94	47255.42
582.10	47255.42
582.26	47278.82
582.42	47072.85
582.58	47281.16
582.74	47047.11
582.90	47412.23
583.06	47353.72
583.22	47482.45
583.38	47334.99
583.54	47180.52
583.70	47402.87
583.86	47299.89
584.02	46501.76
584.18	46979.23
584.34	47124.35
584.50	47037.75
584.66	47012.00
584.82	46766.24
584.98	47253.08
585.14	46972.21
585.30	46775.61
585.46	47030.72
585.62	46777.95
585.78	46979.23
585.94	46738.16
586.10	47122.01
586.26	46742.84
586.42	47489.47
586.58	47152.43
586.74	47147.75
586.90	47089.24
587.06	47000.30
587.22	47077.54
587.38	47161.79
587.54	47007.32
587.70	47412.23
587.86	47241.37
588.02	47068.17
588.18	47147.75
588.34	47089.24
588.49	46464.32
588.65	46167.07
588.81	46597.73
588.97	46930.08
589.13	46677.30
589.29	47133.71
589.45	46749.86
589.61	46951.15
589.77	47489.47
