SpectraSuite Data File
++++++++++++++++++++++++++++++++++++
Date: Fri Oct 25 10:47:53 EDT 2013
User: price-jones
Dark Spectrum Present: No
Reference Spectrum Present: No
Number of Sampled Component Spectra: 1
Spectrometers: USB2+H05261
Integration Time (usec): 100000 (USB2+H05261)
Spectra Averaged: 1 (USB2+H05261)
Boxcar Smoothing: 0 (USB2+H05261)
Correct for Electrical Dark: No (USB2+H05261)
Strobe/Lamp Enabled: No (USB2+H05261)
Correct for Detector Non-linearity: No (USB2+H05261)
Correct for Stray Light: No (USB2+H05261)
Number of Pixels in Processed Spectrum: 2048
>>>>>Begin Processed Spectral Data<<<<<
365.73	114.69
365.92	114.69
366.12	114.69
366.32	37.45
366.52	42.13
366.72	98.30
366.91	0.00
367.11	42.13
367.31	0.00
367.51	0.00
367.70	23.41
367.90	53.83
368.10	0.00
368.30	0.00
368.49	81.92
368.69	110.01
368.89	93.62
369.09	65.54
369.28	14.04
369.48	88.94
369.68	84.26
369.87	135.75
370.07	147.45
370.27	177.88
370.47	224.69
370.66	341.72
370.86	468.11
371.06	414.27
371.25	451.72
371.45	477.47
371.65	425.98
371.84	475.13
372.04	421.30
372.24	381.51
372.44	472.79
372.63	505.56
372.83	430.66
373.03	465.77
373.22	514.92
373.42	519.60
373.62	468.11
373.81	493.85
374.01	496.19
374.21	540.66
374.40	636.63
374.60	615.56
374.79	540.66
374.99	631.94
375.19	503.22
375.38	547.69
375.58	645.99
375.78	564.07
375.97	624.92
376.17	571.09
376.37	575.77
376.56	575.77
376.76	608.54
376.95	596.84
377.15	631.94
377.35	641.31
377.54	587.47
377.74	535.98
377.93	550.03
378.13	617.90
378.33	550.03
378.52	655.35
378.72	645.99
378.91	664.71
379.11	566.41
379.31	578.11
379.50	641.31
379.70	674.07
379.89	662.37
380.09	601.52
380.28	674.07
380.48	674.07
380.68	667.05
380.87	627.26
381.07	643.65
381.26	711.52
381.46	678.76
381.65	655.35
381.85	641.31
382.04	748.97
382.24	683.44
382.43	674.07
382.63	674.07
382.83	648.33
383.02	741.95
383.22	711.52
383.41	704.50
383.61	699.82
383.80	770.04
384.00	739.61
384.19	781.74
384.39	706.84
384.58	730.25
384.78	781.74
384.97	704.50
385.17	791.10
385.36	772.38
385.56	837.91
385.75	748.97
385.95	774.72
386.14	816.85
386.34	868.34
386.53	791.10
386.72	833.23
386.92	910.47
387.11	753.65
387.31	753.65
387.50	730.25
387.70	753.65
387.89	819.19
388.09	882.38
388.28	816.85
388.48	901.11
388.67	863.66
388.86	823.87
389.06	903.45
389.25	784.08
389.45	875.36
389.64	854.30
389.84	973.66
390.03	889.40
390.22	880.04
390.42	863.66
390.61	999.41
390.81	917.49
391.00	905.79
391.19	936.21
391.39	1029.84
391.58	1006.43
391.78	990.05
391.97	980.68
392.16	964.30
392.36	917.49
392.55	1025.15
392.75	898.77
392.94	999.41
393.13	1008.77
393.33	968.98
393.52	1004.09
393.71	1100.05
393.91	1078.99
394.10	1107.07
394.29	1081.33
394.49	1001.75
394.68	1057.92
394.88	1057.92
395.07	1039.20
395.26	1109.41
395.46	1151.54
395.65	1235.80
395.84	1151.54
396.04	1090.69
396.23	1067.28
396.42	1048.56
396.62	1228.78
396.81	1186.65
397.00	1172.61
397.19	1205.38
397.39	1306.02
397.58	1167.93
397.77	1287.29
397.97	1324.74
398.16	1245.16
398.35	1352.83
398.55	1261.55
398.74	1245.16
398.93	1373.89
399.12	1306.02
399.32	1310.70
399.51	1266.23
399.70	1263.89
399.90	1308.36
400.09	1327.08
400.28	1448.79
400.47	1352.83
400.67	1441.77
400.86	1416.02
401.05	1289.64
401.24	1575.18
401.44	1526.03
401.63	1432.41
401.82	1500.28
402.01	1519.01
402.21	1444.11
402.40	1591.56
402.59	1533.05
402.78	1514.33
402.97	1561.14
403.17	1607.95
403.36	1647.74
403.55	1526.03
403.74	1654.76
403.93	1547.09
404.13	1657.10
404.32	1516.67
404.51	1598.59
404.70	1659.44
404.89	1617.31
405.09	1694.55
405.28	1727.32
405.47	1668.80
405.66	1806.89
405.85	1849.02
406.05	1769.44
406.24	1741.36
406.43	1739.02
406.62	1792.85
406.81	1940.30
407.00	1879.45
407.20	1863.07
407.39	1830.30
407.58	1849.02
407.77	1919.24
407.96	2019.88
408.15	1963.71
408.34	1912.22
408.54	1933.28
408.73	2024.56
408.92	1975.41
409.11	1937.96
409.30	2005.84
409.49	2036.27
409.68	2017.54
409.87	2064.35
410.07	2101.80
410.26	2174.36
410.45	2176.70
410.64	2214.15
410.83	2265.64
411.02	2153.29
411.21	2167.34
411.40	2218.83
411.59	2370.96
411.78	2307.77
411.98	2270.32
412.17	2356.92
412.36	2270.32
412.55	2382.67
412.74	2495.01
412.93	2516.08
413.12	2429.48
413.31	2539.48
413.50	2509.05
413.69	2586.29
413.88	2523.10
414.07	2626.08
414.26	2633.10
414.45	2722.04
414.64	2675.23
414.83	2583.95
415.02	2698.64
415.22	2717.36
415.41	2710.34
415.60	2733.75
415.79	2637.78
415.98	2764.17
416.17	2775.88
416.36	2888.22
416.55	2850.77
416.74	2785.24
416.93	2855.45
417.12	2881.20
417.31	2974.82
417.50	3049.72
417.69	3187.81
417.88	3136.32
418.07	3052.06
418.26	3094.19
418.45	3094.19
418.64	3215.90
418.83	3045.04
419.02	3108.23
419.21	3265.05
419.39	3208.87
419.58	3211.22
419.77	3115.25
419.96	3286.11
420.15	3311.86
420.34	3349.31
420.53	3353.99
420.72	3365.69
420.91	3438.25
421.10	3386.76
421.29	3410.16
421.48	3311.86
421.67	3391.44
421.86	3300.16
422.05	3396.12
422.24	3445.27
422.43	3471.01
422.61	3412.50
422.80	3456.97
422.99	3452.29
423.18	3543.57
423.37	3574.00
423.56	3611.45
423.75	3506.12
423.94	3412.50
424.13	3363.35
424.32	3468.67
424.50	3618.47
424.69	3660.60
424.88	3630.17
425.07	3424.20
425.26	3550.59
425.45	3667.62
425.64	3438.25
425.83	3592.72
426.01	3496.76
426.20	3590.38
426.39	3613.79
426.58	3433.57
426.77	3506.12
426.96	3538.89
427.15	3442.93
427.33	3592.72
427.52	3742.52
427.71	3786.99
427.90	3686.34
428.09	3819.75
428.28	3634.85
428.46	3852.52
428.65	3794.01
428.84	4016.36
429.03	3957.85
429.22	3801.03
429.40	3840.82
429.59	3831.46
429.78	3676.98
429.97	3637.19
430.16	3730.81
430.34	3889.97
430.53	3791.67
430.72	3768.26
430.91	3955.51
431.10	3929.76
431.28	4016.36
431.47	4159.13
431.66	4234.03
431.85	4128.70
432.03	4119.34
432.22	4337.01
432.41	4124.02
432.60	4245.73
432.79	4262.12
432.97	4360.42
433.16	4379.14
433.35	4234.03
433.54	4278.50
433.72	4292.54
433.91	4407.23
434.10	4374.46
434.28	4278.50
434.47	4329.99
434.66	4421.27
434.85	4341.69
435.03	4440.00
435.22	4395.53
435.41	4552.34
435.59	4416.59
435.78	4645.96
435.97	4585.11
436.16	4505.53
436.34	4418.93
436.53	4650.64
436.72	4718.52
436.90	4690.43
437.09	4767.67
437.28	4491.49
437.46	4571.07
437.65	4727.88
437.84	4662.35
438.02	4664.69
438.21	4781.71
438.40	4610.86
438.58	4901.08
438.77	4966.62
438.96	4833.21
439.14	5114.07
439.33	4910.44
439.52	5006.41
439.70	4985.34
439.89	5172.58
440.08	5041.51
440.26	5203.01
440.45	5118.75
440.63	5371.53
440.82	5268.55
441.01	5298.97
441.19	5444.09
441.38	5441.75
441.57	5476.85
441.75	5495.58
441.94	5593.88
442.12	5621.97
442.31	5624.31
442.50	5736.65
442.68	5624.31
442.87	5568.13
443.05	5689.84
443.24	5776.44
443.43	5785.80
443.61	5783.46
443.80	6073.69
443.98	5746.02
444.17	5521.32
444.35	5937.94
444.54	5799.85
444.73	5781.12
444.91	5731.97
445.10	5982.41
445.28	5980.07
445.47	5760.06
445.65	5818.57
445.84	5771.76
446.02	5863.04
446.21	5888.79
446.39	5870.06
446.58	5966.03
446.77	5792.83
446.95	5841.98
447.14	5980.07
447.32	5926.24
447.51	5804.53
447.69	5989.43
447.88	6073.69
448.06	5989.43
448.25	6008.16
448.43	6005.81
448.62	6010.50
448.80	5898.15
448.99	6061.99
449.17	6139.23
449.36	6099.44
449.54	6120.50
449.73	6410.73
449.91	6417.75
450.10	6345.19
450.28	6478.60
450.46	6408.39
450.65	6335.83
450.83	6431.79
451.02	6466.90
451.20	6417.75
451.39	6427.11
451.57	6406.05
451.76	6296.04
451.94	6387.32
452.13	6644.78
452.31	6450.52
452.49	6471.58
452.68	6471.58
452.86	6534.78
453.05	6640.10
453.23	6558.18
453.42	6494.99
453.60	6429.45
453.78	6836.70
453.97	6455.20
454.15	6628.40
454.34	6541.80
454.52	6663.51
454.70	6853.09
454.89	6864.79
455.07	6897.56
455.26	6703.29
455.44	7033.31
455.62	6846.07
455.81	6874.15
455.99	7133.95
456.17	6895.22
456.36	7030.97
456.54	7115.23
456.73	7143.32
456.91	7358.64
457.09	7323.54
457.28	7412.48
457.46	7152.68
457.64	7108.21
457.83	7309.49
458.01	7187.79
458.19	7442.90
458.38	7297.79
458.56	7499.08
458.74	7461.63
458.93	7375.03
459.11	7606.74
459.29	7344.60
459.48	7639.51
459.66	7419.50
459.84	7485.03
460.03	7590.36
460.21	7625.47
460.39	7534.18
460.57	7527.16
460.76	7669.94
460.94	7892.29
461.12	7698.02
461.31	7726.11
461.49	7691.00
461.67	7756.54
461.85	7847.82
462.04	7857.18
462.22	8510.19
462.40	8109.96
462.59	8042.08
462.77	7957.82
462.95	8056.12
463.13	8060.80
463.32	8072.51
463.50	8161.45
463.68	8135.70
463.86	8161.45
464.05	7969.52
464.23	8013.99
464.41	8355.71
464.59	8011.65
464.78	8327.63
464.96	8409.54
465.14	8140.38
465.32	8175.49
465.50	8276.13
465.69	8386.14
465.87	8255.07
466.05	8011.65
466.23	8369.76
466.41	8116.98
466.60	8528.91
466.78	8318.26
466.96	8475.08
467.14	8299.54
467.32	8437.63
467.51	8468.06
467.69	8252.73
467.87	8545.30
468.05	8538.27
468.23	8404.86
468.41	8505.51
468.60	8549.98
468.78	8542.96
468.96	8547.64
469.14	8681.05
469.32	8739.56
469.50	8627.21
469.69	8793.39
469.87	8933.82
470.05	8767.65
470.23	8884.67
470.41	8985.32
470.59	9156.18
470.77	8856.59
470.95	9053.19
471.14	9128.09
471.32	8908.08
471.50	9284.91
471.68	9191.28
471.86	9502.58
472.04	9460.45
472.22	9502.58
472.40	9212.35
472.58	9483.85
472.77	9516.62
472.95	9659.39
473.13	9776.42
473.31	9729.61
473.49	9570.45
473.67	9638.33
473.85	9703.86
474.03	9823.23
474.21	9863.02
474.39	10129.84
474.57	9895.78
474.75	10253.89
474.93	10253.89
475.12	10045.58
475.30	10204.74
475.48	10396.66
475.66	10429.43
475.84	10284.31
476.02	10513.69
476.20	10328.78
476.38	10338.15
476.56	10677.52
476.74	10569.86
476.92	10705.61
477.10	10815.62
477.28	10832.00
477.46	11194.78
477.64	11119.89
477.82	11304.79
478.00	11463.94
478.18	11384.37
478.36	11440.54
478.54	11393.73
478.72	11641.82
478.90	11517.78
479.08	11494.37
479.26	11864.18
479.44	11943.75
479.62	12098.23
479.80	12177.81
479.98	12236.32
480.16	12315.90
480.34	12060.78
480.52	12486.76
480.70	12533.57
480.88	12421.22
481.06	12603.78
481.24	12542.93
481.41	12947.84
481.59	12996.99
481.77	13043.81
481.95	13102.32
482.13	13259.13
482.31	13137.43
482.49	13731.92
482.67	13418.29
482.85	13504.89
483.03	13762.35
483.21	14150.88
483.39	14003.43
483.57	14031.51
483.74	14143.86
483.92	14223.44
484.10	14031.51
484.28	14394.29
484.46	14668.14
484.64	14635.37
484.82	14841.34
485.00	14876.44
485.18	14970.07
485.35	15131.56
485.53	15215.82
485.71	15276.68
485.89	15393.70
486.07	15300.08
486.25	15330.51
486.43	15648.82
486.61	15674.57
486.78	15744.78
486.96	16114.59
487.14	16376.73
487.32	16208.21
487.50	16606.10
487.68	16652.91
487.85	16957.18
488.03	17034.42
488.21	17055.48
488.39	16875.26
488.57	17069.53
488.75	17219.32
488.92	17455.72
489.10	17628.92
489.28	17846.58
489.46	17736.58
489.64	17996.38
489.81	18654.07
489.99	18312.35
490.17	18441.08
490.35	18600.24
490.53	18539.38
490.70	19016.85
490.88	18932.59
491.06	18871.74
491.24	19042.60
491.41	19033.24
491.59	19557.52
491.77	19627.73
491.95	19330.48
492.13	19690.93
492.30	19796.25
492.48	20077.12
492.66	19889.87
492.84	20100.52
493.01	20020.94
493.19	20027.96
493.37	20650.55
493.54	20336.91
493.72	20943.11
493.90	20877.58
494.08	20793.32
494.25	21104.61
494.43	21366.75
494.61	21341.00
494.79	21561.02
494.96	21338.66
495.14	21441.65
495.32	21692.08
495.49	21764.64
495.67	22031.46
495.85	21923.80
496.02	22033.80
496.20	22288.92
496.38	22221.05
496.55	22632.98
496.73	23178.33
496.91	22398.93
497.09	22714.90
497.26	22937.25
497.44	22808.52
497.62	22801.50
497.79	23047.26
497.97	23047.26
498.14	23435.78
498.32	23637.07
498.50	23487.28
498.67	23686.22
498.85	24044.32
499.03	24074.75
499.20	24102.84
499.38	24058.37
499.56	24435.19
499.73	24369.66
499.91	24252.63
500.08	24711.38
500.26	24606.05
500.44	24709.04
500.61	24760.53
500.79	24486.68
500.97	24900.96
501.14	25228.63
501.32	25422.90
501.49	25188.85
501.67	25406.52
501.84	25577.37
502.02	25242.68
502.20	25476.73
502.37	25546.95
502.55	25827.81
502.72	25975.27
502.90	26171.87
503.07	25993.99
503.25	26001.01
503.43	26150.81
503.60	26202.30
503.78	26309.96
503.95	26073.57
504.13	26235.06
504.30	26237.41
504.48	26380.18
504.65	26572.10
504.83	26806.16
505.01	27014.46
505.18	26885.73
505.36	26972.33
505.53	27143.19
505.71	27733.01
505.88	27674.49
506.06	27232.13
506.23	27440.44
506.41	27061.27
506.58	27683.86
506.76	28123.88
506.93	27735.35
507.11	27676.83
507.28	27992.81
507.46	27889.82
507.63	28135.58
507.81	28067.70
507.98	27828.97
508.16	28514.75
508.33	28540.49
508.50	28374.31
508.68	28526.45
508.85	29076.48
509.03	28634.11
509.20	28589.64
509.38	29223.93
509.55	29074.13
509.73	29184.14
509.90	29369.04
510.08	29120.95
510.25	28978.17
510.42	29069.45
510.60	29301.17
510.77	29958.86
510.95	29825.45
511.12	29514.16
511.30	29673.31
511.47	29694.38
511.64	30113.33
511.82	30625.91
511.99	30389.52
512.17	30316.96
512.34	29446.28
512.51	30302.92
512.69	30251.42
512.86	30010.35
513.04	30387.18
513.21	30504.20
513.38	30649.32
513.56	30459.73
513.73	30794.43
513.90	30742.94
514.08	31208.70
514.25	31309.35
514.43	31072.95
514.60	30874.01
514.77	31236.79
514.95	31290.62
515.12	31857.03
515.29	31187.64
515.47	31793.84
515.64	31899.16
515.81	31365.52
515.99	31484.89
516.16	31583.19
516.33	31824.26
516.51	31908.52
516.68	31351.48
516.85	31740.00
517.03	31576.17
517.20	32215.13
517.37	32261.94
517.54	32283.01
517.72	32238.54
517.89	32161.30
518.06	32313.44
518.24	32294.71
518.41	32512.38
518.58	32659.84
518.75	32510.04
518.93	33027.30
519.10	32655.15
519.27	33134.96
519.45	32884.53
519.62	33209.86
519.79	32943.04
519.96	33064.75
520.14	33502.43
520.31	33399.44
520.48	33296.46
520.65	33289.44
520.83	33574.98
521.00	33989.26
521.17	33715.42
521.34	33682.65
521.52	34305.23
521.69	34263.10
521.86	34225.65
522.03	34169.48
522.20	33883.94
522.38	34295.87
522.55	34235.02
522.72	34094.58
522.89	34227.99
523.07	34445.66
523.24	34396.51
523.41	34150.76
523.58	34450.35
523.75	35115.06
523.92	34684.40
524.10	34939.52
524.27	34768.66
524.44	35021.44
524.61	35096.33
524.78	35482.52
524.96	35580.82
525.13	35426.35
525.30	35501.25
525.47	35285.92
525.64	35145.48
525.81	35754.02
525.98	35194.64
526.16	35428.69
526.33	35459.12
526.50	35824.24
526.67	35381.88
526.84	35517.63
527.01	35442.73
527.18	35697.85
527.36	35999.78
527.53	36013.82
527.70	36172.98
527.87	36357.88
528.04	36121.49
528.21	36074.68
528.38	35924.88
528.55	36268.94
528.72	36409.37
528.89	36559.17
529.07	36947.70
529.24	36411.71
529.41	36367.24
529.58	36561.51
529.75	37013.23
529.92	36898.55
530.09	36741.73
530.26	37233.24
530.43	36952.38
530.60	36697.26
530.77	36767.48
530.94	37022.59
531.11	36566.19
531.28	37186.43
531.46	37282.39
531.63	37460.27
531.80	37235.58
531.97	37612.41
532.14	37633.47
532.31	37055.36
532.48	37097.49
532.65	37640.50
532.82	38181.16
532.99	37813.70
533.16	37589.00
533.33	37766.88
533.50	37820.72
533.67	37666.24
533.84	37392.40
534.01	37982.21
534.18	38012.64
534.35	38036.05
534.52	37848.80
534.69	37940.08
534.86	38209.25
535.03	37638.15
535.20	38438.62
535.37	38609.48
535.54	38410.53
535.71	38295.85
535.88	38660.97
536.05	38457.34
536.22	38754.59
536.38	38265.42
536.55	38679.69
536.72	38401.17
536.89	38508.83
537.06	38862.26
537.23	38885.66
537.40	38717.14
537.57	38873.96
537.74	39117.37
537.91	39454.41
538.08	39321.00
538.25	38986.30
538.42	38899.70
538.59	39150.14
538.75	38768.63
538.92	38693.74
539.09	39505.90
539.26	39012.05
539.43	39391.22
539.60	39597.18
539.77	39381.85
539.94	39356.11
540.11	39049.50
540.28	38792.04
540.44	39379.51
540.61	39353.77
540.78	39529.31
540.95	39283.55
541.12	39435.69
541.29	39501.22
541.46	39562.08
541.62	39826.56
541.79	39842.94
541.96	39824.22
542.13	39758.68
542.30	39770.38
542.47	40460.84
542.63	40212.74
542.80	40369.56
542.97	40423.39
543.14	40701.92
543.31	40942.99
543.48	40580.21
543.64	40739.36
543.81	41134.92
543.98	40645.74
544.15	40636.38
544.32	40882.14
544.48	41057.68
544.65	40989.80
544.82	40439.78
544.99	40318.07
545.16	40481.91
545.32	40730.00
545.49	40964.06
545.66	41207.47
545.83	41017.89
546.00	41588.98
546.16	40903.20
546.33	40713.62
546.50	40900.86
546.67	41315.14
546.83	40893.84
547.00	40935.97
547.17	41006.19
547.34	41488.34
547.50	41640.47
547.67	41340.88
547.84	41474.29
548.00	41303.43
548.17	41904.95
548.34	41500.04
548.51	41780.90
548.67	42082.83
548.84	41968.15
549.01	41982.19
549.18	41762.18
549.34	41790.27
549.51	41982.19
549.68	42012.62
549.84	42052.41
550.01	42045.38
550.18	41832.39
550.34	41970.49
550.51	41771.54
550.68	41935.38
550.84	41972.83
551.01	41706.01
551.18	42223.26
551.34	41902.61
551.51	42309.86
551.68	42363.70
551.84	42691.37
552.01	42227.95
552.18	42021.98
552.34	41670.90
552.51	42887.98
552.68	42513.49
552.84	42829.46
553.01	43035.43
553.18	42241.99
553.34	42480.72
553.51	42272.42
553.67	42476.04
553.84	42871.59
554.01	42555.62
554.17	42677.33
554.34	42689.03
554.51	42794.36
554.67	42649.24
554.84	42822.44
555.00	42644.56
555.17	42553.28
555.33	42450.30
555.50	42873.93
555.67	42784.99
555.83	42731.16
556.00	43344.38
556.16	43412.26
556.33	43047.13
556.50	42852.87
556.66	43079.90
556.83	43220.33
556.99	43466.09
557.16	43175.86
557.32	42899.68
557.49	42958.19
557.65	43203.95
557.82	43009.68
557.98	43414.60
558.15	43564.39
558.32	43491.83
558.48	43019.05
558.65	43206.29
558.81	43145.44
558.98	43147.78
559.14	43442.68
559.31	43578.43
559.47	43674.40
559.64	43566.73
559.80	43997.39
559.97	43707.16
560.13	43344.38
560.30	43580.78
560.46	43515.24
560.63	44002.07
560.79	43863.98
560.96	43594.82
561.12	43791.42
561.29	43416.94
561.45	43856.96
561.61	43475.45
561.78	43232.04
561.94	43339.70
562.11	43323.32
562.27	43948.24
562.44	44013.77
562.60	43751.63
562.77	43753.97
562.93	43618.22
563.10	43576.09
563.26	43199.27
563.42	43838.23
563.59	43653.33
563.75	44093.35
563.92	43608.86
564.08	44245.49
564.24	44137.82
564.41	44271.23
564.57	43945.90
564.74	43852.28
564.90	44233.78
565.07	44135.48
565.23	44179.95
565.39	44261.87
565.56	44465.50
565.72	44030.16
565.88	43742.27
566.05	44343.79
566.21	43962.28
566.38	43997.39
566.54	43484.81
566.70	44739.34
566.87	44098.03
567.03	44327.41
567.19	44329.75
567.36	44261.87
567.52	43826.53
567.68	44622.31
567.85	44161.23
568.01	44273.57
568.17	44374.22
568.34	44044.20
568.50	44385.92
568.66	44067.61
568.83	44198.68
568.99	43859.30
569.15	44261.87
569.32	43866.32
569.48	43875.68
569.64	44353.15
569.81	44699.55
569.97	43828.87
570.13	44437.41
570.30	43842.92
570.46	44381.24
570.62	44215.06
570.78	44201.02
570.95	44402.30
571.11	44205.70
571.27	44311.02
571.43	44376.56
571.60	44477.20
571.76	44360.17
571.92	44406.98
572.09	44161.23
572.25	44622.31
572.41	44425.71
572.57	44769.77
572.74	45261.28
572.90	44591.89
573.06	44657.42
573.22	44458.48
573.38	44453.79
573.55	44334.43
573.71	44978.07
573.87	44582.52
574.03	44055.90
574.20	44769.77
574.36	44439.75
574.52	44809.56
574.68	44917.22
574.84	44830.62
575.01	44446.77
575.17	44699.55
575.33	44659.76
575.49	43863.98
575.65	44692.53
575.82	44568.48
575.98	44626.99
576.14	44952.33
576.30	44538.05
576.46	44519.33
576.62	44243.15
576.79	44390.60
576.95	44041.86
577.11	44435.07
577.27	44626.99
577.43	44734.66
577.59	44364.85
577.75	45003.82
577.92	44552.10
578.08	44109.74
578.24	44086.33
578.40	44594.23
578.56	44577.84
578.72	44814.24
578.88	44868.07
579.04	44322.72
579.21	44580.18
579.37	44753.38
579.53	44423.37
579.69	44828.28
579.85	44828.28
580.01	44428.05
580.17	44526.35
580.33	44753.38
580.49	44779.13
580.65	45228.51
580.82	45118.51
580.98	44463.16
581.14	44652.74
581.30	44879.77
581.46	44704.23
581.62	44802.53
581.78	44797.85
581.94	45158.30
582.10	44931.26
582.26	45364.26
582.42	44601.25
582.58	44587.21
582.74	44556.78
582.90	44629.34
583.06	44540.39
583.22	44816.58
583.38	44882.11
583.54	45052.97
583.70	44865.73
583.86	44549.76
584.02	44624.65
584.18	44659.76
584.34	44811.90
584.50	44507.63
584.66	44739.34
584.82	44718.28
584.98	45261.28
585.14	45233.19
585.30	44708.91
585.46	44629.34
585.62	44800.19
585.78	44884.45
585.94	44252.51
586.10	44486.56
586.26	44744.02
586.42	45052.97
586.58	44612.95
586.74	44608.27
586.90	44692.53
587.06	44402.30
587.22	44832.96
587.38	44678.49
587.54	44975.73
587.70	44996.80
587.86	45067.02
588.02	44861.05
588.18	44729.98
588.34	44655.08
588.49	44781.47
588.65	44624.65
588.81	44580.18
588.97	44690.19
589.13	44575.50
589.29	44704.23
589.45	44781.47
589.61	45216.81
589.77	45301.07
589.93	45045.95
590.08	45083.40
590.24	45244.90
