SpectraSuite Data File
++++++++++++++++++++++++++++++++++++
Date: Fri Oct 25 11:25:51 EDT 2013
User: price-jones
Dark Spectrum Present: No
Reference Spectrum Present: No
Number of Sampled Component Spectra: 1
Spectrometers: USB2+H05261
Integration Time (usec): 100000 (USB2+H05261)
Spectra Averaged: 1 (USB2+H05261)
Boxcar Smoothing: 0 (USB2+H05261)
Correct for Electrical Dark: No (USB2+H05261)
Strobe/Lamp Enabled: No (USB2+H05261)
Correct for Detector Non-linearity: No (USB2+H05261)
Correct for Stray Light: No (USB2+H05261)
Number of Pixels in Processed Spectrum: 2048
>>>>>Begin Processed Spectral Data<<<<<
365.73	231.71
365.92	231.71
366.12	231.71
366.32	198.95
366.52	117.03
366.72	205.97
366.91	84.26
367.11	93.62
367.31	44.47
367.51	102.98
367.70	110.01
367.90	142.77
368.10	131.07
368.30	138.09
368.49	135.75
368.69	138.09
368.89	156.82
369.09	147.45
369.28	161.50
369.48	196.60
369.68	142.77
369.87	126.39
370.07	234.05
370.27	250.44
370.47	290.23
370.66	589.82
370.86	594.50
371.06	622.58
371.25	767.70
371.45	648.33
371.65	765.36
371.84	660.03
372.04	634.29
372.24	727.91
372.44	706.84
372.63	770.04
372.83	676.41
373.03	725.57
373.22	741.95
373.42	779.40
373.62	807.48
373.81	851.96
374.01	833.23
374.21	866.00
374.40	786.42
374.60	800.46
374.79	819.19
374.99	821.53
375.19	833.23
375.38	821.53
375.58	800.46
375.78	880.04
375.97	826.21
376.17	858.98
376.37	968.98
376.56	863.66
376.76	851.96
376.95	938.55
377.15	777.06
377.35	912.81
377.54	842.59
377.74	849.61
377.93	957.28
378.13	985.37
378.33	933.87
378.52	926.85
378.72	840.25
378.91	973.66
379.11	896.43
379.31	973.66
379.50	943.24
379.70	933.87
379.89	943.24
380.09	992.39
380.28	917.49
380.48	947.92
380.68	1013.45
380.87	978.34
381.07	990.05
381.26	1118.78
381.46	957.28
381.65	1015.79
381.85	1004.09
382.04	1086.01
382.24	1046.22
382.43	1034.52
382.63	1090.69
382.83	1086.01
383.02	1097.71
383.22	1097.71
383.41	1116.44
383.61	1086.01
383.80	1125.80
384.00	1109.41
384.19	1214.74
384.39	1146.86
384.58	1074.31
384.78	1074.31
384.97	1165.59
385.17	1296.66
385.36	1224.10
385.56	1146.86
385.75	1102.39
385.95	1093.03
386.14	1036.86
386.34	1177.29
386.53	1270.91
386.72	1128.14
386.92	1212.40
387.11	1247.51
387.31	1320.06
387.50	1252.19
387.70	1233.46
387.89	1306.02
388.09	1268.57
388.28	1401.98
388.48	1315.38
388.67	1214.74
388.86	1320.06
389.06	1289.64
389.25	1378.58
389.45	1369.21
389.64	1441.77
389.84	1327.08
390.03	1310.70
390.22	1434.75
390.42	1334.11
390.61	1390.28
390.81	1462.83
391.00	1397.30
391.19	1371.55
391.39	1373.89
391.58	1458.15
391.78	1483.90
391.97	1423.05
392.16	1416.02
392.36	1511.99
392.55	1401.98
392.75	1528.37
392.94	1561.14
393.13	1502.62
393.33	1565.82
393.52	1584.54
393.71	1633.69
393.91	1460.49
394.10	1586.88
394.29	1638.38
394.49	1528.37
394.68	1537.73
394.88	1577.52
395.07	1650.08
395.26	1706.25
395.46	1797.53
395.65	1685.19
395.84	1799.87
396.04	1708.59
396.23	1717.95
396.42	1757.74
396.62	1715.61
396.81	1760.08
397.00	1755.40
397.19	1867.75
397.39	1788.17
397.58	1879.45
397.77	1909.88
397.97	1762.42
398.16	1842.00
398.35	1888.81
398.55	1923.92
398.74	1888.81
398.93	1963.71
399.12	1963.71
399.32	1994.14
399.51	1949.67
399.70	2050.31
399.90	1949.67
400.09	1982.43
400.28	2057.33
400.47	2010.52
400.67	2029.24
400.86	2090.10
401.05	1984.77
401.24	2099.46
401.44	2176.70
401.63	2113.50
401.82	2122.87
402.01	2118.18
402.21	2251.60
402.40	2242.23
402.59	2062.01
402.78	2260.96
402.97	2249.25
403.17	2317.13
403.36	2359.26
403.55	2303.09
403.74	2352.24
403.93	2361.60
404.13	2275.00
404.32	2434.16
404.51	2410.75
404.70	2445.86
404.89	2253.94
405.09	2497.35
405.28	2462.24
405.47	2445.86
405.66	2612.04
405.85	2600.34
406.05	2455.22
406.24	2574.59
406.43	2602.68
406.62	2644.81
406.81	2717.36
407.00	2597.99
407.20	2576.93
407.39	2710.34
407.58	2665.87
407.77	2754.81
407.96	2719.70
408.15	2656.51
408.34	2649.49
408.54	2834.39
408.73	2841.41
408.92	2672.89
409.11	2846.09
409.30	2740.77
409.49	2902.26
409.68	2988.86
409.87	2911.63
410.07	2867.16
410.26	3035.67
410.45	3063.76
410.64	3045.04
410.83	3070.78
411.02	3162.06
411.21	3185.47
411.40	3094.19
411.59	3159.72
411.78	3229.94
411.98	3155.04
412.17	3279.09
412.36	3260.37
412.55	3269.73
412.74	3356.33
412.93	3396.12
413.12	3419.52
413.31	3433.57
413.50	3463.99
413.69	3379.73
413.88	3620.81
414.07	3646.55
414.26	3623.15
414.45	3843.16
414.64	3581.02
414.83	3719.11
415.02	3838.48
415.22	3770.60
415.41	3761.24
415.60	3852.52
415.79	3908.69
415.98	3946.14
416.17	3960.19
416.36	3971.89
416.55	4039.76
416.74	4154.45
416.93	4060.83
417.12	4138.07
417.31	4084.23
417.50	4140.41
417.69	4414.25
417.88	4245.73
418.07	4252.75
418.26	4292.54
418.45	4292.54
418.64	4280.84
418.83	4334.67
419.02	4400.21
419.21	4760.65
419.39	4437.66
419.58	4407.23
419.77	4465.74
419.96	4545.32
420.15	4641.28
420.34	4571.07
420.53	4716.18
420.72	4734.90
420.91	4559.36
421.10	4713.84
421.29	4704.48
421.48	4751.29
421.67	4603.83
421.86	4770.01
422.05	4695.11
422.24	4863.63
422.43	4856.61
422.61	4812.14
422.80	4945.55
422.99	4950.23
423.18	4889.38
423.37	5135.14
423.56	4929.17
423.75	4887.04
423.94	4716.18
424.13	4718.52
424.32	4753.63
424.50	5067.26
424.69	5102.37
424.88	4936.19
425.07	5053.22
425.26	4940.87
425.45	4985.34
425.64	4924.49
425.83	4999.38
426.01	5128.11
426.20	4926.83
426.39	5057.90
426.58	5004.07
426.77	5041.51
426.96	5128.11
427.15	5085.98
427.33	5137.48
427.52	5242.80
427.71	5373.87
427.90	5149.18
428.09	5378.55
428.28	5490.90
428.46	5509.62
428.65	5214.71
428.84	5329.40
429.03	5476.85
429.22	5432.38
429.40	5259.18
429.59	5502.60
429.78	5338.76
429.97	5139.82
430.16	5507.28
430.34	5605.58
430.53	5736.65
430.72	5778.78
430.91	5593.88
431.10	5755.38
431.28	5799.85
431.47	5818.57
431.66	5778.78
431.85	5668.78
432.03	5879.43
432.22	5959.00
432.41	5888.79
432.60	5919.21
432.79	5987.09
432.97	6150.93
433.16	6143.91
433.35	5905.17
433.54	6008.16
433.72	6076.03
433.91	6022.20
434.10	5951.98
434.28	6010.50
434.47	6139.23
434.66	6211.78
434.85	6462.22
435.03	6171.99
435.22	6314.77
435.41	6319.45
435.59	6417.75
435.78	6525.41
435.97	6476.26
436.16	6380.30
436.34	6354.55
436.53	6471.58
436.72	6548.82
436.90	6424.77
437.09	6572.22
437.28	6455.20
437.46	6586.27
437.65	6562.86
437.84	6806.28
438.02	6710.32
438.21	6757.13
438.40	6698.61
438.58	6998.20
438.77	7126.93
438.96	6888.20
439.14	6942.03
439.33	7150.34
439.52	7265.02
439.70	7059.06
439.89	7426.52
440.08	7400.77
440.26	7325.88
440.45	7349.28
440.63	7592.70
440.82	7503.76
441.01	7466.31
441.19	7543.55
441.38	7660.57
441.57	7772.92
441.75	7789.30
441.94	7948.46
442.12	7798.66
442.31	8051.44
442.50	8063.15
442.68	8013.99
442.87	8046.76
443.05	8091.23
443.24	8348.69
443.43	8084.21
443.61	8339.33
443.80	8411.89
443.98	7934.42
444.17	7920.37
444.35	7981.23
444.54	8315.92
444.73	8241.03
444.91	8290.18
445.10	8351.03
445.28	8224.64
445.47	8210.60
445.65	8318.26
445.84	8395.50
446.02	8573.38
446.21	8362.73
446.39	8461.04
446.58	8617.85
446.77	8538.27
446.95	8327.63
447.14	8432.95
447.32	8489.12
447.51	8388.48
447.69	8465.72
447.88	8667.00
448.06	8397.84
448.25	8351.03
448.43	8620.19
448.62	8580.40
448.80	8489.12
448.99	8664.66
449.17	8739.56
449.36	8713.81
449.54	8952.55
449.73	9064.89
449.91	8919.78
450.10	9006.38
450.28	9137.45
450.46	8992.34
450.65	9069.58
450.83	8985.32
451.02	9067.24
451.20	9188.94
451.39	9109.36
451.57	9224.05
451.76	9090.64
451.94	9144.47
452.13	9329.38
452.31	9294.27
452.49	9097.66
452.68	9432.36
452.86	9312.99
453.05	9394.91
453.23	9383.21
453.42	9390.23
453.60	9359.80
453.78	9542.36
453.97	9500.23
454.15	9518.96
454.34	9570.45
454.52	9554.07
454.70	9790.46
454.89	9877.06
455.07	9727.27
455.26	9839.61
455.44	9963.66
455.62	9781.10
455.81	9703.86
455.99	9921.53
456.17	9968.34
456.36	10059.62
456.54	9982.38
456.73	10111.11
456.91	10588.58
457.09	10286.65
457.28	10450.49
457.46	10204.74
457.64	10532.41
457.83	10377.94
458.01	10537.09
458.19	10860.09
458.38	10464.54
458.56	10864.77
458.74	10731.36
458.93	10436.45
459.11	10696.25
459.29	10696.25
459.48	10729.02
459.66	10717.31
459.84	10808.59
460.03	11183.08
460.21	10841.36
460.39	11000.52
460.57	11234.57
460.76	11164.36
460.94	11112.86
461.12	10944.34
461.31	11222.87
461.49	11044.99
461.67	11084.78
461.85	11487.35
462.04	11183.08
462.22	11988.22
462.40	11517.78
462.59	11475.65
462.77	11412.45
462.95	11585.65
463.13	11667.57
463.32	11810.34
463.50	11878.22
463.68	11548.20
463.86	11819.71
464.05	11847.79
464.23	11672.25
464.41	11913.33
464.59	11623.10
464.78	12273.77
464.96	12035.03
465.14	11878.22
465.32	12025.67
465.50	12191.85
465.69	12063.12
465.87	12084.19
466.05	12210.57
466.23	12166.10
466.41	12475.06
466.60	12535.91
466.78	12283.13
466.96	12170.79
467.14	11974.18
467.32	12301.86
467.51	12376.75
467.69	12257.39
467.87	12500.80
468.05	12442.29
468.23	12449.31
468.41	12233.98
468.60	12582.72
468.78	12854.22
468.96	12849.54
469.14	12812.09
469.32	12807.41
469.50	12519.53
469.69	12919.76
469.87	13207.64
470.05	12999.34
470.23	13165.51
470.41	13146.79
470.59	13282.54
470.77	13380.84
470.95	13289.56
471.14	13504.89
471.32	12786.35
471.50	13448.72
471.68	13589.15
471.86	13472.12
472.04	13598.51
472.22	13841.93
472.40	13558.72
472.58	14136.84
472.77	13762.35
472.95	14244.50
473.13	14733.67
473.31	14178.97
473.49	14242.16
473.67	14340.46
473.85	14295.99
474.03	14546.43
474.21	14516.00
474.39	14644.73
474.57	15054.33
474.75	14768.78
474.93	15019.22
475.12	14572.18
475.30	14949.00
475.48	14953.68
475.66	15166.67
475.84	15091.77
476.02	15023.90
476.20	15365.62
476.38	15749.46
476.56	16107.57
476.74	16126.29
476.92	15988.20
477.10	15742.44
477.28	16217.57
477.46	16128.63
477.64	16358.00
477.82	16435.24
478.00	16737.17
478.18	16805.05
478.36	17006.33
478.54	17099.95
478.72	17273.15
478.90	17411.25
479.08	17584.44
479.26	17680.41
479.44	17783.39
479.62	17750.62
479.80	18052.55
479.98	18225.75
480.16	18513.64
480.34	18265.54
480.52	18394.27
480.70	18541.72
480.88	18431.72
481.06	18810.89
481.24	18710.24
481.41	19250.91
481.59	19311.76
481.77	19510.71
481.95	19461.55
482.13	19910.94
482.31	19941.36
482.49	20044.35
482.67	20044.35
482.85	20437.56
483.03	20680.97
483.21	20805.02
483.39	20737.15
483.57	20732.47
483.74	20950.14
483.92	21338.66
484.10	21296.53
484.28	21605.49
484.46	22270.20
484.64	22260.84
484.82	21743.58
485.00	22415.31
485.18	22443.40
485.35	22672.77
485.53	22686.81
485.71	22733.62
485.89	23349.18
486.07	23520.04
486.25	23105.77
486.43	23566.85
486.61	23873.46
486.78	23819.63
486.96	23892.19
487.14	24379.02
487.32	24870.53
487.50	24854.15
487.68	24936.07
487.85	25511.84
488.03	25420.56
488.21	25624.18
488.39	25715.47
488.57	25963.56
488.75	25816.11
488.92	26881.05
489.10	26661.04
489.28	26525.29
489.46	27007.44
489.64	27297.67
489.81	27346.82
489.99	27751.73
490.17	27843.01
490.35	28245.58
490.53	27920.25
490.70	28180.05
490.88	28039.62
491.06	28549.85
491.24	28886.89
491.41	29254.36
491.59	29127.97
491.77	29315.21
491.95	29373.72
492.13	29680.33
492.30	29963.54
492.48	29528.20
492.66	30225.68
492.84	30321.64
493.01	30813.15
493.19	31014.44
493.37	31016.78
493.54	31063.59
493.72	31608.93
493.90	31442.76
494.08	31791.50
494.25	32135.56
494.43	31871.07
494.61	32568.55
494.79	32203.43
494.96	32730.05
495.14	32772.18
495.32	33134.96
495.49	32903.25
495.67	32921.98
495.85	33509.45
496.02	33752.87
496.20	33881.60
496.38	33982.24
496.55	34106.29
496.73	35021.44
496.91	34595.46
497.09	35178.25
497.26	35218.04
497.44	34719.51
497.62	35070.59
497.79	35639.34
497.97	35152.51
498.14	36245.54
498.32	36187.02
498.50	36144.89
498.67	36392.99
498.85	36341.50
499.03	36535.76
499.20	36748.75
499.38	37069.40
499.56	37043.66
499.73	37226.22
499.91	37457.93
500.08	37546.87
500.26	37230.90
500.44	37380.70
500.61	37773.91
500.79	37462.61
500.97	38036.05
501.14	38225.63
501.32	38443.30
501.49	38689.06
501.67	38876.30
501.84	38810.76
502.02	38895.02
502.20	38742.89
502.37	39201.63
502.55	38667.99
502.72	39426.32
502.90	39826.56
503.07	39201.63
503.25	39569.10
503.43	39367.81
503.60	40336.79
503.78	40081.67
503.95	40151.89
504.13	40645.74
504.30	40388.28
504.48	40320.41
504.65	40814.26
504.83	40884.48
505.01	41455.57
505.18	41170.02
505.36	41457.91
505.53	41244.92
505.71	41635.79
505.88	41368.97
506.06	41633.45
506.23	42094.53
506.41	41579.62
506.58	41507.06
506.76	42066.45
506.93	42307.52
507.11	42101.56
507.28	42447.96
507.46	42410.51
507.63	42717.12
507.81	42925.42
507.98	42937.13
508.16	43203.95
508.33	43430.98
508.50	43491.83
508.68	43079.90
508.85	43878.02
509.03	43749.29
509.20	43800.79
509.38	44259.53
509.55	44058.24
509.73	44519.33
509.90	44662.10
510.08	44540.39
510.25	44308.68
510.42	44437.41
510.60	44842.32
510.77	45368.94
510.95	45167.66
511.12	45228.51
511.30	45078.72
511.47	44954.67
511.64	45511.72
511.82	45705.98
511.99	45530.44
512.17	46129.62
512.34	45914.29
512.51	46583.68
512.69	46050.04
512.86	46742.84
513.04	46670.28
513.21	46667.94
513.38	46981.57
513.56	46756.88
513.73	47033.07
513.90	47255.42
514.08	46490.06
514.25	47178.18
514.43	47423.93
514.60	47461.38
514.77	46848.16
514.95	47707.14
515.12	47437.98
515.29	47580.75
515.47	47859.27
515.64	47985.66
515.81	48093.33
515.99	47906.08
516.16	48500.58
516.33	48238.44
516.51	48746.34
516.68	48346.11
516.85	48687.82
517.03	48722.93
517.20	48905.49
517.37	48566.12
517.54	48788.47
517.72	48751.02
517.89	49132.53
518.06	48980.39
518.24	49081.03
518.41	49137.21
518.58	49120.82
518.75	49151.25
518.93	49153.59
519.10	49635.74
519.27	49647.44
519.45	49450.84
519.62	49806.60
519.79	49844.05
519.96	50024.27
520.14	50246.62
520.31	49841.71
520.48	50349.60
520.65	50178.75
520.83	50550.89
521.00	50700.68
521.17	50164.70
521.34	50630.47
521.52	51037.72
521.69	50681.96
521.86	51051.76
522.03	50883.25
522.20	50948.78
522.38	51311.56
522.55	51554.98
522.72	51320.93
522.89	51349.01
523.07	51601.79
523.24	51573.70
523.41	51672.01
523.58	51449.66
523.75	51910.74
523.92	51604.13
524.10	51786.69
524.27	52020.75
524.44	52149.48
524.61	51927.13
524.78	52053.51
524.96	52060.54
525.13	52289.91
525.30	52486.51
525.47	52598.86
525.64	52294.59
525.81	52650.35
525.98	52765.04
526.16	52336.72
526.33	52432.68
526.50	52807.17
526.67	52783.76
526.84	52863.34
527.01	52949.94
527.18	52954.62
527.36	52718.23
527.53	53387.62
527.70	53296.34
527.87	53371.24
528.04	53172.29
528.21	53191.01
528.38	53263.57
528.55	53837.00
528.72	53352.51
528.89	53380.60
529.07	53083.35
529.24	53322.08
529.41	53848.71
529.58	53588.91
529.75	53790.19
529.92	53792.53
530.09	53616.99
530.26	53769.13
530.43	54071.06
530.60	53829.98
530.77	53881.47
530.94	54131.91
531.11	53928.28
531.28	53961.05
531.46	54307.45
531.63	54094.46
531.80	54183.40
531.97	54515.76
532.14	54312.13
532.31	54354.26
532.48	54497.03
532.65	54403.41
532.82	54677.25
532.99	55021.31
533.16	54363.62
533.33	54749.81
533.50	54913.65
533.67	54838.75
533.84	54841.09
534.01	54908.97
534.18	55070.46
534.35	55313.88
534.52	55199.19
534.69	55154.72
534.86	55175.79
535.03	54939.39
535.20	55365.37
535.37	55187.49
535.54	55260.05
535.71	55557.30
535.88	55311.54
536.05	55367.71
536.22	55458.99
536.38	55632.19
536.55	55676.66
536.72	55622.83
536.89	55655.60
537.06	55618.15
537.23	55756.24
537.40	55508.14
537.57	55578.36
537.74	55657.94
537.91	55927.10
538.08	56013.70
538.25	55742.20
538.42	55814.76
538.59	56112.00
538.75	56013.70
538.92	56128.39
539.09	56217.33
539.26	56102.64
539.43	56191.58
539.60	56229.03
539.77	56051.15
539.94	56299.25
540.11	56313.29
540.28	56324.99
540.44	56395.21
540.61	56296.91
540.78	56112.00
540.95	56261.80
541.12	56523.94
541.29	56451.38
541.46	56680.75
541.62	56413.93
541.79	56863.32
541.96	56413.93
542.13	56390.53
542.30	56575.43
542.47	56926.51
542.63	56790.76
542.80	57022.47
542.97	57029.49
543.14	57251.84
543.31	57099.71
543.48	57153.54
543.64	57511.64
543.81	57403.98
543.98	57244.82
544.15	57296.31
544.32	57378.23
544.48	57694.21
544.65	57277.59
544.82	57581.86
544.99	57284.61
545.16	57537.39
545.32	57502.28
545.49	57769.10
545.66	57429.72
545.83	57584.20
546.00	57696.55
546.16	57530.37
546.33	57434.41
546.50	57420.36
546.67	57790.17
546.83	57279.93
547.00	57698.89
547.17	57848.68
547.34	57577.18
547.50	58127.20
547.67	58087.42
547.84	57860.38
548.00	58103.80
548.17	58183.38
548.34	57797.19
548.51	58064.01
548.67	58143.59
548.84	58134.23
549.01	57914.22
549.18	58092.10
549.34	58277.00
549.51	58335.51
549.68	58314.45
549.84	58049.97
550.01	58293.38
550.18	58108.48
550.34	58581.27
550.51	58522.76
550.68	58466.58
550.84	58150.61
551.01	58588.29
551.18	58485.31
551.34	58532.12
551.51	58672.55
551.68	58487.65
551.84	58623.40
552.01	58417.43
552.18	58576.59
552.34	58471.26
552.51	58590.63
552.68	58344.87
552.84	58637.44
553.01	58897.24
553.18	58801.28
553.34	58967.46
553.51	58536.80
553.67	58810.64
553.84	59000.22
554.01	58775.53
554.17	58908.94
554.34	58906.60
554.51	58850.43
554.67	58993.20
554.84	58955.75
555.00	58965.12
555.17	58901.92
555.33	58939.37
555.50	58827.02
555.67	58812.98
555.83	59037.67
556.00	58981.50
556.16	59463.65
556.33	59128.95
556.50	59072.78
556.66	59260.02
556.83	59222.58
556.99	59398.12
557.16	59470.67
557.32	59597.06
557.49	59475.35
557.65	59107.89
557.82	59465.99
557.98	59412.16
558.15	59231.94
558.32	59662.60
558.48	59133.63
558.65	59465.99
558.81	59671.96
558.98	59419.18
559.14	59568.97
559.31	59564.29
559.47	59746.86
559.64	59702.38
559.80	59777.28
559.97	59716.43
560.13	59435.56
560.30	59416.84
560.46	59721.11
560.63	59660.26
560.79	59896.65
560.96	59945.80
561.12	59824.09
561.29	59819.41
561.45	59798.35
561.61	59737.49
561.78	59941.12
561.94	59709.41
562.11	59880.27
562.27	59959.84
562.44	59803.03
562.60	60023.04
562.77	60065.17
562.93	60048.78
563.10	60074.53
563.26	59873.24
563.42	59992.61
563.59	60151.77
563.75	59971.55
563.92	60114.32
564.08	60114.32
564.24	60100.28
564.41	60163.47
564.57	59934.10
564.74	60044.10
564.90	59971.55
565.07	60016.02
565.23	59945.80
565.39	60231.35
565.56	60165.81
565.72	60128.36
565.88	60205.60
566.05	60163.47
566.21	60119.00
566.38	60250.07
566.54	60238.37
566.70	60341.35
566.87	60275.82
567.03	60074.53
567.19	60350.71
567.36	60470.08
567.52	60266.45
567.68	60453.70
567.85	60315.61
568.01	60292.20
568.17	60198.58
568.34	60392.84
568.50	60207.94
568.66	60212.62
568.83	60505.19
568.99	60425.61
569.15	60273.48
569.32	60238.37
569.48	60266.45
569.64	60392.84
569.81	60598.81
569.97	60147.09
570.13	60369.44
570.30	60350.71
570.46	60336.67
570.62	60477.10
570.78	60240.71
570.95	60294.54
571.11	60575.40
571.27	60310.92
571.43	60666.69
571.60	60591.79
571.76	60474.76
571.92	60605.83
572.09	60650.30
572.25	60528.59
572.41	60622.22
572.57	60460.72
572.74	60764.99
572.90	60434.97
573.06	60683.07
573.22	60671.37
573.38	60652.64
573.55	60680.73
573.71	60793.07
573.87	60617.53
574.03	60559.02
574.20	60701.79
574.36	60556.68
574.52	60664.35
574.68	60727.54
574.84	60818.82
575.01	60865.63
575.17	60685.41
575.33	60570.72
575.49	60769.67
575.65	60727.54
575.82	60786.05
575.98	60781.37
576.14	60891.38
576.30	60732.22
576.46	60615.19
576.62	60673.71
576.79	60903.08
576.95	60526.25
577.11	60828.18
577.27	60921.80
577.43	60851.59
577.59	60860.95
577.75	60736.90
577.92	60823.50
578.08	60542.64
578.24	60846.91
578.40	60905.42
578.56	60851.59
578.72	60893.72
578.88	60975.64
579.04	60823.50
579.21	60874.99
579.37	61104.37
579.53	60706.47
579.69	60842.23
579.85	60687.75
580.01	60807.12
580.17	60633.92
580.33	60757.97
580.49	60832.86
580.65	60963.93
580.82	60769.67
580.98	60793.07
581.14	60903.08
581.30	60949.89
581.46	60912.44
581.62	60804.78
581.78	60956.91
581.94	60966.27
582.10	60999.04
582.26	60821.16
582.42	60755.63
582.58	60856.27
582.74	60907.76
582.90	61008.40
583.06	60907.76
583.22	60722.86
583.38	60776.69
583.54	60753.29
583.70	61015.43
583.86	61048.19
584.02	60919.46
584.18	61195.65
584.34	60982.66
584.50	60954.57
584.66	60685.41
584.82	60823.50
584.98	61151.18
585.14	61083.30
585.30	60879.67
585.46	60851.59
585.62	60809.46
585.78	60966.27
585.94	60764.99
586.10	61008.40
586.26	60760.31
586.42	61132.45
586.58	61132.45
586.74	60928.83
586.90	60903.08
587.06	60985.00
587.22	60959.25
587.38	61043.51
587.54	61169.90
587.70	61242.46
587.86	60926.49
588.02	60996.70
588.18	60989.68
588.34	60931.17
588.49	60748.60
