SpectraSuite Data File
++++++++++++++++++++++++++++++++++++
Date: Fri Oct 25 11:22:37 EDT 2013
User: price-jones
Dark Spectrum Present: No
Reference Spectrum Present: No
Number of Sampled Component Spectra: 1
Spectrometers: USB2+H05261
Integration Time (usec): 100000 (USB2+H05261)
Spectra Averaged: 1 (USB2+H05261)
Boxcar Smoothing: 0 (USB2+H05261)
Correct for Electrical Dark: No (USB2+H05261)
Strobe/Lamp Enabled: No (USB2+H05261)
Correct for Detector Non-linearity: No (USB2+H05261)
Correct for Stray Light: No (USB2+H05261)
Number of Pixels in Processed Spectrum: 2048
>>>>>Begin Processed Spectral Data<<<<<
365.73	220.01
365.92	220.01
366.12	220.01
366.32	175.54
366.52	142.77
366.72	191.92
366.91	63.19
367.11	112.35
367.31	102.98
367.51	25.75
367.70	117.03
367.90	152.13
368.10	154.48
368.30	152.13
368.49	51.49
368.69	124.05
368.89	140.43
369.09	145.11
369.28	156.82
369.48	100.64
369.68	154.48
369.87	194.26
370.07	229.37
370.27	182.56
370.47	306.61
370.66	631.94
370.86	547.69
371.06	622.58
371.25	737.27
371.45	641.31
371.65	645.99
371.84	650.67
372.04	643.65
372.24	627.26
372.44	713.86
372.63	716.20
372.83	751.31
373.03	802.80
373.22	774.72
373.42	767.70
373.62	727.91
373.81	788.76
374.01	800.46
374.21	847.27
374.40	774.72
374.60	826.21
374.79	847.27
374.99	816.85
375.19	748.97
375.38	809.83
375.58	760.67
375.78	840.25
375.97	898.77
376.17	887.06
376.37	840.25
376.56	856.64
376.76	823.87
376.95	826.21
377.15	805.14
377.35	924.51
377.54	863.66
377.74	880.04
377.93	877.70
378.13	809.83
378.33	952.60
378.52	919.83
378.72	905.79
378.91	931.53
379.11	964.30
379.31	952.60
379.50	882.38
379.70	1006.43
379.89	1034.52
380.09	968.98
380.28	938.55
380.48	994.73
380.68	994.73
380.87	997.07
381.07	980.68
381.26	1060.26
381.46	964.30
381.65	1060.26
381.85	1020.47
382.04	1027.50
382.24	1135.16
382.43	1060.26
382.63	1102.39
382.83	1114.10
383.02	1088.35
383.22	1135.16
383.41	1102.39
383.61	1144.52
383.80	1078.99
384.00	1156.22
384.19	1156.22
384.39	1277.93
384.58	1097.71
384.78	1149.20
384.97	1172.61
385.17	1144.52
385.36	1149.20
385.56	1198.35
385.75	1165.59
385.95	1142.18
386.14	1247.51
386.34	1193.67
386.53	1231.12
386.72	1233.46
386.92	1137.50
387.11	1207.72
387.31	1277.93
387.50	1247.51
387.70	1261.55
387.89	1226.44
388.09	1296.66
388.28	1245.16
388.48	1273.25
388.67	1282.61
388.86	1359.85
389.06	1343.47
389.25	1425.39
389.45	1273.25
389.64	1338.79
389.84	1373.89
390.03	1373.89
390.22	1404.32
390.42	1301.34
390.61	1380.92
390.81	1430.07
391.00	1472.20
391.19	1439.43
391.39	1444.11
391.58	1474.54
391.78	1507.30
391.97	1481.56
392.16	1502.62
392.36	1490.92
392.55	1521.35
392.75	1572.84
392.94	1476.88
393.13	1565.82
393.33	1540.07
393.52	1570.50
393.71	1570.50
393.91	1542.41
394.10	1540.07
394.29	1586.88
394.49	1617.31
394.68	1696.89
394.88	1577.52
395.07	1629.01
395.26	1668.80
395.46	1647.74
395.65	1753.06
395.84	1736.68
396.04	1703.91
396.23	1781.15
396.42	1739.02
396.62	1825.62
396.81	1818.60
397.00	1867.75
397.19	1795.19
397.39	1872.43
397.58	1842.00
397.77	1856.04
397.97	1813.92
398.16	1865.41
398.35	1860.73
398.55	1926.26
398.74	1830.30
398.93	1970.73
399.12	1900.52
399.32	2017.54
399.51	1970.73
399.70	2045.63
399.90	1977.75
400.09	2052.65
400.28	1994.14
400.47	1975.41
400.67	1980.09
400.86	2005.84
401.05	2139.25
401.24	2062.01
401.44	2193.08
401.63	2111.16
401.82	2125.21
402.01	2106.48
402.21	2289.04
402.40	2275.00
402.59	2253.94
402.78	2298.41
402.97	2284.36
403.17	2256.28
403.36	2239.89
403.55	2399.05
403.74	2298.41
403.93	2513.74
404.13	2523.10
404.32	2392.03
404.51	2415.43
404.70	2328.83
404.89	2317.13
405.09	2448.20
405.28	2448.20
405.47	2518.42
405.66	2497.35
405.85	2487.99
406.05	2502.03
406.24	2558.21
406.43	2616.72
406.62	2607.36
406.81	2731.41
407.00	2698.64
407.20	2586.29
407.39	2710.34
407.58	2736.09
407.77	2703.32
407.96	2731.41
408.15	2738.43
408.34	2752.47
408.54	2888.22
408.73	2965.46
408.92	2939.71
409.11	2909.29
409.30	2853.11
409.49	2904.60
409.68	3002.91
409.87	2930.35
410.07	2970.14
410.26	3023.97
410.45	3077.80
410.64	3045.04
410.83	3052.06
411.02	3133.98
411.21	3148.02
411.40	3192.49
411.59	3201.85
411.78	3178.45
411.98	3166.74
412.17	3300.16
412.36	3309.52
412.55	3307.18
412.74	3503.78
412.93	3485.06
413.12	3370.37
413.31	3627.83
413.50	3456.97
413.69	3569.32
413.88	3588.04
414.07	3623.15
414.26	3630.17
414.45	3630.17
414.64	3667.62
414.83	3768.26
415.02	3815.07
415.22	3859.54
415.41	3857.20
415.60	3906.35
415.79	3845.50
415.98	3866.56
416.17	4030.40
416.36	3978.91
416.55	4224.67
416.74	4095.94
416.93	4131.05
417.12	4248.07
417.31	4297.22
417.50	4219.99
417.69	4355.74
417.88	4334.67
418.07	4248.07
418.26	4355.74
418.45	4414.25
418.64	4461.06
418.83	4458.72
419.02	4470.42
419.21	4615.54
419.39	4582.77
419.58	4444.68
419.77	4566.39
419.96	4517.23
420.15	4667.03
420.34	4484.47
420.53	4657.67
420.72	4882.36
420.91	4762.99
421.10	4903.42
421.29	4943.21
421.48	4746.61
421.67	4723.20
421.86	4809.80
422.05	4765.33
422.24	4837.89
422.43	4840.23
422.61	4980.66
422.80	4964.28
422.99	4870.65
423.18	4898.74
423.37	5128.11
423.56	4997.04
423.75	4910.44
423.94	4910.44
424.13	4660.01
424.32	4887.04
424.50	5046.20
424.69	4954.91
424.88	5032.15
425.07	4961.94
425.26	4901.08
425.45	5118.75
425.64	5006.41
425.83	4961.94
426.01	4983.00
426.20	5088.32
426.39	5195.99
426.58	4999.38
426.77	5123.43
426.96	5109.39
427.15	5144.50
427.33	5231.10
427.52	5188.97
427.71	5338.76
427.90	5355.15
428.09	5453.45
428.28	5324.72
428.46	5315.36
428.65	5460.47
428.84	5554.09
429.03	5708.57
429.22	5329.40
429.40	5694.52
429.59	5483.88
429.78	5331.74
429.97	5362.17
430.16	5427.70
430.34	5666.44
430.53	5666.44
430.72	5790.49
430.91	5687.50
431.10	5570.48
431.28	5767.08
431.47	5834.96
431.66	5966.03
431.85	5755.38
432.03	6010.50
432.22	6176.67
432.41	6059.65
432.60	5982.41
432.79	6059.65
432.97	6155.61
433.16	6033.90
433.35	6061.99
433.54	6181.35
433.72	6230.51
433.91	6120.50
434.10	6183.70
434.28	6071.35
434.47	6258.59
434.66	6319.45
434.85	6401.37
435.03	6438.81
435.22	6265.61
435.41	6539.46
435.59	6469.24
435.78	6464.56
435.97	6656.48
436.16	6567.54
436.34	6289.02
436.53	6752.45
436.72	6677.55
436.90	6558.18
437.09	6836.70
437.28	6539.46
437.46	6647.12
437.65	6712.66
437.84	6841.39
438.02	6789.89
438.21	6846.07
438.40	6698.61
438.58	7066.08
438.77	7087.14
438.96	7138.63
439.14	7276.73
439.33	7288.43
439.52	7133.95
439.70	7410.14
439.89	7499.08
440.08	7391.41
440.26	7463.97
440.45	7339.92
440.63	7543.55
440.82	7618.44
441.01	7651.21
441.19	7761.22
441.38	7740.15
441.57	7988.25
441.75	7857.18
441.94	8121.66
442.12	8112.30
442.31	8006.97
442.50	8081.87
442.68	8100.59
442.87	8180.17
443.05	8074.85
443.24	8236.35
443.43	8315.92
443.61	8386.14
443.80	8407.20
443.98	8154.43
444.17	7957.82
444.35	8238.69
444.54	8585.08
444.73	8329.97
444.91	8320.60
445.10	8437.63
445.28	8327.63
445.47	8294.86
445.65	8489.12
445.84	8652.96
446.02	8526.57
446.21	8542.96
446.39	8557.00
446.58	8725.52
446.77	8774.67
446.95	8194.22
447.14	8573.38
447.32	8571.04
447.51	8594.45
447.69	8381.46
447.88	8648.28
448.06	8575.72
448.25	8690.41
448.43	8498.49
448.62	8727.86
448.80	8636.58
448.99	8767.65
449.17	8779.35
449.36	8908.08
449.54	9034.47
449.73	9032.13
449.91	9128.09
450.10	9135.11
450.28	9053.19
450.46	8938.51
450.65	9280.22
450.83	9146.81
451.02	9046.17
451.20	9200.65
451.39	9315.33
451.57	9142.13
451.76	9217.03
451.94	9373.85
452.13	9423.00
452.31	9142.13
452.49	9259.16
452.68	9717.90
452.86	9366.82
453.05	9596.20
453.23	9577.47
453.42	9514.28
453.60	9336.40
453.78	9689.82
453.97	9907.49
454.15	9741.31
454.34	9430.02
454.52	9788.12
454.70	9694.50
454.89	9731.95
455.07	9867.70
455.26	9944.94
455.44	10001.11
455.62	9994.09
455.81	10141.54
455.99	10225.80
456.17	10235.16
456.36	10272.61
456.54	10267.93
456.73	10235.16
456.91	10621.35
457.09	10464.54
457.28	10602.63
457.46	10413.04
457.64	10738.38
457.83	10635.39
458.01	10654.12
458.19	10956.05
458.38	10518.37
458.56	10729.02
458.74	10614.33
458.93	10792.21
459.11	10700.93
459.29	10771.15
459.48	10904.56
459.66	11030.94
459.84	10881.15
460.03	11150.31
460.21	11049.67
460.39	11080.10
460.57	11164.36
460.76	11164.36
460.94	11300.11
461.12	11253.30
461.31	11487.35
461.49	11449.90
461.67	11386.71
461.85	11620.76
462.04	11531.82
462.22	12037.38
462.40	11838.43
462.59	11613.74
462.77	11864.18
462.95	11887.58
463.13	11803.32
463.32	11967.16
463.50	11871.20
463.68	11747.15
463.86	11990.56
464.05	11709.70
464.23	11882.90
464.41	12269.09
464.59	11819.71
464.78	12367.39
464.96	12196.53
465.14	12023.33
465.32	12205.89
465.50	12210.57
465.69	12138.02
465.87	12475.06
466.05	12252.70
466.23	12189.51
466.41	12093.55
466.60	12781.67
466.78	12374.41
466.96	12425.90
467.14	12336.96
467.32	12571.02
467.51	12650.60
467.69	12203.55
467.87	12521.87
468.05	12638.89
468.23	12568.68
468.41	12599.10
468.60	12807.41
468.78	12784.01
468.96	12889.33
469.14	12924.44
469.32	13018.06
469.50	12894.01
469.69	13099.98
469.87	13252.11
470.05	13104.66
470.23	13418.29
470.41	13158.49
470.59	13249.77
470.77	13125.72
470.95	13437.02
471.14	13699.16
471.32	13327.01
471.50	13514.25
471.68	13577.45
471.86	13809.16
472.04	13830.23
472.22	14326.42
472.40	13809.16
472.58	13991.72
472.77	14384.93
472.95	14188.33
473.13	14574.52
473.31	14314.72
473.49	14274.93
473.67	14363.87
473.85	14476.21
474.03	14932.62
474.21	14761.76
474.39	14967.73
474.57	14853.04
474.75	15150.29
474.93	15101.14
475.12	15370.30
475.30	15267.31
475.48	15229.87
475.66	15522.43
475.84	15246.25
476.02	15786.91
476.20	15587.97
476.38	15613.71
476.56	16184.80
476.74	16259.70
476.92	16053.73
477.10	15908.62
477.28	16496.10
477.46	16262.04
477.64	16657.59
477.82	16620.14
478.00	16924.41
478.18	16805.05
478.36	16933.78
478.54	17397.20
478.72	17455.72
478.90	17600.83
479.08	17797.43
479.26	17846.58
479.44	18010.42
479.62	18174.26
479.80	18162.56
479.98	18464.49
480.16	18822.59
480.34	18396.61
480.52	19129.20
480.70	18808.54
480.88	18625.98
481.06	19012.17
481.24	18881.10
481.41	19461.55
481.59	19637.09
481.77	19613.69
481.95	19655.82
482.13	19658.16
482.31	19908.60
482.49	20800.34
482.67	20306.49
482.85	20566.29
483.03	20896.30
483.21	21144.40
483.39	21043.76
483.57	21371.43
483.74	21689.74
483.92	21570.38
484.10	21422.92
484.28	21907.41
484.46	22363.82
484.64	22576.81
484.82	22317.01
485.00	22469.14
485.18	22869.37
485.35	23129.17
485.53	22972.36
485.71	23215.77
485.89	23868.78
486.07	23674.52
486.25	23555.15
486.43	23988.15
486.61	24067.73
486.78	24474.98
486.96	24547.54
487.14	24793.29
487.32	24931.39
487.50	25369.07
487.68	25399.49
487.85	25333.96
488.03	25965.90
488.21	26202.30
488.39	26125.06
488.57	26771.05
488.75	26672.74
488.92	26675.09
489.10	27147.87
489.28	26927.86
489.46	27346.82
489.64	27253.20
489.81	28266.65
489.99	28032.60
490.17	28318.14
490.35	28116.86
490.53	28584.96
490.70	28954.77
490.88	28725.39
491.06	28989.88
491.24	29376.06
491.41	29280.10
491.59	29551.60
491.77	29626.50
491.95	29853.53
492.13	29986.94
492.30	30141.42
492.48	30394.20
492.66	30796.77
492.84	30845.92
493.01	31089.34
493.19	30988.69
493.37	31307.01
493.54	31737.66
493.72	31700.22
493.90	31323.39
494.08	31812.56
494.25	32467.91
494.43	32353.23
494.61	32952.40
494.79	32706.65
494.96	33097.52
495.14	33404.13
495.32	33364.34
495.49	33242.63
495.67	33556.26
495.85	34251.40
496.02	33902.66
496.20	34426.94
496.38	34405.88
496.55	34401.19
496.73	35150.17
496.91	34932.50
497.09	35171.23
497.26	35222.72
497.44	35276.55
497.62	35992.76
497.79	35981.06
497.97	36142.55
498.14	36271.28
498.32	36514.70
498.50	36664.49
498.67	36945.36
498.85	36928.97
499.03	37263.67
499.20	37141.96
499.38	37462.61
499.56	37383.04
499.73	37490.70
499.91	37436.87
500.08	37801.99
500.26	38033.71
500.44	38220.95
500.61	38560.33
500.79	38106.26
500.97	38569.69
501.14	38733.53
501.32	38831.83
501.49	38909.07
501.67	39374.83
501.84	39395.90
502.02	39335.04
502.20	39627.61
502.37	39707.19
502.55	40004.44
502.72	39791.45
502.90	40030.18
503.07	39945.92
503.25	40467.86
503.43	40093.38
503.60	40781.49
503.78	40797.88
503.95	40863.41
504.13	40617.66
504.30	41228.54
504.48	41130.23
504.65	40825.96
504.83	41549.19
505.01	42043.04
505.18	41546.85
505.36	42281.78
505.53	41249.60
505.71	41577.28
505.88	42059.43
506.06	41944.74
506.23	42532.22
506.41	42323.91
506.58	42923.08
506.76	42763.93
506.93	43100.97
507.11	42930.11
507.28	42813.08
507.46	43328.00
507.63	43414.60
507.81	43854.62
507.98	43194.59
508.16	43489.49
508.33	43688.44
508.50	43643.97
508.68	44149.53
508.85	44311.02
509.03	44313.36
509.20	44559.12
509.38	44669.12
509.55	44849.35
509.73	44879.77
509.90	44863.39
510.08	44989.78
510.25	45448.52
510.42	45020.20
510.60	45476.61
510.77	45794.92
510.95	45801.94
511.12	45357.24
511.30	45640.45
511.47	45736.41
511.64	46115.58
511.82	46490.06
511.99	45895.56
512.17	46234.94
512.34	46141.32
512.51	46452.61
512.69	46696.03
512.86	46508.79
513.04	47313.93
513.21	47044.77
513.38	46871.57
513.56	47543.30
513.73	47269.46
513.90	47269.46
514.08	47505.85
514.25	47419.25
514.43	47838.21
514.60	47873.32
514.77	47899.06
514.95	47611.18
515.12	48034.81
515.29	48044.18
515.47	48467.81
515.64	48493.56
515.81	48348.45
515.99	48699.53
516.16	48816.55
516.33	48804.85
516.51	49066.99
516.68	48533.35
516.85	48596.54
517.03	49144.23
517.20	49507.01
517.37	49041.24
517.54	49209.76
517.72	49439.14
517.89	49411.05
518.06	49560.84
518.24	49677.87
518.41	49394.67
518.58	50005.55
518.75	49446.16
518.93	50131.93
519.10	49745.75
519.27	50220.87
519.45	50101.51
519.62	50520.46
519.79	50618.77
519.96	50347.26
520.14	50365.99
520.31	50288.75
520.48	50859.84
520.65	50780.26
520.83	51421.57
521.00	51154.75
521.17	50944.10
521.34	50775.58
521.52	51454.34
521.69	51157.09
521.86	51250.71
522.03	51608.81
522.20	51608.81
522.38	51931.81
522.55	51672.01
522.72	51554.98
522.89	51742.22
523.07	52002.02
523.24	52025.43
523.41	52034.79
523.58	51952.87
523.75	52285.23
523.92	52170.54
524.10	52355.44
524.27	52149.48
524.44	52535.66
524.61	52395.23
524.78	52676.10
524.96	52882.06
525.13	52734.61
525.30	52994.41
525.47	52729.93
525.64	52619.92
525.81	52851.64
525.98	53411.02
526.16	53123.14
526.33	52886.74
526.50	53649.76
526.67	53064.63
526.84	53366.55
527.01	53265.91
527.18	53401.66
527.36	53130.16
527.53	53076.33
527.70	53748.06
527.87	53696.57
528.04	53474.22
528.21	53773.81
528.38	53652.10
528.55	54035.95
528.72	53759.76
528.89	53935.30
529.07	53558.48
529.24	53687.21
529.41	53937.65
529.58	53799.55
529.75	54127.23
529.92	53825.30
530.09	54071.06
530.26	54354.26
530.43	54319.15
530.60	54019.56
530.77	54202.13
530.94	54490.01
531.11	54429.16
531.28	54665.55
531.46	54494.69
531.63	54408.09
531.80	54742.79
531.97	54810.67
532.14	54808.32
532.31	54672.57
532.48	55089.19
532.65	54820.03
532.82	54820.03
532.99	55056.42
533.16	54965.14
533.33	55096.21
533.50	55316.22
533.67	54930.03
533.84	55430.91
534.01	55131.32
534.18	55213.24
534.35	55325.58
534.52	55484.74
534.69	55360.69
534.86	55791.35
535.03	55576.02
535.20	55398.14
535.37	55646.24
535.54	55863.91
535.71	55519.85
535.88	55735.18
536.05	56027.74
536.22	55887.31
536.38	55985.61
536.55	55894.33
536.72	56090.94
536.89	55877.95
537.06	55990.30
537.23	56168.18
537.40	55929.44
537.57	56203.28
537.74	56285.20
537.91	56257.12
538.08	56315.63
538.25	56034.77
538.42	56179.88
538.59	56533.30
538.75	56420.95
538.92	56301.59
539.09	56615.22
539.26	56427.98
539.43	56409.25
539.60	56587.13
539.77	56481.81
539.94	56769.69
540.11	56872.68
540.28	56755.65
540.44	56610.54
540.61	56765.01
540.78	56750.97
540.95	56910.13
541.12	56683.09
541.29	56741.61
541.46	56697.14
541.62	57165.24
541.79	57064.60
541.96	56470.11
542.13	56769.69
542.30	57228.44
542.47	57240.14
542.63	57258.87
542.80	57045.88
542.97	57373.55
543.14	57202.69
543.31	57595.90
543.48	57567.82
543.64	57738.68
543.81	57591.22
543.98	57668.46
544.15	57619.31
544.32	57769.10
544.48	57801.87
544.65	57481.22
544.82	57694.21
544.99	57432.07
545.16	57858.04
545.32	57719.95
545.49	58028.90
545.66	58089.76
545.83	57993.79
546.00	57979.75
546.16	57907.19
546.33	58019.54
546.50	57710.59
546.67	58094.44
546.83	57773.78
547.00	58152.95
547.17	58237.21
547.34	58272.32
547.50	58157.63
547.67	58295.72
547.84	58211.46
548.00	58401.05
548.17	58550.84
548.34	58309.77
548.51	58363.60
548.67	58562.54
548.84	58431.47
549.01	58312.11
549.18	58298.06
549.34	58487.65
549.51	58513.39
549.68	58623.40
549.84	58478.28
550.01	58667.87
550.18	58368.28
550.34	58834.05
550.51	58504.03
550.68	58834.05
550.84	58302.74
551.01	58663.19
551.18	58756.81
551.34	58857.45
551.51	58925.33
551.68	58766.17
551.84	58728.72
552.01	58796.60
552.18	59058.74
552.34	59049.38
552.51	59145.34
552.68	58990.86
552.84	59018.95
553.01	59032.99
553.18	59161.72
553.34	59297.47
553.51	59192.15
553.67	59173.42
553.84	59377.05
554.01	59140.66
554.17	59238.96
554.34	59105.55
554.51	59302.15
554.67	59363.01
554.84	59454.29
555.00	59140.66
555.17	59292.79
555.33	59377.05
555.50	59323.22
555.67	59238.96
555.83	59199.17
556.00	59386.41
556.16	59772.60
556.33	59606.42
556.50	59531.53
556.66	59772.60
556.83	59458.97
556.99	59746.86
557.16	59770.26
557.32	59826.43
557.49	59910.69
557.65	59561.95
557.82	59732.81
557.98	59533.87
558.15	59700.04
558.32	59880.27
558.48	59592.38
558.65	59781.96
558.81	59999.63
558.98	59742.17
559.14	59781.96
559.31	59994.95
559.47	60233.69
559.64	59955.16
559.80	59966.87
559.97	60100.28
560.13	59910.69
560.30	59910.69
560.46	60107.30
560.63	59978.57
560.79	60051.12
560.96	59962.18
561.12	60055.81
561.29	60051.12
561.45	60100.28
561.61	60140.07
561.78	59948.14
561.94	60116.66
562.11	60095.60
562.27	60156.45
562.44	60275.82
562.60	60210.28
562.77	60329.65
562.93	60151.77
563.10	60175.17
563.26	60025.38
563.42	60418.59
563.59	60165.81
563.75	60233.69
563.92	60355.39
564.08	60226.66
564.24	60509.87
564.41	60383.48
564.57	60376.46
564.74	60252.41
564.90	60453.70
565.07	60250.07
565.23	60306.24
565.39	60472.42
565.56	60493.49
565.72	60404.55
565.88	60542.64
566.05	60339.01
566.21	60292.20
566.38	60378.80
566.54	60514.55
566.70	60669.03
566.87	60673.71
567.03	60334.33
567.19	60844.57
567.36	60608.17
567.52	60453.70
567.68	60830.52
567.85	60748.60
568.01	60603.49
568.17	60666.69
568.34	60690.09
568.50	60582.43
568.66	60629.24
568.83	60566.04
568.99	60463.06
569.15	60645.62
569.32	60570.72
569.48	60638.60
569.64	60818.82
569.81	60750.94
569.97	60783.71
570.13	60858.61
570.30	60767.33
570.46	60762.65
570.62	60874.99
570.78	60954.57
570.95	60764.99
571.11	60879.67
571.27	60828.18
571.43	60844.57
571.60	61083.30
571.76	60987.34
571.92	60865.63
572.09	60839.89
572.25	60739.24
572.41	60856.27
572.57	60889.04
572.74	61195.65
572.90	60816.48
573.06	60867.97
573.22	60994.36
573.38	60973.30
573.55	60935.85
573.71	61066.92
573.87	61017.77
574.03	60683.07
574.20	60961.59
574.36	60851.59
574.52	61069.26
574.68	60987.34
574.84	61275.22
575.01	61069.26
575.17	60961.59
575.33	60762.65
575.49	60914.78
575.65	61099.68
575.82	61020.11
575.98	61034.15
576.14	61282.25
576.30	61155.86
576.46	61029.47
576.62	61034.15
576.79	60973.30
576.95	60860.95
577.11	61132.45
577.27	61127.77
577.43	60992.02
577.59	61050.53
577.75	60980.32
577.92	60811.80
578.08	60992.02
578.24	61146.50
578.40	61251.82
578.56	61080.96
578.72	60982.66
578.88	61212.03
579.04	61286.93
579.21	61223.73
579.37	61261.18
579.53	61298.63
579.69	60919.46
579.85	61102.03
580.01	61130.11
580.17	61006.06
580.33	61186.28
580.49	61305.65
580.65	61396.93
580.82	61151.18
580.98	61090.32
581.14	61041.17
581.30	61085.64
581.46	60975.64
581.62	61272.88
581.78	61113.73
581.94	61247.14
582.10	61183.94
582.26	61183.94
582.42	61085.64
582.58	61179.26
582.74	61048.19
582.90	61172.24
583.06	61408.64
583.22	61020.11
583.38	61254.16
583.54	61251.82
583.70	61340.76
583.86	61392.25
584.02	61048.19
584.18	61254.16
584.34	61338.42
584.50	61305.65
584.66	61052.87
584.82	61052.87
584.98	61453.11
585.14	61408.64
585.30	61010.74
585.46	61116.07
585.62	61366.51
585.78	61439.06
585.94	61155.86
586.10	61457.79
586.26	61364.17
586.42	61212.03
586.58	61492.89
586.74	61284.59
586.90	61249.48
587.06	61132.45
587.22	61457.79
587.38	61310.33
587.54	61513.96
587.70	61546.73
587.86	61291.61
588.02	61403.95
588.18	61403.95
588.34	61511.62
588.49	61387.57
