SpectraSuite Data File
++++++++++++++++++++++++++++++++++++
Date: Fri Oct 25 11:25:17 EDT 2013
User: price-jones
Dark Spectrum Present: No
Reference Spectrum Present: No
Number of Sampled Component Spectra: 1
Spectrometers: USB2+H05261
Integration Time (usec): 100000 (USB2+H05261)
Spectra Averaged: 1 (USB2+H05261)
Boxcar Smoothing: 0 (USB2+H05261)
Correct for Electrical Dark: No (USB2+H05261)
Strobe/Lamp Enabled: No (USB2+H05261)
Correct for Detector Non-linearity: No (USB2+H05261)
Correct for Stray Light: No (USB2+H05261)
Number of Pixels in Processed Spectrum: 2048
>>>>>Begin Processed Spectral Data<<<<<
365.73	227.03
365.92	227.03
366.12	227.03
366.32	133.41
366.52	135.75
366.72	107.66
366.91	95.96
367.11	166.18
367.31	156.82
367.51	189.58
367.70	110.01
367.90	124.05
368.10	124.05
368.30	142.77
368.49	198.95
368.69	100.64
368.89	145.11
369.09	156.82
369.28	173.20
369.48	152.13
369.68	163.84
369.87	168.52
370.07	170.86
370.27	262.14
370.47	315.97
370.66	540.66
370.86	629.60
371.06	648.33
371.25	697.48
371.45	653.01
371.65	748.97
371.84	739.61
372.04	737.27
372.24	568.75
372.44	643.65
372.63	695.14
372.83	765.36
373.03	765.36
373.22	784.08
373.42	777.06
373.62	725.57
373.81	746.63
374.01	858.98
374.21	774.72
374.40	744.29
374.60	863.66
374.79	854.30
374.99	805.14
375.19	814.51
375.38	884.72
375.58	835.57
375.78	837.91
375.97	863.66
376.17	887.06
376.37	805.14
376.56	901.11
376.76	917.49
376.95	863.66
377.15	870.68
377.35	915.15
377.54	926.85
377.74	830.89
377.93	896.43
378.13	835.57
378.33	933.87
378.52	950.26
378.72	926.85
378.91	959.62
379.11	983.02
379.31	952.60
379.50	961.96
379.70	985.37
379.89	894.08
380.09	1013.45
380.28	926.85
380.48	1008.77
380.68	968.98
380.87	961.96
381.07	1032.18
381.26	1018.13
381.46	903.45
381.65	1018.13
381.85	1048.56
382.04	1097.71
382.24	1060.26
382.43	1097.71
382.63	1043.88
382.83	1146.86
383.02	1109.41
383.22	1167.93
383.41	1001.75
383.61	1022.81
383.80	1165.59
384.00	1116.44
384.19	1188.99
384.39	1116.44
384.58	1071.97
384.78	1123.46
384.97	1156.22
385.17	1221.76
385.36	1118.78
385.56	1191.33
385.75	1167.93
385.95	1184.31
386.14	1149.20
386.34	1097.71
386.53	1146.86
386.72	1207.72
386.92	1181.97
387.11	1233.46
387.31	1146.86
387.50	1224.10
387.70	1259.21
387.89	1235.80
388.09	1259.21
388.28	1235.80
388.48	1259.21
388.67	1249.85
388.86	1280.27
389.06	1322.40
389.25	1331.76
389.45	1266.23
389.64	1383.26
389.84	1373.89
390.03	1294.32
390.22	1380.92
390.42	1343.47
390.61	1317.72
390.81	1359.85
391.00	1348.15
391.19	1467.52
391.39	1434.75
391.58	1411.34
391.78	1423.05
391.97	1467.52
392.16	1458.15
392.36	1516.67
392.55	1488.58
392.75	1404.32
392.94	1528.37
393.13	1488.58
393.33	1568.16
393.52	1500.28
393.71	1565.82
393.91	1671.14
394.10	1500.28
394.29	1516.67
394.49	1614.97
394.68	1619.65
394.88	1591.56
395.07	1645.40
395.26	1657.10
395.46	1699.23
395.65	1668.80
395.84	1701.57
396.04	1809.23
396.23	1783.49
396.42	1757.74
396.62	1736.68
396.81	1748.38
397.00	1724.97
397.19	1811.57
397.39	1811.57
397.58	1783.49
397.77	1811.57
397.97	1886.47
398.16	1762.42
398.35	1907.54
398.55	1774.13
398.74	1900.52
398.93	1954.35
399.12	1919.24
399.32	1867.75
399.51	1930.94
399.70	1994.14
399.90	1989.46
400.09	1973.07
400.28	2015.20
400.47	1975.41
400.67	2043.29
400.86	2036.27
401.05	2017.54
401.24	2005.84
401.44	2017.54
401.63	2069.03
401.82	2157.97
402.01	2167.34
402.21	2242.23
402.40	2160.31
402.59	2225.85
402.78	2165.00
402.97	2258.62
403.17	2237.55
403.36	2223.51
403.55	2256.28
403.74	2235.21
403.93	2342.88
404.13	2385.01
404.32	2352.24
404.51	2291.38
404.70	2438.84
404.89	2513.74
405.09	2466.92
405.28	2377.98
405.47	2518.42
405.66	2406.07
405.85	2448.20
406.05	2565.23
406.24	2495.01
406.43	2600.34
406.62	2626.08
406.81	2654.17
407.00	2532.46
407.20	2612.04
407.39	2696.30
407.58	2747.79
407.77	2705.66
407.96	2583.95
408.15	2684.59
408.34	2679.91
408.54	2736.09
408.73	2808.64
408.92	2827.37
409.11	2864.82
409.30	2740.77
409.49	2906.95
409.68	2974.82
409.87	2956.10
410.07	3045.04
410.26	2986.52
410.45	3028.65
410.64	3033.33
410.83	2942.05
411.02	3049.72
411.21	3215.90
411.40	3150.36
411.59	3225.26
411.78	3096.53
411.98	3262.71
412.17	3150.36
412.36	3344.63
412.55	3375.05
412.74	3421.86
412.93	3386.76
413.12	3342.28
413.31	3517.83
413.50	3506.12
413.69	3428.88
413.88	3524.85
414.07	3599.74
414.26	3576.34
414.45	3669.96
414.64	3639.53
414.83	3698.05
415.02	3723.79
415.22	3885.29
415.41	3894.65
415.60	3714.43
415.79	3843.16
415.98	3985.93
416.17	3889.97
416.36	3974.23
416.55	4016.36
416.74	4016.36
416.93	3918.06
417.12	3985.93
417.31	4098.28
417.50	4067.85
417.69	4156.79
417.88	4126.36
418.07	4294.88
418.26	4301.90
418.45	4367.44
418.64	4669.37
418.83	4320.63
419.02	4465.74
419.21	4463.40
419.39	4507.87
419.58	4486.81
419.77	4482.13
419.96	4571.07
420.15	4568.73
420.34	4601.49
420.53	4479.79
420.72	4671.71
420.91	4681.07
421.10	4720.86
421.29	4770.01
421.48	4610.86
421.67	4765.33
421.86	4873.00
422.05	4676.39
422.24	4819.16
422.43	4814.48
422.61	4880.02
422.80	4905.76
422.99	4840.23
423.18	4933.85
423.37	4992.36
423.56	4875.34
423.75	4985.34
423.94	4903.42
424.13	4758.31
424.32	4779.37
424.50	4922.15
424.69	5039.17
424.88	4877.68
425.07	4873.00
425.26	4858.95
425.45	4940.87
425.64	4985.34
425.83	4924.49
426.01	5153.86
426.20	4873.00
426.39	5036.83
426.58	5090.67
426.77	5001.72
426.96	5242.80
427.15	5090.67
427.33	5167.90
427.52	5050.88
427.71	5425.36
427.90	5313.02
428.09	5270.89
428.28	5317.70
428.46	5315.36
428.65	5444.09
428.84	5359.83
429.03	5406.64
429.22	5378.55
429.40	5408.98
429.59	5481.53
429.78	5240.46
429.97	5310.68
430.16	5570.48
430.34	5561.11
430.53	5668.78
430.72	5523.66
430.91	5706.23
431.10	5605.58
431.28	5722.61
431.47	5717.93
431.66	5762.40
431.85	5713.25
432.03	5872.40
432.22	5949.64
432.41	5966.03
432.60	5858.36
432.79	6010.50
432.97	6059.65
433.16	5949.64
433.35	5940.28
433.54	5982.41
433.72	6085.39
433.91	6040.92
434.10	6141.57
434.28	5888.79
434.47	6249.23
434.66	6258.59
434.85	6200.08
435.03	6244.55
435.22	6190.72
435.41	6394.34
435.59	6272.64
435.78	6602.65
435.97	6462.22
436.16	6586.27
436.34	6211.78
436.53	6469.24
436.72	6558.18
436.90	6331.15
437.09	6656.48
437.28	6656.48
437.46	6677.55
437.65	6560.52
437.84	6679.89
438.02	6628.40
438.21	6904.58
438.40	6682.23
438.58	6883.52
438.77	7063.74
438.96	7033.31
439.14	6993.52
439.33	7166.72
439.52	7236.94
439.70	7026.29
439.89	7276.73
440.08	7176.08
440.26	7286.09
440.45	7293.11
440.63	7440.56
440.82	7459.29
441.01	7438.22
441.19	7618.44
441.38	7653.55
441.57	7644.19
441.75	7445.24
441.94	7819.73
442.12	7915.69
442.31	8170.81
442.50	7892.29
442.68	7805.69
442.87	8114.64
443.05	8173.15
443.24	7995.27
443.43	8194.22
443.61	8126.34
443.80	8559.34
443.98	8208.26
444.17	7754.19
444.35	8259.75
444.54	8182.51
444.73	8147.40
444.91	8292.52
445.10	8325.29
445.28	8313.58
445.47	8290.18
445.65	8086.55
445.84	8524.23
446.02	8353.37
446.21	8294.86
446.39	8313.58
446.58	8475.08
446.77	8482.10
446.95	8128.68
447.14	8435.29
447.32	8489.12
447.51	8458.70
447.69	8325.29
447.88	8439.97
448.06	8582.74
448.25	8510.19
448.43	8381.46
448.62	8458.70
448.80	8500.83
448.99	8599.13
449.17	8788.71
449.36	8552.32
449.54	8765.31
449.73	8767.65
449.91	8889.35
450.10	8844.88
450.28	8936.17
450.46	8947.87
450.65	9139.79
450.83	8858.93
451.02	8863.61
451.20	9179.58
451.39	9102.34
451.57	9036.81
451.76	8936.17
451.94	9006.38
452.13	9245.12
452.31	9277.88
452.49	9160.86
452.68	9296.61
452.86	9287.25
453.05	9352.78
453.23	9376.19
453.42	9219.37
453.60	9298.95
453.78	9570.45
453.97	9338.74
454.15	9362.14
454.34	9324.69
454.52	9528.32
454.70	9535.34
454.89	9600.88
455.07	9687.48
455.26	9614.92
455.44	9795.14
455.62	9888.76
455.81	9781.10
455.99	9771.74
456.17	10047.92
456.36	9804.50
456.54	10171.97
456.73	10218.78
456.91	10480.92
457.09	10298.36
457.28	10307.72
457.46	10202.40
457.64	10417.72
457.83	10630.71
458.01	10361.55
458.19	10553.48
458.38	10553.48
458.56	10462.19
458.74	10635.39
458.93	10516.03
459.11	10600.29
459.29	10448.15
459.48	10775.83
459.66	10782.85
459.84	10794.55
460.03	11119.89
460.21	11012.22
460.39	10911.58
460.57	10958.39
460.76	11241.59
460.94	11122.23
461.12	10923.28
461.31	11052.01
461.49	11019.24
461.67	11030.94
461.85	11396.07
462.04	11225.21
462.22	11873.54
462.40	11485.01
462.59	11253.30
462.77	11595.01
462.95	11564.59
463.13	11382.03
463.32	11662.89
463.50	11597.35
463.68	11712.04
463.86	11852.47
464.05	11417.13
464.23	11489.69
464.41	11791.62
464.59	11536.50
464.78	11971.84
464.96	11892.26
465.14	11609.06
465.32	11838.43
465.50	12018.65
465.69	12145.04
465.87	12039.72
466.05	11978.86
466.23	12173.13
466.41	12369.73
466.60	12355.69
466.78	11852.47
466.96	12248.02
467.14	12119.29
467.32	12276.11
467.51	12411.86
467.69	12175.47
467.87	12170.79
468.05	12449.31
468.23	12336.96
468.41	12556.97
468.60	12723.15
468.78	12596.76
468.96	12669.32
469.14	12559.31
469.32	12882.31
469.50	12725.49
469.69	12793.37
469.87	12854.22
470.05	12910.40
470.23	13160.83
470.41	13020.40
470.59	13317.65
470.77	13212.32
470.95	13078.91
471.14	13331.69
471.32	13144.45
471.50	13298.92
471.68	13680.43
471.86	13502.55
472.04	13315.31
472.22	14003.43
472.40	13600.85
472.58	13710.86
472.77	13617.24
472.95	13919.17
473.13	14492.60
473.31	14073.64
473.49	14258.54
473.67	13940.23
473.85	14162.58
474.03	14403.66
474.21	14455.15
474.39	14562.81
474.57	14553.45
474.75	14836.66
474.93	14984.11
475.12	14609.62
475.30	14956.02
475.48	14904.53
475.66	15091.77
475.84	14956.02
476.02	15414.77
476.20	15431.15
476.38	15524.77
476.56	15901.60
476.74	15910.96
476.92	15726.06
477.10	15737.76
477.28	16049.05
477.46	16037.35
477.64	16180.12
477.82	16121.61
478.00	16877.60
478.18	16681.00
478.36	16964.20
478.54	17039.10
478.72	17418.27
478.90	17233.36
479.08	17654.66
479.26	17525.93
479.44	17584.44
479.62	17516.57
479.80	18052.55
479.98	17956.59
480.16	18459.81
480.34	18307.67
480.52	18380.23
480.70	18427.04
480.88	18363.84
481.06	18647.05
481.24	18576.83
481.41	19157.28
481.59	19391.34
481.77	19325.80
481.95	19653.48
482.13	19564.54
482.31	19726.04
482.49	20107.54
482.67	20056.05
482.85	20224.57
483.03	20533.52
483.21	21003.97
483.39	20816.72
483.57	20652.89
483.74	20828.43
483.92	21128.02
484.10	21102.27
484.28	21591.44
484.46	21909.75
484.64	21879.33
484.82	21888.69
485.00	22157.85
485.18	22438.72
485.35	22796.82
485.53	22539.36
485.71	22792.14
485.89	23229.82
486.07	22881.08
486.25	22984.06
486.43	23419.40
486.61	23735.37
486.78	24004.53
486.96	24304.12
487.14	24381.36
487.32	24659.88
487.50	24444.56
487.68	24783.93
487.85	25057.78
488.03	24907.98
488.21	25766.96
488.39	26024.42
488.57	26176.55
488.75	25631.21
488.92	26120.38
489.10	26572.10
489.28	26373.16
489.46	26984.04
489.64	26932.54
489.81	27498.95
489.99	27400.65
490.17	27180.64
490.35	27718.96
490.53	28156.64
490.70	27917.91
490.88	28182.39
491.06	29036.69
491.24	28397.72
491.41	28498.36
491.59	28919.66
491.77	28882.21
491.95	29085.84
492.13	29647.57
492.30	30132.06
492.48	30057.16
492.66	30230.36
492.84	30218.66
493.01	30558.03
493.19	30551.01
493.37	30616.55
493.54	30792.09
493.72	31328.07
493.90	30888.05
494.08	31721.28
494.25	31976.40
494.43	31861.71
494.61	32149.60
494.79	32327.48
494.96	31988.10
495.14	32144.92
495.32	33392.42
495.49	33015.60
495.67	33113.90
495.85	33134.96
496.02	33413.49
496.20	33638.18
496.38	34108.63
496.55	33909.68
496.73	34686.74
496.91	34288.85
497.09	34211.61
497.26	34728.87
497.44	34986.33
497.62	35196.98
497.79	35447.41
497.97	35236.77
498.14	35955.31
498.32	35583.16
498.50	35892.12
498.67	36023.19
498.85	36348.52
499.03	36275.96
499.20	36708.96
499.38	36521.72
499.56	36378.95
499.73	36793.22
499.91	37294.10
500.08	37310.48
500.26	37160.69
500.44	37324.52
500.61	37495.38
500.79	37752.84
500.97	37518.79
501.14	37968.17
501.32	38319.25
501.49	38120.31
501.67	38167.12
501.84	38426.92
502.02	38883.32
502.20	38937.15
502.37	39438.03
502.55	39079.92
502.72	39040.14
502.90	38934.81
503.07	39391.22
503.25	39442.71
503.43	39477.82
503.60	39938.90
503.78	40142.53
503.95	39913.16
504.13	40268.92
504.30	40357.86
504.48	40191.68
504.65	40500.63
504.83	40832.99
505.01	41015.55
505.18	40945.33
505.36	41111.51
505.53	41172.36
505.71	41331.52
505.88	41862.82
506.06	40872.78
506.23	41282.37
506.41	41820.69
506.58	41792.61
506.76	41514.08
506.93	41888.57
507.11	41584.30
507.28	42218.58
507.46	42387.10
507.63	42335.61
507.81	42941.81
507.98	42672.65
508.16	42813.08
508.33	43318.64
508.50	42951.17
508.68	43325.66
508.85	43426.30
509.03	43533.96
509.20	43604.18
509.38	43833.55
509.55	44488.90
509.73	44327.41
509.90	44210.38
510.08	44147.18
510.25	44329.75
510.42	44797.85
510.60	44699.55
510.77	44753.38
510.95	45062.33
511.12	44683.17
511.30	44655.08
511.47	45287.03
511.64	45570.23
511.82	45528.10
511.99	45230.85
512.17	45823.01
512.34	45233.19
512.51	46094.51
512.69	46204.52
512.86	46071.10
513.04	46356.65
513.21	46321.54
513.38	46855.18
513.56	46667.94
513.73	46483.04
513.90	46834.12
514.08	46836.46
514.25	47313.93
514.43	47014.34
514.60	47114.98
514.77	47093.92
514.95	47533.94
515.12	46899.65
515.29	47047.11
515.47	47817.14
515.64	48287.59
515.81	47676.71
515.99	47941.19
516.16	47854.59
516.33	48526.33
516.51	48229.08
516.68	48161.20
516.85	48240.78
517.03	48683.14
517.20	48678.46
517.37	48488.88
517.54	48655.06
517.72	48858.68
517.89	48615.27
518.06	49069.33
518.24	49251.89
518.41	49141.89
518.58	49219.13
518.75	49137.21
518.93	49258.91
519.10	49198.06
519.27	49532.76
519.45	49301.04
519.62	49375.94
519.79	49954.05
519.96	49759.79
520.14	49752.77
520.31	49705.96
520.48	49984.48
520.65	49734.04
520.83	50335.56
521.00	50387.05
521.17	50232.58
521.34	50319.18
521.52	50529.83
521.69	50508.76
521.86	50927.72
522.03	50897.29
522.20	51009.64
522.38	51384.12
522.55	51229.65
522.72	51133.68
522.89	50934.74
523.07	51569.02
523.24	51274.12
523.41	51700.09
523.58	51346.67
523.75	51723.50
523.92	51416.89
524.10	51950.53
524.27	51756.27
524.44	51826.48
524.61	51854.57
524.78	52144.80
524.96	52018.41
525.13	52186.92
525.30	51840.53
525.47	52109.69
525.64	52336.72
525.81	52353.10
525.98	52673.76
526.16	52193.95
526.33	52381.19
526.50	52575.45
526.67	52629.29
526.84	52917.17
527.01	52481.83
527.18	52566.09
527.36	52690.14
527.53	52839.93
527.70	52971.00
527.87	53315.06
528.04	53158.25
528.21	53298.68
528.38	53083.35
528.55	53387.62
528.72	53467.20
528.89	53354.85
529.07	53303.36
529.24	53364.21
529.41	53305.70
529.58	53406.34
529.75	53425.07
529.92	53471.88
530.09	53574.86
530.26	53811.26
530.43	53673.16
530.60	53441.45
530.77	53722.32
530.94	54106.16
531.11	53900.20
531.28	54181.06
531.46	54019.56
531.63	54042.97
531.80	54068.72
531.97	54134.25
532.14	54342.56
532.31	54106.16
532.48	54218.51
532.65	54578.95
532.82	54195.10
532.99	54447.88
533.16	54122.55
533.33	54548.53
533.50	54728.75
533.67	54585.97
533.84	54490.01
534.01	54408.09
534.18	54621.08
534.35	55044.72
534.52	54906.63
534.69	55229.62
534.86	54946.42
535.03	54824.71
535.20	54920.67
535.37	55047.06
535.54	55517.51
535.71	55295.16
535.88	55489.42
536.05	55140.68
536.22	55372.39
536.38	55421.55
536.55	55330.26
536.72	55426.23
536.89	55393.46
537.06	55274.09
537.23	55781.99
537.40	55327.92
537.57	55519.85
537.74	55477.72
537.91	55824.12
538.08	55784.33
538.25	55323.24
538.42	55594.74
538.59	56048.81
538.75	56013.70
538.92	55948.17
539.09	56006.68
539.26	55805.39
539.43	56149.45
539.60	56240.73
539.77	56048.81
539.94	56296.91
540.11	56205.62
540.28	56343.72
540.44	56086.26
540.61	56289.88
540.78	56205.62
540.95	56121.37
541.12	56217.33
541.29	56299.25
541.46	56074.55
541.62	56502.87
541.79	56484.15
541.96	56044.13
542.13	56406.91
542.30	56612.88
542.47	56416.27
542.63	56404.57
542.80	56690.12
542.97	56879.70
543.14	56790.76
543.31	56924.17
543.48	57340.78
543.64	57233.12
543.81	56942.89
543.98	57167.58
544.15	57277.59
544.32	57190.99
544.48	57305.68
544.65	57263.55
544.82	57305.68
544.99	57064.60
545.16	57336.10
545.32	57277.59
545.49	57492.92
545.66	57612.29
545.83	57471.85
546.00	57902.51
546.16	57598.24
546.33	57315.04
546.50	57317.38
546.67	57467.17
546.83	57399.30
547.00	57546.75
547.17	57584.20
547.34	57939.96
547.50	57717.61
547.67	58068.69
547.84	57773.78
548.00	58019.54
548.17	58127.20
548.34	57937.62
548.51	57874.43
548.67	58066.35
548.84	58064.01
549.01	58152.95
549.18	57975.07
549.34	58110.82
549.51	58106.14
549.68	58176.36
549.84	58291.04
550.01	58183.38
550.18	58103.80
550.34	58382.32
550.51	58171.67
550.68	58162.31
550.84	58190.40
551.01	58405.73
551.18	58251.25
551.34	58347.21
551.51	58511.05
551.68	58480.63
551.84	58459.56
552.01	58342.53
552.18	58698.30
552.34	58389.34
552.51	58548.50
552.68	58408.07
552.84	58422.11
553.01	58625.74
553.18	58508.71
553.34	58684.25
553.51	58522.76
553.67	58789.58
553.84	59054.06
554.01	58953.41
554.17	58951.07
554.34	58993.20
554.51	58681.91
554.67	58939.37
554.84	58979.16
555.00	58768.51
555.17	58754.47
555.33	58862.13
555.50	58735.74
555.67	58770.85
555.83	58688.93
556.00	58981.50
556.16	59175.76
556.33	58981.50
556.50	58798.94
556.66	59154.70
556.83	58798.94
556.99	59187.47
557.16	59243.64
557.32	59543.23
557.49	59641.53
557.65	59018.95
557.82	59278.75
557.98	59220.23
558.15	59463.65
558.32	59391.09
558.48	59231.94
558.65	59243.64
558.81	59384.07
558.98	59419.18
559.14	59426.20
559.31	59372.37
559.47	59421.52
559.64	59545.57
559.80	59648.55
559.97	59611.10
560.13	59423.86
560.30	59501.10
560.46	59833.46
560.63	59608.76
560.79	59814.73
560.96	59571.32
561.12	59756.22
561.29	59723.45
561.45	59709.41
561.61	59686.00
561.78	59728.13
561.94	59543.23
562.11	59664.94
562.27	59618.13
562.44	59859.20
562.60	59957.50
562.77	59793.67
562.93	59887.29
563.10	59798.35
563.26	59845.16
563.42	60128.36
563.59	59774.94
563.75	59929.42
563.92	59882.61
564.08	59959.84
564.24	59870.90
564.41	59807.71
564.57	59943.46
564.74	60102.62
564.90	60009.00
565.07	59803.03
565.23	59959.84
565.39	60051.12
565.56	60203.26
565.72	59891.97
565.88	60123.68
566.05	59980.91
566.21	59997.29
566.38	60086.23
566.54	60140.07
566.70	60144.75
566.87	60360.08
567.03	59950.48
567.19	60280.50
567.36	60224.32
567.52	60142.41
567.68	60320.29
567.85	60205.60
568.01	60196.24
568.17	60172.83
568.34	60390.50
568.50	60285.18
568.66	60151.77
568.83	60247.73
568.99	60156.45
569.15	60453.70
569.32	60107.30
569.48	60266.45
569.64	60245.39
569.81	60348.37
569.97	60296.88
570.13	60287.52
570.30	60133.04
570.46	60238.37
570.62	60409.23
570.78	60329.65
570.95	60350.71
571.11	60395.18
571.27	60268.79
571.43	60512.21
571.60	60584.77
571.76	60378.80
571.92	60367.10
572.09	60662.00
572.25	60437.31
572.41	60453.70
572.57	60404.55
572.74	60561.36
572.90	60420.93
573.06	60296.88
573.22	60413.91
573.38	60757.97
573.55	60423.27
573.71	60458.38
573.87	60554.34
574.03	60498.17
574.20	60549.66
574.36	60390.50
574.52	60491.15
574.68	60779.03
574.84	60575.40
575.01	60683.07
575.17	60624.56
575.33	60449.02
575.49	60573.06
575.65	60629.24
575.82	60699.45
575.98	60699.45
576.14	60767.33
576.30	60519.23
576.46	60673.71
576.62	60697.11
576.79	60505.19
576.95	60486.46
577.11	60519.23
577.27	60669.03
577.43	60683.07
577.59	60582.43
577.75	60596.47
577.92	60456.04
578.08	60484.12
578.24	60884.36
578.40	60879.67
578.56	60968.61
578.72	60816.48
578.88	60797.76
579.04	60947.55
579.21	60636.26
579.37	60896.06
579.53	60711.16
579.69	60725.20
579.85	60662.00
580.01	60657.32
580.17	60491.15
580.33	60977.98
580.49	60809.46
580.65	60760.31
580.82	60713.50
580.98	60715.84
581.14	60884.36
581.30	60900.74
581.46	60654.98
581.62	60882.02
581.78	60488.80
581.94	60959.25
582.10	60575.40
582.26	60755.63
582.42	60640.94
582.58	60769.67
582.74	60739.24
582.90	60711.16
583.06	60802.44
583.22	60725.20
583.38	60774.35
583.54	60746.26
583.70	60727.54
583.86	60804.78
584.02	60767.33
584.18	60931.17
584.34	60874.99
584.50	60739.24
584.66	60753.29
584.82	60664.35
584.98	60992.02
585.14	61010.74
585.30	60715.84
585.46	60935.85
585.62	60830.52
585.78	60931.17
585.94	60692.43
586.10	60863.29
586.26	60755.63
586.42	60926.49
586.58	60968.61
586.74	60858.61
586.90	60788.39
587.06	60889.04
587.22	60907.76
587.38	60743.92
587.54	61062.24
587.70	61104.37
587.86	60949.89
588.02	60685.41
588.18	61109.05
588.34	60781.37
588.49	60917.12
