SpectraSuite Data File
++++++++++++++++++++++++++++++++++++
Date: Fri Oct 25 10:47:14 EDT 2013
User: price-jones
Dark Spectrum Present: No
Reference Spectrum Present: No
Number of Sampled Component Spectra: 1
Spectrometers: USB2+H05261
Integration Time (usec): 100000 (USB2+H05261)
Spectra Averaged: 1 (USB2+H05261)
Boxcar Smoothing: 0 (USB2+H05261)
Correct for Electrical Dark: No (USB2+H05261)
Strobe/Lamp Enabled: No (USB2+H05261)
Correct for Detector Non-linearity: No (USB2+H05261)
Correct for Stray Light: No (USB2+H05261)
Number of Pixels in Processed Spectrum: 2048
>>>>>Begin Processed Spectral Data<<<<<
365.73	138.09
365.92	138.09
366.12	138.09
366.32	49.15
366.52	39.79
366.72	93.62
366.91	9.36
367.11	81.92
367.31	14.04
367.51	67.88
367.70	84.26
367.90	84.26
368.10	46.81
368.30	91.28
368.49	4.68
368.69	114.69
368.89	77.24
369.09	44.47
369.28	65.54
369.48	77.24
369.68	88.94
369.87	138.09
370.07	88.94
370.27	107.66
370.47	194.26
370.66	348.74
370.86	353.42
371.06	442.36
371.25	430.66
371.45	409.59
371.65	440.02
371.84	430.66
372.04	407.25
372.24	526.62
372.44	475.13
372.63	404.91
372.83	418.96
373.03	519.60
373.22	468.11
373.42	454.06
373.62	561.73
373.81	482.15
374.01	589.82
374.21	521.94
374.40	571.09
374.60	550.03
374.79	528.96
374.99	533.64
375.19	557.05
375.38	496.19
375.58	557.05
375.78	552.37
375.97	519.60
376.17	535.98
376.37	512.58
376.56	550.03
376.76	489.17
376.95	564.07
377.15	524.28
377.35	540.66
377.54	594.50
377.74	449.38
377.93	561.73
378.13	615.56
378.33	599.18
378.52	690.46
378.72	620.24
378.91	608.54
379.11	596.84
379.31	608.54
379.50	561.73
379.70	655.35
379.89	657.69
380.09	629.60
380.28	596.84
380.48	627.26
380.68	657.69
380.87	643.65
381.07	573.43
381.26	688.12
381.46	645.99
381.65	655.35
381.85	681.10
382.04	702.16
382.24	753.65
382.43	657.69
382.63	641.31
382.83	648.33
383.02	681.10
383.22	697.48
383.41	660.03
383.61	690.46
383.80	730.25
384.00	713.86
384.19	786.42
384.39	711.52
384.58	772.38
384.78	828.55
384.97	676.41
385.17	734.93
385.36	734.93
385.56	781.74
385.75	732.59
385.95	753.65
386.14	699.82
386.34	751.31
386.53	751.31
386.72	718.54
386.92	854.30
387.11	751.31
387.31	800.46
387.50	788.76
387.70	786.42
387.89	835.57
388.09	800.46
388.28	753.65
388.48	760.67
388.67	814.51
388.86	842.59
389.06	847.27
389.25	795.78
389.45	755.99
389.64	816.85
389.84	844.93
390.03	819.19
390.22	936.21
390.42	837.91
390.61	887.06
390.81	875.36
391.00	884.72
391.19	903.45
391.39	938.55
391.58	840.25
391.78	866.00
391.97	891.74
392.16	959.62
392.36	985.37
392.55	933.87
392.75	964.30
392.94	990.05
393.13	992.39
393.33	966.64
393.52	1118.78
393.71	976.00
393.91	1020.47
394.10	997.07
394.29	1011.11
394.49	983.02
394.68	1053.24
394.88	1074.31
395.07	1123.46
395.26	1137.50
395.46	1102.39
395.65	1118.78
395.84	1163.25
396.04	1135.16
396.23	1086.01
396.42	1135.16
396.62	1088.35
396.81	1111.75
397.00	1123.46
397.19	992.39
397.39	1207.72
397.58	1177.29
397.77	1193.67
397.97	1146.86
398.16	1282.61
398.35	1320.06
398.55	1277.93
398.74	1259.21
398.93	1289.64
399.12	1219.42
399.32	1317.72
399.51	1263.89
399.70	1352.83
399.90	1291.98
400.09	1413.68
400.28	1334.11
400.47	1378.58
400.67	1448.79
400.86	1331.76
401.05	1322.40
401.24	1423.05
401.44	1387.94
401.63	1481.56
401.82	1401.98
402.01	1465.18
402.21	1378.58
402.40	1448.79
402.59	1481.56
402.78	1500.28
402.97	1448.79
403.17	1563.48
403.36	1561.14
403.55	1504.96
403.74	1544.75
403.93	1577.52
404.13	1586.88
404.32	1570.50
404.51	1521.35
404.70	1586.88
404.89	1612.63
405.09	1659.44
405.28	1598.59
405.47	1631.35
405.66	1664.12
405.85	1645.40
406.05	1703.91
406.24	1692.21
406.43	1717.95
406.62	1811.57
406.81	1736.68
407.00	1673.48
407.20	1813.92
407.39	1722.63
407.58	1839.66
407.77	1844.34
407.96	1785.83
408.15	1989.46
408.34	1949.67
408.54	1928.60
408.73	1959.03
408.92	1937.96
409.11	1884.13
409.30	1853.70
409.49	1872.43
409.68	1923.92
409.87	2038.61
410.07	2101.80
410.26	1940.30
410.45	2094.78
410.64	1952.01
410.83	2162.66
411.02	2155.63
411.21	2104.14
411.40	2122.87
411.59	2207.13
411.78	2174.36
411.98	2239.89
412.17	2279.68
412.36	2256.28
412.55	2277.34
412.74	2296.07
412.93	2328.83
413.12	2195.42
413.31	2448.20
413.50	2469.27
413.69	2326.49
413.88	2342.88
414.07	2485.65
414.26	2495.01
414.45	2413.09
414.64	2513.74
414.83	2504.37
415.02	2588.63
415.22	2551.18
415.41	2722.04
415.60	2619.06
415.79	2565.23
415.98	2710.34
416.17	2799.28
416.36	2757.15
416.55	2745.45
416.74	2822.69
416.93	2745.45
417.12	2792.26
417.31	2808.64
417.50	2897.58
417.69	3000.57
417.88	2932.69
418.07	2864.82
418.26	2899.92
418.45	2942.05
418.64	3155.04
418.83	3145.68
419.02	3117.59
419.21	3042.70
419.39	3199.51
419.58	3014.61
419.77	3082.49
419.96	3133.98
420.15	3098.87
420.34	3241.64
420.53	3171.43
420.72	3129.30
420.91	3173.77
421.10	3262.71
421.29	3375.05
421.48	3129.30
421.67	3316.54
421.86	3213.56
422.05	3372.71
422.24	3281.43
422.43	3232.28
422.61	3410.16
422.80	3332.92
422.99	3328.24
423.18	3503.78
423.37	3499.10
423.56	3496.76
423.75	3361.01
423.94	3377.39
424.13	3187.81
424.32	3248.66
424.50	3396.12
424.69	3403.14
424.88	3459.31
425.07	3267.39
425.26	3346.97
425.45	3323.56
425.64	3405.48
425.83	3407.82
426.01	3466.33
426.20	3414.84
426.39	3471.01
426.58	3398.46
426.77	3475.70
426.96	3545.91
427.15	3463.99
427.33	3592.72
427.52	3398.46
427.71	3641.87
427.90	3557.61
428.09	3641.87
428.28	3681.66
428.46	3653.58
428.65	3583.36
428.84	3691.02
429.03	3794.01
429.22	3564.64
429.40	3726.13
429.59	3695.71
429.78	3609.11
429.97	3517.83
430.16	3545.91
430.34	3686.34
430.53	3943.80
430.72	3798.69
430.91	3859.54
431.10	3637.19
431.28	3815.07
431.47	3798.69
431.66	4014.02
431.85	3854.86
432.03	4065.51
432.22	3981.25
432.41	4154.45
432.60	4140.41
432.79	4133.39
432.97	4161.47
433.16	4124.02
433.35	3995.29
433.54	4114.66
433.72	4053.81
433.91	4140.41
434.10	4098.28
434.28	4126.36
434.47	4234.03
434.66	4299.56
434.85	4308.93
435.03	4243.39
435.22	4332.33
435.41	4461.06
435.59	4383.82
435.78	4423.61
435.97	4447.02
436.16	4397.87
436.34	4468.08
436.53	4409.57
436.72	4620.22
436.90	4344.03
437.09	4559.36
437.28	4362.76
437.46	4400.21
437.65	4386.16
437.84	4732.56
438.02	4648.30
438.21	4650.64
438.40	4444.68
438.58	4674.05
438.77	4730.22
438.96	4697.46
439.14	4788.74
439.33	4884.70
439.52	4947.89
439.70	4929.17
439.89	4968.96
440.08	4823.84
440.26	4917.47
440.45	4889.38
440.63	4973.64
440.82	4980.66
441.01	5088.32
441.19	5158.54
441.38	5210.03
441.57	5095.35
441.75	5315.36
441.94	5387.91
442.12	5327.06
442.31	5401.96
442.50	5385.57
442.68	5322.38
442.87	5334.08
443.05	5451.11
443.24	5540.05
443.43	5537.71
443.61	5603.24
443.80	5867.72
443.98	5575.16
444.17	5488.56
444.35	5528.35
444.54	5678.14
444.73	5743.67
444.91	5652.39
445.10	5643.03
445.28	5565.79
445.47	5600.90
445.65	5530.69
445.84	5654.73
446.02	5769.42
446.21	5881.77
446.39	5518.98
446.58	5664.10
446.77	5640.69
446.95	5816.23
447.14	5661.76
447.32	5942.62
447.51	5640.69
447.69	5706.23
447.88	5727.29
448.06	5771.76
448.25	5776.44
448.43	5678.14
448.62	5710.91
448.80	5844.32
448.99	5895.81
449.17	5893.47
449.36	5954.32
449.54	6001.13
449.73	6085.39
449.91	6186.04
450.10	6050.28
450.28	6214.12
450.46	6253.91
450.65	6300.72
450.83	6197.74
451.02	6209.44
451.20	6319.45
451.39	6340.51
451.57	6190.72
451.76	6024.54
451.94	6321.79
452.13	6146.25
452.31	6246.89
452.49	6256.25
452.68	6434.13
452.86	6162.63
453.05	6258.59
453.23	6333.49
453.42	6193.06
453.60	6286.68
453.78	6401.37
453.97	6555.84
454.15	6286.68
454.34	6401.37
454.52	6443.49
454.70	6445.84
454.89	6328.81
455.07	6502.01
455.26	6502.01
455.44	6576.91
455.62	6752.45
455.81	6555.84
455.99	6567.54
456.17	6801.60
456.36	6801.60
456.54	6740.74
456.73	6949.05
456.91	6991.18
457.09	7049.69
457.28	6906.92
457.46	6906.92
457.64	6970.12
457.83	7052.03
458.01	6871.81
458.19	7337.58
458.38	7098.84
458.56	7143.32
458.74	7129.27
458.93	7222.89
459.11	7077.78
459.29	7321.20
459.48	7117.57
459.66	7250.98
459.84	7180.76
460.03	7368.01
460.21	7274.38
460.39	7353.96
460.57	7407.80
460.76	7559.93
460.94	7648.87
461.12	7442.90
461.31	7653.55
461.49	7625.47
461.67	7449.93
461.85	7571.63
462.04	7702.70
462.22	8241.03
462.40	7744.83
462.59	7698.02
462.77	7737.81
462.95	7903.99
463.13	7658.23
463.32	7691.00
463.50	7777.60
463.68	7932.08
463.86	7831.43
464.05	7688.66
464.23	7786.96
464.41	8013.99
464.59	7758.88
464.78	7992.93
464.96	8131.02
465.14	7983.57
465.32	7868.88
465.50	8072.51
465.69	8046.76
465.87	7829.09
466.05	7925.05
466.23	7864.20
466.41	8039.74
466.60	8058.46
466.78	8056.12
466.96	8021.02
467.14	8201.24
467.32	8311.24
467.51	8208.26
467.69	8205.92
467.87	8107.62
468.05	8407.20
468.23	8292.52
468.41	8016.33
468.60	8294.86
468.78	8564.02
468.96	8367.42
469.14	8498.49
469.32	8617.85
469.50	8198.90
469.69	8397.84
469.87	8528.91
470.05	8659.98
470.23	8704.45
470.41	8507.85
470.59	8823.82
470.77	8643.60
470.95	8765.31
471.14	8973.61
471.32	8620.19
471.50	9137.45
471.68	8952.55
471.86	8966.59
472.04	9107.02
472.22	9231.07
472.40	9046.17
472.58	9205.33
472.77	9085.96
472.95	9231.07
473.13	9460.45
473.31	9252.14
473.49	9284.91
473.67	9184.26
473.85	9502.58
474.03	9500.23
474.21	9689.82
474.39	9724.93
474.57	9830.25
474.75	9834.93
474.93	9710.88
475.12	9703.86
475.30	10125.16
475.48	9769.40
475.66	9909.83
475.84	10033.88
476.02	9996.43
476.20	10253.89
476.38	10260.91
476.56	10520.71
476.74	10387.30
476.92	10228.14
477.10	10286.65
477.28	10527.73
477.46	10429.43
477.64	10548.79
477.82	10736.04
478.00	11052.01
478.18	10768.80
478.36	11054.35
478.54	11014.56
478.72	10965.41
478.90	11164.36
479.08	11461.60
479.26	11426.50
479.44	11559.91
479.62	11578.63
479.80	11623.10
479.98	11784.60
480.16	11789.28
480.34	12067.80
480.52	12313.56
480.70	12205.89
480.88	12035.03
481.06	12297.17
481.24	12292.49
481.41	12374.41
481.59	12760.60
481.77	12713.79
481.95	12580.38
482.13	12755.92
482.31	12739.54
482.49	12936.14
482.67	13074.23
482.85	13277.86
483.03	13181.90
483.21	13397.23
483.39	13568.09
483.57	13408.93
483.74	13762.35
483.92	13954.27
484.10	13848.95
484.28	14127.47
484.46	14391.95
484.64	14640.05
484.82	14143.86
485.00	14263.22
485.18	14462.17
485.35	14796.87
485.53	14401.32
485.71	14658.78
485.89	14909.21
486.07	14916.23
486.25	15037.94
486.43	15030.92
486.61	15204.12
486.78	15447.54
486.96	15594.99
487.14	16077.14
487.32	15726.06
487.50	15815.00
487.68	16020.97
487.85	16315.87
488.03	16425.88
488.21	16519.50
488.39	16535.88
488.57	16856.54
488.75	16683.34
488.92	16891.65
489.10	17383.16
489.28	17209.96
489.46	17593.81
489.64	17104.64
489.81	17989.36
489.99	17659.34
490.17	17919.14
490.35	18443.42
490.53	17970.63
490.70	18288.95
490.88	18125.11
491.06	18817.91
491.24	18607.26
491.41	18579.17
491.59	18654.07
491.77	18743.01
491.95	18998.13
492.13	19105.79
492.30	19199.41
492.48	19243.88
492.66	19311.76
492.84	19693.27
493.01	19777.53
493.19	19562.20
493.37	20245.63
493.54	20128.61
493.72	20039.67
493.90	20072.43
494.08	20016.26
494.25	20666.93
494.43	20865.88
494.61	20814.38
494.79	20786.30
494.96	20421.17
495.14	21060.14
495.32	21336.32
495.49	21076.52
495.67	21317.60
495.85	21460.37
496.02	21757.62
496.20	21881.67
496.38	21586.76
496.55	21853.58
496.73	22267.86
496.91	21844.22
497.09	22328.71
497.26	22153.17
497.44	22436.38
497.62	22363.82
497.79	22597.87
497.97	22813.20
498.14	22714.90
498.32	23028.53
498.50	22948.95
498.67	23431.10
498.85	23367.91
499.03	23314.08
499.20	23447.49
499.38	23461.53
499.56	23772.82
499.73	23803.25
499.91	23758.78
500.08	23864.10
500.26	23885.17
500.44	24318.17
500.61	23887.51
500.79	24102.84
500.97	24343.91
501.14	24793.29
501.32	24472.64
501.49	24503.07
501.67	24367.32
501.84	24687.97
502.02	24751.17
502.20	25092.88
502.37	25135.01
502.55	25053.09
502.72	25460.35
502.90	25186.50
503.07	25392.47
503.25	25343.32
503.43	25151.40
503.60	25823.13
503.78	25717.81
503.95	25933.14
504.13	25825.47
504.30	26092.29
504.48	25722.49
504.65	25649.93
504.83	26316.98
505.01	26419.97
505.18	26277.19
505.36	26799.13
505.53	26490.18
505.71	26499.55
505.88	26738.28
506.06	26384.86
506.23	27056.59
506.41	26663.38
506.58	26710.19
506.76	26600.19
506.93	26885.73
507.11	27328.10
507.28	27070.64
507.46	27468.53
507.63	27447.46
507.81	27777.48
507.98	27498.95
508.16	27182.98
508.33	27899.19
508.50	27709.60
508.68	27653.43
508.85	28203.46
509.03	27885.14
509.20	28229.20
509.38	28327.50
509.55	28386.02
509.73	28388.36
509.90	28706.67
510.08	28446.87
510.25	28418.78
510.42	28704.33
510.60	28872.85
510.77	28945.41
510.95	29277.76
511.12	29003.92
511.30	29097.54
511.47	29376.06
511.64	29652.25
511.82	29228.61
511.99	29397.13
512.17	29603.10
512.34	29710.76
512.51	29626.50
512.69	29881.62
512.86	29951.84
513.04	30312.28
513.21	30221.00
513.38	29703.74
513.56	29802.04
513.73	30094.61
513.90	30424.62
514.08	30272.49
514.25	30066.52
514.43	30326.32
514.60	30279.51
514.77	30253.76
514.95	30361.43
515.12	30614.21
515.29	30382.49
515.47	30703.15
515.64	30895.07
515.81	30721.87
515.99	31058.91
516.16	31157.21
516.33	31311.69
516.51	31395.95
516.68	31070.61
516.85	30920.82
517.03	31250.83
517.20	31398.29
517.37	31754.05
517.54	31716.60
517.72	31651.06
517.89	31365.52
518.06	31395.95
518.24	31754.05
518.41	31772.77
518.58	31597.23
518.75	31637.02
518.93	32367.27
519.10	32067.68
519.27	32570.90
519.45	31960.02
519.62	32378.97
519.79	32421.10
519.96	32442.17
520.14	32517.06
520.31	32697.28
520.48	32802.61
520.65	32739.41
520.83	32861.12
521.00	32823.67
521.17	33174.75
521.34	32772.18
521.52	33137.30
521.69	32987.51
521.86	33376.04
522.03	33443.91
522.20	33378.38
522.38	33259.01
522.55	33532.86
522.72	33649.88
522.89	33467.32
523.07	33570.30
523.24	33902.66
523.41	34127.35
523.58	33680.31
523.75	34136.71
523.92	34033.73
524.10	34197.57
524.27	34352.04
524.44	34235.02
524.61	34256.08
524.78	34338.00
524.96	34197.57
525.13	34707.80
525.30	34796.74
525.47	34309.91
525.64	34623.54
525.81	34726.53
525.98	34710.14
526.16	34969.94
526.33	34831.85
526.50	35192.30
526.67	34719.51
526.84	35138.46
527.01	34726.53
527.18	34916.11
527.36	35243.79
527.53	35772.75
527.70	35667.42
527.87	35543.38
528.04	35515.29
528.21	35505.93
528.38	35264.85
528.55	35901.48
528.72	35555.08
528.89	35723.60
529.07	35555.08
529.24	35857.01
529.41	35445.07
529.58	35948.29
529.75	36304.05
529.92	36147.23
530.09	35957.65
530.26	36184.68
530.43	36264.26
530.60	35840.62
530.77	36030.21
530.94	36411.71
531.11	36168.30
531.28	36568.53
531.46	36425.76
531.63	36596.62
531.80	36971.10
531.97	36921.95
532.14	36542.78
532.31	36470.23
532.48	36971.10
532.65	37184.09
532.82	36629.38
532.99	36898.55
533.16	36652.79
533.33	36566.19
533.50	37539.85
533.67	36886.84
533.84	36697.26
534.01	37509.43
534.18	36720.66
534.35	37436.87
534.52	37095.15
534.69	37282.39
534.86	37336.23
535.03	37282.39
535.20	37720.07
535.37	37654.54
535.54	37670.92
535.71	37809.01
535.88	37713.05
536.05	37614.75
536.22	37668.58
536.38	37336.23
536.55	38136.69
536.72	38218.61
536.89	37628.79
537.06	38043.07
537.23	38078.18
537.40	38087.54
537.57	38307.55
537.74	37991.58
537.91	38218.61
538.08	38543.94
538.25	38038.39
538.42	38321.59
538.59	38665.65
538.75	38480.75
538.92	38295.85
539.09	38855.23
539.26	38581.39
539.43	38527.56
539.60	38532.24
539.77	38646.93
539.94	38834.17
540.11	38459.68
540.28	38583.73
540.44	38845.87
540.61	38550.96
540.78	38787.36
540.95	38471.39
541.12	39002.69
541.29	38995.67
541.46	39091.63
541.62	39070.56
541.79	39077.58
541.96	38808.42
542.13	39126.74
542.30	39536.33
542.47	39405.26
542.63	39187.59
542.80	39356.11
542.97	39491.86
543.14	39744.64
543.31	40236.15
543.48	39974.01
543.64	40151.89
543.81	40271.26
543.98	40013.80
544.15	40184.66
544.32	40121.46
544.48	40123.80
544.65	40261.90
544.82	40217.43
544.99	39564.42
545.16	40418.71
545.32	40041.88
545.49	40147.21
545.66	40222.11
545.83	40320.41
546.00	40708.94
546.16	40517.01
546.33	40044.23
546.50	40245.51
546.67	40437.44
546.83	39906.13
547.00	40524.04
547.17	40332.11
547.34	40348.50
547.50	40395.31
547.67	40648.08
547.84	40620.00
548.00	41034.27
548.17	40739.36
548.34	40264.24
548.51	40870.43
548.67	41230.88
548.84	40783.83
549.01	40886.82
549.18	41226.20
549.34	41244.92
549.51	41155.98
549.68	41261.30
549.84	41280.03
550.01	41383.01
550.18	41188.75
550.34	41359.61
550.51	41280.03
550.68	40828.30
550.84	40968.74
551.01	41525.78
551.18	41216.83
551.34	41443.87
551.51	41148.96
551.68	41331.52
551.84	41663.88
552.01	41282.37
552.18	41670.90
552.34	41296.41
552.51	41397.06
552.68	41661.54
552.84	41991.55
553.01	42190.50
553.18	41748.14
553.34	41626.43
553.51	42089.85
553.67	41656.85
553.84	42169.43
554.01	41935.38
554.17	42176.45
554.34	42010.28
554.51	42342.63
554.67	42047.72
554.84	42230.29
555.00	42192.84
555.17	41972.83
555.33	41701.32
555.50	42136.66
555.67	41972.83
555.83	42321.57
556.00	42452.64
556.16	42532.22
556.33	42473.70
556.50	42543.92
556.66	42534.56
556.83	42260.71
556.99	42328.59
557.16	42981.60
557.32	42564.98
557.49	42719.46
557.65	42337.95
557.82	42298.16
557.98	42146.03
558.15	42302.84
558.32	43267.14
558.48	42597.75
558.65	43129.05
558.81	42396.46
558.98	42419.87
559.14	42660.94
559.31	42623.50
559.47	42529.87
559.64	43173.52
559.80	43049.47
559.97	43540.99
560.13	42518.17
560.30	43168.84
560.46	42951.17
560.63	42564.98
560.79	43360.76
560.96	43159.48
561.12	43014.37
561.29	43096.28
561.45	42616.47
561.61	42923.08
561.78	43061.18
561.94	42712.44
562.11	42946.49
562.27	42871.59
562.44	42887.98
562.60	43105.65
562.77	43206.29
562.93	43042.45
563.10	43037.77
563.26	43084.58
563.42	43562.05
563.59	43187.56
563.75	43377.15
563.92	43426.30
564.08	43346.72
564.24	43360.76
564.41	43374.81
564.57	43611.20
564.74	43100.97
564.90	43328.00
565.07	43461.41
565.23	43414.60
565.39	43393.53
565.56	43206.29
565.72	43349.06
565.88	43615.88
566.05	43005.00
566.21	43320.98
566.38	43133.73
566.54	43208.63
566.70	43463.75
566.87	43545.67
567.03	43690.78
567.19	43515.24
567.36	43686.10
567.52	43409.92
567.68	43789.08
567.85	43662.69
568.01	43461.41
568.17	43384.17
568.34	44093.35
568.50	43941.22
568.66	43264.80
568.83	43924.83
568.99	43381.83
569.15	43646.31
569.32	43828.87
569.48	44037.18
569.64	43683.76
569.81	44191.65
569.97	43704.82
570.13	44123.78
570.30	43641.63
570.46	43636.95
570.62	43580.78
570.78	43772.70
570.95	43716.53
571.11	43634.61
571.27	43845.26
571.43	43756.32
571.60	43983.35
571.76	43381.83
571.92	43583.12
572.09	44083.99
572.25	43693.12
572.41	43821.85
572.57	43690.78
572.74	44395.28
572.90	43510.56
573.06	43564.39
573.22	43995.05
573.38	43896.75
573.55	43901.43
573.71	44100.37
573.87	43861.64
574.03	43260.12
574.20	43775.04
574.36	43555.03
574.52	44201.02
574.68	43725.89
574.84	44116.76
575.01	43791.42
575.17	43950.58
575.33	43550.35
575.49	43861.64
575.65	44311.02
575.82	44046.54
575.98	44121.44
576.14	44179.95
576.30	44158.89
576.46	43634.61
576.62	43730.57
576.79	43728.23
576.95	43922.49
577.11	43924.83
577.27	44311.02
577.43	43964.62
577.59	43936.54
577.75	43906.11
577.92	43587.80
578.08	43728.23
578.24	43817.17
578.40	43498.86
578.56	44299.32
578.72	43847.60
578.88	44165.91
579.04	43775.04
579.21	43929.51
579.37	44011.43
579.53	43842.92
579.69	43746.95
579.85	43746.95
580.01	44322.72
580.17	44226.76
580.33	44186.97
580.49	44451.45
580.65	43936.54
580.82	44278.25
580.98	44229.10
581.14	43988.03
581.30	44287.62
581.46	44395.28
581.62	44114.42
581.78	43885.04
581.94	44603.59
582.10	43990.37
582.26	44505.29
582.42	43786.74
582.58	44041.86
582.74	43840.57
582.90	44037.18
583.06	44465.50
583.22	44245.49
583.38	44744.02
583.54	44481.88
583.70	44189.31
583.86	44285.28
584.02	44229.10
584.18	43674.40
584.34	44142.50
584.50	44091.01
584.66	43702.48
584.82	44273.57
584.98	44699.55
585.14	44112.08
585.30	44116.76
585.46	44376.56
585.62	43812.49
585.78	43889.73
585.94	43505.88
586.10	44032.50
586.26	44053.56
586.42	44332.09
586.58	44240.81
586.74	44507.63
586.90	44236.12
587.06	43999.73
587.22	44222.08
587.38	43859.30
587.54	44135.48
587.70	44669.12
587.86	44289.96
588.02	44151.87
588.18	44444.43
588.34	44037.18
588.49	44278.25
588.65	44210.38
588.81	44112.08
588.97	43821.85
589.13	43906.11
589.29	44034.84
589.45	44170.59
589.61	44292.30
589.77	44783.81
589.93	44692.53
590.08	44732.32
590.24	44748.70
590.40	45001.48
