SpectraSuite Data File
++++++++++++++++++++++++++++++++++++
Date: Fri Oct 25 11:26:15 EDT 2013
User: price-jones
Dark Spectrum Present: No
Reference Spectrum Present: No
Number of Sampled Component Spectra: 1
Spectrometers: USB2+H05261
Integration Time (usec): 100000 (USB2+H05261)
Spectra Averaged: 1 (USB2+H05261)
Boxcar Smoothing: 0 (USB2+H05261)
Correct for Electrical Dark: No (USB2+H05261)
Strobe/Lamp Enabled: No (USB2+H05261)
Correct for Detector Non-linearity: No (USB2+H05261)
Correct for Stray Light: No (USB2+H05261)
Number of Pixels in Processed Spectrum: 2048
>>>>>Begin Processed Spectral Data<<<<<
365.73	257.46
365.92	257.46
366.12	257.46
366.32	154.48
366.52	198.95
366.72	184.90
366.91	128.73
367.11	142.77
367.31	128.73
367.51	135.75
367.70	119.37
367.90	161.50
368.10	131.07
368.30	100.64
368.49	142.77
368.69	159.16
368.89	91.28
369.09	175.54
369.28	168.52
369.48	166.18
369.68	156.82
369.87	236.39
370.07	161.50
370.27	166.18
370.47	287.89
370.66	655.35
370.86	610.88
371.06	664.71
371.25	655.35
371.45	699.82
371.65	662.37
371.84	763.01
372.04	671.73
372.24	748.97
372.44	695.14
372.63	784.08
372.83	758.33
373.03	718.54
373.22	770.04
373.42	828.55
373.62	777.06
373.81	795.78
374.01	819.19
374.21	830.89
374.40	814.51
374.60	880.04
374.79	835.57
374.99	861.32
375.19	833.23
375.38	819.19
375.58	882.38
375.78	912.81
375.97	896.43
376.17	833.23
376.37	884.72
376.56	887.06
376.76	844.93
376.95	863.66
377.15	966.64
377.35	854.30
377.54	877.70
377.74	952.60
377.93	919.83
378.13	889.40
378.33	961.96
378.52	936.21
378.72	966.64
378.91	938.55
379.11	980.68
379.31	959.62
379.50	973.66
379.70	1036.86
379.89	1022.81
380.09	1048.56
380.28	959.62
380.48	966.64
380.68	933.87
380.87	978.34
381.07	994.73
381.26	1130.48
381.46	985.37
381.65	1069.62
381.85	1036.86
382.04	1022.81
382.24	1013.45
382.43	1039.20
382.63	1027.50
382.83	1046.22
383.02	1109.41
383.22	1018.13
383.41	1090.69
383.61	1163.25
383.80	1191.33
384.00	1104.73
384.19	1046.22
384.39	1132.82
384.58	1135.16
384.78	1144.52
384.97	1163.25
385.17	1078.99
385.36	1184.31
385.56	1142.18
385.75	1144.52
385.95	1172.61
386.14	1184.31
386.34	1268.57
386.53	1196.01
386.72	1139.84
386.92	1231.12
387.11	1369.21
387.31	1275.59
387.50	1299.00
387.70	1207.72
387.89	1247.51
388.09	1259.21
388.28	1226.44
388.48	1301.34
388.67	1313.04
388.86	1301.34
389.06	1294.32
389.25	1341.13
389.45	1322.40
389.64	1409.00
389.84	1369.21
390.03	1441.77
390.22	1401.98
390.42	1364.53
390.61	1364.53
390.81	1458.15
391.00	1490.92
391.19	1465.18
391.39	1427.73
391.58	1355.17
391.78	1469.86
391.97	1425.39
392.16	1434.75
392.36	1530.71
392.55	1493.26
392.75	1596.25
392.94	1619.65
393.13	1603.27
393.33	1582.20
393.52	1596.25
393.71	1593.90
393.91	1610.29
394.10	1584.54
394.29	1577.52
394.49	1584.54
394.68	1530.71
394.88	1650.08
395.07	1657.10
395.26	1614.97
395.46	1619.65
395.65	1685.19
395.84	1666.46
396.04	1755.40
396.23	1748.38
396.42	1720.29
396.62	1750.72
396.81	1696.89
397.00	1755.40
397.19	1820.94
397.39	1795.19
397.58	1743.70
397.77	1923.92
397.97	1877.11
398.16	1816.26
398.35	1860.73
398.55	1849.02
398.74	1921.58
398.93	1947.33
399.12	1879.45
399.32	1863.07
399.51	1944.99
399.70	2054.99
399.90	1935.62
400.09	1949.67
400.28	2104.14
400.47	1921.58
400.67	2008.18
400.86	2050.31
401.05	2200.10
401.24	2097.12
401.44	2143.93
401.63	2186.06
401.82	1987.11
402.01	2162.66
402.21	2076.06
402.40	2136.91
402.59	2190.74
402.78	2169.68
402.97	2333.51
403.17	2228.19
403.36	2298.41
403.55	2340.54
403.74	2333.51
403.93	2396.71
404.13	2363.94
404.32	2298.41
404.51	2403.73
404.70	2333.51
404.89	2387.35
405.09	2473.95
405.28	2572.25
405.47	2445.86
405.66	2511.39
405.85	2539.48
406.05	2605.02
406.24	2555.86
406.43	2590.97
406.62	2518.42
406.81	2682.25
407.00	2546.50
407.20	2527.78
407.39	2663.53
407.58	2663.53
407.77	2815.66
407.96	2642.46
408.15	2708.00
408.34	2761.83
408.54	2703.32
408.73	2785.24
408.92	2771.19
409.11	2939.71
409.30	2878.86
409.49	2949.08
409.68	2841.41
409.87	3007.59
410.07	2972.48
410.26	3075.46
410.45	2944.39
410.64	3056.74
410.83	3094.19
411.02	3061.42
411.21	3155.04
411.40	3311.86
411.59	3112.91
411.78	3239.30
411.98	3159.72
412.17	3414.84
412.36	3269.73
412.55	3396.12
412.74	3274.41
412.93	3435.91
413.12	3332.92
413.31	3520.17
413.50	3496.76
413.69	3428.88
413.88	3609.11
414.07	3609.11
414.26	3632.51
414.45	3541.23
414.64	3665.28
414.83	3709.75
415.02	3634.85
415.22	3803.37
415.41	3864.22
415.60	3782.31
415.79	3871.25
415.98	3920.40
416.17	3922.74
416.36	3908.69
416.55	4074.87
416.74	3997.64
416.93	4044.45
417.12	4079.55
417.31	4212.96
417.50	4257.43
417.69	4248.07
417.88	4278.50
418.07	4243.39
418.26	4320.63
418.45	4250.41
418.64	4430.63
418.83	4404.89
419.02	4348.72
419.21	4613.20
419.39	4386.16
419.58	4592.13
419.77	4397.87
419.96	4580.43
420.15	4599.15
420.34	4638.94
420.53	4550.00
420.72	4641.28
420.91	4613.20
421.10	4748.95
421.29	4788.74
421.48	4681.07
421.67	4835.55
421.86	4697.46
422.05	4791.08
422.24	4727.88
422.43	4833.21
422.61	4861.29
422.80	5039.17
422.99	4954.91
423.18	4966.62
423.37	5057.90
423.56	4936.19
423.75	4830.87
423.94	4819.16
424.13	4599.15
424.32	4706.82
424.50	4961.94
424.69	5177.26
424.88	5158.54
425.07	4889.38
425.26	4851.93
425.45	4964.28
425.64	5062.58
425.83	4992.36
426.01	4887.04
426.20	4947.89
426.39	5050.88
426.58	5095.35
426.77	5064.92
426.96	5093.01
427.15	4926.83
427.33	5083.64
427.52	5214.71
427.71	5282.59
427.90	5188.97
428.09	5329.40
428.28	5282.59
428.46	5350.46
428.65	5448.77
428.84	5472.17
429.03	5453.45
429.22	5411.32
429.40	5638.35
429.59	5533.03
429.78	5245.14
429.97	5219.39
430.16	5261.52
430.34	5430.04
430.53	5692.18
430.72	5643.03
430.91	5605.58
431.10	5570.48
431.28	5661.76
431.47	5806.87
431.66	5839.64
431.85	5715.59
432.03	5860.70
432.22	5916.87
432.41	5879.43
432.60	5851.34
432.79	5795.17
432.97	5907.51
433.16	5947.30
433.35	6047.94
433.54	6148.59
433.72	5963.68
433.91	5937.94
434.10	6127.52
434.28	6008.16
434.47	6181.35
434.66	6258.59
434.85	6251.57
435.03	6237.53
435.22	6221.14
435.41	6445.84
435.59	6392.00
435.78	6349.87
435.97	6487.96
436.16	6326.47
436.34	6478.60
436.53	6443.49
436.72	6637.76
436.90	6532.44
437.09	6626.06
437.28	6579.25
437.46	6502.01
437.65	6595.63
437.84	6782.87
438.02	6626.06
438.21	6576.91
438.40	6745.42
438.58	6909.26
438.77	7148.00
438.96	6974.80
439.14	7206.51
439.33	7241.62
439.52	7129.27
439.70	7166.72
439.89	7281.41
440.08	7463.97
440.26	7290.77
440.45	7370.35
440.63	7398.43
440.82	7555.25
441.01	7454.61
441.19	7775.26
441.38	7562.27
441.57	7791.64
441.75	7805.69
441.94	7948.46
442.12	7864.20
442.31	7775.26
442.50	7922.71
442.68	7967.18
442.87	8095.91
443.05	8077.19
443.24	8140.38
443.43	8049.10
443.61	8198.90
443.80	8280.82
443.98	8079.53
444.17	7756.54
444.35	8109.96
444.54	8292.52
444.73	8329.97
444.91	8332.31
445.10	8320.60
445.28	8290.18
445.47	8262.09
445.65	8241.03
445.84	8362.73
446.02	8425.93
446.21	8465.72
446.39	8360.39
446.58	8404.86
446.77	8437.63
446.95	8105.28
447.14	8435.29
447.32	8524.23
447.51	8255.07
447.69	8493.80
447.88	8451.67
448.06	8716.16
448.25	8533.59
448.43	8528.91
448.62	8659.98
448.80	8592.11
448.99	8674.03
449.17	8772.33
449.36	8585.08
449.54	8762.97
449.73	8966.59
449.91	8987.66
450.10	9043.83
450.28	8898.72
450.46	8917.44
450.65	8926.80
450.83	9048.51
451.02	8840.20
451.20	9114.05
451.39	9034.47
451.57	9153.84
451.76	8940.85
451.94	9151.49
452.13	9448.74
452.31	9071.92
452.49	9151.49
452.68	9275.54
452.86	9238.09
453.05	9425.34
453.23	9500.23
453.42	9266.18
453.60	9469.81
453.78	9350.44
453.97	9390.23
454.15	9605.56
454.34	9376.19
454.52	9783.44
454.70	9727.27
454.89	9654.71
455.07	9818.55
455.26	9769.40
455.44	9741.31
455.62	9968.34
455.81	9846.63
455.99	10010.47
456.17	10066.64
456.36	10003.45
456.54	10040.90
456.73	10122.82
456.91	10466.88
457.09	10399.00
457.28	10532.41
457.46	10232.82
457.64	10485.60
457.83	10281.97
458.01	10331.12
458.19	10609.65
458.38	10581.56
458.56	10565.18
458.74	10609.65
458.93	10736.04
459.11	10827.32
459.29	10675.18
459.48	10651.78
459.66	10651.78
459.84	10794.55
460.03	10925.62
460.21	10841.36
460.39	10782.85
460.57	10934.98
460.76	10902.22
460.94	11131.59
461.12	11124.57
461.31	11019.24
461.49	11215.85
461.67	11094.14
461.85	11473.31
462.04	11363.30
462.22	11723.74
462.40	11421.81
462.59	11602.04
462.77	11665.23
462.95	11707.36
463.13	11332.87
463.32	11595.01
463.50	11658.21
463.68	11602.04
463.86	11875.88
464.05	11580.97
464.23	11693.32
464.41	12002.27
464.59	11445.22
464.78	12056.10
464.96	11983.54
465.14	11847.79
465.32	12011.63
465.50	12023.33
465.69	12182.49
465.87	12002.27
466.05	12484.42
466.23	12109.93
466.41	11985.88
466.60	12313.56
466.78	12056.10
466.96	12112.27
467.14	12161.42
467.32	12376.75
467.51	12334.62
467.69	11894.60
467.87	12233.98
468.05	12603.78
468.23	12453.99
468.41	12255.04
468.60	12697.41
468.78	12631.87
468.96	12519.53
469.14	12809.75
469.32	13041.46
469.50	12739.54
469.69	13142.11
469.87	12870.61
470.05	13202.96
470.23	13137.43
470.41	13261.48
470.59	13261.48
470.77	13167.85
470.95	13158.49
471.14	13544.68
471.32	13135.09
471.50	13364.46
471.68	13549.36
471.86	13558.72
472.04	13717.88
472.22	13891.08
472.40	13710.86
472.58	13722.56
472.77	13998.74
472.95	14059.60
473.13	14778.14
473.31	14075.98
473.49	14352.16
473.67	13867.67
473.85	14160.24
474.03	14658.78
474.21	14633.03
474.39	14621.33
474.57	14780.48
474.75	14665.80
474.93	15068.37
475.12	14944.32
475.30	15044.96
475.48	15321.15
475.66	15208.80
475.84	15164.33
476.02	15307.10
476.20	15288.38
476.38	15545.84
476.56	15871.17
476.74	15782.23
476.92	15793.94
477.10	15791.59
477.28	16175.44
477.46	16091.18
477.64	16297.15
477.82	16580.36
478.00	16807.39
478.18	16737.17
478.36	16915.05
478.54	17153.79
478.72	17032.08
478.90	17263.79
479.08	17303.58
479.26	17785.73
479.44	17682.75
479.62	17481.46
479.80	17900.42
479.98	18052.55
480.16	18429.38
480.34	18097.02
480.52	18361.50
480.70	18665.77
480.88	18150.85
481.06	18391.93
481.24	18714.92
481.41	18864.72
481.59	19414.74
481.77	19515.39
481.95	19447.51
482.13	19475.60
482.31	19681.56
482.49	20407.13
482.67	20063.07
482.85	20334.57
483.03	20308.83
483.21	20648.21
483.39	20952.48
483.57	20938.43
483.74	21060.14
483.92	21647.61
484.10	21055.46
484.28	21675.70
484.46	21738.90
484.64	21947.20
484.82	22068.91
485.00	22146.15
485.18	22621.28
485.35	22831.93
485.53	22497.23
485.71	22778.09
485.89	23618.35
486.07	23302.37
486.25	23555.15
486.43	23183.01
486.61	23660.48
486.78	24023.26
486.96	23845.38
487.14	24425.83
487.32	24568.60
487.50	24793.29
487.68	24797.98
487.85	24945.43
488.03	25366.73
488.21	25427.58
488.39	25762.28
488.57	25802.07
488.75	26024.42
488.92	26279.54
489.10	26565.08
489.28	26312.30
489.46	26995.74
489.64	26787.43
489.81	27578.53
489.99	27517.68
490.17	27531.72
490.35	27770.46
490.53	28140.26
490.70	28706.67
490.88	28451.55
491.06	28893.91
491.24	28732.42
491.41	29081.16
491.59	29612.46
491.77	28835.40
491.95	29703.74
492.13	29839.49
492.30	30099.29
492.48	29792.68
492.66	30211.64
492.84	30450.37
493.01	30581.44
493.19	30637.61
493.37	30951.24
493.54	30932.52
493.72	31187.64
493.90	31218.07
494.08	32077.04
494.25	31929.59
494.43	31995.12
494.61	32208.11
494.79	32137.90
494.96	32577.92
495.14	32423.44
495.32	32856.44
495.49	33010.92
495.67	32790.91
495.85	33387.74
496.02	34005.64
496.20	34005.64
496.38	33893.30
496.55	33860.53
496.73	34752.27
496.91	34335.66
497.09	34433.96
497.26	34684.40
497.44	34983.99
497.62	35534.01
497.79	35512.95
497.97	35325.71
498.14	35864.03
498.32	35868.71
498.50	36201.07
498.67	36458.52
498.85	36273.62
499.03	36849.39
499.20	36320.43
499.38	36622.36
499.56	37027.28
499.73	37228.56
499.91	36950.04
500.08	37289.42
500.26	37675.60
500.44	37315.16
500.61	37851.14
500.79	37340.91
500.97	37968.17
501.14	38677.35
501.32	38691.40
501.49	38298.19
501.67	38323.93
501.84	38988.64
502.02	38511.17
502.20	38927.79
502.37	39260.15
502.55	39257.81
502.72	39253.12
502.90	39110.35
503.07	39281.21
503.25	39732.93
503.43	39669.74
503.60	39814.85
503.78	40011.46
503.95	40397.65
504.13	40322.75
504.30	40229.13
504.48	40481.91
504.65	40535.74
504.83	41460.25
505.01	41081.08
505.18	40919.59
505.36	41261.30
505.53	41120.87
505.71	41581.96
505.88	41874.52
506.06	41680.26
506.23	41661.54
506.41	41825.37
506.58	41811.33
506.76	41797.29
506.93	41979.85
507.11	42162.41
507.28	42234.97
507.46	42897.34
507.63	42572.00
507.81	43299.91
507.98	42452.64
508.16	42579.03
508.33	43105.65
508.50	43325.66
508.68	43159.48
508.85	43524.60
509.03	43753.97
509.20	43903.77
509.38	44238.47
509.55	44350.81
509.73	44346.13
509.90	44304.00
510.08	44275.91
510.25	44694.87
510.42	44781.47
510.60	44854.03
510.77	45530.44
510.95	45024.89
511.12	44961.69
511.30	45195.74
511.47	45404.05
511.64	45462.57
511.82	45750.45
511.99	45448.52
512.17	45909.61
512.34	45844.07
512.51	46110.89
512.69	45806.62
512.86	46073.45
513.04	46838.80
513.21	46520.49
513.38	46424.53
513.56	46211.54
513.73	46642.20
513.90	46707.73
514.08	46948.81
514.25	47049.45
514.43	46918.38
514.60	47363.08
514.77	47278.82
514.95	47262.44
515.12	47496.49
515.29	47566.71
515.47	47686.07
515.64	48081.63
515.81	47501.17
515.99	48109.71
516.16	48205.67
516.33	48200.99
516.51	48641.01
516.68	48437.39
516.85	48109.71
517.03	48722.93
517.20	48985.07
517.37	48608.25
517.54	48397.60
517.72	48488.88
517.89	49123.16
518.06	49287.00
518.24	49008.48
518.41	49104.44
518.58	49244.87
518.75	49036.56
518.93	49738.72
519.10	49413.39
519.27	49656.81
519.45	49464.88
519.62	49858.09
519.79	50099.17
519.96	49736.38
520.14	50033.63
520.31	49860.43
520.48	50239.60
520.65	50157.68
520.83	50471.31
521.00	50555.57
521.17	50263.00
521.34	50899.63
521.52	50981.55
521.69	50763.88
521.86	51096.24
522.03	50962.82
522.20	50878.57
522.38	51360.72
522.55	51229.65
522.72	51124.32
522.89	51023.68
523.07	51522.21
523.24	51409.87
523.41	51845.21
523.58	51332.63
523.75	51700.09
523.92	51395.82
524.10	51887.34
524.27	52076.92
524.44	51791.37
524.61	51973.94
524.78	52168.20
524.96	51966.91
525.13	52261.82
525.30	52266.50
525.47	52540.35
525.64	52348.42
525.81	52615.24
525.98	52533.32
526.16	52273.52
526.33	52465.45
526.50	52947.60
526.67	52680.78
526.84	52858.66
527.01	52786.10
527.18	52535.66
527.36	52619.92
527.53	52640.99
527.70	53282.30
527.87	53523.37
528.04	52868.02
528.21	53113.78
528.38	53001.43
528.55	53256.55
528.72	53223.78
528.89	53153.57
529.07	53230.80
529.24	53345.49
529.41	53722.32
529.58	53804.24
529.75	53647.42
529.92	53565.50
530.09	53736.36
530.26	53869.77
530.43	54045.31
530.60	53460.18
530.77	53621.67
530.94	53839.34
531.11	53822.96
531.28	53893.18
531.46	53748.06
531.63	54089.78
531.80	54316.81
531.97	54534.48
532.14	54513.42
532.31	54405.75
532.48	54511.08
532.65	54431.50
532.82	54323.83
532.99	54464.27
533.16	54288.73
533.33	54560.23
533.50	54738.11
533.67	54473.63
533.84	54475.97
534.01	54768.54
534.18	54642.15
534.35	54927.69
534.52	55014.29
534.69	55112.59
534.86	55199.19
535.03	54820.03
535.20	55157.06
535.37	55299.84
535.54	55189.83
535.71	55112.59
535.88	55482.40
536.05	55332.60
536.22	55395.80
536.38	55583.04
536.55	55433.25
536.72	55515.17
536.89	55299.84
537.06	55461.33
537.23	55477.72
537.40	55414.52
537.57	55501.12
537.74	55735.18
537.91	55606.45
538.08	55973.91
538.25	55444.95
538.42	55803.05
538.59	56046.47
538.75	55756.24
538.92	56011.36
539.09	56076.90
539.26	55866.25
539.43	55887.31
539.60	56275.84
539.77	56179.88
539.94	56184.56
540.11	55994.98
540.28	56275.84
540.44	56395.21
540.61	56357.76
540.78	56081.58
540.95	56376.48
541.12	56435.00
541.29	56034.77
541.46	56591.81
541.62	56458.40
541.79	56388.19
541.96	56484.15
542.13	56329.67
542.30	56411.59
542.47	56652.67
542.63	56900.76
542.80	57036.51
542.97	56952.26
543.14	56914.81
543.31	57111.41
543.48	56973.32
543.64	57319.72
543.81	57272.91
543.98	57102.05
544.15	57043.54
544.32	57289.29
544.48	57518.67
544.65	57528.03
544.82	57230.78
544.99	57216.74
545.16	57415.68
545.32	57392.28
545.49	57546.75
545.66	57528.03
545.83	57467.17
546.00	57670.80
546.16	57736.34
546.33	57394.62
546.50	57392.28
546.67	57523.35
546.83	57174.61
547.00	57406.32
547.17	57626.33
547.34	57640.37
547.50	57836.98
547.67	58024.22
547.84	57928.26
548.00	58148.27
548.17	58122.52
548.34	58014.86
548.51	58188.06
548.67	57996.13
548.84	58143.59
549.01	57883.79
549.18	58284.02
549.34	58071.03
549.51	58155.29
549.68	58218.49
549.84	58211.46
550.01	58255.93
550.18	58185.72
550.34	58213.80
550.51	58269.98
550.68	58515.73
550.84	58115.50
551.01	58557.86
551.18	58302.74
551.34	58330.83
551.51	58560.20
551.68	58361.26
551.84	58452.54
552.01	58485.31
552.18	58466.58
552.34	58384.66
552.51	58541.48
552.68	58487.65
552.84	58745.11
553.01	58955.75
553.18	58878.52
553.34	58841.07
553.51	58820.00
553.67	58763.83
553.84	58808.30
554.01	58838.73
554.17	58827.02
554.34	58862.13
554.51	58660.85
554.67	59035.33
554.84	59103.21
555.00	59044.69
555.17	58918.31
555.33	58894.90
555.50	58719.36
555.67	58831.71
555.83	58724.04
556.00	59070.44
556.16	59138.32
556.33	59274.07
556.50	59072.78
556.66	59304.49
556.83	59056.40
556.99	59398.12
557.16	59222.58
557.32	59444.93
557.49	59435.56
557.65	59065.76
557.82	59269.39
557.98	59131.29
558.15	59276.41
558.32	59428.54
558.48	59224.92
558.65	59423.86
558.81	59568.97
558.98	59363.01
559.14	59238.96
559.31	59444.93
559.47	59625.15
559.64	59463.65
559.80	59695.36
559.97	59604.08
560.13	59700.04
560.30	59433.22
560.46	59845.16
560.63	59788.98
560.79	59599.40
560.96	59831.11
561.12	59725.79
561.29	59749.20
561.45	59697.70
561.61	59772.60
561.78	59723.45
561.94	59676.64
562.11	59594.72
562.27	59891.97
562.44	59859.20
562.60	59812.39
562.77	59824.09
562.93	59948.14
563.10	59936.44
563.26	59667.28
563.42	59971.55
563.59	59966.87
563.75	59873.24
563.92	59929.42
564.08	59840.48
564.24	59896.65
564.41	59955.16
564.57	60123.68
564.74	60111.98
564.90	59999.63
565.07	60104.96
565.23	59924.74
565.39	60158.79
565.56	60041.76
565.72	59973.89
565.88	59861.54
566.05	60037.08
566.21	59983.25
566.38	60020.70
566.54	60107.30
566.70	60182.19
566.87	60257.09
567.03	60067.51
567.19	60170.49
567.36	60229.01
567.52	60317.95
567.68	60456.04
567.85	60369.44
568.01	60268.79
568.17	60364.76
568.34	60397.52
568.50	60041.76
568.66	60299.22
568.83	60154.11
568.99	60144.75
569.15	60437.31
569.32	60439.65
569.48	60353.05
569.64	60413.91
569.81	60339.01
569.97	60214.96
570.13	60278.16
570.30	60306.24
570.46	60280.50
570.62	60341.35
570.78	60430.29
570.95	60402.21
571.11	60669.03
571.27	60257.09
571.43	60755.63
571.60	60360.08
571.76	60238.37
571.92	60624.56
572.09	60341.35
572.25	60439.65
572.41	60364.76
572.57	60416.25
572.74	60706.47
572.90	60411.57
573.06	60687.75
573.22	60559.02
573.38	60444.33
573.55	60757.97
573.71	60776.69
573.87	60809.46
574.03	60535.62
574.20	60662.00
574.36	60540.30
574.52	60741.58
574.68	60793.07
574.84	60828.18
575.01	60708.82
575.17	60605.83
575.33	60512.21
575.49	60540.30
575.65	60692.43
575.82	60736.90
575.98	60825.84
576.14	60865.63
576.30	60797.76
576.46	60521.57
576.62	60720.52
576.79	60743.92
576.95	60514.55
577.11	60774.35
577.27	60669.03
577.43	60664.35
577.59	60736.90
577.75	60603.49
577.92	60467.74
578.08	60718.18
578.24	60701.79
578.40	60863.29
578.56	60858.61
578.72	60743.92
578.88	60968.61
579.04	60977.98
579.21	60694.77
579.37	60704.13
579.53	61001.38
579.69	60547.32
579.85	60741.58
580.01	60441.99
580.17	60713.50
580.33	60853.93
580.49	60945.21
580.65	60935.85
580.82	60741.58
580.98	60666.69
581.14	60640.94
581.30	60851.59
581.46	60741.58
581.62	60910.10
581.78	60662.00
581.94	60837.54
582.10	60832.86
582.26	60636.26
582.42	60764.99
582.58	60914.78
582.74	60743.92
582.90	60804.78
583.06	60636.26
583.22	60722.86
583.38	60757.97
583.54	60966.27
583.70	60846.91
583.86	60975.64
584.02	60917.12
584.18	61036.49
584.34	60790.73
584.50	60945.21
584.66	60842.23
584.82	60708.82
584.98	61293.95
585.14	60935.85
585.30	60793.07
585.46	60910.10
585.62	60769.67
585.78	60874.99
585.94	60764.99
586.10	60910.10
586.26	60935.85
586.42	60912.44
586.58	60905.42
586.74	61024.79
586.90	60912.44
587.06	60924.14
587.22	60994.36
587.38	60961.59
587.54	61099.68
587.70	61139.47
587.86	61111.39
588.02	60931.17
588.18	61078.62
588.34	61043.51
588.49	61034.15
