SpectraSuite Data File
++++++++++++++++++++++++++++++++++++
Date: Fri Oct 25 10:43:30 EDT 2013
User: price-jones
Dark Spectrum Present: No
Reference Spectrum Present: No
Number of Sampled Component Spectra: 1
Spectrometers: USB2+H05261
Integration Time (usec): 100000 (USB2+H05261)
Spectra Averaged: 1 (USB2+H05261)
Boxcar Smoothing: 0 (USB2+H05261)
Correct for Electrical Dark: No (USB2+H05261)
Strobe/Lamp Enabled: No (USB2+H05261)
Correct for Detector Non-linearity: No (USB2+H05261)
Correct for Stray Light: No (USB2+H05261)
Number of Pixels in Processed Spectrum: 2048
>>>>>Begin Processed Spectral Data<<<<<
365.73	79.58
365.92	79.58
366.12	79.58
366.32	53.83
366.52	0.00
366.72	11.70
366.91	0.00
367.11	30.43
367.31	0.00
367.51	0.00
367.70	23.41
367.90	65.54
368.10	0.00
368.30	65.54
368.49	42.13
368.69	70.22
368.89	30.43
369.09	25.75
369.28	0.00
369.48	95.96
369.68	51.49
369.87	58.51
370.07	149.79
370.27	86.60
370.47	149.79
370.66	365.12
370.86	360.44
371.06	472.79
371.25	486.83
371.45	482.15
371.65	503.22
371.84	458.74
372.04	477.47
372.24	472.79
372.44	435.34
372.63	524.28
372.83	451.72
373.03	489.17
373.22	461.09
373.42	554.71
373.62	557.05
373.81	540.66
374.01	519.60
374.21	521.94
374.40	648.33
374.60	566.41
374.79	564.07
374.99	557.05
375.19	538.32
375.38	645.99
375.58	552.37
375.78	512.58
375.97	645.99
376.17	624.92
376.37	613.22
376.56	578.11
376.76	636.63
376.95	641.31
377.15	634.29
377.35	734.93
377.54	690.46
377.74	599.18
377.93	599.18
378.13	730.25
378.33	653.01
378.52	697.48
378.72	671.73
378.91	697.48
379.11	631.94
379.31	695.14
379.50	620.24
379.70	650.67
379.89	688.12
380.09	702.16
380.28	585.13
380.48	711.52
380.68	594.50
380.87	751.31
381.07	709.18
381.26	772.38
381.46	734.93
381.65	755.99
381.85	622.58
382.04	671.73
382.24	678.76
382.43	706.84
382.63	636.63
382.83	657.69
383.02	753.65
383.22	786.42
383.41	812.17
383.61	746.63
383.80	779.40
384.00	697.48
384.19	730.25
384.39	828.55
384.58	760.67
384.78	758.33
384.97	746.63
385.17	737.27
385.36	709.18
385.56	727.91
385.75	746.63
385.95	795.78
386.14	903.45
386.34	877.70
386.53	908.13
386.72	826.21
386.92	894.08
387.11	868.34
387.31	856.64
387.50	807.48
387.70	926.85
387.89	805.14
388.09	891.74
388.28	847.27
388.48	858.98
388.67	915.15
388.86	978.34
389.06	964.30
389.25	1004.09
389.45	1027.50
389.64	924.51
389.84	952.60
390.03	1048.56
390.22	973.66
390.42	983.02
390.61	1018.13
390.81	1053.24
391.00	1039.20
391.19	1018.13
391.39	1057.92
391.58	1057.92
391.78	999.41
391.97	985.37
392.16	905.79
392.36	1086.01
392.55	994.73
392.75	947.92
392.94	1008.77
393.13	1074.31
393.33	1043.88
393.52	1039.20
393.71	1118.78
393.91	1100.05
394.10	1160.91
394.29	1188.99
394.49	1074.31
394.68	1191.33
394.88	1151.54
395.07	1277.93
395.26	1188.99
395.46	1198.35
395.65	1226.44
395.84	1233.46
396.04	1214.74
396.23	1191.33
396.42	1090.69
396.62	1144.52
396.81	1111.75
397.00	1247.51
397.19	1249.85
397.39	1179.63
397.58	1458.15
397.77	1406.66
397.97	1460.49
398.16	1420.71
398.35	1455.81
398.55	1504.96
398.74	1444.11
398.93	1582.20
399.12	1444.11
399.32	1437.09
399.51	1458.15
399.70	1535.39
399.90	1607.95
400.09	1593.90
400.28	1675.82
400.47	1554.12
400.67	1636.03
400.86	1619.65
401.05	1621.99
401.24	1652.42
401.44	1774.13
401.63	1734.34
401.82	1624.33
402.01	1764.76
402.21	1743.70
402.40	1699.23
402.59	1696.89
402.78	1694.55
402.97	1802.21
403.17	1844.34
403.36	1905.20
403.55	1739.02
403.74	1783.49
403.93	1930.94
404.13	1895.83
404.32	1893.49
404.51	1881.79
404.70	1820.94
404.89	1888.81
405.09	2010.52
405.28	1949.67
405.47	1930.94
405.66	2050.31
405.85	2008.18
406.05	1881.79
406.24	1870.09
406.43	1961.37
406.62	2059.67
406.81	2129.89
407.00	2069.03
407.20	2054.99
407.39	1998.82
407.58	2148.61
407.77	2179.04
407.96	2113.50
408.15	2221.17
408.34	2230.53
408.54	2331.17
408.73	2298.41
408.92	2300.75
409.11	2377.98
409.30	2375.64
409.49	2363.94
409.68	2228.19
409.87	2195.42
410.07	2176.70
410.26	2413.09
410.45	2420.11
410.64	2363.94
410.83	2485.65
411.02	2478.63
411.21	2576.93
411.40	2532.46
411.59	2509.05
411.78	2686.94
411.98	2546.50
412.17	2745.45
412.36	2700.98
412.55	2780.56
412.74	2829.71
412.93	2682.25
413.12	2743.11
413.31	2988.86
413.50	2902.26
413.69	2911.63
413.88	2885.88
414.07	2930.35
414.26	2857.79
414.45	2984.18
414.64	3075.46
414.83	3021.63
415.02	2928.01
415.22	3103.55
415.41	3138.66
415.60	3150.36
415.79	3201.85
415.98	3159.72
416.17	3234.62
416.36	3227.60
416.55	3208.87
416.74	3213.56
416.93	3089.51
417.12	3316.54
417.31	3356.33
417.50	3449.95
417.69	3517.83
417.88	3403.14
418.07	3410.16
418.26	3501.44
418.45	3515.48
418.64	3574.00
418.83	3613.79
419.02	3524.85
419.21	3529.53
419.39	3559.95
419.58	3529.53
419.77	3449.95
419.96	3688.68
420.15	3782.31
420.34	3716.77
420.53	3768.26
420.72	3782.31
420.91	3744.86
421.10	3812.73
421.29	3749.54
421.48	3758.90
421.67	3922.74
421.86	3836.14
422.05	3765.92
422.24	3843.16
422.43	3899.33
422.61	3822.09
422.80	3796.35
422.99	4011.68
423.18	3922.74
423.37	3929.76
423.56	3962.53
423.75	3882.95
423.94	3913.38
424.13	3763.58
424.32	3789.33
424.50	4093.60
424.69	3911.04
424.88	3946.14
425.07	3765.92
425.26	3852.52
425.45	3925.08
425.64	3812.73
425.83	4016.36
426.01	3953.16
426.20	3990.61
426.39	4030.40
426.58	4025.72
426.77	3889.97
426.96	3969.55
427.15	3948.48
427.33	4077.21
427.52	3983.59
427.71	4126.36
427.90	4128.70
428.09	4170.83
428.28	4135.73
428.46	4124.02
428.65	4025.72
428.84	4184.88
429.03	4205.94
429.22	4079.55
429.40	4133.39
429.59	4067.85
429.78	3941.46
429.97	3908.69
430.16	3985.93
430.34	4065.51
430.53	3957.85
430.72	4154.45
430.91	4245.73
431.10	4388.50
431.28	4498.51
431.47	4566.39
431.66	4596.81
431.85	4683.41
432.03	4582.77
432.22	4667.03
432.41	4578.09
432.60	4702.14
432.79	4706.82
432.97	4819.16
433.16	4699.80
433.35	4601.49
433.54	4573.41
433.72	4676.39
433.91	4528.94
434.10	4671.71
434.28	4587.45
434.47	4858.95
434.66	4791.08
434.85	4842.57
435.03	5020.45
435.22	4884.70
435.41	5076.62
435.59	5107.05
435.78	5123.43
435.97	5006.41
436.16	5217.05
436.34	5050.88
436.53	5139.82
436.72	5186.63
436.90	5203.01
437.09	5191.31
437.28	5137.48
437.46	5132.79
437.65	5074.28
437.84	5172.58
438.02	5238.12
438.21	5275.57
438.40	5107.05
438.58	5280.25
438.77	5420.68
438.96	5357.49
439.14	5598.56
439.33	5544.73
439.52	5582.18
439.70	5521.32
439.89	5633.67
440.08	5738.99
440.26	5678.14
440.45	5626.65
440.63	5856.02
440.82	5685.16
441.01	6001.13
441.19	5818.57
441.38	5919.21
441.57	6066.67
441.75	6019.86
441.94	6202.42
442.12	6317.11
442.31	6291.36
442.50	6223.48
442.68	6195.40
442.87	6186.04
443.05	6384.98
443.24	6317.11
443.43	6342.85
443.61	6663.51
443.80	6628.40
443.98	6242.21
444.17	6249.23
444.35	6436.47
444.54	6569.88
444.73	6410.73
444.91	6296.04
445.10	6389.66
445.28	6443.49
445.47	6296.04
445.65	6422.43
445.84	6450.52
446.02	6656.48
446.21	6530.09
446.39	6523.07
446.58	6789.89
446.77	6696.27
446.95	6401.37
447.14	6654.14
447.32	6726.70
447.51	6661.16
447.69	6530.09
447.88	6590.95
448.06	6689.25
448.25	6649.46
448.43	6649.46
448.62	6656.48
448.80	6733.72
448.99	6665.85
449.17	6890.54
449.36	6684.57
449.54	6843.73
449.73	6991.18
449.91	7052.03
450.10	7211.19
450.28	6995.86
450.46	7148.00
450.65	7169.06
450.83	7122.25
451.02	6944.37
451.20	7199.49
451.39	7351.62
451.57	7173.74
451.76	6986.50
451.94	7342.26
452.13	7204.17
452.31	7220.55
452.49	6937.35
452.68	7286.09
452.86	7227.57
453.05	7178.42
453.23	7234.60
453.42	7124.59
453.60	7344.60
453.78	7375.03
453.97	7267.36
454.15	7637.17
454.34	7384.39
454.52	7440.56
454.70	7588.02
454.89	7480.35
455.07	7527.16
455.26	7541.21
455.44	7737.81
455.62	7747.17
455.81	7875.90
455.99	7744.83
456.17	7789.30
456.36	7885.26
456.54	7747.17
456.73	7892.29
456.91	8147.40
457.09	8105.28
457.28	8177.83
457.46	7918.03
457.64	8116.98
457.83	8161.45
458.01	7946.12
458.19	8269.11
458.38	8184.85
458.56	8344.01
458.74	8311.24
458.93	8414.23
459.11	8269.11
459.29	8329.97
459.48	8360.39
459.66	8241.03
459.84	8355.71
460.03	8428.27
460.21	8402.52
460.39	8482.10
460.57	8606.15
460.76	8571.04
460.94	8697.43
461.12	8603.81
461.31	8711.47
461.49	8500.83
461.67	8865.95
461.85	8807.44
462.04	8746.58
462.22	9188.94
462.40	8861.27
462.59	8840.20
462.77	8884.67
462.95	8992.34
463.13	8849.57
463.32	8676.37
463.50	8992.34
463.68	8814.46
463.86	8863.61
464.05	8762.97
464.23	8910.42
464.41	9067.24
464.59	8856.59
464.78	9114.05
464.96	9109.36
465.14	9011.06
465.32	9081.28
465.50	9266.18
465.69	9352.78
465.87	9338.74
466.05	9249.80
466.23	9083.62
466.41	9097.66
466.60	9266.18
466.78	9076.60
466.96	9139.79
467.14	9415.98
467.32	9390.23
467.51	9411.29
467.69	9275.54
467.87	9404.27
468.05	9418.32
468.23	9376.19
468.41	9114.05
468.60	9504.92
468.78	9467.47
468.96	9596.20
469.14	9500.23
469.32	9483.85
469.50	9366.82
469.69	9572.79
469.87	9748.33
470.05	9762.37
470.23	9947.28
470.41	9940.26
470.59	9900.47
470.77	9956.64
470.95	9994.09
471.14	10171.97
471.32	9951.96
471.50	10249.21
471.68	10256.23
471.86	10296.02
472.04	10239.84
472.22	10611.99
472.40	10167.29
472.58	10492.62
472.77	10471.56
472.95	10572.20
473.13	10913.92
473.31	10579.22
473.49	10478.58
473.67	10509.01
473.85	10530.07
474.03	10869.45
474.21	10820.30
474.39	10953.71
474.57	10967.75
474.75	11108.18
474.93	10981.79
475.12	11068.39
475.30	11213.51
475.48	11407.77
475.66	11171.38
475.84	11257.98
476.02	11513.10
476.20	11522.46
476.38	11625.44
476.56	11791.62
476.74	11960.14
476.92	11967.16
477.10	11866.52
477.28	11920.35
477.46	12044.40
477.64	12210.57
477.82	12283.13
478.00	12521.87
478.18	12388.46
478.36	12578.04
478.54	12662.30
478.72	12456.33
478.90	12622.51
479.08	12966.57
479.26	13195.94
479.44	13233.39
479.62	13322.33
479.80	13200.62
479.98	13245.09
480.16	13631.28
480.34	13561.06
480.52	13879.38
480.70	13731.92
480.88	13659.37
481.06	13914.48
481.24	13865.33
481.41	14391.95
481.59	14377.91
481.77	14169.60
481.95	14473.87
482.13	14352.16
482.31	14600.26
482.49	14956.02
482.67	14670.48
482.85	15213.48
483.03	15215.82
483.21	15227.53
483.39	14981.77
483.57	15517.75
483.74	15269.66
483.92	15321.15
484.10	15527.11
484.28	15756.49
484.46	16278.43
484.64	16065.44
484.82	15861.81
485.00	16070.12
485.18	16266.72
485.35	16240.98
485.53	16100.55
485.71	15946.07
485.89	16456.31
486.07	16601.42
486.25	16744.19
486.43	16643.55
486.61	17055.48
486.78	17078.89
486.96	17394.86
487.14	17343.37
487.32	17642.96
487.50	17750.62
487.68	17909.78
487.85	18300.65
488.03	18443.42
488.21	18244.48
488.39	18307.67
488.57	18277.24
488.75	18663.43
488.92	19058.98
489.10	19269.63
489.28	19332.82
489.46	19690.93
489.64	19822.00
489.81	20058.39
489.99	20198.82
490.17	19932.00
490.35	20257.34
490.53	20112.22
490.70	20531.18
490.88	20168.40
491.06	20751.19
491.24	20926.73
491.41	20503.09
491.59	20669.27
491.77	20467.98
491.95	20994.61
492.13	21462.71
492.30	21642.93
492.48	21755.28
492.66	21539.95
492.84	21839.54
493.01	21872.31
493.19	22033.80
493.37	22251.47
493.54	22148.49
493.72	22478.50
493.90	22637.66
494.08	22867.03
494.25	23021.51
494.43	22939.59
494.61	23143.22
494.79	23054.28
494.96	23246.20
495.14	23756.44
495.32	23506.00
495.49	23676.86
495.67	23674.52
495.85	24114.54
496.02	24374.34
496.20	24315.83
496.38	24175.39
496.55	24390.72
496.73	25270.76
496.91	24519.45
497.09	25085.86
497.26	25001.60
497.44	24762.87
497.62	25102.25
497.79	25551.63
497.97	24758.19
498.14	25572.69
498.32	25511.84
498.50	25738.87
498.67	25649.93
498.85	25764.62
499.03	26150.81
499.20	26153.15
499.38	26272.51
499.56	26614.23
499.73	26115.70
499.91	26459.76
500.08	26143.78
500.26	26153.15
500.44	26576.78
500.61	26431.67
500.79	26382.52
500.97	26951.27
501.14	26958.29
501.32	26714.87
501.49	26829.56
501.67	27161.92
501.84	27037.87
502.02	27290.65
502.20	27550.45
502.37	27536.40
502.55	27363.20
502.72	27515.34
502.90	27646.41
503.07	27791.52
503.25	27906.21
503.43	27943.66
503.60	27740.03
503.78	27854.72
503.95	27679.18
504.13	28142.60
504.30	28290.06
504.48	28631.77
504.65	28898.59
504.83	28732.42
505.01	28961.79
505.18	28821.36
505.36	29553.94
505.53	29310.53
505.71	29369.04
505.88	29600.76
506.06	29427.56
506.23	29816.08
506.41	29619.48
506.58	29479.05
506.76	29408.83
506.93	29837.15
507.11	29762.25
507.28	30085.25
507.46	29816.08
507.63	29624.16
507.81	30258.45
507.98	30197.59
508.16	30520.59
508.33	30789.75
508.50	30419.94
508.68	30511.22
508.85	31126.78
509.03	30616.55
509.20	30522.93
509.38	30871.67
509.55	31007.42
509.73	31302.32
509.90	31686.17
510.08	31215.72
510.25	31051.89
510.42	31377.22
510.60	31828.95
510.77	31854.69
510.95	32477.27
511.12	31826.60
511.30	31920.23
511.47	31955.33
511.64	32301.73
511.82	32250.24
511.99	32051.30
512.17	32428.12
512.34	31861.71
512.51	32517.06
512.69	32584.94
512.86	32879.85
513.04	32517.06
513.21	32395.35
513.38	32531.11
513.56	32926.66
513.73	32538.13
513.90	32835.38
514.08	32921.98
514.25	33064.75
514.43	32891.55
514.60	32837.72
514.77	33390.08
514.95	33383.06
515.12	33156.03
515.29	33443.91
515.47	33813.72
515.64	33633.50
515.81	33635.84
515.99	34024.37
516.16	33589.03
516.33	33530.51
516.51	33198.16
516.68	33097.52
516.85	33013.26
517.03	33448.60
517.20	33783.29
517.37	34153.10
517.54	34476.09
517.72	34288.85
517.89	33961.17
518.06	33490.73
518.24	33776.27
518.41	34122.67
518.58	34396.51
518.75	34586.10
518.93	34923.13
519.10	34686.74
519.27	35058.88
519.45	34871.64
519.62	35056.54
519.79	34834.19
519.96	34941.86
520.14	35393.58
520.31	35299.96
520.48	35442.73
520.65	35290.60
520.83	35323.36
521.00	35742.32
521.17	35683.81
521.34	35784.45
521.52	35990.42
521.69	35587.85
521.86	36332.14
522.03	35985.74
522.20	36016.16
522.38	36472.57
522.55	36187.02
522.72	36177.66
522.89	36196.38
523.07	36840.03
523.24	36465.55
523.41	36554.49
523.58	36416.40
523.75	37282.39
523.92	37247.29
524.10	36737.05
524.27	37188.77
524.44	36954.72
524.61	37010.89
524.78	37413.46
524.96	37642.84
525.13	37350.27
525.30	37216.86
525.47	37322.18
525.64	37610.07
525.81	37287.07
525.98	37205.16
526.16	37289.42
526.33	36999.19
526.50	37804.33
526.67	36950.04
526.84	37015.57
527.01	36828.33
527.18	37794.97
527.36	37680.28
527.53	37968.17
527.70	38185.84
527.87	37937.74
528.04	37970.51
528.21	38539.26
528.38	38459.68
528.55	38726.50
528.72	38672.67
528.89	38459.68
529.07	38822.47
529.24	38555.64
529.41	38300.53
529.58	38667.99
529.75	38651.61
529.92	38672.67
530.09	38698.42
530.26	38740.55
530.43	38946.51
530.60	38845.87
530.77	39068.22
530.94	39246.10
531.11	38745.23
531.28	39271.85
531.46	39732.93
531.63	39672.08
531.80	38775.66
531.97	39171.21
532.14	39208.65
532.31	38859.91
532.48	39077.58
532.65	39636.97
532.82	39435.69
532.99	39580.80
533.16	39431.01
533.33	39831.24
533.50	40069.97
533.67	39978.69
533.84	39742.30
534.01	39718.89
534.18	39800.81
534.35	40095.72
534.52	40140.19
534.69	40116.78
534.86	40339.13
535.03	40182.32
535.20	40144.87
535.37	40580.21
535.54	40477.22
535.71	40495.95
535.88	40376.58
536.05	40360.20
536.22	40825.96
536.38	40718.30
536.55	40577.87
536.72	40430.41
536.89	40259.55
537.06	40734.68
537.23	40732.34
537.40	40912.56
537.57	41148.96
537.74	41036.61
537.91	40947.67
538.08	40580.21
538.25	40971.08
538.42	41195.77
538.59	41261.30
538.75	40879.80
538.92	41226.20
539.09	41265.99
539.26	41263.64
539.43	41261.30
539.60	41081.08
539.77	40687.87
539.94	40973.42
540.11	41413.44
540.28	41317.48
540.44	41593.66
540.61	41340.88
540.78	41263.64
540.95	41116.19
541.12	41001.50
541.29	41413.44
541.46	41900.27
541.62	41771.54
541.79	41525.78
541.96	41361.95
542.13	41832.39
542.30	41839.42
542.47	41820.69
542.63	41818.35
542.80	41654.51
542.97	42321.57
543.14	42279.44
543.31	42419.87
543.48	42515.83
543.64	42466.68
543.81	42443.27
543.98	42401.14
544.15	42305.18
544.32	42361.36
544.48	42660.94
544.65	42890.32
544.82	42490.09
544.99	42146.03
545.16	42775.63
545.32	42478.38
545.49	42946.49
545.66	43093.94
545.83	42873.93
546.00	43260.12
546.16	42843.51
546.33	42604.77
546.50	42522.85
546.67	43072.88
546.83	42473.70
547.00	42979.26
547.17	43019.05
547.34	43150.12
547.50	42801.38
547.67	43213.31
547.84	43496.52
548.00	43723.55
548.17	43503.54
548.34	43765.68
548.51	43690.78
548.67	43590.14
548.84	43861.64
549.01	42993.30
549.18	43510.56
549.34	43494.18
549.51	43625.25
549.68	43297.57
549.84	43098.62
550.01	43529.28
550.18	43613.54
550.34	43496.52
550.51	43480.13
550.68	43709.50
550.84	43079.90
551.01	44072.29
551.18	44004.41
551.34	43398.21
551.51	44002.07
551.68	44133.14
551.84	44051.22
552.01	43847.60
552.18	44009.09
552.34	43753.97
552.51	44257.19
552.68	43847.60
552.84	44271.23
553.01	44236.12
553.18	43866.32
553.34	44381.24
553.51	44261.87
553.67	44486.56
553.84	44659.76
554.01	44493.58
554.17	44823.60
554.34	44458.48
554.51	44390.60
554.67	44175.27
554.84	44966.37
555.00	44669.12
555.17	44498.26
555.33	44893.82
555.50	44481.88
555.67	44327.41
555.83	44577.84
556.00	44287.62
556.16	44884.45
556.33	44516.99
556.50	44741.68
556.66	44662.10
556.83	44257.19
556.99	44769.77
557.16	44753.38
557.32	44545.08
557.49	44439.75
557.65	44205.70
557.82	44587.21
557.98	44399.96
558.15	44816.58
558.32	44877.43
558.48	44699.55
558.65	44634.02
558.81	44472.52
558.98	44458.48
559.14	44652.74
559.31	44828.28
559.47	44938.29
559.64	44982.76
559.80	44971.05
559.97	45052.97
560.13	44924.24
560.30	44893.82
560.46	45272.98
560.63	44964.03
560.79	45057.65
560.96	45464.91
561.12	45062.33
561.29	45102.12
561.45	45584.27
561.61	45460.23
561.78	44910.20
561.94	44982.76
562.11	45146.59
562.27	44928.92
562.44	45120.85
562.60	45523.42
562.77	45170.00
562.93	45223.83
563.10	45633.42
563.26	45048.29
563.42	45771.52
563.59	45127.87
563.75	45289.37
563.92	45497.67
564.08	45607.68
564.24	45815.99
564.41	44928.92
564.57	45570.23
564.74	45277.66
564.90	45490.65
565.07	45434.48
565.23	45347.88
565.39	44854.03
565.56	45237.87
565.72	45382.99
565.88	45081.06
566.05	45336.18
566.21	45680.24
566.38	45392.35
566.54	45214.47
566.70	45769.18
566.87	45834.71
567.03	45581.93
567.19	45647.47
567.36	45998.55
567.52	45577.25
567.68	45710.66
567.85	45507.04
568.01	45720.02
568.17	45560.87
568.34	45794.92
568.50	45958.76
568.66	45535.12
568.83	45471.93
568.99	45202.77
569.15	45591.30
569.32	45158.30
569.48	45436.82
569.64	45832.37
569.81	45968.12
569.97	45771.52
570.13	45673.21
570.30	45308.09
570.46	45111.49
570.62	45296.39
570.78	44996.80
570.95	45357.24
571.11	45876.84
571.27	46075.79
571.43	45530.44
571.60	45738.75
571.76	45783.22
571.92	46043.02
572.09	45773.86
572.25	45565.55
572.41	45755.13
572.57	45574.91
572.74	46117.92
572.90	45766.84
573.06	45621.72
573.22	45752.79
573.38	45904.93
573.55	45525.76
573.71	45677.90
573.87	45937.69
574.03	46010.25
574.20	45904.93
574.36	45588.95
574.52	45792.58
574.68	45715.34
574.84	45757.47
575.01	45357.24
575.17	45813.65
575.33	45670.87
575.49	45553.85
575.65	45750.45
575.82	45776.20
575.98	45301.07
576.14	45933.01
576.30	45879.18
576.46	45874.50
576.62	45588.95
576.79	45773.86
576.95	45837.05
577.11	45832.37
577.27	45965.78
577.43	46052.38
577.59	45633.42
577.75	45804.28
577.92	45448.52
578.08	45504.70
578.24	45272.98
578.40	45720.02
578.56	46157.70
578.72	45652.15
578.88	45982.16
579.04	46265.37
579.21	45614.70
579.37	45797.26
579.53	45797.26
579.69	45319.79
579.85	46059.40
580.01	45862.80
580.17	45766.84
580.33	46209.20
580.49	46162.39
580.65	46082.81
580.82	46148.34
580.98	45647.47
581.14	45841.73
581.30	46038.34
581.46	45537.46
581.62	46148.34
581.78	46267.71
581.94	46110.89
582.10	45975.14
582.26	46061.74
582.42	46068.76
582.58	45865.14
582.74	45511.72
582.90	45956.42
583.06	45879.18
583.22	45914.29
583.38	46110.89
583.54	46351.97
583.70	45839.39
583.86	46209.20
584.02	46216.22
584.18	45993.87
584.34	45846.41
584.50	45759.81
584.66	45832.37
584.82	46014.93
584.98	46080.47
585.14	46543.89
585.30	45635.77
585.46	45401.71
585.62	45411.07
585.78	46087.49
585.94	45755.13
586.10	46014.93
586.26	45457.88
586.42	45846.41
586.58	46059.40
586.74	45937.69
586.90	45830.03
587.06	45717.68
587.22	46085.15
587.38	45855.78
587.54	46057.06
587.70	45610.02
587.86	46150.68
588.02	45937.69
588.18	45698.96
588.34	45551.51
588.49	45497.67
588.65	45326.81
588.81	45603.00
588.97	45584.27
589.13	45701.30
589.29	45612.36
589.45	45846.41
589.61	45755.13
589.77	46195.15
589.93	45874.50
590.08	46195.15
