SpectraSuite Data File
++++++++++++++++++++++++++++++++++++
Date: Fri Oct 25 11:34:11 EDT 2013
User: price-jones
Dark Spectrum Present: No
Reference Spectrum Present: No
Number of Sampled Component Spectra: 1
Spectrometers: USB2+H05261
Integration Time (usec): 100000 (USB2+H05261)
Spectra Averaged: 1 (USB2+H05261)
Boxcar Smoothing: 0 (USB2+H05261)
Correct for Electrical Dark: No (USB2+H05261)
Strobe/Lamp Enabled: No (USB2+H05261)
Correct for Detector Non-linearity: No (USB2+H05261)
Correct for Stray Light: No (USB2+H05261)
Number of Pixels in Processed Spectrum: 2048
>>>>>Begin Processed Spectral Data<<<<<
365.73	278.52
365.92	278.52
366.12	278.52
366.32	198.95
366.52	124.05
366.72	187.24
366.91	191.92
367.11	198.95
367.31	121.71
367.51	182.56
367.70	215.33
367.90	205.97
368.10	198.95
368.30	201.29
368.49	170.86
368.69	220.01
368.89	194.26
369.09	201.29
369.28	201.29
369.48	227.03
369.68	222.35
369.87	175.54
370.07	259.80
370.27	238.73
370.47	285.55
370.66	486.83
370.86	510.24
371.06	559.39
371.25	526.62
371.45	557.05
371.65	596.84
371.84	547.69
372.04	507.90
372.24	559.39
372.44	517.26
372.63	641.31
372.83	669.39
373.03	641.31
373.22	636.63
373.42	594.50
373.62	554.71
373.81	571.09
374.01	653.01
374.21	704.50
374.40	734.93
374.60	695.14
374.79	629.60
374.99	678.76
375.19	664.71
375.38	739.61
375.58	662.37
375.78	667.05
375.97	674.07
376.17	641.31
376.37	596.84
376.56	676.41
376.76	674.07
376.95	599.18
377.15	631.94
377.35	660.03
377.54	641.31
377.74	676.41
377.93	676.41
378.13	629.60
378.33	681.10
378.52	624.92
378.72	723.23
378.91	739.61
379.11	662.37
379.31	650.67
379.50	711.52
379.70	702.16
379.89	732.59
380.09	765.36
380.28	720.88
380.48	713.86
380.68	690.46
380.87	704.50
381.07	746.63
381.26	737.27
381.46	774.72
381.65	697.48
381.85	741.95
382.04	725.57
382.24	807.48
382.43	795.78
382.63	732.59
382.83	844.93
383.02	784.08
383.22	814.51
383.41	800.46
383.61	814.51
383.80	807.48
384.00	734.93
384.19	833.23
384.39	835.57
384.58	854.30
384.78	779.40
384.97	812.17
385.17	884.72
385.36	786.42
385.56	849.61
385.75	816.85
385.95	891.74
386.14	805.14
386.34	847.27
386.53	837.91
386.72	884.72
386.92	868.34
387.11	840.25
387.31	870.68
387.50	875.36
387.70	863.66
387.89	887.06
388.09	849.61
388.28	882.38
388.48	847.27
388.67	933.87
388.86	912.81
389.06	880.04
389.25	943.24
389.45	992.39
389.64	1011.11
389.84	954.94
390.03	945.58
390.22	919.83
390.42	880.04
390.61	877.70
390.81	1008.77
391.00	940.90
391.19	997.07
391.39	983.02
391.58	985.37
391.78	994.73
391.97	1034.52
392.16	999.41
392.36	987.71
392.55	1048.56
392.75	1076.65
392.94	1076.65
393.13	1104.73
393.33	1069.62
393.52	1027.50
393.71	1081.33
393.91	1111.75
394.10	1057.92
394.29	1022.81
394.49	1132.82
394.68	1149.20
394.88	1128.14
395.07	1064.94
395.26	1114.10
395.46	1125.80
395.65	1179.63
395.84	1240.48
396.04	1151.54
396.23	1263.89
396.42	1128.14
396.62	1163.25
396.81	1217.08
397.00	1217.08
397.19	1221.76
397.39	1254.53
397.58	1266.23
397.77	1207.72
397.97	1280.27
398.16	1146.86
398.35	1231.12
398.55	1268.57
398.74	1242.82
398.93	1259.21
399.12	1306.02
399.32	1214.74
399.51	1299.00
399.70	1334.11
399.90	1282.61
400.09	1275.59
400.28	1469.86
400.47	1348.15
400.67	1394.96
400.86	1427.73
401.05	1308.36
401.24	1383.26
401.44	1446.45
401.63	1296.66
401.82	1404.32
402.01	1371.55
402.21	1437.09
402.40	1472.20
402.59	1469.86
402.78	1528.37
402.97	1420.71
403.17	1474.54
403.36	1504.96
403.55	1521.35
403.74	1600.93
403.93	1591.56
404.13	1554.12
404.32	1605.61
404.51	1561.14
404.70	1575.18
404.89	1689.87
405.09	1713.27
405.28	1647.74
405.47	1617.31
405.66	1647.74
405.85	1661.78
406.05	1715.61
406.24	1645.40
406.43	1645.40
406.62	1732.00
406.81	1884.13
407.00	1755.40
407.20	1802.21
407.39	1734.34
407.58	1732.00
407.77	1778.81
407.96	1799.87
408.15	1778.81
408.34	1832.64
408.54	1884.13
408.73	1921.58
408.92	1799.87
409.11	1902.86
409.30	1973.07
409.49	1888.81
409.68	1984.77
409.87	1980.09
410.07	2038.61
410.26	2010.52
410.45	1937.96
410.64	1984.77
410.83	2073.71
411.02	2026.90
411.21	2127.55
411.40	2111.16
411.59	2209.47
411.78	2181.38
411.98	2249.25
412.17	2223.51
412.36	2345.22
412.55	2202.44
412.74	2202.44
412.93	2251.60
413.12	2267.98
413.31	2476.29
413.50	2471.61
413.69	2387.35
413.88	2487.99
414.07	2385.01
414.26	2448.20
414.45	2455.22
414.64	2560.55
414.83	2518.42
415.02	2576.93
415.22	2630.76
415.41	2548.84
415.60	2649.49
415.79	2576.93
415.98	2691.62
416.17	2562.89
416.36	2670.55
416.55	2637.78
416.74	2747.79
416.93	2729.06
417.12	2789.92
417.31	2747.79
417.50	2818.00
417.69	2888.22
417.88	2930.35
418.07	2916.31
418.26	2930.35
418.45	2825.03
418.64	2951.42
418.83	2918.65
419.02	2991.20
419.21	2953.76
419.39	3162.06
419.58	3042.70
419.77	3049.72
419.96	3082.49
420.15	3103.55
420.34	3038.02
420.53	3122.27
420.72	3251.00
420.91	3124.62
421.10	3173.77
421.29	3192.49
421.48	3150.36
421.67	3260.37
421.86	3311.86
422.05	3281.43
422.24	3248.66
422.43	3295.47
422.61	3239.30
422.80	3220.58
422.99	3410.16
423.18	3272.07
423.37	3445.27
423.56	3337.60
423.75	3295.47
423.94	3316.54
424.13	3272.07
424.32	3386.76
424.50	3372.71
424.69	3524.85
424.88	3391.44
425.07	3297.81
425.26	3311.86
425.45	3328.24
425.64	3293.13
425.83	3379.73
426.01	3496.76
426.20	3389.10
426.39	3445.27
426.58	3208.87
426.77	3431.23
426.96	3442.93
427.15	3419.52
427.33	3482.72
427.52	3494.42
427.71	3513.14
427.90	3534.21
428.09	3583.36
428.28	3686.34
428.46	3632.51
428.65	3576.34
428.84	3719.11
429.03	3620.81
429.22	3569.32
429.40	3639.53
429.59	3618.47
429.78	3522.51
429.97	3529.53
430.16	3716.77
430.34	3801.03
430.53	3826.78
430.72	3747.20
430.91	3707.41
431.10	3658.26
431.28	3859.54
431.47	3854.86
431.66	3894.65
431.85	3859.54
432.03	3857.20
432.22	3960.19
432.41	3962.53
432.60	3889.97
432.79	3934.44
432.97	3913.38
433.16	4194.24
433.35	3950.82
433.54	4046.79
433.72	4079.55
433.91	3990.61
434.10	4187.22
434.28	4023.38
434.47	4086.58
434.66	4194.24
434.85	4238.71
435.03	4100.62
435.22	4173.18
435.41	4194.24
435.59	4351.06
435.78	4374.46
435.97	4135.73
436.16	4283.18
436.34	4119.34
436.53	4421.27
436.72	4526.60
436.90	4273.82
437.09	4479.79
437.28	4386.16
437.46	4517.23
437.65	4557.02
437.84	4535.96
438.02	4465.74
438.21	4451.70
438.40	4425.95
438.58	4667.03
438.77	4610.86
438.96	4578.09
439.14	4667.03
439.33	4772.35
439.52	4833.21
439.70	4875.34
439.89	4826.18
440.08	4891.72
440.26	5076.62
440.45	5043.85
440.63	5001.72
440.82	5048.54
441.01	4945.55
441.19	4978.32
441.38	5102.37
441.57	5071.94
441.75	5172.58
441.94	5338.76
442.12	5345.78
442.31	5291.95
442.50	5460.47
442.68	5411.32
442.87	5401.96
443.05	5310.68
443.24	5357.49
443.43	5490.90
443.61	5376.21
443.80	5502.60
443.98	5369.19
444.17	5205.35
444.35	5256.84
444.54	5558.77
444.73	5518.98
444.91	5547.07
445.10	5483.88
445.28	5668.78
445.47	5472.17
445.65	5551.75
445.84	5664.10
446.02	5724.95
446.21	5570.48
446.39	5486.22
446.58	5572.82
446.77	5603.24
446.95	5427.70
447.14	5614.95
447.32	5781.12
447.51	5624.31
447.69	5561.11
447.88	5589.20
448.06	5551.75
448.25	5600.90
448.43	5715.59
448.62	5614.95
448.80	5694.52
448.99	5872.40
449.17	5888.79
449.36	5720.27
449.54	5741.33
449.73	5881.77
449.91	5874.74
450.10	6111.14
450.28	5874.74
450.46	5823.25
450.65	5832.62
450.83	6097.10
451.02	6010.50
451.20	6141.57
451.39	6033.90
451.57	6106.46
451.76	6024.54
451.94	6113.48
452.13	6223.48
452.31	5998.79
452.49	6022.20
452.68	6106.46
452.86	6221.14
453.05	6258.59
453.23	6317.11
453.42	6150.93
453.60	6195.40
453.78	6349.87
453.97	6153.27
454.15	6202.42
454.34	6277.32
454.52	6382.64
454.70	6375.62
454.89	6282.00
455.07	6525.41
455.26	6518.39
455.44	6441.15
455.62	6497.33
455.81	6626.06
455.99	6635.42
456.17	6504.35
456.36	6705.63
456.54	6616.69
456.73	6874.15
456.91	6773.51
457.09	6834.36
457.28	7021.61
457.46	6874.15
457.64	6963.09
457.83	6869.47
458.01	6888.20
458.19	7068.42
458.38	7045.01
458.56	7080.12
458.74	6986.50
458.93	6993.52
459.11	7021.61
459.29	7089.48
459.48	7157.36
459.66	7173.74
459.84	7239.28
460.03	7360.98
460.21	7105.87
460.39	7215.87
460.57	7157.36
460.76	7307.15
460.94	7386.73
461.12	7377.37
461.31	7358.64
461.49	7433.54
461.67	7255.66
461.85	7623.12
462.04	7307.15
462.22	7861.86
462.40	7683.98
462.59	7716.75
462.77	7555.25
462.95	7698.02
463.13	7676.96
463.32	7592.70
463.50	7665.25
463.68	7611.42
463.86	7749.51
464.05	7667.60
464.23	7751.85
464.41	7847.82
464.59	7569.29
464.78	7882.92
464.96	7833.77
465.14	7824.41
465.32	7765.90
465.50	7754.19
465.69	7995.27
465.87	7934.42
466.05	7868.88
466.23	7861.86
466.41	7981.23
466.60	8093.57
466.78	7829.09
466.96	8159.11
467.14	7889.95
467.32	8226.98
467.51	8266.77
467.69	8030.38
467.87	8006.97
468.05	8177.83
468.23	8095.91
468.41	8187.19
468.60	8243.37
468.78	8142.72
468.96	8245.71
469.14	8280.82
469.32	8503.17
469.50	8168.47
469.69	8409.54
469.87	8659.98
470.05	8486.78
470.23	8580.40
470.41	8573.38
470.59	8636.58
470.77	8517.21
470.95	8636.58
471.14	8903.40
471.32	8748.92
471.50	8674.03
471.68	8830.84
471.86	9008.72
472.04	9006.38
472.22	9156.18
472.40	8791.05
472.58	9050.85
472.77	8784.03
472.95	9088.30
473.13	9437.04
473.31	9259.16
473.49	9156.18
473.67	9174.90
473.85	9334.06
474.03	9322.35
474.21	9406.61
474.39	9610.24
474.57	9544.70
474.75	9652.37
474.93	9626.62
475.12	9657.05
475.30	9722.59
475.48	9530.66
475.66	9970.68
475.84	9743.65
476.02	9956.64
476.20	10040.90
476.38	10167.29
476.56	10260.91
476.74	10214.10
476.92	10188.35
477.10	10188.35
477.28	10473.90
477.46	10260.91
477.64	10396.66
477.82	10832.00
478.00	10721.99
478.18	10963.07
478.36	10995.84
478.54	11028.60
478.72	10937.32
478.90	11218.19
479.08	11396.07
479.26	11634.80
479.44	11356.28
479.62	11463.94
479.80	11562.25
479.98	11826.73
480.16	11812.68
480.34	11733.11
480.52	11939.07
480.70	11803.32
480.88	11910.99
481.06	12191.85
481.24	11929.71
481.41	12372.07
481.59	12486.76
481.77	12358.03
481.95	12573.36
482.13	12697.41
482.31	12610.81
482.49	13188.92
482.67	13163.17
482.85	13107.00
483.03	12957.21
483.21	13474.46
483.39	13572.77
483.57	13376.16
483.74	13420.63
483.92	13502.55
484.10	13579.79
484.28	13951.93
484.46	13984.70
484.64	14483.24
484.82	14094.71
485.00	14263.22
485.18	14340.46
485.35	14682.18
485.53	14665.80
485.71	14647.07
485.89	14981.77
486.07	14817.93
486.25	14799.21
486.43	15274.34
486.61	15386.68
486.78	15260.29
486.96	15438.17
487.14	15761.17
487.32	15915.64
487.50	15721.38
487.68	16182.46
487.85	16102.89
488.03	16259.70
488.21	16568.65
488.39	16393.11
488.57	16835.47
488.75	16737.17
488.92	17053.14
489.10	17188.89
489.28	16975.91
489.46	17146.76
489.64	17179.53
489.81	17680.41
489.99	17617.21
490.17	17734.24
490.35	18202.35
490.53	18181.28
490.70	18445.76
490.88	18066.60
491.06	18635.35
491.24	18424.70
491.41	18569.81
491.59	18654.07
491.77	18497.25
491.95	18939.62
492.13	19267.29
492.30	19077.71
492.48	19096.43
492.66	19456.87
492.84	19220.48
493.01	19990.52
493.19	19562.20
493.37	20135.63
493.54	19866.47
493.72	20180.10
493.90	20056.05
494.08	20362.66
494.25	20533.52
494.43	20437.56
494.61	20484.37
494.79	20795.66
494.96	20709.06
495.14	20987.58
495.32	21392.50
495.49	21284.83
495.67	21355.05
495.85	21308.24
496.02	21521.23
496.20	22017.42
496.38	21834.86
496.55	21874.65
496.73	22115.72
496.91	22146.15
497.09	22265.52
497.26	22279.56
497.44	21947.20
497.62	22249.13
497.79	22789.80
497.97	22984.06
498.14	22890.44
498.32	23005.13
498.50	22967.68
498.67	23569.19
498.85	23316.42
499.03	23461.53
499.20	23068.32
499.38	23620.69
499.56	23789.20
499.73	24254.97
499.91	24016.24
500.08	24147.31
500.26	23906.23
500.44	24091.13
500.61	23920.28
500.79	23922.62
500.97	24491.37
501.14	24973.52
501.32	24531.15
501.49	24788.61
501.67	24891.60
501.84	24912.66
502.02	24781.59
502.20	24912.66
502.37	25481.41
502.55	25062.46
502.72	25106.93
502.90	25294.17
503.07	25312.89
503.25	25362.04
503.43	25392.47
503.60	25495.46
503.78	25752.91
503.95	25425.24
504.13	25701.42
504.30	25893.35
504.48	26139.10
504.65	26256.13
504.83	26012.71
505.01	26520.61
505.18	26405.92
505.36	26518.27
505.53	26735.94
505.71	26504.23
505.88	26796.79
506.06	26506.57
506.23	26614.23
506.41	26630.62
506.58	27098.72
506.76	27428.74
506.93	27201.71
507.11	27091.70
507.28	27587.89
507.46	27550.45
507.63	27901.53
507.81	27791.52
507.98	27447.46
508.16	27644.07
508.33	27922.59
508.50	28268.99
508.68	28032.60
508.85	28222.18
509.03	28018.55
509.20	28596.67
509.38	28659.86
509.55	28591.98
509.73	28311.12
509.90	28671.56
510.08	28737.10
510.25	28453.89
510.42	29053.07
510.60	29378.40
510.77	29104.56
510.95	28957.11
511.12	28753.48
511.30	29303.51
511.47	29249.67
511.64	29355.00
511.82	29551.60
511.99	29715.44
512.17	29652.25
512.34	29933.11
512.51	30054.82
512.69	29949.50
512.86	30237.38
513.04	30466.75
513.21	29951.84
513.38	30345.05
513.56	30405.90
513.73	29970.56
513.90	30075.88
514.08	30307.60
514.25	30834.22
514.43	30649.32
514.60	30672.72
514.77	31030.82
514.95	30920.82
515.12	31215.72
515.29	30710.17
515.47	31463.82
515.64	31381.90
515.81	31105.72
515.99	31461.48
516.16	31456.80
516.33	31283.60
516.51	31571.49
516.68	31253.17
516.85	31622.98
517.03	31915.54
517.20	32119.17
517.37	31845.33
517.54	31906.18
517.72	32467.91
517.89	31988.10
518.06	31805.54
518.24	32168.32
518.41	32137.90
518.58	32362.59
518.75	32383.65
518.93	32704.31
519.10	32407.06
519.27	32959.42
519.45	32858.78
519.62	32577.92
519.79	32954.74
519.96	32755.80
520.14	33226.24
520.31	32929.00
520.48	32863.46
520.65	33223.90
520.83	33560.94
521.00	33888.62
521.17	33645.20
521.34	33593.71
521.52	33776.27
521.69	33490.73
521.86	33933.09
522.03	34015.01
522.20	34127.35
522.38	34567.37
522.55	33963.51
522.72	33972.88
522.89	34160.12
523.07	34380.13
523.24	34075.86
523.41	34712.49
523.58	34267.78
523.75	34464.39
523.92	34321.62
524.10	34340.34
524.27	34642.27
524.44	35211.02
524.61	34518.22
524.78	34998.03
524.96	35005.05
525.13	35372.52
525.30	35304.64
525.47	35215.70
525.64	35154.85
525.81	35615.93
525.98	35604.23
526.16	35363.15
526.33	35339.75
526.50	35873.39
526.67	35276.55
526.84	35489.54
527.01	35702.53
527.18	36191.70
527.36	35594.87
527.53	36051.27
527.70	36400.01
527.87	36079.36
528.04	35835.94
528.21	35868.71
528.38	36400.01
528.55	36563.85
528.72	36290.01
528.89	36154.26
529.07	36605.98
529.24	36418.74
529.41	36769.82
529.58	36205.75
529.75	36652.79
529.92	36833.01
530.09	36287.67
530.26	36596.62
530.43	36746.41
530.60	36369.58
530.77	36978.12
530.94	37053.02
531.11	37017.91
531.28	37132.60
531.46	37170.05
531.63	37221.54
531.80	37046.00
531.97	37188.77
532.14	37422.83
532.31	37237.92
532.48	37390.06
532.65	37418.14
532.82	37633.47
532.99	37441.55
533.16	37989.24
533.33	37574.96
533.50	37881.57
533.67	37968.17
533.84	38000.94
534.01	37656.88
534.18	38103.92
534.35	38321.59
534.52	38368.40
534.69	38347.34
534.86	38160.09
535.03	37958.81
535.20	38014.98
535.37	38316.91
535.54	38359.04
535.71	38232.65
535.88	38639.90
536.05	38342.66
536.22	38244.35
536.38	38529.90
536.55	38632.88
536.72	38532.24
536.89	38618.84
537.06	38733.53
537.23	38988.64
537.40	39042.48
537.57	38965.24
537.74	38590.75
537.91	39421.64
538.08	39122.05
538.25	38602.46
538.42	39054.18
538.59	39166.52
538.75	39599.52
538.92	39370.15
539.09	39643.99
539.26	38927.79
539.43	39700.17
539.60	39700.17
539.77	39110.35
539.94	39625.27
540.11	39746.98
540.28	39920.18
540.44	40165.93
540.61	39576.12
540.78	39653.36
540.95	39866.34
541.12	39835.92
541.29	39730.59
541.46	40238.49
541.62	40430.41
541.79	40620.00
541.96	40044.23
542.13	39899.11
542.30	40149.55
542.47	40041.88
542.63	40502.97
542.80	40605.95
542.97	40935.97
543.14	41085.76
543.31	40711.28
543.48	41120.87
543.64	41085.76
543.81	41144.28
543.98	41163.00
544.15	40989.80
544.32	40917.25
544.48	41163.00
544.65	41296.41
544.82	41240.24
544.99	41127.89
545.16	41572.60
545.32	40999.16
545.49	41280.03
545.66	41787.92
545.83	42040.70
546.00	41268.33
546.16	41202.79
546.33	41436.84
546.50	41219.17
546.67	41993.89
546.83	41394.71
547.00	41317.48
547.17	41155.98
547.34	41727.07
547.50	41970.49
547.67	42635.20
547.84	41649.83
548.00	42174.11
548.17	42550.94
548.34	42630.52
548.51	41851.12
548.67	42134.32
548.84	42375.40
549.01	41652.17
549.18	42490.09
549.34	42520.51
549.51	42646.90
549.68	42480.72
549.84	42398.80
550.01	42384.76
550.18	41867.50
550.34	42447.96
550.51	42618.81
550.68	42667.97
550.84	42108.58
551.01	42710.10
551.18	42602.43
551.34	42733.50
551.51	43274.16
551.68	42803.72
551.84	43077.56
552.01	42412.85
552.18	42726.48
552.34	42824.78
552.51	42700.73
552.68	42897.34
552.84	42955.85
553.01	43377.15
553.18	42972.24
553.34	43159.48
553.51	42958.19
553.67	42794.36
553.84	43264.80
554.01	43203.95
554.17	43288.21
554.34	43473.11
554.51	43243.74
554.67	43477.79
554.84	43213.31
555.00	43342.04
555.17	43194.59
555.33	43634.61
555.50	43632.27
555.67	43405.23
555.83	43573.75
556.00	43887.39
556.16	44357.83
556.33	43707.16
556.50	43856.96
556.66	43700.14
556.83	43601.84
556.99	44287.62
557.16	44161.23
557.32	43950.58
557.49	43814.83
557.65	43625.25
557.82	44112.08
557.98	44409.32
558.15	44004.41
558.32	43791.42
558.48	43782.06
558.65	44385.92
558.81	44222.08
558.98	43711.84
559.14	44048.88
559.31	44184.63
559.47	43917.81
559.64	44098.03
559.80	44437.41
559.97	44664.44
560.13	44126.12
560.30	43915.47
560.46	44636.36
560.63	44844.66
560.79	44545.08
560.96	44350.81
561.12	44383.58
561.29	44669.12
561.45	44732.32
561.61	44289.96
561.78	44498.26
561.94	44119.10
562.11	44243.15
562.27	44889.13
562.44	44568.48
562.60	44748.70
562.77	44793.17
562.93	44673.81
563.10	44699.55
563.26	44699.55
563.42	45312.77
563.59	44898.50
563.75	44727.64
563.92	45022.54
564.08	44863.39
564.24	45109.14
564.41	45525.76
564.57	44772.11
564.74	45216.81
564.90	44910.20
565.07	44495.92
565.23	45184.04
565.39	44744.02
565.56	44975.73
565.72	45284.68
565.88	44938.29
566.05	45095.10
566.21	45081.06
566.38	44699.55
566.54	45638.11
566.70	45067.02
566.87	45022.54
567.03	44741.68
567.19	45214.47
567.36	45523.42
567.52	45291.71
567.68	45532.78
567.85	45399.37
568.01	45806.62
568.17	45343.20
568.34	45708.32
568.50	45439.16
568.66	45268.30
568.83	45113.83
568.99	44947.65
569.15	45364.26
569.32	45333.84
569.48	45284.68
569.64	46096.85
569.81	45710.66
569.97	45467.25
570.13	45677.90
570.30	45251.92
570.46	45647.47
570.62	45198.09
570.78	45626.40
570.95	45647.47
571.11	45909.61
571.27	45420.44
571.43	45502.35
571.60	45944.72
571.76	45329.16
571.92	45209.79
572.09	45659.17
572.25	45874.50
572.41	45633.42
572.57	45834.71
572.74	45965.78
572.90	45703.64
573.06	45825.35
573.22	45865.14
573.38	46136.64
573.55	46178.77
573.71	45876.84
573.87	45881.52
574.03	45874.50
574.20	45750.45
574.36	45963.44
574.52	45900.25
574.68	45448.52
574.84	46021.95
575.01	46124.94
575.17	45771.52
575.33	46305.16
575.49	45549.17
575.65	45694.28
575.82	46066.42
575.98	45551.51
576.14	46000.89
576.30	46511.13
576.46	45698.96
576.62	45911.95
576.79	46160.05
576.95	45696.62
577.11	45628.74
577.27	45968.12
577.43	46223.24
577.59	45951.74
577.75	45787.90
577.92	45359.58
578.08	46021.95
578.24	46263.03
578.40	45846.41
578.56	46005.57
578.72	46045.36
578.88	45928.33
579.04	46019.61
579.21	45656.83
579.37	45785.56
579.53	46099.19
579.69	45429.80
579.85	45705.98
580.01	45907.27
580.17	45694.28
580.33	46466.66
580.49	45762.15
580.65	46064.08
580.82	45830.03
580.98	46321.54
581.14	45867.48
581.30	46260.69
581.46	45872.16
581.62	45895.56
581.78	45911.95
581.94	46485.38
582.10	46157.70
582.26	45991.53
582.42	46099.19
582.58	46089.83
582.74	46031.32
582.90	46230.26
583.06	46333.24
583.22	45949.40
583.38	46059.40
583.54	46548.57
583.70	46794.33
583.86	46136.64
584.02	46417.50
584.18	46087.49
584.34	46333.24
584.50	46639.86
584.66	46494.74
584.82	45876.84
584.98	46866.89
585.14	46696.03
585.30	46129.62
585.46	46319.20
585.62	46485.38
585.78	46452.61
585.94	46110.89
586.10	46464.32
586.26	46064.08
586.42	46443.25
586.58	46490.06
586.74	46349.63
586.90	46295.80
587.06	46021.95
587.22	46433.89
587.38	46525.17
587.54	46581.34
587.70	46223.24
587.86	46089.83
588.02	46330.90
588.18	46075.79
588.34	46431.55
588.49	46197.49
588.65	46295.80
588.81	46674.96
588.97	46344.95
589.13	46396.44
589.29	46171.75
589.45	46473.68
589.61	46623.47
589.77	46487.72
589.93	46340.27
590.08	46784.97
