SpectraSuite Data File
++++++++++++++++++++++++++++++++++++
Date: Fri Oct 25 10:44:42 EDT 2013
User: price-jones
Dark Spectrum Present: No
Reference Spectrum Present: No
Number of Sampled Component Spectra: 1
Spectrometers: USB2+H05261
Integration Time (usec): 100000 (USB2+H05261)
Spectra Averaged: 1 (USB2+H05261)
Boxcar Smoothing: 0 (USB2+H05261)
Correct for Electrical Dark: No (USB2+H05261)
Strobe/Lamp Enabled: No (USB2+H05261)
Correct for Detector Non-linearity: No (USB2+H05261)
Correct for Stray Light: No (USB2+H05261)
Number of Pixels in Processed Spectrum: 2048
>>>>>Begin Processed Spectral Data<<<<<
365.73	84.26
365.92	84.26
366.12	84.26
366.32	93.62
366.52	37.45
366.72	11.70
366.91	65.54
367.11	11.70
367.31	39.79
367.51	79.58
367.70	0.00
367.90	32.77
368.10	21.06
368.30	42.13
368.49	44.47
368.69	39.79
368.89	42.13
369.09	46.81
369.28	60.85
369.48	114.69
369.68	72.56
369.87	112.35
370.07	93.62
370.27	131.07
370.47	138.09
370.66	421.30
370.86	341.72
371.06	407.25
371.25	472.79
371.45	334.70
371.65	423.64
371.84	416.62
372.04	465.77
372.24	461.09
372.44	428.32
372.63	418.96
372.83	507.90
373.03	510.24
373.22	461.09
373.42	456.40
373.62	491.51
373.81	468.11
374.01	521.94
374.21	559.39
374.40	493.85
374.60	533.64
374.79	608.54
374.99	566.41
375.19	599.18
375.38	575.77
375.58	500.87
375.78	575.77
375.97	641.31
376.17	638.97
376.37	531.30
376.56	559.39
376.76	514.92
376.95	575.77
377.15	557.05
377.35	566.41
377.54	599.18
377.74	564.07
377.93	596.84
378.13	573.43
378.33	657.69
378.52	638.97
378.72	594.50
378.91	582.79
379.11	489.17
379.31	561.73
379.50	543.00
379.70	629.60
379.89	678.76
380.09	592.16
380.28	641.31
380.48	737.27
380.68	615.56
380.87	669.39
381.07	692.80
381.26	685.78
381.46	830.89
381.65	690.46
381.85	620.24
382.04	725.57
382.24	690.46
382.43	676.41
382.63	678.76
382.83	692.80
383.02	641.31
383.22	734.93
383.41	655.35
383.61	669.39
383.80	709.18
384.00	725.57
384.19	744.29
384.39	763.01
384.58	737.27
384.78	699.82
384.97	805.14
385.17	793.44
385.36	751.31
385.56	725.57
385.75	711.52
385.95	777.06
386.14	674.07
386.34	770.04
386.53	781.74
386.72	716.20
386.92	746.63
387.11	807.48
387.31	812.17
387.50	809.83
387.70	812.17
387.89	774.72
388.09	826.21
388.28	788.76
388.48	795.78
388.67	896.43
388.86	786.42
389.06	987.71
389.25	851.96
389.45	826.21
389.64	781.74
389.84	922.17
390.03	835.57
390.22	908.13
390.42	903.45
390.61	795.78
390.81	1001.75
391.00	884.72
391.19	954.94
391.39	1008.77
391.58	976.00
391.78	917.49
391.97	929.19
392.16	964.30
392.36	952.60
392.55	978.34
392.75	987.71
392.94	968.98
393.13	954.94
393.33	922.17
393.52	990.05
393.71	1097.71
393.91	1060.26
394.10	954.94
394.29	1020.47
394.49	1086.01
394.68	1032.18
394.88	1121.12
395.07	1170.27
395.26	1104.73
395.46	1043.88
395.65	1179.63
395.84	1100.05
396.04	1174.95
396.23	1093.03
396.42	1139.84
396.62	1128.14
396.81	1160.91
397.00	1193.67
397.19	1118.78
397.39	1146.86
397.58	1217.08
397.77	1181.97
397.97	1247.51
398.16	1256.87
398.35	1231.12
398.55	1303.68
398.74	1289.64
398.93	1334.11
399.12	1371.55
399.32	1282.61
399.51	1315.38
399.70	1493.26
399.90	1350.49
400.09	1376.24
400.28	1355.17
400.47	1439.43
400.67	1507.30
400.86	1427.73
401.05	1476.88
401.24	1420.71
401.44	1530.71
401.63	1511.99
401.82	1568.16
402.01	1444.11
402.21	1523.69
402.40	1483.90
402.59	1554.12
402.78	1519.01
402.97	1589.22
403.17	1486.24
403.36	1650.08
403.55	1617.31
403.74	1706.25
403.93	1556.46
404.13	1640.72
404.32	1610.29
404.51	1661.78
404.70	1666.46
404.89	1652.42
405.09	1666.46
405.28	1708.59
405.47	1666.46
405.66	1755.40
405.85	1708.59
406.05	1643.06
406.24	1720.29
406.43	1842.00
406.62	1762.42
406.81	1921.58
407.00	1797.53
407.20	1844.34
407.39	1825.62
407.58	1900.52
407.77	1865.41
407.96	1865.41
408.15	1898.17
408.34	1956.69
408.54	1991.80
408.73	2005.84
408.92	1959.03
409.11	2078.40
409.30	2008.18
409.49	2036.27
409.68	2106.48
409.87	2085.42
410.07	2092.44
410.26	2066.69
410.45	2242.23
410.64	2148.61
410.83	2200.10
411.02	2263.30
411.21	2296.07
411.40	2335.85
411.59	2270.32
411.78	2165.00
411.98	2253.94
412.17	2291.38
412.36	2331.17
412.55	2504.37
412.74	2377.98
412.93	2483.31
413.12	2377.98
413.31	2516.08
413.50	2480.97
413.69	2520.76
413.88	2698.64
414.07	2670.55
414.26	2593.31
414.45	2630.76
414.64	2595.65
414.83	2712.68
415.02	2789.92
415.22	2752.47
415.41	2780.56
415.60	2705.66
415.79	2747.79
415.98	2878.86
416.17	2916.31
416.36	2874.18
416.55	2864.82
416.74	3030.99
416.93	2902.26
417.12	2944.39
417.31	2862.48
417.50	2939.71
417.69	3098.87
417.88	2974.82
418.07	2944.39
418.26	3199.51
418.45	3183.13
418.64	3253.34
418.83	3255.69
419.02	3222.92
419.21	3311.86
419.39	3187.81
419.58	3098.87
419.77	3215.90
419.96	3251.00
420.15	3321.22
420.34	3428.88
420.53	3318.88
420.72	3272.07
420.91	3456.97
421.10	3475.70
421.29	3440.59
421.48	3229.94
421.67	3454.63
421.86	3330.58
422.05	3389.10
422.24	3456.97
422.43	3463.99
422.61	3456.97
422.80	3599.74
422.99	3545.91
423.18	3618.47
423.37	3791.67
423.56	3433.57
423.75	3494.42
423.94	3414.84
424.13	3236.96
424.32	3431.23
424.50	3684.00
424.69	3632.51
424.88	3520.17
425.07	3499.10
425.26	3564.64
425.45	3651.24
425.64	3475.70
425.83	3609.11
426.01	3522.51
426.20	3653.58
426.39	3531.87
426.58	3630.17
426.77	3571.66
426.96	3686.34
427.15	3583.36
427.33	3606.77
427.52	3665.28
427.71	3655.92
427.90	3693.37
428.09	3770.60
428.28	3801.03
428.46	3810.39
428.65	3747.20
428.84	3871.25
429.03	3988.27
429.22	3728.47
429.40	3770.60
429.59	3758.90
429.78	3644.21
429.97	3625.49
430.16	3744.86
430.34	3782.31
430.53	3875.93
430.72	3761.24
430.91	3796.35
431.10	3999.98
431.28	4018.70
431.47	4065.51
431.66	4332.33
431.85	4287.86
432.03	4166.15
432.22	4177.86
432.41	4161.47
432.60	4224.67
432.79	4283.18
432.97	4273.82
433.16	4266.80
433.35	4205.94
433.54	4133.39
433.72	4306.59
433.91	4231.69
434.10	4353.40
434.28	4297.22
434.47	4318.29
434.66	4388.50
434.85	4486.81
435.03	4538.30
435.22	4388.50
435.41	4664.69
435.59	4589.79
435.78	4554.68
435.97	4554.68
436.16	4493.83
436.34	4535.96
436.53	4629.58
436.72	4589.79
436.90	4697.46
437.09	4662.35
437.28	4505.53
437.46	4821.50
437.65	4681.07
437.84	4725.54
438.02	4814.48
438.21	4851.93
438.40	4753.63
438.58	4861.29
438.77	4842.57
438.96	4854.27
439.14	5071.94
439.33	4971.30
439.52	5055.56
439.70	5029.81
439.89	5090.67
440.08	5076.62
440.26	5130.45
440.45	5219.39
440.63	5163.22
440.82	5399.62
441.01	5329.40
441.19	5341.10
441.38	5460.47
441.57	5593.88
441.75	5444.09
441.94	5535.37
442.12	5523.66
442.31	5699.20
442.50	5568.13
442.68	5631.33
442.87	5626.65
443.05	5607.92
443.24	5713.25
443.43	5614.95
443.61	5762.40
443.80	5977.73
443.98	5841.98
444.17	5582.18
444.35	5921.56
444.54	5935.60
444.73	5769.42
444.91	5863.04
445.10	5762.40
445.28	5820.91
445.47	5746.02
445.65	5891.13
445.84	5891.13
446.02	5809.21
446.21	5736.65
446.39	5870.06
446.58	5982.41
446.77	5977.73
446.95	6031.56
447.14	6043.26
447.32	6242.21
447.51	5900.49
447.69	5898.15
447.88	5963.68
448.06	6036.24
448.25	6104.12
448.43	6087.73
448.62	6057.31
448.80	5839.64
448.99	6059.65
449.17	6015.18
449.36	6242.21
449.54	6202.42
449.73	6342.85
449.91	6319.45
450.10	6532.44
450.28	6403.71
450.46	6384.98
450.65	6509.03
450.83	6459.88
451.02	6394.34
451.20	6326.47
451.39	6441.15
451.57	6361.58
451.76	6396.68
451.94	6483.28
452.13	6541.80
452.31	6649.46
452.49	6256.25
452.68	6480.94
452.86	6576.91
453.05	6539.46
453.23	6494.99
453.42	6562.86
453.60	6602.65
453.78	6766.49
453.97	6443.49
454.15	6593.29
454.34	6593.29
454.52	6892.88
454.70	6787.55
454.89	6885.86
455.07	6867.13
455.26	7014.59
455.44	7096.50
455.62	7042.67
455.81	6986.50
455.99	6991.18
456.17	6998.20
456.36	6974.80
456.54	7124.59
456.73	7155.02
456.91	7178.42
457.09	7241.62
457.28	7307.15
457.46	7183.10
457.64	7117.57
457.83	7332.90
458.01	7194.81
458.19	7424.18
458.38	7358.64
458.56	7466.31
458.74	7597.38
458.93	7566.95
459.11	7433.54
459.29	7482.69
459.48	7613.76
459.66	7480.35
459.84	7644.19
460.03	7564.61
460.21	7726.11
460.39	7644.19
460.57	7723.77
460.76	7616.10
460.94	7756.54
461.12	7889.95
461.31	7559.93
461.49	7716.75
461.67	7805.69
461.85	8105.28
462.04	7880.58
462.22	8072.51
462.40	8004.63
462.59	7978.89
462.77	7913.35
462.95	8016.33
463.13	8109.96
463.32	8168.47
463.50	8063.15
463.68	8201.24
463.86	8215.28
464.05	7840.79
464.23	7974.21
464.41	8074.85
464.59	7985.91
464.78	8280.82
464.96	8248.05
465.14	8124.00
465.32	8278.47
465.50	8170.81
465.69	8390.82
465.87	8219.96
466.05	8308.90
466.23	8341.67
466.41	8369.76
466.60	8493.80
466.78	8084.21
466.96	8416.57
467.14	8292.52
467.32	8510.19
467.51	8559.34
467.69	8306.56
467.87	8428.27
468.05	8655.30
468.23	8648.28
468.41	8491.46
468.60	8596.79
468.78	8765.31
468.96	8706.79
469.14	8802.75
469.32	8922.12
469.50	8727.86
469.69	8767.65
469.87	9081.28
470.05	8877.65
470.23	8858.93
470.41	9001.70
470.59	9266.18
470.77	8847.22
470.95	8945.53
471.14	9184.26
471.32	9095.32
471.50	9170.22
471.68	9266.18
471.86	9287.25
472.04	9516.62
472.22	9401.93
472.40	9256.82
472.58	9312.99
472.77	9472.15
472.95	9696.84
473.13	9951.96
473.31	9507.26
473.49	9586.83
473.67	9633.64
473.85	9689.82
474.03	9797.48
474.21	9867.70
474.39	10038.56
474.57	10174.31
474.75	10101.75
474.93	10291.34
475.12	10183.67
475.30	10396.66
475.48	10389.64
475.66	10307.72
475.84	10408.36
476.02	10312.40
476.20	10125.16
476.38	10576.88
476.56	10881.15
476.74	10750.08
476.92	10656.46
477.10	10911.58
477.28	10820.30
477.46	10867.11
477.64	11159.67
477.82	11145.63
478.00	11585.65
478.18	11433.52
478.36	11405.43
478.54	11463.94
478.72	11576.29
478.90	11756.51
479.08	11719.06
479.26	11791.62
479.44	11833.75
479.62	12175.47
479.80	11927.37
479.98	12187.17
480.16	12311.22
480.34	12332.28
480.52	12339.30
480.70	12332.28
480.88	12360.37
481.06	12669.32
481.24	12709.11
481.41	12781.67
481.59	13092.96
481.77	13109.34
481.95	13245.09
482.13	13240.41
482.31	13092.96
482.49	13465.10
482.67	13362.12
482.85	13535.32
483.03	13654.69
483.21	13858.31
483.39	13872.36
483.57	14092.37
483.74	14045.55
483.92	14319.40
484.10	14153.22
484.28	14406.00
484.46	14796.87
484.64	15166.67
484.82	14785.16
485.00	14796.87
485.18	14801.55
485.35	15372.64
485.53	14995.81
485.71	15068.37
485.89	15267.31
486.07	15260.29
486.25	15302.42
486.43	15763.51
486.61	15789.25
486.78	15688.61
486.96	15974.16
487.14	16137.99
487.32	16175.44
487.50	16414.18
487.68	16498.44
487.85	16519.50
488.03	16622.48
488.21	16980.59
488.39	16994.63
488.57	17373.80
488.75	17216.98
488.92	17516.57
489.10	17855.95
489.28	17790.41
489.46	17907.44
489.64	17860.63
489.81	18340.44
489.99	18604.92
490.17	18471.51
490.35	18787.48
490.53	18677.48
490.70	18820.25
490.88	18815.57
491.06	19019.19
491.24	19253.25
491.41	19454.53
491.59	19164.31
491.77	19019.19
491.95	19412.40
492.13	19419.42
492.30	19917.96
492.48	20077.12
492.66	19932.00
492.84	20042.01
493.01	20318.19
493.19	20058.39
493.37	20301.81
493.54	20243.29
493.72	20531.18
493.90	20898.64
494.08	21001.63
494.25	21188.87
494.43	21128.02
494.61	21212.28
494.79	21483.78
494.96	21624.21
495.14	21483.78
495.32	22132.11
495.49	21584.42
495.67	21797.41
495.85	21790.39
496.02	22349.78
496.20	22597.87
496.38	22707.88
496.55	22462.12
496.73	22970.02
496.91	22679.79
497.09	22871.72
497.26	23030.87
497.44	22923.21
497.62	23323.44
497.79	23278.97
497.97	22988.74
498.14	23667.50
498.32	23477.91
498.50	23674.52
498.67	23971.77
498.85	23953.04
499.03	24315.83
499.20	24187.10
499.38	24435.19
499.56	24318.17
499.73	24343.91
499.91	24505.41
500.08	24896.28
500.26	24252.63
500.44	24636.48
500.61	24360.30
500.79	24755.85
500.97	24802.66
501.14	25160.76
501.32	25373.75
501.49	25076.50
501.67	25102.25
501.84	25523.54
502.02	25357.36
502.20	25769.30
502.37	25338.64
502.55	25448.64
502.72	25656.95
502.90	25738.87
503.07	25771.64
503.25	26204.64
503.43	26010.37
503.60	26064.21
503.78	26022.08
503.95	25940.16
504.13	26639.98
504.30	26157.83
504.48	26654.02
504.65	26925.52
504.83	26745.30
505.01	26967.65
505.18	27082.34
505.36	27061.27
505.53	27068.30
505.71	27356.18
505.88	27475.55
506.06	27194.68
506.23	27414.69
506.41	27482.57
506.58	27400.65
506.76	27948.34
506.93	27606.62
507.11	27655.77
507.28	27707.26
507.46	27489.59
507.63	27915.57
507.81	27894.50
507.98	28044.30
508.16	28060.68
508.33	28320.48
508.50	28322.82
508.68	28151.96
508.85	28989.88
509.03	28879.87
509.20	28973.49
509.38	28898.59
509.55	29120.95
509.73	29064.77
509.90	29139.67
510.08	29046.05
510.25	28968.81
510.42	29305.85
510.60	29280.10
510.77	29626.50
510.95	29439.26
511.12	29834.81
511.30	29811.40
511.47	29937.79
511.64	30000.99
511.82	30209.29
511.99	29834.81
512.17	30192.91
512.34	30045.46
512.51	30412.92
512.69	30146.10
512.86	30345.05
513.04	30569.74
513.21	30410.58
513.38	30356.75
513.56	30462.07
513.73	30373.13
513.90	30920.82
514.08	30621.23
514.25	30806.13
514.43	30995.71
514.60	30796.77
514.77	31290.62
514.95	31463.82
515.12	31204.02
515.29	31101.04
515.47	31744.69
515.64	31585.53
515.81	31480.21
515.99	31470.84
516.16	31599.57
516.33	31545.74
516.51	31683.83
516.68	31557.44
516.85	31587.87
517.03	31391.26
517.20	31826.60
517.37	31573.83
517.54	32233.86
517.72	32133.21
517.89	32070.02
518.06	31852.35
518.24	31819.58
518.41	32119.17
518.58	32367.27
518.75	32369.61
518.93	32788.56
519.10	32622.39
519.27	32725.37
519.45	32751.12
519.62	33249.65
519.79	32973.47
519.96	32811.97
520.14	33177.09
520.31	32840.06
520.48	33443.91
520.65	32917.29
520.83	33359.66
521.00	33490.73
521.17	33549.24
521.34	33818.40
521.52	33890.96
521.69	33661.58
521.86	33926.07
522.03	34167.14
522.20	34082.88
522.38	34185.86
522.55	34419.92
522.72	33795.00
522.89	34094.58
523.07	34244.38
523.24	33734.14
523.41	34464.39
523.58	34485.45
523.75	34974.63
523.92	34831.85
524.10	34639.93
524.27	34799.08
524.44	35058.88
524.61	35147.82
524.78	35576.14
524.96	35199.32
525.13	35009.73
525.30	35243.79
525.47	35559.76
525.64	35377.20
525.81	35140.80
525.98	34979.31
526.16	34969.94
526.33	35168.89
526.50	35845.30
526.67	35199.32
526.84	35522.31
527.01	35342.09
527.18	35599.55
527.36	35964.67
527.53	35742.32
527.70	36285.33
527.87	36219.79
528.04	36245.54
528.21	36112.13
528.38	36275.96
528.55	36610.66
528.72	36180.00
528.89	36493.63
529.07	36430.44
529.24	36297.03
529.41	36580.23
529.58	36517.04
529.75	36486.61
529.92	36758.11
530.09	36825.99
530.26	36980.46
530.43	36849.39
530.60	36636.41
530.77	36486.61
530.94	37324.52
531.11	36870.46
531.28	37258.99
531.46	37184.09
531.63	37233.24
531.80	37022.59
531.97	36933.65
532.14	36851.73
532.31	37006.21
532.48	37163.03
532.65	38029.02
532.82	37418.14
532.99	37200.47
533.16	36905.57
533.33	38005.62
533.50	37390.06
533.67	38085.20
533.84	37750.50
534.01	37886.25
534.18	37773.91
534.35	38029.02
534.52	37947.11
534.69	38363.72
534.86	37972.85
535.03	37933.06
535.20	38590.75
535.37	38206.90
535.54	38302.87
535.71	37895.61
535.88	38389.47
536.05	38270.10
536.22	38337.98
536.38	38597.77
536.55	38478.41
536.72	38480.75
536.89	38307.55
537.06	38677.35
537.23	38237.33
537.40	38366.06
537.57	38796.72
537.74	38815.44
537.91	38778.00
538.08	38548.62
538.25	38546.28
538.42	38710.12
538.59	39166.52
538.75	38532.24
538.92	38625.86
539.09	39225.04
539.26	38871.62
539.43	39154.82
539.60	39166.52
539.77	39222.70
539.94	39180.57
540.11	38913.75
540.28	39316.32
540.44	39091.63
540.61	39005.03
540.78	39136.10
540.95	39136.10
541.12	39353.77
541.29	39227.38
541.46	39416.96
541.62	39487.18
541.79	39641.65
541.96	39552.71
542.13	39599.52
542.30	39440.37
542.47	39711.87
542.63	40112.10
542.80	39648.68
542.97	40179.98
543.14	40678.51
543.31	40236.15
543.48	40142.53
543.64	40615.32
543.81	40439.78
543.98	40879.80
544.15	40563.82
544.32	40854.05
544.48	40980.44
544.65	40334.45
544.82	40753.41
544.99	40561.48
545.16	40814.26
545.32	40940.65
545.49	41099.81
545.66	40903.20
545.83	41067.04
546.00	40900.86
546.16	40837.67
546.33	40802.56
546.50	40797.88
546.67	41666.22
546.83	40381.26
547.00	41282.37
547.17	41287.05
547.34	40978.10
547.50	41422.80
547.67	41060.02
547.84	41298.75
548.00	41516.42
548.17	41717.71
548.34	41537.49
548.51	41666.22
548.67	41610.04
548.84	41427.48
549.01	41668.56
549.18	41116.19
549.34	41413.44
549.51	41570.25
549.68	41586.64
549.84	41827.71
550.01	42043.04
550.18	41720.05
550.34	41804.31
550.51	41570.25
550.68	41977.51
550.84	41619.41
551.01	42211.56
551.18	41858.14
551.34	42089.85
551.51	42157.73
551.68	41853.46
551.84	42136.66
552.01	41776.22
552.18	42092.19
552.34	42106.24
552.51	42209.22
552.68	41916.65
552.84	42501.79
553.01	42649.24
553.18	41902.61
553.34	42057.09
553.51	42141.35
553.67	42277.10
553.84	42349.65
554.01	42855.21
554.17	42197.52
554.34	42513.49
554.51	42614.13
554.67	43049.47
554.84	42520.51
555.00	42307.52
555.17	42478.38
555.33	42895.00
555.50	42469.02
555.67	42801.38
555.83	42712.44
556.00	42766.27
556.16	43065.86
556.33	42583.71
556.50	42784.99
556.66	42689.03
556.83	42960.53
556.99	42962.87
557.16	42967.55
557.32	42925.42
557.49	43166.50
557.65	43063.52
557.82	42733.50
557.98	43077.56
558.15	43051.81
558.32	43377.15
558.48	42967.55
558.65	42916.06
558.81	42782.65
558.98	43002.66
559.14	42841.17
559.31	43016.71
559.47	42953.51
559.64	43515.24
559.80	43274.16
559.97	43501.20
560.13	43054.15
560.30	43255.44
560.46	43054.15
560.63	43229.69
560.79	43498.86
560.96	43758.66
561.12	43330.34
561.29	43379.49
561.45	43543.33
561.61	43555.03
561.78	43407.58
561.94	43253.10
562.11	43241.40
562.27	43260.12
562.44	43693.12
562.60	43421.62
562.77	43585.46
562.93	43576.09
563.10	43512.90
563.26	43428.64
563.42	43847.60
563.59	43660.35
563.75	43744.61
563.92	43838.23
564.08	44016.11
564.24	43672.06
564.41	43550.35
564.57	43983.35
564.74	43430.98
564.90	43611.20
565.07	43627.59
565.23	43421.62
565.39	43419.28
565.56	43845.26
565.72	43650.99
565.88	43931.86
566.05	43608.86
566.21	43803.13
566.38	43456.73
566.54	44023.14
566.70	43887.39
566.87	44353.15
567.03	43793.76
567.19	44411.67
567.36	44318.04
567.52	44133.14
567.68	44154.21
567.85	44002.07
568.01	43845.26
568.17	43854.62
568.34	44009.09
568.50	43833.55
568.66	43786.74
568.83	44186.97
568.99	43456.73
569.15	43522.26
569.32	43863.98
569.48	43920.15
569.64	44325.07
569.81	43966.96
569.97	43758.66
570.13	43552.69
570.30	43988.03
570.46	43704.82
570.62	43704.82
570.78	43374.81
570.95	43955.26
571.11	44107.40
571.27	43887.39
571.43	44086.33
571.60	44041.86
571.76	43985.69
571.92	44093.35
572.09	43821.85
572.25	43791.42
572.41	44016.11
572.57	43896.75
572.74	44638.70
572.90	44130.80
573.06	44596.57
573.22	44114.42
573.38	44133.14
573.55	44112.08
573.71	44282.94
573.87	44343.79
574.03	43995.05
574.20	44327.41
574.36	44198.68
574.52	44406.98
574.68	43835.89
574.84	44355.49
575.01	43737.59
575.17	44144.84
575.33	43873.34
575.49	44072.29
575.65	44521.67
575.82	44243.15
575.98	43917.81
576.14	44500.61
576.30	44566.14
576.46	44081.65
576.62	44285.28
576.79	43976.33
576.95	43606.52
577.11	44428.05
577.27	44259.53
577.43	44304.00
577.59	44715.93
577.75	44009.09
577.92	43950.58
578.08	43964.62
578.24	43629.93
578.40	44203.36
578.56	44449.11
578.72	44357.83
578.88	44332.09
579.04	44100.37
579.21	44215.06
579.37	44453.79
579.53	44182.29
579.69	44327.41
579.85	44205.70
580.01	44584.86
580.17	44299.32
580.33	44737.00
580.49	44516.99
580.65	44435.07
580.82	44294.64
580.98	44182.29
581.14	44516.99
581.30	44479.54
581.46	44165.91
581.62	44500.61
581.78	44666.78
581.94	44734.66
582.10	44346.13
582.26	44362.51
582.42	44406.98
582.58	44500.61
582.74	44371.88
582.90	44734.66
583.06	44980.42
583.22	44528.69
583.38	44577.84
583.54	44776.79
583.70	44292.30
583.86	44685.51
584.02	44289.96
584.18	44432.73
584.34	44540.39
584.50	44278.25
584.66	44100.37
584.82	44172.93
584.98	44671.46
585.14	44744.02
585.30	44144.84
585.46	43828.87
585.62	44484.22
585.78	44292.30
585.94	44296.98
586.10	44481.88
586.26	44114.42
586.42	44641.04
586.58	44617.63
586.74	44931.26
586.90	44589.55
587.06	44289.96
587.22	44694.87
587.38	44130.80
587.54	44994.46
587.70	44971.05
587.86	44861.05
588.02	44704.23
588.18	45029.57
588.34	44442.09
588.49	44442.09
588.65	44308.68
588.81	44147.18
588.97	44435.07
589.13	44341.45
589.29	44718.28
589.45	44659.76
589.61	44439.75
589.77	44495.92
589.93	44753.38
590.08	44610.61
590.24	45038.93
