SpectraSuite Data File
++++++++++++++++++++++++++++++++++++
Date: Fri Oct 25 11:26:12 EDT 2013
User: price-jones
Dark Spectrum Present: No
Reference Spectrum Present: No
Number of Sampled Component Spectra: 1
Spectrometers: USB2+H05261
Integration Time (usec): 100000 (USB2+H05261)
Spectra Averaged: 1 (USB2+H05261)
Boxcar Smoothing: 0 (USB2+H05261)
Correct for Electrical Dark: No (USB2+H05261)
Strobe/Lamp Enabled: No (USB2+H05261)
Correct for Detector Non-linearity: No (USB2+H05261)
Correct for Stray Light: No (USB2+H05261)
Number of Pixels in Processed Spectrum: 2048
>>>>>Begin Processed Spectral Data<<<<<
365.73	201.29
365.92	201.29
366.12	201.29
366.32	79.58
366.52	147.45
366.72	210.65
366.91	102.98
367.11	161.50
367.31	159.16
367.51	175.54
367.70	110.01
367.90	161.50
368.10	168.52
368.30	88.94
368.49	168.52
368.69	142.77
368.89	152.13
369.09	128.73
369.28	177.88
369.48	112.35
369.68	166.18
369.87	196.60
370.07	191.92
370.27	215.33
370.47	287.89
370.66	449.38
370.86	676.41
371.06	631.94
371.25	730.25
371.45	676.41
371.65	601.52
371.84	727.91
372.04	674.07
372.24	678.76
372.44	706.84
372.63	723.23
372.83	739.61
373.03	723.23
373.22	767.70
373.42	791.10
373.62	814.51
373.81	723.23
374.01	800.46
374.21	772.38
374.40	851.96
374.60	835.57
374.79	844.93
374.99	802.80
375.19	873.02
375.38	816.85
375.58	851.96
375.78	805.14
375.97	842.59
376.17	823.87
376.37	863.66
376.56	842.59
376.76	891.74
376.95	777.06
377.15	840.25
377.35	887.06
377.54	896.43
377.74	966.64
377.93	823.87
378.13	926.85
378.33	875.36
378.52	924.51
378.72	968.98
378.91	947.92
379.11	863.66
379.31	978.34
379.50	950.26
379.70	952.60
379.89	943.24
380.09	959.62
380.28	978.34
380.48	987.71
380.68	985.37
380.87	966.64
381.07	1039.20
381.26	1004.09
381.46	1015.79
381.65	1048.56
381.85	1107.07
382.04	978.34
382.24	1076.65
382.43	1055.58
382.63	1114.10
382.83	1104.73
383.02	1191.33
383.22	1074.31
383.41	1086.01
383.61	1004.09
383.80	1196.01
384.00	1196.01
384.19	1177.29
384.39	1144.52
384.58	1109.41
384.78	1149.20
384.97	1135.16
385.17	1135.16
385.36	1139.84
385.56	1130.48
385.75	1172.61
385.95	1221.76
386.14	1188.99
386.34	1163.25
386.53	1273.25
386.72	1282.61
386.92	1284.95
387.11	1261.55
387.31	1125.80
387.50	1170.27
387.70	1296.66
387.89	1299.00
388.09	1334.11
388.28	1291.98
388.48	1294.32
388.67	1411.34
388.86	1289.64
389.06	1291.98
389.25	1310.70
389.45	1322.40
389.64	1280.27
389.84	1423.05
390.03	1376.24
390.22	1404.32
390.42	1434.75
390.61	1380.92
390.81	1420.71
391.00	1423.05
391.19	1465.18
391.39	1392.62
391.58	1488.58
391.78	1357.51
391.97	1411.34
392.16	1455.81
392.36	1493.26
392.55	1411.34
392.75	1432.41
392.94	1540.07
393.13	1603.27
393.33	1458.15
393.52	1577.52
393.71	1551.78
393.91	1582.20
394.10	1605.61
394.29	1636.03
394.49	1633.69
394.68	1626.67
394.88	1729.66
395.07	1715.61
395.26	1636.03
395.46	1619.65
395.65	1701.57
395.84	1774.13
396.04	1769.44
396.23	1732.00
396.42	1842.00
396.62	1701.57
396.81	1673.48
397.00	1713.27
397.19	1774.13
397.39	1729.66
397.58	1788.17
397.77	1792.85
397.97	1884.13
398.16	1902.86
398.35	1816.26
398.55	1877.11
398.74	1909.88
398.93	1870.09
399.12	1921.58
399.32	1923.92
399.51	1933.28
399.70	1956.69
399.90	2010.52
400.09	2008.18
400.28	2031.58
400.47	2008.18
400.67	2069.03
400.86	1989.46
401.05	1980.09
401.24	1956.69
401.44	2132.23
401.63	2101.80
401.82	2069.03
402.01	2118.18
402.21	2127.55
402.40	2223.51
402.59	2066.69
402.78	2253.94
402.97	2246.91
403.17	2354.58
403.36	2242.23
403.55	2321.81
403.74	2300.75
403.93	2324.15
404.13	2396.71
404.32	2347.56
404.51	2366.28
404.70	2520.76
404.89	2408.41
405.09	2466.92
405.28	2567.57
405.47	2389.69
405.66	2495.01
405.85	2471.61
406.05	2586.29
406.24	2396.71
406.43	2525.44
406.62	2665.87
406.81	2581.61
407.00	2595.65
407.20	2555.86
407.39	2661.19
407.58	2871.84
407.77	2698.64
407.96	2818.00
408.15	2803.96
408.34	2738.43
408.54	2799.28
408.73	2801.62
408.92	2888.22
409.11	2867.16
409.30	2841.41
409.49	2874.18
409.68	2920.99
409.87	2867.16
410.07	2920.99
410.26	2956.10
410.45	2967.80
410.64	3033.33
410.83	3070.78
411.02	3042.70
411.21	3105.89
411.40	3152.70
411.59	3178.45
411.78	3131.64
411.98	3087.17
412.17	3215.90
412.36	3339.94
412.55	3393.78
412.74	3318.88
412.93	3304.84
413.12	3204.19
413.31	3555.27
413.50	3445.27
413.69	3452.29
413.88	3485.06
414.07	3632.51
414.26	3667.62
414.45	3644.21
414.64	3597.40
414.83	3712.09
415.02	3709.75
415.22	3765.92
415.41	3845.50
415.60	3946.14
415.79	3847.84
415.98	3962.53
416.17	3889.97
416.36	3950.82
416.55	3936.78
416.74	4044.45
416.93	4142.75
417.12	4079.55
417.31	4053.81
417.50	4212.96
417.69	4379.14
417.88	4334.67
418.07	4124.02
418.26	4287.86
418.45	4381.48
418.64	4442.34
418.83	4397.87
419.02	4484.47
419.21	4493.83
419.39	4470.42
419.58	4475.10
419.77	4599.15
419.96	4713.84
420.15	4669.37
420.34	4643.62
420.53	4561.70
420.72	4559.36
420.91	4669.37
421.10	4657.67
421.29	4805.12
421.48	4713.84
421.67	4702.14
421.86	4793.42
422.05	4690.43
422.24	4786.40
422.43	4816.82
422.61	4784.06
422.80	4805.12
422.99	4898.74
423.18	4950.23
423.37	4990.02
423.56	4851.93
423.75	4889.38
423.94	4898.74
424.13	4669.37
424.32	4716.18
424.50	4968.96
424.69	5027.47
424.88	5057.90
425.07	4919.81
425.26	4746.61
425.45	4908.10
425.64	4966.62
425.83	4983.00
426.01	5128.11
426.20	4917.47
426.39	5074.28
426.58	4901.08
426.77	5121.09
426.96	5268.55
427.15	5128.11
427.33	5193.65
427.52	5144.50
427.71	5224.08
427.90	5107.05
428.09	5493.24
428.28	5493.24
428.46	5320.04
428.65	5242.80
428.84	5427.70
429.03	5518.98
429.22	5462.81
429.40	5432.38
429.59	5589.20
429.78	5401.96
429.97	5228.76
430.16	5474.51
430.34	5584.52
430.53	5511.96
430.72	5671.12
430.91	5671.12
431.10	5535.37
431.28	5734.31
431.47	5865.38
431.66	5881.77
431.85	5720.27
432.03	5818.57
432.22	5930.92
432.41	5856.02
432.60	5881.77
432.79	5802.19
432.97	6054.97
433.16	5874.74
433.35	5916.87
433.54	6190.72
433.72	6113.48
433.91	6050.28
434.10	6136.88
434.28	6033.90
434.47	6136.88
434.66	6338.17
434.85	6171.99
435.03	6284.34
435.22	6176.67
435.41	6466.90
435.59	6331.15
435.78	6345.19
435.97	6408.39
436.16	6338.17
436.34	6382.64
436.53	6553.50
436.72	6588.61
436.90	6291.36
437.09	6679.89
437.28	6586.27
437.46	6511.37
437.65	6642.44
437.84	6757.13
438.02	6757.13
438.21	6792.23
438.40	6654.14
438.58	6899.90
438.77	7019.27
438.96	6970.12
439.14	7012.24
439.33	7140.97
439.52	7110.55
439.70	7115.23
439.89	7295.45
440.08	7307.15
440.26	7063.74
440.45	7342.26
440.63	7405.46
440.82	7503.76
441.01	7475.67
441.19	7555.25
441.38	7723.77
441.57	7412.48
441.75	7983.57
441.94	7700.36
442.12	7866.54
442.31	8060.80
442.50	8102.93
442.68	7747.17
442.87	7885.26
443.05	8056.12
443.24	8138.04
443.43	8081.87
443.61	8060.80
443.80	8381.46
443.98	8142.72
444.17	7850.16
444.35	8191.88
444.54	8355.71
444.73	8145.06
444.91	8341.67
445.10	8308.90
445.28	8276.13
445.47	8182.51
445.65	8191.88
445.84	8404.86
446.02	8587.43
446.21	8372.10
446.39	8182.51
446.58	8241.03
446.77	8505.51
446.95	8098.25
447.14	8248.05
447.32	8547.64
447.51	8463.38
447.69	8463.38
447.88	8557.00
448.06	8510.19
448.25	8461.04
448.43	8538.27
448.62	8479.76
448.80	8578.06
448.99	8533.59
449.17	8636.58
449.36	8578.06
449.54	8788.71
449.73	8805.10
449.91	9025.11
450.10	9177.24
450.28	9057.87
450.46	9011.06
450.65	8980.64
450.83	9064.89
451.02	8990.00
451.20	9081.28
451.39	9177.24
451.57	9062.55
451.76	9074.26
451.94	9207.67
452.13	9235.75
452.31	9530.66
452.49	9125.75
452.68	9273.20
452.86	9327.03
453.05	9394.91
453.23	9392.57
453.42	9254.48
453.60	9345.76
453.78	9570.45
453.97	9575.13
454.15	9359.80
454.34	9345.76
454.52	9556.41
454.70	9617.26
454.89	9769.40
455.07	9706.20
455.26	9753.01
455.44	10141.54
455.62	9921.53
455.81	9886.42
455.99	10036.22
456.17	10071.33
456.36	10111.11
456.54	10066.64
456.73	10066.64
456.91	10518.37
457.09	10246.87
457.28	10518.37
457.46	10377.94
457.64	10389.64
457.83	10445.81
458.01	10422.41
458.19	10729.02
458.38	10525.39
458.56	10558.16
458.74	10637.73
458.93	10712.63
459.11	10696.25
459.29	10827.32
459.48	10853.06
459.66	10684.55
459.84	10813.28
460.03	11138.61
460.21	10895.19
460.39	10883.49
460.57	11040.31
460.76	11119.89
460.94	11066.05
461.12	11101.16
461.31	10953.71
461.49	10951.37
461.67	11145.63
461.85	11349.26
462.04	11265.00
462.22	11744.81
462.40	11398.41
462.59	11576.29
462.77	11477.99
462.95	11637.14
463.13	11513.10
463.32	11482.67
463.50	11838.43
463.68	11728.42
463.86	11887.58
464.05	11585.65
464.23	11700.34
464.41	12131.00
464.59	11536.50
464.78	12028.01
464.96	12018.65
465.14	11939.07
465.32	11992.90
465.50	12299.52
465.69	12173.13
465.87	11934.39
466.05	12135.68
466.23	12184.83
466.41	12189.51
466.60	12388.46
466.78	12231.64
466.96	11929.71
467.14	12241.00
467.32	12402.50
467.51	12559.31
467.69	12046.74
467.87	12346.33
468.05	12601.44
468.23	12484.42
468.41	12266.75
468.60	12826.14
468.78	12746.56
468.96	12535.91
469.14	12423.56
469.32	12908.05
469.50	12631.87
469.69	13062.53
469.87	12940.82
470.05	12945.50
470.23	13004.02
470.41	13226.37
470.59	13324.67
470.77	13043.81
470.95	13401.91
471.14	13408.93
471.32	13057.85
471.50	13380.84
471.68	13434.68
471.86	13563.40
472.04	13757.67
472.22	14012.79
472.40	13696.82
472.58	13804.48
472.77	14216.41
472.95	14141.52
473.13	14494.94
473.31	14092.37
473.49	14043.21
473.67	13933.21
473.85	14375.57
474.03	14656.43
474.21	14588.56
474.39	14881.13
474.57	14403.66
474.75	14820.27
474.93	14857.72
475.12	14803.89
475.30	15037.94
475.48	15229.87
475.66	15337.53
475.84	15164.33
476.02	15269.66
476.20	15176.03
476.38	15445.20
476.56	15901.60
476.74	15889.90
476.92	15826.70
477.10	15899.26
477.28	15988.20
477.46	16297.15
477.64	16168.42
477.82	16645.89
478.00	16798.02
478.18	16585.04
478.36	17106.98
478.54	16917.39
478.72	17224.00
478.90	17319.96
479.08	17383.16
479.26	17341.03
479.44	17467.42
479.62	17881.69
479.80	17820.84
479.98	17928.50
480.16	18431.72
480.34	18246.82
480.52	18476.19
480.70	18787.48
480.88	18410.65
481.06	18389.59
481.24	18745.35
481.41	19124.52
481.59	19290.70
481.77	19412.40
481.95	19407.72
482.13	19688.59
482.31	19604.33
482.49	20077.12
482.67	20112.22
482.85	20208.19
483.03	20556.93
483.21	21057.80
483.39	20905.66
483.57	20376.70
483.74	20982.90
483.92	21518.89
484.10	20886.94
484.28	21565.70
484.46	21968.27
484.64	22331.05
484.82	22057.21
485.00	21965.93
485.18	22750.01
485.35	22843.63
485.53	22286.58
485.71	22951.29
485.89	23548.13
486.07	23009.81
486.25	23351.52
486.43	23798.57
486.61	23632.39
486.78	23999.85
486.96	24079.43
487.14	24381.36
487.32	24519.45
487.50	24629.46
487.68	24973.52
487.85	25076.50
488.03	25521.20
488.21	25661.63
488.39	25652.27
488.57	25984.63
488.75	25923.77
488.92	26593.17
489.10	26721.90
489.28	26878.71
489.46	26742.96
489.64	26691.47
489.81	27475.55
489.99	27491.93
490.17	27974.08
490.35	28048.98
490.53	27700.24
490.70	28238.56
490.88	28044.30
491.06	28851.78
491.24	28739.44
491.41	29062.43
491.59	29413.51
491.77	29113.92
491.95	29240.31
492.13	29539.90
492.30	29947.15
492.48	29972.90
492.66	30225.68
492.84	30061.84
493.01	30504.20
493.19	30476.12
493.37	30841.24
493.54	30920.82
493.72	31487.23
493.90	31330.41
494.08	31388.92
494.25	31737.66
494.43	31875.76
494.61	32128.53
494.79	32320.46
494.96	32467.91
495.14	32308.76
495.32	32720.69
495.49	33127.94
495.67	32671.54
495.85	33139.65
496.02	33706.05
496.20	33769.25
496.38	33961.17
496.55	34073.52
496.73	34555.67
496.91	34394.17
497.09	34906.75
497.26	35061.22
497.44	34766.32
497.62	35292.94
497.79	35747.00
497.97	35061.22
498.14	35646.36
498.32	35983.40
498.50	35791.47
498.67	36392.99
498.85	36282.98
499.03	36348.52
499.20	36474.91
499.38	36879.82
499.56	37172.39
499.73	36903.23
499.91	36994.51
500.08	37324.52
500.26	36884.50
500.44	38047.75
500.61	37553.90
500.79	37626.45
500.97	38157.75
501.14	38607.14
501.32	38244.35
501.49	38181.16
501.67	38532.24
501.84	38859.91
502.02	38410.53
502.20	38932.47
502.37	39021.41
502.55	39416.96
502.72	39372.49
502.90	39601.86
503.07	39311.64
503.25	39360.79
503.43	39119.71
503.60	40238.49
503.78	40041.88
503.95	39976.35
504.13	40278.28
504.30	40416.37
504.48	40243.17
504.65	40587.23
504.83	40692.55
505.01	41031.93
505.18	41085.76
505.36	40982.78
505.53	41762.18
505.71	41558.55
505.88	41638.13
506.06	41427.48
506.23	42190.50
506.41	42054.75
506.58	42321.57
506.76	41876.86
506.93	42658.60
507.11	41972.83
507.28	42408.17
507.46	42614.13
507.63	42609.45
507.81	42838.83
507.98	42616.47
508.16	42761.59
508.33	43255.44
508.50	43070.54
508.68	43768.02
508.85	43789.08
509.03	43519.92
509.20	43899.09
509.38	44168.25
509.55	44566.14
509.73	44456.14
509.90	44172.93
510.08	44194.00
510.25	44311.02
510.42	44666.78
510.60	44737.00
510.77	45251.92
510.95	45263.62
511.12	44790.83
511.30	44978.07
511.47	45258.94
511.64	45336.18
511.82	45654.49
511.99	45621.72
512.17	45940.04
512.34	45495.33
512.51	46223.24
512.69	46218.56
512.86	46272.39
513.04	46405.80
513.21	46574.32
513.38	46653.90
513.56	46939.44
513.73	46267.71
513.90	46738.16
514.08	46672.62
514.25	47143.07
514.43	46946.47
514.60	47379.46
514.77	47131.37
514.95	47536.28
515.12	47199.24
515.29	47194.56
515.47	47856.93
515.64	47903.74
515.81	47814.80
515.99	47901.40
516.16	48416.32
516.33	47585.43
516.51	48463.13
516.68	48238.44
516.85	48353.13
517.03	48882.09
517.20	48814.21
517.37	48563.78
517.54	48612.93
517.72	48531.01
517.89	48678.46
518.06	49074.01
518.24	49191.04
518.41	48837.62
518.58	49081.03
518.75	49233.17
518.93	49429.77
519.10	48942.94
519.27	49497.65
519.45	49684.89
519.62	49574.89
519.79	49624.04
519.96	49705.96
520.14	50073.42
520.31	50148.32
520.48	49961.08
520.65	50190.45
520.83	50571.96
521.00	50216.19
521.17	50347.26
521.34	50590.68
521.52	50478.33
521.69	50681.96
521.86	50763.88
522.03	50944.10
522.20	51105.60
522.38	51381.78
522.55	51138.36
522.72	50995.59
522.89	51133.68
523.07	51299.86
523.24	51480.08
523.41	51468.38
523.58	51419.23
523.75	51653.28
523.92	51618.17
524.10	51742.22
524.27	51714.14
524.44	51978.62
524.61	51868.61
524.78	52062.88
524.96	52329.70
525.13	51924.78
525.30	52343.74
525.47	52308.63
525.64	52245.44
525.81	52317.99
525.98	52329.70
526.16	52451.41
526.33	52463.11
526.50	53057.60
526.67	52406.94
526.84	52961.64
527.01	52633.97
527.18	52664.39
527.36	52795.46
527.53	52861.00
527.70	53158.25
527.87	53123.14
528.04	52963.98
528.21	53380.60
528.38	53268.25
528.55	53537.41
528.72	53137.18
528.89	53429.75
529.07	53254.21
529.24	53329.11
529.41	53593.59
529.58	53408.68
529.75	53511.67
529.92	53748.06
530.09	53691.89
530.26	53914.24
530.43	53600.61
530.60	53565.50
530.77	53504.65
530.94	53986.80
531.11	53909.56
531.28	53939.99
531.46	53925.94
531.63	54162.34
531.80	54265.32
531.97	54307.45
532.14	54028.93
532.31	54333.20
532.48	54532.14
532.65	54447.88
532.82	54251.28
532.99	54820.03
533.16	54504.06
533.33	54878.54
533.50	54887.90
533.67	54380.01
533.84	54665.55
534.01	54958.12
534.18	54707.68
534.35	55248.35
534.52	55199.19
534.69	55049.40
534.86	55323.24
535.03	54864.50
535.20	54745.13
535.37	55320.90
535.54	55323.24
535.71	55131.32
535.88	55360.69
536.05	55304.52
536.22	55580.70
536.38	55477.72
536.55	55346.65
536.72	55374.73
536.89	55229.62
537.06	55561.98
537.23	55437.93
537.40	55327.92
537.57	55622.83
537.74	55433.25
537.91	55987.95
538.08	55674.32
538.25	55650.92
538.42	55777.31
538.59	55973.91
538.75	55749.22
538.92	56032.42
539.09	56240.73
539.26	55913.06
539.43	55868.59
539.60	56027.74
539.77	55985.61
539.94	56165.84
540.11	56292.22
540.28	56245.41
540.44	56207.97
540.61	56332.01
540.78	56231.37
540.95	56245.41
541.12	56090.94
541.29	56252.44
541.46	56392.87
541.62	56491.17
541.79	56636.28
541.96	56376.48
542.13	56521.60
542.30	56631.60
542.47	56657.35
542.63	56647.99
542.80	56762.67
542.97	56715.86
543.14	57190.99
543.31	57088.01
543.48	56926.51
543.64	57567.82
543.81	57279.93
543.98	57071.62
544.15	57167.58
544.32	57446.11
544.48	57453.13
544.65	57233.12
544.82	57198.01
544.99	57249.50
545.16	57298.65
545.32	57310.36
545.49	57661.44
545.66	57584.20
545.83	57619.31
546.00	57668.46
546.16	57640.37
546.33	57450.79
546.50	57532.71
546.67	57446.11
546.83	57408.66
547.00	57792.51
547.17	57626.33
547.34	57638.03
547.50	57937.62
547.67	57841.66
547.84	57867.40
548.00	57815.91
548.17	58164.65
548.34	58003.16
548.51	58047.63
548.67	58122.52
548.84	57853.36
549.01	57923.58
549.18	57853.36
549.34	58103.80
549.51	58000.82
549.68	58326.15
549.84	58143.59
550.01	58384.66
550.18	57963.37
550.34	58248.91
550.51	58192.74
550.68	58403.39
550.84	58089.76
551.01	58354.24
551.18	58377.64
551.34	58298.06
551.51	58429.13
551.68	58541.48
551.84	58482.97
552.01	58621.06
552.18	58429.13
552.34	58546.16
552.51	58571.91
552.68	58363.60
552.84	58658.51
553.01	58735.74
553.18	58752.13
553.34	58773.19
553.51	58695.95
553.67	58691.27
553.84	58990.86
554.01	58852.77
554.17	58878.52
554.34	58805.96
554.51	58958.09
554.67	59023.63
554.84	58885.54
555.00	58892.56
555.17	58922.99
555.33	59028.31
555.50	58768.51
555.67	58855.11
555.83	58890.22
556.00	58838.73
556.16	59107.89
556.33	59185.13
556.50	59231.94
556.66	59393.43
556.83	58962.78
556.99	59473.01
557.16	59267.05
557.32	59208.53
557.49	59496.42
557.65	59267.05
557.82	59358.33
557.98	59206.19
558.15	59447.27
558.32	59409.82
558.48	59173.42
558.65	59316.20
558.81	59484.72
558.98	59384.07
559.14	59702.38
559.31	59393.43
559.47	59496.42
559.64	59573.66
559.80	59433.22
559.97	59552.59
560.13	59667.28
560.30	59636.85
560.46	59613.44
560.63	59592.38
560.79	59695.36
560.96	59725.79
561.12	59793.67
561.29	59693.02
561.45	59796.01
561.61	59791.33
561.78	59774.94
561.94	59749.20
562.11	59793.67
562.27	59749.20
562.44	59817.07
562.60	60072.19
562.77	59936.44
562.93	59793.67
563.10	59849.84
563.26	59821.75
563.42	59971.55
563.59	59746.86
563.75	59805.37
563.92	59927.08
564.08	59753.88
564.24	60055.81
564.41	60044.10
564.57	60041.76
564.74	60086.23
564.90	60074.53
565.07	60037.08
565.23	59917.71
565.39	60179.85
565.56	60062.83
565.72	59842.82
565.88	60046.44
566.05	59931.76
566.21	60081.55
566.38	60186.88
566.54	59969.21
566.70	60367.10
566.87	60278.16
567.03	60041.76
567.19	60161.13
567.36	60346.03
567.52	60214.96
567.68	60416.25
567.85	60203.26
568.01	60392.84
568.17	60413.91
568.34	60505.19
568.50	60327.31
568.66	60254.75
568.83	60346.03
568.99	60193.90
569.15	60301.56
569.32	60231.35
569.48	60287.52
569.64	60355.39
569.81	60254.75
569.97	60257.09
570.13	60474.76
570.30	60086.23
570.46	60362.42
570.62	60427.95
570.78	60271.14
570.95	60100.28
571.11	60559.02
571.27	60317.95
571.43	60395.18
571.60	60308.58
571.76	60432.63
571.92	60402.21
572.09	60299.22
572.25	60568.38
572.41	60065.17
572.57	60374.12
572.74	60612.85
572.90	60444.33
573.06	60383.48
573.22	60418.59
573.38	60505.19
573.55	60439.65
573.71	60706.47
573.87	60507.53
574.03	60425.61
574.20	60552.00
574.36	60481.78
574.52	60556.68
574.68	60594.13
574.84	60877.33
575.01	60846.91
575.17	60654.98
575.33	60743.92
575.49	60704.13
575.65	60610.51
575.82	60549.66
575.98	60486.46
576.14	60938.19
576.30	60729.88
576.46	60650.30
576.62	60577.75
576.79	60706.47
576.95	60521.57
577.11	60769.67
577.27	60896.06
577.43	60718.18
577.59	60666.69
577.75	60673.71
577.92	60638.60
578.08	60797.76
578.24	60762.65
578.40	60715.84
578.56	60821.16
578.72	60732.22
578.88	60870.31
579.04	60800.10
579.21	60662.00
579.37	60835.20
579.53	60931.17
579.69	60739.24
579.85	60657.32
580.01	60420.93
580.17	60652.64
580.33	60858.61
580.49	60921.80
580.65	60846.91
580.82	60809.46
580.98	60750.94
581.14	60725.20
581.30	60832.86
581.46	60715.84
581.62	60774.35
581.78	60603.49
581.94	60837.54
582.10	60767.33
582.26	60608.17
582.42	60804.78
582.58	60764.99
582.74	60767.33
582.90	60900.74
583.06	60786.05
583.22	60739.24
583.38	60715.84
583.54	60879.67
583.70	60905.42
583.86	60985.00
584.02	60566.04
584.18	60947.55
584.34	60748.60
584.50	60821.16
584.66	60853.93
584.82	60889.04
584.98	60968.61
585.14	60882.02
585.30	60872.65
585.46	61059.90
585.62	61017.77
585.78	60961.59
585.94	60643.28
586.10	60921.80
586.26	60903.08
586.42	60870.31
586.58	60795.42
586.74	60896.06
586.90	60736.90
587.06	60874.99
587.22	61069.26
587.38	60825.84
587.54	61172.24
587.70	61055.21
587.86	60980.32
588.02	60807.12
588.18	61113.73
588.34	61146.50
588.49	60945.21
