SpectraSuite Data File
++++++++++++++++++++++++++++++++++++
Date: Fri Oct 25 11:34:27 EDT 2013
User: price-jones
Dark Spectrum Present: No
Reference Spectrum Present: No
Number of Sampled Component Spectra: 1
Spectrometers: USB2+H05261
Integration Time (usec): 100000 (USB2+H05261)
Spectra Averaged: 1 (USB2+H05261)
Boxcar Smoothing: 0 (USB2+H05261)
Correct for Electrical Dark: No (USB2+H05261)
Strobe/Lamp Enabled: No (USB2+H05261)
Correct for Detector Non-linearity: No (USB2+H05261)
Correct for Stray Light: No (USB2+H05261)
Number of Pixels in Processed Spectrum: 2048
>>>>>Begin Processed Spectral Data<<<<<
365.73	306.61
365.92	306.61
366.12	306.61
366.32	243.42
366.52	131.07
366.72	224.69
366.91	224.69
367.11	224.69
367.31	177.88
367.51	182.56
367.70	201.29
367.90	194.26
368.10	205.97
368.30	203.63
368.49	182.56
368.69	198.95
368.89	243.42
369.09	201.29
369.28	187.24
369.48	140.43
369.68	278.52
369.87	227.03
370.07	243.42
370.27	250.44
370.47	355.76
370.66	500.87
370.86	528.96
371.06	575.77
371.25	575.77
371.45	486.83
371.65	571.09
371.84	519.60
372.04	526.62
372.24	645.99
372.44	575.77
372.63	599.18
372.83	671.73
373.03	585.13
373.22	561.73
373.42	559.39
373.62	667.05
373.81	624.92
374.01	620.24
374.21	610.88
374.40	622.58
374.60	662.37
374.79	622.58
374.99	636.63
375.19	559.39
375.38	601.52
375.58	596.84
375.78	585.13
375.97	650.67
376.17	667.05
376.37	601.52
376.56	650.67
376.76	660.03
376.95	608.54
377.15	648.33
377.35	676.41
377.54	741.95
377.74	697.48
377.93	615.56
378.13	643.65
378.33	624.92
378.52	692.80
378.72	704.50
378.91	709.18
379.11	734.93
379.31	748.97
379.50	620.24
379.70	744.29
379.89	727.91
380.09	791.10
380.28	734.93
380.48	781.74
380.68	681.10
380.87	709.18
381.07	688.12
381.26	709.18
381.46	861.32
381.65	723.23
381.85	725.57
382.04	732.59
382.24	779.40
382.43	821.53
382.63	849.61
382.83	730.25
383.02	767.70
383.22	772.38
383.41	737.27
383.61	816.85
383.80	765.36
384.00	765.36
384.19	697.48
384.39	809.83
384.58	819.19
384.78	788.76
384.97	791.10
385.17	774.72
385.36	770.04
385.56	908.13
385.75	751.31
385.95	784.08
386.14	784.08
386.34	828.55
386.53	830.89
386.72	816.85
386.92	844.93
387.11	842.59
387.31	863.66
387.50	926.85
387.70	929.19
387.89	898.77
388.09	856.64
388.28	833.23
388.48	795.78
388.67	854.30
388.86	835.57
389.06	866.00
389.25	994.73
389.45	924.51
389.64	931.53
389.84	933.87
390.03	875.36
390.22	990.05
390.42	931.53
390.61	936.21
390.81	945.58
391.00	966.64
391.19	1025.15
391.39	903.45
391.58	971.32
391.78	983.02
391.97	936.21
392.16	1006.43
392.36	1114.10
392.55	971.32
392.75	1043.88
392.94	1039.20
393.13	1046.22
393.33	1025.15
393.52	1034.52
393.71	1004.09
393.91	1015.79
394.10	1036.86
394.29	1076.65
394.49	1053.24
394.68	1114.10
394.88	1078.99
395.07	1135.16
395.26	1172.61
395.46	1200.69
395.65	1107.07
395.84	1137.50
396.04	1109.41
396.23	1135.16
396.42	1151.54
396.62	1130.48
396.81	1181.97
397.00	1231.12
397.19	1198.35
397.39	1102.39
397.58	1167.93
397.77	1233.46
397.97	1270.91
398.16	1231.12
398.35	1226.44
398.55	1296.66
398.74	1317.72
398.93	1219.42
399.12	1233.46
399.32	1219.42
399.51	1256.87
399.70	1289.64
399.90	1362.19
400.09	1371.55
400.28	1301.34
400.47	1406.66
400.67	1411.34
400.86	1373.89
401.05	1362.19
401.24	1371.55
401.44	1362.19
401.63	1474.54
401.82	1446.45
402.01	1420.71
402.21	1455.81
402.40	1411.34
402.59	1385.60
402.78	1509.65
402.97	1465.18
403.17	1521.35
403.36	1460.49
403.55	1547.09
403.74	1537.73
403.93	1570.50
404.13	1554.12
404.32	1570.50
404.51	1540.07
404.70	1579.86
404.89	1640.72
405.09	1661.78
405.28	1626.67
405.47	1528.37
405.66	1633.69
405.85	1678.16
406.05	1621.99
406.24	1607.95
406.43	1659.44
406.62	1706.25
406.81	1689.87
407.00	1654.76
407.20	1715.61
407.39	1687.53
407.58	1722.63
407.77	1755.40
407.96	1741.36
408.15	1886.47
408.34	1682.85
408.54	1832.64
408.73	1818.60
408.92	1921.58
409.11	1827.96
409.30	1909.88
409.49	1872.43
409.68	1905.20
409.87	1987.11
410.07	1996.48
410.26	1914.56
410.45	1961.37
410.64	2040.95
410.83	2019.88
411.02	2090.10
411.21	2153.29
411.40	2087.76
411.59	2143.93
411.78	2169.68
411.98	2069.03
412.17	2125.21
412.36	2160.31
412.55	2113.50
412.74	2305.43
412.93	2165.00
413.12	2232.87
413.31	2338.20
413.50	2326.49
413.69	2310.11
413.88	2401.39
414.07	2345.22
414.26	2422.45
414.45	2438.84
414.64	2415.43
414.83	2532.46
415.02	2513.74
415.22	2593.31
415.41	2619.06
415.60	2630.76
415.79	2593.31
415.98	2581.61
416.17	2635.44
416.36	2546.50
416.55	2635.44
416.74	2684.59
416.93	2745.45
417.12	2595.65
417.31	2689.28
417.50	2778.22
417.69	2869.50
417.88	2906.95
418.07	2775.88
418.26	2829.71
418.45	2836.73
418.64	3068.44
418.83	2939.71
419.02	2965.46
419.21	2977.16
419.39	2988.86
419.58	2913.97
419.77	2956.10
419.96	3066.10
420.15	2972.48
420.34	3115.25
420.53	3084.83
420.72	3056.74
420.91	2974.82
421.10	3129.30
421.29	3169.09
421.48	3199.51
421.67	3211.22
421.86	3148.02
422.05	3098.87
422.24	3227.60
422.43	3239.30
422.61	3239.30
422.80	3309.52
422.99	3211.22
423.18	3269.73
423.37	3414.84
423.56	3417.18
423.75	3218.24
423.94	3229.94
424.13	3054.40
424.32	3241.64
424.50	3274.41
424.69	3325.90
424.88	3361.01
425.07	3433.57
425.26	3386.76
425.45	3393.78
425.64	3222.92
425.83	3384.41
426.01	3346.97
426.20	3337.60
426.39	3382.07
426.58	3328.24
426.77	3372.71
426.96	3297.81
427.15	3384.41
427.33	3487.40
427.52	3541.23
427.71	3524.85
427.90	3510.80
428.09	3517.83
428.28	3679.32
428.46	3595.06
428.65	3419.52
428.84	3581.02
429.03	3616.13
429.22	3538.89
429.40	3557.61
429.59	3639.53
429.78	3424.20
429.97	3454.63
430.16	3581.02
430.34	3758.90
430.53	3648.90
430.72	3805.71
430.91	3658.26
431.10	3688.68
431.28	3885.29
431.47	3838.48
431.66	3843.16
431.85	3831.46
432.03	3875.93
432.22	3978.91
432.41	3878.27
432.60	3840.82
432.79	4009.34
432.97	3899.33
433.16	4025.72
433.35	3974.23
433.54	4007.00
433.72	4124.02
433.91	4107.64
434.10	4009.34
434.28	3899.33
434.47	4124.02
434.66	4058.49
434.85	3974.23
435.03	4182.54
435.22	4145.09
435.41	4257.43
435.59	4243.39
435.78	4112.32
435.97	4299.56
436.16	4189.56
436.34	4074.87
436.53	4327.65
436.72	4283.18
436.90	4156.79
437.09	4292.54
437.28	4353.40
437.46	4383.82
437.65	4463.40
437.84	4444.68
438.02	4376.80
438.21	4435.32
438.40	4400.21
438.58	4645.96
438.77	4435.32
438.96	4507.87
439.14	4613.20
439.33	4734.90
439.52	4617.88
439.70	4568.73
439.89	4702.14
440.08	4704.48
440.26	4760.65
440.45	4793.42
440.63	4894.06
440.82	4903.42
441.01	4880.02
441.19	4887.04
441.38	5076.62
441.57	4901.08
441.75	5125.77
441.94	5282.59
442.12	5261.52
442.31	5207.69
442.50	5247.48
442.68	5275.57
442.87	5343.44
443.05	5327.06
443.24	5224.08
443.43	5210.03
443.61	5322.38
443.80	5518.98
443.98	5305.99
444.17	5221.74
444.35	5336.42
444.54	5453.45
444.73	5275.57
444.91	5434.72
445.10	5514.30
445.28	5565.79
445.47	5240.46
445.65	5357.49
445.84	5448.77
446.02	5458.13
446.21	5446.43
446.39	5495.58
446.58	5490.90
446.77	5614.95
446.95	5254.50
447.14	5516.64
447.32	5675.80
447.51	5530.69
447.69	5558.77
447.88	5504.94
448.06	5612.60
448.25	5467.49
448.43	5577.50
448.62	5565.79
448.80	5418.34
448.99	5741.33
449.17	5507.28
449.36	5523.66
449.54	5813.89
449.73	5753.04
449.91	5799.85
450.10	5813.89
450.28	5881.77
450.46	5870.06
450.65	5776.44
450.83	5720.27
451.02	5867.72
451.20	6010.50
451.39	5867.72
451.57	5898.15
451.76	5980.07
451.94	5944.96
452.13	6045.60
452.31	5912.19
452.49	6031.56
452.68	6057.31
452.86	5930.92
453.05	6083.05
453.23	6017.52
453.42	6099.44
453.60	6155.61
453.78	6298.38
453.97	6207.10
454.15	6129.86
454.34	6122.84
454.52	6347.53
454.70	6370.94
454.89	6300.72
455.07	6237.53
455.26	6445.84
455.44	6373.28
455.62	6452.86
455.81	6537.12
455.99	6480.94
456.17	6471.58
456.36	6392.00
456.54	6544.14
456.73	6534.78
456.91	6773.51
457.09	6733.72
457.28	6759.47
457.46	6654.14
457.64	6698.61
457.83	6801.60
458.01	6724.36
458.19	6841.39
458.38	6754.79
458.56	6984.16
458.74	6815.64
458.93	6998.20
459.11	6855.43
459.29	6874.15
459.48	7009.90
459.66	6986.50
459.84	7042.67
460.03	7152.68
460.21	7274.38
460.39	7009.90
460.57	7253.32
460.76	7124.59
460.94	7101.19
461.12	7206.51
461.31	7112.89
461.49	7211.19
461.67	7173.74
461.85	7368.01
462.04	7316.51
462.22	7660.57
462.40	7520.14
462.59	7344.60
462.77	7321.20
462.95	7681.64
463.13	7440.56
463.32	7461.63
463.50	7452.27
463.68	7599.72
463.86	7538.87
464.05	7438.22
464.23	7529.50
464.41	7719.09
464.59	7585.68
464.78	7779.94
464.96	7709.72
465.14	7616.10
465.32	7700.36
465.50	7695.68
465.69	7866.54
465.87	7772.92
466.05	7712.07
466.23	7857.18
466.41	7915.69
466.60	7990.59
466.78	7852.50
466.96	7747.17
467.14	7906.33
467.32	8116.98
467.51	8095.91
467.69	7857.18
467.87	8074.85
468.05	8315.92
468.23	7695.68
468.41	7950.80
468.60	8142.72
468.78	8135.70
468.96	8138.04
469.14	8203.58
469.32	8091.23
469.50	8187.19
469.69	8418.91
469.87	8449.33
470.05	8437.63
470.23	8336.99
470.41	8362.73
470.59	8568.70
470.77	8388.48
470.95	8477.42
471.14	8709.13
471.32	8353.37
471.50	8713.81
471.68	8723.18
471.86	8578.06
472.04	8865.95
472.22	9006.38
472.40	8662.32
472.58	8903.40
472.77	8805.10
472.95	8868.29
473.13	9420.66
473.31	9022.77
473.49	9062.55
473.67	9015.74
473.85	9142.13
474.03	9282.56
474.21	9327.03
474.39	9329.38
474.57	9327.03
474.75	9572.79
474.93	9465.13
475.12	9401.93
475.30	9689.82
475.48	9720.24
475.66	9853.66
475.84	9680.46
476.02	9893.44
476.20	9757.69
476.38	10157.92
476.56	9963.66
476.74	10169.63
476.92	10153.24
477.10	10083.03
477.28	10289.00
477.46	10129.84
477.64	10427.09
477.82	10501.98
478.00	10623.69
478.18	10654.12
478.36	10588.58
478.54	10731.36
478.72	10773.49
478.90	11012.22
479.08	11075.42
479.26	11234.57
479.44	11140.95
479.62	11323.51
479.80	11360.96
479.98	11501.39
480.16	11595.01
480.34	11662.89
480.52	11646.51
480.70	11737.79
480.88	11595.01
481.06	11829.07
481.24	12020.99
481.41	12049.08
481.59	12191.85
481.77	12287.81
481.95	12039.72
482.13	12308.88
482.31	12482.08
482.49	12800.39
482.67	12821.45
482.85	12870.61
483.03	13055.51
483.21	12996.99
483.39	13357.44
483.57	13095.30
483.74	13411.27
483.92	13387.86
484.10	13432.33
484.28	13832.57
484.46	13764.69
484.64	13930.87
484.82	13984.70
485.00	14022.15
485.18	14169.60
485.35	14731.33
485.53	14331.10
485.71	14501.96
485.89	14567.49
486.07	14885.81
486.25	14869.42
486.43	14937.30
486.61	14888.15
486.78	14892.83
486.96	15250.93
487.14	15374.98
487.32	15288.38
487.50	15393.70
487.68	15494.35
487.85	15943.73
488.03	15964.79
488.21	16243.32
488.39	16116.93
488.57	16313.53
488.75	16390.77
488.92	16465.67
489.10	16765.26
489.28	16865.90
489.46	17036.76
489.64	16992.29
489.81	17284.86
489.99	17308.26
490.17	17565.72
490.35	17759.98
490.53	17715.51
490.70	17642.96
490.88	17748.28
491.06	17898.08
491.24	17900.42
491.41	18476.19
491.59	18251.50
491.77	18359.16
491.95	18555.77
492.13	18721.95
492.30	18661.09
492.48	18892.80
492.66	18829.61
492.84	19197.07
493.01	19199.41
493.19	19377.30
493.37	19143.24
493.54	19562.20
493.72	19555.18
493.90	19756.46
494.08	19985.83
494.25	20243.29
494.43	19969.45
494.61	20456.28
494.79	20421.17
494.96	20231.59
495.14	20774.60
495.32	20636.50
495.49	20842.47
495.67	20987.58
495.85	20971.20
496.02	21291.85
496.20	21525.91
496.38	21275.47
496.55	21406.54
496.73	21830.18
496.91	21741.24
497.09	21762.30
497.26	21823.16
497.44	22029.12
497.62	22008.06
497.79	22597.87
497.97	22324.03
498.14	22455.10
498.32	22377.86
498.50	22855.33
498.67	22831.93
498.85	22522.98
499.03	22993.42
499.20	22799.16
499.38	22862.35
499.56	23040.23
499.73	23559.83
499.91	23524.72
500.08	23524.72
500.26	23733.03
500.44	23606.64
500.61	23777.50
500.79	23454.51
500.97	24191.78
501.14	24308.80
501.32	24432.85
501.49	24526.47
501.67	24217.52
501.84	24290.08
502.02	24219.86
502.20	24397.74
502.37	25050.75
502.55	24339.23
502.72	24868.19
502.90	24779.25
503.07	24584.99
503.25	24940.75
503.43	24795.64
503.60	25081.18
503.78	25380.77
503.95	25256.72
504.13	25797.38
504.30	25216.93
504.48	25462.69
504.65	25640.57
504.83	25486.09
505.01	26125.06
505.18	25827.81
505.36	26132.08
505.53	25954.20
505.71	26333.37
505.88	25940.16
506.06	26375.50
506.23	26445.71
506.41	26338.05
506.58	26256.13
506.76	26436.35
506.93	26843.60
507.11	27077.66
507.28	27070.64
507.46	26967.65
507.63	26934.88
507.81	27119.79
507.98	27346.82
508.16	27161.92
508.33	27545.76
508.50	27421.72
508.68	27482.57
508.85	27623.00
509.03	27527.04
509.20	27569.17
509.38	28051.32
509.55	27995.15
509.73	28287.71
509.90	28203.46
510.08	28182.39
510.25	28318.14
510.42	28283.03
510.60	28332.18
510.77	28264.31
510.95	28538.15
511.12	28357.93
511.30	28460.91
511.47	28655.18
511.64	28699.65
511.82	28833.06
511.99	29032.00
512.17	29401.81
512.34	29439.26
512.51	29729.48
512.69	29446.28
512.86	29242.65
513.04	29600.76
513.21	29867.58
513.38	29813.74
513.56	30188.23
513.73	29692.04
513.90	29996.31
514.08	30003.33
514.25	29926.09
514.43	30256.11
514.60	30333.34
514.77	30183.55
514.95	30202.27
515.12	30527.61
515.29	30265.47
515.47	30583.78
515.64	30527.61
515.81	30597.82
515.99	30665.70
516.16	30939.54
516.33	30972.31
516.51	31185.30
516.68	30803.79
516.85	30778.04
517.03	31365.52
517.20	31367.86
517.37	31225.09
517.54	31433.39
517.72	31353.82
517.89	31421.69
518.06	31662.77
518.24	32041.93
518.41	31262.54
518.58	31377.22
518.75	31381.90
518.93	31915.54
519.10	32130.87
519.27	32149.60
519.45	32217.47
519.62	32084.06
519.79	32306.41
519.96	32460.89
520.14	31873.42
520.31	32252.58
520.48	32231.52
520.65	32926.66
520.83	32725.37
521.00	33043.68
521.17	32573.24
521.34	33102.20
521.52	33010.92
521.69	32919.63
521.86	33268.37
522.03	33418.17
522.20	33062.41
522.38	33209.86
522.55	33954.15
522.72	33378.38
522.89	33813.72
523.07	33673.29
523.24	33488.38
523.41	34003.30
523.58	33766.91
523.75	33706.05
523.92	33841.81
524.10	33979.90
524.27	33722.44
524.44	34312.25
524.61	33958.83
524.78	34660.99
524.96	34054.79
525.13	34057.14
525.30	34747.59
525.47	34457.37
525.64	34190.55
525.81	34581.42
525.98	34707.80
526.16	34726.53
526.33	34452.69
526.50	35323.36
526.67	34969.94
526.84	34895.05
527.01	34583.76
527.18	34745.25
527.36	35409.96
527.53	35344.43
527.70	35157.19
527.87	35564.44
528.04	34829.51
528.21	35232.08
528.38	35615.93
528.55	35309.32
528.72	35744.66
528.89	35484.86
529.07	35344.43
529.24	35519.97
529.41	36077.02
529.58	36055.95
529.75	35969.35
529.92	35777.43
530.09	35896.80
530.26	36364.90
530.43	36182.34
530.60	35566.78
530.77	35924.88
530.94	36142.55
531.11	36016.16
531.28	36210.43
531.46	36346.18
531.63	36418.74
531.80	36198.73
531.97	36617.68
532.14	36823.65
532.31	36343.84
532.48	36687.90
532.65	36985.15
532.82	36622.36
532.99	36786.20
533.16	36788.54
533.33	37167.71
533.50	36737.05
533.67	36940.68
533.84	37090.47
534.01	37233.24
534.18	36847.05
534.35	37413.46
534.52	37329.20
534.69	37338.57
534.86	37624.11
535.03	37694.33
535.20	37942.42
535.37	37811.35
535.54	37858.17
535.71	37617.09
535.88	38052.43
536.05	37694.33
536.22	38066.47
536.38	37663.90
536.55	38150.73
536.72	37778.59
536.89	38073.49
537.06	37933.06
537.23	38258.40
537.40	38206.90
537.57	38103.92
537.74	38047.75
537.91	38389.47
538.08	38234.99
538.25	38073.49
538.42	38494.79
538.59	38855.23
538.75	38047.75
538.92	38944.17
539.09	38930.13
539.26	38677.35
539.43	38637.56
539.60	38689.06
539.77	38665.65
539.94	39489.52
540.11	38459.68
540.28	38803.74
540.44	39225.04
540.61	38925.45
540.78	39438.03
540.95	39215.68
541.12	38794.38
541.29	38983.96
541.46	39250.78
541.62	39269.51
541.79	39866.34
541.96	38906.73
542.13	38909.07
542.30	39447.39
542.47	39606.55
542.63	39496.54
542.80	39613.57
542.97	39922.52
543.14	40355.52
543.31	39821.87
543.48	39730.59
543.64	40151.89
543.81	40236.15
543.98	40184.66
544.15	40264.24
544.32	40020.82
544.48	40968.74
544.65	39955.29
544.82	40418.71
544.99	40477.22
545.16	40456.16
545.32	40196.36
545.49	41144.28
545.66	40708.94
545.83	40608.29
546.00	41041.29
546.16	40538.08
546.33	40397.65
546.50	40741.71
546.67	41097.47
546.83	40311.05
547.00	40362.54
547.17	40636.38
547.34	40713.62
547.50	41216.83
547.67	41209.81
547.84	40989.80
548.00	41483.66
548.17	41612.38
548.34	41553.87
548.51	41486.00
548.67	41478.97
548.84	41507.06
549.01	41230.88
549.18	41776.22
549.34	41464.93
549.51	41408.76
549.68	41844.10
549.84	41633.45
550.01	41626.43
550.18	41638.13
550.34	41713.03
550.51	41832.39
550.68	42134.32
550.84	41364.29
551.01	41823.03
551.18	41689.62
551.34	41839.42
551.51	41528.13
551.68	41923.68
551.84	42143.69
552.01	42003.25
552.18	42026.66
552.34	41977.51
552.51	42251.35
552.68	41605.36
552.84	42192.84
553.01	42066.45
553.18	42284.12
553.34	42366.04
553.51	42216.24
553.67	42527.53
553.84	42384.76
554.01	42433.91
554.17	42373.06
554.34	42932.45
554.51	42511.15
554.67	42927.77
554.84	42733.50
555.00	42831.80
555.17	43054.15
555.33	43023.73
555.50	43122.03
555.67	42529.87
555.83	42651.58
556.00	42983.94
556.16	43636.95
556.33	42873.93
556.50	42834.14
556.66	42944.15
556.83	42707.76
556.99	43484.81
557.16	43133.73
557.32	43501.20
557.49	43578.43
557.65	42967.55
557.82	43138.41
557.98	43302.25
558.15	43005.00
558.32	42941.81
558.48	43583.12
558.65	43377.15
558.81	43419.28
558.98	43215.65
559.14	42831.80
559.31	43232.04
559.47	43037.77
559.64	43058.84
559.80	43620.56
559.97	43468.43
560.13	43103.31
560.30	43344.38
560.46	43868.66
560.63	43468.43
560.79	43711.84
560.96	43761.00
561.12	43674.40
561.29	43611.20
561.45	43981.01
561.61	43920.15
561.78	43548.01
561.94	43372.47
562.11	43739.93
562.27	43615.88
562.44	43997.39
562.60	44240.81
562.77	43765.68
562.93	43892.07
563.10	43894.41
563.26	43761.00
563.42	44163.57
563.59	43765.68
563.75	43749.29
563.92	44065.27
564.08	43784.40
564.24	44296.98
564.41	44353.15
564.57	44285.28
564.74	44268.89
564.90	44355.49
565.07	43934.20
565.23	44107.40
565.39	43775.04
565.56	44655.08
565.72	44322.72
565.88	43810.15
566.05	43861.64
566.21	44369.54
566.38	43981.01
566.54	44594.23
566.70	44509.97
566.87	44013.77
567.03	44128.46
567.19	44247.83
567.36	44481.88
567.52	44360.17
567.68	45092.76
567.85	44561.46
568.01	44718.28
568.17	44292.30
568.34	44552.10
568.50	44556.78
568.66	44154.21
568.83	44474.86
568.99	44495.92
569.15	44594.23
569.32	44442.09
569.48	44432.73
569.64	44781.47
569.81	44357.83
569.97	44507.63
570.13	45064.67
570.30	44278.25
570.46	44821.26
570.62	45083.40
570.78	44889.13
570.95	44849.35
571.11	44949.99
571.27	44687.85
571.43	44760.40
571.60	44781.47
571.76	44549.76
571.92	44844.66
572.09	44708.91
572.25	45130.21
572.41	44865.73
572.57	44947.65
572.74	44978.07
572.90	45102.12
573.06	44952.33
573.22	45006.16
573.38	44762.75
573.55	45020.20
573.71	45130.21
573.87	44844.66
574.03	44741.68
574.20	45188.72
574.36	45254.26
574.52	45207.45
574.68	45188.72
574.84	44783.81
575.01	45158.30
575.17	45132.55
575.33	44957.01
575.49	45191.06
575.65	45216.81
575.82	45408.73
575.98	44968.71
576.14	45200.43
576.30	45368.94
576.46	45528.10
576.62	44914.88
576.79	45216.81
576.95	44959.35
577.11	44903.18
577.27	45067.02
577.43	44725.30
577.59	44725.30
577.75	44893.82
577.92	44589.55
578.08	45268.30
578.24	45111.49
578.40	45179.36
578.56	45387.67
578.72	45137.23
578.88	45502.35
579.04	45338.52
579.21	45247.24
579.37	45195.74
579.53	45373.63
579.69	44924.24
579.85	45029.57
580.01	44945.31
580.17	44879.77
580.33	45514.06
580.49	45153.62
580.65	45294.05
580.82	45038.93
580.98	45155.96
581.14	45338.52
581.30	45228.51
581.46	45200.43
581.62	45387.67
581.78	45174.68
581.94	45411.07
582.10	45448.52
582.26	45258.94
582.42	45347.88
582.58	45336.18
582.74	45392.35
582.90	44898.50
583.06	45418.10
583.22	45038.93
583.38	45223.83
583.54	45640.45
583.70	45425.12
583.86	45598.32
584.02	45001.48
584.18	45471.93
584.34	45579.59
584.50	45837.05
584.66	45642.79
584.82	45603.00
584.98	45504.70
585.14	45345.54
585.30	45488.31
585.46	45464.91
585.62	45731.73
585.78	45275.32
585.94	45104.46
586.10	45308.09
586.26	45123.19
586.42	45511.72
586.58	45511.72
586.74	45464.91
586.90	45305.75
587.06	45331.50
587.22	45483.63
587.38	45216.81
587.54	45579.59
587.70	45830.03
587.86	45670.87
588.02	45177.02
588.18	45549.17
588.34	45514.06
588.49	45492.99
588.65	45661.51
588.81	45727.05
588.97	45539.80
589.13	45172.34
589.29	45485.97
589.45	45949.40
589.61	45713.00
589.77	45855.78
589.93	45394.69
590.08	45734.07
