SpectraSuite Data File
++++++++++++++++++++++++++++++++++++
Date: Fri Oct 25 10:48:07 EDT 2013
User: price-jones
Dark Spectrum Present: No
Reference Spectrum Present: No
Number of Sampled Component Spectra: 1
Spectrometers: USB2+H05261
Integration Time (usec): 100000 (USB2+H05261)
Spectra Averaged: 1 (USB2+H05261)
Boxcar Smoothing: 0 (USB2+H05261)
Correct for Electrical Dark: No (USB2+H05261)
Strobe/Lamp Enabled: No (USB2+H05261)
Correct for Detector Non-linearity: No (USB2+H05261)
Correct for Stray Light: No (USB2+H05261)
Number of Pixels in Processed Spectrum: 2048
>>>>>Begin Processed Spectral Data<<<<<
365.73	163.84
365.92	163.84
366.12	163.84
366.32	44.47
366.52	37.45
366.72	65.54
366.91	79.58
367.11	53.83
367.31	23.41
367.51	56.17
367.70	0.00
367.90	63.19
368.10	124.05
368.30	86.60
368.49	49.15
368.69	53.83
368.89	100.64
369.09	56.17
369.28	131.07
369.48	95.96
369.68	46.81
369.87	131.07
370.07	156.82
370.27	86.60
370.47	131.07
370.66	395.55
370.86	409.59
371.06	454.06
371.25	421.30
371.45	393.21
371.65	376.83
371.84	493.85
372.04	390.87
372.24	468.11
372.44	528.96
372.63	491.51
372.83	470.45
373.03	482.15
373.22	437.68
373.42	433.00
373.62	503.22
373.81	491.51
374.01	571.09
374.21	505.56
374.40	589.82
374.60	564.07
374.79	601.52
374.99	559.39
375.19	500.87
375.38	554.71
375.58	606.20
375.78	580.45
375.97	538.32
376.17	636.63
376.37	550.03
376.56	482.15
376.76	610.88
376.95	603.86
377.15	573.43
377.35	643.65
377.54	643.65
377.74	571.09
377.93	573.43
378.13	575.77
378.33	631.94
378.52	697.48
378.72	690.46
378.91	587.47
379.11	622.58
379.31	580.45
379.50	596.84
379.70	627.26
379.89	751.31
380.09	660.03
380.28	620.24
380.48	608.54
380.68	620.24
380.87	552.37
381.07	648.33
381.26	667.05
381.46	648.33
381.65	669.39
381.85	702.16
382.04	641.31
382.24	702.16
382.43	643.65
382.63	660.03
382.83	711.52
383.02	751.31
383.22	739.61
383.41	662.37
383.61	704.50
383.80	741.95
384.00	788.76
384.19	812.17
384.39	660.03
384.58	690.46
384.78	727.91
384.97	739.61
385.17	739.61
385.36	713.86
385.56	674.07
385.75	681.10
385.95	851.96
386.14	760.67
386.34	767.70
386.53	713.86
386.72	793.44
386.92	734.93
387.11	847.27
387.31	798.12
387.50	737.27
387.70	814.51
387.89	816.85
388.09	873.02
388.28	858.98
388.48	877.70
388.67	725.57
388.86	826.21
389.06	819.19
389.25	945.58
389.45	908.13
389.64	856.64
389.84	912.81
390.03	938.55
390.22	961.96
390.42	877.70
390.61	922.17
390.81	889.40
391.00	889.40
391.19	1039.20
391.39	922.17
391.58	877.70
391.78	898.77
391.97	1008.77
392.16	992.39
392.36	1043.88
392.55	947.92
392.75	943.24
392.94	964.30
393.13	889.40
393.33	990.05
393.52	964.30
393.71	940.90
393.91	1004.09
394.10	976.00
394.29	1022.81
394.49	1083.67
394.68	1144.52
394.88	1123.46
395.07	1076.65
395.26	1057.92
395.46	1081.33
395.65	1163.25
395.84	1172.61
396.04	1153.88
396.23	1128.14
396.42	1100.05
396.62	1125.80
396.81	1064.94
397.00	1090.69
397.19	1153.88
397.39	1249.85
397.58	1261.55
397.77	1203.04
397.97	1275.59
398.16	1299.00
398.35	1228.78
398.55	1284.95
398.74	1181.97
398.93	1266.23
399.12	1240.48
399.32	1362.19
399.51	1322.40
399.70	1350.49
399.90	1313.04
400.09	1383.26
400.28	1439.43
400.47	1437.09
400.67	1418.36
400.86	1409.00
401.05	1425.39
401.24	1355.17
401.44	1441.77
401.63	1418.36
401.82	1486.24
402.01	1483.90
402.21	1390.28
402.40	1530.71
402.59	1446.45
402.78	1474.54
402.97	1495.60
403.17	1507.30
403.36	1540.07
403.55	1486.24
403.74	1600.93
403.93	1523.69
404.13	1643.06
404.32	1579.86
404.51	1687.53
404.70	1626.67
404.89	1689.87
405.09	1696.89
405.28	1643.06
405.47	1689.87
405.66	1675.82
405.85	1769.44
406.05	1678.16
406.24	1605.61
406.43	1783.49
406.62	1778.81
406.81	1802.21
407.00	1827.96
407.20	1825.62
407.39	1827.96
407.58	1844.34
407.77	1853.70
407.96	1804.55
408.15	1947.33
408.34	1914.56
408.54	1912.22
408.73	1975.41
408.92	1947.33
409.11	1989.46
409.30	1912.22
409.49	2019.88
409.68	1998.82
409.87	1996.48
410.07	2146.27
410.26	2057.33
410.45	2052.65
410.64	2092.44
410.83	2193.08
411.02	2040.95
411.21	2232.87
411.40	2207.13
411.59	2183.72
411.78	2193.08
411.98	2155.63
412.17	2345.22
412.36	2326.49
412.55	2370.96
412.74	2401.39
412.93	2352.24
413.12	2396.71
413.31	2593.31
413.50	2380.32
413.69	2445.86
413.88	2466.92
414.07	2450.54
414.26	2469.27
414.45	2558.21
414.64	2583.95
414.83	2628.42
415.02	2623.74
415.22	2621.40
415.41	2759.49
415.60	2743.11
415.79	2700.98
415.98	2813.32
416.17	2796.94
416.36	2916.31
416.55	2864.82
416.74	2801.62
416.93	2818.00
417.12	2972.48
417.31	2920.99
417.50	2874.18
417.69	3007.59
417.88	3056.74
418.07	2864.82
418.26	3101.21
418.45	3056.74
418.64	3222.92
418.83	3068.44
419.02	3138.66
419.21	3136.32
419.39	3194.83
419.58	3049.72
419.77	3077.80
419.96	3194.83
420.15	3272.07
420.34	3229.94
420.53	3164.40
420.72	3236.96
420.91	3375.05
421.10	3300.16
421.29	3370.37
421.48	3330.58
421.67	3417.18
421.86	3346.97
422.05	3442.93
422.24	3307.18
422.43	3356.33
422.61	3363.35
422.80	3485.06
422.99	3365.69
423.18	3445.27
423.37	3559.95
423.56	3337.60
423.75	3435.91
423.94	3403.14
424.13	3164.40
424.32	3208.87
424.50	3475.70
424.69	3499.10
424.88	3585.70
425.07	3496.76
425.26	3396.12
425.45	3510.80
425.64	3517.83
425.83	3492.08
426.01	3737.84
426.20	3456.97
426.39	3562.30
426.58	3520.17
426.77	3555.27
426.96	3515.48
427.15	3625.49
427.33	3566.98
427.52	3639.53
427.71	3604.42
427.90	3595.06
428.09	3541.23
428.28	3784.65
428.46	3719.11
428.65	3707.41
428.84	3716.77
429.03	3794.01
429.22	3754.22
429.40	3728.47
429.59	3730.81
429.78	3648.90
429.97	3527.19
430.16	3749.54
430.34	3749.54
430.53	3840.82
430.72	3852.52
430.91	3859.54
431.10	3880.61
431.28	3913.38
431.47	3936.78
431.66	4025.72
431.85	3885.29
432.03	4121.68
432.22	4212.96
432.41	4119.34
432.60	4168.49
432.79	4217.65
432.97	4081.89
433.16	4147.43
433.35	4147.43
433.54	4088.92
433.72	4292.54
433.91	4112.32
434.10	4203.60
434.28	4203.60
434.47	4194.24
434.66	4271.48
434.85	4297.22
435.03	4208.28
435.22	4332.33
435.41	4482.13
435.59	4418.93
435.78	4404.89
435.97	4493.83
436.16	4428.29
436.34	4393.19
436.53	4514.89
436.72	4498.51
436.90	4458.72
437.09	4568.73
437.28	4486.81
437.46	4573.41
437.65	4440.00
437.84	4573.41
438.02	4606.17
438.21	4547.66
438.40	4493.83
438.58	4652.98
438.77	4873.00
438.96	4851.93
439.14	4954.91
439.33	4847.25
439.52	4990.02
439.70	4987.68
439.89	4954.91
440.08	4992.36
440.26	5263.86
440.45	5109.39
440.63	5219.39
440.82	5050.88
441.01	5207.69
441.19	5191.31
441.38	5416.00
441.57	5364.51
441.75	5380.89
441.94	5624.31
442.12	5533.03
442.31	5394.93
442.50	5638.35
442.68	5561.11
442.87	5563.45
443.05	5652.39
443.24	5537.71
443.43	5542.39
443.61	5682.82
443.80	5823.25
443.98	5636.01
444.17	5411.32
444.35	5675.80
444.54	5699.20
444.73	5769.42
444.91	5638.35
445.10	5621.97
445.28	5846.66
445.47	5715.59
445.65	5734.31
445.84	5891.13
446.02	5743.67
446.21	5671.12
446.39	5856.02
446.58	5900.49
446.77	5947.30
446.95	5643.03
447.14	5879.43
447.32	5982.41
447.51	5767.08
447.69	5692.18
447.88	5841.98
448.06	5736.65
448.25	5970.71
448.43	5853.68
448.62	6064.33
448.80	5825.59
448.99	6019.86
449.17	5975.39
449.36	5947.30
449.54	5949.64
449.73	6167.31
449.91	6188.38
450.10	6155.61
450.28	6328.81
450.46	6179.01
450.65	6289.02
450.83	6235.19
451.02	6188.38
451.20	6160.29
451.39	6232.85
451.57	6211.78
451.76	6300.72
451.94	6265.61
452.13	6331.15
452.31	6298.38
452.49	6246.89
452.68	6396.68
452.86	6438.81
453.05	6293.70
453.23	6642.44
453.42	6464.56
453.60	6333.49
453.78	6607.33
453.97	6499.67
454.15	6457.54
454.34	6417.75
454.52	6562.86
454.70	6459.88
454.89	6586.27
455.07	6637.76
455.26	6712.66
455.44	6745.42
455.62	6752.45
455.81	6963.09
455.99	6747.76
456.17	6946.71
456.36	6944.37
456.54	7075.44
456.73	7096.50
456.91	7173.74
457.09	7166.72
457.28	7262.68
457.46	7126.93
457.64	7255.66
457.83	7131.61
458.01	7084.80
458.19	7337.58
458.38	7197.15
458.56	7258.00
458.74	7131.61
458.93	7260.34
459.11	7243.96
459.29	7194.81
459.48	7346.94
459.66	7447.58
459.84	7267.36
460.03	7606.74
460.21	7456.95
460.39	7445.24
460.57	7426.52
460.76	7728.45
460.94	7653.55
461.12	7588.02
461.31	7714.41
461.49	7438.22
461.67	7569.29
461.85	7840.79
462.04	7751.85
462.22	8231.66
462.40	7831.43
462.59	7634.83
462.77	7908.67
462.95	7847.82
463.13	7939.10
463.32	7672.28
463.50	8004.63
463.68	8126.34
463.86	7819.73
464.05	7873.56
464.23	7754.19
464.41	7941.44
464.59	7768.24
464.78	8114.64
464.96	8175.49
465.14	8231.66
465.32	8126.34
465.50	8102.93
465.69	8311.24
465.87	8182.51
466.05	8325.29
466.23	8212.94
466.41	8236.35
466.60	8294.86
466.78	8109.96
466.96	8306.56
467.14	8226.98
467.32	8236.35
467.51	8353.37
467.69	8194.22
467.87	8173.15
468.05	8418.91
468.23	8411.89
468.41	8280.82
468.60	8446.99
468.78	8372.10
468.96	8470.40
469.14	8652.96
469.32	8606.15
469.50	8535.93
469.69	8610.83
469.87	8737.22
470.05	8784.03
470.23	8821.48
470.41	8821.48
470.59	8954.89
470.77	8681.05
470.95	8851.91
471.14	8990.00
471.32	9013.40
471.50	9165.54
471.68	9158.52
471.86	9102.34
472.04	9018.08
472.22	9423.00
472.40	9071.92
472.58	9104.68
472.77	9151.49
472.95	9556.41
473.13	9713.22
473.31	9376.19
473.49	9387.89
473.67	9444.06
473.85	9598.54
474.03	9731.95
474.21	9799.82
474.39	9795.14
474.57	9802.16
474.75	9848.97
474.93	9907.49
475.12	10005.79
475.30	9851.31
475.48	10239.84
475.66	10092.39
475.84	9980.04
476.02	10331.12
476.20	10118.14
476.38	10354.53
476.56	10609.65
476.74	10714.97
476.92	10738.38
477.10	10551.14
477.28	10630.71
477.46	10738.38
477.64	10726.68
477.82	10757.10
478.00	11375.00
478.18	11098.82
478.36	11250.96
478.54	11356.28
478.72	11644.17
478.90	11506.07
479.08	11609.06
479.26	11779.92
479.44	11627.78
479.62	11805.66
479.80	11817.36
479.98	11885.24
480.16	12046.74
480.34	12032.69
480.52	12250.36
480.70	12203.55
480.88	12119.29
481.06	12416.54
481.24	12542.93
481.41	12573.36
481.59	12641.23
481.77	12856.56
481.95	12702.09
482.13	13013.38
482.31	13111.68
482.49	13352.76
482.67	13177.22
482.85	13303.60
483.03	13516.59
483.21	13635.96
483.39	13710.86
483.57	13795.12
483.74	13750.65
483.92	13958.96
484.10	14045.55
484.28	14232.80
484.46	14415.36
484.64	14562.81
484.82	14286.63
485.00	14731.33
485.18	14731.33
485.35	14949.00
485.53	14689.20
485.71	14780.48
485.89	15028.58
486.07	14956.02
486.25	15267.31
486.43	15314.13
486.61	15552.86
486.78	15714.36
486.96	15623.08
487.14	15892.24
487.32	16173.10
487.50	16348.64
487.68	16393.11
487.85	16657.59
488.03	16615.46
488.21	16638.87
488.39	16510.14
488.57	16989.95
488.75	16809.73
488.92	17195.92
489.10	17444.01
489.28	17448.69
489.46	17804.46
489.64	17708.49
489.81	17968.29
489.99	17790.41
490.17	18146.17
490.35	18490.23
490.53	18342.78
490.70	18518.32
490.88	18544.06
491.06	19051.96
491.24	18820.25
491.41	18845.99
491.59	18794.50
491.77	19051.96
491.95	18958.34
492.13	19222.82
492.30	19534.11
492.48	19541.13
492.66	19843.06
492.84	19239.20
493.01	19831.36
493.19	19758.80
493.37	20095.84
493.54	20521.82
493.72	20428.20
493.90	20411.81
494.08	20727.78
494.25	20816.72
494.43	21064.82
494.61	21420.58
494.79	21128.02
494.96	20875.24
495.14	21451.01
495.32	21324.62
495.49	21177.17
495.67	21507.18
495.85	21451.01
496.02	21703.79
496.20	21656.98
496.38	22043.17
496.55	22097.00
496.73	22668.09
496.91	22314.67
497.09	22595.53
497.26	22551.06
497.44	22485.53
497.62	22611.92
497.79	23138.54
497.97	22977.04
498.14	23295.35
498.32	23166.62
498.50	23426.42
498.67	23510.68
498.85	23496.64
499.03	24049.00
499.20	23723.67
499.38	24002.19
499.56	23714.31
499.73	24266.67
499.91	24123.90
500.08	24582.65
500.26	23782.18
500.44	24416.47
500.61	24379.02
500.79	24046.66
500.97	24879.89
501.14	24844.79
501.32	24898.62
501.49	24753.51
501.67	24922.02
501.84	25252.04
502.02	24912.66
502.20	25228.63
502.37	25598.44
502.55	25589.08
502.72	25261.40
502.90	25846.54
503.07	25376.09
503.25	25532.90
503.43	25956.54
503.60	25720.15
503.78	25898.03
503.95	25764.62
504.13	26127.40
504.30	26319.32
504.48	26029.10
504.65	26670.40
504.83	26466.78
505.01	26445.71
505.18	26457.42
505.36	26862.33
505.53	26789.77
505.71	27070.64
505.88	26965.31
506.06	26778.07
506.23	26841.26
506.41	26677.43
506.58	27204.05
506.76	27594.92
506.93	27524.70
507.11	27218.09
507.28	27709.60
507.46	27412.35
507.63	27250.86
507.81	27946.00
507.98	27632.36
508.16	27868.76
508.33	27777.48
508.50	28210.48
508.68	27655.77
508.85	28493.68
509.03	28107.49
509.20	28306.44
509.38	28685.61
509.55	28865.83
509.73	28741.78
509.90	28444.53
510.08	28524.11
510.25	28762.84
510.42	29244.99
510.60	29270.74
510.77	29418.19
510.95	29649.91
511.12	29340.96
511.30	29495.43
511.47	29635.86
511.64	29696.72
511.82	29858.21
511.99	29369.04
512.17	29677.99
512.34	29797.36
512.51	30300.58
512.69	30148.44
512.86	30120.35
513.04	30541.65
513.21	30572.08
513.38	30181.21
513.56	30295.89
513.73	30015.03
513.90	30733.57
514.08	30073.54
514.25	30333.34
514.43	30492.50
514.60	30728.89
514.77	30518.25
514.95	31143.17
515.12	30965.29
515.29	30951.24
515.47	31697.88
515.64	31838.31
515.81	31220.41
515.99	31253.17
516.16	31398.29
516.33	31459.14
516.51	31407.65
516.68	31267.22
516.85	31285.94
517.03	31878.10
517.20	31290.62
517.37	31775.11
517.54	31782.13
517.72	31978.74
517.89	31442.76
518.06	32011.51
518.24	32037.25
518.41	31690.85
518.58	32084.06
518.75	31997.46
518.93	32470.25
519.10	32393.01
519.27	32708.99
519.45	32275.99
519.62	32641.11
519.79	32444.51
519.96	32978.15
520.14	32938.36
520.31	32807.29
520.48	33275.40
520.65	32943.04
520.83	33275.40
521.00	33251.99
521.17	33303.48
521.34	33205.18
521.52	33509.45
521.69	33713.08
521.86	33640.52
522.03	33502.43
522.20	33525.83
522.38	33706.05
522.55	34286.51
522.72	33853.51
522.89	33895.64
523.07	34125.01
523.24	34033.73
523.41	34176.50
523.58	34017.35
523.75	34756.96
523.92	34394.17
524.10	34504.18
524.27	34792.06
524.44	34513.54
524.61	34597.80
524.78	34724.19
524.96	34611.84
525.13	35557.42
525.30	35068.25
525.47	35040.16
525.64	34806.11
525.81	35058.88
525.98	35424.01
526.16	34775.68
526.33	35461.46
526.50	35243.79
526.67	34824.83
526.84	34946.54
527.01	35597.21
527.18	35597.21
527.36	35536.35
527.53	35857.01
527.70	36095.74
527.87	35597.21
528.04	35601.89
528.21	35976.37
528.38	35725.94
528.55	36151.91
528.72	36149.57
528.89	36194.04
529.07	36079.36
529.24	35896.80
529.41	35669.76
529.58	36238.51
529.75	36320.43
529.92	36208.09
530.09	36037.23
530.26	36615.34
530.43	36587.25
530.60	36568.53
530.77	36378.95
530.94	36847.05
531.11	36940.68
531.28	36704.28
531.46	36816.63
531.63	37120.90
531.80	36882.16
531.97	36748.75
532.14	36891.52
532.31	36376.61
532.48	37193.45
532.65	37198.13
532.82	37453.25
532.99	37205.16
533.16	37024.93
533.33	37479.00
533.50	37666.24
533.67	37471.98
533.84	37511.77
534.01	37549.21
534.18	37549.21
534.35	37816.04
534.52	37797.31
534.69	37607.73
534.86	37720.07
535.03	37626.45
535.20	37823.06
535.37	38401.17
535.54	38202.22
535.71	38036.05
535.88	38054.77
536.05	38284.14
536.22	37975.19
536.38	37792.63
536.55	38471.39
536.72	38550.96
536.89	38124.99
537.06	38302.87
537.23	38199.88
537.40	38356.70
537.57	38459.68
537.74	38649.27
537.91	38700.76
538.08	38569.69
538.25	38366.06
538.42	38394.15
538.59	38773.31
538.75	38679.69
538.92	38520.54
539.09	38789.70
539.26	38705.44
539.43	38775.66
539.60	38707.78
539.77	38733.53
539.94	38923.11
540.11	38728.84
540.28	38993.32
540.44	38646.93
540.61	39292.91
540.78	38803.74
540.95	39021.41
541.12	38932.47
541.29	39693.15
541.46	39232.06
541.62	39426.32
541.79	39321.00
541.96	39012.05
542.13	39660.38
542.30	39395.90
542.47	39718.89
542.63	39679.10
542.80	39791.45
542.97	40282.96
543.14	40573.19
543.31	39840.60
543.48	40222.11
543.64	40884.48
543.81	40257.21
543.98	40119.12
544.15	40009.12
544.32	40435.10
544.48	40596.59
544.65	40638.72
544.82	40378.92
544.99	40584.89
545.16	40332.11
545.32	40341.47
545.49	40622.34
545.66	40790.86
545.83	40926.61
546.00	40652.76
546.16	40711.28
546.33	40725.32
546.50	40783.83
546.67	40940.65
546.83	40399.99
547.00	40526.38
547.17	40711.28
547.34	40882.14
547.50	41556.21
547.67	41221.52
547.84	40919.59
548.00	41099.81
548.17	40444.46
548.34	40868.09
548.51	41223.86
548.67	41448.55
548.84	41523.44
549.01	41443.87
549.18	41305.77
549.34	41071.72
549.51	41422.80
549.68	41553.87
549.84	41607.70
550.01	41830.05
550.18	41441.53
550.34	41741.11
550.51	41743.45
550.68	41471.95
550.84	41486.00
551.01	41500.04
551.18	41659.20
551.34	41605.36
551.51	42024.32
551.68	41907.29
551.84	41890.91
552.01	41502.38
552.18	41984.53
552.34	41928.36
552.51	41647.49
552.68	41628.77
552.84	42162.41
553.01	42246.67
553.18	41921.34
553.34	42096.88
553.51	42265.39
553.67	42148.37
553.84	42197.52
554.01	42326.25
554.17	42508.81
554.34	42417.53
554.51	42113.26
554.67	42354.33
554.84	42389.44
555.00	41888.57
555.17	42115.60
555.33	42653.92
555.50	43028.41
555.67	42291.14
555.83	42761.59
556.00	42784.99
556.16	43105.65
556.33	42572.00
556.50	42672.65
556.66	43065.86
556.83	42099.22
556.99	42981.60
557.16	42890.32
557.32	42930.11
557.49	42600.09
557.65	42644.56
557.82	42965.21
557.98	42567.32
558.15	42813.08
558.32	42618.81
558.48	43328.00
558.65	43044.79
558.81	43051.81
558.98	42740.52
559.14	43178.20
559.31	42817.76
559.47	43290.55
559.64	43585.46
559.80	43278.85
559.97	43672.06
560.13	42677.33
560.30	42918.40
560.46	43103.31
560.63	42707.76
560.79	43070.54
560.96	43543.33
561.12	42653.92
561.29	43377.15
561.45	43131.39
561.61	43487.15
561.78	42983.94
561.94	43051.81
562.11	43311.61
562.27	42862.23
562.44	43358.42
562.60	43075.22
562.77	43477.79
562.93	43103.31
563.10	43868.66
563.26	43517.58
563.42	43459.07
563.59	43433.32
563.75	43379.49
563.92	44030.16
564.08	43562.05
564.24	43648.65
564.41	43536.30
564.57	43510.56
564.74	43765.68
564.90	43604.18
565.07	43576.09
565.23	43821.85
565.39	43880.36
565.56	43643.97
565.72	43639.29
565.88	43758.66
566.05	43854.62
566.21	43688.44
566.38	43618.22
566.54	44062.93
566.70	44018.46
566.87	44034.84
567.03	43800.79
567.19	44818.92
567.36	43761.00
567.52	43761.00
567.68	44144.84
567.85	43562.05
568.01	43449.70
568.17	43489.49
568.34	44091.01
568.50	43875.68
568.66	44151.87
568.83	43847.60
568.99	43440.34
569.15	43885.04
569.32	43915.47
569.48	43744.61
569.64	44126.12
569.81	44549.76
569.97	43915.47
570.13	43915.47
570.30	43838.23
570.46	43784.40
570.62	43817.17
570.78	43742.27
570.95	43782.06
571.11	44020.80
571.27	43950.58
571.43	43973.98
571.60	44210.38
571.76	44395.28
571.92	43786.74
572.09	43889.73
572.25	43725.89
572.41	44002.07
572.57	44233.78
572.74	44643.38
572.90	44428.05
573.06	44198.68
573.22	44201.02
573.38	44051.22
573.55	43957.60
573.71	44247.83
573.87	44184.63
574.03	43943.56
574.20	44067.61
574.36	44154.21
574.52	44491.24
574.68	44025.48
574.84	44339.11
575.01	44149.53
575.17	44252.51
575.33	44023.14
575.49	44046.54
575.65	44416.35
575.82	44252.51
575.98	44135.48
576.14	44381.24
576.30	44357.83
576.46	43992.71
576.62	44018.46
576.79	44371.88
576.95	43620.56
577.11	43943.56
577.27	43934.20
577.43	44402.30
577.59	43943.56
577.75	44231.44
577.92	43999.73
578.08	43927.17
578.24	43622.90
578.40	44301.66
578.56	44112.08
578.72	44729.98
578.88	44512.31
579.04	44622.31
579.21	44105.06
579.37	43758.66
579.53	44334.43
579.69	43950.58
579.85	44388.26
580.01	44516.99
580.17	44395.28
580.33	44664.44
580.49	44406.98
580.65	44079.31
580.82	44273.57
580.98	44538.05
581.14	44453.79
581.30	44531.03
581.46	44666.78
581.62	44608.27
581.78	44486.56
581.94	45081.06
582.10	44467.84
582.26	44512.31
582.42	44697.21
582.58	44704.23
582.74	44247.83
582.90	44552.10
583.06	44582.52
583.22	44308.68
583.38	44451.45
583.54	44350.81
583.70	44706.57
583.86	44348.47
584.02	44076.97
584.18	44697.21
584.34	44210.38
584.50	44783.81
584.66	44474.86
584.82	44201.02
584.98	44493.58
585.14	44531.03
585.30	44580.18
585.46	44388.26
585.62	44268.89
585.78	43969.30
585.94	44481.88
586.10	44718.28
586.26	43793.76
586.42	44697.21
586.58	44769.77
586.74	44500.61
586.90	44266.55
587.06	44725.30
587.22	44549.76
587.38	44439.75
587.54	44554.44
587.70	44786.15
587.86	44765.09
588.02	44488.90
588.18	44830.62
588.34	44526.35
588.49	44748.70
588.65	43854.62
588.81	44250.17
588.97	44222.08
589.13	44362.51
589.29	44528.69
589.45	44631.68
589.61	44603.59
589.77	44741.68
589.93	45003.82
590.08	44638.70
590.24	45036.59
