SpectraSuite Data File
++++++++++++++++++++++++++++++++++++
Date: Fri Oct 25 10:43:58 EDT 2013
User: price-jones
Dark Spectrum Present: No
Reference Spectrum Present: No
Number of Sampled Component Spectra: 1
Spectrometers: USB2+H05261
Integration Time (usec): 100000 (USB2+H05261)
Spectra Averaged: 1 (USB2+H05261)
Boxcar Smoothing: 0 (USB2+H05261)
Correct for Electrical Dark: No (USB2+H05261)
Strobe/Lamp Enabled: No (USB2+H05261)
Correct for Detector Non-linearity: No (USB2+H05261)
Correct for Stray Light: No (USB2+H05261)
Number of Pixels in Processed Spectrum: 2048
>>>>>Begin Processed Spectral Data<<<<<
365.73	187.24
365.92	187.24
366.12	187.24
366.32	70.22
366.52	0.00
366.72	37.45
366.91	32.77
367.11	30.43
367.31	0.00
367.51	58.51
367.70	0.00
367.90	65.54
368.10	16.38
368.30	25.75
368.49	0.00
368.69	102.98
368.89	95.96
369.09	11.70
369.28	0.00
369.48	32.77
369.68	74.90
369.87	28.09
370.07	58.51
370.27	175.54
370.47	198.95
370.66	416.62
370.86	337.04
371.06	416.62
371.25	475.13
371.45	407.25
371.65	477.47
371.84	454.06
372.04	353.42
372.24	528.96
372.44	477.47
372.63	512.58
372.83	521.94
373.03	573.43
373.22	524.28
373.42	531.30
373.62	500.87
373.81	498.53
374.01	519.60
374.21	596.84
374.40	561.73
374.60	543.00
374.79	592.16
374.99	571.09
375.19	566.41
375.38	615.56
375.58	650.67
375.78	709.18
375.97	587.47
376.17	634.29
376.37	641.31
376.56	629.60
376.76	617.90
376.95	606.20
377.15	601.52
377.35	622.58
377.54	622.58
377.74	575.77
377.93	645.99
378.13	683.44
378.33	758.33
378.52	653.01
378.72	653.01
378.91	582.79
379.11	655.35
379.31	648.33
379.50	615.56
379.70	688.12
379.89	688.12
380.09	594.50
380.28	718.54
380.48	781.74
380.68	603.86
380.87	645.99
381.07	655.35
381.26	667.05
381.46	723.23
381.65	711.52
381.85	709.18
382.04	706.84
382.24	791.10
382.43	648.33
382.63	727.91
382.83	720.88
383.02	755.99
383.22	805.14
383.41	683.44
383.61	788.76
383.80	823.87
384.00	767.70
384.19	744.29
384.39	830.89
384.58	816.85
384.78	812.17
384.97	758.33
385.17	821.53
385.36	784.08
385.56	861.32
385.75	753.65
385.95	821.53
386.14	870.68
386.34	873.02
386.53	826.21
386.72	784.08
386.92	875.36
387.11	863.66
387.31	833.23
387.50	919.83
387.70	840.25
387.89	837.91
388.09	915.15
388.28	978.34
388.48	915.15
388.67	959.62
388.86	912.81
389.06	966.64
389.25	1032.18
389.45	966.64
389.64	961.96
389.84	983.02
390.03	1027.50
390.22	903.45
390.42	1013.45
390.61	1036.86
390.81	1018.13
391.00	1095.37
391.19	1062.60
391.39	1095.37
391.58	1139.84
391.78	1022.81
391.97	1020.47
392.16	1011.11
392.36	1036.86
392.55	1015.79
392.75	1055.58
392.94	1008.77
393.13	1020.47
393.33	976.00
393.52	1029.84
393.71	1088.35
393.91	1076.65
394.10	1097.71
394.29	1144.52
394.49	1149.20
394.68	1245.16
394.88	1128.14
395.07	1205.38
395.26	1217.08
395.46	1277.93
395.65	1266.23
395.84	1261.55
396.04	1186.65
396.23	1179.63
396.42	1055.58
396.62	1139.84
396.81	1062.60
397.00	1240.48
397.19	1320.06
397.39	1303.68
397.58	1404.32
397.77	1427.73
397.97	1394.96
398.16	1458.15
398.35	1495.60
398.55	1467.52
398.74	1460.49
398.93	1565.82
399.12	1497.94
399.32	1469.86
399.51	1533.05
399.70	1600.93
399.90	1486.24
400.09	1565.82
400.28	1621.99
400.47	1521.35
400.67	1596.25
400.86	1673.48
401.05	1696.89
401.24	1696.89
401.44	1760.08
401.63	1734.34
401.82	1720.29
402.01	1640.72
402.21	1834.98
402.40	1774.13
402.59	1823.28
402.78	1736.68
402.97	1837.32
403.17	1830.30
403.36	1799.87
403.55	1942.64
403.74	1984.77
403.93	1902.86
404.13	1830.30
404.32	1872.43
404.51	1994.14
404.70	2024.56
404.89	1956.69
405.09	2045.63
405.28	1987.11
405.47	1944.99
405.66	1867.75
405.85	2038.61
406.05	2026.90
406.24	2022.22
406.43	2033.93
406.62	2122.87
406.81	2172.02
407.00	2019.88
407.20	2097.12
407.39	2115.84
407.58	2141.59
407.77	2300.75
407.96	2218.83
408.15	2265.64
408.34	2275.00
408.54	2251.60
408.73	2385.01
408.92	2385.01
409.11	2249.25
409.30	2349.90
409.49	2232.87
409.68	2197.76
409.87	2270.32
410.07	2319.47
410.26	2363.94
410.45	2377.98
410.64	2370.96
410.83	2670.55
411.02	2450.54
411.21	2675.23
411.40	2630.76
411.59	2637.78
411.78	2750.13
411.98	2560.55
412.17	2605.02
412.36	2614.38
412.55	2693.96
412.74	2792.26
412.93	2796.94
413.12	2799.28
413.31	2963.12
413.50	2766.51
413.69	2834.39
413.88	2839.07
414.07	2953.76
414.26	2878.86
414.45	2942.05
414.64	2963.12
414.83	3021.63
415.02	3030.99
415.22	3162.06
415.41	2993.55
415.60	3243.98
415.79	3220.58
415.98	3220.58
416.17	3337.60
416.36	3328.24
416.55	3234.62
416.74	3452.29
416.93	3281.43
417.12	3368.03
417.31	3403.14
417.50	3365.69
417.69	3524.85
417.88	3466.33
418.07	3517.83
418.26	3403.14
418.45	3445.27
418.64	3627.83
418.83	3662.94
419.02	3578.68
419.21	3721.45
419.39	3623.15
419.58	3613.79
419.77	3616.13
419.96	3768.26
420.15	3728.47
420.34	3698.05
420.53	3772.94
420.72	3908.69
420.91	3864.22
421.10	3875.93
421.29	3859.54
421.48	3850.18
421.67	3878.27
421.86	3892.31
422.05	3889.97
422.24	3812.73
422.43	3962.53
422.61	4009.34
422.80	3868.91
422.99	3857.20
423.18	3913.38
423.37	4131.05
423.56	3983.59
423.75	3939.12
423.94	3920.40
424.13	3784.65
424.32	3854.86
424.50	3990.61
424.69	3978.91
424.88	4077.21
425.07	3941.46
425.26	3911.04
425.45	4025.72
425.64	3948.48
425.83	4081.89
426.01	3960.19
426.20	4161.47
426.39	4145.09
426.58	4081.89
426.77	3992.95
426.96	4049.13
427.15	4138.07
427.33	4266.80
427.52	4095.94
427.71	4070.19
427.90	4107.64
428.09	4170.83
428.28	4400.21
428.46	4161.47
428.65	4175.52
428.84	4273.82
429.03	4351.06
429.22	4088.92
429.40	4236.37
429.59	4273.82
429.78	3962.53
429.97	3934.44
430.16	4039.76
430.34	4032.74
430.53	4250.41
430.72	4294.88
430.91	4224.67
431.10	4498.51
431.28	4582.77
431.47	4727.88
431.66	4718.52
431.85	4620.22
432.03	4566.39
432.22	4779.37
432.41	4664.69
432.60	4739.58
432.79	4753.63
432.97	4795.76
433.16	4858.95
433.35	4798.10
433.54	4648.30
433.72	4777.03
433.91	4915.12
434.10	4847.25
434.28	4767.67
434.47	5046.20
434.66	4919.81
434.85	5043.85
435.03	4950.23
435.22	4926.83
435.41	5357.49
435.59	5224.08
435.78	5146.84
435.97	5221.74
436.16	5329.40
436.34	5329.40
436.53	5231.10
436.72	5401.96
436.90	5163.22
437.09	5252.16
437.28	5111.73
437.46	5151.52
437.65	5207.69
437.84	5376.21
438.02	5214.71
438.21	5254.50
438.40	5090.67
438.58	5434.72
438.77	5462.81
438.96	5589.20
439.14	5769.42
439.33	5778.78
439.52	5783.46
439.70	5713.25
439.89	5760.06
440.08	5720.27
440.26	5863.04
440.45	5720.27
440.63	5937.94
440.82	6036.24
441.01	6090.07
441.19	6179.01
441.38	6265.61
441.57	6249.23
441.75	6235.19
441.94	6431.79
442.12	6277.32
442.31	6565.20
442.50	6525.41
442.68	6167.31
442.87	6314.77
443.05	6354.55
443.24	6642.44
443.43	6593.29
443.61	6544.14
443.80	6616.69
443.98	6429.45
444.17	6291.36
444.35	6431.79
444.54	6661.16
444.73	6621.38
444.91	6757.13
445.10	6527.75
445.28	6579.25
445.47	6555.84
445.65	6717.34
445.84	6565.20
446.02	6562.86
446.21	6502.01
446.39	6623.72
446.58	6715.00
446.77	6920.96
446.95	6796.92
447.14	6792.23
447.32	6878.83
447.51	6562.86
447.69	6593.29
447.88	6853.09
448.06	6801.60
448.25	6686.91
448.43	6759.47
448.62	6752.45
448.80	6857.77
448.99	6820.32
449.17	6939.69
449.36	6923.30
449.54	7105.87
449.73	7290.77
449.91	7243.96
450.10	7300.13
450.28	7346.94
450.46	7372.69
450.65	7309.49
450.83	7304.81
451.02	7419.50
451.20	7396.09
451.39	7220.55
451.57	7396.09
451.76	7342.26
451.94	7225.23
452.13	7461.63
452.31	7363.33
452.49	7101.19
452.68	7199.49
452.86	7454.61
453.05	7456.95
453.23	7248.64
453.42	7318.86
453.60	7393.75
453.78	7510.78
453.97	7564.61
454.15	7576.31
454.34	7424.18
454.52	7529.50
454.70	7679.30
454.89	7749.51
455.07	7683.98
455.26	7815.05
455.44	7969.52
455.62	7885.26
455.81	7875.90
455.99	8142.72
456.17	8081.87
456.36	8016.33
456.54	8102.93
456.73	7960.16
456.91	8351.03
457.09	8381.46
457.28	8236.35
457.46	8196.56
457.64	8119.32
457.83	8252.73
458.01	8241.03
458.19	8290.18
458.38	8180.17
458.56	8224.64
458.74	8327.63
458.93	8290.18
459.11	8461.04
459.29	8334.65
459.48	8505.51
459.66	8234.00
459.84	8308.90
460.03	8587.43
460.21	8549.98
460.39	8704.45
460.57	8713.81
460.76	8685.73
460.94	8861.27
461.12	8716.16
461.31	8746.58
461.49	8606.15
461.67	8681.05
461.85	8856.59
462.04	8844.88
462.22	9287.25
462.40	9067.24
462.59	9053.19
462.77	8856.59
462.95	9186.60
463.13	9135.11
463.32	9032.13
463.50	9121.07
463.68	9221.71
463.86	9170.22
464.05	8992.34
464.23	8889.35
464.41	9324.69
464.59	9165.54
464.78	9305.97
464.96	9298.95
465.14	9282.56
465.32	9488.53
465.50	9247.46
465.69	9483.85
465.87	9462.79
466.05	9142.13
466.23	9163.20
466.41	9383.21
466.60	9533.00
466.78	9329.38
466.96	9364.48
467.14	9427.68
467.32	9600.88
467.51	9535.34
467.69	9387.89
467.87	9540.02
468.05	9504.92
468.23	9572.79
468.41	9650.03
468.60	9776.42
468.78	9703.86
468.96	9563.43
469.14	9743.65
469.32	9891.10
469.50	9886.42
469.69	9884.08
469.87	9970.68
470.05	10017.49
470.23	10050.26
470.41	9867.70
470.59	10104.09
470.77	9902.81
470.95	9975.36
471.14	10246.87
471.32	9879.40
471.50	10296.02
471.68	10501.98
471.86	10558.16
472.04	10597.95
472.22	10588.58
472.40	10260.91
472.58	10637.73
472.77	10490.28
472.95	10750.08
473.13	10707.95
473.31	10548.79
473.49	10555.82
473.67	10693.91
473.85	10888.17
474.03	10909.24
474.21	11133.93
474.39	11159.67
474.57	11267.34
474.75	11276.70
474.93	11618.42
475.12	11213.51
475.30	11438.20
475.48	11279.04
475.66	11520.12
475.84	11309.47
476.02	11527.14
476.20	11389.05
476.38	11693.32
476.56	11997.59
476.74	11995.25
476.92	12009.29
477.10	11953.12
477.28	12393.14
477.46	12325.26
477.64	12329.94
477.82	12599.10
478.00	12741.88
478.18	12716.13
478.36	12791.03
478.54	13186.58
478.72	12908.05
478.90	13327.01
479.08	13156.15
479.26	13231.05
479.44	13451.06
479.62	13373.82
479.80	13357.44
479.98	13881.72
480.16	13776.39
480.34	14017.47
480.52	14026.83
480.70	13792.78
480.88	13774.05
481.06	13994.06
481.24	14331.10
481.41	14394.29
481.59	14815.59
481.77	14663.46
481.95	14843.68
482.13	14635.37
482.31	14654.09
482.49	14995.81
482.67	14810.91
482.85	15236.89
483.03	15323.49
483.21	15506.05
483.39	15620.74
483.57	15606.69
483.74	15576.27
483.92	15880.53
484.10	15939.05
484.28	15964.79
484.46	16264.38
484.64	16683.34
484.82	16133.31
485.00	16278.43
485.18	16681.00
485.35	16762.92
485.53	16388.43
485.71	16252.68
485.89	16367.37
486.07	16613.12
486.25	16863.56
486.43	16959.52
486.61	17394.86
486.78	17420.61
486.96	17731.90
487.14	18019.78
487.32	17848.93
487.50	18195.32
487.68	18391.93
487.85	18719.60
488.03	18778.12
488.21	18537.04
488.39	18963.02
488.57	18979.40
488.75	19110.47
488.92	19147.92
489.10	19524.75
489.28	19711.99
489.46	19953.07
489.64	19796.25
489.81	20334.57
489.99	20219.89
490.17	20695.02
490.35	20624.80
490.53	20678.63
490.70	20645.87
490.88	20587.35
491.06	20905.66
491.24	20702.04
491.41	21013.33
491.59	21043.76
491.77	21200.57
491.95	21415.90
492.13	21724.85
492.30	21881.67
492.48	22097.00
492.66	22286.58
492.84	21968.27
493.01	22185.94
493.19	22267.86
493.37	22569.79
493.54	22384.88
493.72	22806.18
493.90	22918.53
494.08	23215.77
494.25	23463.87
494.43	23396.00
494.61	23653.45
494.79	23838.36
494.96	23674.52
495.14	23442.81
495.32	24182.42
495.49	23798.57
495.67	23941.34
495.85	24631.80
496.02	24662.22
496.20	24634.14
496.38	24786.27
496.55	24805.00
496.73	25378.43
496.91	25034.37
497.09	24851.81
497.26	25462.69
497.44	25238.00
497.62	25144.38
497.79	25607.80
497.97	25483.75
498.14	25949.52
498.32	25593.76
498.50	25635.89
498.67	26122.72
498.85	26242.09
499.03	26476.14
499.20	26684.45
499.38	26843.60
499.56	26661.04
499.73	26998.08
499.91	27140.85
500.08	27262.56
500.26	26490.18
500.44	26787.43
500.61	26962.97
500.79	26780.41
500.97	27241.50
501.14	27344.48
501.32	27377.25
501.49	27318.73
501.67	27693.22
501.84	27728.33
502.02	27782.16
502.20	27875.78
502.37	28198.77
502.55	28006.85
502.72	28315.80
502.90	28287.71
503.07	28084.09
503.25	28701.99
503.43	28311.12
503.60	28624.75
503.78	28276.01
503.95	28414.10
504.13	28989.88
504.30	28961.79
504.48	28959.45
504.65	29347.98
504.83	29380.74
505.01	29483.73
505.18	29446.28
505.36	29907.37
505.53	29706.08
505.71	30352.07
505.88	29982.26
506.06	29734.17
506.23	30085.25
506.41	29809.06
506.58	30244.40
506.76	30656.34
506.93	30504.20
507.11	30309.94
507.28	30621.23
507.46	30494.84
507.63	30405.90
507.81	30401.22
507.98	30307.60
508.16	30672.72
508.33	31150.19
508.50	30843.58
508.68	31571.49
508.85	31653.40
509.03	31358.50
509.20	31346.79
509.38	31669.79
509.55	31473.18
509.73	31831.29
509.90	31742.35
510.08	31772.77
510.25	31655.75
510.42	31819.58
510.60	32177.68
510.77	32070.02
510.95	32271.31
511.12	32371.95
511.30	32414.08
511.47	32418.76
511.64	32865.80
511.82	32861.12
511.99	32498.34
512.17	32584.94
512.34	32456.21
512.51	32912.61
512.69	33177.09
512.86	32821.33
513.04	33254.33
513.21	33095.18
513.38	32816.65
513.56	33064.75
513.73	33010.92
513.90	33567.96
514.08	33380.72
514.25	33404.13
514.43	33500.09
514.60	33626.48
514.77	33457.96
514.95	33570.30
515.12	33937.77
515.29	33823.08
515.47	34560.35
515.64	34532.26
515.81	33935.43
515.99	34253.74
516.16	33986.92
516.33	33928.41
516.51	33935.43
516.68	33745.84
516.85	33572.64
517.03	34260.76
517.20	34127.35
517.37	34258.42
517.54	34920.79
517.72	34504.18
517.89	34216.29
518.06	34249.06
518.24	34464.39
518.41	34642.27
518.58	35159.53
518.75	34817.81
518.93	35164.21
519.10	35274.21
519.27	35480.18
519.45	35473.16
519.62	35756.36
519.79	35524.65
519.96	35557.42
520.14	36149.57
520.31	35660.40
520.48	35871.05
520.65	35812.54
520.83	36215.11
521.00	36282.98
521.17	36278.30
521.34	36451.50
521.52	36341.50
521.69	36582.57
521.86	36645.77
522.03	36643.43
522.20	36435.12
522.38	36559.17
522.55	37144.30
522.72	37036.64
522.89	36456.18
523.07	37020.25
523.24	36432.78
523.41	37462.61
523.58	37174.73
523.75	37694.33
523.92	37535.17
524.10	37895.61
524.27	37825.40
524.44	37832.42
524.61	38124.99
524.78	37919.02
524.96	38012.64
525.13	37904.98
525.30	38270.10
525.47	38052.43
525.64	37848.80
525.81	38234.99
525.98	37546.87
526.16	37518.79
526.33	37701.35
526.50	37825.40
526.67	37689.65
526.84	37525.81
527.01	37792.63
527.18	37914.34
527.36	38700.76
527.53	38906.73
527.70	38895.02
527.87	38541.60
528.04	38602.46
528.21	38904.38
528.38	39070.56
528.55	39552.71
528.72	39175.89
528.89	39297.59
529.07	39236.74
529.24	39330.36
529.41	39171.21
529.58	39562.08
529.75	39166.52
529.92	39295.25
530.09	39679.10
530.26	39477.82
530.43	39641.65
530.60	39683.78
530.77	39505.90
530.94	40577.87
531.11	39838.26
531.28	40048.91
531.46	40112.10
531.63	40032.52
531.80	39480.16
531.97	39468.45
532.14	39983.37
532.31	39641.65
532.48	39594.84
532.65	40046.57
532.82	39819.53
532.99	40212.74
533.16	39688.46
533.33	40072.31
533.50	40999.16
533.67	40121.46
533.84	40589.57
534.01	40495.95
534.18	40559.14
534.35	40634.04
534.52	40149.55
534.69	40896.18
534.86	40481.91
535.03	41291.73
535.20	41170.02
535.37	41167.68
535.54	41291.73
535.71	41024.91
535.88	41551.53
536.05	41144.28
536.22	41111.51
536.38	41118.53
536.55	41497.70
536.72	40931.29
536.89	40715.96
537.06	41104.49
537.23	41319.82
537.40	41523.44
537.57	41581.96
537.74	41614.72
537.91	41921.34
538.08	41476.63
538.25	41050.66
538.42	41984.53
538.59	41787.92
538.75	41659.20
538.92	41926.02
539.09	41720.05
539.26	41525.78
539.43	41862.82
539.60	41773.88
539.77	41626.43
539.94	41446.21
540.11	41631.11
540.28	41748.14
540.44	42080.49
540.61	41851.12
540.78	41858.14
540.95	41893.25
541.12	41911.97
541.29	41890.91
541.46	42047.72
541.62	42295.82
541.79	41968.15
541.96	42253.69
542.13	42611.79
542.30	42033.68
542.47	42473.70
542.63	42188.16
542.80	42672.65
542.97	42885.64
543.14	43316.29
543.31	42920.74
543.48	43365.45
543.64	43438.00
543.81	43388.85
543.98	43339.70
544.15	43395.87
544.32	43236.72
544.48	43536.30
544.65	43299.91
544.82	43356.08
544.99	43227.35
545.16	43449.70
545.32	43606.52
545.49	43885.04
545.66	43608.86
545.83	43629.93
546.00	43587.80
546.16	43372.47
546.33	43297.57
546.50	43203.95
546.67	43849.94
546.83	43477.79
547.00	43690.78
547.17	43489.49
547.34	43367.79
547.50	43650.99
547.67	43356.08
547.84	43971.64
548.00	44381.24
548.17	44311.02
548.34	44072.29
548.51	44610.61
548.67	44147.18
548.84	44102.71
549.01	44100.37
549.18	43899.09
549.34	43908.45
549.51	44126.12
549.68	43957.60
549.84	44381.24
550.01	44411.67
550.18	44055.90
550.34	44137.82
550.51	44467.84
550.68	43992.71
550.84	44053.56
551.01	44247.83
551.18	44320.38
551.34	44472.52
551.51	44994.46
551.68	44854.03
551.84	44722.96
552.01	44287.62
552.18	44807.22
552.34	44493.58
552.51	44751.04
552.68	45095.10
552.84	44914.88
553.01	44999.14
553.18	44783.81
553.34	44765.09
553.51	44685.51
553.67	44905.52
553.84	45013.18
554.01	45144.25
554.17	45188.72
554.34	44683.17
554.51	45368.94
554.67	45181.70
554.84	45214.47
555.00	45284.68
555.17	45015.52
555.33	45221.49
555.50	45347.88
555.67	45228.51
555.83	45490.65
556.00	45483.63
556.16	45996.21
556.33	45202.77
556.50	45111.49
556.66	45111.49
556.83	45118.51
556.99	45560.87
557.16	45387.67
557.32	46017.27
557.49	45661.51
557.65	45106.80
557.82	45820.67
557.98	45631.08
558.15	45514.06
558.32	45759.81
558.48	45158.30
558.65	45277.66
558.81	45226.17
558.98	45483.63
559.14	45649.81
559.31	45109.14
559.47	45811.31
559.64	45296.39
559.80	46136.64
559.97	45670.87
560.13	45488.31
560.30	45338.52
560.46	45539.80
560.63	45521.08
560.79	45635.77
560.96	45902.59
561.12	45638.11
561.29	45897.91
561.45	45893.22
561.61	45855.78
561.78	45701.30
561.94	45769.18
562.11	45495.33
562.27	45495.33
562.44	45947.06
562.60	46047.70
562.77	45762.15
562.93	46073.45
563.10	46230.26
563.26	45738.75
563.42	46115.58
563.59	45523.42
563.75	45872.16
563.92	46202.18
564.08	46443.25
564.24	46286.43
564.41	45888.54
564.57	45975.14
564.74	45694.28
564.90	46068.76
565.07	46279.41
565.23	45804.28
565.39	45752.79
565.56	46096.85
565.72	45940.04
565.88	46230.26
566.05	45579.59
566.21	46003.23
566.38	46050.04
566.54	46078.13
566.70	46454.95
566.87	46600.07
567.03	46054.72
567.19	46438.57
567.36	46302.82
567.52	46157.70
567.68	46295.80
567.85	46333.24
568.01	46550.91
568.17	45848.75
568.34	46014.93
568.50	45954.08
568.66	46356.65
568.83	45872.16
568.99	45921.31
569.15	46195.15
569.32	45944.72
569.48	46305.16
569.64	46258.35
569.81	46075.79
569.97	46384.74
570.13	46256.01
570.30	45567.89
570.46	45813.65
570.62	46036.00
570.78	46073.45
570.95	45776.20
571.11	46307.50
571.27	46260.69
571.43	46181.11
571.60	46703.05
571.76	46281.75
571.92	46213.88
572.09	46129.62
572.25	46202.18
572.41	46277.07
572.57	46667.94
572.74	46827.10
572.90	46513.47
573.06	46506.44
573.22	46354.31
573.38	46398.78
573.55	45933.01
573.71	46754.54
573.87	46607.09
574.03	46745.18
574.20	46244.30
574.36	46616.45
574.52	46513.47
574.68	46639.86
574.84	46536.87
575.01	46590.70
575.17	46384.74
575.33	46330.90
575.49	45862.80
575.65	46810.71
575.82	46412.82
575.98	46312.18
576.14	46808.37
576.30	46670.28
576.46	46454.95
576.62	46012.59
576.79	46356.65
576.95	46066.42
577.11	46494.74
577.27	46501.76
577.43	46431.55
577.59	46089.83
577.75	46087.49
577.92	45991.53
578.08	45902.59
578.24	46143.66
578.40	46539.21
578.56	46485.38
578.72	46419.84
578.88	46951.15
579.04	46639.86
579.21	46153.02
579.37	46237.28
579.53	46384.74
579.69	46316.86
579.85	46501.76
580.01	46199.83
580.17	46518.15
580.33	46218.56
580.49	46410.48
580.65	46932.42
580.82	46300.48
580.98	46295.80
581.14	46494.74
581.30	46848.16
581.46	46822.42
581.62	46639.86
581.78	46244.30
581.94	46822.42
582.10	46466.66
582.26	46815.40
582.42	46529.85
582.58	46873.91
582.74	46586.02
582.90	46604.75
583.06	46628.15
583.22	46733.48
583.38	47007.32
583.54	46988.60
583.70	46508.79
583.86	46843.48
584.02	46775.61
584.18	46644.54
584.34	46567.30
584.50	46808.37
584.66	46237.28
584.82	46361.33
584.98	46541.55
585.14	46337.93
585.30	46295.80
585.46	46454.95
585.62	46354.31
585.78	46768.58
585.94	45724.71
586.10	46293.46
586.26	46349.63
586.42	46916.04
586.58	46422.19
586.74	46724.11
586.90	46628.15
587.06	46546.23
587.22	46429.21
587.38	46340.27
587.54	46464.32
587.70	46749.86
587.86	46557.94
588.02	46305.16
588.18	46794.33
588.34	46667.94
588.49	46174.09
588.65	46232.60
588.81	46211.54
588.97	46143.66
589.13	46054.72
589.29	46490.06
589.45	46597.73
589.61	46384.74
589.77	46504.10
589.93	46656.24
