SpectraSuite Data File
++++++++++++++++++++++++++++++++++++
Date: Fri Oct 25 10:47:07 EDT 2013
User: price-jones
Dark Spectrum Present: No
Reference Spectrum Present: No
Number of Sampled Component Spectra: 1
Spectrometers: USB2+H05261
Integration Time (usec): 100000 (USB2+H05261)
Spectra Averaged: 1 (USB2+H05261)
Boxcar Smoothing: 0 (USB2+H05261)
Correct for Electrical Dark: No (USB2+H05261)
Strobe/Lamp Enabled: No (USB2+H05261)
Correct for Detector Non-linearity: No (USB2+H05261)
Correct for Stray Light: No (USB2+H05261)
Number of Pixels in Processed Spectrum: 2048
>>>>>Begin Processed Spectral Data<<<<<
365.73	114.69
365.92	114.69
366.12	114.69
366.32	60.85
366.52	63.19
366.72	86.60
366.91	23.41
367.11	0.00
367.31	0.00
367.51	51.49
367.70	37.45
367.90	2.34
368.10	4.68
368.30	35.11
368.49	86.60
368.69	23.41
368.89	25.75
369.09	0.00
369.28	105.32
369.48	21.06
369.68	110.01
369.87	131.07
370.07	42.13
370.27	175.54
370.47	154.48
370.66	337.04
370.86	346.40
371.06	435.34
371.25	528.96
371.45	404.91
371.65	512.58
371.84	454.06
372.04	423.64
372.24	512.58
372.44	503.22
372.63	475.13
372.83	463.43
373.03	423.64
373.22	407.25
373.42	538.32
373.62	510.24
373.81	547.69
374.01	521.94
374.21	580.45
374.40	479.81
374.60	608.54
374.79	538.32
374.99	566.41
375.19	638.97
375.38	547.69
375.58	491.51
375.78	617.90
375.97	538.32
376.17	580.45
376.37	641.31
376.56	620.24
376.76	615.56
376.95	500.87
377.15	627.26
377.35	575.77
377.54	685.78
377.74	566.41
377.93	592.16
378.13	580.45
378.33	589.82
378.52	613.22
378.72	660.03
378.91	741.95
379.11	610.88
379.31	582.79
379.50	671.73
379.70	662.37
379.89	704.50
380.09	671.73
380.28	631.94
380.48	645.99
380.68	655.35
380.87	674.07
381.07	601.52
381.26	767.70
381.46	629.60
381.65	653.01
381.85	688.12
382.04	695.14
382.24	634.29
382.43	671.73
382.63	592.16
382.83	688.12
383.02	638.97
383.22	676.41
383.41	660.03
383.61	770.04
383.80	774.72
384.00	702.16
384.19	706.84
384.39	774.72
384.58	746.63
384.78	784.08
384.97	711.52
385.17	739.61
385.36	741.95
385.56	648.33
385.75	798.12
385.95	751.31
386.14	851.96
386.34	669.39
386.53	739.61
386.72	884.72
386.92	903.45
387.11	732.59
387.31	812.17
387.50	755.99
387.70	720.88
387.89	765.36
388.09	814.51
388.28	751.31
388.48	760.67
388.67	856.64
388.86	922.17
389.06	809.83
389.25	837.91
389.45	896.43
389.64	830.89
389.84	898.77
390.03	851.96
390.22	873.02
390.42	901.11
390.61	887.06
390.81	830.89
391.00	924.51
391.19	938.55
391.39	917.49
391.58	931.53
391.78	1006.43
391.97	961.96
392.16	940.90
392.36	994.73
392.55	1022.81
392.75	940.90
392.94	940.90
393.13	971.32
393.33	1006.43
393.52	940.90
393.71	1018.13
393.91	999.41
394.10	1039.20
394.29	1121.12
394.49	1095.37
394.68	1025.15
394.88	1022.81
395.07	1043.88
395.26	1029.84
395.46	1116.44
395.65	1111.75
395.84	1043.88
396.04	1177.29
396.23	1057.92
396.42	1167.93
396.62	1043.88
396.81	1132.82
397.00	1153.88
397.19	1093.03
397.39	1205.38
397.58	1172.61
397.77	1210.06
397.97	1343.47
398.16	1235.80
398.35	1282.61
398.55	1242.82
398.74	1219.42
398.93	1320.06
399.12	1268.57
399.32	1348.15
399.51	1268.57
399.70	1338.79
399.90	1341.13
400.09	1401.98
400.28	1406.66
400.47	1331.76
400.67	1469.86
400.86	1369.21
401.05	1383.26
401.24	1446.45
401.44	1521.35
401.63	1502.62
401.82	1430.07
402.01	1458.15
402.21	1472.20
402.40	1537.73
402.59	1509.65
402.78	1523.69
402.97	1577.52
403.17	1523.69
403.36	1596.25
403.55	1554.12
403.74	1596.25
403.93	1614.97
404.13	1692.21
404.32	1591.56
404.51	1638.38
404.70	1626.67
404.89	1753.06
405.09	1706.25
405.28	1781.15
405.47	1750.72
405.66	1710.93
405.85	1680.50
406.05	1724.97
406.24	1713.27
406.43	1748.38
406.62	1734.34
406.81	1844.34
407.00	1842.00
407.20	1825.62
407.39	1717.95
407.58	1743.70
407.77	1863.07
407.96	1937.96
408.15	2001.16
408.34	2038.61
408.54	1893.49
408.73	1959.03
408.92	1966.05
409.11	1921.58
409.30	1961.37
409.49	1944.99
409.68	2026.90
409.87	2043.29
410.07	2129.89
410.26	2179.04
410.45	2087.76
410.64	2092.44
410.83	2172.02
411.02	2059.67
411.21	2282.02
411.40	2286.70
411.59	2249.25
411.78	2167.34
411.98	2242.23
412.17	2349.90
412.36	2209.47
412.55	2375.64
412.74	2406.07
412.93	2354.58
413.12	2267.98
413.31	2513.74
413.50	2392.03
413.69	2434.16
413.88	2495.01
414.07	2518.42
414.26	2607.36
414.45	2537.14
414.64	2647.15
414.83	2619.06
415.02	2649.49
415.22	2656.51
415.41	2736.09
415.60	2764.17
415.79	2684.59
415.98	2876.52
416.17	2682.25
416.36	2862.48
416.55	2871.84
416.74	2736.09
416.93	2761.83
417.12	2822.69
417.31	2871.84
417.50	2942.05
417.69	3023.97
417.88	2979.50
418.07	3028.65
418.26	2995.89
418.45	3187.81
418.64	3173.77
418.83	3148.02
419.02	3171.43
419.21	3194.83
419.39	3098.87
419.58	3021.63
419.77	3131.64
419.96	3295.47
420.15	3215.90
420.34	3365.69
420.53	3187.81
420.72	3302.50
420.91	3297.81
421.10	3365.69
421.29	3466.33
421.48	3309.52
421.67	3410.16
421.86	3370.37
422.05	3435.91
422.24	3433.57
422.43	3414.84
422.61	3386.76
422.80	3368.03
422.99	3527.19
423.18	3412.50
423.37	3445.27
423.56	3452.29
423.75	3365.69
423.94	3353.99
424.13	3368.03
424.32	3370.37
424.50	3508.46
424.69	3548.25
424.88	3562.30
425.07	3407.82
425.26	3431.23
425.45	3449.95
425.64	3279.09
425.83	3330.58
426.01	3578.68
426.20	3536.55
426.39	3492.08
426.58	3562.30
426.77	3440.59
426.96	3676.98
427.15	3496.76
427.33	3550.59
427.52	3665.28
427.71	3660.60
427.90	3634.85
428.09	3786.99
428.28	3719.11
428.46	3779.97
428.65	3822.09
428.84	3840.82
429.03	3934.44
429.22	3749.54
429.40	3744.86
429.59	3815.07
429.78	3590.38
429.97	3602.08
430.16	3721.45
430.34	3758.90
430.53	3784.65
430.72	3817.41
430.91	3852.52
431.10	3833.80
431.28	3995.29
431.47	3995.29
431.66	4039.76
431.85	4138.07
432.03	4117.00
432.22	4065.51
432.41	4189.56
432.60	4112.32
432.79	4011.68
432.97	4280.84
433.16	4173.18
433.35	4112.32
433.54	4355.74
433.72	4248.07
433.91	4365.10
434.10	4341.69
434.28	4222.33
434.47	4217.65
434.66	4252.75
434.85	4498.51
435.03	4447.02
435.22	4393.19
435.41	4603.83
435.59	4547.66
435.78	4341.69
435.97	4765.33
436.16	4432.97
436.34	4503.19
436.53	4629.58
436.72	4723.20
436.90	4482.13
437.09	4615.54
437.28	4608.51
437.46	4603.83
437.65	4674.05
437.84	4664.69
438.02	4512.55
438.21	4627.24
438.40	4650.64
438.58	4809.80
438.77	4858.95
438.96	4959.60
439.14	5006.41
439.33	4971.30
439.52	5018.11
439.70	5011.09
439.89	5142.16
440.08	5186.63
440.26	5055.56
440.45	5062.58
440.63	5329.40
440.82	5174.92
441.01	5249.82
441.19	5329.40
441.38	5336.42
441.57	5210.03
441.75	5603.24
441.94	5565.79
442.12	5563.45
442.31	5692.18
442.50	5563.45
442.68	5699.20
442.87	5605.58
443.05	5591.54
443.24	5720.27
443.43	5645.37
443.61	5767.08
443.80	5811.55
443.98	5645.37
444.17	5523.66
444.35	5612.60
444.54	5736.65
444.73	5738.99
444.91	5881.77
445.10	5675.80
445.28	5589.20
445.47	5841.98
445.65	5621.97
445.84	5701.54
446.02	5783.46
446.21	5944.96
446.39	5837.30
446.58	5884.11
446.77	5832.62
446.95	5867.72
447.14	6031.56
447.32	5961.34
447.51	5788.14
447.69	5710.91
447.88	5860.70
448.06	5795.17
448.25	5954.32
448.43	6090.07
448.62	5837.30
448.80	5823.25
448.99	6040.92
449.17	5991.77
449.36	6129.86
449.54	6146.25
449.73	6214.12
449.91	6108.80
450.10	6265.61
450.28	6305.40
450.46	6232.85
450.65	6267.95
450.83	6265.61
451.02	6345.19
451.20	6375.62
451.39	6277.32
451.57	6260.93
451.76	6307.74
451.94	6466.90
452.13	6434.13
452.31	6466.90
452.49	6101.78
452.68	6333.49
452.86	6466.90
453.05	6534.78
453.23	6569.88
453.42	6438.81
453.60	6396.68
453.78	6555.84
453.97	6532.44
454.15	6539.46
454.34	6558.18
454.52	6654.14
454.70	6635.42
454.89	6712.66
455.07	6487.96
455.26	6787.55
455.44	6853.09
455.62	6874.15
455.81	6892.88
455.99	6855.43
456.17	7063.74
456.36	6803.94
456.54	7016.93
456.73	7194.81
456.91	7016.93
457.09	7211.19
457.28	7424.18
457.46	7192.47
457.64	7201.83
457.83	7112.89
458.01	7019.27
458.19	7260.34
458.38	7110.55
458.56	7248.64
458.74	7442.90
458.93	7192.47
459.11	7281.41
459.29	7466.31
459.48	7496.74
459.66	7421.84
459.84	7524.82
460.03	7723.77
460.21	7557.59
460.39	7602.06
460.57	7449.93
460.76	7698.02
460.94	7660.57
461.12	7707.38
461.31	7618.44
461.49	7693.34
461.67	7702.70
461.85	7819.73
462.04	7721.43
462.22	8280.82
462.40	7925.05
462.59	7903.99
462.77	7726.11
462.95	8072.51
463.13	8173.15
463.32	7882.92
463.50	8180.17
463.68	8035.06
463.86	8180.17
464.05	7889.95
464.23	8222.30
464.41	8168.47
464.59	7894.63
464.78	8257.41
464.96	8051.44
465.14	8011.65
465.32	8215.28
465.50	8259.75
465.69	8376.78
465.87	8112.30
466.05	8236.35
466.23	8194.22
466.41	8468.06
466.60	8484.44
466.78	8264.43
466.96	8243.37
467.14	8306.56
467.32	8311.24
467.51	8566.36
467.69	8376.78
467.87	8505.51
468.05	8521.89
468.23	8435.29
468.41	8397.84
468.60	8568.70
468.78	8622.53
468.96	8634.24
469.14	8861.27
469.32	8884.67
469.50	8355.71
469.69	8727.86
469.87	8795.73
470.05	8648.28
470.23	8835.52
470.41	8835.52
470.59	8812.12
470.77	9039.15
470.95	8847.22
471.14	8987.66
471.32	8643.60
471.50	9092.98
471.68	9032.13
471.86	9001.70
472.04	9481.51
472.22	9479.17
472.40	9259.16
472.58	9238.09
472.77	9448.74
472.95	9434.70
473.13	9755.35
473.31	9362.14
473.49	9310.65
473.67	9507.26
473.85	9703.86
474.03	9987.07
474.21	9816.21
474.39	9863.02
474.57	9998.77
474.75	10148.56
474.93	10019.83
475.12	10036.22
475.30	10237.50
475.48	9914.51
475.66	10108.77
475.84	10033.88
476.02	10274.95
476.20	10197.71
476.38	10595.61
476.56	10586.24
476.74	10729.02
476.92	10668.16
477.10	10637.73
477.28	10839.02
477.46	10761.78
477.64	10977.11
477.82	10993.50
478.00	11248.61
478.18	11257.98
478.36	11396.07
478.54	11466.28
478.72	11658.21
478.90	11789.28
479.08	11925.03
479.26	11599.70
479.44	11899.28
479.62	11660.55
479.80	11868.86
479.98	12212.92
480.16	12262.07
480.34	12119.29
480.52	12009.29
480.70	12276.11
480.88	12416.54
481.06	12451.65
481.24	12617.83
481.41	12821.45
481.59	12774.64
481.77	12774.64
481.95	12875.29
482.13	12915.08
482.31	13174.88
482.49	13444.04
482.67	13336.37
482.85	13584.47
483.03	13474.46
483.21	13743.63
483.39	13781.07
483.57	13956.61
483.74	13987.04
483.92	14202.37
484.10	14040.87
484.28	14455.15
484.46	14574.52
484.64	14827.29
484.82	14333.44
485.00	14668.14
485.18	14963.04
485.35	15159.65
485.53	14963.04
485.71	14932.62
485.89	15328.17
486.07	15374.98
486.25	15372.64
486.43	15501.37
486.61	15644.14
486.78	16168.42
486.96	15857.13
487.14	16135.65
487.32	15953.09
487.50	16299.49
487.68	16112.25
487.85	16699.72
488.03	16526.52
488.21	17006.33
488.39	16681.00
488.57	16891.65
488.75	17242.73
488.92	17254.43
489.10	17207.62
489.28	17617.21
489.46	17968.29
489.64	17715.51
489.81	18225.75
489.99	18235.11
490.17	18391.93
490.35	18321.71
490.53	18520.66
490.70	18546.40
490.88	18731.31
491.06	18925.57
491.24	18986.43
491.41	18799.18
491.59	18815.57
491.77	19126.86
491.95	19218.14
492.13	19365.59
492.30	19838.38
492.48	19831.36
492.66	19810.29
492.84	19648.80
493.01	20037.33
493.19	19978.81
493.37	20372.02
493.54	20236.27
493.72	20526.50
493.90	20439.90
494.08	20781.62
494.25	21319.94
494.43	21116.31
494.61	21235.68
494.79	21200.57
494.96	21055.46
495.14	21558.67
495.32	21846.56
495.49	21645.27
495.67	21755.28
495.85	21832.52
496.02	21886.35
496.20	22132.11
496.38	22188.28
496.55	22073.59
496.73	22761.71
496.91	22246.79
497.09	22656.39
497.26	22668.09
497.44	22988.74
497.62	22827.24
497.79	23531.75
497.97	22813.20
498.14	23183.01
498.32	23503.66
498.50	23538.77
498.67	23828.99
498.85	23442.81
499.03	23969.43
499.20	23782.18
499.38	23630.05
499.56	23971.77
499.73	24205.82
499.91	24383.70
500.08	24334.55
500.26	24386.04
500.44	24510.09
500.61	24470.30
500.79	24240.93
500.97	24812.02
501.14	25095.22
501.32	25015.65
501.49	24903.30
501.67	24973.52
501.84	25067.14
502.02	25153.74
502.20	25481.41
502.37	25565.67
502.55	25387.79
502.72	25710.78
502.90	25734.19
503.07	25600.78
503.25	25820.79
503.43	25879.30
503.60	25954.20
503.78	26265.49
503.95	25949.52
504.13	26153.15
504.30	26356.77
504.48	26099.31
504.65	26473.80
504.83	26459.76
505.01	26668.06
505.18	26661.04
505.36	27056.59
505.53	26911.48
505.71	27159.58
505.88	27215.75
506.06	26934.88
506.23	27349.16
506.41	26859.99
506.58	27250.86
506.76	27344.48
506.93	27414.69
507.11	27754.07
507.28	27611.30
507.46	28004.51
507.63	27864.08
507.81	27896.85
507.98	27770.46
508.16	28081.75
508.33	28168.35
508.50	28524.11
508.68	28194.09
508.85	28533.47
509.03	28493.68
509.20	28400.06
509.38	28641.14
509.55	28896.25
509.73	28999.24
509.90	28882.21
510.08	29034.35
510.25	29008.60
510.42	28947.75
510.60	29006.26
510.77	29235.63
510.95	29509.47
511.12	29640.54
511.30	29703.74
511.47	29823.11
511.64	29612.46
511.82	29893.32
511.99	29514.16
512.17	30122.69
512.34	29811.40
512.51	30127.38
512.69	30270.15
512.86	30314.62
513.04	30567.40
513.21	30380.15
513.38	30625.91
513.56	30635.27
513.73	30146.10
513.90	30565.06
514.08	30586.12
514.25	31049.55
514.43	31082.31
514.60	30775.70
514.77	30752.30
514.95	31026.14
515.12	31218.07
515.29	31044.87
515.47	31711.92
515.64	31529.36
515.81	31381.90
515.99	31208.70
516.16	31562.12
516.33	31510.63
516.51	31463.82
516.68	31433.39
516.85	31292.96
517.03	31391.26
517.20	31756.39
517.37	31744.69
517.54	31887.46
517.72	31861.71
517.89	31744.69
518.06	31941.29
518.24	32091.09
518.41	32226.84
518.58	32367.27
518.75	32114.49
518.93	32004.49
519.10	32746.44
519.27	32865.80
519.45	32802.61
519.62	32781.54
519.79	33125.60
519.96	33132.62
520.14	32716.01
520.31	32847.08
520.48	33097.52
520.65	33137.30
520.83	33493.07
521.00	33464.98
521.17	33476.68
521.34	33696.69
521.52	33558.60
521.69	33619.46
521.86	33919.04
522.03	33984.58
522.20	33628.82
522.38	33986.92
522.55	33701.37
522.72	33694.35
522.89	34340.34
523.07	34169.48
523.24	34094.58
523.41	34209.27
523.58	34139.05
523.75	34817.81
523.92	34623.54
524.10	34682.06
524.27	34572.05
524.44	35035.48
524.61	34934.84
524.78	35122.08
524.96	34721.85
525.13	35091.65
525.30	35686.15
525.47	35138.46
525.64	35264.85
525.81	35447.41
525.98	35145.48
526.16	34993.35
526.33	35246.13
526.50	35955.31
526.67	35211.02
526.84	35178.25
527.01	35009.73
527.18	35693.17
527.36	35784.45
527.53	35929.56
527.70	36055.95
527.87	36065.31
528.04	36212.77
528.21	36189.36
528.38	35697.85
528.55	36327.45
528.72	35978.72
528.89	36409.37
529.07	36376.61
529.24	35849.99
529.41	36128.51
529.58	35969.35
529.75	36297.03
529.92	36620.02
530.09	36297.03
530.26	36456.18
530.43	36739.39
530.60	36233.83
530.77	36622.36
530.94	36903.23
531.11	36477.25
531.28	37029.62
531.46	37083.45
531.63	36971.10
531.80	36697.26
531.97	37137.28
532.14	37118.56
532.31	37212.18
532.48	37296.44
532.65	37282.39
532.82	37191.11
532.99	37420.48
533.16	37507.08
533.33	37120.90
533.50	37399.42
533.67	37722.41
533.84	37354.95
534.01	37855.82
534.18	37436.87
534.35	38146.05
534.52	37481.34
534.69	38148.39
534.86	38068.81
535.03	37347.93
535.20	37811.35
535.37	38330.95
535.54	38618.84
535.71	37977.53
535.88	38143.71
536.05	38134.35
536.22	38211.59
536.38	38391.81
536.55	38579.05
536.72	38307.55
536.89	37778.59
537.06	38436.28
537.23	38607.14
537.40	38597.77
537.57	38471.39
537.74	38644.59
537.91	39250.78
538.08	38813.10
538.25	38738.21
538.42	38843.53
538.59	38855.23
538.75	38756.93
538.92	38660.97
539.09	39374.83
539.26	39093.97
539.43	38824.81
539.60	39218.02
539.77	39063.54
539.94	39051.84
540.11	39065.88
540.28	39047.16
540.44	39346.75
540.61	39718.89
540.78	39548.03
540.95	39260.15
541.12	39098.65
541.29	39353.77
541.46	39342.06
541.62	39505.90
541.79	39278.87
541.96	39084.61
542.13	39533.99
542.30	39627.61
542.47	39714.21
542.63	39856.98
542.80	39636.97
542.97	40376.58
543.14	40479.57
543.31	39746.98
543.48	40208.06
543.64	40634.04
543.81	40091.04
543.98	40643.40
544.15	40245.51
544.32	40701.92
544.48	41137.26
544.65	40603.61
544.82	40711.28
544.99	40222.11
545.16	40465.52
545.32	39976.35
545.49	40889.16
545.66	41120.87
545.83	40814.26
546.00	40587.23
546.16	41200.45
546.33	40734.68
546.50	40591.91
546.67	40975.76
546.83	40247.85
547.00	40978.10
547.17	40825.96
547.34	40713.62
547.50	41263.64
547.67	40739.36
547.84	41043.63
548.00	41434.50
548.17	41261.30
548.34	41165.34
548.51	41406.42
548.67	41443.87
548.84	41441.53
549.01	41373.65
549.18	41345.56
549.34	41263.64
549.51	42033.68
549.68	41820.69
549.84	41727.07
550.01	41797.29
550.18	41668.56
550.34	41448.55
550.51	41895.59
550.68	41418.12
550.84	41518.76
551.01	42120.28
551.18	41626.43
551.34	41757.50
551.51	42227.95
551.68	42036.02
551.84	41565.57
552.01	42040.70
552.18	41818.35
552.34	41743.45
552.51	42054.75
552.68	42054.75
552.84	42185.82
553.01	42483.06
553.18	42073.47
553.34	41984.53
553.51	41890.91
553.67	42024.32
553.84	42431.57
554.01	42342.63
554.17	42408.17
554.34	42714.78
554.51	42319.23
554.67	42745.20
554.84	42712.44
555.00	42518.17
555.17	42497.11
555.33	42686.69
555.50	42763.93
555.67	42850.53
555.83	42649.24
556.00	42314.55
556.16	43107.99
556.33	42707.76
556.50	42801.38
556.66	43091.60
556.83	42588.39
556.99	43168.84
557.16	43070.54
557.32	43096.28
557.49	43093.94
557.65	42892.66
557.82	42618.81
557.98	42684.35
558.15	42487.74
558.32	42953.51
558.48	43150.12
558.65	42803.72
558.81	43009.68
558.98	43044.79
559.14	42866.91
559.31	43049.47
559.47	43171.18
559.64	43566.73
559.80	43456.73
559.97	43805.47
560.13	42948.83
560.30	43253.10
560.46	43405.23
560.63	43456.73
560.79	43496.52
560.96	43875.68
561.12	43461.41
561.29	43304.59
561.45	43569.07
561.61	43763.34
561.78	43608.86
561.94	43562.05
562.11	43510.56
562.27	43400.55
562.44	43215.65
562.60	43981.01
562.77	44048.88
562.93	43562.05
563.10	43332.68
563.26	43358.42
563.42	43688.44
563.59	43505.88
563.75	43351.40
563.92	44308.68
564.08	43861.64
564.24	44121.44
564.41	43758.66
564.57	43618.22
564.74	43957.60
564.90	43997.39
565.07	44009.09
565.23	43625.25
565.39	43707.16
565.56	43552.69
565.72	43990.37
565.88	43976.33
566.05	43835.89
566.21	43798.44
566.38	43510.56
566.54	44058.24
566.70	44313.36
566.87	44435.07
567.03	43871.00
567.19	44451.45
567.36	44360.17
567.52	43955.26
567.68	43896.75
567.85	43915.47
568.01	43826.53
568.17	43856.96
568.34	43730.57
568.50	44226.76
568.66	43859.30
568.83	43800.79
568.99	43777.38
569.15	44292.30
569.32	44107.40
569.48	43641.63
569.64	44013.77
569.81	44261.87
569.97	44023.14
570.13	43833.55
570.30	43704.82
570.46	43784.40
570.62	44179.95
570.78	43990.37
570.95	43866.32
571.11	44545.08
571.27	44521.67
571.43	44252.51
571.60	44034.84
571.76	43812.49
571.92	44538.05
572.09	44030.16
572.25	43594.82
572.41	43971.64
572.57	44205.70
572.74	44814.24
572.90	44617.63
573.06	44350.81
573.22	44669.12
573.38	44360.17
573.55	43920.15
573.71	44280.60
573.87	44114.42
574.03	44048.88
574.20	44392.94
574.36	44313.36
574.52	44491.24
574.68	44484.22
574.84	44240.81
575.01	44442.09
575.17	44175.27
575.33	43863.98
575.49	44194.00
575.65	44582.52
575.82	44353.15
575.98	44266.55
576.14	44278.25
576.30	44397.62
576.46	44306.34
576.62	43950.58
576.79	44135.48
576.95	44133.14
577.11	44322.72
577.27	44226.76
577.43	44746.36
577.59	44051.22
577.75	44280.60
577.92	44315.70
578.08	44268.89
578.24	44390.60
578.40	44350.81
578.56	44046.54
578.72	44304.00
578.88	44311.02
579.04	44179.95
579.21	44376.56
579.37	44502.95
579.53	44411.67
579.69	44257.19
579.85	44149.53
580.01	44575.50
580.17	44362.51
580.33	44851.69
580.49	44474.86
580.65	44388.26
580.82	44638.70
580.98	44495.92
581.14	44376.56
581.30	44900.84
581.46	44729.98
581.62	44598.91
581.78	44367.20
581.94	44652.74
582.10	44580.18
582.26	44568.48
582.42	44367.20
582.58	44149.53
582.74	44339.11
582.90	44222.08
583.06	44886.79
583.22	44814.24
583.38	44942.97
583.54	44634.02
583.70	44575.50
583.86	44722.96
584.02	44357.83
584.18	44449.11
584.34	44849.35
584.50	44617.63
584.66	44376.56
584.82	44715.93
584.98	44903.18
585.14	44638.70
585.30	44027.82
585.46	44533.37
585.62	44219.74
585.78	44680.83
585.94	43952.92
586.10	44514.65
586.26	44573.16
586.42	44528.69
586.58	44807.22
586.74	44514.65
586.90	44479.54
587.06	44179.95
587.22	44495.92
587.38	44376.56
587.54	44402.30
587.70	44648.06
587.86	44933.60
588.02	44790.83
588.18	45188.72
588.34	44360.17
588.49	44191.65
588.65	44442.09
588.81	44437.41
588.97	44854.03
589.13	44304.00
589.29	44865.73
589.45	44421.03
589.61	44891.48
589.77	44971.05
589.93	44332.09
590.08	44856.37
590.24	45034.25
