SpectraSuite Data File
++++++++++++++++++++++++++++++++++++
Date: Fri Oct 25 11:26:17 EDT 2013
User: price-jones
Dark Spectrum Present: No
Reference Spectrum Present: No
Number of Sampled Component Spectra: 1
Spectrometers: USB2+H05261
Integration Time (usec): 100000 (USB2+H05261)
Spectra Averaged: 1 (USB2+H05261)
Boxcar Smoothing: 0 (USB2+H05261)
Correct for Electrical Dark: No (USB2+H05261)
Strobe/Lamp Enabled: No (USB2+H05261)
Correct for Detector Non-linearity: No (USB2+H05261)
Correct for Stray Light: No (USB2+H05261)
Number of Pixels in Processed Spectrum: 2048
>>>>>Begin Processed Spectral Data<<<<<
365.73	266.82
365.92	266.82
366.12	266.82
366.32	189.58
366.52	166.18
366.72	119.37
366.91	119.37
367.11	102.98
367.31	95.96
367.51	135.75
367.70	121.71
367.90	135.75
368.10	121.71
368.30	124.05
368.49	152.13
368.69	161.50
368.89	170.86
369.09	149.79
369.28	198.95
369.48	91.28
369.68	224.69
369.87	196.60
370.07	142.77
370.27	173.20
370.47	330.02
370.66	573.43
370.86	535.98
371.06	653.01
371.25	685.78
371.45	641.31
371.65	629.60
371.84	758.33
372.04	727.91
372.24	716.20
372.44	692.80
372.63	755.99
372.83	821.53
373.03	851.96
373.22	744.29
373.42	620.24
373.62	765.36
373.81	767.70
374.01	786.42
374.21	828.55
374.40	830.89
374.60	833.23
374.79	765.36
374.99	763.01
375.19	901.11
375.38	976.00
375.58	826.21
375.78	858.98
375.97	891.74
376.17	915.15
376.37	933.87
376.56	894.08
376.76	814.51
376.95	802.80
377.15	882.38
377.35	945.58
377.54	889.40
377.74	858.98
377.93	849.61
378.13	873.02
378.33	992.39
378.52	957.28
378.72	924.51
378.91	999.41
379.11	1001.75
379.31	978.34
379.50	985.37
379.70	959.62
379.89	1071.97
380.09	926.85
380.28	933.87
380.48	1046.22
380.68	950.26
380.87	1025.15
381.07	1036.86
381.26	1064.94
381.46	1020.47
381.65	1001.75
381.85	1078.99
382.04	1078.99
382.24	1020.47
382.43	1053.24
382.63	1078.99
382.83	1043.88
383.02	1125.80
383.22	1102.39
383.41	1025.15
383.61	1004.09
383.80	1151.54
384.00	1224.10
384.19	1104.73
384.39	1130.48
384.58	1165.59
384.78	1111.75
384.97	1167.93
385.17	1125.80
385.36	1217.08
385.56	1256.87
385.75	1210.06
385.95	1160.91
386.14	1322.40
386.34	1179.63
386.53	1226.44
386.72	1188.99
386.92	1324.74
387.11	1296.66
387.31	1296.66
387.50	1219.42
387.70	1247.51
387.89	1270.91
388.09	1254.53
388.28	1245.16
388.48	1313.04
388.67	1320.06
388.86	1376.24
389.06	1324.74
389.25	1277.93
389.45	1256.87
389.64	1280.27
389.84	1336.45
390.03	1329.42
390.22	1355.17
390.42	1399.64
390.61	1500.28
390.81	1418.36
391.00	1359.85
391.19	1441.77
391.39	1502.62
391.58	1369.21
391.78	1352.83
391.97	1490.92
392.16	1469.86
392.36	1434.75
392.55	1535.39
392.75	1586.88
392.94	1561.14
393.13	1462.83
393.33	1530.71
393.52	1479.22
393.71	1533.05
393.91	1547.09
394.10	1652.42
394.29	1540.07
394.49	1589.22
394.68	1544.75
394.88	1654.76
395.07	1647.74
395.26	1706.25
395.46	1617.31
395.65	1605.61
395.84	1774.13
396.04	1797.53
396.23	1701.57
396.42	1685.19
396.62	1778.81
396.81	1806.89
397.00	1804.55
397.19	1785.83
397.39	1809.23
397.58	1820.94
397.77	1834.98
397.97	1802.21
398.16	1778.81
398.35	2036.27
398.55	1816.26
398.74	1881.79
398.93	1923.92
399.12	1860.73
399.32	1898.17
399.51	1980.09
399.70	2080.74
399.90	2036.27
400.09	2066.69
400.28	1973.07
400.47	2024.56
400.67	2094.78
400.86	2153.29
401.05	2078.40
401.24	2097.12
401.44	2134.57
401.63	2195.42
401.82	2104.14
402.01	2193.08
402.21	2146.27
402.40	2143.93
402.59	2310.11
402.78	2258.62
402.97	2211.81
403.17	2188.40
403.36	2232.87
403.55	2289.04
403.74	2326.49
403.93	2256.28
404.13	2277.34
404.32	2270.32
404.51	2335.85
404.70	2385.01
404.89	2476.29
405.09	2473.95
405.28	2504.37
405.47	2401.39
405.66	2457.56
405.85	2565.23
406.05	2567.57
406.24	2532.46
406.43	2567.57
406.62	2583.95
406.81	2597.99
407.00	2541.82
407.20	2558.21
407.39	2590.97
407.58	2750.13
407.77	2677.57
407.96	2768.85
408.15	2818.00
408.34	2747.79
408.54	2715.02
408.73	2874.18
408.92	2853.11
409.11	2902.26
409.30	2885.88
409.49	2815.66
409.68	3023.97
409.87	2925.67
410.07	2970.14
410.26	2949.08
410.45	3007.59
410.64	3012.27
410.83	3021.63
411.02	2944.39
411.21	3155.04
411.40	3176.11
411.59	3267.39
411.78	3152.70
411.98	3077.80
412.17	3304.84
412.36	3368.03
412.55	3318.88
412.74	3478.04
412.93	3286.11
413.12	3459.31
413.31	3571.66
413.50	3452.29
413.69	3435.91
413.88	3517.83
414.07	3585.70
414.26	3632.51
414.45	3651.24
414.64	3651.24
414.83	3735.50
415.02	3817.41
415.22	3829.12
415.41	3934.44
415.60	3791.67
415.79	3798.69
415.98	3950.82
416.17	3922.74
416.36	3873.59
416.55	3988.27
416.74	4007.00
416.93	3950.82
417.12	4093.60
417.31	4205.94
417.50	4238.71
417.69	4252.75
417.88	4322.97
418.07	4149.77
418.26	4203.60
418.45	4208.28
418.64	4437.66
418.83	4313.61
419.02	4395.53
419.21	4334.67
419.39	4547.66
419.58	4390.84
419.77	4486.81
419.96	4496.17
420.15	4627.24
420.34	4468.08
420.53	4500.85
420.72	4713.84
420.91	4828.53
421.10	4634.26
421.29	4648.30
421.48	4791.08
421.67	4751.29
421.86	4807.46
422.05	4765.33
422.24	4737.24
422.43	4821.50
422.61	4896.40
422.80	4854.27
422.99	4812.14
423.18	4830.87
423.37	5109.39
423.56	4908.10
423.75	4961.94
423.94	4896.40
424.13	4587.45
424.32	4821.50
424.50	4957.25
424.69	5081.30
424.88	5008.75
425.07	4873.00
425.26	4828.53
425.45	5050.88
425.64	5078.96
425.83	4987.68
426.01	5062.58
426.20	5109.39
426.39	5144.50
426.58	4966.62
426.77	5001.72
426.96	5210.03
427.15	4985.34
427.33	5249.82
427.52	5046.20
427.71	5270.89
427.90	5242.80
428.09	5139.82
428.28	5322.38
428.46	5266.21
428.65	5317.70
428.84	5444.09
429.03	5624.31
429.22	5317.70
429.40	5413.66
429.59	5362.17
429.78	5411.32
429.97	5303.65
430.16	5430.04
430.34	5607.92
430.53	5668.78
430.72	5703.89
430.91	5666.44
431.10	5554.09
431.28	5722.61
431.47	5823.25
431.66	5783.46
431.85	5673.46
432.03	5966.03
432.22	5951.98
432.41	5874.74
432.60	5867.72
432.79	5905.17
432.97	5926.24
433.16	5973.05
433.35	6071.35
433.54	6113.48
433.72	6108.80
433.91	6033.90
434.10	6057.31
434.28	6047.94
434.47	6064.33
434.66	6186.04
434.85	6162.63
435.03	6265.61
435.22	6244.55
435.41	6296.04
435.59	6368.60
435.78	6356.90
435.97	6392.00
436.16	6551.16
436.34	6544.14
436.53	6443.49
436.72	6480.94
436.90	6368.60
437.09	6569.88
437.28	6401.37
437.46	6394.34
437.65	6565.20
437.84	6766.49
438.02	6520.73
438.21	6736.06
438.40	6637.76
438.58	6981.82
438.77	7091.82
438.96	6794.58
439.14	6998.20
439.33	7105.87
439.52	7309.49
439.70	7339.92
439.89	7300.13
440.08	7316.51
440.26	7243.96
440.45	7269.70
440.63	7332.90
440.82	7548.23
441.01	7522.48
441.19	7496.74
441.38	7522.48
441.57	7676.96
441.75	7681.64
441.94	7936.76
442.12	7665.25
442.31	8042.08
442.50	7999.95
442.68	7873.56
442.87	8102.93
443.05	8077.19
443.24	8205.92
443.43	8119.32
443.61	7941.44
443.80	8414.23
443.98	7845.48
444.17	7990.59
444.35	8095.91
444.54	8234.00
444.73	8077.19
444.91	8283.16
445.10	8243.37
445.28	8177.83
445.47	8264.43
445.65	8203.58
445.84	8629.56
446.02	8257.41
446.21	8184.85
446.39	8395.50
446.58	8353.37
446.77	8313.58
446.95	8149.75
447.14	8173.15
447.32	8486.78
447.51	8383.80
447.69	8400.18
447.88	8564.02
448.06	8421.25
448.25	8500.83
448.43	8444.65
448.62	8411.89
448.80	8561.68
448.99	8573.38
449.17	8622.53
449.36	8491.46
449.54	8812.12
449.73	8858.93
449.91	8922.12
450.10	8861.27
450.28	8791.05
450.46	9095.32
450.65	8931.48
450.83	8861.27
451.02	9011.06
451.20	9144.47
451.39	9046.17
451.57	9294.27
451.76	8990.00
451.94	9156.18
452.13	9247.46
452.31	9111.71
452.49	9219.37
452.68	9256.82
452.86	9198.31
453.05	9114.05
453.23	9458.10
453.42	9394.91
453.60	9268.52
453.78	9399.59
453.97	9432.36
454.15	9451.08
454.34	9282.56
454.52	9596.20
454.70	9558.75
454.89	9722.59
455.07	9458.10
455.26	9703.86
455.44	9884.08
455.62	9668.75
455.81	9675.77
455.99	10256.23
456.17	9942.60
456.36	9956.64
456.54	10017.49
456.73	10080.69
456.91	10204.74
457.09	10413.04
457.28	10525.39
457.46	10209.42
457.64	10532.41
457.83	10394.32
458.01	10326.44
458.19	10583.90
458.38	10602.63
458.56	10504.32
458.74	10523.05
458.93	10530.07
459.11	10717.31
459.29	10705.61
459.48	10888.17
459.66	10546.45
459.84	10778.17
460.03	10846.04
460.21	10876.47
460.39	11052.01
460.57	10848.38
460.76	11026.26
460.94	11201.80
461.12	10923.28
461.31	11157.33
461.49	11115.20
461.67	11152.65
461.85	11382.03
462.04	11431.18
462.22	11770.55
462.40	11286.06
462.59	11435.86
462.77	11412.45
462.95	11527.14
463.13	11606.72
463.32	11602.04
463.50	11449.90
463.68	11667.57
463.86	11913.33
464.05	11524.80
464.23	11587.99
464.41	11573.95
464.59	11431.18
464.78	12161.42
464.96	11805.66
465.14	11648.85
465.32	12063.12
465.50	11899.28
465.69	12086.53
465.87	12217.60
466.05	12245.68
466.23	12004.61
466.41	12053.76
466.60	12437.61
466.78	12198.87
466.96	12032.69
467.14	12273.77
467.32	12196.53
467.51	12318.24
467.69	12046.74
467.87	12456.33
468.05	12479.74
468.23	12306.54
468.41	12294.83
468.60	12470.37
468.78	12849.54
468.96	12236.32
469.14	12706.77
469.32	12950.18
469.50	12542.93
469.69	12847.20
469.87	13135.09
470.05	12982.95
470.23	13214.66
470.41	13158.49
470.59	13217.01
470.77	13207.64
470.95	13429.99
471.14	13551.70
471.32	13004.02
471.50	13425.31
471.68	13540.00
471.86	13537.66
472.04	13671.07
472.22	14031.51
472.40	13289.56
472.58	13781.07
472.77	13830.23
472.95	14003.43
473.13	14581.54
473.31	13891.08
473.49	14249.18
473.67	13942.57
473.85	14225.78
474.03	14494.94
474.21	14499.62
474.39	14663.46
474.57	14693.88
474.75	14618.99
474.93	14885.81
475.12	14827.29
475.30	14981.77
475.48	15042.62
475.66	15016.88
475.84	15222.84
476.02	15091.77
476.20	15180.71
476.38	15534.14
476.56	15831.38
476.74	15683.93
476.92	15733.08
477.10	15690.95
477.28	15896.92
477.46	16184.80
477.64	16369.71
477.82	16393.11
478.00	16683.34
478.18	16442.26
478.36	16903.35
478.54	16776.96
478.72	17142.08
478.90	17305.92
479.08	17305.92
479.26	17624.23
479.44	17701.47
479.62	17841.90
479.80	18038.51
479.98	17830.20
480.16	18452.78
480.34	18284.26
480.52	18338.10
480.70	18499.59
480.88	18340.44
481.06	18649.39
481.24	18661.09
481.41	18965.36
481.59	19049.62
481.77	19213.46
481.95	19105.79
482.13	19491.98
482.31	19625.39
482.49	20343.94
482.67	19990.52
482.85	20343.94
483.03	20496.07
483.21	20372.02
483.39	20877.58
483.57	20638.84
483.74	20980.56
483.92	21537.61
484.10	20900.98
484.28	21413.56
484.46	21507.18
484.64	22019.76
484.82	21694.43
485.00	22155.51
485.18	22668.09
485.35	22831.93
485.53	22717.24
485.71	22984.06
485.89	23360.89
486.07	23058.96
486.25	23309.40
486.43	23307.05
486.61	23716.65
486.78	23796.23
486.96	24009.22
487.14	24311.14
487.32	24318.17
487.50	24514.77
487.68	24788.61
487.85	25130.33
488.03	25001.60
488.21	25645.25
488.39	25891.01
488.57	25912.07
488.75	25678.02
488.92	26160.17
489.10	26230.38
489.28	26536.99
489.46	26848.29
489.64	26813.18
489.81	27468.53
489.99	27236.81
490.17	27522.36
490.35	27974.08
490.53	27971.74
490.70	28009.19
490.88	27789.18
491.06	28444.53
491.24	28954.77
491.41	28732.42
491.59	29453.30
491.77	29284.78
491.95	29163.08
492.13	29411.17
492.30	29937.79
492.48	29748.21
492.66	29518.84
492.84	30188.23
493.01	30588.46
493.19	30279.51
493.37	30904.43
493.54	30944.22
493.72	31002.74
493.90	31143.17
494.08	31360.84
494.25	31789.16
494.43	31796.18
494.61	31866.39
494.79	32119.17
494.96	32165.98
495.14	32418.76
495.32	32900.91
495.49	32816.65
495.67	32807.29
495.85	33366.68
496.02	33846.49
496.20	33741.16
496.38	33200.50
496.55	34232.68
496.73	34455.03
496.91	34752.27
497.09	34836.53
497.26	34792.06
497.44	34843.56
497.62	34822.49
497.79	34958.24
497.97	35157.19
498.14	35620.61
498.32	35882.75
498.50	35470.82
498.67	35945.95
498.85	35959.99
499.03	36341.50
499.20	36301.71
499.38	36772.16
499.56	36744.07
499.73	36650.45
499.91	37326.86
500.08	37041.32
500.26	37184.09
500.44	37106.85
500.61	37251.97
500.79	37462.61
500.97	37904.98
501.14	38281.80
501.32	37813.70
501.49	38352.02
501.67	38497.13
501.84	38672.67
502.02	38600.12
502.20	38803.74
502.37	38902.04
502.55	38520.54
502.72	39185.25
502.90	39311.64
503.07	39297.59
503.25	39594.84
503.43	39510.58
503.60	39959.97
503.78	39840.60
503.95	40149.55
504.13	39934.22
504.30	40243.17
504.48	40334.45
504.65	40266.58
504.83	40612.98
505.01	40935.97
505.18	40802.56
505.36	41289.39
505.53	41296.41
505.71	41223.86
505.88	41254.28
506.06	41244.92
506.23	42052.41
506.41	41074.06
506.58	41567.91
506.76	41944.74
506.93	42124.96
507.11	42157.73
507.28	42157.73
507.46	42141.35
507.63	42740.52
507.81	43063.52
507.98	42508.81
508.16	42663.28
508.33	43084.58
508.50	43419.28
508.68	43173.52
508.85	43496.52
509.03	43438.00
509.20	43660.35
509.38	43786.74
509.55	43863.98
509.73	44348.47
509.90	44666.78
510.08	44385.92
510.25	44638.70
510.42	44105.06
510.60	44720.62
510.77	45022.54
510.95	45172.34
511.12	44825.94
511.30	44893.82
511.47	44758.06
511.64	45518.74
511.82	45291.71
511.99	45794.92
512.17	45476.61
512.34	45750.45
512.51	45965.78
512.69	46143.66
512.86	46518.15
513.04	46281.75
513.21	46330.90
513.38	46143.66
513.56	46588.36
513.73	46845.82
513.90	46845.82
514.08	46700.71
514.25	46962.85
514.43	47620.54
514.60	47058.81
514.77	46969.87
514.95	47604.16
515.12	47232.01
515.29	47241.37
515.47	47838.21
515.64	47838.21
515.81	47442.66
515.99	48037.16
516.16	47894.38
516.33	48025.45
516.51	48341.42
516.68	48484.20
516.85	48320.36
517.03	48662.08
517.20	48322.70
517.37	48734.63
517.54	48753.36
517.72	48381.21
517.89	48680.80
518.06	48900.81
518.24	48872.73
518.41	48919.54
518.58	48739.32
518.75	48732.29
518.93	49270.62
519.10	49303.38
519.27	49371.26
519.45	49336.15
519.62	49528.08
519.79	49794.90
519.96	49813.62
520.14	50124.91
520.31	49708.30
520.48	50164.70
520.65	50178.75
520.83	50141.30
521.00	50480.67
521.17	50071.08
521.34	50403.44
521.52	50429.18
521.69	50356.63
521.86	50532.17
522.03	50885.59
522.20	51140.71
522.38	51337.31
522.55	51072.83
522.72	50857.50
522.89	50845.80
523.07	51313.90
523.24	50918.35
523.41	51309.22
523.58	51161.77
523.75	51707.12
523.92	51444.98
524.10	51454.34
524.27	51842.87
524.44	51662.64
524.61	51847.55
524.78	51948.19
524.96	51934.15
525.13	52081.60
525.30	51955.21
525.47	52315.65
525.64	52200.97
525.81	52942.92
525.98	52467.79
526.16	52325.02
526.33	52322.68
526.50	52650.35
526.67	52479.49
526.84	52671.42
527.01	52769.72
527.18	52626.95
527.36	52921.85
527.53	52715.89
527.70	53251.87
527.87	53102.07
528.04	52879.72
528.21	53174.63
528.38	52884.40
528.55	53289.32
528.72	53205.06
528.89	53097.39
529.07	53064.63
529.24	53090.37
529.41	53249.53
529.58	53497.62
529.75	53418.05
529.92	53673.16
530.09	53411.02
530.26	53340.81
530.43	53588.91
530.60	53654.44
530.77	53724.66
530.94	54185.74
531.11	53499.97
531.28	53975.09
531.46	53785.51
531.63	54066.38
531.80	53965.73
531.97	54108.50
532.14	54391.71
532.31	54262.98
532.48	54333.20
532.65	54424.48
532.82	54403.41
532.99	54436.18
533.16	54293.41
533.33	54438.52
533.50	54663.21
533.67	54574.27
533.84	54485.33
534.01	54562.57
534.18	54955.78
534.35	55084.51
534.52	54918.33
534.69	54976.84
534.86	55065.78
535.03	54803.64
535.20	55103.23
535.37	55037.70
535.54	55056.42
535.71	54979.18
535.88	55320.90
536.05	55213.24
536.22	55206.22
536.38	55344.31
536.55	55372.39
536.72	55372.39
536.89	55241.32
537.06	55269.41
537.23	55508.14
537.40	55381.76
537.57	55583.04
537.74	55487.08
537.91	55718.79
538.08	55370.05
538.25	55503.46
538.42	55580.70
538.59	55973.91
538.75	55683.69
538.92	55957.53
539.09	55962.21
539.26	56046.47
539.43	55770.28
539.60	55906.04
539.77	56177.54
539.94	56121.37
540.11	56135.41
540.28	56058.17
540.44	56229.03
540.61	56179.88
540.78	55873.27
540.95	56095.62
541.12	56247.75
541.29	56158.81
541.46	56371.80
541.62	56243.07
541.79	56217.33
541.96	56327.33
542.13	56435.00
542.30	56346.06
542.47	56669.05
542.63	56708.84
542.80	56582.45
542.97	56797.78
543.14	57169.93
543.31	57167.58
543.48	56844.59
543.64	57179.29
543.81	57279.93
543.98	57134.82
544.15	57116.09
544.32	57193.33
544.48	57446.11
544.65	56942.89
544.82	57116.09
544.99	57080.98
545.16	57338.44
545.32	57221.42
545.49	57509.30
545.66	57357.17
545.83	57258.87
546.00	57586.54
546.16	57378.23
546.33	57453.13
546.50	57160.56
546.67	57490.58
546.83	57216.74
547.00	57652.08
547.17	57415.68
547.34	57476.54
547.50	57804.21
547.67	57890.81
547.84	57914.22
548.00	57886.13
548.17	57907.19
548.34	57954.00
548.51	58155.29
548.67	57858.04
548.84	57874.43
549.01	57918.90
549.18	57942.30
549.34	58052.31
549.51	58014.86
549.68	58211.46
549.84	58178.70
550.01	58071.03
550.18	58014.86
550.34	58145.93
550.51	58372.96
550.68	58330.83
550.84	58129.54
551.01	58379.98
551.18	58260.62
551.34	58288.70
551.51	58405.73
551.68	58412.75
551.84	58031.24
552.01	58464.24
552.18	58480.63
552.34	58281.68
552.51	58625.74
552.68	58129.54
552.84	58478.28
553.01	58749.79
553.18	58684.25
553.34	58555.52
553.51	58775.53
553.67	58660.85
553.84	58733.40
554.01	58607.01
554.17	58990.86
554.34	58897.24
554.51	58768.51
554.67	58775.53
554.84	58728.72
555.00	58763.83
555.17	58717.02
555.33	58962.78
555.50	58651.48
555.67	58948.73
555.83	58789.58
556.00	58784.90
556.16	59117.25
556.33	59114.91
556.50	59028.31
556.66	59126.61
556.83	58951.07
556.99	59398.12
557.16	59365.35
557.32	59393.43
557.49	59213.21
557.65	59035.33
557.82	59269.39
557.98	59302.15
558.15	59430.88
558.32	59224.92
558.48	59309.18
558.65	59119.59
558.81	59241.30
558.98	59264.70
559.14	59456.63
559.31	59171.08
559.47	59519.82
559.64	59461.31
559.80	59536.21
559.97	59587.70
560.13	59503.44
560.30	59435.56
560.46	59524.50
560.63	59597.06
560.79	59620.47
560.96	59620.47
561.12	59690.68
561.29	59597.06
561.45	59405.14
561.61	59529.19
561.78	59716.43
561.94	59618.13
562.11	59536.21
562.27	59751.54
562.44	59683.66
562.60	59821.75
562.77	59894.31
562.93	59763.24
563.10	59901.33
563.26	59393.43
563.42	60100.28
563.59	59824.09
563.75	59819.41
563.92	59758.56
564.08	59763.24
564.24	60076.87
564.41	59948.14
564.57	59709.41
564.74	59980.91
564.90	59896.65
565.07	59910.69
565.23	59910.69
565.39	59906.01
565.56	60193.90
565.72	59847.50
565.88	59992.61
566.05	59943.46
566.21	60009.00
566.38	60081.55
566.54	60090.91
566.70	60367.10
566.87	60296.88
567.03	60126.02
567.19	60119.00
567.36	60133.04
567.52	59957.50
567.68	60402.21
567.85	60233.69
568.01	60128.36
568.17	60093.25
568.34	60336.67
568.50	60177.51
568.66	60329.65
568.83	60287.52
568.99	60189.22
569.15	60245.39
569.32	60196.24
569.48	60151.77
569.64	60378.80
569.81	60189.22
569.97	60079.21
570.13	60233.69
570.30	60154.11
570.46	60137.72
570.62	60184.54
570.78	60280.50
570.95	60427.95
571.11	60320.29
571.27	60353.05
571.43	60346.03
571.60	60296.88
571.76	60378.80
571.92	60547.32
572.09	60423.27
572.25	60362.42
572.41	60495.83
572.57	60402.21
572.74	60596.47
572.90	60303.90
573.06	60605.83
573.22	60362.42
573.38	60626.90
573.55	60463.06
573.71	60624.56
573.87	60488.80
574.03	60402.21
574.20	60622.22
574.36	60449.02
574.52	60732.22
574.68	60673.71
574.84	60596.47
575.01	60608.17
575.17	60748.60
575.33	60491.15
575.49	60245.39
575.65	60598.81
575.82	60669.03
575.98	60687.75
576.14	60669.03
576.30	60526.25
576.46	60626.90
576.62	60465.40
576.79	60505.19
576.95	60509.87
577.11	60701.79
577.27	60779.03
577.43	60505.19
577.59	60631.58
577.75	60659.66
577.92	60500.51
578.08	60767.33
578.24	60678.39
578.40	60870.31
578.56	60816.48
578.72	60582.43
578.88	60629.24
579.04	60732.22
579.21	60823.50
579.37	60942.87
579.53	60828.18
579.69	60463.06
579.85	60458.38
580.01	60552.00
580.17	60640.94
580.33	60706.47
580.49	60814.14
580.65	60662.00
580.82	60608.17
580.98	60484.12
581.14	60774.35
581.30	60809.46
581.46	60757.97
581.62	60673.71
581.78	60650.30
581.94	60643.28
582.10	60577.75
582.26	60851.59
582.42	60633.92
582.58	60746.26
582.74	60823.50
582.90	60797.76
583.06	60701.79
583.22	60552.00
583.38	60624.56
583.54	60603.49
583.70	60570.72
583.86	60584.77
584.02	60687.75
584.18	60910.10
584.34	60835.20
584.50	60760.31
584.66	60662.00
584.82	60687.75
584.98	61015.43
585.14	60961.59
585.30	60715.84
585.46	60790.73
585.62	60720.52
585.78	60956.91
585.94	60526.25
586.10	60795.42
586.26	60905.42
586.42	60839.89
586.58	60938.19
586.74	60736.90
586.90	60870.31
587.06	60931.17
587.22	61104.37
587.38	60870.31
587.54	60912.44
587.70	60999.04
587.86	60996.70
588.02	60781.37
588.18	61090.32
588.34	60914.78
588.49	60874.99
