SpectraSuite Data File
++++++++++++++++++++++++++++++++++++
Date: Fri Oct 25 11:33:17 EDT 2013
User: price-jones
Dark Spectrum Present: No
Reference Spectrum Present: No
Number of Sampled Component Spectra: 1
Spectrometers: USB2+H05261
Integration Time (usec): 100000 (USB2+H05261)
Spectra Averaged: 1 (USB2+H05261)
Boxcar Smoothing: 0 (USB2+H05261)
Correct for Electrical Dark: No (USB2+H05261)
Strobe/Lamp Enabled: No (USB2+H05261)
Correct for Detector Non-linearity: No (USB2+H05261)
Correct for Stray Light: No (USB2+H05261)
Number of Pixels in Processed Spectrum: 2048
>>>>>Begin Processed Spectral Data<<<<<
365.73	311.29
365.92	311.29
366.12	311.29
366.32	175.54
366.52	173.20
366.72	224.69
366.91	198.95
367.11	208.31
367.31	208.31
367.51	166.18
367.70	215.33
367.90	189.58
368.10	198.95
368.30	131.07
368.49	182.56
368.69	203.63
368.89	222.35
369.09	198.95
369.28	177.88
369.48	184.90
369.68	191.92
369.87	259.80
370.07	243.42
370.27	297.25
370.47	318.31
370.66	461.09
370.86	500.87
371.06	550.03
371.25	622.58
371.45	514.92
371.65	545.34
371.84	503.22
372.04	547.69
372.24	559.39
372.44	606.20
372.63	613.22
372.83	547.69
373.03	601.52
373.22	592.16
373.42	578.11
373.62	582.79
373.81	580.45
374.01	662.37
374.21	645.99
374.40	667.05
374.60	657.69
374.79	653.01
374.99	634.29
375.19	627.26
375.38	660.03
375.58	608.54
375.78	603.86
375.97	660.03
376.17	683.44
376.37	711.52
376.56	690.46
376.76	706.84
376.95	713.86
377.15	723.23
377.35	636.63
377.54	758.33
377.74	688.12
377.93	631.94
378.13	720.88
378.33	732.59
378.52	711.52
378.72	753.65
378.91	737.27
379.11	711.52
379.31	702.16
379.50	690.46
379.70	718.54
379.89	727.91
380.09	732.59
380.28	676.41
380.48	713.86
380.68	711.52
380.87	711.52
381.07	755.99
381.26	730.25
381.46	772.38
381.65	866.00
381.85	706.84
382.04	765.36
382.24	798.12
382.43	805.14
382.63	704.50
382.83	779.40
383.02	795.78
383.22	819.19
383.41	786.42
383.61	788.76
383.80	830.89
384.00	863.66
384.19	793.44
384.39	840.25
384.58	730.25
384.78	816.85
384.97	880.04
385.17	828.55
385.36	786.42
385.56	744.29
385.75	828.55
385.95	868.34
386.14	912.81
386.34	866.00
386.53	894.08
386.72	772.38
386.92	882.38
387.11	908.13
387.31	816.85
387.50	912.81
387.70	863.66
387.89	952.60
388.09	894.08
388.28	912.81
388.48	917.49
388.67	940.90
388.86	954.94
389.06	1046.22
389.25	931.53
389.45	952.60
389.64	947.92
389.84	917.49
390.03	1018.13
390.22	1027.50
390.42	950.26
390.61	917.49
390.81	1013.45
391.00	1025.15
391.19	1071.97
391.39	1022.81
391.58	1102.39
391.78	1025.15
391.97	1093.03
392.16	936.21
392.36	1027.50
392.55	1069.62
392.75	1022.81
392.94	1048.56
393.13	1060.26
393.33	1064.94
393.52	1139.84
393.71	1090.69
393.91	1013.45
394.10	1111.75
394.29	1179.63
394.49	1074.31
394.68	1130.48
394.88	1130.48
395.07	1163.25
395.26	1156.22
395.46	1179.63
395.65	1205.38
395.84	1172.61
396.04	1221.76
396.23	1193.67
396.42	1191.33
396.62	1219.42
396.81	1151.54
397.00	1231.12
397.19	1177.29
397.39	1259.21
397.58	1252.19
397.77	1224.10
397.97	1254.53
398.16	1291.98
398.35	1329.42
398.55	1289.64
398.74	1282.61
398.93	1303.68
399.12	1284.95
399.32	1301.34
399.51	1350.49
399.70	1343.47
399.90	1341.13
400.09	1261.55
400.28	1460.49
400.47	1373.89
400.67	1474.54
400.86	1401.98
401.05	1385.60
401.24	1460.49
401.44	1535.39
401.63	1446.45
401.82	1551.78
402.01	1488.58
402.21	1406.66
402.40	1350.49
402.59	1486.24
402.78	1528.37
402.97	1586.88
403.17	1593.90
403.36	1659.44
403.55	1493.26
403.74	1526.03
403.93	1537.73
404.13	1629.01
404.32	1591.56
404.51	1572.84
404.70	1598.59
404.89	1624.33
405.09	1593.90
405.28	1652.42
405.47	1617.31
405.66	1661.78
405.85	1643.06
406.05	1645.40
406.24	1781.15
406.43	1788.17
406.62	1856.04
406.81	1825.62
407.00	1790.51
407.20	1729.66
407.39	1825.62
407.58	1823.28
407.77	1998.82
407.96	1874.77
408.15	1886.47
408.34	1832.64
408.54	1970.73
408.73	1961.37
408.92	1928.60
409.11	1884.13
409.30	2031.58
409.49	1923.92
409.68	2043.29
409.87	2052.65
410.07	1977.75
410.26	1973.07
410.45	2010.52
410.64	2073.71
410.83	2101.80
411.02	2122.87
411.21	2195.42
411.40	2132.23
411.59	2230.53
411.78	2188.40
411.98	2284.36
412.17	2352.24
412.36	2272.66
412.55	2188.40
412.74	2368.62
412.93	2403.73
413.12	2244.57
413.31	2363.94
413.50	2509.05
413.69	2511.39
413.88	2480.97
414.07	2373.30
414.26	2480.97
414.45	2675.23
414.64	2525.44
414.83	2532.46
415.02	2537.14
415.22	2747.79
415.41	2780.56
415.60	2764.17
415.79	2729.06
415.98	2726.72
416.17	2766.51
416.36	2794.60
416.55	2778.22
416.74	2794.60
416.93	2789.92
417.12	2775.88
417.31	2853.11
417.50	2979.50
417.69	3000.57
417.88	3066.10
418.07	2928.01
418.26	2979.50
418.45	3145.68
418.64	3073.12
418.83	3087.17
419.02	3091.85
419.21	3066.10
419.39	3068.44
419.58	3075.46
419.77	3136.32
419.96	3126.96
420.15	3197.17
420.34	3187.81
420.53	3215.90
420.72	3227.60
420.91	3185.47
421.10	3274.41
421.29	3398.46
421.48	3267.39
421.67	3346.97
421.86	3417.18
422.05	3276.75
422.24	3314.20
422.43	3442.93
422.61	3365.69
422.80	3529.53
422.99	3344.63
423.18	3421.86
423.37	3382.07
423.56	3410.16
423.75	3442.93
423.94	3377.39
424.13	3265.05
424.32	3279.09
424.50	3473.36
424.69	3452.29
424.88	3513.14
425.07	3382.07
425.26	3363.35
425.45	3442.93
425.64	3482.72
425.83	3492.08
426.01	3503.78
426.20	3585.70
426.39	3449.95
426.58	3478.04
426.77	3485.06
426.96	3524.85
427.15	3658.26
427.33	3651.24
427.52	3566.98
427.71	3693.37
427.90	3564.64
428.09	3747.20
428.28	3702.73
428.46	3627.83
428.65	3700.39
428.84	3915.72
429.03	3941.46
429.22	3716.77
429.40	3758.90
429.59	3758.90
429.78	3712.09
429.97	3786.99
430.16	3880.61
430.34	3838.48
430.53	3997.64
430.72	3894.65
430.91	3934.44
431.10	3880.61
431.28	4067.85
431.47	3880.61
431.66	4035.08
431.85	3997.64
432.03	4051.47
432.22	4262.12
432.41	4072.53
432.60	4114.66
432.79	4173.18
432.97	4224.67
433.16	4121.68
433.35	4198.92
433.54	4084.23
433.72	4224.67
433.91	4245.73
434.10	4227.01
434.28	4266.80
434.47	4217.65
434.66	4376.80
434.85	4416.59
435.03	4374.46
435.22	4416.59
435.41	4456.38
435.59	4322.97
435.78	4519.57
435.97	4550.00
436.16	4367.44
436.34	4550.00
436.53	4741.93
436.72	4692.77
436.90	4603.83
437.09	4559.36
437.28	4447.02
437.46	4554.68
437.65	4657.67
437.84	4627.24
438.02	4695.11
438.21	4585.11
438.40	4606.17
438.58	4795.76
438.77	4802.78
438.96	4786.40
439.14	4889.38
439.33	4849.59
439.52	4905.76
439.70	4926.83
439.89	4952.57
440.08	5109.39
440.26	5142.16
440.45	5203.01
440.63	5097.69
440.82	5259.18
441.01	5195.99
441.19	5406.64
441.38	5245.14
441.57	5385.57
441.75	5497.92
441.94	5394.93
442.12	5497.92
442.31	5394.93
442.50	5371.53
442.68	5476.85
442.87	5490.90
443.05	5537.71
443.24	5502.60
443.43	5502.60
443.61	5640.69
443.80	5841.98
443.98	5437.06
444.17	5327.06
444.35	5776.44
444.54	5734.31
444.73	5631.33
444.91	5586.86
445.10	5682.82
445.28	5481.53
445.47	5643.03
445.65	5706.23
445.84	5858.36
446.02	5678.14
446.21	5792.83
446.39	5650.05
446.58	5804.53
446.77	5682.82
446.95	5729.63
447.14	5830.27
447.32	5755.38
447.51	5839.64
447.69	5720.27
447.88	5738.99
448.06	5792.83
448.25	5930.92
448.43	5832.62
448.62	5813.89
448.80	5874.74
448.99	5853.68
449.17	5977.73
449.36	6040.92
449.54	6115.82
449.73	6207.10
449.91	6076.03
450.10	6083.05
450.28	6106.46
450.46	6136.88
450.65	6384.98
450.83	6242.21
451.02	6136.88
451.20	6300.72
451.39	6342.85
451.57	6134.54
451.76	6183.70
451.94	6207.10
452.13	6368.60
452.31	6340.51
452.49	6125.18
452.68	6359.24
452.86	6504.35
453.05	6548.82
453.23	6438.81
453.42	6462.22
453.60	6389.66
453.78	6595.63
453.97	6399.02
454.15	6368.60
454.34	6370.94
454.52	6565.20
454.70	6623.72
454.89	6722.02
455.07	6738.40
455.26	6696.27
455.44	6775.85
455.62	6927.99
455.81	6892.88
455.99	6773.51
456.17	6817.98
456.36	6780.53
456.54	6827.34
456.73	7054.37
456.91	7119.91
457.09	7084.80
457.28	7169.06
457.46	7035.65
457.64	7274.38
457.83	7110.55
458.01	7023.95
458.19	7180.76
458.38	7169.06
458.56	7176.08
458.74	7229.91
458.93	7155.02
459.11	7171.40
459.29	7344.60
459.48	7232.26
459.66	7304.81
459.84	7335.24
460.03	7571.63
460.21	7492.05
460.39	7344.60
460.57	7426.52
460.76	7487.37
460.94	7662.91
461.12	7667.60
461.31	7728.45
461.49	7571.63
461.67	7655.89
461.85	7611.42
462.04	7679.30
462.22	7969.52
462.40	7920.37
462.59	7824.41
462.77	7847.82
462.95	7854.84
463.13	7765.90
463.32	7915.69
463.50	7868.88
463.68	8088.89
463.86	7988.25
464.05	7922.71
464.23	7941.44
464.41	8142.72
464.59	7927.39
464.78	8131.02
464.96	8060.80
465.14	8086.55
465.32	8222.30
465.50	8194.22
465.69	8114.64
465.87	8346.35
466.05	8222.30
466.23	8245.71
466.41	8376.78
466.60	8557.00
466.78	8273.79
466.96	7997.61
467.14	8379.12
467.32	8308.90
467.51	8657.64
467.69	8203.58
467.87	8322.94
468.05	8596.79
468.23	8358.05
468.41	8477.42
468.60	8465.72
468.78	8535.93
468.96	8568.70
469.14	8573.38
469.32	8959.57
469.50	8526.57
469.69	8887.01
469.87	9109.36
470.05	8748.92
470.23	8929.14
470.41	9088.30
470.59	8954.89
470.77	9011.06
470.95	9027.45
471.14	9081.28
471.32	8779.35
471.50	8936.17
471.68	9130.43
471.86	9177.24
472.04	9240.44
472.22	9364.48
472.40	9231.07
472.58	9301.29
472.77	9540.02
472.95	9509.60
473.13	9771.74
473.31	9378.53
473.49	9518.96
473.67	9671.09
473.85	9687.48
474.03	9919.19
474.21	9827.91
474.39	9788.12
474.57	9717.90
474.75	9930.89
474.93	9966.00
475.12	9991.75
475.30	9851.31
475.48	10221.12
475.66	10115.80
475.84	10073.67
476.02	10253.89
476.20	10214.10
476.38	10464.54
476.56	10665.82
476.74	10637.73
476.92	10410.70
477.10	10740.72
477.28	10752.42
477.46	10513.69
477.64	10839.02
477.82	11185.42
478.00	11318.83
478.18	11229.89
478.36	11056.69
478.54	11520.12
478.72	11377.34
478.90	11812.68
479.08	11758.85
479.26	11676.93
479.44	11843.11
479.62	11817.36
479.80	12072.48
479.98	12226.96
480.16	12152.06
480.34	12219.94
480.52	12662.30
480.70	12493.78
480.88	12283.13
481.06	12664.64
481.24	12699.75
481.41	12636.55
481.59	12954.87
481.77	13149.13
481.95	12978.27
482.13	13064.87
482.31	13041.46
482.49	13586.81
482.67	13465.10
482.85	13565.74
483.03	13582.13
483.21	13701.50
483.39	13968.32
483.57	14094.71
483.74	14249.18
483.92	14113.43
484.10	14104.07
484.28	14567.49
484.46	14511.32
484.64	14871.76
484.82	14551.11
485.00	14696.22
485.18	15080.07
485.35	15154.97
485.53	15269.66
485.71	15295.40
485.89	15405.41
486.07	15683.93
486.25	15351.57
486.43	15864.15
486.61	16182.46
486.78	15819.68
486.96	15925.00
487.14	16390.77
487.32	16681.00
487.50	16301.83
487.68	16690.36
487.85	16615.46
488.03	16966.54
488.21	17326.99
488.39	17102.29
488.57	17303.58
488.75	17348.05
488.92	17198.26
489.10	17638.28
489.28	17759.98
489.46	17923.82
489.64	18026.81
489.81	18410.65
489.99	18274.90
490.17	18565.13
490.35	18546.40
490.53	18806.20
490.70	18888.12
490.88	18647.05
491.06	19129.20
491.24	19225.16
491.41	19276.65
491.59	19370.27
491.77	19414.74
491.95	19321.12
492.13	19754.12
492.30	20009.24
492.48	19803.27
492.66	19971.79
492.84	20306.49
493.01	20585.01
493.19	20287.76
493.37	20655.23
493.54	20374.36
493.72	20720.76
493.90	21027.37
494.08	21064.82
494.25	21350.37
494.43	21057.80
494.61	21418.24
494.79	21621.87
494.96	21401.86
495.14	21507.18
495.32	22160.19
495.49	21862.94
495.67	22125.08
495.85	22087.64
496.02	22403.61
496.20	22675.11
496.38	22684.47
496.55	22427.01
496.73	23225.14
496.91	22970.02
497.09	23281.31
497.26	23166.62
497.44	23234.50
497.62	23063.64
497.79	23620.69
497.97	23339.82
498.14	23924.96
498.32	23885.17
498.50	23700.26
498.67	24252.63
498.85	24142.63
499.03	24397.74
499.20	24435.19
499.38	24713.72
499.56	24261.99
499.73	24554.56
499.91	24954.79
500.08	24945.43
500.26	24973.52
500.44	25259.06
500.61	24961.81
500.79	25120.97
500.97	25458.01
501.14	25586.74
501.32	25628.87
501.49	25322.26
501.67	25455.67
501.84	25785.68
502.02	25745.89
502.20	25935.48
502.37	26155.49
502.55	26087.61
502.72	26228.04
502.90	26092.29
503.07	26204.64
503.25	26717.22
503.43	26457.42
503.60	26345.07
503.78	27035.53
503.95	26415.29
504.13	27140.85
504.30	26981.70
504.48	26857.65
504.65	27084.68
504.83	27548.11
505.01	27424.06
505.18	27601.94
505.36	28027.92
505.53	27475.55
505.71	27550.45
505.88	27906.21
506.06	27468.53
506.23	27887.48
506.41	28116.86
506.58	27782.16
506.76	28163.67
506.93	28306.44
507.11	28283.03
507.28	28210.48
507.46	28961.79
507.63	28599.01
507.81	28907.96
507.98	28758.16
508.16	29027.32
508.33	29078.82
508.50	29198.18
508.68	29209.89
508.85	29127.97
509.03	28776.89
509.20	29139.67
509.38	29221.59
509.55	29830.13
509.73	29453.30
509.90	29841.83
510.08	29865.24
510.25	29898.00
510.42	29820.77
510.60	30394.20
510.77	30089.93
510.95	30389.52
511.12	30352.07
511.30	30260.79
511.47	30345.05
511.64	30609.53
511.82	30656.34
511.99	30749.96
512.17	30717.19
512.34	30766.34
512.51	31077.63
512.69	31330.41
512.86	31267.22
513.04	31681.49
513.21	31377.22
513.38	31330.41
513.56	31793.84
513.73	31445.10
513.90	31583.19
514.08	31424.03
514.25	32304.07
514.43	31505.95
514.60	31758.73
514.77	32205.77
514.95	31632.34
515.12	31878.10
515.29	31969.38
515.47	32542.81
515.64	32275.99
515.81	32128.53
515.99	32603.66
516.16	32776.86
516.33	32535.79
516.51	32828.35
516.68	32362.59
516.85	33235.61
517.03	32404.72
517.20	33006.23
517.37	33102.20
517.54	32893.89
517.72	32889.21
517.89	33116.24
518.06	33390.08
518.24	32936.02
518.41	33589.03
518.58	33371.36
518.75	33280.08
518.93	33823.08
519.10	33422.85
519.27	33783.29
519.45	33935.43
519.62	33900.32
519.79	34031.39
519.96	34213.95
520.14	33640.52
520.31	33895.64
520.48	34562.69
520.65	34543.97
520.83	35274.21
521.00	34862.28
521.17	34871.64
521.34	34848.24
521.52	34754.61
521.69	34651.63
521.86	35196.98
522.03	35063.57
522.20	35391.24
522.38	35206.34
522.55	35323.36
522.72	35173.57
522.89	35330.39
523.07	35878.07
523.24	35309.32
523.41	36268.94
523.58	35147.82
523.75	35796.15
523.92	35470.82
524.10	36023.19
524.27	35955.31
524.44	35941.27
524.61	35892.12
524.78	36566.19
524.96	36329.80
525.13	36257.24
525.30	36418.74
525.47	36484.27
525.64	36524.06
525.81	36723.01
525.98	36779.18
526.16	36683.22
526.33	36914.93
526.50	37628.79
526.67	36905.57
526.84	36748.75
527.01	36507.68
527.18	37134.94
527.36	37069.40
527.53	37289.42
527.70	37745.82
527.87	37223.88
528.04	37347.93
528.21	37380.70
528.38	37556.24
528.55	37502.40
528.72	37684.97
528.89	37497.72
529.07	37287.07
529.24	37858.17
529.41	38019.66
529.58	37731.78
529.75	37968.17
529.92	38047.75
530.09	37986.89
530.26	38550.96
530.43	38785.02
530.60	37968.17
530.77	38085.20
530.94	38405.85
531.11	38019.66
531.28	38377.76
531.46	38078.18
531.63	38579.05
531.80	38445.64
531.97	38712.46
532.14	38738.21
532.31	38878.64
532.48	38628.20
532.65	39035.45
532.82	38639.90
532.99	38747.57
533.16	39288.23
533.33	39470.79
533.50	39100.99
533.67	39278.87
533.84	38836.51
534.01	39236.74
534.18	39522.29
534.35	39955.29
534.52	39716.55
534.69	39704.85
534.86	39761.02
535.03	39608.89
535.20	39536.33
535.37	39796.13
535.54	39784.43
535.71	39941.24
535.88	39810.17
536.05	40320.41
536.22	40435.10
536.38	40140.19
536.55	39765.70
536.72	40013.80
536.89	40079.33
537.06	40107.42
537.23	40341.47
537.40	40479.57
537.57	39969.33
537.74	40442.12
537.91	40535.74
538.08	40149.55
538.25	40416.37
538.42	40460.84
538.59	41345.56
538.75	40479.57
538.92	40816.60
539.09	41191.09
539.26	40957.03
539.43	41251.94
539.60	40964.06
539.77	41076.40
539.94	41460.25
540.11	41247.26
540.28	41024.91
540.44	41268.33
540.61	41205.13
540.78	41008.53
540.95	41308.11
541.12	41212.15
541.29	41450.89
541.46	41504.72
541.62	41588.98
541.79	41696.64
541.96	40989.80
542.13	41411.10
542.30	41652.17
542.47	41834.74
542.63	41673.24
542.80	42225.60
542.97	41881.55
543.14	42197.52
543.31	42555.62
543.48	41872.18
543.64	43002.66
543.81	42513.49
543.98	42665.63
544.15	42335.61
544.32	42522.85
544.48	43178.20
544.65	42679.67
544.82	42946.49
544.99	42323.91
545.16	42749.88
545.32	42803.72
545.49	42827.12
545.66	43110.33
545.83	43210.97
546.00	43192.25
546.16	43222.67
546.33	42569.66
546.50	42403.49
546.67	43288.21
546.83	43105.65
547.00	43416.94
547.17	42906.70
547.34	43014.37
547.50	43358.42
547.67	43353.74
547.84	43728.23
548.00	43552.69
548.17	43732.91
548.34	44088.67
548.51	43526.94
548.67	43405.23
548.84	43578.43
549.01	43555.03
549.18	43749.29
549.34	43976.33
549.51	43927.17
549.68	44081.65
549.84	43498.86
550.01	43358.42
550.18	44259.53
550.34	43824.19
550.51	43931.86
550.68	44151.87
550.84	43856.96
551.01	44311.02
551.18	44161.23
551.34	43615.88
551.51	44439.75
551.68	44257.19
551.84	44086.33
552.01	43845.26
552.18	43931.86
552.34	44266.55
552.51	44502.95
552.68	44425.71
552.84	44009.09
553.01	44734.66
553.18	44650.40
553.34	44657.42
553.51	44196.34
553.67	44451.45
553.84	44577.84
554.01	45209.79
554.17	44870.41
554.34	44804.88
554.51	44744.02
554.67	45343.20
554.84	44954.67
555.00	45240.21
555.17	44807.22
555.33	45235.53
555.50	44966.37
555.67	45249.58
555.83	45432.14
556.00	45354.90
556.16	45294.05
556.33	45265.96
556.50	45172.34
556.66	44959.35
556.83	45071.70
556.99	46054.72
557.16	45691.94
557.32	45528.10
557.49	45296.39
557.65	45223.83
557.82	45284.68
557.98	45869.82
558.15	45514.06
558.32	45698.96
558.48	45464.91
558.65	45764.49
558.81	45900.25
558.98	45394.69
559.14	45516.40
559.31	45567.89
559.47	45677.90
559.64	45790.24
559.80	45652.15
559.97	45991.53
560.13	45535.12
560.30	46094.51
560.46	46281.75
560.63	45886.20
560.79	46113.23
560.96	46543.89
561.12	46490.06
561.29	46174.09
561.45	46010.25
561.61	46024.29
561.78	45785.56
561.94	45743.43
562.11	46321.54
562.27	46356.65
562.44	45916.63
562.60	46040.68
562.77	46356.65
562.93	46094.51
563.10	46953.49
563.26	46302.82
563.42	46459.63
563.59	46218.56
563.75	46223.24
563.92	46562.62
564.08	46148.34
564.24	46670.28
564.41	46382.40
564.57	46752.20
564.74	46230.26
564.90	46246.65
565.07	46279.41
565.23	46227.92
565.39	46600.07
565.56	46705.39
565.72	46672.62
565.88	46859.87
566.05	46410.48
566.21	46068.76
566.38	46461.97
566.54	46440.91
566.70	46894.97
566.87	46546.23
567.03	46454.95
567.19	46838.80
567.36	46384.74
567.52	46820.08
567.68	46850.50
567.85	46656.24
568.01	46990.94
568.17	46665.60
568.34	47051.79
568.50	47079.88
568.66	46674.96
568.83	46997.96
568.99	46880.93
569.15	46955.83
569.32	46373.03
569.48	46738.16
569.64	46789.65
569.81	47386.49
569.97	47016.68
570.13	47232.01
570.30	46827.10
570.46	47227.33
570.62	46789.65
570.78	47452.02
570.95	46852.84
571.11	47243.71
571.27	46642.20
571.43	46553.26
571.60	47484.79
571.76	46532.19
571.92	47194.56
572.09	47278.82
572.25	46735.82
572.41	47697.78
572.57	47281.16
572.74	47538.62
572.90	47208.61
573.06	47285.84
573.22	47260.10
573.38	47257.76
573.55	47379.46
573.71	47753.95
573.87	47562.03
574.03	47122.01
574.20	47800.76
574.36	47337.33
574.52	47606.50
574.68	47648.63
574.84	47805.44
575.01	47430.96
575.17	47583.09
575.33	47096.26
575.49	47023.70
575.65	47526.92
575.82	47643.94
575.98	47384.15
576.14	47578.41
576.30	47496.49
576.46	47426.28
576.62	47297.55
576.79	47192.22
576.95	47075.19
577.11	46965.19
577.27	47304.57
577.43	47494.15
577.59	47618.20
577.75	47402.87
577.92	46953.49
578.08	47515.22
578.24	47386.49
578.40	47583.09
578.56	47519.90
578.72	47810.12
578.88	47845.23
579.04	47767.99
579.21	47175.84
579.37	47583.09
579.53	47896.72
579.69	47742.25
579.85	47435.64
580.01	47299.89
580.17	47625.22
580.33	47835.87
580.49	47870.98
580.65	47777.36
580.82	47594.79
580.98	47182.86
581.14	47384.15
581.30	47562.03
581.46	47248.39
581.62	47356.06
581.78	47058.81
581.94	47475.43
582.10	47786.72
582.26	47807.78
582.42	47662.67
582.58	48385.89
582.74	47562.03
582.90	47585.43
583.06	47498.83
583.22	47737.57
583.38	47772.67
583.54	47821.83
583.70	47922.47
583.86	48027.79
584.02	47480.11
584.18	48193.97
584.34	47819.49
584.50	47798.42
584.66	47639.26
584.82	47632.24
584.98	48287.59
585.14	48238.44
585.30	47847.57
585.46	48044.18
585.62	47868.64
585.78	47728.20
585.94	47585.43
586.10	48098.01
586.26	47203.92
586.42	47437.98
586.58	48182.27
586.74	47964.60
586.90	47859.27
587.06	47669.69
587.22	47983.32
587.38	47854.59
587.54	48161.20
587.70	47735.23
587.86	48044.18
588.02	47831.19
588.18	47927.15
588.34	47459.04
588.49	47868.64
588.65	47674.37
588.81	48081.63
588.97	48336.74
589.13	47824.17
589.29	48002.05
589.45	48428.02
589.61	48149.50
589.77	48034.81
589.93	48041.84
