SpectraSuite Data File
++++++++++++++++++++++++++++++++++++
Date: Fri Oct 25 11:34:16 EDT 2013
User: price-jones
Dark Spectrum Present: No
Reference Spectrum Present: No
Number of Sampled Component Spectra: 1
Spectrometers: USB2+H05261
Integration Time (usec): 100000 (USB2+H05261)
Spectra Averaged: 1 (USB2+H05261)
Boxcar Smoothing: 0 (USB2+H05261)
Correct for Electrical Dark: No (USB2+H05261)
Strobe/Lamp Enabled: No (USB2+H05261)
Correct for Detector Non-linearity: No (USB2+H05261)
Correct for Stray Light: No (USB2+H05261)
Number of Pixels in Processed Spectrum: 2048
>>>>>Begin Processed Spectral Data<<<<<
365.73	271.50
365.92	271.50
366.12	271.50
366.32	215.33
366.52	191.92
366.72	196.60
366.91	210.65
367.11	149.79
367.31	128.73
367.51	231.71
367.70	124.05
367.90	173.20
368.10	140.43
368.30	131.07
368.49	208.31
368.69	238.73
368.89	205.97
369.09	187.24
369.28	154.48
369.48	198.95
369.68	173.20
369.87	287.89
370.07	220.01
370.27	315.97
370.47	372.15
370.66	451.72
370.86	433.00
371.06	528.96
371.25	547.69
371.45	566.41
371.65	571.09
371.84	526.62
372.04	510.24
372.24	622.58
372.44	540.66
372.63	608.54
372.83	627.26
373.03	568.75
373.22	552.37
373.42	545.34
373.62	699.82
373.81	620.24
374.01	669.39
374.21	674.07
374.40	634.29
374.60	664.71
374.79	676.41
374.99	655.35
375.19	706.84
375.38	631.94
375.58	690.46
375.78	648.33
375.97	671.73
376.17	732.59
376.37	734.93
376.56	688.12
376.76	702.16
376.95	587.47
377.15	711.52
377.35	688.12
377.54	788.76
377.74	655.35
377.93	641.31
378.13	702.16
378.33	744.29
378.52	648.33
378.72	727.91
378.91	711.52
379.11	713.86
379.31	744.29
379.50	718.54
379.70	723.23
379.89	720.88
380.09	746.63
380.28	664.71
380.48	723.23
380.68	608.54
380.87	702.16
381.07	751.31
381.26	763.01
381.46	638.97
381.65	763.01
381.85	723.23
382.04	784.08
382.24	739.61
382.43	781.74
382.63	730.25
382.83	690.46
383.02	779.40
383.22	875.36
383.41	748.97
383.61	795.78
383.80	802.80
384.00	748.97
384.19	774.72
384.39	767.70
384.58	732.59
384.78	795.78
384.97	847.27
385.17	784.08
385.36	854.30
385.56	873.02
385.75	779.40
385.95	842.59
386.14	887.06
386.34	870.68
386.53	842.59
386.72	746.63
386.92	915.15
387.11	903.45
387.31	889.40
387.50	905.79
387.70	910.47
387.89	870.68
388.09	919.83
388.28	823.87
388.48	912.81
388.67	912.81
388.86	964.30
389.06	894.08
389.25	997.07
389.45	917.49
389.64	952.60
389.84	1057.92
390.03	931.53
390.22	889.40
390.42	891.74
390.61	910.47
390.81	908.13
391.00	961.96
391.19	978.34
391.39	905.79
391.58	924.51
391.78	1104.73
391.97	954.94
392.16	992.39
392.36	1027.50
392.55	1118.78
392.75	952.60
392.94	966.64
393.13	943.24
393.33	1137.50
393.52	992.39
393.71	1086.01
393.91	1036.86
394.10	1062.60
394.29	1029.84
394.49	1088.35
394.68	1088.35
394.88	1027.50
395.07	1121.12
395.26	1125.80
395.46	1121.12
395.65	1221.76
395.84	1163.25
396.04	1193.67
396.23	1210.06
396.42	1076.65
396.62	1167.93
396.81	1188.99
397.00	1254.53
397.19	1242.82
397.39	1226.44
397.58	1249.85
397.77	1198.35
397.97	1235.80
398.16	1322.40
398.35	1313.04
398.55	1172.61
398.74	1217.08
398.93	1261.55
399.12	1203.04
399.32	1242.82
399.51	1200.69
399.70	1266.23
399.90	1383.26
400.09	1270.91
400.28	1357.51
400.47	1371.55
400.67	1315.38
400.86	1380.92
401.05	1362.19
401.24	1392.62
401.44	1394.96
401.63	1359.85
401.82	1343.47
402.01	1357.51
402.21	1474.54
402.40	1479.22
402.59	1448.79
402.78	1430.07
402.97	1495.60
403.17	1535.39
403.36	1497.94
403.55	1589.22
403.74	1612.63
403.93	1600.93
404.13	1591.56
404.32	1596.25
404.51	1575.18
404.70	1586.88
404.89	1619.65
405.09	1584.54
405.28	1577.52
405.47	1633.69
405.66	1692.21
405.85	1732.00
406.05	1631.35
406.24	1748.38
406.43	1678.16
406.62	1734.34
406.81	1769.44
407.00	1717.95
407.20	1664.12
407.39	1795.19
407.58	1734.34
407.77	1748.38
407.96	1790.51
408.15	1905.20
408.34	1863.07
408.54	1874.77
408.73	1856.04
408.92	1811.57
409.11	1879.45
409.30	1884.13
409.49	1907.54
409.68	1926.26
409.87	1959.03
410.07	2008.18
410.26	1977.75
410.45	1975.41
410.64	2003.50
410.83	2045.63
411.02	2008.18
411.21	2050.31
411.40	2097.12
411.59	2132.23
411.78	2153.29
411.98	2104.14
412.17	2277.34
412.36	2129.89
412.55	2284.36
412.74	2392.03
412.93	2244.57
413.12	2153.29
413.31	2452.88
413.50	2256.28
413.69	2375.64
413.88	2345.22
414.07	2361.60
414.26	2377.98
414.45	2483.31
414.64	2403.73
414.83	2483.31
415.02	2497.35
415.22	2576.93
415.41	2628.42
415.60	2562.89
415.79	2574.59
415.98	2628.42
416.17	2658.85
416.36	2609.70
416.55	2651.83
416.74	2698.64
416.93	2595.65
417.12	2693.96
417.31	2766.51
417.50	2864.82
417.69	2890.56
417.88	2911.63
418.07	2918.65
418.26	2850.77
418.45	2888.22
418.64	2939.71
418.83	3028.65
419.02	3084.83
419.21	2998.23
419.39	3005.25
419.58	3014.61
419.77	2923.33
419.96	2986.52
420.15	3091.85
420.34	3073.12
420.53	3040.36
420.72	3148.02
420.91	3117.59
421.10	3002.91
421.29	3215.90
421.48	3145.68
421.67	3138.66
421.86	3117.59
422.05	3213.56
422.24	3215.90
422.43	3358.67
422.61	3213.56
422.80	3229.94
422.99	3349.31
423.18	3288.45
423.37	3384.41
423.56	3241.64
423.75	3246.32
423.94	3311.86
424.13	3056.74
424.32	3239.30
424.50	3232.28
424.69	3335.26
424.88	3346.97
425.07	3375.05
425.26	3197.17
425.45	3323.56
425.64	3330.58
425.83	3260.37
426.01	3459.31
426.20	3356.33
426.39	3335.26
426.58	3332.92
426.77	3405.48
426.96	3524.85
427.15	3473.36
427.33	3456.97
427.52	3440.59
427.71	3482.72
427.90	3569.32
428.09	3597.40
428.28	3667.62
428.46	3545.91
428.65	3644.21
428.84	3693.37
429.03	3693.37
429.22	3595.06
429.40	3653.58
429.59	3665.28
429.78	3515.48
429.97	3480.38
430.16	3744.86
430.34	3691.02
430.53	3859.54
430.72	3723.79
430.91	3784.65
431.10	3627.83
431.28	3875.93
431.47	3929.76
431.66	3985.93
431.85	3761.24
432.03	3908.69
432.22	3985.93
432.41	3936.78
432.60	3761.24
432.79	4004.66
432.97	3920.40
433.16	4044.45
433.35	4093.60
433.54	4002.32
433.72	4170.83
433.91	4257.43
434.10	4091.26
434.28	4084.23
434.47	4051.47
434.66	4234.03
434.85	4114.66
435.03	4234.03
435.22	4241.05
435.41	4283.18
435.59	4308.93
435.78	4428.29
435.97	4262.12
436.16	4248.07
436.34	4311.27
436.53	4365.10
436.72	4372.12
436.90	4402.55
437.09	4292.54
437.28	4269.14
437.46	4313.61
437.65	4470.42
437.84	4397.87
438.02	4454.04
438.21	4379.14
438.40	4484.47
438.58	4557.02
438.77	4641.28
438.96	4641.28
439.14	4601.49
439.33	4713.84
439.52	4631.92
439.70	4746.61
439.89	4826.18
440.08	4760.65
440.26	4758.31
440.45	4793.42
440.63	4943.21
440.82	4887.04
441.01	5102.37
441.19	5111.73
441.38	5071.94
441.57	5055.56
441.75	5125.77
441.94	5144.50
442.12	5181.95
442.31	5226.42
442.50	5261.52
442.68	5100.03
442.87	5310.68
443.05	5191.31
443.24	5446.43
443.43	5469.83
443.61	5308.34
443.80	5462.81
443.98	5362.17
444.17	5130.45
444.35	5362.17
444.54	5600.90
444.73	5493.24
444.91	5504.94
445.10	5465.15
445.28	5331.74
445.47	5411.32
445.65	5413.66
445.84	5600.90
446.02	5448.77
446.21	5600.90
446.39	5408.98
446.58	5565.79
446.77	5720.27
446.95	5432.38
447.14	5671.12
447.32	5678.14
447.51	5554.09
447.69	5584.52
447.88	5666.44
448.06	5537.71
448.25	5696.86
448.43	5610.26
448.62	5668.78
448.80	5636.01
448.99	5586.86
449.17	5790.49
449.36	5767.08
449.54	5685.16
449.73	5841.98
449.91	5860.70
450.10	5722.61
450.28	5923.90
450.46	5856.02
450.65	5949.64
450.83	5984.75
451.02	6022.20
451.20	6050.28
451.39	6092.41
451.57	6080.71
451.76	5949.64
451.94	6319.45
452.13	6054.97
452.31	6031.56
452.49	5970.71
452.68	6012.84
452.86	6141.57
453.05	6207.10
453.23	6155.61
453.42	6054.97
453.60	6040.92
453.78	6225.82
453.97	6176.67
454.15	6197.74
454.34	6218.80
454.52	6363.92
454.70	6413.07
454.89	6298.38
455.07	6518.39
455.26	6326.47
455.44	6443.49
455.62	6436.47
455.81	6572.22
455.99	6466.90
456.17	6504.35
456.36	6602.65
456.54	6656.48
456.73	6707.98
456.91	6848.41
457.09	6927.99
457.28	7002.88
457.46	6792.23
457.64	6876.49
457.83	6740.74
458.01	6949.05
458.19	6874.15
458.38	6780.53
458.56	6935.01
458.74	6911.60
458.93	6986.50
459.11	6935.01
459.29	6937.35
459.48	6899.90
459.66	7021.61
459.84	7143.32
460.03	7225.23
460.21	7192.47
460.39	7169.06
460.57	7288.43
460.76	7407.80
460.94	7358.64
461.12	7176.08
461.31	7335.24
461.49	7279.07
461.67	7276.73
461.85	7503.76
462.04	7424.18
462.22	7850.16
462.40	7487.37
462.59	7396.09
462.77	7522.48
462.95	7578.65
463.13	7360.98
463.32	7705.04
463.50	7573.97
463.68	7566.95
463.86	7625.47
464.05	7543.55
464.23	7793.98
464.41	7648.87
464.59	7576.31
464.78	7779.94
464.96	7990.59
465.14	7644.19
465.32	7803.35
465.50	7838.45
465.69	8077.19
465.87	7801.01
466.05	7925.05
466.23	7744.83
466.41	8009.31
466.60	8013.99
466.78	7829.09
466.96	7978.89
467.14	8093.57
467.32	7936.76
467.51	8161.45
467.69	8100.59
467.87	8121.66
468.05	8285.50
468.23	8107.62
468.41	8063.15
468.60	8032.72
468.78	8280.82
468.96	8100.59
469.14	8070.17
469.32	8418.91
469.50	8238.69
469.69	8482.10
469.87	8318.26
470.05	8468.06
470.23	8510.19
470.41	8381.46
470.59	8552.32
470.77	8484.44
470.95	8517.21
471.14	8821.48
471.32	8430.61
471.50	8659.98
471.68	8755.94
471.86	8849.57
472.04	8968.93
472.22	8865.95
472.40	8975.95
472.58	8844.88
472.77	9025.11
472.95	9048.51
473.13	9259.16
473.31	9212.35
473.49	9144.47
473.67	9107.02
473.85	9373.85
474.03	9446.40
474.21	9582.15
474.39	9415.98
474.57	9465.13
474.75	9650.03
474.93	9439.38
475.12	9694.50
475.30	9603.22
475.48	9731.95
475.66	9790.46
475.84	9593.86
476.02	9958.98
476.20	10031.54
476.38	10052.60
476.56	10286.65
476.74	10214.10
476.92	10312.40
477.10	9987.07
477.28	10296.02
477.46	10277.29
477.64	10473.90
477.82	10551.14
478.00	10775.83
478.18	10782.85
478.36	11096.48
478.54	10932.64
478.72	11105.84
478.90	11154.99
479.08	11307.13
479.26	11227.55
479.44	11342.24
479.62	11307.13
479.80	11396.07
479.98	11637.14
480.16	11929.71
480.34	11672.25
480.52	11700.34
480.70	11936.73
480.88	11421.81
481.06	12142.70
481.24	12042.06
481.41	12292.49
481.59	12456.33
481.77	12547.61
481.95	12528.89
482.13	12482.08
482.31	12514.84
482.49	13060.19
482.67	12683.36
482.85	13048.49
483.03	13310.63
483.21	13425.31
483.39	13317.65
483.57	13205.30
483.74	13504.89
483.92	13661.71
484.10	13577.45
484.28	13706.18
484.46	13858.31
484.64	14216.41
484.82	13905.12
485.00	14075.98
485.18	14525.36
485.35	14693.88
485.53	14501.96
485.71	14656.43
485.89	14958.36
486.07	14941.98
486.25	14981.77
486.43	14953.68
486.61	15274.34
486.78	15269.66
486.96	15510.73
487.14	15576.27
487.32	15587.97
487.50	15798.62
487.68	15899.26
487.85	16100.55
488.03	16208.21
488.21	16290.13
488.39	16205.87
488.57	16681.00
488.75	16582.70
488.92	16929.09
489.10	16952.50
489.28	16945.48
489.46	17144.42
489.64	16964.20
489.81	17387.84
489.99	17635.94
490.17	17516.57
490.35	17935.53
490.53	17703.81
490.70	18237.45
490.88	17834.88
491.06	18295.97
491.24	18555.77
491.41	18670.45
491.59	18684.50
491.77	18501.93
491.95	18881.10
492.13	18883.44
492.30	18843.65
492.48	19028.56
492.66	19262.61
492.84	19332.82
493.01	19454.53
493.19	19587.94
493.37	19660.50
493.54	19594.96
493.72	20025.62
493.90	20077.12
494.08	19880.51
494.25	20088.82
494.43	20126.27
494.61	20580.33
494.79	20585.01
494.96	20592.03
495.14	20812.04
495.32	20535.86
495.49	21097.59
495.67	20964.18
495.85	21097.59
496.02	21399.52
496.20	21546.97
496.38	21664.00
496.55	21565.70
496.73	22235.09
496.91	21759.96
497.09	22089.98
497.26	22185.94
497.44	22024.44
497.62	22389.56
497.79	22757.03
497.97	22782.77
498.14	22909.16
498.32	22817.88
498.50	22726.60
498.67	23330.46
498.85	22981.72
499.03	23042.57
499.20	23592.60
499.38	23459.19
499.56	23325.78
499.73	23683.88
499.91	23658.14
500.08	23941.34
500.26	23906.23
500.44	23812.61
500.61	23836.02
500.79	23992.83
500.97	24044.32
501.14	24435.19
501.32	24290.08
501.49	24285.40
501.67	24538.18
501.84	24680.95
502.02	24606.05
502.20	24692.65
502.37	24900.96
502.55	24968.84
502.72	25102.25
502.90	25174.80
503.07	25275.45
503.25	25132.67
503.43	24961.81
503.60	25568.01
503.78	25591.42
503.95	25589.08
504.13	25883.98
504.30	25741.21
504.48	25614.82
504.65	25961.22
504.83	26181.23
505.01	26415.29
505.18	26520.61
505.36	26338.05
505.53	26106.34
505.71	26455.08
505.88	26651.68
506.06	26448.05
506.23	26904.46
506.41	26555.72
506.58	26717.22
506.76	26604.87
506.93	27016.80
507.11	27103.40
507.28	27285.97
507.46	27110.43
507.63	27105.74
507.81	27091.70
507.98	27281.28
508.16	27599.60
508.33	27662.79
508.50	27578.53
508.68	27639.39
508.85	28065.36
509.03	27847.69
509.20	27878.12
509.38	28252.61
509.55	28533.47
509.73	28198.77
509.90	28631.77
510.08	28400.06
510.25	28481.98
510.42	28489.00
510.60	28809.65
510.77	28739.44
510.95	29043.71
511.12	29174.78
511.30	29127.97
511.47	28973.49
511.64	28917.32
511.82	29411.17
511.99	29134.99
512.17	29465.00
512.34	29142.01
512.51	29535.22
512.69	29811.40
512.86	30050.14
513.04	29970.56
513.21	29778.64
513.38	30162.48
513.56	30221.00
513.73	30295.89
513.90	30169.51
514.08	30408.24
514.25	30160.14
514.43	30312.28
514.60	30487.82
514.77	30345.05
514.95	31049.55
515.12	30300.58
515.29	30572.08
515.47	30813.15
515.64	31367.86
515.81	30967.63
515.99	31044.87
516.16	31079.97
516.33	31161.89
516.51	31709.58
516.68	31468.50
516.85	31421.69
517.03	31730.64
517.20	31859.37
517.37	31391.26
517.54	31658.09
517.72	31779.79
517.89	32231.52
518.06	32053.64
518.24	32140.24
518.41	31936.61
518.58	31798.52
518.75	31564.46
518.93	32598.98
519.10	32311.10
519.27	32580.26
519.45	32329.82
519.62	32086.40
519.79	32718.35
519.96	32788.56
520.14	32629.41
520.31	32971.13
520.48	33022.62
520.65	32575.58
520.83	33256.67
521.00	33343.27
521.17	33303.48
521.34	33048.36
521.52	33273.06
521.69	33242.63
521.86	33701.37
522.03	33741.16
522.20	33872.23
522.38	34017.35
522.55	33713.08
522.72	34132.03
522.89	34227.99
523.07	34295.87
523.24	33982.24
523.41	34284.17
523.58	34239.70
523.75	34326.30
523.92	34136.71
524.10	33972.88
524.27	34852.92
524.44	34352.04
524.61	35037.82
524.78	34618.86
524.96	34522.90
525.13	34773.34
525.30	35103.35
525.47	35098.67
525.64	34780.36
525.81	34955.90
525.98	35496.56
526.16	35227.40
526.33	35178.25
526.50	35063.57
526.67	35133.78
526.84	35981.06
527.01	35166.55
527.18	35201.66
527.36	35782.11
527.53	35328.05
527.70	36112.13
527.87	35817.22
528.04	35672.10
528.21	35866.37
528.38	35629.98
528.55	36016.16
528.72	35931.90
528.89	36053.61
529.07	35878.07
529.24	36058.29
529.41	36540.44
529.58	36280.64
529.75	36147.23
529.92	36339.16
530.09	36343.84
530.26	36629.38
530.43	37034.30
530.60	36540.44
530.77	36320.43
530.94	36641.09
531.11	36643.43
531.28	36472.57
531.46	36748.75
531.63	37095.15
531.80	37053.02
531.97	37504.74
532.14	37053.02
532.31	36982.80
532.48	37354.95
532.65	37102.17
532.82	37223.88
532.99	37237.92
533.16	37006.21
533.33	37560.92
533.50	37406.44
533.67	37577.30
533.84	37846.46
534.01	37659.22
534.18	37752.84
534.35	38099.24
534.52	38122.65
534.69	37778.59
534.86	37731.78
535.03	37727.10
535.20	38195.20
535.37	38188.18
535.54	38424.57
535.71	37783.27
535.88	38396.49
536.05	38075.84
536.22	38389.47
536.38	38305.21
536.55	38284.14
536.72	38333.29
536.89	38459.68
537.06	38602.46
537.23	38778.00
537.40	38787.36
537.57	38382.45
537.74	38450.32
537.91	38946.51
538.08	38801.40
538.25	38345.00
538.42	38579.05
538.59	38733.53
538.75	38801.40
538.92	39428.66
539.09	39140.78
539.26	39182.91
539.43	39253.12
539.60	39196.95
539.77	39526.97
539.94	39358.45
540.11	39239.08
540.28	39496.54
540.44	39306.96
540.61	39271.85
540.78	39239.08
540.95	39693.15
541.12	39210.99
541.29	39428.66
541.46	39744.64
541.62	40243.17
541.79	39917.84
541.96	39580.80
542.13	39761.02
542.30	39662.72
542.47	39559.73
542.63	39896.77
542.80	40287.64
542.97	40751.07
543.14	40584.89
543.31	40247.85
543.48	40399.99
543.64	40374.24
543.81	40706.60
543.98	40603.61
544.15	40472.54
544.32	40596.59
544.48	40921.93
544.65	40730.00
544.82	40652.76
544.99	40297.00
545.16	41109.17
545.32	40549.78
545.49	41275.35
545.66	41057.68
545.83	41060.02
546.00	41277.69
546.16	41031.93
546.33	40893.84
546.50	40828.30
546.67	41226.20
546.83	41029.59
547.00	41191.09
547.17	41048.32
547.34	41364.29
547.50	41879.21
547.67	41881.55
547.84	41593.66
548.00	41841.76
548.17	41645.15
548.34	41839.42
548.51	41954.10
548.67	42124.96
548.84	41947.08
549.01	41766.86
549.18	41876.86
549.34	41944.74
549.51	42096.88
549.68	42007.94
549.84	41867.50
550.01	42499.45
550.18	41991.55
550.34	42162.41
550.51	42759.25
550.68	42045.38
550.84	41911.97
551.01	42562.64
551.18	41937.72
551.34	42162.41
551.51	42260.71
551.68	42274.76
551.84	42249.01
552.01	42864.57
552.18	42244.33
552.34	42536.90
552.51	42784.99
552.68	42841.17
552.84	42611.79
553.01	42810.74
553.18	42773.29
553.34	42646.90
553.51	42586.05
553.67	42768.61
553.84	43007.34
554.01	43009.68
554.17	43028.41
554.34	43688.44
554.51	43154.80
554.67	43313.95
554.84	43328.00
555.00	42815.42
555.17	43122.03
555.33	43531.62
555.50	43379.49
555.67	43311.61
555.83	43648.65
556.00	43339.70
556.16	43330.34
556.33	43615.88
556.50	43229.69
556.66	43735.25
556.83	43145.44
556.99	43950.58
557.16	43861.64
557.32	43487.15
557.49	43667.37
557.65	43519.92
557.82	44025.48
557.98	43210.97
558.15	43569.07
558.32	43800.79
558.48	43302.25
558.65	43669.72
558.81	43583.12
558.98	43854.62
559.14	43871.00
559.31	43779.72
559.47	43540.99
559.64	43784.40
559.80	43639.29
559.97	44048.88
560.13	43737.59
560.30	43995.05
560.46	44493.58
560.63	43751.63
560.79	44229.10
560.96	44051.22
561.12	44605.93
561.29	44289.96
561.45	44158.89
561.61	44121.44
561.78	44512.31
561.94	44046.54
562.11	44170.59
562.27	44250.17
562.44	44629.34
562.60	44512.31
562.77	44158.89
562.93	44332.09
563.10	44711.25
563.26	44226.76
563.42	44559.12
563.59	44498.26
563.75	44561.46
563.92	44825.94
564.08	44928.92
564.24	44498.26
564.41	44737.00
564.57	44715.93
564.74	44722.96
564.90	44385.92
565.07	44933.60
565.23	45067.02
565.39	44685.51
565.56	45340.86
565.72	44339.11
565.88	44638.70
566.05	44896.16
566.21	44807.22
566.38	44516.99
566.54	44914.88
566.70	44765.09
566.87	45031.91
567.03	44437.41
567.19	44807.22
567.36	45031.91
567.52	44659.76
567.68	44961.69
567.85	44912.54
568.01	45230.85
568.17	45153.62
568.34	45275.32
568.50	45017.86
568.66	45088.08
568.83	45151.27
568.99	44985.10
569.15	45078.72
569.32	45160.64
569.48	45207.45
569.64	45326.81
569.81	45378.31
569.97	44598.91
570.13	45537.46
570.30	44779.13
570.46	45003.82
570.62	45198.09
570.78	45277.66
570.95	45338.52
571.11	45420.44
571.27	44999.14
571.43	44814.24
571.60	44758.06
571.76	45031.91
571.92	45338.52
572.09	45085.74
572.25	45298.73
572.41	45055.31
572.57	45139.57
572.74	45277.66
572.90	45429.80
573.06	45284.68
573.22	45401.71
573.38	45556.19
573.55	45968.12
573.71	45607.68
573.87	45773.86
574.03	45111.49
574.20	45951.74
574.36	45375.97
574.52	45436.82
574.68	45595.98
574.84	45827.69
575.01	45825.35
575.17	45666.19
575.33	45729.39
575.49	45116.17
575.65	45928.33
575.82	45382.99
575.98	45460.23
576.14	45621.72
576.30	45844.07
576.46	45785.56
576.62	45530.44
576.79	45504.70
576.95	45249.58
577.11	45572.57
577.27	45750.45
577.43	45923.65
577.59	45827.69
577.75	45284.68
577.92	45298.73
578.08	45378.31
578.24	45663.85
578.40	45823.01
578.56	45921.31
578.72	45663.85
578.88	45242.56
579.04	45542.14
579.21	45652.15
579.37	45436.82
579.53	46007.91
579.69	45649.81
579.85	45387.67
580.01	45666.19
580.17	45790.24
580.33	45914.29
580.49	45907.27
580.65	45766.84
580.82	45825.35
580.98	45247.24
581.14	45521.08
581.30	46017.27
581.46	45956.42
581.62	46157.70
581.78	45668.53
581.94	45862.80
582.10	45677.90
582.26	45787.90
582.42	45586.61
582.58	45631.08
582.74	45764.49
582.90	46028.98
583.06	45855.78
583.22	45514.06
583.38	46010.25
583.54	45689.60
583.70	45991.53
583.86	45858.12
584.02	45621.72
584.18	45811.31
584.34	45984.51
584.50	46330.90
584.66	46148.34
584.82	46122.60
584.98	46148.34
585.14	46080.47
585.30	45869.82
585.46	46174.09
585.62	45940.04
585.78	46054.72
585.94	46054.72
586.10	46066.42
586.26	45965.78
586.42	45750.45
586.58	46185.79
586.74	45867.48
586.90	45933.01
587.06	46073.45
587.22	46232.60
587.38	45830.03
587.54	46045.36
587.70	46197.49
587.86	46305.16
588.02	45970.46
588.18	45874.50
588.34	46117.92
588.49	45986.85
588.65	45851.09
588.81	45991.53
588.97	46447.93
589.13	45705.98
589.29	45951.74
589.45	46000.89
589.61	46080.47
589.77	46080.47
589.93	46358.99
590.08	46122.60
