SpectraSuite Data File
++++++++++++++++++++++++++++++++++++
Date: Fri Oct 25 11:33:54 EDT 2013
User: price-jones
Dark Spectrum Present: No
Reference Spectrum Present: No
Number of Sampled Component Spectra: 1
Spectrometers: USB2+H05261
Integration Time (usec): 100000 (USB2+H05261)
Spectra Averaged: 1 (USB2+H05261)
Boxcar Smoothing: 0 (USB2+H05261)
Correct for Electrical Dark: No (USB2+H05261)
Strobe/Lamp Enabled: No (USB2+H05261)
Correct for Detector Non-linearity: No (USB2+H05261)
Correct for Stray Light: No (USB2+H05261)
Number of Pixels in Processed Spectrum: 2048
>>>>>Begin Processed Spectral Data<<<<<
365.73	266.82
365.92	266.82
366.12	266.82
366.32	156.82
366.52	107.66
366.72	152.13
366.91	203.63
367.11	114.69
367.31	175.54
367.51	255.12
367.70	189.58
367.90	194.26
368.10	156.82
368.30	152.13
368.49	145.11
368.69	161.50
368.89	266.82
369.09	138.09
369.28	170.86
369.48	147.45
369.68	189.58
369.87	198.95
370.07	215.33
370.27	257.46
370.47	313.63
370.66	358.10
370.86	470.45
371.06	538.32
371.25	559.39
371.45	505.56
371.65	575.77
371.84	500.87
372.04	528.96
372.24	540.66
372.44	496.19
372.63	557.05
372.83	599.18
373.03	636.63
373.22	624.92
373.42	660.03
373.62	704.50
373.81	648.33
374.01	617.90
374.21	566.41
374.40	648.33
374.60	667.05
374.79	674.07
374.99	627.26
375.19	657.69
375.38	636.63
375.58	653.01
375.78	660.03
375.97	601.52
376.17	660.03
376.37	660.03
376.56	683.44
376.76	641.31
376.95	706.84
377.15	660.03
377.35	713.86
377.54	734.93
377.74	709.18
377.93	683.44
378.13	676.41
378.33	653.01
378.52	699.82
378.72	727.91
378.91	739.61
379.11	683.44
379.31	706.84
379.50	732.59
379.70	709.18
379.89	734.93
380.09	657.69
380.28	727.91
380.48	692.80
380.68	830.89
380.87	744.29
381.07	697.48
381.26	816.85
381.46	807.48
381.65	739.61
381.85	697.48
382.04	809.83
382.24	833.23
382.43	758.33
382.63	772.38
382.83	793.44
383.02	861.32
383.22	744.29
383.41	788.76
383.61	870.68
383.80	821.53
384.00	765.36
384.19	837.91
384.39	835.57
384.58	861.32
384.78	891.74
384.97	833.23
385.17	835.57
385.36	809.83
385.56	826.21
385.75	912.81
385.95	791.10
386.14	849.61
386.34	814.51
386.53	887.06
386.72	809.83
386.92	866.00
387.11	819.19
387.31	938.55
387.50	802.80
387.70	915.15
387.89	961.96
388.09	912.81
388.28	870.68
388.48	936.21
388.67	910.47
388.86	919.83
389.06	926.85
389.25	924.51
389.45	1029.84
389.64	971.32
389.84	954.94
390.03	990.05
390.22	943.24
390.42	924.51
390.61	964.30
390.81	994.73
391.00	997.07
391.19	1027.50
391.39	1034.52
391.58	1008.77
391.78	1043.88
391.97	1034.52
392.16	999.41
392.36	1046.22
392.55	1029.84
392.75	1071.97
392.94	1008.77
393.13	1086.01
393.33	1095.37
393.52	966.64
393.71	1057.92
393.91	1135.16
394.10	976.00
394.29	1109.41
394.49	1100.05
394.68	1170.27
394.88	1088.35
395.07	1142.18
395.26	1142.18
395.46	1086.01
395.65	1135.16
395.84	1167.93
396.04	1270.91
396.23	1142.18
396.42	1221.76
396.62	1191.33
396.81	1186.65
397.00	1242.82
397.19	1207.72
397.39	1186.65
397.58	1177.29
397.77	1114.10
397.97	1238.14
398.16	1238.14
398.35	1287.29
398.55	1205.38
398.74	1249.85
398.93	1296.66
399.12	1299.00
399.32	1378.58
399.51	1266.23
399.70	1387.94
399.90	1345.81
400.09	1439.43
400.28	1401.98
400.47	1371.55
400.67	1420.71
400.86	1425.39
401.05	1376.24
401.24	1401.98
401.44	1497.94
401.63	1504.96
401.82	1490.92
402.01	1369.21
402.21	1385.60
402.40	1507.30
402.59	1458.15
402.78	1411.34
402.97	1572.84
403.17	1500.28
403.36	1572.84
403.55	1542.41
403.74	1619.65
403.93	1591.56
404.13	1610.29
404.32	1509.65
404.51	1533.05
404.70	1657.10
404.89	1661.78
405.09	1696.89
405.28	1657.10
405.47	1617.31
405.66	1621.99
405.85	1671.14
406.05	1699.23
406.24	1753.06
406.43	1762.42
406.62	1741.36
406.81	1802.21
407.00	1795.19
407.20	1912.22
407.39	1825.62
407.58	1764.76
407.77	1809.23
407.96	1870.09
408.15	1823.28
408.34	1846.68
408.54	1884.13
408.73	1886.47
408.92	1860.73
409.11	1973.07
409.30	1935.62
409.49	1909.88
409.68	1966.05
409.87	2015.20
410.07	2038.61
410.26	2024.56
410.45	2012.86
410.64	1952.01
410.83	2108.82
411.02	1956.69
411.21	2188.40
411.40	1994.14
411.59	2183.72
411.78	2225.85
411.98	2134.57
412.17	2272.66
412.36	2246.91
412.55	2136.91
412.74	2246.91
412.93	2305.43
413.12	2235.21
413.31	2455.22
413.50	2401.39
413.69	2331.17
413.88	2464.58
414.07	2520.76
414.26	2429.48
414.45	2534.80
414.64	2565.23
414.83	2396.71
415.02	2530.12
415.22	2647.15
415.41	2583.95
415.60	2607.36
415.79	2668.21
415.98	2654.17
416.17	2614.38
416.36	2810.98
416.55	2628.42
416.74	2764.17
416.93	2675.23
417.12	2855.45
417.31	2745.45
417.50	2771.19
417.69	2988.86
417.88	2874.18
418.07	2920.99
418.26	2965.46
418.45	2899.92
418.64	3030.99
418.83	2939.71
419.02	2977.16
419.21	3124.62
419.39	3122.27
419.58	3070.78
419.77	3084.83
419.96	3094.19
420.15	3197.17
420.34	3178.45
420.53	3194.83
420.72	3251.00
420.91	3115.25
421.10	3183.13
421.29	3368.03
421.48	3225.26
421.67	3349.31
421.86	3115.25
422.05	3295.47
422.24	3346.97
422.43	3265.05
422.61	3358.67
422.80	3276.75
422.99	3412.50
423.18	3386.76
423.37	3489.74
423.56	3309.52
423.75	3407.82
423.94	3241.64
424.13	3225.26
424.32	3269.73
424.50	3363.35
424.69	3562.30
424.88	3510.80
425.07	3337.60
425.26	3382.07
425.45	3246.32
425.64	3398.46
425.83	3433.57
426.01	3559.95
426.20	3428.88
426.39	3265.05
426.58	3501.44
426.77	3389.10
426.96	3485.06
427.15	3440.59
427.33	3562.30
427.52	3604.42
427.71	3564.64
427.90	3548.25
428.09	3651.24
428.28	3639.53
428.46	3522.51
428.65	3618.47
428.84	3681.66
429.03	3639.53
429.22	3566.98
429.40	3747.20
429.59	3658.26
429.78	3641.87
429.97	3595.06
430.16	3667.62
430.34	3756.56
430.53	3904.01
430.72	3854.86
430.91	3815.07
431.10	3707.41
431.28	3847.84
431.47	4025.72
431.66	3943.80
431.85	3845.50
432.03	4156.79
432.22	4021.04
432.41	3999.98
432.60	4154.45
432.79	4007.00
432.97	4133.39
433.16	4009.34
433.35	4074.87
433.54	4229.35
433.72	4109.98
433.91	4201.26
434.10	4203.60
434.28	4222.33
434.47	4271.48
434.66	4292.54
434.85	4203.60
435.03	4243.39
435.22	4234.03
435.41	4376.80
435.59	4505.53
435.78	4552.34
435.97	4568.73
436.16	4299.56
436.34	4376.80
436.53	4365.10
436.72	4643.62
436.90	4411.91
437.09	4416.59
437.28	4369.78
437.46	4430.63
437.65	4510.21
437.84	4447.02
438.02	4531.28
438.21	4505.53
438.40	4557.02
438.58	4678.73
438.77	4849.59
438.96	4849.59
439.14	4802.78
439.33	4990.02
439.52	4908.10
439.70	4760.65
439.89	4987.68
440.08	4931.51
440.26	5006.41
440.45	4844.91
440.63	5050.88
440.82	5060.24
441.01	4985.34
441.19	5186.63
441.38	5142.16
441.57	5217.05
441.75	5233.44
441.94	5357.49
442.12	5362.17
442.31	5305.99
442.50	5373.87
442.68	5371.53
442.87	5315.36
443.05	5259.18
443.24	5458.13
443.43	5416.00
443.61	5607.92
443.80	5547.07
443.98	5551.75
444.17	5305.99
444.35	5533.03
444.54	5614.95
444.73	5654.73
444.91	5666.44
445.10	5591.54
445.28	5636.01
445.47	5504.94
445.65	5591.54
445.84	5678.14
446.02	5778.78
446.21	5778.78
446.39	5731.97
446.58	5788.14
446.77	5710.91
446.95	5556.43
447.14	5624.31
447.32	5839.64
447.51	5689.84
447.69	5579.84
447.88	5703.89
448.06	5591.54
448.25	5804.53
448.43	5853.68
448.62	5867.72
448.80	5738.99
448.99	5921.56
449.17	5767.08
449.36	5994.11
449.54	6022.20
449.73	5921.56
449.91	6019.86
450.10	6132.20
450.28	6059.65
450.46	6045.60
450.65	5984.75
450.83	6078.37
451.02	5959.00
451.20	6080.71
451.39	6001.13
451.57	6057.31
451.76	5987.09
451.94	6150.93
452.13	6246.89
452.31	6258.59
452.49	6190.72
452.68	6218.80
452.86	6293.70
453.05	6445.84
453.23	6317.11
453.42	6211.78
453.60	6300.72
453.78	6443.49
453.97	6174.33
454.15	6242.21
454.34	6403.71
454.52	6413.07
454.70	6335.83
454.89	6506.69
455.07	6621.38
455.26	6483.28
455.44	6759.47
455.62	6679.89
455.81	6745.42
455.99	6658.82
456.17	6740.74
456.36	6609.67
456.54	6813.30
456.73	6897.56
456.91	7178.42
457.09	6848.41
457.28	7173.74
457.46	6979.48
457.64	7124.59
457.83	7087.14
458.01	7087.14
458.19	7110.55
458.38	7030.97
458.56	6930.33
458.74	7192.47
458.93	7103.53
459.11	7260.34
459.29	7162.04
459.48	7023.95
459.66	7279.07
459.84	7190.13
460.03	7426.52
460.21	7185.44
460.39	7349.28
460.57	7323.54
460.76	7473.33
460.94	7508.44
461.12	7456.95
461.31	7513.12
461.49	7424.18
461.67	7440.56
461.85	7503.76
462.04	7496.74
462.22	7908.67
462.40	7742.49
462.59	7707.38
462.77	7712.07
462.95	7866.54
463.13	7611.42
463.32	7775.26
463.50	7920.37
463.68	7932.08
463.86	7843.14
464.05	7934.42
464.23	7864.20
464.41	7943.78
464.59	7875.90
464.78	7941.44
464.96	7889.95
465.14	7892.29
465.32	7871.22
465.50	8107.62
465.69	8142.72
465.87	8074.85
466.05	8086.55
466.23	8053.78
466.41	8018.68
466.60	8362.73
466.78	8285.50
466.96	8205.92
467.14	8226.98
467.32	8198.90
467.51	8322.94
467.69	8098.25
467.87	8329.97
468.05	8236.35
468.23	8189.53
468.41	8290.18
468.60	8222.30
468.78	8573.38
468.96	8397.84
469.14	8507.85
469.32	8727.86
469.50	8514.87
469.69	8727.86
469.87	8580.40
470.05	8610.83
470.23	8629.56
470.41	8608.49
470.59	8798.07
470.77	8699.77
470.95	8858.93
471.14	9004.04
471.32	8564.02
471.50	9167.88
471.68	9043.83
471.86	9011.06
472.04	9027.45
472.22	9245.12
472.40	8978.30
472.58	8997.02
472.77	9184.26
472.95	9596.20
473.13	9668.75
473.31	9371.50
473.49	9245.12
473.67	9263.84
473.85	9324.69
474.03	9612.58
474.21	9643.01
474.39	9635.99
474.57	9530.66
474.75	9830.25
474.93	9806.84
475.12	9893.44
475.30	9951.96
475.48	9867.70
475.66	10059.62
475.84	10076.01
476.02	10017.49
476.20	10099.41
476.38	10253.89
476.56	10403.68
476.74	10513.69
476.92	10300.70
477.10	10183.67
477.28	10586.24
477.46	10696.25
477.64	10743.06
477.82	10682.20
478.00	11030.94
478.18	10923.28
478.36	11028.60
478.54	11147.97
478.72	11265.00
478.90	11356.28
479.08	11557.57
479.26	11688.64
479.44	11492.03
479.62	11800.98
479.80	11775.24
479.98	11908.65
480.16	12238.66
480.34	11967.16
480.52	12358.03
480.70	11967.16
480.88	11955.46
481.06	12320.58
481.24	12343.99
481.41	12449.31
481.59	12336.96
481.77	12435.27
481.95	12795.71
482.13	12973.59
482.31	12975.93
482.49	13247.43
482.67	13294.24
482.85	13177.22
483.03	13476.80
483.21	13502.55
483.39	13731.92
483.57	13650.00
483.74	13893.42
483.92	13792.78
484.10	14038.53
484.28	14345.14
484.46	14462.17
484.64	14431.74
484.82	14178.97
485.00	14497.28
485.18	14745.38
485.35	15030.92
485.53	14979.43
485.71	14995.81
485.89	15241.57
486.07	15323.49
486.25	15199.44
486.43	15555.20
486.61	15613.71
486.78	15683.93
486.96	15594.99
487.14	15716.70
487.32	16140.33
487.50	16283.11
487.68	16292.47
487.85	16570.99
488.03	16662.27
488.21	16545.25
488.39	16727.81
488.57	16959.52
488.75	17149.11
488.92	17212.30
489.10	17198.26
489.28	17549.34
489.46	17827.86
489.64	17483.80
489.81	17652.32
489.99	18001.06
490.17	18394.27
490.35	18185.96
490.53	18195.32
490.70	18452.78
490.88	18363.84
491.06	18497.25
491.24	18740.67
491.41	18899.83
491.59	19049.62
491.77	18766.42
491.95	19393.68
492.13	19199.41
492.30	19325.80
492.48	19339.85
492.66	19749.44
492.84	19810.29
493.01	20091.16
493.19	19997.54
493.37	20060.73
493.54	20152.01
493.72	20755.87
493.90	20051.37
494.08	20737.15
494.25	20704.38
494.43	20580.33
494.61	20798.00
494.79	20566.29
494.96	21071.84
495.14	21191.21
495.32	21474.42
495.49	21724.85
495.67	21900.39
495.85	21900.39
496.02	21837.20
496.20	22160.19
496.38	21766.98
496.55	22075.93
496.73	22623.62
496.91	22338.07
497.09	22530.00
497.26	22796.82
497.44	22698.52
497.62	22803.84
497.79	23023.85
497.97	23211.09
498.14	23330.46
498.32	23557.49
498.50	23538.77
498.67	23477.91
498.85	23929.64
499.03	23807.93
499.20	23637.07
499.38	23931.98
499.56	24046.66
499.73	24308.80
499.91	24343.91
500.08	24254.97
500.26	24577.97
500.44	24428.17
500.61	24507.75
500.79	24292.42
500.97	24662.22
501.14	24945.43
501.32	25137.35
501.49	25085.86
501.67	25315.23
501.84	25479.07
502.02	25312.89
502.20	25425.24
502.37	25736.53
502.55	25329.28
502.72	25689.72
502.90	25631.21
503.07	25713.13
503.25	25986.97
503.43	25685.04
503.60	25989.31
503.78	26403.58
503.95	26398.90
504.13	26244.43
504.30	26508.91
504.48	26249.11
504.65	26401.24
504.83	26988.72
505.01	26644.66
505.18	26850.63
505.36	27173.62
505.53	26969.99
505.71	27337.46
505.88	27220.43
506.06	27058.93
506.23	27379.59
506.41	27304.69
506.58	27491.93
506.76	27449.80
506.93	27821.95
507.11	27325.75
507.28	27917.91
507.46	27948.34
507.63	28098.13
507.81	28329.84
507.98	27999.83
508.16	28105.15
508.33	28224.52
508.50	28439.85
508.68	28613.05
508.85	28528.79
509.03	28648.16
509.20	28816.68
509.38	29181.80
509.55	28833.06
509.73	29104.56
509.90	29193.50
510.08	28966.47
510.25	29228.61
510.42	29528.20
510.60	29689.70
510.77	29598.41
510.95	29685.01
511.12	29656.93
511.30	29675.65
511.47	29626.50
511.64	29663.95
511.82	29703.74
511.99	30024.39
512.17	30057.16
512.34	30183.55
512.51	30401.22
512.69	30218.66
512.86	30813.15
513.04	30637.61
513.21	30913.80
513.38	30656.34
513.56	31152.53
513.73	30752.30
513.90	31185.30
514.08	30742.94
514.25	31257.85
514.43	31211.04
514.60	31491.91
514.77	31407.65
514.95	31646.38
515.12	31299.98
515.29	31426.37
515.47	31833.63
515.64	32034.91
515.81	31751.71
515.99	32130.87
516.16	32198.75
516.33	32341.52
516.51	32425.78
516.68	31985.76
516.85	32451.53
517.03	32514.72
517.20	32706.65
517.37	32383.65
517.54	32802.61
517.72	32510.04
517.89	32711.33
518.06	32701.96
518.24	32718.35
518.41	32645.79
518.58	32907.93
518.75	32837.72
518.93	33298.80
519.10	33149.01
519.27	33446.26
519.45	33029.64
519.62	33460.30
519.79	33647.54
519.96	33127.94
520.14	33488.38
520.31	33226.24
520.48	33853.51
520.65	33624.14
520.83	33888.62
521.00	33738.82
521.17	33905.00
521.34	34286.51
521.52	34328.64
521.69	34171.82
521.86	34204.59
522.03	34401.19
522.20	34771.00
522.38	34864.62
522.55	34546.31
522.72	34831.85
522.89	35110.38
523.07	34888.03
523.24	34511.20
523.41	35005.05
523.58	35164.21
523.75	35211.02
523.92	34991.01
524.10	35370.18
524.27	35351.45
524.44	35314.00
524.61	35339.75
524.78	35426.35
524.96	35749.34
525.13	36140.21
525.30	36161.28
525.47	36053.61
525.64	36058.29
525.81	36360.22
525.98	36135.53
526.16	35735.30
526.33	35938.93
526.50	36189.36
526.67	35854.67
526.84	36268.94
527.01	36194.04
527.18	36535.76
527.36	36180.00
527.53	36610.66
527.70	36664.49
527.87	36947.70
528.04	36718.32
528.21	36610.66
528.38	36388.31
528.55	36559.17
528.72	36919.61
528.89	37076.43
529.07	37184.09
529.24	36753.43
529.41	37046.00
529.58	37324.52
529.75	36629.38
529.92	37504.74
530.09	37656.88
530.26	37502.40
530.43	37383.04
530.60	37034.30
530.77	37483.68
530.94	37766.88
531.11	37691.99
531.28	37687.31
531.46	37993.92
531.63	37909.66
531.80	37598.37
531.97	38075.84
532.14	37832.42
532.31	38150.73
532.48	38307.55
532.65	38234.99
532.82	38176.48
532.99	38335.63
533.16	38092.22
533.33	38593.09
533.50	38508.83
533.67	37926.04
533.84	38359.04
534.01	38541.60
534.18	38251.38
534.35	38876.30
534.52	38773.31
534.69	39236.74
534.86	39019.07
535.03	38763.95
535.20	38649.27
535.37	39168.87
535.54	39171.21
535.71	38871.62
535.88	39627.61
536.05	39395.90
536.22	39243.76
536.38	39349.09
536.55	39480.16
536.72	39257.81
536.89	39288.23
537.06	39468.45
537.23	39538.67
537.40	39398.24
537.57	39746.98
537.74	39381.85
537.91	39667.40
538.08	39533.99
538.25	39688.46
538.42	39632.29
538.59	39707.19
538.75	39529.31
538.92	39929.54
539.09	40060.61
539.26	39915.50
539.43	40224.45
539.60	40273.60
539.77	40165.93
539.94	40708.94
540.11	40456.16
540.28	40507.65
540.44	40168.27
540.61	40484.25
540.78	40673.83
540.95	40844.69
541.12	40870.43
541.29	40737.02
541.46	41184.07
541.62	40687.87
541.79	40884.48
541.96	40388.28
542.13	40680.85
542.30	41013.21
542.47	40921.93
542.63	41200.45
542.80	41179.39
542.97	41354.93
543.14	41434.50
543.31	41251.94
543.48	41530.47
543.64	41790.27
543.81	41872.18
543.98	41617.07
544.15	41918.99
544.32	41596.00
544.48	42115.60
544.65	41666.22
544.82	42153.05
544.99	41944.74
545.16	41930.70
545.32	42263.05
545.49	42497.11
545.66	42375.40
545.83	42101.56
546.00	42649.24
546.16	42178.79
546.33	42040.70
546.50	41890.91
546.67	42466.68
546.83	41846.44
547.00	41888.57
547.17	42398.80
547.34	42490.09
547.50	42646.90
547.67	42724.14
547.84	42457.32
548.00	42946.49
548.17	42951.17
548.34	43187.56
548.51	43157.14
548.67	42986.28
548.84	42995.64
549.01	42782.65
549.18	42944.15
549.34	43320.98
549.51	43136.07
549.68	42918.40
549.84	43054.15
550.01	42965.21
550.18	42937.13
550.34	43058.84
550.51	43430.98
550.68	43433.32
550.84	43145.44
551.01	43461.41
551.18	43281.19
551.34	42824.78
551.51	43304.59
551.68	43641.63
551.84	43489.49
552.01	43786.74
552.18	43229.69
552.34	43253.10
552.51	43636.95
552.68	43648.65
552.84	43852.28
553.01	43817.17
553.18	43716.53
553.34	44086.33
553.51	43604.18
553.67	43957.60
553.84	44074.63
554.01	43999.73
554.17	43728.23
554.34	43948.24
554.51	44278.25
554.67	44273.57
554.84	44133.14
555.00	44177.61
555.17	44032.50
555.33	44243.15
555.50	44060.58
555.67	43983.35
555.83	44634.02
556.00	44575.50
556.16	44247.83
556.33	44404.64
556.50	44406.98
556.66	44282.94
556.83	44088.67
556.99	44898.50
557.16	45106.80
557.32	44713.59
557.49	44989.78
557.65	44655.08
557.82	44493.58
557.98	44432.73
558.15	44832.96
558.32	44849.35
558.48	44399.96
558.65	44989.78
558.81	45261.28
558.98	44966.37
559.14	45036.59
559.31	44945.31
559.47	44687.85
559.64	44868.07
559.80	44875.09
559.97	45083.40
560.13	44865.73
560.30	45031.91
560.46	45385.33
560.63	45357.24
560.79	45450.86
560.96	45406.39
561.12	45272.98
561.29	45188.72
561.45	45375.97
561.61	44982.76
561.78	45170.00
561.94	45385.33
562.11	45170.00
562.27	45322.13
562.44	45434.48
562.60	45717.68
562.77	45350.22
562.93	45446.18
563.10	45883.86
563.26	45591.30
563.42	46220.90
563.59	45918.97
563.75	45282.34
563.92	45715.34
564.08	45497.67
564.24	45649.81
564.41	45392.35
564.57	45584.27
564.74	45584.27
564.90	46164.73
565.07	45483.63
565.23	45869.82
565.39	45930.67
565.56	46087.49
565.72	45869.82
565.88	46028.98
566.05	45886.20
566.21	45696.62
566.38	45663.85
566.54	45705.98
566.70	46089.83
566.87	46216.22
567.03	45883.86
567.19	46232.60
567.36	46314.52
567.52	46085.15
567.68	46784.97
567.85	46110.89
568.01	46115.58
568.17	45940.04
568.34	46068.76
568.50	46202.18
568.66	45848.75
568.83	46141.32
568.99	46272.39
569.15	46258.35
569.32	45984.51
569.48	46078.13
569.64	46174.09
569.81	46358.99
569.97	46340.27
570.13	46696.03
570.30	46169.41
570.46	46459.63
570.62	46513.47
570.78	46167.07
570.95	46232.60
571.11	46710.07
571.27	46225.58
571.43	46174.09
571.60	46302.82
571.76	46267.71
571.92	46122.60
572.09	46340.27
572.25	46452.61
572.41	46356.65
572.57	46342.61
572.74	46831.78
572.90	46461.97
573.06	46731.14
573.22	46251.33
573.38	46546.23
573.55	46576.66
573.71	47129.03
573.87	46817.74
574.03	46497.08
574.20	46595.38
574.36	46597.73
574.52	46681.98
574.68	46192.81
574.84	46763.90
575.01	46721.77
575.17	46595.38
575.33	46754.54
575.49	46525.17
575.65	46543.89
575.82	46887.95
575.98	46307.50
576.14	46490.06
576.30	46848.16
576.46	46686.67
576.62	46436.23
576.79	46508.79
576.95	46433.89
577.11	46473.68
577.27	46485.38
577.43	46415.16
577.59	46714.75
577.75	46499.42
577.92	46499.42
578.08	46880.93
578.24	46684.33
578.40	46691.35
578.56	46965.19
578.72	46806.03
578.88	46499.42
579.04	47077.54
579.21	46557.94
579.37	46829.44
579.53	46958.17
579.69	46508.79
579.85	47131.37
580.01	46878.59
580.17	46525.17
580.33	47051.79
580.49	46590.70
580.65	46859.87
580.82	46866.89
580.98	46635.17
581.14	46384.74
581.30	46981.57
581.46	46490.06
581.62	46946.47
581.78	46600.07
581.94	46749.86
582.10	46887.95
582.26	46775.61
582.42	46761.56
582.58	47147.75
582.74	47248.39
582.90	46932.42
583.06	47096.26
583.22	46674.96
583.38	47316.27
583.54	46979.23
583.70	46801.35
583.86	46876.25
584.02	46773.27
584.18	47051.79
584.34	47409.89
584.50	47461.38
584.66	47168.82
584.82	47199.24
584.98	47512.88
585.14	47292.86
585.30	47091.58
585.46	47049.45
585.62	47068.17
585.78	47302.23
585.94	46848.16
586.10	47215.63
586.26	46904.34
586.42	47035.41
586.58	46796.67
586.74	46904.34
586.90	46972.21
587.06	47004.98
587.22	47440.32
587.38	46787.31
587.54	47292.86
587.70	47131.37
587.86	47042.43
588.02	47196.90
588.18	46834.12
588.34	46553.26
588.49	47152.43
588.65	46829.44
588.81	46944.12
588.97	47377.12
589.13	46986.25
589.29	47086.90
589.45	47157.11
589.61	47201.58
589.77	47234.35
589.93	47381.80
590.08	47250.74
