SpectraSuite Data File
++++++++++++++++++++++++++++++++++++
Date: Fri Oct 25 10:47:24 EDT 2013
User: price-jones
Dark Spectrum Present: No
Reference Spectrum Present: No
Number of Sampled Component Spectra: 1
Spectrometers: USB2+H05261
Integration Time (usec): 100000 (USB2+H05261)
Spectra Averaged: 1 (USB2+H05261)
Boxcar Smoothing: 0 (USB2+H05261)
Correct for Electrical Dark: No (USB2+H05261)
Strobe/Lamp Enabled: No (USB2+H05261)
Correct for Detector Non-linearity: No (USB2+H05261)
Correct for Stray Light: No (USB2+H05261)
Number of Pixels in Processed Spectrum: 2048
>>>>>Begin Processed Spectral Data<<<<<
365.73	163.84
365.92	163.84
366.12	163.84
366.32	138.09
366.52	152.13
366.72	51.49
366.91	74.90
367.11	72.56
367.31	0.00
367.51	37.45
367.70	35.11
367.90	9.36
368.10	16.38
368.30	56.17
368.49	32.77
368.69	44.47
368.89	60.85
369.09	60.85
369.28	84.26
369.48	112.35
369.68	86.60
369.87	77.24
370.07	60.85
370.27	128.73
370.47	205.97
370.66	374.49
370.86	428.32
371.06	437.68
371.25	463.43
371.45	435.34
371.65	465.77
371.84	491.51
372.04	444.70
372.24	510.24
372.44	484.49
372.63	435.34
372.83	435.34
373.03	528.96
373.22	493.85
373.42	437.68
373.62	503.22
373.81	482.15
374.01	571.09
374.21	596.84
374.40	472.79
374.60	589.82
374.79	533.64
374.99	568.75
375.19	622.58
375.38	559.39
375.58	557.05
375.78	571.09
375.97	601.52
376.17	662.37
376.37	512.58
376.56	561.73
376.76	587.47
376.95	533.64
377.15	573.43
377.35	643.65
377.54	575.77
377.74	559.39
377.93	554.71
378.13	636.63
378.33	631.94
378.52	620.24
378.72	660.03
378.91	720.88
379.11	601.52
379.31	653.01
379.50	594.50
379.70	655.35
379.89	617.90
380.09	706.84
380.28	622.58
380.48	648.33
380.68	627.26
380.87	648.33
381.07	727.91
381.26	683.44
381.46	755.99
381.65	627.26
381.85	685.78
382.04	660.03
382.24	723.23
382.43	690.46
382.63	692.80
382.83	751.31
383.02	763.01
383.22	664.71
383.41	697.48
383.61	685.78
383.80	739.61
384.00	711.52
384.19	781.74
384.39	777.06
384.58	725.57
384.78	739.61
384.97	809.83
385.17	753.65
385.36	772.38
385.56	751.31
385.75	795.78
385.95	748.97
386.14	819.19
386.34	830.89
386.53	798.12
386.72	793.44
386.92	819.19
387.11	908.13
387.31	760.67
387.50	795.78
387.70	767.70
387.89	814.51
388.09	943.24
388.28	781.74
388.48	880.04
388.67	851.96
388.86	922.17
389.06	915.15
389.25	938.55
389.45	861.32
389.64	821.53
389.84	931.53
390.03	957.28
390.22	983.02
390.42	1004.09
390.61	959.62
390.81	938.55
391.00	929.19
391.19	1001.75
391.39	903.45
391.58	964.30
391.78	915.15
391.97	1048.56
392.16	957.28
392.36	1034.52
392.55	959.62
392.75	985.37
392.94	882.38
393.13	997.07
393.33	943.24
393.52	1100.05
393.71	1060.26
393.91	1062.60
394.10	1020.47
394.29	1041.54
394.49	1060.26
394.68	1057.92
394.88	1100.05
395.07	1086.01
395.26	1214.74
395.46	1142.18
395.65	1188.99
395.84	1118.78
396.04	1057.92
396.23	1088.35
396.42	1046.22
396.62	1050.90
396.81	1097.71
397.00	1048.56
397.19	1247.51
397.39	1196.01
397.58	1186.65
397.77	1200.69
397.97	1226.44
398.16	1217.08
398.35	1270.91
398.55	1277.93
398.74	1364.53
398.93	1327.08
399.12	1284.95
399.32	1303.68
399.51	1387.94
399.70	1418.36
399.90	1364.53
400.09	1341.13
400.28	1474.54
400.47	1416.02
400.67	1556.46
400.86	1575.18
401.05	1483.90
401.24	1497.94
401.44	1509.65
401.63	1570.50
401.82	1561.14
402.01	1476.88
402.21	1556.46
402.40	1547.09
402.59	1565.82
402.78	1568.16
402.97	1584.54
403.17	1626.67
403.36	1607.95
403.55	1643.06
403.74	1624.33
403.93	1694.55
404.13	1764.76
404.32	1666.46
404.51	1764.76
404.70	1673.48
404.89	1724.97
405.09	1673.48
405.28	1708.59
405.47	1732.00
405.66	1764.76
405.85	1837.32
406.05	1746.04
406.24	1834.98
406.43	1724.97
406.62	1893.49
406.81	1942.64
407.00	1877.11
407.20	1842.00
407.39	1849.02
407.58	1926.26
407.77	2001.16
407.96	1968.39
408.15	1987.11
408.34	1914.56
408.54	1900.52
408.73	1952.01
408.92	1996.48
409.11	2080.74
409.30	2015.20
409.49	2148.61
409.68	2062.01
409.87	2071.37
410.07	2097.12
410.26	2073.71
410.45	2104.14
410.64	2090.10
410.83	2207.13
411.02	2303.09
411.21	2249.25
411.40	2195.42
411.59	2216.49
411.78	2251.60
411.98	2270.32
412.17	2253.94
412.36	2370.96
412.55	2359.26
412.74	2448.20
412.93	2480.97
413.12	2448.20
413.31	2581.61
413.50	2434.16
413.69	2616.72
413.88	2583.95
414.07	2516.08
414.26	2654.17
414.45	2691.62
414.64	2621.40
414.83	2712.68
415.02	2775.88
415.22	2778.22
415.41	2794.60
415.60	2700.98
415.79	2747.79
415.98	2892.90
416.17	2801.62
416.36	2834.39
416.55	2808.64
416.74	3014.61
416.93	2918.65
417.12	2967.80
417.31	2885.88
417.50	2993.55
417.69	3187.81
417.88	3082.49
418.07	2906.95
418.26	2972.48
418.45	3241.64
418.64	3297.81
418.83	3218.24
419.02	3272.07
419.21	3290.79
419.39	3187.81
419.58	3119.93
419.77	3229.94
419.96	3307.18
420.15	3309.52
420.34	3309.52
420.53	3335.26
420.72	3384.41
420.91	3440.59
421.10	3307.18
421.29	3494.42
421.48	3328.24
421.67	3506.12
421.86	3461.65
422.05	3304.84
422.24	3384.41
422.43	3534.21
422.61	3480.38
422.80	3559.95
422.99	3536.55
423.18	3473.36
423.37	3590.38
423.56	3517.83
423.75	3550.59
423.94	3445.27
424.13	3382.07
424.32	3414.84
424.50	3592.72
424.69	3669.96
424.88	3592.72
425.07	3510.80
425.26	3503.78
425.45	3644.21
425.64	3524.85
425.83	3627.83
426.01	3644.21
426.20	3541.23
426.39	3602.08
426.58	3576.34
426.77	3517.83
426.96	3557.61
427.15	3651.24
427.33	3744.86
427.52	3606.77
427.71	3735.50
427.90	3613.79
428.09	3798.69
428.28	3646.55
428.46	3688.68
428.65	3707.41
428.84	3803.37
429.03	3847.84
429.22	3840.82
429.40	3747.20
429.59	3812.73
429.78	3700.39
429.97	3606.77
430.16	3775.28
430.34	3908.69
430.53	3969.55
430.72	3796.35
430.91	3941.46
431.10	3927.42
431.28	4112.32
431.47	4119.34
431.66	4124.02
431.85	4079.55
432.03	4311.27
432.22	4201.26
432.41	4109.98
432.60	4152.11
432.79	4189.56
432.97	4304.25
433.16	4280.84
433.35	4180.20
433.54	4285.52
433.72	4091.26
433.91	4292.54
434.10	4353.40
434.28	4280.84
434.47	4318.29
434.66	4432.97
434.85	4493.83
435.03	4552.34
435.22	4430.63
435.41	4617.88
435.59	4648.30
435.78	4568.73
435.97	4585.11
436.16	4793.42
436.34	4507.87
436.53	4608.51
436.72	4669.37
436.90	4634.26
437.09	4648.30
437.28	4521.92
437.46	4688.09
437.65	4636.60
437.84	4706.82
438.02	4667.03
438.21	4837.89
438.40	4498.51
438.58	4865.97
438.77	4830.87
438.96	4896.40
439.14	5064.92
439.33	5121.09
439.52	5118.75
439.70	5008.75
439.89	4987.68
440.08	5029.81
440.26	5158.54
440.45	5186.63
440.63	5303.65
440.82	5397.28
441.01	5287.27
441.19	5446.43
441.38	5591.54
441.57	5451.11
441.75	5472.17
441.94	5792.83
442.12	5680.48
442.31	5643.03
442.50	5472.17
442.68	5650.05
442.87	5626.65
443.05	5654.73
443.24	5895.81
443.43	5870.06
443.61	5919.21
443.80	5916.87
443.98	5551.75
444.17	5584.52
444.35	5823.25
444.54	5956.66
444.73	5849.00
444.91	5996.45
445.10	5832.62
445.28	5891.13
445.47	5914.53
445.65	5877.09
445.84	5954.32
446.02	5895.81
446.21	5823.25
446.39	5989.43
446.58	5909.85
446.77	5956.66
446.95	5844.32
447.14	6031.56
447.32	6050.28
447.51	5956.66
447.69	5947.30
447.88	6113.48
448.06	6300.72
448.25	6202.42
448.43	6090.07
448.62	6031.56
448.80	6090.07
448.99	6216.46
449.17	5984.75
449.36	6111.14
449.54	6450.52
449.73	6384.98
449.91	6317.11
450.10	6312.42
450.28	6471.58
450.46	6523.07
450.65	6265.61
450.83	6476.26
451.02	6438.81
451.20	6551.16
451.39	6619.04
451.57	6448.18
451.76	6471.58
451.94	6523.07
452.13	6548.82
452.31	6492.65
452.49	6450.52
452.68	6523.07
452.86	6530.09
453.05	6593.29
453.23	6548.82
453.42	6553.50
453.60	6623.72
453.78	6672.87
453.97	6707.98
454.15	6661.16
454.34	6846.07
454.52	6698.61
454.70	6789.89
454.89	6726.70
455.07	6951.39
455.26	6841.39
455.44	7101.19
455.62	7037.99
455.81	7014.59
455.99	7091.82
456.17	7185.44
456.36	7014.59
456.54	7267.36
456.73	7119.91
456.91	7325.88
457.09	7258.00
457.28	7445.24
457.46	7279.07
457.64	7250.98
457.83	7274.38
458.01	7316.51
458.19	7332.90
458.38	7311.83
458.56	7508.44
458.74	7569.29
458.93	7492.05
459.11	7581.00
459.29	7438.22
459.48	7691.00
459.66	7545.89
459.84	7510.78
460.03	7557.59
460.21	7702.70
460.39	7878.24
460.57	7676.96
460.76	7641.85
460.94	7761.22
461.12	7524.82
461.31	7831.43
461.49	7887.61
461.67	7772.92
461.85	8013.99
462.04	7822.07
462.22	8388.48
462.40	7875.90
462.59	8074.85
462.77	7978.89
462.95	8126.34
463.13	8042.08
463.32	8091.23
463.50	8248.05
463.68	8250.39
463.86	8234.00
464.05	8037.40
464.23	8154.43
464.41	8259.75
464.59	7880.58
464.78	8210.60
464.96	8301.88
465.14	8105.28
465.32	8409.54
465.50	8559.34
465.69	8336.99
465.87	8400.18
466.05	8299.54
466.23	8372.10
466.41	8409.54
466.60	8365.07
466.78	8374.44
466.96	8341.67
467.14	8634.24
467.32	8606.15
467.51	8606.15
467.69	8353.37
467.87	8554.66
468.05	8641.26
468.23	8592.11
468.41	8606.15
468.60	8648.28
468.78	8664.66
468.96	8566.36
469.14	8823.82
469.32	8926.80
469.50	8784.03
469.69	8938.51
469.87	9036.81
470.05	9043.83
470.23	8882.33
470.41	8929.14
470.59	8924.46
470.77	8940.85
470.95	9132.77
471.14	9249.80
471.32	9053.19
471.50	9451.08
471.68	9373.85
471.86	9401.93
472.04	9172.56
472.22	9664.07
472.40	9254.48
472.58	9423.00
472.77	9607.90
472.95	9521.30
473.13	10113.45
473.31	9570.45
473.49	9324.69
473.67	9563.43
473.85	9956.64
474.03	10038.56
474.21	10083.03
474.39	10001.11
474.57	10036.22
474.75	10200.05
474.93	10249.21
475.12	10106.43
475.30	10504.32
475.48	10279.63
475.66	10291.34
475.84	10249.21
476.02	10300.70
476.20	10279.63
476.38	10520.71
476.56	10801.57
476.74	10677.52
476.92	10658.80
477.10	10726.68
477.28	10993.50
477.46	10956.05
477.64	11044.99
477.82	11169.04
478.00	11360.96
478.18	11265.00
478.36	11569.27
478.54	11456.92
478.72	11616.08
478.90	11721.40
479.08	11829.07
479.26	11885.24
479.44	11808.00
479.62	12063.12
479.80	12161.42
479.98	12222.28
480.16	12489.10
480.34	12154.40
480.52	12549.95
480.70	12659.96
480.88	12397.82
481.06	12547.61
481.24	12683.36
481.41	12919.76
481.59	13158.49
481.77	13142.11
481.95	13060.19
482.13	13504.89
482.31	13191.26
482.49	13413.61
482.67	13460.42
482.85	13645.32
483.03	13750.65
483.21	13872.36
483.39	14040.87
483.57	14272.59
483.74	14274.93
483.92	14441.11
484.10	14295.99
484.28	14471.53
484.46	14806.23
484.64	14916.23
484.82	14691.54
485.00	14785.16
485.18	15096.46
485.35	15051.99
485.53	15199.44
485.71	15037.94
485.89	15204.12
486.07	15466.26
486.25	15583.29
486.43	15611.37
486.61	15758.83
486.78	16243.32
486.96	16276.09
487.14	16774.62
487.32	16575.67
487.50	16411.84
487.68	16753.55
487.85	17158.47
488.03	16875.26
488.21	17008.67
488.39	17186.55
488.57	17193.58
488.75	17467.42
488.92	17631.26
489.10	17783.39
489.28	17757.64
489.46	17914.46
489.64	17813.82
489.81	18321.71
489.99	18443.42
490.17	18661.09
490.35	18494.91
490.53	18981.74
490.70	18916.21
490.88	18899.83
491.06	19236.86
491.24	18948.98
491.41	19309.42
491.59	19082.39
491.77	18951.32
491.95	19239.20
492.13	19824.34
492.30	19941.36
492.48	19974.13
492.66	20123.93
492.84	20219.89
493.01	20437.56
493.19	20496.07
493.37	20594.37
493.54	20606.08
493.72	20877.58
493.90	20753.53
494.08	21137.38
494.25	21310.58
494.43	21497.82
494.61	21542.29
494.79	21462.71
494.96	21809.11
495.14	21736.56
495.32	21504.84
495.49	21832.52
495.67	22003.38
495.85	21771.66
496.02	22169.55
496.20	22438.72
496.38	22375.52
496.55	22607.23
496.73	23145.56
496.91	22845.97
497.09	22991.08
497.26	23580.90
497.44	23161.94
497.62	23166.62
497.79	23218.11
497.97	23285.99
498.14	23466.21
498.32	23501.32
498.50	23651.11
498.67	23754.10
498.85	23857.08
499.03	24077.09
499.20	24231.57
499.38	24247.95
499.56	24238.59
499.73	24584.99
499.91	24208.16
500.08	24694.99
500.26	24694.99
500.44	24807.34
500.61	24793.29
500.79	24891.60
500.97	24800.32
501.14	25376.09
501.32	25385.45
501.49	25535.24
501.67	25298.85
501.84	25811.43
502.02	25418.22
502.20	25781.00
502.37	25898.03
502.55	25823.13
502.72	25869.94
502.90	25993.99
503.07	25942.50
503.25	26129.74
503.43	26321.66
503.60	26347.41
503.78	26810.84
503.95	26167.19
504.13	26644.66
504.30	26452.73
504.48	26852.97
504.65	26691.47
504.83	27044.89
505.01	27037.87
505.18	27192.34
505.36	27800.88
505.53	27285.97
505.71	27882.80
505.88	27489.59
506.06	27225.11
506.23	27768.12
506.41	27466.19
506.58	27634.71
506.76	27740.03
506.93	28058.34
507.11	27990.47
507.28	28065.36
507.46	27789.18
507.63	27906.21
507.81	28151.96
507.98	28149.62
508.16	28849.44
508.33	28348.57
508.50	28470.28
508.68	28716.03
508.85	29310.53
509.03	29088.18
509.20	29242.65
509.38	29216.91
509.55	29469.69
509.73	29687.36
509.90	29359.68
510.08	29495.43
510.25	29298.83
510.42	29626.50
510.60	29553.94
510.77	29890.98
510.95	29771.61
511.12	29567.99
511.30	29928.43
511.47	29804.38
511.64	30279.51
511.82	30150.78
511.99	30103.97
512.17	30382.49
512.34	30015.03
512.51	30480.80
512.69	30352.07
512.86	30937.20
513.04	30888.05
513.21	30752.30
513.38	30941.88
513.56	30679.74
513.73	30995.71
513.90	30885.71
514.08	30885.71
514.25	30747.62
514.43	31498.93
514.60	31253.17
514.77	31377.22
514.95	31805.54
515.12	31667.45
515.29	31674.47
515.47	32210.45
515.64	31585.53
515.81	31978.74
515.99	31819.58
516.16	31639.36
516.33	31997.46
516.51	32257.26
516.68	31721.28
516.85	31772.77
517.03	31665.11
517.20	32119.17
517.37	31775.11
517.54	32243.22
517.72	31906.18
517.89	32470.25
518.06	32051.30
518.24	32503.02
518.41	32261.94
518.58	32582.60
518.75	32493.66
518.93	32893.89
519.10	32914.95
519.27	32914.95
519.45	32870.48
519.62	33057.73
519.79	33172.41
519.96	33752.87
520.14	33455.62
520.31	33530.51
520.48	33469.66
520.65	33455.62
520.83	33750.52
521.00	33886.28
521.17	33750.52
521.34	34169.48
521.52	34066.50
521.69	33968.19
521.86	33883.94
522.03	34345.02
522.20	34483.11
522.38	34506.52
522.55	34536.94
522.72	34642.27
522.89	34106.29
523.07	34352.04
523.24	34225.65
523.41	34773.34
523.58	34567.37
523.75	35175.91
523.92	35182.93
524.10	35089.31
524.27	35290.60
524.44	35035.48
524.61	34953.56
524.78	35672.10
524.96	35367.84
525.13	35454.44
525.30	35618.27
525.47	35632.32
525.64	35325.71
525.81	35545.72
525.98	35304.64
526.16	35035.48
526.33	35754.02
526.50	35641.68
526.67	35594.87
526.84	35498.91
527.01	35854.67
527.18	35952.97
527.36	35819.56
527.53	36250.22
527.70	36662.15
527.87	36503.00
528.04	36123.83
528.21	36327.45
528.38	35868.71
528.55	36465.55
528.72	36594.28
528.89	36861.10
529.07	36645.77
529.24	36428.10
529.41	36449.16
529.58	36463.21
529.75	36793.22
529.92	37212.18
530.09	36900.89
530.26	37127.92
530.43	37024.93
530.60	36631.72
530.77	36928.97
530.94	37127.92
531.11	36739.39
531.28	37174.73
531.46	37031.96
531.63	37574.96
531.80	37483.68
531.97	37439.21
532.14	37394.74
532.31	37434.53
532.48	37572.62
532.65	38094.56
532.82	37701.35
532.99	37310.48
533.16	37368.99
533.33	37780.93
533.50	37837.10
533.67	37607.73
533.84	37682.62
534.01	37649.86
534.18	38447.98
534.35	38373.08
534.52	38422.23
534.69	38447.98
534.86	38307.55
535.03	38103.92
535.20	38391.81
535.37	38281.80
535.54	38937.15
535.71	38761.61
535.88	38602.46
536.05	38557.99
536.22	38663.31
536.38	38817.78
536.55	38775.66
536.72	38733.53
536.89	38770.97
537.06	38546.28
537.23	39285.89
537.40	38731.18
537.57	38822.47
537.74	38955.88
537.91	39470.79
538.08	39239.08
538.25	39009.71
538.42	38843.53
538.59	39103.33
538.75	38773.31
538.92	38983.96
539.09	39356.11
539.26	39189.93
539.43	39407.60
539.60	39325.68
539.77	39143.12
539.94	39505.90
540.11	39433.35
540.28	39461.43
540.44	39246.10
540.61	39730.59
540.78	39562.08
540.95	39611.23
541.12	39491.86
541.29	39882.73
541.46	39199.29
541.62	40105.08
541.79	39662.72
541.96	40065.29
542.13	39779.74
542.30	39636.97
542.47	40437.44
542.63	40168.27
542.80	40418.71
542.97	40704.26
543.14	40896.18
543.31	40259.55
543.48	40772.13
543.64	40947.67
543.81	40982.78
543.98	40722.98
544.15	40737.02
544.32	40582.55
544.48	41240.24
544.65	40849.37
544.82	40870.43
544.99	40912.56
545.16	40886.82
545.32	40872.78
545.49	41202.79
545.66	41642.81
545.83	41053.00
546.00	41418.12
546.16	41209.81
546.33	40816.60
546.50	40875.12
546.67	40797.88
546.83	40938.31
547.00	41340.88
547.17	41331.52
547.34	41855.80
547.50	41504.72
547.67	42181.13
547.84	41352.58
548.00	41729.41
548.17	42000.91
548.34	42024.32
548.51	41858.14
548.67	41790.27
548.84	42005.59
549.01	41844.10
549.18	41504.72
549.34	42071.13
549.51	41874.52
549.68	41879.21
549.84	42234.97
550.01	42206.88
550.18	41635.79
550.34	41890.91
550.51	42197.52
550.68	41872.18
550.84	42054.75
551.01	42052.41
551.18	41977.51
551.34	41855.80
551.51	42232.63
551.68	42368.38
551.84	42588.39
552.01	42300.50
552.18	42293.48
552.34	42361.36
552.51	42719.46
552.68	42499.45
552.84	42600.09
553.01	43182.88
553.18	42384.76
553.34	42279.44
553.51	42244.33
553.67	42674.99
553.84	43016.71
554.01	43185.22
554.17	43075.22
554.34	43047.13
554.51	43316.29
554.67	43138.41
554.84	43388.85
555.00	42742.86
555.17	42941.81
555.33	43072.88
555.50	42759.25
555.67	43049.47
555.83	43164.16
556.00	43175.86
556.16	43442.68
556.33	43442.68
556.50	42864.57
556.66	43185.22
556.83	42822.44
556.99	43461.41
557.16	43304.59
557.32	43491.83
557.49	43122.03
557.65	42909.04
557.82	43250.76
557.98	42932.45
558.15	42782.65
558.32	43501.20
558.48	43676.74
558.65	43826.53
558.81	42932.45
558.98	43487.15
559.14	43274.16
559.31	43988.03
559.47	43770.36
559.64	43452.05
559.80	44065.27
559.97	43557.37
560.13	43302.25
560.30	43468.43
560.46	43634.61
560.63	43622.90
560.79	43805.47
560.96	44079.31
561.12	43522.26
561.29	43723.55
561.45	43768.02
561.61	44095.69
561.78	43332.68
561.94	44348.47
562.11	43346.72
562.27	44023.14
562.44	43714.19
562.60	43777.38
562.77	44273.57
562.93	43971.64
563.10	44219.74
563.26	43814.83
563.42	44133.14
563.59	43770.36
563.75	43863.98
563.92	44280.60
564.08	44648.06
564.24	44561.46
564.41	43985.69
564.57	44032.50
564.74	43681.42
564.90	44231.44
565.07	44474.86
565.23	43894.41
565.39	43742.27
565.56	44144.84
565.72	43992.71
565.88	44172.93
566.05	43973.98
566.21	44006.75
566.38	44119.10
566.54	43948.24
566.70	44493.58
566.87	44299.32
567.03	44194.00
567.19	44486.56
567.36	44353.15
567.52	43992.71
567.68	44301.66
567.85	44081.65
568.01	44083.99
568.17	43777.38
568.34	44411.67
568.50	44231.44
568.66	44060.58
568.83	44203.36
568.99	44245.49
569.15	44612.95
569.32	44442.09
569.48	44107.40
569.64	44481.88
569.81	44411.67
569.97	44385.92
570.13	44521.67
570.30	44191.65
570.46	43744.61
570.62	44046.54
570.78	44432.73
570.95	44156.55
571.11	44741.68
571.27	44360.17
571.43	44474.86
571.60	44772.11
571.76	44313.36
571.92	44760.40
572.09	44397.62
572.25	44648.06
572.41	44512.31
572.57	44453.79
572.74	44912.54
572.90	44467.84
573.06	44458.48
573.22	44381.24
573.38	44776.79
573.55	44093.35
573.71	44844.66
573.87	44451.45
574.03	44563.80
574.20	44893.82
574.36	44648.06
574.52	44568.48
574.68	44619.97
574.84	44545.08
575.01	44516.99
575.17	44294.64
575.33	44617.63
575.49	44659.76
575.65	44818.92
575.82	44968.71
575.98	44566.14
576.14	44926.58
576.30	44638.70
576.46	44605.93
576.62	44259.53
576.79	44676.15
576.95	44619.97
577.11	44479.54
577.27	44423.37
577.43	44617.63
577.59	44870.41
577.75	44774.45
577.92	44367.20
578.08	44325.07
578.24	43924.83
578.40	44729.98
578.56	44615.29
578.72	44811.90
578.88	44928.92
579.04	44779.13
579.21	44460.82
579.37	44638.70
579.53	44615.29
579.69	44737.00
579.85	44748.70
580.01	44945.31
580.17	45179.36
580.33	45256.60
580.49	44804.88
580.65	45118.51
580.82	44919.56
580.98	44671.46
581.14	44044.20
581.30	44519.33
581.46	45013.18
581.62	44863.39
581.78	44861.05
581.94	44704.23
582.10	44879.77
582.26	45083.40
582.42	44900.84
582.58	45029.57
582.74	44584.86
582.90	44605.93
583.06	45029.57
583.22	44954.67
583.38	45361.92
583.54	44926.58
583.70	44835.30
583.86	44823.60
584.02	44304.00
584.18	45081.06
584.34	44811.90
584.50	45118.51
584.66	45097.44
584.82	44577.84
584.98	45092.76
585.14	44954.67
585.30	44708.91
585.46	44884.45
585.62	44683.17
585.78	44509.97
585.94	44320.38
586.10	45006.16
586.26	44706.57
586.42	44996.80
586.58	44973.39
586.74	45013.18
586.90	44954.67
587.06	44762.75
587.22	44692.53
587.38	44367.20
587.54	44879.77
587.70	45265.96
587.86	45186.38
588.02	44811.90
588.18	45221.49
588.34	44947.65
588.49	44739.34
588.65	44734.66
588.81	44610.61
588.97	44425.71
589.13	44484.22
589.29	44964.03
589.45	44835.30
589.61	45287.03
589.77	44931.26
589.93	44882.11
590.08	45249.58
590.24	45223.83
