SpectraSuite Data File
++++++++++++++++++++++++++++++++++++
Date: Fri Oct 25 10:44:23 EDT 2013
User: price-jones
Dark Spectrum Present: No
Reference Spectrum Present: No
Number of Sampled Component Spectra: 1
Spectrometers: USB2+H05261
Integration Time (usec): 100000 (USB2+H05261)
Spectra Averaged: 1 (USB2+H05261)
Boxcar Smoothing: 0 (USB2+H05261)
Correct for Electrical Dark: No (USB2+H05261)
Strobe/Lamp Enabled: No (USB2+H05261)
Correct for Detector Non-linearity: No (USB2+H05261)
Correct for Stray Light: No (USB2+H05261)
Number of Pixels in Processed Spectrum: 2048
>>>>>Begin Processed Spectral Data<<<<<
365.73	196.60
365.92	196.60
366.12	196.60
366.32	72.56
366.52	74.90
366.72	37.45
366.91	72.56
367.11	0.00
367.31	0.00
367.51	67.88
367.70	110.01
367.90	44.47
368.10	32.77
368.30	63.19
368.49	0.00
368.69	72.56
368.89	88.94
369.09	35.11
369.28	65.54
369.48	0.00
369.68	49.15
369.87	95.96
370.07	53.83
370.27	156.82
370.47	194.26
370.66	334.70
370.86	418.96
371.06	505.56
371.25	472.79
371.45	425.98
371.65	444.70
371.84	449.38
372.04	482.15
372.24	451.72
372.44	531.30
372.63	566.41
372.83	433.00
373.03	521.94
373.22	498.53
373.42	559.39
373.62	496.19
373.81	566.41
374.01	538.32
374.21	587.47
374.40	550.03
374.60	615.56
374.79	557.05
374.99	636.63
375.19	585.13
375.38	573.43
375.58	482.15
375.78	610.88
375.97	638.97
376.17	685.78
376.37	608.54
376.56	643.65
376.76	638.97
376.95	650.67
377.15	596.84
377.35	709.18
377.54	669.39
377.74	685.78
377.93	587.47
378.13	613.22
378.33	699.82
378.52	627.26
378.72	744.29
378.91	690.46
379.11	641.31
379.31	709.18
379.50	683.44
379.70	711.52
379.89	760.67
380.09	638.97
380.28	697.48
380.48	631.94
380.68	732.59
380.87	697.48
381.07	725.57
381.26	781.74
381.46	774.72
381.65	688.12
381.85	676.41
382.04	655.35
382.24	667.05
382.43	706.84
382.63	706.84
382.83	744.29
383.02	842.59
383.22	730.25
383.41	667.05
383.61	650.67
383.80	784.08
384.00	805.14
384.19	833.23
384.39	830.89
384.58	746.63
384.78	755.99
384.97	830.89
385.17	741.95
385.36	840.25
385.56	819.19
385.75	751.31
385.95	828.55
386.14	936.21
386.34	805.14
386.53	770.04
386.72	748.97
386.92	905.79
387.11	786.42
387.31	905.79
387.50	894.08
387.70	849.61
387.89	945.58
388.09	866.00
388.28	901.11
388.48	882.38
388.67	917.49
388.86	908.13
389.06	1011.11
389.25	1048.56
389.45	971.32
389.64	1008.77
389.84	1053.24
390.03	1088.35
390.22	1095.37
390.42	983.02
390.61	1015.79
390.81	1015.79
391.00	1074.31
391.19	1081.33
391.39	1034.52
391.58	1102.39
391.78	1102.39
391.97	1041.54
392.16	1081.33
392.36	1123.46
392.55	1132.82
392.75	1006.43
392.94	1041.54
393.13	1043.88
393.33	1081.33
393.52	1055.58
393.71	1111.75
393.91	1125.80
394.10	1170.27
394.29	1193.67
394.49	1179.63
394.68	1231.12
394.88	1287.29
395.07	1256.87
395.26	1240.48
395.46	1203.04
395.65	1188.99
395.84	1273.25
396.04	1303.68
396.23	1210.06
396.42	1210.06
396.62	1174.95
396.81	1210.06
397.00	1212.40
397.19	1331.76
397.39	1308.36
397.58	1343.47
397.77	1387.94
397.97	1488.58
398.16	1516.67
398.35	1563.48
398.55	1362.19
398.74	1551.78
398.93	1624.33
399.12	1577.52
399.32	1551.78
399.51	1626.67
399.70	1722.63
399.90	1584.54
400.09	1694.55
400.28	1732.00
400.47	1661.78
400.67	1722.63
400.86	1614.97
401.05	1638.38
401.24	1741.36
401.44	1729.66
401.63	1771.79
401.82	1778.81
402.01	1757.74
402.21	1750.72
402.40	1811.57
402.59	1781.15
402.78	1900.52
402.97	1820.94
403.17	1881.79
403.36	1813.92
403.55	1853.70
403.74	1923.92
403.93	1963.71
404.13	1872.43
404.32	1935.62
404.51	1921.58
404.70	2015.20
404.89	1937.96
405.09	2127.55
405.28	1954.35
405.47	1989.46
405.66	2024.56
405.85	2008.18
406.05	2022.22
406.24	2043.29
406.43	2078.40
406.62	2136.91
406.81	2204.78
407.00	2146.27
407.20	2031.58
407.39	2174.36
407.58	2230.53
407.77	2188.40
407.96	2143.93
408.15	2389.69
408.34	2291.38
408.54	2399.05
408.73	2349.90
408.92	2361.60
409.11	2363.94
409.30	2331.17
409.49	2338.20
409.68	2338.20
409.87	2370.96
410.07	2399.05
410.26	2349.90
410.45	2492.67
410.64	2483.31
410.83	2527.78
411.02	2452.88
411.21	2635.44
411.40	2637.78
411.59	2583.95
411.78	2719.70
411.98	2722.04
412.17	2733.75
412.36	2703.32
412.55	2848.43
412.74	2878.86
412.93	2822.69
413.12	2733.75
413.31	2963.12
413.50	2911.63
413.69	3014.61
413.88	3028.65
414.07	2977.16
414.26	3023.97
414.45	3070.78
414.64	3038.02
414.83	3166.74
415.02	3042.70
415.22	3208.87
415.41	3246.32
415.60	3363.35
415.79	3391.44
415.98	3344.63
416.17	3169.09
416.36	3335.26
416.55	3342.28
416.74	3435.91
416.93	3478.04
417.12	3384.41
417.31	3407.82
417.50	3346.97
417.69	3665.28
417.88	3487.40
418.07	3501.44
418.26	3478.04
418.45	3606.77
418.64	3705.07
418.83	3740.18
419.02	3698.05
419.21	3585.70
419.39	3691.02
419.58	3630.17
419.77	3653.58
419.96	3728.47
420.15	3676.98
420.34	3784.65
420.53	3943.80
420.72	3904.01
420.91	3962.53
421.10	3840.82
421.29	3946.14
421.48	3831.46
421.67	3988.27
421.86	3833.80
422.05	3859.54
422.24	3812.73
422.43	3857.20
422.61	3885.29
422.80	4060.83
422.99	3995.29
423.18	3957.85
423.37	4079.55
423.56	4107.64
423.75	4072.53
423.94	4051.47
424.13	3639.53
424.32	3833.80
424.50	4119.34
424.69	4135.73
424.88	4236.37
425.07	3932.10
425.26	3927.42
425.45	3918.06
425.64	4093.60
425.83	4035.08
426.01	4177.86
426.20	4140.41
426.39	4152.11
426.58	4028.06
426.77	4074.87
426.96	3981.25
427.15	4098.28
427.33	4121.68
427.52	4173.18
427.71	4212.96
427.90	4063.17
428.09	4344.03
428.28	4177.86
428.46	4297.22
428.65	4255.09
428.84	4287.86
429.03	4320.63
429.22	4109.98
429.40	4273.82
429.59	4222.33
429.78	4042.11
429.97	4140.41
430.16	4107.64
430.34	4205.94
430.53	4358.08
430.72	4351.06
430.91	4346.37
431.10	4477.44
431.28	4575.75
431.47	4702.14
431.66	4739.58
431.85	4865.97
432.03	4664.69
432.22	4690.43
432.41	4634.26
432.60	4833.21
432.79	4936.19
432.97	4912.78
433.16	4861.29
433.35	4741.93
433.54	4863.63
433.72	4716.18
433.91	4755.97
434.10	4828.53
434.28	4924.49
434.47	4870.65
434.66	4880.02
434.85	5118.75
435.03	5221.74
435.22	5137.48
435.41	5214.71
435.59	5118.75
435.78	5158.54
435.97	5177.26
436.16	5193.65
436.34	5291.95
436.53	5362.17
436.72	5390.25
436.90	5118.75
437.09	5287.27
437.28	5074.28
437.46	5203.01
437.65	5184.29
437.84	5345.78
438.02	5383.23
438.21	5263.86
438.40	5364.51
438.58	5526.00
438.77	5572.82
438.96	5500.26
439.14	5659.42
439.33	5806.87
439.52	5687.50
439.70	5825.59
439.89	5884.11
440.08	5865.38
440.26	5921.56
440.45	5647.71
440.63	5977.73
440.82	6289.02
441.01	6097.10
441.19	6115.82
441.38	6209.44
441.57	6370.94
441.75	6434.13
441.94	6623.72
442.12	6480.94
442.31	6518.39
442.50	6509.03
442.68	6520.73
442.87	6516.05
443.05	6565.20
443.24	6724.36
443.43	6640.10
443.61	6619.04
443.80	6832.02
443.98	6445.84
444.17	6471.58
444.35	6642.44
444.54	6719.68
444.73	6789.89
444.91	6785.21
445.10	6672.87
445.28	6640.10
445.47	6504.35
445.65	6492.65
445.84	6665.85
446.02	6822.66
446.21	6593.29
446.39	6902.24
446.58	6743.08
446.77	6913.94
446.95	6715.00
447.14	6906.92
447.32	6869.47
447.51	6689.25
447.69	6773.51
447.88	6785.21
448.06	7014.59
448.25	6855.43
448.43	7068.42
448.62	6944.37
448.80	6813.30
448.99	7023.95
449.17	7152.68
449.36	7077.78
449.54	7218.21
449.73	7201.83
449.91	7328.22
450.10	7503.76
450.28	7522.48
450.46	7527.16
450.65	7487.37
450.83	7454.61
451.02	7295.45
451.20	7323.54
451.39	7400.77
451.57	7342.26
451.76	7353.96
451.94	7382.05
452.13	7515.46
452.31	7396.09
452.49	7295.45
452.68	7314.17
452.86	7529.50
453.05	7353.96
453.23	7466.31
453.42	7559.93
453.60	7592.70
453.78	7716.75
453.97	7531.84
454.15	7606.74
454.34	7653.55
454.52	7674.62
454.70	7634.83
454.89	8004.63
455.07	7695.68
455.26	7693.34
455.44	8039.74
455.62	7988.25
455.81	7826.75
455.99	7810.37
456.17	8189.53
456.36	8093.57
456.54	8056.12
456.73	8177.83
456.91	8334.65
457.09	8280.82
457.28	8327.63
457.46	8175.49
457.64	8262.09
457.83	8376.78
458.01	8271.45
458.19	8360.39
458.38	8365.07
458.56	8699.77
458.74	8421.25
458.93	8561.68
459.11	8664.66
459.29	8383.80
459.48	8636.58
459.66	8784.03
459.84	8629.56
460.03	8594.45
460.21	8622.53
460.39	8704.45
460.57	8840.20
460.76	8798.07
460.94	8961.91
461.12	8748.92
461.31	8950.21
461.49	8982.98
461.67	8835.52
461.85	9177.24
462.04	8924.46
462.22	9130.43
462.40	8978.30
462.59	9128.09
462.77	9153.84
462.95	9214.69
463.13	9282.56
463.32	9160.86
463.50	9254.48
463.68	9465.13
463.86	9212.35
464.05	9142.13
464.23	9118.73
464.41	9334.06
464.59	9172.56
464.78	9249.80
464.96	9249.80
465.14	9357.46
465.32	9413.63
465.50	9673.43
465.69	9439.38
465.87	9291.93
466.05	9486.19
466.23	9441.72
466.41	9476.83
466.60	9500.23
466.78	9439.38
466.96	9678.12
467.14	9678.12
467.32	9668.75
467.51	9811.53
467.69	9490.87
467.87	9514.28
468.05	9729.61
468.23	9479.17
468.41	9544.70
468.60	9689.82
468.78	9724.93
468.96	9731.95
469.14	9813.87
469.32	10071.33
469.50	9809.19
469.69	10040.90
469.87	10010.47
470.05	10073.67
470.23	10260.91
470.41	10157.92
470.59	10239.84
470.77	10097.07
470.95	9975.36
471.14	10319.42
471.32	10237.50
471.50	10670.50
471.68	10724.33
471.86	10607.31
472.04	10686.89
472.22	10916.26
472.40	10661.14
472.58	10504.32
472.77	10649.44
472.95	10719.65
473.13	10923.28
473.31	10684.55
473.49	10956.05
473.67	10839.02
473.85	11012.22
474.03	11257.98
474.21	11044.99
474.39	11496.71
474.57	11311.81
474.75	11377.34
474.93	11606.72
475.12	11283.72
475.30	11552.88
475.48	11541.18
475.66	11365.64
475.84	11590.33
476.02	11620.76
476.20	11555.22
476.38	11817.36
476.56	12224.62
476.74	11948.43
476.92	12210.57
477.10	12177.81
477.28	12596.76
477.46	12397.82
477.64	12674.00
477.82	12702.09
478.00	13104.66
478.18	12711.45
478.36	12861.24
478.54	12802.73
478.72	12854.22
478.90	13179.56
479.08	13296.58
479.26	13312.97
479.44	13437.02
479.62	13411.27
479.80	13970.66
479.98	13898.10
480.16	13902.78
480.34	14066.62
480.52	14221.10
480.70	14139.18
480.88	14047.90
481.06	14228.12
481.24	14204.71
481.41	14810.91
481.59	14560.47
481.77	14740.69
481.95	14719.63
482.13	15215.82
482.31	14937.30
482.49	15316.47
482.67	15300.08
482.85	15365.62
483.03	15417.11
483.21	15714.36
483.39	15833.72
483.57	15674.57
483.74	15969.48
483.92	16215.23
484.10	16318.22
484.28	16130.97
484.46	16503.12
484.64	16727.81
484.82	16669.30
485.00	16573.33
485.18	16882.28
485.35	16812.07
485.53	16505.46
485.71	16535.88
485.89	16830.79
486.07	16936.12
486.25	17088.25
486.43	17181.87
486.61	17418.27
486.78	17460.40
486.96	17895.74
487.14	18111.07
487.32	18031.49
487.50	18391.93
487.68	18576.83
487.85	18644.71
488.03	18972.38
488.21	18920.89
488.39	18836.63
488.57	18860.04
488.75	19035.58
488.92	19545.81
489.10	19653.48
489.28	19946.05
489.46	20255.00
489.64	20194.14
489.81	20725.44
489.99	20339.26
490.17	20673.95
490.35	21120.99
490.53	20769.91
490.70	20805.02
490.88	21188.87
491.06	21296.53
491.24	21387.82
491.41	21205.25
491.59	21352.71
491.77	21252.06
491.95	21628.89
492.13	21738.90
492.30	22080.61
492.48	22111.04
492.66	22267.86
492.84	22302.96
493.01	22649.36
493.19	22309.99
493.37	22696.17
493.54	22792.14
493.72	22817.88
493.90	22993.42
494.08	23562.17
494.25	23536.43
494.43	23892.19
494.61	23613.66
494.79	23810.27
494.96	24219.86
495.14	23637.07
495.32	24130.92
495.49	24009.22
495.67	24547.54
495.85	24563.92
496.02	24620.10
496.20	24950.11
496.38	24861.17
496.55	25001.60
496.73	26017.40
496.91	25312.89
497.09	25886.32
497.26	25542.27
497.44	25806.75
497.62	25652.27
497.79	26050.16
497.97	25654.61
498.14	25888.67
498.32	25942.50
498.50	26047.82
498.67	26375.50
498.85	26761.69
499.03	26354.43
499.20	26986.38
499.38	26906.80
499.56	26871.69
499.73	26895.10
499.91	27061.27
500.08	27435.76
500.26	26785.09
500.44	26906.80
500.61	27009.78
500.79	27330.44
500.97	27288.31
501.14	27803.22
501.32	27831.31
501.49	27784.50
501.67	27742.37
501.84	27857.06
502.02	28133.24
502.20	28114.52
502.37	28732.42
502.55	28259.63
502.72	28411.76
502.90	28968.81
503.07	28559.22
503.25	29029.66
503.43	28561.56
503.60	28631.77
503.78	28463.25
503.95	28982.85
504.13	28814.34
504.30	29137.33
504.48	29317.55
504.65	29619.48
504.83	29579.69
505.01	29680.33
505.18	30213.98
505.36	30286.53
505.53	30260.79
505.71	30403.56
505.88	30366.11
506.06	29923.75
506.23	30347.39
506.41	30157.80
506.58	30122.69
506.76	30726.55
506.93	30511.22
507.11	30838.90
507.28	30820.17
507.46	30644.63
507.63	30583.78
507.81	30794.43
507.98	30593.14
508.16	31094.02
508.33	31477.86
508.50	31292.96
508.68	31248.49
508.85	31828.95
509.03	31494.25
509.20	31791.50
509.38	31962.36
509.55	31796.18
509.73	31945.97
509.90	31784.48
510.08	31901.50
510.25	32428.12
510.42	32570.90
510.60	32381.31
510.77	32261.94
510.95	32678.56
511.12	32823.67
511.30	32496.00
511.47	33191.14
511.64	33209.86
511.82	33198.16
511.99	32950.06
512.17	33010.92
512.34	33036.66
512.51	33193.48
512.69	33893.30
512.86	33371.36
513.04	33823.08
513.21	33411.15
513.38	33556.26
513.56	33303.48
513.73	33673.29
513.90	33764.57
514.08	33797.34
514.25	33977.56
514.43	33787.97
514.60	33376.04
514.77	34213.95
514.95	34309.91
515.12	34181.18
515.29	34656.31
515.47	34586.10
515.64	34787.38
515.81	34134.37
515.99	34473.75
516.16	34342.68
516.33	34061.82
516.51	34550.99
516.68	33968.19
516.85	33909.68
517.03	34527.58
517.20	34586.10
517.37	34902.07
517.54	35129.10
517.72	34731.21
517.89	34429.28
518.06	34604.82
518.24	34841.21
518.41	34789.72
518.58	35285.92
518.75	35051.86
518.93	35353.79
519.10	35402.94
519.27	35358.47
519.45	35644.02
519.62	36205.75
519.79	35849.99
519.96	36135.53
520.14	36144.89
520.31	36350.86
520.48	35999.78
520.65	36135.53
520.83	36451.50
521.00	36788.54
521.17	36692.58
521.34	36524.06
521.52	37057.70
521.69	36622.36
521.86	37081.11
522.03	36987.49
522.20	36980.46
522.38	36769.82
522.55	36884.50
522.72	37500.06
522.89	37188.77
523.07	37509.43
523.24	37205.16
523.41	37862.85
523.58	37261.33
523.75	38206.90
523.92	37970.51
524.10	37982.21
524.27	38176.48
524.44	38010.30
524.61	38031.36
524.78	38440.96
524.96	38560.33
525.13	38085.20
525.30	38504.15
525.47	38546.28
525.64	38354.36
525.81	37895.61
525.98	38363.72
526.16	38398.83
526.33	37947.11
526.50	38337.98
526.67	38005.62
526.84	37986.89
527.01	38045.41
527.18	38766.29
527.36	39033.11
527.53	38824.81
527.70	39070.56
527.87	38742.89
528.04	39150.14
528.21	39166.52
528.38	39878.05
528.55	39583.14
528.72	39459.09
528.89	39700.17
529.07	39449.73
529.24	39304.62
529.41	39861.66
529.58	39344.41
529.75	39536.33
529.92	39683.78
530.09	39606.55
530.26	39566.76
530.43	39899.11
530.60	39871.03
530.77	40048.91
530.94	40737.02
531.11	39667.40
531.28	40257.21
531.46	40205.72
531.63	40390.62
531.80	40346.15
531.97	40289.98
532.14	40411.69
532.31	40079.33
532.48	40278.28
532.65	40091.04
532.82	40074.65
532.99	40392.97
533.16	40563.82
533.33	40662.13
533.50	40954.69
533.67	40802.56
533.84	40184.66
534.01	40678.51
534.18	41074.06
534.35	41200.45
534.52	40837.67
534.69	41219.17
534.86	41373.65
535.03	40985.12
535.20	41457.91
535.37	41741.11
535.54	41666.22
535.71	41514.08
535.88	41577.28
536.05	41549.19
536.22	41727.07
536.38	41216.83
536.55	41364.29
536.72	41392.37
536.89	41223.86
537.06	41338.54
537.23	41579.62
537.40	41958.78
537.57	41780.90
537.74	41635.79
537.91	41935.38
538.08	41998.57
538.25	41727.07
538.42	41860.48
538.59	42007.94
538.75	41827.71
538.92	41823.03
539.09	42239.65
539.26	41799.63
539.43	41904.95
539.60	42234.97
539.77	42373.06
539.94	42181.13
540.11	41972.83
540.28	42511.15
540.44	41996.23
540.61	41783.24
540.78	42426.89
540.95	42398.80
541.12	42148.37
541.29	42562.64
541.46	42412.85
541.62	42504.13
541.79	42686.69
541.96	42232.63
542.13	42808.40
542.30	42373.06
542.47	42852.87
542.63	42848.19
542.80	42782.65
542.97	43288.21
543.14	43438.00
543.31	43171.18
543.48	43194.59
543.64	44109.74
543.81	43791.42
543.98	43702.48
544.15	43498.86
544.32	43515.24
544.48	44095.69
544.65	43686.10
544.82	43676.74
544.99	43461.41
545.16	44009.09
545.32	44306.34
545.49	44144.84
545.66	44212.72
545.83	43950.58
546.00	44081.65
546.16	44079.31
546.33	43643.97
546.50	43428.64
546.67	44371.88
546.83	43821.85
547.00	43770.36
547.17	44357.83
547.34	44121.44
547.50	43604.18
547.67	44006.75
547.84	44369.54
548.00	43894.41
548.17	44320.38
548.34	44203.36
548.51	44907.86
548.67	44828.28
548.84	44563.80
549.01	44732.32
549.18	44198.68
549.34	44451.45
549.51	44912.54
549.68	44861.05
549.84	44662.10
550.01	44945.31
550.18	44170.59
550.34	44928.92
550.51	44421.03
550.68	44446.77
550.84	44781.47
551.01	44765.09
551.18	44521.67
551.34	44741.68
551.51	44849.35
551.68	44669.12
551.84	45048.29
552.01	44772.11
552.18	45280.00
552.34	44701.89
552.51	45312.77
552.68	44985.10
552.84	45535.12
553.01	44914.88
553.18	45184.04
553.34	45284.68
553.51	45050.63
553.67	45289.37
553.84	45268.30
554.01	45528.10
554.17	45542.14
554.34	45179.36
554.51	45254.26
554.67	45366.60
554.84	45710.66
555.00	45380.65
555.17	45546.82
555.33	45338.52
555.50	45134.89
555.67	45532.78
555.83	45361.92
556.00	45823.01
556.16	45911.95
556.33	45453.20
556.50	45675.55
556.66	45359.58
556.83	45179.36
556.99	45703.64
557.16	46101.53
557.32	45748.11
557.49	45717.68
557.65	45558.53
557.82	45755.13
557.98	45762.15
558.15	45844.07
558.32	45947.06
558.48	45666.19
558.65	45563.21
558.81	45890.88
558.98	45535.12
559.14	45656.83
559.31	45811.31
559.47	45769.18
559.64	45507.04
559.80	46368.35
559.97	45979.82
560.13	45347.88
560.30	45766.84
560.46	46576.66
560.63	45581.93
560.79	45923.65
560.96	46302.82
561.12	46099.19
561.29	46120.26
561.45	46433.89
561.61	45862.80
561.78	46141.32
561.94	45965.78
562.11	45741.09
562.27	45626.40
562.44	46445.59
562.60	46384.74
562.77	46466.66
562.93	46574.32
563.10	46536.87
563.26	46108.55
563.42	46309.84
563.59	46279.41
563.75	46426.87
563.92	46504.10
564.08	46167.07
564.24	46513.47
564.41	46499.42
564.57	46277.07
564.74	46185.79
564.90	46164.73
565.07	46286.43
565.23	46031.32
565.39	45993.87
565.56	46344.95
565.72	45977.48
565.88	46415.16
566.05	46321.54
566.21	45949.40
566.38	46319.20
566.54	46541.55
566.70	46705.39
566.87	47224.99
567.03	46436.23
567.19	47086.90
567.36	46450.27
567.52	46150.68
567.68	46770.93
567.85	46696.03
568.01	46731.14
568.17	46504.10
568.34	46691.35
568.50	46225.58
568.66	46548.57
568.83	46667.94
568.99	46256.01
569.15	46225.58
569.32	46220.90
569.48	46344.95
569.64	46742.84
569.81	46803.69
569.97	46663.26
570.13	46267.71
570.30	46550.91
570.46	46251.33
570.62	46087.49
570.78	45982.16
570.95	45888.54
571.11	46506.44
571.27	46089.83
571.43	46539.21
571.60	46614.11
571.76	46791.99
571.92	46548.57
572.09	46466.66
572.25	46918.38
572.41	46464.32
572.57	46972.21
572.74	46897.31
572.90	46569.64
573.06	46742.84
573.22	46541.55
573.38	46813.05
573.55	46328.56
573.71	46703.05
573.87	46508.79
574.03	46504.10
574.20	46759.22
574.36	46340.27
574.52	46974.55
574.68	46883.27
574.84	46796.67
575.01	46553.26
575.17	47133.71
575.33	46351.97
575.49	46291.12
575.65	46784.97
575.82	46897.31
575.98	46384.74
576.14	46780.29
576.30	46681.98
576.46	46953.49
576.62	46871.57
576.79	46958.17
576.95	46560.28
577.11	46611.77
577.27	46806.03
577.43	46642.20
577.59	46579.00
577.75	46480.70
577.92	46314.52
578.08	46490.06
578.24	46546.23
578.40	46291.12
578.56	46726.46
578.72	46651.56
578.88	46518.15
579.04	46520.49
579.21	46611.77
579.37	46763.90
579.53	47105.62
579.69	46836.46
579.85	46752.20
580.01	47098.60
580.17	46749.86
580.33	47159.45
580.49	46822.42
580.65	46300.48
580.82	47168.82
580.98	46738.16
581.14	46707.73
581.30	46806.03
581.46	47012.00
581.62	46712.41
581.78	46660.92
581.94	47161.79
582.10	46698.37
582.26	47154.77
582.42	46466.66
582.58	46749.86
582.74	46447.93
582.90	47222.65
583.06	47026.04
583.22	46944.12
583.38	46710.07
583.54	47288.18
583.70	46880.93
583.86	46974.55
584.02	46433.89
584.18	46653.90
584.34	46887.95
584.50	46518.15
584.66	47072.85
584.82	46681.98
584.98	46941.78
585.14	47023.70
585.30	46546.23
585.46	47042.43
585.62	47098.60
585.78	46773.27
585.94	46366.01
586.10	46714.75
586.26	46700.71
586.42	47033.07
586.58	46679.64
586.74	47068.17
586.90	46775.61
587.06	46333.24
587.22	46852.84
587.38	46438.57
587.54	46850.50
587.70	46962.85
587.86	47103.28
588.02	46850.50
588.18	47014.34
588.34	46869.23
588.49	46211.54
588.65	46160.05
588.81	46036.00
588.97	46377.72
589.13	46274.73
589.29	46637.51
589.45	46953.49
589.61	46588.36
589.77	46773.27
