SpectraSuite Data File
++++++++++++++++++++++++++++++++++++
Date: Fri Oct 25 11:22:42 EDT 2013
User: price-jones
Dark Spectrum Present: No
Reference Spectrum Present: No
Number of Sampled Component Spectra: 1
Spectrometers: USB2+H05261
Integration Time (usec): 100000 (USB2+H05261)
Spectra Averaged: 1 (USB2+H05261)
Boxcar Smoothing: 0 (USB2+H05261)
Correct for Electrical Dark: No (USB2+H05261)
Strobe/Lamp Enabled: No (USB2+H05261)
Correct for Detector Non-linearity: No (USB2+H05261)
Correct for Stray Light: No (USB2+H05261)
Number of Pixels in Processed Spectrum: 2048
>>>>>Begin Processed Spectral Data<<<<<
365.73	152.13
365.92	152.13
366.12	152.13
366.32	128.73
366.52	72.56
366.72	93.62
366.91	98.30
367.11	98.30
367.31	117.03
367.51	112.35
367.70	138.09
367.90	117.03
368.10	180.22
368.30	147.45
368.49	84.26
368.69	227.03
368.89	91.28
369.09	145.11
369.28	173.20
369.48	198.95
369.68	201.29
369.87	142.77
370.07	154.48
370.27	229.37
370.47	339.38
370.66	594.50
370.86	620.24
371.06	615.56
371.25	671.73
371.45	631.94
371.65	674.07
371.84	734.93
372.04	667.05
372.24	699.82
372.44	643.65
372.63	657.69
372.83	727.91
373.03	655.35
373.22	720.88
373.42	671.73
373.62	784.08
373.81	821.53
374.01	812.17
374.21	842.59
374.40	851.96
374.60	842.59
374.79	863.66
374.99	856.64
375.19	791.10
375.38	793.44
375.58	861.32
375.78	856.64
375.97	835.57
376.17	793.44
376.37	851.96
376.56	863.66
376.76	887.06
376.95	863.66
377.15	887.06
377.35	840.25
377.54	985.37
377.74	894.08
377.93	851.96
378.13	875.36
378.33	901.11
378.52	854.30
378.72	889.40
378.91	908.13
379.11	889.40
379.31	936.21
379.50	973.66
379.70	1032.18
379.89	1025.15
380.09	924.51
380.28	1027.50
380.48	1025.15
380.68	1015.79
380.87	992.39
381.07	1018.13
381.26	1153.88
381.46	945.58
381.65	1041.54
381.85	1018.13
382.04	1025.15
382.24	1027.50
382.43	1057.92
382.63	990.05
382.83	1078.99
383.02	1015.79
383.22	1123.46
383.41	1064.94
383.61	1032.18
383.80	1130.48
384.00	1135.16
384.19	1062.60
384.39	1078.99
384.58	1060.26
384.78	1050.90
384.97	1240.48
385.17	1053.24
385.36	1135.16
385.56	1142.18
385.75	1226.44
385.95	1193.67
386.14	1233.46
386.34	1146.86
386.53	1207.72
386.72	1142.18
386.92	1203.04
387.11	1219.42
387.31	1268.57
387.50	1214.74
387.70	1320.06
387.89	1254.53
388.09	1165.59
388.28	1181.97
388.48	1266.23
388.67	1287.29
388.86	1341.13
389.06	1348.15
389.25	1390.28
389.45	1322.40
389.64	1289.64
389.84	1324.74
390.03	1425.39
390.22	1465.18
390.42	1362.19
390.61	1287.29
390.81	1455.81
391.00	1327.08
391.19	1371.55
391.39	1497.94
391.58	1481.56
391.78	1430.07
391.97	1486.24
392.16	1537.73
392.36	1488.58
392.55	1509.65
392.75	1575.18
392.94	1549.43
393.13	1521.35
393.33	1502.62
393.52	1584.54
393.71	1652.42
393.91	1497.94
394.10	1523.69
394.29	1584.54
394.49	1699.23
394.68	1631.35
394.88	1591.56
395.07	1682.85
395.26	1565.82
395.46	1652.42
395.65	1713.27
395.84	1701.57
396.04	1769.44
396.23	1713.27
396.42	1682.85
396.62	1837.32
396.81	1865.41
397.00	1760.08
397.19	1750.72
397.39	1739.02
397.58	1750.72
397.77	1778.81
397.97	1842.00
398.16	1820.94
398.35	1863.07
398.55	1865.41
398.74	1830.30
398.93	1919.24
399.12	1919.24
399.32	1879.45
399.51	1856.04
399.70	2001.16
399.90	1863.07
400.09	1970.73
400.28	2125.21
400.47	2113.50
400.67	2036.27
400.86	2118.18
401.05	2141.59
401.24	2155.63
401.44	2115.84
401.63	2174.36
401.82	2209.47
402.01	1991.80
402.21	2174.36
402.40	2050.31
402.59	2157.97
402.78	2279.68
402.97	2125.21
403.17	2228.19
403.36	2218.83
403.55	2272.66
403.74	2317.13
403.93	2406.07
404.13	2401.39
404.32	2382.67
404.51	2382.67
404.70	2443.52
404.89	2420.11
405.09	2553.52
405.28	2534.80
405.47	2502.03
405.66	2417.77
405.85	2541.82
406.05	2441.18
406.24	2572.25
406.43	2555.86
406.62	2684.59
406.81	2658.85
407.00	2532.46
407.20	2490.33
407.39	2544.16
407.58	2670.55
407.77	2853.11
407.96	2696.30
408.15	2825.03
408.34	2717.36
408.54	2733.75
408.73	2731.41
408.92	2801.62
409.11	2911.63
409.30	2808.64
409.49	2888.22
409.68	2953.76
409.87	2920.99
410.07	3035.67
410.26	2925.67
410.45	2981.84
410.64	3014.61
410.83	3171.43
411.02	3063.76
411.21	3164.40
411.40	3159.72
411.59	3265.05
411.78	3246.32
411.98	3337.60
412.17	3192.49
412.36	3300.16
412.55	3421.86
412.74	3400.80
412.93	3400.80
413.12	3323.56
413.31	3592.72
413.50	3468.67
413.69	3545.91
413.88	3679.32
414.07	3604.42
414.26	3620.81
414.45	3691.02
414.64	3679.32
414.83	3796.35
415.02	3794.01
415.22	3836.14
415.41	3831.46
415.60	3990.61
415.79	3880.61
415.98	3934.44
416.17	4018.70
416.36	3906.35
416.55	4030.40
416.74	4028.06
416.93	3978.91
417.12	4004.66
417.31	4138.07
417.50	4119.34
417.69	4245.73
417.88	4252.75
418.07	4212.96
418.26	4376.80
418.45	4337.01
418.64	4573.41
418.83	4355.74
419.02	4428.29
419.21	4493.83
419.39	4557.02
419.58	4416.59
419.77	4409.57
419.96	4676.39
420.15	4650.64
420.34	4634.26
420.53	4498.51
420.72	4718.52
420.91	4695.11
421.10	4936.19
421.29	4690.43
421.48	4723.20
421.67	4751.29
421.86	4765.33
422.05	4713.84
422.24	4716.18
422.43	4922.15
422.61	4873.00
422.80	4915.12
422.99	4947.89
423.18	5013.43
423.37	4938.53
423.56	4980.66
423.75	4980.66
423.94	4828.53
424.13	4695.11
424.32	4699.80
424.50	5018.11
424.69	4978.32
424.88	4917.47
425.07	4800.44
425.26	5020.45
425.45	4971.30
425.64	4952.57
425.83	4898.74
426.01	5050.88
426.20	5064.92
426.39	4863.63
426.58	4964.28
426.77	5001.72
426.96	5261.52
427.15	5032.15
427.33	5132.79
427.52	5146.84
427.71	5284.93
427.90	5219.39
428.09	5359.83
428.28	5385.57
428.46	5397.28
428.65	5331.74
428.84	5547.07
429.03	5504.94
429.22	5275.57
429.40	5507.28
429.59	5432.38
429.78	5221.74
429.97	5268.55
430.16	5533.03
430.34	5654.73
430.53	5799.85
430.72	5657.07
430.91	5610.26
431.10	5708.57
431.28	5591.54
431.47	5818.57
431.66	5977.73
431.85	5785.80
432.03	5909.85
432.22	6024.54
432.41	5886.45
432.60	5879.43
432.79	5989.43
432.97	6125.18
433.16	6022.20
433.35	5968.37
433.54	6120.50
433.72	6202.42
433.91	6104.12
434.10	6171.99
434.28	6150.93
434.47	6134.54
434.66	6174.33
434.85	6274.98
435.03	6335.83
435.22	6204.76
435.41	6579.25
435.59	6373.28
435.78	6553.50
435.97	6424.77
436.16	6403.71
436.34	6324.13
436.53	6401.37
436.72	6686.91
436.90	6502.01
437.09	6665.85
437.28	6469.24
437.46	6607.33
437.65	6759.47
437.84	6764.15
438.02	6726.70
438.21	6754.79
438.40	6820.32
438.58	7126.93
438.77	7124.59
438.96	7037.99
439.14	7194.81
439.33	7101.19
439.52	7276.73
439.70	7213.53
439.89	7386.73
440.08	7351.62
440.26	7335.24
440.45	7372.69
440.63	7400.77
440.82	7550.57
441.01	7358.64
441.19	7852.50
441.38	7695.68
441.57	7728.45
441.75	7817.39
441.94	7962.50
442.12	7887.61
442.31	8124.00
442.50	8077.19
442.68	8044.42
442.87	8032.72
443.05	8006.97
443.24	8208.26
443.43	8219.96
443.61	8425.93
443.80	8372.10
443.98	8049.10
444.17	8056.12
444.35	8135.70
444.54	8428.27
444.73	8301.88
444.91	8299.54
445.10	8601.47
445.28	8444.65
445.47	8301.88
445.65	8411.89
445.84	8418.91
446.02	8510.19
446.21	8580.40
446.39	8358.05
446.58	8566.36
446.77	8594.45
446.95	8339.33
447.14	8446.99
447.32	8664.66
447.51	8578.06
447.69	8524.23
447.88	8491.46
448.06	8807.44
448.25	8571.04
448.43	8652.96
448.62	8472.74
448.80	8669.34
448.99	8835.52
449.17	8851.91
449.36	8664.66
449.54	8865.95
449.73	8950.21
449.91	8931.48
450.10	8980.64
450.28	9221.71
450.46	9036.81
450.65	8980.64
450.83	8924.46
451.02	9004.04
451.20	9130.43
451.39	9156.18
451.57	9277.88
451.76	8884.67
451.94	9324.69
452.13	9312.99
452.31	9509.60
452.49	9174.90
452.68	9399.59
452.86	9364.48
453.05	9280.22
453.23	9551.73
453.42	9366.82
453.60	9366.82
453.78	9467.47
453.97	9497.89
454.15	9575.13
454.34	9423.00
454.52	9767.06
454.70	9652.37
454.89	9628.96
455.07	9879.40
455.26	9916.85
455.44	9900.47
455.62	9898.13
455.81	9825.57
455.99	9956.64
456.17	10087.71
456.36	9874.72
456.54	10223.46
456.73	10239.84
456.91	10579.22
457.09	10499.64
457.28	10387.30
457.46	10434.11
457.64	10593.26
457.83	10471.56
458.01	10394.32
458.19	10759.44
458.38	10794.55
458.56	10637.73
458.74	10738.38
458.93	10740.72
459.11	10888.17
459.29	10890.51
459.48	10677.52
459.66	10743.06
459.84	11094.14
460.03	11213.51
460.21	11173.72
460.39	11122.23
460.57	11075.42
460.76	11091.80
460.94	11119.89
461.12	11075.42
461.31	11311.81
461.49	11304.79
461.67	11367.98
461.85	11527.14
462.04	11403.09
462.22	11885.24
462.40	11761.19
462.59	11342.24
462.77	11344.58
462.95	11527.14
463.13	11620.76
463.32	11733.11
463.50	11623.10
463.68	11889.92
463.86	11836.09
464.05	11508.41
464.23	11569.27
464.41	11985.88
464.59	11660.55
464.78	12353.35
464.96	12049.08
465.14	11824.39
465.32	12065.46
465.50	12187.17
465.69	12032.69
465.87	11871.20
466.05	12149.72
466.23	12477.40
466.41	12217.60
466.60	12493.78
466.78	12121.63
466.96	12287.81
467.14	12273.77
467.32	12416.54
467.51	12765.28
467.69	12273.77
467.87	12444.63
468.05	12624.85
468.23	12524.21
468.41	12491.44
468.60	12641.23
468.78	12837.84
468.96	12517.18
469.14	12538.25
469.32	13121.04
469.50	12683.36
469.69	12835.50
469.87	12931.46
470.05	13076.57
470.23	13123.38
470.41	13078.91
470.59	13137.43
470.77	13191.26
470.95	13121.04
471.14	13434.68
471.32	13383.18
471.50	13549.36
471.68	13734.26
471.86	13495.53
472.04	13909.80
472.22	13935.55
472.40	13605.53
472.58	13907.46
472.77	13977.68
472.95	14064.28
473.13	14382.59
473.31	14214.07
473.49	14230.46
473.67	14078.32
473.85	14286.63
474.03	14719.63
474.21	14473.87
474.39	14766.44
474.57	14743.03
474.75	14780.48
474.93	15122.20
475.12	14998.15
475.30	15241.57
475.48	14995.81
475.66	15183.06
475.84	15044.96
476.02	15358.60
476.20	15351.57
476.38	15543.50
476.56	16035.01
476.74	16006.92
476.92	15929.69
477.10	15838.41
477.28	16130.97
477.46	16044.37
477.64	16224.59
477.82	16545.25
478.00	16922.07
478.18	16957.18
478.36	16699.72
478.54	17011.01
478.72	17352.73
478.90	17481.46
479.08	17434.65
479.26	17633.60
479.44	17879.35
479.62	17877.01
479.80	18082.98
479.98	18417.68
480.16	18548.75
480.34	18228.09
480.52	18693.86
480.70	18616.62
480.88	18593.22
481.06	18389.59
481.24	18796.84
481.41	19094.09
481.59	19489.64
481.77	19463.90
481.95	19396.02
482.13	19793.91
482.31	19496.66
482.49	20140.31
482.67	20271.38
482.85	20383.73
483.03	20709.06
483.21	20896.30
483.39	21085.89
483.57	20865.88
483.74	21099.93
483.92	21352.71
484.10	20896.30
484.28	21923.80
484.46	21865.28
484.64	22497.23
484.82	22038.48
485.00	22143.81
485.18	22632.98
485.35	23295.35
485.53	22670.43
485.71	23267.27
485.89	23384.29
486.07	23208.75
486.25	23463.87
486.43	23669.84
486.61	23674.52
486.78	24236.25
486.96	24397.74
487.14	24940.75
487.32	24737.12
487.50	24900.96
487.68	25317.57
487.85	25572.69
488.03	25495.46
488.21	25928.45
488.39	26108.68
488.57	25893.35
488.75	26263.15
488.92	26735.94
489.10	27131.49
489.28	26757.00
489.46	26955.95
489.64	27124.47
489.81	27573.85
489.99	27545.76
490.17	27784.50
490.35	28491.34
490.53	28292.40
490.70	28531.13
490.88	28566.24
491.06	28596.67
491.24	28760.50
491.41	29333.93
491.59	29153.71
491.77	29455.64
491.95	29448.62
492.13	29511.81
492.30	29968.22
492.48	30300.58
492.66	30202.27
492.84	30483.14
493.01	30602.50
493.19	30625.91
493.37	30787.41
493.54	31101.04
493.72	31779.79
493.90	31330.41
494.08	31578.51
494.25	32203.43
494.43	32308.76
494.61	32353.23
494.79	32327.48
494.96	32491.32
495.14	33034.32
495.32	33263.69
495.49	33354.97
495.67	33748.18
495.85	33778.61
496.02	33783.29
496.20	34146.08
496.38	33724.78
496.55	34263.10
496.73	34841.21
496.91	34164.80
497.09	34892.71
497.26	34967.60
497.44	34969.94
497.62	35161.87
497.79	35964.67
497.97	35526.99
498.14	35894.46
498.32	36449.16
498.50	36184.68
498.67	36437.46
498.85	36465.55
499.03	36772.16
499.20	36961.74
499.38	36821.31
499.56	37036.64
499.73	37425.17
499.91	37603.05
500.08	37691.99
500.26	37490.70
500.44	37897.95
500.61	38246.69
500.79	37642.84
500.97	38403.51
501.14	38862.26
501.32	38672.67
501.49	38735.87
501.67	38663.31
501.84	39501.22
502.02	38946.51
502.20	39108.01
502.37	39276.53
502.55	39077.58
502.72	39367.81
502.90	39674.42
503.07	39494.20
503.25	39950.60
503.43	40020.82
503.60	40243.17
503.78	40254.87
503.95	40107.42
504.13	40479.57
504.30	40355.52
504.48	40535.74
504.65	41200.45
504.83	41060.02
505.01	41312.80
505.18	41134.92
505.36	41804.31
505.53	41219.17
505.71	41698.98
505.88	41577.28
506.06	41593.66
506.23	41998.57
506.41	41860.48
506.58	42220.92
506.76	42525.19
506.93	42347.31
507.11	42492.43
507.28	42548.60
507.46	42878.61
507.63	43028.41
507.81	43477.79
507.98	43136.07
508.16	43435.66
508.33	43461.41
508.50	43232.04
508.68	43749.29
508.85	44172.93
509.03	44137.82
509.20	44404.64
509.38	44465.50
509.55	44432.73
509.73	44589.55
509.90	44493.58
510.08	44947.65
510.25	44772.11
510.42	45230.85
510.60	45425.12
510.77	45401.71
510.95	45720.02
511.12	45240.21
511.30	45619.38
511.47	45471.93
511.64	45588.95
511.82	45876.84
511.99	45715.34
512.17	45820.67
512.34	46181.11
512.51	46454.95
512.69	46494.74
512.86	46724.11
513.04	46522.83
513.21	46887.95
513.38	47243.71
513.56	46827.10
513.73	46906.68
513.90	47065.83
514.08	47136.05
514.25	47679.05
514.43	47342.02
514.60	47669.69
514.77	47646.29
514.95	47641.60
515.12	47962.26
515.29	47749.27
515.47	47667.35
515.64	48285.25
515.81	48074.60
515.99	48350.79
516.16	48556.75
516.33	48449.09
516.51	48896.13
516.68	48636.33
516.85	48360.15
517.03	48900.81
517.20	48978.05
517.37	48732.29
517.54	49027.20
517.72	49254.23
517.89	49214.44
518.06	49277.64
518.24	49586.59
518.41	48898.47
518.58	49401.69
518.75	49497.65
518.93	49556.16
519.10	49911.92
519.27	50174.06
519.45	49956.39
519.62	50174.06
519.79	49902.56
519.96	50122.57
520.14	50082.78
520.31	49822.98
520.48	50492.38
520.65	50340.24
520.83	50782.60
521.00	50962.82
521.17	50777.92
521.34	50824.73
521.52	50803.67
521.69	51004.95
521.86	51171.13
522.03	51540.94
522.20	51477.74
522.38	51580.73
522.55	51676.69
522.72	51634.56
522.89	51512.85
523.07	51866.27
523.24	51767.97
523.41	51863.93
523.58	51349.01
523.75	52149.48
523.92	51969.26
524.10	51885.00
524.27	52016.07
524.44	52521.62
524.61	52203.31
524.78	52353.10
524.96	51990.32
525.13	52594.18
525.30	52552.05
525.47	52678.44
525.64	52486.51
525.81	52816.53
525.98	52612.90
526.16	52713.55
526.33	52741.63
526.50	53301.02
526.67	52830.57
526.84	52975.69
527.01	52767.38
527.18	52898.45
527.36	53057.60
527.53	53099.73
527.70	53303.36
527.87	53357.19
528.04	53263.57
528.21	53539.75
528.38	53249.53
528.55	53872.11
528.72	53275.27
528.89	53556.14
529.07	53249.53
529.24	53523.37
529.41	53567.84
529.58	53628.69
529.75	53624.01
529.92	53535.07
530.09	53867.43
530.26	54162.34
530.43	54255.96
530.60	54005.52
530.77	53776.15
530.94	54230.21
531.11	54057.01
531.28	54087.44
531.46	54461.93
531.63	54492.35
531.80	54422.14
531.97	54534.48
532.14	54667.89
532.31	54714.70
532.48	54845.77
532.65	54637.47
532.82	54445.54
532.99	54728.75
533.16	54834.07
533.33	55054.08
533.50	55187.49
533.67	54777.90
533.84	54855.14
534.01	55295.16
534.18	55117.28
534.35	55208.56
534.52	55276.43
534.69	55353.67
534.86	55278.77
535.03	55327.92
535.20	55250.69
535.37	55393.46
535.54	55627.51
535.71	55201.53
535.88	55377.08
536.05	55550.27
536.22	55662.62
536.38	55901.36
536.55	55749.22
536.72	55547.93
536.89	55398.14
537.06	55702.41
537.23	55941.14
537.40	55800.71
537.57	55728.16
537.74	55891.99
537.91	56273.50
538.08	55952.85
538.25	55749.22
538.42	55964.55
538.59	56397.55
538.75	56107.32
538.92	55880.29
539.09	56315.63
539.26	56168.18
539.43	56198.60
539.60	56528.62
539.77	56275.84
539.94	56692.46
540.11	56488.83
540.28	56617.56
540.44	56547.34
540.61	56488.83
540.78	56420.95
540.95	56559.05
541.12	56427.98
541.29	56573.09
541.46	56914.81
541.62	56530.96
541.79	56757.99
541.96	56453.72
542.13	56793.10
542.30	56765.01
542.47	56905.44
542.63	56816.50
542.80	56952.26
542.97	57228.44
543.14	57216.74
543.31	57064.60
543.48	57516.32
543.64	57518.67
543.81	57448.45
543.98	57378.23
544.15	57291.63
544.32	57668.46
544.48	57518.67
544.65	57654.42
544.82	57530.37
544.99	57366.53
545.16	57399.30
545.32	57572.50
545.49	57759.74
545.66	57719.95
545.83	57888.47
546.00	57942.30
546.16	57757.40
546.33	57752.72
546.50	57544.41
546.67	57806.55
546.83	57614.63
547.00	57961.03
547.17	57799.53
547.34	57998.48
547.50	57869.75
547.67	57993.79
547.84	57989.11
548.00	58314.45
548.17	58358.92
548.34	58218.49
548.51	58309.77
548.67	58305.09
548.84	58312.11
549.01	58169.33
549.18	58323.81
549.34	58281.68
549.51	58548.50
549.68	58454.88
549.84	58454.88
550.01	58595.31
550.18	58323.81
550.34	58585.95
550.51	58695.95
550.68	58447.86
550.84	58387.00
551.01	58539.14
551.18	58424.45
551.34	58850.43
551.51	58511.05
551.68	58555.52
551.84	58670.21
552.01	58532.12
552.18	58773.19
552.34	58349.56
552.51	58775.53
552.68	58588.29
552.84	58681.91
553.01	59002.56
553.18	58915.96
553.34	58852.77
553.51	58791.92
553.67	58805.96
553.84	59093.85
554.01	59023.63
554.17	59014.27
554.34	59208.53
554.51	58974.48
554.67	59192.15
554.84	59023.63
555.00	59157.04
555.17	59084.48
555.33	58967.46
555.50	59128.95
555.67	59077.46
555.83	59025.97
556.00	59096.19
556.16	59501.10
556.33	59444.93
556.50	59154.70
556.66	59571.32
556.83	59311.52
556.99	59489.40
557.16	59515.14
557.32	59583.02
557.49	59695.36
557.65	59463.65
557.82	59641.53
557.98	59437.90
558.15	59444.93
558.32	59515.14
558.48	59552.59
558.65	59475.35
558.81	59639.19
558.98	59627.49
559.14	59770.26
559.31	59791.33
559.47	59807.71
559.64	59807.71
559.80	59873.24
559.97	59877.93
560.13	59791.33
560.30	59870.90
560.46	59803.03
560.63	59978.57
560.79	59812.39
560.96	60025.38
561.12	59807.71
561.29	60088.57
561.45	59856.86
561.61	59870.90
561.78	60006.65
561.94	59901.33
562.11	60030.06
562.27	59927.08
562.44	60086.23
562.60	60104.96
562.77	60083.89
562.93	59774.94
563.10	60186.88
563.26	59948.14
563.42	60526.25
563.59	60107.30
563.75	60229.01
563.92	60067.51
564.08	60179.85
564.24	60137.72
564.41	60224.32
564.57	60032.40
564.74	60247.73
564.90	60191.56
565.07	60149.43
565.23	59955.16
565.39	60205.60
565.56	60460.72
565.72	60111.98
565.88	60224.32
566.05	60315.61
566.21	60350.71
566.38	60254.75
566.54	60374.12
566.70	60472.42
566.87	60303.90
567.03	60154.11
567.19	60268.79
567.36	60388.16
567.52	60348.37
567.68	60706.47
567.85	60537.96
568.01	60493.49
568.17	60540.30
568.34	60654.98
568.50	60362.42
568.66	60317.95
568.83	60364.76
568.99	60402.21
569.15	60430.29
569.32	60383.48
569.48	60371.78
569.64	60542.64
569.81	60584.77
569.97	60507.53
570.13	60654.98
570.30	60449.02
570.46	60619.88
570.62	60764.99
570.78	60608.17
570.95	60715.84
571.11	60736.90
571.27	60495.83
571.43	60559.02
571.60	60594.13
571.76	60846.91
571.92	60509.87
572.09	60470.08
572.25	60823.50
572.41	60760.31
572.57	60690.09
572.74	61085.64
572.90	60711.16
573.06	60757.97
573.22	60720.52
573.38	60814.14
573.55	60523.91
573.71	61078.62
573.87	60898.40
574.03	60638.60
574.20	60568.38
574.36	60849.25
574.52	60666.69
574.68	60720.52
574.84	60652.64
575.01	61064.58
575.17	60718.18
575.33	60676.05
575.49	60711.16
575.65	61003.72
575.82	60940.53
575.98	60893.72
576.14	61062.24
576.30	61186.28
576.46	60992.02
576.62	60720.52
576.79	60776.69
576.95	60853.93
577.11	60793.07
577.27	60853.93
577.43	60917.12
577.59	60622.22
577.75	60750.94
577.92	60669.03
578.08	60989.68
578.24	60994.36
578.40	61099.68
578.56	60942.87
578.72	60921.80
578.88	61017.77
579.04	61116.07
579.21	60898.40
579.37	61066.92
579.53	61134.79
579.69	60870.31
579.85	60793.07
580.01	60793.07
580.17	60865.63
580.33	61073.94
580.49	60889.04
580.65	61055.21
580.82	60999.04
580.98	60877.33
581.14	60940.53
581.30	61066.92
581.46	60970.96
581.62	61179.26
581.78	60891.38
581.94	61181.60
582.10	61027.13
582.26	61078.62
582.42	60802.44
582.58	60987.34
582.74	61057.56
582.90	61034.15
583.06	61195.65
583.22	61034.15
583.38	61010.74
583.54	61118.41
583.70	61076.28
583.86	60872.65
584.02	61057.56
584.18	61291.61
584.34	60987.34
584.50	61169.90
584.66	61132.45
584.82	60828.18
584.98	61118.41
585.14	61160.54
585.30	60860.95
585.46	61310.33
585.62	61111.39
585.78	61343.10
585.94	60900.74
586.10	60921.80
586.26	61010.74
586.42	61261.18
586.58	61076.28
586.74	61024.79
586.90	60968.61
587.06	61043.51
587.22	61270.54
587.38	61172.24
587.54	61371.19
587.70	61275.22
587.86	61090.32
588.02	61045.85
588.18	61315.01
588.34	61249.48
588.49	61125.43
