SpectraSuite Data File
++++++++++++++++++++++++++++++++++++
Date: Fri Oct 25 11:25:52 EDT 2013
User: price-jones
Dark Spectrum Present: No
Reference Spectrum Present: No
Number of Sampled Component Spectra: 1
Spectrometers: USB2+H05261
Integration Time (usec): 100000 (USB2+H05261)
Spectra Averaged: 1 (USB2+H05261)
Boxcar Smoothing: 0 (USB2+H05261)
Correct for Electrical Dark: No (USB2+H05261)
Strobe/Lamp Enabled: No (USB2+H05261)
Correct for Detector Non-linearity: No (USB2+H05261)
Correct for Stray Light: No (USB2+H05261)
Number of Pixels in Processed Spectrum: 2048
>>>>>Begin Processed Spectral Data<<<<<
365.73	238.73
365.92	238.73
366.12	238.73
366.32	86.60
366.52	163.84
366.72	161.50
366.91	152.13
367.11	149.79
367.31	79.58
367.51	67.88
367.70	147.45
367.90	138.09
368.10	107.66
368.30	102.98
368.49	152.13
368.69	140.43
368.89	182.56
369.09	154.48
369.28	224.69
369.48	201.29
369.68	297.25
369.87	191.92
370.07	159.16
370.27	198.95
370.47	362.78
370.66	585.13
370.86	657.69
371.06	667.05
371.25	709.18
371.45	669.39
371.65	697.48
371.84	624.92
372.04	706.84
372.24	685.78
372.44	737.27
372.63	763.01
372.83	706.84
373.03	674.07
373.22	751.31
373.42	779.40
373.62	807.48
373.81	847.27
374.01	765.36
374.21	807.48
374.40	734.93
374.60	870.68
374.79	917.49
374.99	894.08
375.19	826.21
375.38	910.47
375.58	842.59
375.78	842.59
375.97	863.66
376.17	959.62
376.37	887.06
376.56	760.67
376.76	828.55
376.95	854.30
377.15	908.13
377.35	889.40
377.54	798.12
377.74	887.06
377.93	884.72
378.13	889.40
378.33	943.24
378.52	868.34
378.72	887.06
378.91	938.55
379.11	905.79
379.31	858.98
379.50	966.64
379.70	952.60
379.89	985.37
380.09	1041.54
380.28	1006.43
380.48	1006.43
380.68	938.55
380.87	994.73
381.07	1050.90
381.26	976.00
381.46	990.05
381.65	1067.28
381.85	1034.52
382.04	1046.22
382.24	1050.90
382.43	1015.79
382.63	933.87
382.83	1109.41
383.02	1144.52
383.22	1076.65
383.41	1083.67
383.61	1132.82
383.80	1132.82
384.00	971.32
384.19	1111.75
384.39	1179.63
384.58	1097.71
384.78	1186.65
384.97	1177.29
385.17	1139.84
385.36	1090.69
385.56	1174.95
385.75	1163.25
385.95	1151.54
386.14	1242.82
386.34	1181.97
386.53	1210.06
386.72	1156.22
386.92	1242.82
387.11	1301.34
387.31	1294.32
387.50	1249.85
387.70	1306.02
387.89	1299.00
388.09	1210.06
388.28	1263.89
388.48	1369.21
388.67	1343.47
388.86	1362.19
389.06	1299.00
389.25	1310.70
389.45	1310.70
389.64	1336.45
389.84	1359.85
390.03	1406.66
390.22	1364.53
390.42	1383.26
390.61	1329.42
390.81	1425.39
391.00	1376.24
391.19	1486.24
391.39	1369.21
391.58	1465.18
391.78	1446.45
391.97	1486.24
392.16	1483.90
392.36	1479.22
392.55	1537.73
392.75	1507.30
392.94	1504.96
393.13	1455.81
393.33	1598.59
393.52	1507.30
393.71	1551.78
393.91	1547.09
394.10	1537.73
394.29	1551.78
394.49	1554.12
394.68	1657.10
394.88	1715.61
395.07	1540.07
395.26	1666.46
395.46	1703.91
395.65	1699.23
395.84	1689.87
396.04	1813.92
396.23	1739.02
396.42	1732.00
396.62	1724.97
396.81	1762.42
397.00	1830.30
397.19	1844.34
397.39	1764.76
397.58	1830.30
397.77	1832.64
397.97	1846.68
398.16	1771.79
398.35	1921.58
398.55	1844.34
398.74	1870.09
398.93	2010.52
399.12	1928.60
399.32	1982.43
399.51	1977.75
399.70	1914.56
399.90	1984.77
400.09	2073.71
400.28	2139.25
400.47	1961.37
400.67	2174.36
400.86	2165.00
401.05	2012.86
401.24	1968.39
401.44	2155.63
401.63	2223.51
401.82	2150.95
402.01	2174.36
402.21	2139.25
402.40	2200.10
402.59	2204.78
402.78	2239.89
402.97	2183.72
403.17	2186.06
403.36	2204.78
403.55	2361.60
403.74	2382.67
403.93	2424.80
404.13	2511.39
404.32	2338.20
404.51	2342.88
404.70	2464.58
404.89	2363.94
405.09	2502.03
405.28	2509.05
405.47	2436.50
405.66	2523.10
405.85	2450.54
406.05	2537.14
406.24	2581.61
406.43	2511.39
406.62	2588.63
406.81	2834.39
407.00	2544.16
407.20	2581.61
407.39	2619.06
407.58	2656.51
407.77	2708.00
407.96	2722.04
408.15	2808.64
408.34	2644.81
408.54	2803.96
408.73	2766.51
408.92	2836.73
409.11	2853.11
409.30	2942.05
409.49	2871.84
409.68	2857.79
409.87	2820.35
410.07	3014.61
410.26	2883.54
410.45	2993.55
410.64	3133.98
410.83	3005.25
411.02	3047.38
411.21	3150.36
411.40	3206.53
411.59	3206.53
411.78	3150.36
411.98	3166.74
412.17	3332.92
412.36	3225.26
412.55	3279.09
412.74	3414.84
412.93	3410.16
413.12	3328.24
413.31	3559.95
413.50	3358.67
413.69	3454.63
413.88	3520.17
414.07	3370.37
414.26	3606.77
414.45	3674.64
414.64	3730.81
414.83	3707.41
415.02	3700.39
415.22	3810.39
415.41	3889.97
415.60	3672.30
415.79	3943.80
415.98	3859.54
416.17	4086.58
416.36	3927.42
416.55	4018.70
416.74	4009.34
416.93	4142.75
417.12	4112.32
417.31	4081.89
417.50	4079.55
417.69	4280.84
417.88	4224.67
418.07	4105.30
418.26	4344.03
418.45	4250.41
418.64	4390.84
418.83	4320.63
419.02	4407.23
419.21	4557.02
419.39	4514.89
419.58	4444.68
419.77	4526.60
419.96	4521.92
420.15	4561.70
420.34	4496.17
420.53	4528.94
420.72	4617.88
420.91	4615.54
421.10	4807.46
421.29	4833.21
421.48	4650.64
421.67	4784.06
421.86	4800.44
422.05	4770.01
422.24	4858.95
422.43	4945.55
422.61	4908.10
422.80	4978.32
422.99	4751.29
423.18	4854.27
423.37	4975.98
423.56	5027.47
423.75	4910.44
423.94	4865.97
424.13	4599.15
424.32	4526.60
424.50	4957.25
424.69	5076.62
424.88	4959.60
425.07	4910.44
425.26	5036.83
425.45	4650.64
425.64	4973.64
425.83	4933.85
426.01	5085.98
426.20	4954.91
426.39	5032.15
426.58	5060.24
426.77	5081.30
426.96	5128.11
427.15	5109.39
427.33	4947.89
427.52	5149.18
427.71	5153.86
427.90	5111.73
428.09	5310.68
428.28	5298.97
428.46	5411.32
428.65	5282.59
428.84	5462.81
429.03	5600.90
429.22	5380.89
429.40	5362.17
429.59	5460.47
429.78	5317.70
429.97	5320.04
430.16	5526.00
430.34	5549.41
430.53	5579.84
430.72	5645.37
430.91	5619.63
431.10	5607.92
431.28	5902.83
431.47	5753.04
431.66	5717.93
431.85	5682.82
432.03	6066.67
432.22	5895.81
432.41	5940.28
432.60	5942.62
432.79	6026.88
432.97	5827.93
433.16	6134.54
433.35	6064.33
433.54	6106.46
433.72	6174.33
433.91	6111.14
434.10	5900.49
434.28	6134.54
434.47	6012.84
434.66	6279.66
434.85	6214.12
435.03	6246.89
435.22	6258.59
435.41	6516.05
435.59	6352.21
435.78	6415.41
435.97	6396.68
436.16	6530.09
436.34	6420.09
436.53	6441.15
436.72	6546.48
436.90	6537.12
437.09	6581.59
437.28	6375.62
437.46	6567.54
437.65	6609.67
437.84	6670.53
438.02	6738.40
438.21	6715.00
438.40	6595.63
438.58	6949.05
438.77	7157.36
438.96	7066.08
439.14	7075.44
439.33	7211.19
439.52	7173.74
439.70	7152.68
439.89	7410.14
440.08	7335.24
440.26	7389.07
440.45	7375.03
440.63	7419.50
440.82	7637.17
441.01	7339.92
441.19	7524.82
441.38	7639.51
441.57	7627.81
441.75	7908.67
441.94	8058.46
442.12	7784.62
442.31	7845.48
442.50	8081.87
442.68	7903.99
442.87	8131.02
443.05	8145.06
443.24	7981.23
443.43	8205.92
443.61	8285.50
443.80	8334.65
443.98	8109.96
444.17	7925.05
444.35	8156.77
444.54	8390.82
444.73	8290.18
444.91	8147.40
445.10	8503.17
445.28	8231.66
445.47	8280.82
445.65	8175.49
445.84	8252.73
446.02	8346.35
446.21	8301.88
446.39	8336.99
446.58	8526.57
446.77	8299.54
446.95	8140.38
447.14	8505.51
447.32	8655.30
447.51	8542.96
447.69	8290.18
447.88	8456.36
448.06	8702.11
448.25	8341.67
448.43	8500.83
448.62	8379.12
448.80	8425.93
448.99	8755.94
449.17	8793.39
449.36	8615.51
449.54	8781.69
449.73	9167.88
449.91	9027.45
450.10	8959.57
450.28	8922.12
450.46	8938.51
450.65	9043.83
450.83	8982.98
451.02	9076.60
451.20	9008.72
451.39	9254.48
451.57	9081.28
451.76	8788.71
451.94	9118.73
452.13	9163.20
452.31	9254.48
452.49	9242.78
452.68	9165.54
452.86	9392.57
453.05	9530.66
453.23	9408.95
453.42	9212.35
453.60	9289.59
453.78	9362.14
453.97	9509.60
454.15	9500.23
454.34	9301.29
454.52	9614.92
454.70	9643.01
454.89	9736.63
455.07	9797.48
455.26	9675.77
455.44	9895.78
455.62	9994.09
455.81	9851.31
455.99	10071.33
456.17	10068.98
456.36	10209.42
456.54	10300.70
456.73	10242.18
456.91	10326.44
457.09	10532.41
457.28	10616.67
457.46	10181.33
457.64	10513.69
457.83	10490.28
458.01	10335.81
458.19	10771.15
458.38	10487.94
458.56	10766.46
458.74	10780.51
458.93	10621.35
459.11	10719.65
459.29	10717.31
459.48	10752.42
459.66	10604.97
459.84	10991.16
460.03	10934.98
460.21	10810.93
460.39	10890.51
460.57	10923.28
460.76	11098.82
460.94	11206.48
461.12	10970.09
461.31	11033.29
461.49	11272.02
461.67	11075.42
461.85	11386.71
462.04	11108.18
462.22	11824.39
462.40	11527.14
462.59	11309.47
462.77	11433.52
462.95	11548.20
463.13	11449.90
463.32	11616.08
463.50	11578.63
463.68	11644.17
463.86	11798.64
464.05	11616.08
464.23	11740.13
464.41	12084.19
464.59	11545.86
464.78	12093.55
464.96	11866.52
465.14	11777.58
465.32	12114.61
465.50	11957.80
465.69	11955.46
465.87	11955.46
466.05	12154.40
466.23	12112.27
466.41	12049.08
466.60	12496.12
466.78	11929.71
466.96	12126.32
467.14	12257.39
467.32	12325.26
467.51	12753.58
467.69	12201.21
467.87	12545.27
468.05	12524.21
468.23	12395.48
468.41	12367.39
468.60	12559.31
468.78	12786.35
468.96	12594.42
469.14	12554.63
469.32	12774.64
469.50	12669.32
469.69	12982.95
469.87	13256.79
470.05	13041.46
470.23	13146.79
470.41	13071.89
470.59	13233.39
470.77	13149.13
470.95	13158.49
471.14	13514.25
471.32	13132.75
471.50	13544.68
471.68	13387.86
471.86	13886.40
472.04	13589.15
472.22	13937.89
472.40	13561.06
472.58	13605.53
472.77	13708.52
472.95	14195.35
473.13	14492.60
473.31	14022.15
473.49	14052.58
473.67	14153.22
473.85	14157.90
474.03	14326.42
474.21	14700.90
474.39	14604.94
474.57	14485.58
474.75	14775.80
474.93	15054.33
475.12	14761.76
475.30	14998.15
475.48	15138.58
475.66	15234.55
475.84	15192.42
476.02	15522.43
476.20	15129.22
476.38	15552.86
476.56	16161.40
476.74	15990.54
476.92	15906.28
477.10	15723.72
477.28	16004.58
477.46	15758.83
477.64	16409.50
477.82	16568.65
478.00	16884.62
478.18	16538.23
478.36	16802.71
478.54	16950.16
478.72	17027.40
478.90	17266.13
479.08	17174.85
479.26	17947.23
479.44	17645.30
479.62	18017.44
479.80	17832.54
479.98	18134.47
480.16	18464.49
480.34	18190.64
480.52	18616.62
480.70	18766.42
480.88	18202.35
481.06	18635.35
481.24	18815.57
481.41	18876.42
481.59	19213.46
481.77	19360.91
481.95	19522.41
482.13	19580.92
482.31	19786.89
482.49	20297.13
482.67	20013.92
482.85	20187.12
483.03	20746.51
483.21	20837.79
483.39	21032.05
483.57	20730.12
483.74	21341.00
483.92	21350.37
484.10	21149.08
484.28	21516.54
484.46	21755.28
484.64	22265.52
484.82	21844.22
485.00	22345.09
485.18	22754.69
485.35	22579.15
485.53	22621.28
485.71	22995.76
485.89	23199.39
486.07	23175.98
486.25	23424.08
486.43	23541.11
486.61	23695.58
486.78	23821.97
486.96	24027.94
487.14	24526.47
487.32	24308.80
487.50	24706.70
487.68	25083.52
487.85	25191.19
488.03	25591.42
488.21	25954.20
488.39	25773.98
488.57	25881.64
488.75	25834.83
488.92	26312.30
489.10	26415.29
489.28	26658.70
489.46	27014.46
489.64	26733.60
489.81	27447.46
489.99	27627.68
490.17	27716.62
490.35	28137.92
490.53	27768.12
490.70	28486.66
490.88	28430.49
491.06	28830.72
491.24	28776.89
491.41	29120.95
491.59	29324.57
491.77	29120.95
491.95	29376.06
492.13	29759.91
492.30	30000.99
492.48	29619.48
492.66	30338.02
492.84	30146.10
493.01	30700.81
493.19	30759.32
493.37	31096.36
493.54	30960.61
493.72	31318.71
493.90	31075.29
494.08	31697.88
494.25	31922.57
494.43	32095.77
494.61	32107.47
494.79	32161.30
494.96	32304.07
495.14	32716.01
495.32	32858.78
495.49	33179.43
495.67	33270.72
495.85	33270.72
496.02	33914.36
496.20	33797.34
496.38	33813.72
496.55	33944.79
496.73	34717.17
496.91	34396.51
497.09	34581.42
497.26	35051.86
497.44	34553.33
497.62	35304.64
497.79	35550.40
497.97	35416.99
498.14	36020.84
498.32	35730.62
498.50	36559.17
498.67	36404.69
498.85	36439.80
499.03	36620.02
499.20	36376.61
499.38	37074.09
499.56	36514.70
499.73	37254.31
499.91	37406.44
500.08	37331.54
500.26	37404.10
500.44	37832.42
500.61	37401.76
500.79	37635.81
500.97	37809.01
501.14	38223.29
501.32	38471.39
501.49	38274.78
501.67	38689.06
501.84	38778.00
502.02	38396.49
502.20	39157.16
502.37	39360.79
502.55	39040.14
502.72	39098.65
502.90	39388.88
503.07	39716.55
503.25	39573.78
503.43	39730.59
503.60	40376.58
503.78	40006.78
503.95	40252.53
504.13	40662.13
504.30	40500.63
504.48	40275.94
504.65	40779.15
504.83	40648.08
505.01	41256.62
505.18	40884.48
505.36	41530.47
505.53	41153.64
505.71	41333.86
505.88	41612.38
506.06	41092.79
506.23	41691.96
506.41	41256.62
506.58	41883.89
506.76	41708.35
506.93	42127.30
507.11	42433.91
507.28	42497.11
507.46	42520.51
507.63	42564.98
507.81	43037.77
507.98	43065.86
508.16	43189.91
508.33	43119.69
508.50	43255.44
508.68	43487.15
508.85	43681.42
509.03	43566.73
509.20	44058.24
509.38	44287.62
509.55	44194.00
509.73	44100.37
509.90	44186.97
510.08	44500.61
510.25	44278.25
510.42	44622.31
510.60	44837.64
510.77	45340.86
510.95	45059.99
511.12	44975.73
511.30	45055.31
511.47	45146.59
511.64	45179.36
511.82	45570.23
511.99	45783.22
512.17	45837.05
512.34	45598.32
512.51	46380.06
512.69	46480.70
512.86	46246.65
513.04	46707.73
513.21	46440.91
513.38	46602.41
513.56	46986.25
513.73	46742.84
513.90	46707.73
514.08	46405.80
514.25	47306.91
514.43	47220.31
514.60	46848.16
514.77	47213.29
514.95	47391.17
515.12	47239.03
515.29	47767.99
515.47	47892.04
515.64	47597.13
515.81	47655.65
515.99	47859.27
516.16	48168.22
516.33	48357.81
516.51	48472.49
516.68	48287.59
516.85	48446.75
517.03	48617.61
517.20	48535.69
517.37	48676.12
517.54	49029.54
517.72	48781.45
517.89	48648.03
518.06	48926.56
518.24	49574.89
518.41	49151.25
518.58	49177.00
518.75	49125.50
518.93	49303.38
519.10	49088.06
519.27	49544.46
519.45	49834.69
519.62	49921.29
519.79	49656.81
519.96	49902.56
520.14	49968.10
520.31	50031.29
520.48	50010.23
520.65	50174.06
520.83	50651.53
521.00	50389.39
521.17	50447.91
521.34	50660.90
521.52	50487.70
521.69	50429.18
521.86	50791.97
522.03	51054.11
522.20	51147.73
522.38	51234.33
522.55	51482.42
522.72	50967.51
522.89	51203.90
523.07	51351.35
523.24	51531.57
523.41	51711.80
523.58	51187.52
523.75	51746.90
523.92	51693.07
524.10	51690.73
524.27	51866.27
524.44	51903.72
524.61	51969.26
524.78	52030.11
524.96	51767.97
525.13	52034.79
525.30	52348.42
525.47	52479.49
525.64	52294.59
525.81	52278.21
525.98	52404.59
526.16	52144.80
526.33	52743.97
526.50	52750.99
526.67	52594.18
526.84	52882.06
527.01	52788.44
527.18	52591.84
527.36	52743.97
527.53	52999.09
527.70	53141.86
527.87	53191.01
528.04	53116.12
528.21	53186.33
528.38	53305.70
528.55	53411.02
528.72	53481.24
528.89	53155.91
529.07	53216.76
529.24	53073.99
529.41	53427.41
529.58	53755.08
529.75	53521.03
529.92	53528.05
530.09	53602.95
530.26	54024.25
530.43	53932.96
530.60	53577.20
530.77	53787.85
530.94	53900.20
531.11	54019.56
531.28	54216.17
531.46	53991.48
531.63	54354.26
531.80	54270.00
531.97	54209.15
532.14	54195.10
532.31	53982.12
532.48	54492.35
532.65	54480.65
532.82	54567.25
532.99	54445.54
533.16	54897.27
533.33	54525.12
533.50	54801.30
533.67	54590.66
533.84	54733.43
534.01	54731.09
534.18	54770.88
534.35	55175.79
534.52	54855.14
534.69	55089.19
534.86	55014.29
535.03	54915.99
535.20	55117.28
535.37	55236.64
535.54	55250.69
535.71	55009.61
535.88	55253.03
536.05	55334.95
536.22	55833.48
536.38	55360.69
536.55	55381.76
536.72	55395.80
536.89	55203.88
537.06	55487.08
537.23	55669.64
537.40	55510.49
537.57	55615.81
537.74	55545.59
537.91	56009.02
538.08	55758.58
538.25	55522.19
538.42	56002.00
538.59	56027.74
538.75	55749.22
538.92	56039.45
539.09	56133.07
539.26	56123.71
539.43	55835.82
539.60	56079.24
539.77	55990.30
539.94	56310.95
540.11	56123.71
540.28	56261.80
540.44	56090.94
540.61	56467.76
540.78	56193.92
540.95	56425.64
541.12	56306.27
541.29	56303.93
541.46	56121.37
541.62	56449.04
541.79	56640.96
541.96	56261.80
542.13	56367.12
542.30	56629.26
542.47	56779.06
542.63	56851.61
542.80	56645.65
542.97	57095.03
543.14	57188.65
543.31	56954.60
543.48	57097.37
543.64	57504.62
543.81	57284.61
543.98	57155.88
544.15	57317.38
544.32	57308.02
544.48	57647.39
544.65	57104.39
544.82	57303.34
544.99	57158.22
545.16	57635.69
545.32	57385.25
545.49	57565.48
545.66	57640.37
545.83	57467.17
546.00	57694.21
546.16	57457.81
546.33	57521.01
546.50	57279.93
546.67	57642.71
546.83	57357.17
547.00	57542.07
547.17	57565.48
547.34	57729.31
547.50	57911.88
547.67	58010.18
547.84	57925.92
548.00	58096.78
548.17	58136.57
548.34	58148.27
548.51	58300.40
548.67	58274.66
548.84	57748.04
549.01	58335.51
549.18	57993.79
549.34	58188.06
549.51	58056.99
549.68	58255.93
549.84	58206.78
550.01	58166.99
550.18	58145.93
550.34	58525.10
550.51	58489.99
550.68	58286.36
550.84	58230.19
551.01	58569.57
551.18	58356.58
551.34	58431.47
551.51	58379.98
551.68	58595.31
551.84	58506.37
552.01	58375.30
552.18	58394.03
552.34	58501.69
552.51	58649.14
552.68	58370.62
552.84	58335.51
553.01	58752.13
553.18	58719.36
553.34	58714.68
553.51	58492.33
553.67	58915.96
553.84	58834.05
554.01	58876.18
554.17	59011.93
554.34	58976.82
554.51	58880.86
554.67	59018.95
554.84	58976.82
555.00	58728.72
555.17	58983.84
555.33	58951.07
555.50	58834.05
555.67	58866.81
555.83	58981.50
556.00	59009.59
556.16	59316.20
556.33	59257.68
556.50	59152.36
556.66	59243.64
556.83	58941.71
556.99	59355.99
557.16	59229.60
557.32	59189.81
557.49	59540.89
557.65	59217.89
557.82	59316.20
557.98	59135.98
558.15	59325.56
558.32	59461.31
558.48	59215.55
558.65	59281.09
558.81	59522.16
558.98	59447.27
559.14	59475.35
559.31	59564.29
559.47	59540.89
559.64	59519.82
559.80	59709.41
559.97	59725.79
560.13	59657.91
560.30	59594.72
560.46	59615.79
560.63	59597.06
560.79	59533.87
560.96	59678.98
561.12	59898.99
561.29	59793.67
561.45	59760.90
561.61	59831.11
561.78	59770.26
561.94	59613.44
562.11	59810.05
562.27	59987.93
562.44	59913.03
562.60	59887.29
562.77	59943.46
562.93	59896.65
563.10	60224.32
563.26	59746.86
563.42	60034.74
563.59	59814.73
563.75	59854.52
563.92	60006.65
564.08	59817.07
564.24	60065.17
564.41	60191.56
564.57	60182.19
564.74	59962.18
564.90	60163.47
565.07	59908.35
565.23	60093.25
565.39	60261.77
565.56	60266.45
565.72	59976.23
565.88	60013.68
566.05	60072.19
566.21	59894.31
566.38	60224.32
566.54	60051.12
566.70	60310.92
566.87	60460.72
567.03	59927.08
567.19	60285.18
567.36	60357.74
567.52	60055.81
567.68	60423.27
567.85	60526.25
568.01	60341.35
568.17	60149.43
568.34	60221.98
568.50	60123.68
568.66	60320.29
568.83	60374.12
568.99	60009.00
569.15	60397.52
569.32	60324.97
569.48	60264.11
569.64	60516.89
569.81	60219.64
569.97	60107.30
570.13	60444.33
570.30	60177.51
570.46	60535.62
570.62	60381.14
570.78	60369.44
570.95	60406.89
571.11	60584.77
571.27	60327.31
571.43	60535.62
571.60	60493.49
571.76	60329.65
571.92	60416.25
572.09	60369.44
572.25	60589.45
572.41	60669.03
572.57	60432.63
572.74	60636.26
572.90	60360.08
573.06	60640.94
573.22	60554.34
573.38	60544.98
573.55	60385.82
573.71	60921.80
573.87	60647.96
574.03	60521.57
574.20	60477.10
574.36	60568.38
574.52	60570.72
574.68	60519.23
574.84	60722.86
575.01	60783.71
575.17	60694.77
575.33	60444.33
575.49	60425.61
575.65	60645.62
575.82	60809.46
575.98	60603.49
576.14	60800.10
576.30	60851.59
576.46	60671.37
576.62	60544.98
576.79	60781.37
576.95	60807.12
577.11	60802.44
577.27	60762.65
577.43	60573.06
577.59	60680.73
577.75	60736.90
577.92	60786.05
578.08	60659.66
578.24	60753.29
578.40	60755.63
578.56	60921.80
578.72	60776.69
578.88	61027.13
579.04	61066.92
579.21	60968.61
579.37	60867.97
579.53	60802.44
579.69	60460.72
579.85	60601.15
580.01	60741.58
580.17	60755.63
580.33	60739.24
580.49	61034.15
580.65	60832.86
580.82	60779.03
580.98	60931.17
581.14	60898.40
581.30	60886.70
581.46	60786.05
581.62	60788.39
581.78	60673.71
581.94	60823.50
582.10	60685.41
582.26	60907.76
582.42	60797.76
582.58	60884.36
582.74	60711.16
582.90	60795.42
583.06	60786.05
583.22	60795.42
583.38	60762.65
583.54	60933.51
583.70	60910.10
583.86	61003.72
584.02	60790.73
584.18	60987.34
584.34	60905.42
584.50	60823.50
584.66	60856.27
584.82	60729.88
584.98	60985.00
585.14	60949.89
585.30	60987.34
585.46	61022.45
585.62	60699.45
585.78	60830.52
585.94	60893.72
586.10	61066.92
586.26	60968.61
586.42	61085.64
586.58	61120.75
586.74	60900.74
586.90	60860.95
587.06	60898.40
587.22	61139.47
587.38	60893.72
587.54	60835.20
587.70	61048.19
587.86	60924.14
588.02	60846.91
588.18	60879.67
588.34	60987.34
588.49	61127.77
