SpectraSuite Data File
++++++++++++++++++++++++++++++++++++
Date: Fri Oct 25 10:48:20 EDT 2013
User: price-jones
Dark Spectrum Present: No
Reference Spectrum Present: No
Number of Sampled Component Spectra: 1
Spectrometers: USB2+H05261
Integration Time (usec): 100000 (USB2+H05261)
Spectra Averaged: 1 (USB2+H05261)
Boxcar Smoothing: 0 (USB2+H05261)
Correct for Electrical Dark: No (USB2+H05261)
Strobe/Lamp Enabled: No (USB2+H05261)
Correct for Detector Non-linearity: No (USB2+H05261)
Correct for Stray Light: No (USB2+H05261)
Number of Pixels in Processed Spectrum: 2048
>>>>>Begin Processed Spectral Data<<<<<
365.73	119.37
365.92	119.37
366.12	119.37
366.32	25.75
366.52	56.17
366.72	95.96
366.91	30.43
367.11	25.75
367.31	30.43
367.51	60.85
367.70	0.00
367.90	16.38
368.10	44.47
368.30	35.11
368.49	28.09
368.69	37.45
368.89	0.00
369.09	145.11
369.28	65.54
369.48	51.49
369.68	93.62
369.87	133.41
370.07	107.66
370.27	175.54
370.47	220.01
370.66	447.04
370.86	414.27
371.06	524.28
371.25	545.34
371.45	540.66
371.65	528.96
371.84	484.49
372.04	461.09
372.24	538.32
372.44	552.37
372.63	540.66
372.83	430.66
373.03	514.92
373.22	535.98
373.42	528.96
373.62	596.84
373.81	629.60
374.01	575.77
374.21	557.05
374.40	601.52
374.60	610.88
374.79	566.41
374.99	573.43
375.19	587.47
375.38	620.24
375.58	615.56
375.78	641.31
375.97	608.54
376.17	634.29
376.37	655.35
376.56	681.10
376.76	704.50
376.95	650.67
377.15	631.94
377.35	641.31
377.54	725.57
377.74	683.44
377.93	713.86
378.13	711.52
378.33	711.52
378.52	730.25
378.72	638.97
378.91	676.41
379.11	641.31
379.31	737.27
379.50	657.69
379.70	758.33
379.89	809.83
380.09	767.70
380.28	706.84
380.48	727.91
380.68	758.33
380.87	725.57
381.07	784.08
381.26	812.17
381.46	786.42
381.65	713.86
381.85	748.97
382.04	784.08
382.24	854.30
382.43	758.33
382.63	739.61
382.83	727.91
383.02	770.04
383.22	737.27
383.41	788.76
383.61	748.97
383.80	800.46
384.00	744.29
384.19	777.06
384.39	812.17
384.58	758.33
384.78	830.89
384.97	812.17
385.17	891.74
385.36	851.96
385.56	802.80
385.75	898.77
385.95	915.15
386.14	882.38
386.34	854.30
386.53	844.93
386.72	912.81
386.92	919.83
387.11	910.47
387.31	952.60
387.50	880.04
387.70	983.02
387.89	961.96
388.09	957.28
388.28	894.08
388.48	983.02
388.67	1036.86
388.86	992.39
389.06	959.62
389.25	1020.47
389.45	1008.77
389.64	1050.90
389.84	1097.71
390.03	1055.58
390.22	1090.69
390.42	1041.54
390.61	1086.01
390.81	1172.61
391.00	1128.14
391.19	1001.75
391.39	1027.50
391.58	1151.54
391.78	1135.16
391.97	1125.80
392.16	1130.48
392.36	1034.52
392.55	940.90
392.75	1071.97
392.94	1055.58
393.13	1078.99
393.33	1100.05
393.52	1142.18
393.71	1210.06
393.91	1198.35
394.10	1177.29
394.29	1198.35
394.49	1289.64
394.68	1315.38
394.88	1315.38
395.07	1315.38
395.26	1247.51
395.46	1254.53
395.65	1291.98
395.84	1184.31
396.04	1277.93
396.23	1294.32
396.42	1186.65
396.62	1235.80
396.81	1186.65
397.00	1366.87
397.19	1453.47
397.39	1416.02
397.58	1423.05
397.77	1467.52
397.97	1511.99
398.16	1460.49
398.35	1558.80
398.55	1479.22
398.74	1502.62
398.93	1687.53
399.12	1638.38
399.32	1593.90
399.51	1537.73
399.70	1659.44
399.90	1629.01
400.09	1626.67
400.28	1774.13
400.47	1675.82
400.67	1809.23
400.86	1783.49
401.05	1732.00
401.24	1816.26
401.44	1699.23
401.63	1792.85
401.82	1757.74
402.01	1842.00
402.21	1795.19
402.40	1954.35
402.59	1842.00
402.78	1816.26
402.97	1886.47
403.17	1898.17
403.36	1837.32
403.55	1928.60
403.74	1895.83
403.93	1973.07
404.13	1900.52
404.32	1930.94
404.51	2008.18
404.70	2040.95
404.89	2029.24
405.09	2122.87
405.28	2153.29
405.47	2118.18
405.66	2195.42
405.85	2024.56
406.05	2019.88
406.24	2169.68
406.43	2073.71
406.62	2216.49
406.81	2146.27
407.00	2200.10
407.20	2108.82
407.39	2251.60
407.58	2134.57
407.77	2244.57
407.96	2129.89
408.15	2410.75
408.34	2256.28
408.54	2518.42
408.73	2377.98
408.92	2270.32
409.11	2370.96
409.30	2370.96
409.49	2331.17
409.68	2282.02
409.87	2326.49
410.07	2359.26
410.26	2466.92
410.45	2502.03
410.64	2483.31
410.83	2537.14
411.02	2686.94
411.21	2747.79
411.40	2736.09
411.59	2857.79
411.78	2715.02
411.98	2738.43
412.17	2803.96
412.36	2843.75
412.55	2958.44
412.74	2862.48
412.93	2864.82
413.12	2850.77
413.31	2995.89
413.50	2860.13
413.69	2904.60
413.88	2998.23
414.07	3012.27
414.26	3038.02
414.45	2967.80
414.64	3075.46
414.83	3178.45
415.02	3150.36
415.22	3133.98
415.41	3286.11
415.60	3276.75
415.79	3368.03
415.98	3426.54
416.17	3421.86
416.36	3454.63
416.55	3431.23
416.74	3513.14
416.93	3405.48
417.12	3475.70
417.31	3438.25
417.50	3440.59
417.69	3588.04
417.88	3634.85
418.07	3609.11
418.26	3623.15
418.45	3574.00
418.64	3885.29
418.83	3810.39
419.02	3707.41
419.21	3782.31
419.39	3744.86
419.58	3733.15
419.77	3651.24
419.96	3850.18
420.15	3852.52
420.34	3754.22
420.53	3854.86
420.72	4014.02
420.91	3962.53
421.10	3978.91
421.29	4046.79
421.48	3882.95
421.67	4009.34
421.86	4011.68
422.05	3962.53
422.24	3964.87
422.43	3955.51
422.61	3918.06
422.80	4227.01
422.99	4018.70
423.18	4009.34
423.37	4131.05
423.56	4241.05
423.75	4177.86
423.94	4095.94
424.13	3866.56
424.32	3955.51
424.50	4145.09
424.69	4203.60
424.88	4304.25
425.07	4170.83
425.26	3974.23
425.45	4063.17
425.64	4039.76
425.83	4070.19
426.01	4152.11
426.20	4236.37
426.39	4219.99
426.58	4112.32
426.77	4095.94
426.96	4044.45
427.15	3990.61
427.33	4175.52
427.52	4325.31
427.71	4126.36
427.90	4257.43
428.09	4414.25
428.28	4266.80
428.46	4390.84
428.65	4428.29
428.84	4510.21
429.03	4390.84
429.22	4224.67
429.40	4442.34
429.59	4318.29
429.78	4182.54
429.97	4138.07
430.16	4266.80
430.34	4280.84
430.53	4456.38
430.72	4526.60
430.91	4454.04
431.10	4435.32
431.28	4643.62
431.47	4746.61
431.66	4877.68
431.85	4830.87
432.03	4812.14
432.22	4854.27
432.41	4858.95
432.60	4856.61
432.79	4978.32
432.97	4919.81
433.16	4861.29
433.35	4739.58
433.54	4758.31
433.72	5001.72
433.91	4812.14
434.10	4889.38
434.28	4985.34
434.47	4901.08
434.66	5203.01
434.85	5088.32
435.03	5198.33
435.22	5289.61
435.41	5228.76
435.59	5298.97
435.78	5416.00
435.97	5324.72
436.16	5413.66
436.34	5322.38
436.53	5153.86
436.72	5462.81
436.90	5371.53
437.09	5385.57
437.28	5284.93
437.46	5301.31
437.65	5282.59
437.84	5357.49
438.02	5336.42
438.21	5394.93
438.40	5507.28
438.58	5589.20
438.77	5488.56
438.96	5708.57
439.14	5706.23
439.33	5783.46
439.52	5940.28
439.70	5916.87
439.89	5753.04
440.08	5951.98
440.26	6057.31
440.45	5998.79
440.63	6225.82
440.82	6253.91
441.01	6047.94
441.19	6361.58
441.38	6289.02
441.57	6399.02
441.75	6394.34
441.94	6539.46
442.12	6431.79
442.31	6574.56
442.50	6560.52
442.68	6635.42
442.87	6539.46
443.05	6480.94
443.24	6712.66
443.43	6590.95
443.61	6808.62
443.80	6813.30
443.98	6656.48
444.17	6703.29
444.35	6757.13
444.54	7019.27
444.73	6752.45
444.91	6766.49
445.10	6745.42
445.28	6672.87
445.47	6750.10
445.65	6633.08
445.84	6850.75
446.02	6878.83
446.21	6932.67
446.39	6843.73
446.58	6956.07
446.77	6935.01
446.95	6899.90
447.14	6857.77
447.32	7061.40
447.51	6965.43
447.69	6937.35
447.88	7002.88
448.06	7028.63
448.25	7054.37
448.43	6841.39
448.62	7026.29
448.80	6977.14
448.99	7166.72
449.17	7211.19
449.36	7166.72
449.54	7213.53
449.73	7248.64
449.91	7438.22
450.10	7517.80
450.28	7597.38
450.46	7307.15
450.65	7482.69
450.83	7522.48
451.02	7424.18
451.20	7613.76
451.39	7487.37
451.57	7314.17
451.76	7433.54
451.94	7632.49
452.13	7611.42
452.31	7335.24
452.49	7417.16
452.68	7489.71
452.86	7566.95
453.05	7293.11
453.23	7765.90
453.42	7564.61
453.60	7644.19
453.78	7908.67
453.97	7590.36
454.15	7688.66
454.34	7590.36
454.52	7805.69
454.70	7934.42
454.89	7889.95
455.07	7950.80
455.26	7927.39
455.44	7971.86
455.62	8035.06
455.81	8215.28
455.99	8234.00
456.17	8112.30
456.36	8219.96
456.54	8114.64
456.73	8292.52
456.91	8404.86
457.09	8517.21
457.28	8674.03
457.46	8341.67
457.64	8514.87
457.83	8325.29
458.01	8334.65
458.19	8524.23
458.38	8365.07
458.56	8648.28
458.74	8524.23
458.93	8514.87
459.11	8692.75
459.29	8587.43
459.48	8718.50
459.66	8779.35
459.84	8678.71
460.03	8777.01
460.21	8905.74
460.39	8903.40
460.57	8807.44
460.76	9008.72
460.94	9144.47
461.12	8968.93
461.31	9036.81
461.49	8933.82
461.67	9121.07
461.85	9219.37
462.04	8982.98
462.22	9678.12
462.40	9254.48
462.59	9149.15
462.77	9228.73
462.95	9432.36
463.13	9282.56
463.32	9301.29
463.50	9469.81
463.68	9280.22
463.86	9376.19
464.05	9338.74
464.23	9404.27
464.41	9334.06
464.59	9266.18
464.78	9582.15
464.96	9432.36
465.14	9451.08
465.32	9633.64
465.50	9750.67
465.69	9778.76
465.87	9816.21
466.05	9734.29
466.23	9423.00
466.41	9500.23
466.60	9757.69
466.78	9338.74
466.96	9493.21
467.14	9928.55
467.32	9834.93
467.51	9891.10
467.69	9598.54
467.87	10036.22
468.05	9963.66
468.23	9820.89
468.41	9659.39
468.60	9954.30
468.78	9982.38
468.96	9963.66
469.14	10073.67
469.32	10115.80
469.50	9973.02
469.69	10160.27
469.87	10164.95
470.05	10155.58
470.23	10193.03
470.41	10270.27
470.59	10471.56
470.77	10190.69
470.95	10384.96
471.14	10630.71
471.32	10558.16
471.50	10590.92
471.68	10906.90
471.86	11014.56
472.04	10850.72
472.22	11005.20
472.40	10696.25
472.58	10541.77
472.77	10867.11
472.95	10981.79
473.13	11269.68
473.31	10862.43
473.49	11016.90
473.67	11075.42
473.85	11047.33
474.03	11267.34
474.21	11360.96
474.39	11634.80
474.57	11592.67
474.75	11332.87
474.93	11709.70
475.12	11653.53
475.30	11833.75
475.48	11686.29
475.66	11873.54
475.84	11602.04
476.02	11922.69
476.20	11988.22
476.38	11995.25
476.56	12533.57
476.74	12292.49
476.92	12131.00
477.10	12453.99
477.28	12379.09
477.46	12564.00
477.64	12706.77
477.82	12800.39
478.00	13036.78
478.18	13081.25
478.36	12915.08
478.54	13390.20
478.72	13015.72
478.90	13568.09
479.08	13593.83
479.26	13886.40
479.44	13617.24
479.62	13844.27
479.80	13811.50
479.98	13767.03
480.16	14223.44
480.34	14188.33
480.52	14239.82
480.70	14324.08
480.88	14181.31
481.06	14387.27
481.24	14546.43
481.41	14794.53
481.59	15030.92
481.77	14993.47
481.95	15051.99
482.13	15257.95
482.31	15396.04
482.49	15351.57
482.67	15339.87
482.85	15602.01
483.03	15707.34
483.21	16105.23
483.39	15819.68
483.57	16004.58
483.74	16203.53
483.92	16322.90
484.10	16180.12
484.28	16580.36
484.46	16739.51
484.64	17062.51
484.82	16610.78
485.00	16868.24
485.18	16994.63
485.35	16957.18
485.53	16704.40
485.71	16912.71
485.89	16982.93
486.07	17128.04
486.25	17036.76
486.43	17296.56
486.61	17392.52
486.78	17788.07
486.96	18258.52
487.14	18211.71
487.32	18457.46
487.50	18574.49
487.68	18974.72
487.85	19126.86
488.03	19157.28
488.21	19391.34
488.39	19269.63
488.57	19499.00
488.75	19419.42
488.92	19955.41
489.10	20130.95
489.28	20362.66
489.46	20517.14
489.64	20229.25
489.81	20985.24
489.99	20809.70
490.17	21102.27
490.35	21495.48
490.53	21303.56
490.70	21118.65
490.88	21418.24
491.06	21715.49
491.24	21408.88
491.41	21504.84
491.59	21598.46
491.77	21769.32
491.95	21764.64
492.13	22366.16
492.30	22251.47
492.48	22052.53
492.66	22726.60
492.84	22707.88
493.01	23014.49
493.19	23005.13
493.37	22993.42
493.54	23042.57
493.72	23646.43
493.90	23676.86
494.08	23709.63
494.25	23887.51
494.43	23992.83
494.61	24233.91
494.79	24730.10
494.96	24093.47
495.14	24503.07
495.32	24360.30
495.49	24496.05
495.67	24723.08
495.85	25090.54
496.02	25209.91
496.20	25352.68
496.38	25205.23
496.55	25818.45
496.73	25738.87
496.91	25617.16
497.09	26127.40
497.26	25872.28
497.44	26143.78
497.62	25886.32
497.79	26019.74
497.97	26108.68
498.14	26410.60
498.32	26410.60
498.50	26459.76
498.67	26923.18
498.85	26852.97
499.03	27248.52
499.20	27405.33
499.38	27374.91
499.56	27351.50
499.73	27599.60
499.91	27316.39
500.08	27749.39
500.26	27417.04
500.44	27498.95
500.61	27908.55
500.79	27386.61
500.97	27967.06
501.14	27953.02
501.32	28357.93
501.49	28276.01
501.67	28292.40
501.84	28570.92
502.02	28446.87
502.20	28547.51
502.37	29029.66
502.55	28678.58
502.72	28893.91
502.90	28865.83
503.07	28809.65
503.25	28940.72
503.43	28811.99
503.60	29191.16
503.78	29191.16
503.95	29572.67
504.13	28933.70
504.30	29692.04
504.48	29427.56
504.65	29900.34
504.83	29996.31
505.01	30394.20
505.18	30281.85
505.36	30756.98
505.53	30335.68
505.71	30742.94
505.88	31054.23
506.06	30656.34
506.23	30478.46
506.41	30221.00
506.58	31187.64
506.76	31255.51
506.93	31068.27
507.11	31351.48
507.28	31131.47
507.46	31054.23
507.63	31065.93
507.81	31384.24
507.98	31105.72
508.16	31721.28
508.33	31597.23
508.50	31948.31
508.68	31917.89
508.85	31915.54
509.03	32095.77
509.20	32079.38
509.38	32470.25
509.55	32582.60
509.73	32409.40
509.90	32561.53
510.08	32154.28
510.25	32849.42
510.42	32491.32
510.60	32713.67
510.77	33120.92
510.95	33261.35
511.12	33111.56
511.30	33226.24
511.47	33495.41
511.64	33448.60
511.82	33799.68
511.99	33329.23
512.17	33495.41
512.34	33123.26
512.51	33738.82
512.69	33872.23
512.86	34054.79
513.04	34202.25
513.21	34352.04
513.38	33890.96
513.56	33886.28
513.73	33741.16
513.90	33731.80
514.08	33902.66
514.25	34316.93
514.43	34218.63
514.60	34712.49
514.77	34560.35
514.95	35325.71
515.12	34988.67
515.29	34682.06
515.47	35288.26
515.64	35400.60
515.81	34969.94
515.99	35150.17
516.16	35267.19
516.33	34597.80
516.51	34581.42
516.68	33820.74
516.85	33972.88
517.03	34653.97
517.20	35218.04
517.37	35519.97
517.54	35220.38
517.72	35522.31
517.89	35550.40
518.06	35117.40
518.24	35416.99
518.41	35461.46
518.58	35723.60
518.75	35580.82
518.93	35784.45
519.10	35978.72
519.27	36416.40
519.45	36144.89
519.62	36297.03
519.79	36582.57
519.96	36559.17
520.14	36680.88
520.31	36795.56
520.48	36605.98
520.65	36648.11
520.83	37361.97
521.00	36715.98
521.17	37158.34
521.34	36919.61
521.52	37696.67
521.69	37759.86
521.86	37593.68
522.03	37081.11
522.20	37848.80
522.38	37551.56
522.55	37553.90
522.72	37731.78
522.89	37450.91
523.07	37769.22
523.24	37509.43
523.41	38005.62
523.58	37759.86
523.75	38590.75
523.92	38670.33
524.10	38815.44
524.27	38749.91
524.44	38651.61
524.61	38948.85
524.78	38792.04
524.96	38637.56
525.13	38824.81
525.30	39124.40
525.47	39129.08
525.64	38941.83
525.81	39143.12
525.98	38637.56
526.16	38593.09
526.33	38260.74
526.50	39051.84
526.67	38440.96
526.84	38572.03
527.01	38370.74
527.18	38876.30
527.36	39019.07
527.53	39185.25
527.70	40196.36
527.87	40039.54
528.04	39208.65
528.21	39625.27
528.38	39756.34
528.55	39887.41
528.72	40549.78
528.89	40374.24
529.07	39922.52
529.24	40002.10
529.41	40418.71
529.58	40051.25
529.75	39810.17
529.92	40177.64
530.09	40378.92
530.26	40620.00
530.43	40575.53
530.60	40332.11
530.77	40837.67
530.94	40741.71
531.11	40762.77
531.28	40748.73
531.46	40751.07
531.63	40636.38
531.80	40638.72
531.97	41064.70
532.14	40804.90
532.31	40652.76
532.48	40402.33
532.65	40669.15
532.82	41347.90
532.99	40900.86
533.16	40832.99
533.33	41139.60
533.50	41659.20
533.67	41078.74
533.84	41315.14
534.01	41560.89
534.18	40996.82
534.35	41780.90
534.52	41205.13
534.69	41998.57
534.86	41794.95
535.03	41420.46
535.20	42036.02
535.37	42234.97
535.54	42419.87
535.71	42241.99
535.88	41830.05
536.05	41603.02
536.22	42232.63
536.38	41947.08
536.55	41867.50
536.72	41530.47
536.89	41975.17
537.06	41937.72
537.23	42462.00
537.40	42419.87
537.57	42480.72
537.74	42199.86
537.91	42850.53
538.08	42948.83
538.25	42447.96
538.42	42277.10
538.59	42813.08
538.75	42653.92
538.92	42401.14
539.09	42628.18
539.26	42721.80
539.43	42621.16
539.60	42684.35
539.77	42775.63
539.94	42887.98
540.11	42670.31
540.28	42674.99
540.44	42904.36
540.61	42630.52
540.78	42487.74
540.95	43014.37
541.12	42710.10
541.29	43042.45
541.46	43164.16
541.62	42932.45
541.79	43524.60
541.96	43447.36
542.13	43318.64
542.30	43117.35
542.47	43716.53
542.63	43365.45
542.80	43313.95
542.97	43798.44
543.14	44098.03
543.31	43725.89
543.48	44009.09
543.64	44720.62
543.81	44126.12
543.98	43906.11
544.15	44449.11
544.32	44339.11
544.48	44388.26
544.65	44098.03
544.82	44294.64
544.99	43732.91
545.16	44205.70
545.32	44414.01
545.49	44648.06
545.66	44435.07
545.83	44128.46
546.00	44648.06
546.16	44320.38
546.33	44437.41
546.50	44236.12
546.67	44453.79
546.83	43936.54
547.00	44708.91
547.17	44285.28
547.34	44500.61
547.50	44603.59
547.67	45013.18
547.84	44622.31
548.00	45074.04
548.17	45202.77
548.34	44779.13
548.51	45364.26
548.67	45460.23
548.84	45111.49
549.01	45052.97
549.18	45022.54
549.34	45350.22
549.51	45029.57
549.68	45336.18
549.84	45123.19
550.01	44978.07
550.18	45446.18
550.34	45315.11
550.51	45071.70
550.68	45340.86
550.84	44992.12
551.01	45516.40
551.18	45476.61
551.34	45006.16
551.51	45450.86
551.68	45242.56
551.84	46017.27
552.01	45483.63
552.18	45684.92
552.34	45387.67
552.51	45914.29
552.68	45481.29
552.84	46005.57
553.01	46050.04
553.18	45865.14
553.34	45617.04
553.51	45752.79
553.67	45654.49
553.84	46321.54
554.01	45837.05
554.17	46085.15
554.34	46078.13
554.51	45928.33
554.67	46124.94
554.84	46043.02
555.00	45944.72
555.17	46061.74
555.33	46120.26
555.50	46012.59
555.67	45918.97
555.83	45886.20
556.00	46195.15
556.16	46520.49
556.33	46342.61
556.50	46141.32
556.66	46117.92
556.83	45918.97
556.99	46204.52
557.16	46064.08
557.32	46366.01
557.49	46319.20
557.65	46103.87
557.82	46134.30
557.98	46096.85
558.15	46377.72
558.32	46349.63
558.48	46274.73
558.65	46387.08
558.81	46045.36
558.98	46028.98
559.14	46377.72
559.31	46246.65
559.47	46902.00
559.64	46459.63
559.80	46653.90
559.97	46677.30
560.13	46277.07
560.30	46550.91
560.46	46672.62
560.63	46726.46
560.79	46749.86
560.96	47437.98
561.12	46597.73
561.29	46579.00
561.45	46564.96
561.61	46054.72
561.78	46822.42
561.94	46747.52
562.11	46616.45
562.27	46679.64
562.44	46419.84
562.60	47098.60
562.77	47334.99
562.93	46770.93
563.10	46990.94
563.26	46768.58
563.42	47194.56
563.59	46571.98
563.75	47014.34
563.92	47220.31
564.08	46810.71
564.24	47222.65
564.41	47344.36
564.57	46890.29
564.74	47164.14
564.90	47299.89
565.07	46925.40
565.23	47030.72
565.39	47173.50
565.56	46679.64
565.72	46815.40
565.88	46770.93
566.05	47068.17
566.21	47061.15
566.38	47114.98
566.54	46948.81
566.70	47400.53
566.87	47337.33
567.03	47140.73
567.19	47700.12
567.36	47386.49
567.52	46717.09
567.68	47012.00
567.85	46899.65
568.01	47276.48
568.17	46796.67
568.34	47110.30
568.50	47269.46
568.66	46969.87
568.83	46972.21
568.99	46920.72
569.15	46794.33
569.32	47435.64
569.48	47000.30
569.64	47353.72
569.81	47047.11
569.97	47224.99
570.13	47098.60
570.30	46621.13
570.46	46951.15
570.62	46939.44
570.78	46925.40
570.95	46927.74
571.11	47311.59
571.27	47107.96
571.43	47187.54
571.60	47093.92
571.76	47224.99
571.92	47112.64
572.09	47627.56
572.25	47306.91
572.41	47267.12
572.57	47461.38
572.74	48044.18
572.90	47445.00
573.06	47468.40
573.22	47278.82
573.38	47459.04
573.55	47416.91
573.71	47470.75
573.87	47182.86
574.03	46831.78
574.20	47667.35
574.36	47131.37
574.52	47332.65
574.68	47526.92
574.84	47276.48
575.01	47400.53
575.17	47227.33
575.33	47447.34
575.49	47318.61
575.65	47765.65
575.82	47674.37
575.98	47257.76
576.14	47367.76
576.30	47210.95
576.46	47337.33
576.62	47316.27
576.79	47117.32
576.95	47171.16
577.11	47056.47
577.27	47522.24
577.43	47779.70
577.59	47065.83
577.75	47210.95
577.92	46726.46
578.08	46799.01
578.24	46911.36
578.40	47239.03
578.56	47189.88
578.72	47515.22
578.88	47330.31
579.04	47051.79
579.21	47470.75
579.37	47213.29
579.53	47381.80
579.69	46948.81
579.85	47365.42
580.01	47480.11
580.17	47487.13
580.33	47770.33
580.49	47559.69
580.65	47241.37
580.82	47601.82
580.98	47690.76
581.14	47384.15
581.30	47456.70
581.46	47100.94
581.62	47187.54
581.78	47463.72
581.94	47702.46
582.10	47346.70
582.26	47576.07
582.42	47576.07
582.58	47353.72
582.74	47786.72
582.90	47295.21
583.06	47934.17
583.22	47299.89
583.38	48149.50
583.54	47295.21
583.70	47604.16
583.86	47267.12
584.02	47353.72
584.18	47297.55
584.34	47859.27
584.50	47555.00
584.66	47206.26
584.82	47227.33
584.98	47557.35
585.14	47641.60
585.30	47407.55
585.46	47494.15
585.62	47599.47
585.78	47569.05
585.94	47409.89
586.10	47400.53
586.26	47625.22
586.42	47941.19
586.58	47648.63
586.74	47199.24
586.90	47246.05
587.06	47208.61
587.22	47636.92
587.38	47241.37
587.54	47746.93
587.70	47604.16
587.86	47367.76
588.02	47650.97
588.18	47501.17
588.34	47257.76
588.49	47271.80
588.65	47147.75
588.81	47019.02
588.97	46902.00
589.13	46883.27
589.29	47061.15
589.45	46862.21
589.61	47166.48
589.77	47620.54
