SpectraSuite Data File
++++++++++++++++++++++++++++++++++++
Date: Fri Oct 25 11:23:08 EDT 2013
User: price-jones
Dark Spectrum Present: No
Reference Spectrum Present: No
Number of Sampled Component Spectra: 1
Spectrometers: USB2+H05261
Integration Time (usec): 100000 (USB2+H05261)
Spectra Averaged: 1 (USB2+H05261)
Boxcar Smoothing: 0 (USB2+H05261)
Correct for Electrical Dark: No (USB2+H05261)
Strobe/Lamp Enabled: No (USB2+H05261)
Correct for Detector Non-linearity: No (USB2+H05261)
Correct for Stray Light: No (USB2+H05261)
Number of Pixels in Processed Spectrum: 2048
>>>>>Begin Processed Spectral Data<<<<<
365.73	276.18
365.92	276.18
366.12	276.18
366.32	154.48
366.52	102.98
366.72	126.39
366.91	110.01
367.11	100.64
367.31	93.62
367.51	72.56
367.70	95.96
367.90	168.52
368.10	72.56
368.30	63.19
368.49	107.66
368.69	110.01
368.89	182.56
369.09	161.50
369.28	170.86
369.48	184.90
369.68	173.20
369.87	229.37
370.07	156.82
370.27	257.46
370.47	353.42
370.66	559.39
370.86	620.24
371.06	610.88
371.25	643.65
371.45	648.33
371.65	676.41
371.84	676.41
372.04	697.48
372.24	753.65
372.44	788.76
372.63	744.29
372.83	725.57
373.03	716.20
373.22	725.57
373.42	650.67
373.62	802.80
373.81	781.74
374.01	805.14
374.21	809.83
374.40	720.88
374.60	802.80
374.79	805.14
374.99	763.01
375.19	901.11
375.38	901.11
375.58	854.30
375.78	854.30
375.97	903.45
376.17	870.68
376.37	851.96
376.56	856.64
376.76	821.53
376.95	908.13
377.15	884.72
377.35	816.85
377.54	947.92
377.74	917.49
377.93	844.93
378.13	898.77
378.33	880.04
378.52	891.74
378.72	915.15
378.91	1006.43
379.11	994.73
379.31	940.90
379.50	884.72
379.70	1001.75
379.89	947.92
380.09	938.55
380.28	926.85
380.48	999.41
380.68	1015.79
380.87	997.07
381.07	1006.43
381.26	1067.28
381.46	1081.33
381.65	997.07
381.85	1088.35
382.04	1022.81
382.24	1011.11
382.43	1013.45
382.63	1050.90
382.83	1039.20
383.02	1179.63
383.22	1111.75
383.41	1109.41
383.61	1036.86
383.80	1116.44
384.00	1137.50
384.19	1111.75
384.39	1116.44
384.58	1057.92
384.78	1121.12
384.97	1125.80
385.17	1193.67
385.36	1142.18
385.56	1233.46
385.75	1203.04
385.95	1146.86
386.14	1156.22
386.34	1226.44
386.53	1149.20
386.72	1121.12
386.92	1231.12
387.11	1291.98
387.31	1273.25
387.50	1198.35
387.70	1273.25
387.89	1341.13
388.09	1235.80
388.28	1261.55
388.48	1451.13
388.67	1306.02
388.86	1317.72
389.06	1343.47
389.25	1322.40
389.45	1348.15
389.64	1338.79
389.84	1352.83
390.03	1345.81
390.22	1359.85
390.42	1266.23
390.61	1357.51
390.81	1427.73
391.00	1416.02
391.19	1500.28
391.39	1441.77
391.58	1568.16
391.78	1409.00
391.97	1488.58
392.16	1474.54
392.36	1598.59
392.55	1514.33
392.75	1521.35
392.94	1511.99
393.13	1495.60
393.33	1586.88
393.52	1610.29
393.71	1526.03
393.91	1666.46
394.10	1577.52
394.29	1526.03
394.49	1633.69
394.68	1685.19
394.88	1593.90
395.07	1661.78
395.26	1703.91
395.46	1764.76
395.65	1621.99
395.84	1631.35
396.04	1732.00
396.23	1762.42
396.42	1781.15
396.62	1785.83
396.81	1776.47
397.00	1820.94
397.19	1856.04
397.39	1760.08
397.58	1809.23
397.77	1851.36
397.97	1905.20
398.16	1834.98
398.35	1867.75
398.55	1956.69
398.74	1872.43
398.93	1956.69
399.12	1937.96
399.32	1928.60
399.51	1994.14
399.70	1961.37
399.90	1989.46
400.09	1989.46
400.28	2003.50
400.47	2008.18
400.67	2125.21
400.86	2092.44
401.05	2036.27
401.24	2071.37
401.44	2059.67
401.63	2134.57
401.82	2146.27
402.01	2225.85
402.21	2202.44
402.40	2263.30
402.59	2216.49
402.78	2214.15
402.97	2214.15
403.17	2286.70
403.36	2209.47
403.55	2361.60
403.74	2246.91
403.93	2251.60
404.13	2410.75
404.32	2333.51
404.51	2473.95
404.70	2324.15
404.89	2387.35
405.09	2513.74
405.28	2530.12
405.47	2558.21
405.66	2530.12
405.85	2560.55
406.05	2602.68
406.24	2457.56
406.43	2616.72
406.62	2569.91
406.81	2654.17
407.00	2527.78
407.20	2546.50
407.39	2588.63
407.58	2693.96
407.77	2689.28
407.96	2782.90
408.15	2810.98
408.34	2700.98
408.54	2801.62
408.73	2834.39
408.92	2895.24
409.11	3026.31
409.30	2860.13
409.49	2867.16
409.68	2895.24
409.87	2951.42
410.07	3045.04
410.26	3016.95
410.45	3026.31
410.64	2953.76
410.83	3166.74
411.02	3269.73
411.21	3122.27
411.40	3087.17
411.59	3391.44
411.78	3309.52
411.98	3239.30
412.17	3143.34
412.36	3218.24
412.55	3311.86
412.74	3452.29
412.93	3454.63
413.12	3344.63
413.31	3574.00
413.50	3478.04
413.69	3489.74
413.88	3651.24
414.07	3538.89
414.26	3660.60
414.45	3606.77
414.64	3691.02
414.83	3854.86
415.02	3735.50
415.22	3985.93
415.41	3819.75
415.60	3871.25
415.79	3960.19
415.98	3939.12
416.17	4140.41
416.36	4042.11
416.55	4065.51
416.74	4079.55
416.93	4074.87
417.12	4152.11
417.31	4269.14
417.50	4128.70
417.69	4411.91
417.88	4355.74
418.07	4189.56
418.26	4196.58
418.45	4383.82
418.64	4564.04
418.83	4475.10
419.02	4491.49
419.21	4580.43
419.39	4681.07
419.58	4568.73
419.77	4603.83
419.96	4461.06
420.15	4594.47
420.34	4711.50
420.53	4685.75
420.72	4730.22
420.91	4716.18
421.10	4868.31
421.29	4800.44
421.48	4720.86
421.67	4858.95
421.86	4791.08
422.05	4772.35
422.24	4788.74
422.43	4903.42
422.61	4910.44
422.80	5041.51
422.99	5025.13
423.18	4933.85
423.37	4994.70
423.56	5004.07
423.75	4947.89
423.94	4870.65
424.13	4542.98
424.32	4833.21
424.50	5090.67
424.69	5231.10
424.88	5020.45
425.07	4809.80
425.26	4971.30
425.45	5062.58
425.64	4835.55
425.83	4821.50
426.01	5123.43
426.20	5193.65
426.39	5200.67
426.58	5013.43
426.77	5219.39
426.96	5228.76
427.15	5324.72
427.33	5228.76
427.52	5186.63
427.71	5317.70
427.90	5296.63
428.09	5378.55
428.28	5481.53
428.46	5399.62
428.65	5643.03
428.84	5785.80
429.03	5673.46
429.22	5362.17
429.40	5476.85
429.59	5614.95
429.78	5392.59
429.97	5315.36
430.16	5500.26
430.34	5600.90
430.53	5654.73
430.72	5781.12
430.91	5650.05
431.10	5673.46
431.28	5776.44
431.47	5799.85
431.66	5902.83
431.85	5851.34
432.03	6003.47
432.22	6052.63
432.41	5956.66
432.60	6193.06
432.79	6040.92
432.97	6029.22
433.16	6113.48
433.35	6022.20
433.54	6099.44
433.72	6270.30
433.91	6162.63
434.10	6200.08
434.28	6136.88
434.47	6399.02
434.66	6190.72
434.85	6450.52
435.03	6265.61
435.22	6377.96
435.41	6377.96
435.59	6588.61
435.78	6420.09
435.97	6707.98
436.16	6436.47
436.34	6403.71
436.53	6485.62
436.72	6686.91
436.90	6642.44
437.09	6764.15
437.28	6497.33
437.46	6623.72
437.65	6668.19
437.84	6740.74
438.02	6724.36
438.21	6878.83
438.40	6775.85
438.58	7119.91
438.77	7187.79
438.96	7023.95
439.14	7283.75
439.33	7187.79
439.52	7328.22
439.70	7335.24
439.89	7360.98
440.08	7300.13
440.26	7269.70
440.45	7372.69
440.63	7323.54
440.82	7723.77
441.01	7693.34
441.19	7676.96
441.38	7936.76
441.57	7836.11
441.75	7819.73
441.94	8283.16
442.12	7934.42
442.31	8116.98
442.50	8070.17
442.68	7995.27
442.87	8121.66
443.05	8271.45
443.24	8348.69
443.43	8266.77
443.61	8093.57
443.80	8472.74
443.98	8056.12
444.17	8135.70
444.35	8472.74
444.54	8304.22
444.73	8458.70
444.91	8638.92
445.10	8484.44
445.28	8280.82
445.47	8372.10
445.65	8360.39
445.84	8425.93
446.02	8603.81
446.21	8676.37
446.39	8524.23
446.58	8519.55
446.77	8505.51
446.95	8472.74
447.14	8540.61
447.32	8842.54
447.51	8428.27
447.69	8634.24
447.88	8517.21
448.06	8589.77
448.25	8641.26
448.43	8617.85
448.62	8758.28
448.80	8442.31
448.99	8849.57
449.17	8669.34
449.36	8603.81
449.54	8905.74
449.73	9167.88
449.91	9193.62
450.10	9020.42
450.28	9158.52
450.46	9310.65
450.65	9011.06
450.83	9184.26
451.02	9305.97
451.20	9224.05
451.39	9151.49
451.57	9195.96
451.76	9078.94
451.94	9247.46
452.13	9345.76
452.31	9336.40
452.49	9263.84
452.68	9483.85
452.86	9282.56
453.05	9376.19
453.23	9661.73
453.42	9530.66
453.60	9338.74
453.78	9689.82
453.97	9558.75
454.15	9397.25
454.34	9467.47
454.52	9851.31
454.70	9738.97
454.89	9877.06
455.07	9984.73
455.26	9781.10
455.44	10169.63
455.62	10012.81
455.81	10001.11
455.99	10115.80
456.17	10162.61
456.36	10113.45
456.54	10141.54
456.73	10314.74
456.91	10581.56
457.09	10593.26
457.28	10707.95
457.46	10513.69
457.64	10785.19
457.83	10644.76
458.01	10356.87
458.19	10981.79
458.38	10883.49
458.56	10864.77
458.74	10993.50
458.93	10839.02
459.11	10703.27
459.29	10796.89
459.48	11023.92
459.66	10934.98
459.84	10902.22
460.03	11180.74
460.21	11035.63
460.39	11087.12
460.57	11180.74
460.76	11342.24
460.94	11330.53
461.12	11419.47
461.31	11524.80
461.49	11133.93
461.67	11412.45
461.85	11534.16
462.04	11346.92
462.22	11756.51
462.40	11690.98
462.59	11541.18
462.77	11634.80
462.95	11763.53
463.13	11899.28
463.32	11672.25
463.50	11775.24
463.68	12023.33
463.86	11908.65
464.05	11810.34
464.23	11815.02
464.41	12091.21
464.59	11939.07
464.78	12292.49
464.96	12191.85
465.14	12046.74
465.32	12112.27
465.50	12226.96
465.69	12262.07
465.87	12161.42
466.05	12299.52
466.23	12250.36
466.41	12189.51
466.60	12627.19
466.78	12435.27
466.96	12336.96
467.14	12315.90
467.32	12666.98
467.51	12730.17
467.69	12264.41
467.87	12540.59
468.05	12755.92
468.23	12472.71
468.41	12627.19
468.60	12908.05
468.78	12975.93
468.96	12837.84
469.14	12947.84
469.32	13224.03
469.50	13034.44
469.69	13331.69
469.87	13214.66
470.05	13205.30
470.23	13191.26
470.41	13518.93
470.59	13504.89
470.77	13235.73
470.95	13329.35
471.14	13745.97
471.32	13214.66
471.50	13750.65
471.68	13631.28
471.86	13717.88
472.04	13970.66
472.22	14017.47
472.40	13752.99
472.58	14139.18
472.77	14108.75
472.95	14469.19
473.13	14820.27
473.31	14148.54
473.49	14422.38
473.67	14382.59
473.85	14235.14
474.03	14998.15
474.21	14895.17
474.39	14925.60
474.57	14970.07
474.75	15112.84
474.93	15070.71
475.12	15059.01
475.30	15166.67
475.48	15255.61
475.66	15330.51
475.84	15225.18
476.02	15634.78
476.20	15616.05
476.38	15824.36
476.56	16290.13
476.74	16255.02
476.92	15992.88
477.10	16191.83
477.28	16329.92
477.46	16149.70
477.64	16568.65
477.82	16748.87
478.00	17029.74
478.18	16943.14
478.36	17212.30
478.54	17310.60
478.72	17441.67
478.90	17490.82
479.08	17654.66
479.26	18111.07
479.44	18026.81
479.62	17834.88
479.80	18242.14
479.98	18146.17
480.16	18953.66
480.34	18651.73
480.52	18787.48
480.70	18972.38
480.88	18785.14
481.06	18885.78
481.24	18714.92
481.41	19131.54
481.59	19700.29
481.77	19768.16
481.95	20173.08
482.13	19976.47
482.31	20224.57
482.49	20540.54
482.67	20498.41
482.85	20416.49
483.03	20720.76
483.21	21034.39
483.39	21128.02
483.57	20870.56
483.74	21427.60
483.92	21685.06
484.10	21441.65
484.28	22022.10
484.46	22281.90
484.64	22703.20
484.82	22483.19
485.00	22735.96
485.18	22747.67
485.35	22923.21
485.53	23164.28
485.71	23220.45
485.89	23562.17
486.07	23929.64
486.25	23531.75
486.43	23913.25
486.61	23908.57
486.78	24561.58
486.96	24575.62
487.14	24903.30
487.32	24694.99
487.50	25411.20
487.68	25497.80
487.85	25362.04
488.03	25900.37
488.21	25891.01
488.39	25820.79
488.57	26249.11
488.75	26710.19
488.92	26988.72
489.10	27140.85
489.28	26862.33
489.46	27328.10
489.64	27227.45
489.81	27889.82
489.99	27585.55
490.17	27878.12
490.35	28493.68
490.53	28638.80
490.70	28671.56
490.88	28570.92
491.06	29270.74
491.24	29039.03
491.41	29336.27
491.59	29518.84
491.77	29846.51
491.95	29874.60
492.13	30263.13
492.30	30574.42
492.48	30251.42
492.66	30623.57
492.84	30567.40
493.01	30696.13
493.19	30710.17
493.37	31409.99
493.54	31379.56
493.72	31550.42
493.90	31686.17
494.08	32238.54
494.25	32549.83
494.43	32226.84
494.61	32467.91
494.79	32865.80
494.96	32858.78
495.14	33233.27
495.32	33551.58
495.49	33586.69
495.67	33153.69
495.85	33963.51
496.02	34263.10
496.20	34202.25
496.38	34178.84
496.55	34305.23
496.73	35241.45
496.91	35157.19
497.09	35292.94
497.26	35356.13
497.44	35435.71
497.62	35784.45
497.79	36098.08
497.97	35763.39
498.14	36297.03
498.32	36601.30
498.50	36650.45
498.67	37148.98
498.85	36856.42
499.03	36905.57
499.20	36795.56
499.38	37436.87
499.56	37429.85
499.73	37418.14
499.91	37989.24
500.08	38380.10
500.26	37741.14
500.44	38115.62
500.61	38581.39
500.79	38520.54
500.97	38370.74
501.14	39075.24
501.32	38745.23
501.49	39042.48
501.67	39335.04
501.84	39082.27
502.02	39466.11
502.20	39620.59
502.37	39555.05
502.55	39512.92
502.72	40025.50
502.90	39878.05
503.07	40065.29
503.25	40126.14
503.43	40458.50
503.60	40009.12
503.78	40917.25
503.95	40781.49
504.13	40825.96
504.30	40715.96
504.48	40851.71
504.65	41170.02
504.83	41640.47
505.01	41827.71
505.18	42007.94
505.36	41862.82
505.53	41797.29
505.71	41965.81
505.88	42284.12
506.06	42029.00
506.23	42293.48
506.41	42557.96
506.58	42359.02
506.76	43189.91
506.93	42983.94
507.11	42937.13
507.28	43157.14
507.46	43323.32
507.63	43367.79
507.81	43260.12
507.98	43306.93
508.16	43545.67
508.33	43917.81
508.50	44006.75
508.68	44418.69
508.85	44509.97
509.03	44191.65
509.20	44404.64
509.38	45563.21
509.55	44942.97
509.73	44968.71
509.90	44926.58
510.08	45132.55
510.25	44755.72
510.42	44858.71
510.60	45247.24
510.77	45202.77
510.95	45794.92
511.12	45635.77
511.30	45808.96
511.47	45925.99
511.64	46085.15
511.82	46103.87
511.99	46286.43
512.17	46347.29
512.34	46398.78
512.51	46937.10
512.69	46988.60
512.86	46866.89
513.04	47311.59
513.21	47297.55
513.38	47054.13
513.56	47402.87
513.73	47327.97
513.90	47753.95
514.08	47674.37
514.25	47365.42
514.43	47709.48
514.60	47901.40
514.77	47941.19
514.95	48154.18
515.12	48320.36
515.29	48371.85
515.47	48142.48
515.64	48116.73
515.81	48512.28
515.99	48828.26
516.16	48769.74
516.33	48732.29
516.51	49045.93
516.68	48755.70
516.85	48999.12
517.03	49209.76
517.20	49268.28
517.37	49462.54
517.54	49223.81
517.72	49184.02
517.89	49448.50
518.06	49261.26
518.24	49612.34
518.41	49532.76
518.58	49539.78
518.75	49504.67
518.93	49928.31
519.10	49675.53
519.27	49846.39
519.45	50101.51
519.62	50555.57
519.79	50600.04
519.96	50632.81
520.14	50574.30
520.31	50110.87
520.48	50646.85
520.65	50721.75
520.83	51023.68
521.00	51173.47
521.17	50911.33
521.34	51178.15
521.52	51089.21
521.69	51105.60
521.86	51653.28
522.03	51779.67
522.20	51892.02
522.38	51943.51
522.55	51817.12
522.72	51657.96
522.89	51632.22
523.07	51840.53
523.24	51957.55
523.41	52137.77
523.58	51774.99
523.75	52177.56
523.92	52310.97
524.10	52282.89
524.27	52650.35
524.44	52215.01
524.61	52727.59
524.78	52538.01
524.96	52425.66
525.13	52961.64
525.30	52685.46
525.47	52573.11
525.64	52846.96
525.81	53389.96
525.98	53020.16
526.16	52795.46
526.33	53027.18
526.50	53291.66
526.67	53389.96
526.84	53118.46
527.01	53228.46
527.18	53057.60
527.36	53359.53
527.53	53434.43
527.70	53858.07
527.87	53670.82
528.04	53511.67
528.21	53862.75
528.38	53427.41
528.55	53872.11
528.72	53806.58
528.89	53806.58
529.07	53715.29
529.24	53736.36
529.41	54113.19
529.58	54005.52
529.75	53715.29
529.92	54239.57
530.09	54255.96
530.26	54199.79
530.43	54162.34
530.60	54232.55
530.77	53977.43
530.94	54288.73
531.11	54092.12
531.28	54429.16
531.46	54473.63
531.63	54429.16
531.80	54492.35
531.97	54630.44
532.14	54904.29
532.31	54955.78
532.48	54927.69
532.65	54887.90
532.82	55014.29
532.99	55128.98
533.16	55047.06
533.33	55189.83
533.50	55274.09
533.67	55047.06
533.84	54918.33
534.01	55271.75
534.18	55061.10
534.35	55725.81
534.52	55543.25
534.69	55519.85
534.86	55487.08
535.03	55428.57
535.20	55171.11
535.37	55803.05
535.54	55503.46
535.71	55679.00
535.88	55580.70
536.05	55840.50
536.22	55679.00
536.38	55936.46
536.55	55835.82
536.72	56055.83
536.89	55943.48
537.06	55662.62
537.23	56002.00
537.40	55718.79
537.57	55849.86
537.74	56147.11
537.91	56313.29
538.08	55999.66
538.25	55882.63
538.42	56374.14
538.59	56451.38
538.75	56303.93
538.92	56451.38
539.09	56545.00
539.26	56432.66
539.43	56350.74
539.60	56540.32
539.77	56699.48
539.94	56673.73
540.11	56748.63
540.28	56858.63
540.44	56713.52
540.61	56706.50
540.78	56488.83
540.95	56509.89
541.12	56589.47
541.29	56575.43
541.46	56945.23
541.62	56853.95
541.79	56875.02
541.96	56863.32
542.13	56790.76
542.30	56931.19
542.47	57116.09
542.63	57202.69
542.80	57127.80
542.97	57183.97
543.14	57623.99
543.31	57378.23
543.48	57460.15
543.64	57488.24
543.81	57675.48
543.98	57511.64
544.15	57542.07
544.32	57762.08
544.48	57897.83
544.65	57457.81
544.82	57471.85
544.99	57677.82
545.16	57666.12
545.32	57726.97
545.49	58024.22
545.66	58099.12
545.83	57942.30
546.00	57986.77
546.16	58024.22
546.33	57822.93
546.50	57902.51
546.67	57806.55
546.83	57968.05
547.00	58204.44
547.17	58010.18
547.34	57989.11
547.50	58157.63
547.67	58422.11
547.84	58487.65
548.00	58398.71
548.17	58422.11
548.34	58394.03
548.51	58370.62
548.67	58527.44
548.84	58267.64
549.01	58312.11
549.18	58489.99
549.34	58468.92
549.51	58747.45
549.68	58621.06
549.84	58607.01
550.01	58681.91
550.18	58515.73
550.34	58756.81
550.51	58845.75
550.68	58775.53
550.84	58426.79
551.01	58754.47
551.18	58892.56
551.34	58908.94
551.51	58873.84
551.68	58759.15
551.84	58796.60
552.01	58908.94
552.18	58979.16
552.34	58770.85
552.51	58941.71
552.68	58801.28
552.84	58969.80
553.01	59157.04
553.18	59018.95
553.34	59194.49
553.51	59082.14
553.67	59124.27
553.84	59199.17
554.01	59178.10
554.17	59100.87
554.34	59290.45
554.51	59360.67
554.67	59278.75
554.84	59189.81
555.00	59192.15
555.17	59079.80
555.33	59297.47
555.50	59213.21
555.67	59171.08
555.83	59206.19
556.00	59456.63
556.16	59423.86
556.33	59437.90
556.50	59571.32
556.66	59657.91
556.83	59604.08
556.99	59774.94
557.16	59611.10
557.32	59702.38
557.49	59931.76
557.65	59786.64
557.82	59592.38
557.98	59742.17
558.15	59728.13
558.32	59522.16
558.48	59414.50
558.65	59667.28
558.81	59805.37
558.98	59650.89
559.14	59784.30
559.31	59917.71
559.47	59807.71
559.64	59997.29
559.80	59831.11
559.97	59779.62
560.13	59922.40
560.30	60107.30
560.46	60037.08
560.63	60151.77
560.79	60060.49
560.96	60299.22
561.12	60086.23
561.29	59948.14
561.45	60053.47
561.61	59756.22
561.78	60163.47
561.94	59987.93
562.11	60011.34
562.27	60147.09
562.44	60406.89
562.60	60275.82
562.77	60144.75
562.93	60193.90
563.10	60343.69
563.26	60011.34
563.42	60481.78
563.59	60107.30
563.75	60355.39
563.92	60355.39
564.08	60140.07
564.24	60367.10
564.41	60449.02
564.57	60591.79
564.74	60383.48
564.90	60439.65
565.07	60484.12
565.23	60488.80
565.39	60467.74
565.56	60507.53
565.72	60350.71
565.88	60259.43
566.05	60465.40
566.21	60470.08
566.38	60388.16
566.54	60626.90
566.70	60657.32
566.87	60622.22
567.03	60526.25
567.19	60563.70
567.36	60858.61
567.52	60619.88
567.68	60774.35
567.85	60643.28
568.01	60680.73
568.17	60570.72
568.34	60690.09
568.50	60474.76
568.66	60729.88
568.83	60664.35
568.99	60647.96
569.15	60631.58
569.32	60690.09
569.48	60701.79
569.64	60619.88
569.81	60701.79
569.97	60683.07
570.13	60647.96
570.30	60645.62
570.46	60884.36
570.62	60690.09
570.78	60823.50
570.95	60774.35
571.11	60790.73
571.27	60863.29
571.43	60832.86
571.60	60959.25
571.76	60814.14
571.92	60940.53
572.09	60853.93
572.25	60800.10
572.41	60706.47
572.57	61020.11
572.74	61043.51
572.90	60846.91
573.06	60729.88
573.22	60863.29
573.38	60823.50
573.55	60832.86
573.71	60954.57
573.87	60718.18
574.03	60755.63
574.20	60900.74
574.36	60882.02
574.52	61043.51
574.68	61043.51
574.84	61188.63
575.01	60975.64
575.17	61055.21
575.33	60884.36
575.49	61017.77
575.65	61080.96
575.82	61008.40
575.98	61043.51
576.14	61401.61
576.30	61127.77
576.46	61123.09
576.62	61043.51
576.79	60970.96
576.95	60776.69
577.11	61153.52
577.27	61216.71
577.43	61055.21
577.59	60992.02
577.75	60963.93
577.92	61043.51
578.08	61195.65
578.24	61113.73
578.40	61235.44
578.56	61148.84
578.72	60942.87
578.88	61216.71
579.04	61254.16
579.21	61155.86
579.37	61183.94
579.53	61347.78
579.69	60926.49
579.85	61130.11
580.01	61099.68
580.17	61092.66
580.33	61296.29
580.49	61315.01
580.65	61141.81
580.82	61109.05
580.98	61095.00
581.14	61141.81
581.30	61139.47
581.46	61158.20
581.62	61111.39
581.78	61015.43
581.94	61399.27
582.10	60966.27
582.26	61296.29
582.42	61076.28
582.58	61200.33
582.74	61141.81
582.90	61020.11
583.06	61090.32
583.22	60985.00
583.38	61380.55
583.54	61212.03
583.70	61165.22
583.86	61233.10
584.02	60980.32
584.18	61350.12
584.34	61303.31
584.50	61336.08
584.66	61254.16
584.82	61118.41
584.98	61350.12
585.14	61326.72
585.30	61139.47
585.46	61277.57
585.62	61050.53
585.78	61300.97
585.94	61123.09
586.10	61336.08
586.26	61422.68
586.42	61284.59
586.58	61270.54
586.74	61366.51
586.90	61298.63
587.06	61226.07
587.22	61413.32
587.38	61373.53
587.54	61422.68
587.70	61415.66
587.86	61359.48
588.02	61315.01
588.18	61413.32
588.34	61212.03
588.49	61268.20
