SpectraSuite Data File
++++++++++++++++++++++++++++++++++++
Date: Fri Oct 25 10:48:00 EDT 2013
User: price-jones
Dark Spectrum Present: No
Reference Spectrum Present: No
Number of Sampled Component Spectra: 1
Spectrometers: USB2+H05261
Integration Time (usec): 100000 (USB2+H05261)
Spectra Averaged: 1 (USB2+H05261)
Boxcar Smoothing: 0 (USB2+H05261)
Correct for Electrical Dark: No (USB2+H05261)
Strobe/Lamp Enabled: No (USB2+H05261)
Correct for Detector Non-linearity: No (USB2+H05261)
Correct for Stray Light: No (USB2+H05261)
Number of Pixels in Processed Spectrum: 2048
>>>>>Begin Processed Spectral Data<<<<<
365.73	182.56
365.92	182.56
366.12	182.56
366.32	7.02
366.52	65.54
366.72	112.35
366.91	79.58
367.11	46.81
367.31	35.11
367.51	4.68
367.70	42.13
367.90	72.56
368.10	105.32
368.30	42.13
368.49	53.83
368.69	147.45
368.89	37.45
369.09	65.54
369.28	79.58
369.48	63.19
369.68	88.94
369.87	42.13
370.07	110.01
370.27	112.35
370.47	177.88
370.66	411.93
370.86	428.32
371.06	465.77
371.25	437.68
371.45	468.11
371.65	458.74
371.84	454.06
372.04	423.64
372.24	538.32
372.44	535.98
372.63	418.96
372.83	538.32
373.03	500.87
373.22	414.27
373.42	543.00
373.62	552.37
373.81	475.13
374.01	521.94
374.21	528.96
374.40	552.37
374.60	603.86
374.79	568.75
374.99	596.84
375.19	538.32
375.38	489.17
375.58	543.00
375.78	603.86
375.97	526.62
376.17	660.03
376.37	624.92
376.56	636.63
376.76	554.71
376.95	606.20
377.15	624.92
377.35	622.58
377.54	617.90
377.74	653.01
377.93	599.18
378.13	585.13
378.33	594.50
378.52	613.22
378.72	678.76
378.91	641.31
379.11	678.76
379.31	641.31
379.50	526.62
379.70	648.33
379.89	648.33
380.09	624.92
380.28	641.31
380.48	706.84
380.68	643.65
380.87	636.63
381.07	592.16
381.26	662.37
381.46	681.10
381.65	692.80
381.85	669.39
382.04	732.59
382.24	697.48
382.43	746.63
382.63	720.88
382.83	669.39
383.02	709.18
383.22	688.12
383.41	739.61
383.61	755.99
383.80	784.08
384.00	732.59
384.19	784.08
384.39	697.48
384.58	704.50
384.78	730.25
384.97	716.20
385.17	718.54
385.36	866.00
385.56	812.17
385.75	760.67
385.95	856.64
386.14	805.14
386.34	777.06
386.53	779.40
386.72	798.12
386.92	835.57
387.11	851.96
387.31	868.34
387.50	777.06
387.70	730.25
387.89	833.23
388.09	868.34
388.28	772.38
388.48	844.93
388.67	863.66
388.86	851.96
389.06	842.59
389.25	901.11
389.45	919.83
389.64	875.36
389.84	903.45
390.03	919.83
390.22	968.98
390.42	856.64
390.61	936.21
390.81	933.87
391.00	968.98
391.19	943.24
391.39	931.53
391.58	936.21
391.78	997.07
391.97	1041.54
392.16	903.45
392.36	971.32
392.55	1006.43
392.75	959.62
392.94	889.40
393.13	891.74
393.33	959.62
393.52	971.32
393.71	1011.11
393.91	1053.24
394.10	1130.48
394.29	1104.73
394.49	1057.92
394.68	1076.65
394.88	1093.03
395.07	1128.14
395.26	1071.97
395.46	1057.92
395.65	1090.69
395.84	1114.10
396.04	1158.57
396.23	1074.31
396.42	1144.52
396.62	1083.67
396.81	1233.46
397.00	1160.91
397.19	1081.33
397.39	1198.35
397.58	1224.10
397.77	1268.57
397.97	1221.76
398.16	1247.51
398.35	1259.21
398.55	1275.59
398.74	1345.81
398.93	1338.79
399.12	1306.02
399.32	1214.74
399.51	1401.98
399.70	1284.95
399.90	1301.34
400.09	1376.24
400.28	1366.87
400.47	1397.30
400.67	1409.00
400.86	1392.62
401.05	1434.75
401.24	1458.15
401.44	1502.62
401.63	1390.28
401.82	1558.80
402.01	1462.83
402.21	1472.20
402.40	1507.30
402.59	1467.52
402.78	1549.43
402.97	1544.75
403.17	1540.07
403.36	1575.18
403.55	1600.93
403.74	1643.06
403.93	1584.54
404.13	1474.54
404.32	1572.84
404.51	1591.56
404.70	1680.50
404.89	1643.06
405.09	1706.25
405.28	1729.66
405.47	1755.40
405.66	1818.60
405.85	1823.28
406.05	1727.32
406.24	1788.17
406.43	1715.61
406.62	1858.39
406.81	1874.77
407.00	1771.79
407.20	1888.81
407.39	1757.74
407.58	1792.85
407.77	1919.24
407.96	1823.28
408.15	1916.90
408.34	1944.99
408.54	1937.96
408.73	2040.95
408.92	2029.24
409.11	2101.80
409.30	2069.03
409.49	1968.39
409.68	2043.29
409.87	2043.29
410.07	2047.97
410.26	2160.31
410.45	2099.46
410.64	2132.23
410.83	2148.61
411.02	2076.06
411.21	2204.78
411.40	2366.28
411.59	2134.57
411.78	2155.63
411.98	2225.85
412.17	2375.64
412.36	2204.78
412.55	2406.07
412.74	2389.69
412.93	2443.52
413.12	2392.03
413.31	2621.40
413.50	2396.71
413.69	2506.71
413.88	2483.31
414.07	2518.42
414.26	2602.68
414.45	2516.08
414.64	2581.61
414.83	2609.70
415.02	2651.83
415.22	2747.79
415.41	2520.76
415.60	2733.75
415.79	2771.19
415.98	2820.35
416.17	2766.51
416.36	2738.43
416.55	2789.92
416.74	2855.45
416.93	2829.71
417.12	2923.33
417.31	2853.11
417.50	3019.29
417.69	3066.10
417.88	3084.83
418.07	3068.44
418.26	2960.78
418.45	2942.05
418.64	3185.47
418.83	3094.19
419.02	3045.04
419.21	3080.14
419.39	3166.74
419.58	3047.38
419.77	3117.59
419.96	3290.79
420.15	3386.76
420.34	3332.92
420.53	3342.28
420.72	3248.66
420.91	3297.81
421.10	3297.81
421.29	3342.28
421.48	3321.22
421.67	3396.12
421.86	3384.41
422.05	3463.99
422.24	3459.31
422.43	3459.31
422.61	3290.79
422.80	3466.33
422.99	3426.54
423.18	3581.02
423.37	3543.57
423.56	3574.00
423.75	3515.48
423.94	3466.33
424.13	3309.52
424.32	3358.67
424.50	3595.06
424.69	3524.85
424.88	3534.21
425.07	3393.78
425.26	3480.38
425.45	3386.76
425.64	3531.87
425.83	3508.46
426.01	3522.51
426.20	3588.04
426.39	3665.28
426.58	3590.38
426.77	3515.48
426.96	3623.15
427.15	3545.91
427.33	3581.02
427.52	3613.79
427.71	3702.73
427.90	3691.02
428.09	3669.96
428.28	3618.47
428.46	3667.62
428.65	3705.07
428.84	3815.07
429.03	3854.86
429.22	3700.39
429.40	3836.14
429.59	3824.44
429.78	3606.77
429.97	3588.04
430.16	3789.33
430.34	3749.54
430.53	3786.99
430.72	3777.62
430.91	3775.28
431.10	3899.33
431.28	4016.36
431.47	4042.11
431.66	4088.92
431.85	3936.78
432.03	4126.36
432.22	4250.41
432.41	4065.51
432.60	4119.34
432.79	4212.96
432.97	4135.73
433.16	4311.27
433.35	4219.99
433.54	4168.49
433.72	4259.78
433.91	4231.69
434.10	4337.01
434.28	4170.83
434.47	4243.39
434.66	4234.03
434.85	4344.03
435.03	4482.13
435.22	4381.48
435.41	4440.00
435.59	4524.26
435.78	4468.08
435.97	4503.19
436.16	4463.40
436.34	4461.06
436.53	4582.77
436.72	4587.45
436.90	4482.13
437.09	4568.73
437.28	4671.71
437.46	4599.15
437.65	4582.77
437.84	4753.63
438.02	4622.56
438.21	4552.34
438.40	4573.41
438.58	4819.16
438.77	4961.94
438.96	4889.38
439.14	4992.36
439.33	4959.60
439.52	4990.02
439.70	4954.91
439.89	5205.35
440.08	5041.51
440.26	5018.11
440.45	5109.39
440.63	5184.29
440.82	5252.16
441.01	5135.14
441.19	5514.30
441.38	5350.46
441.57	5298.97
441.75	5549.41
441.94	5390.25
442.12	5451.11
442.31	5647.71
442.50	5664.10
442.68	5500.26
442.87	5671.12
443.05	5661.76
443.24	5746.02
443.43	5526.00
443.61	5804.53
443.80	5879.43
443.98	5582.18
444.17	5575.16
444.35	5706.23
444.54	5851.34
444.73	5865.38
444.91	5579.84
445.10	5713.25
445.28	5722.61
445.47	5636.01
445.65	5746.02
445.84	6005.81
446.02	5781.12
446.21	5713.25
446.39	5837.30
446.58	5998.79
446.77	5940.28
446.95	5788.14
447.14	5874.74
447.32	5937.94
447.51	5916.87
447.69	5975.39
447.88	5996.45
448.06	6064.33
448.25	5902.83
448.43	6043.26
448.62	5806.87
448.80	5942.62
448.99	6167.31
449.17	6036.24
449.36	5942.62
449.54	5996.45
449.73	6118.16
449.91	6218.80
450.10	6204.76
450.28	6363.92
450.46	6251.57
450.65	6321.79
450.83	6310.08
451.02	6396.68
451.20	6265.61
451.39	6340.51
451.57	6338.17
451.76	6293.70
451.94	6373.28
452.13	6375.62
452.31	6310.08
452.49	6370.94
452.68	6328.81
452.86	6459.88
453.05	6539.46
453.23	6445.84
453.42	6485.62
453.60	6506.69
453.78	6647.12
453.97	6546.48
454.15	6583.93
454.34	6647.12
454.52	6682.23
454.70	6764.15
454.89	6810.96
455.07	6640.10
455.26	6698.61
455.44	6832.02
455.62	6850.75
455.81	6787.55
455.99	6855.43
456.17	7075.44
456.36	6864.79
456.54	6981.82
456.73	7014.59
456.91	7197.15
457.09	7199.49
457.28	7176.08
457.46	7103.53
457.64	7140.97
457.83	7157.36
458.01	7110.55
458.19	7384.39
458.38	7218.21
458.56	7372.69
458.74	7351.62
458.93	7393.75
459.11	7524.82
459.29	7407.80
459.48	7496.74
459.66	7405.46
459.84	7396.09
460.03	7543.55
460.21	7520.14
460.39	7506.10
460.57	7578.65
460.76	7550.57
460.94	7557.59
461.12	7541.21
461.31	7779.94
461.49	7543.55
461.67	7819.73
461.85	7833.77
462.04	7829.09
462.22	8234.00
462.40	7838.45
462.59	7815.05
462.77	7925.05
462.95	7866.54
463.13	7845.48
463.32	8088.89
463.50	7983.57
463.68	8194.22
463.86	7925.05
464.05	7847.82
464.23	7824.41
464.41	7894.63
464.59	7967.18
464.78	8217.62
464.96	7983.57
465.14	8032.72
465.32	8180.17
465.50	8234.00
465.69	8257.41
465.87	8360.39
466.05	8149.75
466.23	8334.65
466.41	8404.86
466.60	8585.08
466.78	8283.16
466.96	8269.11
467.14	8241.03
467.32	8322.94
467.51	8531.25
467.69	8297.20
467.87	8259.75
468.05	8578.06
468.23	8503.17
468.41	8285.50
468.60	8542.96
468.78	8711.47
468.96	8521.89
469.14	8685.73
469.32	8650.62
469.50	8554.66
469.69	8671.68
469.87	8732.54
470.05	8901.06
470.23	8889.35
470.41	8765.31
470.59	9048.51
470.77	8922.12
470.95	8884.67
471.14	9202.99
471.32	9025.11
471.50	9137.45
471.68	9006.38
471.86	9469.81
472.04	9249.80
472.22	9633.64
472.40	9062.55
472.58	9320.01
472.77	9261.50
472.95	9387.89
473.13	9563.43
473.31	9446.40
473.49	9561.09
473.67	9689.82
473.85	9614.92
474.03	9647.69
474.21	9607.90
474.39	9963.66
474.57	9963.66
474.75	9891.10
474.93	10015.15
475.12	9940.26
475.30	10258.57
475.48	9912.17
475.66	10066.64
475.84	10108.77
476.02	10153.24
476.20	10354.53
476.38	10438.79
476.56	10675.18
476.74	10473.90
476.92	10689.23
477.10	10764.12
477.28	10768.80
477.46	10724.33
477.64	10836.68
477.82	11169.04
478.00	11382.03
478.18	11257.98
478.36	11110.52
478.54	11269.68
478.72	11499.05
478.90	11616.08
479.08	11808.00
479.26	11784.60
479.44	11712.04
479.62	11672.25
479.80	12081.85
479.98	11939.07
480.16	12163.76
480.34	12084.19
480.52	12341.64
480.70	12346.33
480.88	12315.90
481.06	12402.50
481.24	12486.76
481.41	12685.70
481.59	13090.62
481.77	12791.03
481.95	12898.69
482.13	13341.05
482.31	13221.69
482.49	13235.73
482.67	13429.99
482.85	13406.59
483.03	13841.93
483.21	13832.57
483.39	13748.31
483.57	13900.44
483.74	13947.25
483.92	14295.99
484.10	14017.47
484.28	14171.94
484.46	14705.59
484.64	14586.22
484.82	14214.07
485.00	14661.12
485.18	14726.65
485.35	15206.46
485.53	14869.42
485.71	15037.94
485.89	15094.11
486.07	15108.16
486.25	15190.08
486.43	15283.70
486.61	15487.32
486.78	15899.26
486.96	15791.59
487.14	15885.22
487.32	16056.08
487.50	16170.76
487.68	16341.62
487.85	16512.48
488.03	16599.08
488.21	16755.90
488.39	17142.08
488.57	16929.09
488.75	17149.11
488.92	17495.50
489.10	17575.08
489.28	17617.21
489.46	17738.92
489.64	17586.79
489.81	17996.38
489.99	18310.01
490.17	18176.60
490.35	18499.59
490.53	18410.65
490.70	18710.24
490.88	18281.92
491.06	18857.70
491.24	18773.44
491.41	18923.23
491.59	19066.00
491.77	19234.52
491.95	19264.95
492.13	19531.77
492.30	19300.06
492.48	19557.52
492.66	19807.95
492.84	19711.99
493.01	19887.53
493.19	20175.42
493.37	20189.46
493.54	20304.15
493.72	20753.53
493.90	20491.39
494.08	20606.08
494.25	20882.26
494.43	21046.10
494.61	21242.70
494.79	21579.74
494.96	21378.45
495.14	21118.65
495.32	21647.61
495.49	21521.23
495.67	21977.63
495.85	21731.87
496.02	21881.67
496.20	22008.06
496.38	22207.00
496.55	21954.22
496.73	22691.49
496.91	22270.20
497.09	23021.51
497.26	22785.12
497.44	22883.42
497.62	22696.17
497.79	23307.05
497.97	23101.09
498.14	23414.72
498.32	23384.29
498.50	23281.31
498.67	23978.79
498.85	23611.32
499.03	23894.53
499.20	24039.64
499.38	23978.79
499.56	24121.56
499.73	24357.96
499.91	24383.70
500.08	24753.51
500.26	24276.04
500.44	24697.33
500.61	24339.23
500.79	24238.59
500.97	24765.21
501.14	24842.45
501.32	24961.81
501.49	24760.53
501.67	25003.94
501.84	25322.26
502.02	25127.99
502.20	25359.70
502.37	25832.49
502.55	25745.89
502.72	25238.00
502.90	25802.07
503.07	25469.71
503.25	25729.51
503.43	25909.73
503.60	25818.45
503.78	26270.17
503.95	25869.94
504.13	26228.04
504.30	26375.50
504.48	26651.68
504.65	26607.21
504.83	26850.63
505.01	26775.73
505.18	26485.50
505.36	26801.47
505.53	26813.18
505.71	27154.90
505.88	27065.96
506.06	27009.78
506.23	27154.90
506.41	27058.93
506.58	27393.63
506.76	27339.80
506.93	27386.61
507.11	27662.79
507.28	27913.23
507.46	27866.42
507.63	28030.26
507.81	27943.66
507.98	27817.27
508.16	27627.68
508.33	28070.04
508.50	28290.06
508.68	28240.90
508.85	28353.25
509.03	28397.72
509.20	28706.67
509.38	28650.50
509.55	28877.53
509.73	28840.08
509.90	28924.34
510.08	29029.66
510.25	29097.54
510.42	29034.35
510.60	29259.04
510.77	29481.39
510.95	29731.83
511.12	29523.52
511.30	29390.11
511.47	29713.10
511.64	29551.60
511.82	29649.91
511.99	30080.56
512.17	30075.88
512.34	29869.92
512.51	29928.43
512.69	30232.70
512.86	30433.99
513.04	30363.77
513.21	30195.25
513.38	30251.42
513.56	30171.85
513.73	30597.82
513.90	30443.35
514.08	30827.20
514.25	31103.38
514.43	30478.46
514.60	30714.85
514.77	30651.66
514.95	31002.74
515.12	30838.90
515.29	30801.45
515.47	31105.72
515.64	31557.44
515.81	31325.73
515.99	31571.49
516.16	31367.86
516.33	31290.62
516.51	31646.38
516.68	31278.92
516.85	31431.05
517.03	31435.74
517.20	31608.93
517.37	31929.59
517.54	32086.40
517.72	31793.84
517.89	31833.63
518.06	31952.99
518.24	32180.03
518.41	32002.14
518.58	32407.06
518.75	32184.71
518.93	32477.27
519.10	32407.06
519.27	32847.08
519.45	32411.74
519.62	32858.78
519.79	32940.70
519.96	32877.51
520.14	33383.06
520.31	32666.86
520.48	32987.51
520.65	33177.09
520.83	33462.64
521.00	33713.08
521.17	33132.62
521.34	33338.59
521.52	33776.27
521.69	33474.34
521.86	33928.41
522.03	33780.95
522.20	34075.86
522.38	34089.90
522.55	34433.96
522.72	34321.62
522.89	34040.75
523.07	34438.64
523.24	34188.21
523.41	34281.83
523.58	34429.28
523.75	34696.10
523.92	34440.98
524.10	34761.64
524.27	34665.67
524.44	34941.86
524.61	34799.08
524.78	34918.45
524.96	35007.39
525.13	35007.39
525.30	35260.17
525.47	34993.35
525.64	35033.14
525.81	35119.74
525.98	35000.37
526.16	35021.44
526.33	34602.48
526.50	35353.79
526.67	35433.37
526.84	35346.77
527.01	35019.10
527.18	35171.23
527.36	35491.88
527.53	35845.30
527.70	35936.59
527.87	35798.49
528.04	35894.46
528.21	36217.45
528.38	36165.96
528.55	36123.83
528.72	36212.77
528.89	36322.77
529.07	36231.49
529.24	35929.56
529.41	36692.58
529.58	36215.11
529.75	36526.40
529.92	36388.31
530.09	36297.03
530.26	36608.32
530.43	36605.98
530.60	36428.10
530.77	36615.34
530.94	36891.52
531.11	36217.45
531.28	37029.62
531.46	36804.92
531.63	36795.56
531.80	36676.19
531.97	37333.89
532.14	36896.20
532.31	36821.31
532.48	36978.12
532.65	37380.70
532.82	37237.92
532.99	37610.07
533.16	37329.20
533.33	37310.48
533.50	37329.20
533.67	37916.68
533.84	37317.50
534.01	37619.43
534.18	37897.95
534.35	38153.07
534.52	37457.93
534.69	37818.38
534.86	37783.27
535.03	37675.60
535.20	38181.16
535.37	38213.93
535.54	38485.43
535.71	37832.42
535.88	38387.13
536.05	38007.96
536.22	38403.51
536.38	38742.89
536.55	38555.64
536.72	38513.52
536.89	38195.20
537.06	37954.13
537.23	38768.63
537.40	38270.10
537.57	38529.90
537.74	38759.27
537.91	39292.91
538.08	38859.91
538.25	38859.91
538.42	38670.33
538.59	38925.45
538.75	38457.34
538.92	39299.94
539.09	39093.97
539.26	38976.94
539.43	39112.69
539.60	39016.73
539.77	39037.80
539.94	39054.18
540.11	39056.52
540.28	39292.91
540.44	39267.17
540.61	38967.58
540.78	39225.04
540.95	39035.45
541.12	38998.01
541.29	39564.42
541.46	39473.13
541.62	39379.51
541.79	39716.55
541.96	39358.45
542.13	39618.25
542.30	39758.68
542.47	39711.87
542.63	39299.94
542.80	40137.85
542.97	40233.81
543.14	40568.51
543.31	40140.19
543.48	40112.10
543.64	40942.99
543.81	40411.69
543.98	40119.12
544.15	40168.27
544.32	40914.90
544.48	40947.67
544.65	40540.42
544.82	40531.06
544.99	40287.64
545.16	40697.24
545.32	40320.41
545.49	40882.14
545.66	41071.72
545.83	40755.75
546.00	40989.80
546.16	40753.41
546.33	41074.06
546.50	40666.81
546.67	40996.82
546.83	40680.85
547.00	40989.80
547.17	40825.96
547.34	40573.19
547.50	41366.63
547.67	41450.89
547.84	41371.31
548.00	41525.78
548.17	41525.78
548.34	41359.61
548.51	41708.35
548.67	41364.29
548.84	41638.13
549.01	41254.28
549.18	41181.73
549.34	41436.84
549.51	41727.07
549.68	41677.92
549.84	41743.45
550.01	41474.29
550.18	41741.11
550.34	41876.86
550.51	41359.61
550.68	41816.01
550.84	41277.69
551.01	42246.67
551.18	42094.53
551.34	41708.35
551.51	42143.69
551.68	41846.44
551.84	41593.66
552.01	41823.03
552.18	42197.52
552.34	41797.29
552.51	41897.93
552.68	42368.38
552.84	42230.29
553.01	42593.07
553.18	42445.62
553.34	41928.36
553.51	42309.86
553.67	42614.13
553.84	42368.38
554.01	42653.92
554.17	42642.22
554.34	42976.92
554.51	43115.01
554.67	42593.07
554.84	42684.35
555.00	42426.89
555.17	42293.48
555.33	42927.77
555.50	42604.77
555.67	42794.36
555.83	42415.19
556.00	42801.38
556.16	43395.87
556.33	42803.72
556.50	42838.83
556.66	42873.93
556.83	42792.01
556.99	43093.94
557.16	43070.54
557.32	43054.15
557.49	42918.40
557.65	42777.97
557.82	43182.88
557.98	43203.95
558.15	43395.87
558.32	42913.72
558.48	42946.49
558.65	42766.27
558.81	43185.22
558.98	43100.97
559.14	43477.79
559.31	42932.45
559.47	43274.16
559.64	43672.06
559.80	43660.35
559.97	43445.02
560.13	42801.38
560.30	43206.29
560.46	43526.94
560.63	43447.36
560.79	43510.56
560.96	43473.11
561.12	43379.49
561.29	43531.62
561.45	43377.15
561.61	43381.83
561.78	43452.05
561.94	43342.04
562.11	43213.31
562.27	43409.92
562.44	43606.52
562.60	43791.42
562.77	43880.36
562.93	43313.95
563.10	43592.48
563.26	43564.39
563.42	43725.89
563.59	43566.73
563.75	43662.69
563.92	43899.09
564.08	44156.55
564.24	43718.87
564.41	44020.80
564.57	43622.90
564.74	44039.52
564.90	43885.04
565.07	43880.36
565.23	43803.13
565.39	43805.47
565.56	43796.10
565.72	43498.86
565.88	43592.48
566.05	43768.02
566.21	43878.02
566.38	43943.56
566.54	44009.09
566.70	44268.89
566.87	44219.74
567.03	43620.56
567.19	44261.87
567.36	43824.19
567.52	43613.54
567.68	44428.05
567.85	44154.21
568.01	43966.96
568.17	44198.68
568.34	43931.86
568.50	43761.00
568.66	43868.66
568.83	44053.56
568.99	43571.41
569.15	44060.58
569.32	43913.13
569.48	43906.11
569.64	44177.61
569.81	43924.83
569.97	44140.16
570.13	44034.84
570.30	43791.42
570.46	43648.65
570.62	44172.93
570.78	43943.56
570.95	43861.64
571.11	44098.03
571.27	43718.87
571.43	44142.50
571.60	44165.91
571.76	44416.35
571.92	44729.98
572.09	44037.18
572.25	44292.30
572.41	44385.92
572.57	44271.23
572.74	44638.70
572.90	44020.80
573.06	44718.28
573.22	44285.28
573.38	44177.61
573.55	44318.04
573.71	44706.57
573.87	44535.71
574.03	44383.58
574.20	44582.52
574.36	44325.07
574.52	44315.70
574.68	44563.80
574.84	44383.58
575.01	44341.45
575.17	44360.17
575.33	43957.60
575.49	43997.39
575.65	44547.42
575.82	44680.83
575.98	44226.76
576.14	44648.06
576.30	44659.76
576.46	44388.26
576.62	44690.19
576.79	44060.58
576.95	43714.19
577.11	44086.33
577.27	44217.40
577.43	44299.32
577.59	44296.98
577.75	44086.33
577.92	44332.09
578.08	44177.61
578.24	44126.12
578.40	44306.34
578.56	44287.62
578.72	44507.63
578.88	44142.50
579.04	44353.15
579.21	44304.00
579.37	44535.71
579.53	44392.94
579.69	44219.74
579.85	44690.19
580.01	44519.33
580.17	44591.89
580.33	44952.33
580.49	44512.31
580.65	44500.61
580.82	44671.46
580.98	44259.53
581.14	44182.29
581.30	44758.06
581.46	44694.87
581.62	44521.67
581.78	44294.64
581.94	45076.38
582.10	44727.64
582.26	44933.60
582.42	44744.02
582.58	44690.19
582.74	44577.84
582.90	44594.23
583.06	44774.45
583.22	44839.98
583.38	44999.14
583.54	45097.44
583.70	44439.75
583.86	44470.18
584.02	44154.21
584.18	44828.28
584.34	44870.41
584.50	44725.30
584.66	44416.35
584.82	44409.32
584.98	44802.53
585.14	44669.12
585.30	44512.31
585.46	44938.29
585.62	44044.20
585.78	44346.13
585.94	43969.30
586.10	44381.24
586.26	44406.98
586.42	44636.36
586.58	44788.49
586.74	44376.56
586.90	43887.39
587.06	44512.31
587.22	44507.63
587.38	44212.72
587.54	44898.50
587.70	45059.99
587.86	44481.88
588.02	44411.67
588.18	44350.81
588.34	44837.64
588.49	44222.08
588.65	43959.94
588.81	44069.95
588.97	44678.49
589.13	44828.28
589.29	44584.86
589.45	44549.76
589.61	44339.11
589.77	45127.87
589.93	44776.79
590.08	44865.73
590.24	44872.75
