SpectraSuite Data File
++++++++++++++++++++++++++++++++++++
Date: Fri Oct 25 10:43:13 EDT 2013
User: price-jones
Dark Spectrum Present: No
Reference Spectrum Present: No
Number of Sampled Component Spectra: 1
Spectrometers: USB2+H05261
Integration Time (usec): 100000 (USB2+H05261)
Spectra Averaged: 1 (USB2+H05261)
Boxcar Smoothing: 0 (USB2+H05261)
Correct for Electrical Dark: No (USB2+H05261)
Strobe/Lamp Enabled: No (USB2+H05261)
Correct for Detector Non-linearity: No (USB2+H05261)
Correct for Stray Light: No (USB2+H05261)
Number of Pixels in Processed Spectrum: 2048
>>>>>Begin Processed Spectral Data<<<<<
365.73	77.24
365.92	77.24
366.12	77.24
366.32	25.75
366.52	9.36
366.72	25.75
366.91	49.15
367.11	0.00
367.31	0.00
367.51	0.00
367.70	70.22
367.90	11.70
368.10	91.28
368.30	37.45
368.49	28.09
368.69	114.69
368.89	0.00
369.09	70.22
369.28	23.41
369.48	46.81
369.68	72.56
369.87	32.77
370.07	65.54
370.27	168.52
370.47	187.24
370.66	313.63
370.86	383.85
371.06	435.34
371.25	463.43
371.45	421.30
371.65	489.17
371.84	449.38
372.04	517.26
372.24	528.96
372.44	475.13
372.63	433.00
372.83	498.53
373.03	596.84
373.22	528.96
373.42	547.69
373.62	433.00
373.81	554.71
374.01	566.41
374.21	571.09
374.40	575.77
374.60	528.96
374.79	486.83
374.99	552.37
375.19	589.82
375.38	575.77
375.58	624.92
375.78	585.13
375.97	622.58
376.17	627.26
376.37	568.75
376.56	500.87
376.76	676.41
376.95	622.58
377.15	664.71
377.35	688.12
377.54	622.58
377.74	603.86
377.93	568.75
378.13	704.50
378.33	683.44
378.52	643.65
378.72	610.88
378.91	683.44
379.11	622.58
379.31	543.00
379.50	578.11
379.70	699.82
379.89	650.67
380.09	589.82
380.28	655.35
380.48	798.12
380.68	709.18
380.87	667.05
381.07	629.60
381.26	683.44
381.46	706.84
381.65	765.36
381.85	758.33
382.04	732.59
382.24	758.33
382.43	620.24
382.63	713.86
382.83	720.88
383.02	753.65
383.22	725.57
383.41	709.18
383.61	814.51
383.80	835.57
384.00	833.23
384.19	774.72
384.39	784.08
384.58	781.74
384.78	765.36
384.97	786.42
385.17	763.01
385.36	833.23
385.56	788.76
385.75	763.01
385.95	774.72
386.14	875.36
386.34	795.78
386.53	791.10
386.72	858.98
386.92	851.96
387.11	842.59
387.31	828.55
387.50	828.55
387.70	889.40
387.89	847.27
388.09	875.36
388.28	889.40
388.48	894.08
388.67	966.64
388.86	891.74
389.06	912.81
389.25	929.19
389.45	926.85
389.64	952.60
389.84	976.00
390.03	964.30
390.22	976.00
390.42	1034.52
390.61	922.17
390.81	1067.28
391.00	952.60
391.19	1093.03
391.39	1022.81
391.58	1055.58
391.78	1025.15
391.97	994.73
392.16	1064.94
392.36	1090.69
392.55	1013.45
392.75	1020.47
392.94	968.98
393.13	957.28
393.33	1013.45
393.52	1111.75
393.71	1062.60
393.91	1086.01
394.10	1083.67
394.29	1132.82
394.49	1135.16
394.68	1214.74
394.88	1186.65
395.07	1165.59
395.26	1217.08
395.46	1170.27
395.65	1245.16
395.84	1203.04
396.04	1249.85
396.23	1163.25
396.42	1114.10
396.62	1142.18
396.81	1198.35
397.00	1191.33
397.19	1287.29
397.39	1282.61
397.58	1420.71
397.77	1418.36
397.97	1390.28
398.16	1451.13
398.35	1472.20
398.55	1359.85
398.74	1416.02
398.93	1437.09
399.12	1434.75
399.32	1446.45
399.51	1434.75
399.70	1619.65
399.90	1502.62
400.09	1636.03
400.28	1570.50
400.47	1537.73
400.67	1657.10
400.86	1614.97
401.05	1624.33
401.24	1724.97
401.44	1739.02
401.63	1666.46
401.82	1715.61
402.01	1703.91
402.21	1689.87
402.40	1729.66
402.59	1755.40
402.78	1706.25
402.97	1645.40
403.17	1734.34
403.36	1710.93
403.55	1764.76
403.74	1832.64
403.93	1820.94
404.13	1837.32
404.32	1853.70
404.51	1806.89
404.70	1937.96
404.89	1912.22
405.09	1905.20
405.28	2033.93
405.47	1909.88
405.66	1982.43
405.85	1970.73
406.05	2024.56
406.24	1982.43
406.43	2015.20
406.62	2017.54
406.81	2150.95
407.00	2062.01
407.20	2052.65
407.39	1937.96
407.58	2225.85
407.77	2270.32
407.96	2172.02
408.15	2326.49
408.34	2181.38
408.54	2263.30
408.73	2303.09
408.92	2232.87
409.11	2312.45
409.30	2279.68
409.49	2282.02
409.68	2291.38
409.87	2195.42
410.07	2429.48
410.26	2389.69
410.45	2448.20
410.64	2370.96
410.83	2530.12
411.02	2635.44
411.21	2518.42
411.40	2569.91
411.59	2630.76
411.78	2703.32
411.98	2499.69
412.17	2612.04
412.36	2679.91
412.55	2708.00
412.74	2715.02
412.93	2839.07
413.12	2635.44
413.31	2871.84
413.50	2810.98
413.69	2836.73
413.88	2881.20
414.07	2937.37
414.26	2974.82
414.45	3012.27
414.64	2871.84
414.83	2902.26
415.02	2958.44
415.22	3059.08
415.41	3108.23
415.60	3213.56
415.79	3192.49
415.98	3218.24
416.17	3218.24
416.36	3192.49
416.55	3164.40
416.74	3197.17
416.93	3126.96
417.12	3229.94
417.31	3290.79
417.50	3300.16
417.69	3403.14
417.88	3361.01
418.07	3417.18
418.26	3487.40
418.45	3684.00
418.64	3597.40
418.83	3466.33
419.02	3445.27
419.21	3616.13
419.39	3590.38
419.58	3557.61
419.77	3494.42
419.96	3609.11
420.15	3637.19
420.34	3754.22
420.53	3716.77
420.72	3761.24
420.91	3709.75
421.10	3726.13
421.29	3819.75
421.48	3840.82
421.67	3887.63
421.86	3749.54
422.05	3794.01
422.24	3751.88
422.43	3772.94
422.61	3742.52
422.80	3871.25
422.99	4046.79
423.18	3939.12
423.37	3964.87
423.56	3875.93
423.75	3861.88
423.94	3831.46
424.13	3613.79
424.32	3913.38
424.50	4074.87
424.69	4014.02
424.88	3939.12
425.07	4133.39
425.26	3908.69
425.45	3911.04
425.64	3960.19
425.83	4042.11
426.01	4007.00
426.20	4093.60
426.39	4023.38
426.58	3896.99
426.77	3957.85
426.96	4065.51
427.15	4049.13
427.33	4100.62
427.52	3950.82
427.71	4060.83
427.90	4077.21
428.09	4168.49
428.28	4032.74
428.46	4149.77
428.65	4077.21
428.84	4255.09
429.03	4449.36
429.22	4088.92
429.40	4056.15
429.59	4152.11
429.78	3985.93
429.97	3840.82
430.16	3990.61
430.34	4058.49
430.53	4117.00
430.72	4124.02
430.91	4208.28
431.10	4432.97
431.28	4414.25
431.47	4603.83
431.66	4791.08
431.85	4496.17
432.03	4624.90
432.22	4552.34
432.41	4744.27
432.60	4641.28
432.79	4847.25
432.97	4821.50
433.16	4863.63
433.35	4540.64
433.54	4582.77
433.72	4660.01
433.91	4620.22
434.10	4755.97
434.28	4669.37
434.47	4830.87
434.66	4929.17
434.85	4947.89
435.03	4741.93
435.22	4880.02
435.41	5013.43
435.59	4945.55
435.78	5022.79
435.97	5090.67
436.16	5195.99
436.34	5083.64
436.53	5221.74
436.72	5205.35
436.90	5151.52
437.09	5233.44
437.28	5036.83
437.46	5064.92
437.65	5191.31
437.84	5097.69
438.02	5172.58
438.21	5308.34
438.40	5125.77
438.58	5317.70
438.77	5301.31
438.96	5366.85
439.14	5568.13
439.33	5636.01
439.52	5565.79
439.70	5727.29
439.89	5495.58
440.08	5591.54
440.26	5664.10
440.45	5666.44
440.63	5816.23
440.82	5933.26
441.01	5916.87
441.19	5991.77
441.38	6211.78
441.57	5994.11
441.75	6150.93
441.94	6303.06
442.12	6143.91
442.31	6331.15
442.50	6394.34
442.68	6296.04
442.87	6272.64
443.05	6408.39
443.24	6333.49
443.43	6382.64
443.61	6483.28
443.80	6523.07
443.98	6326.47
444.17	6333.49
444.35	6511.37
444.54	6745.42
444.73	6368.60
444.91	6408.39
445.10	6534.78
445.28	6392.00
445.47	6331.15
445.65	6581.59
445.84	6445.84
446.02	6487.96
446.21	6396.68
446.39	6579.25
446.58	6747.76
446.77	6647.12
446.95	6553.50
447.14	6834.36
447.32	6796.92
447.51	6757.13
447.69	6668.19
447.88	6691.59
448.06	6651.80
448.25	6633.08
448.43	6909.26
448.62	6710.32
448.80	6530.09
448.99	6780.53
449.17	6906.92
449.36	6736.06
449.54	6942.03
449.73	7122.25
449.91	7150.34
450.10	7180.76
450.28	7061.40
450.46	7087.14
450.65	7276.73
450.83	7241.62
451.02	7274.38
451.20	7260.34
451.39	7253.32
451.57	7185.44
451.76	7215.87
451.94	7258.00
452.13	7328.22
452.31	7204.17
452.49	7075.44
452.68	7206.51
452.86	6965.43
453.05	7227.57
453.23	7213.53
453.42	7283.75
453.60	7428.86
453.78	7272.04
453.97	7328.22
454.15	7379.71
454.34	7192.47
454.52	7496.74
454.70	7307.15
454.89	7496.74
455.07	7602.06
455.26	7531.84
455.44	7836.11
455.62	7714.41
455.81	7742.49
455.99	8004.63
456.17	8039.74
456.36	7733.13
456.54	7929.74
456.73	8119.32
456.91	8208.26
457.09	8280.82
457.28	8234.00
457.46	7920.37
457.64	8255.07
457.83	7922.71
458.01	7978.89
458.19	8425.93
458.38	8131.02
458.56	8407.20
458.74	8257.41
458.93	8154.43
459.11	8320.60
459.29	8348.69
459.48	8315.92
459.66	8217.62
459.84	8320.60
460.03	8432.95
460.21	8486.78
460.39	8458.70
460.57	8475.08
460.76	8615.51
460.94	8814.46
461.12	8552.32
461.31	8610.83
461.49	8594.45
461.67	8636.58
461.85	8805.10
462.04	8615.51
462.22	9195.96
462.40	8849.57
462.59	8823.82
462.77	8816.80
462.95	8786.37
463.13	8994.68
463.32	8760.63
463.50	8971.27
463.68	9097.66
463.86	8863.61
464.05	8945.53
464.23	9076.60
464.41	8875.31
464.59	8793.39
464.78	9097.66
464.96	9095.32
465.14	9069.58
465.32	9247.46
465.50	9275.54
465.69	9399.59
465.87	9357.46
466.05	9263.84
466.23	9034.47
466.41	9039.15
466.60	9453.42
466.78	9228.73
466.96	9167.88
467.14	9392.57
467.32	9334.06
467.51	9252.14
467.69	9153.84
467.87	9437.04
468.05	9511.94
468.23	9289.59
468.41	9467.47
468.60	9305.97
468.78	9563.43
468.96	9329.38
469.14	9832.59
469.32	9528.32
469.50	9261.50
469.69	9523.64
469.87	9745.99
470.05	9860.68
470.23	9921.53
470.41	9968.34
470.59	9722.59
470.77	9987.07
470.95	9745.99
471.14	10232.82
471.32	10017.49
471.50	10277.29
471.68	10368.57
471.86	10296.02
472.04	10242.18
472.22	10530.07
472.40	10317.08
472.58	10340.49
472.77	10328.78
472.95	10443.47
473.13	10686.89
473.31	10476.24
473.49	10551.14
473.67	10609.65
473.85	10628.37
474.03	11047.33
474.21	10984.13
474.39	10876.47
474.57	11035.63
474.75	11150.31
474.93	11360.96
475.12	11075.42
475.30	11227.55
475.48	11133.93
475.66	11265.00
475.84	11199.46
476.02	11508.41
476.20	11349.26
476.38	11557.57
476.56	11969.50
476.74	11658.21
476.92	11784.60
477.10	11777.58
477.28	11803.32
477.46	12233.98
477.64	12025.67
477.82	12343.99
478.00	12343.99
478.18	12395.48
478.36	12503.14
478.54	12690.38
478.72	12674.00
478.90	12856.56
479.08	13022.74
479.26	13273.18
479.44	13151.47
479.62	13338.71
479.80	13397.23
479.98	13184.24
480.16	13823.20
480.34	13432.33
480.52	13537.66
480.70	13650.00
480.88	13479.15
481.06	13813.84
481.24	14015.13
481.41	14118.11
481.59	14370.89
481.77	14263.22
481.95	14209.39
482.13	14300.67
482.31	14511.32
482.49	14913.89
482.67	14815.59
482.85	14874.10
483.03	15112.84
483.21	15152.63
483.39	15276.68
483.57	15138.58
483.74	15260.29
483.92	15845.43
484.10	15632.44
484.28	16013.95
484.46	15829.04
484.64	16002.24
484.82	15889.90
485.00	15845.43
485.18	16212.89
485.35	16496.10
485.53	16201.19
485.71	16350.98
485.89	16315.87
486.07	16060.76
486.25	16673.98
486.43	16840.15
486.61	16795.68
486.78	17109.32
486.96	17116.34
487.14	17699.13
487.32	17668.70
487.50	17839.56
487.68	18087.66
487.85	18244.48
488.03	18314.69
488.21	18267.88
488.39	18537.04
488.57	18658.75
488.75	18485.55
488.92	19171.33
489.10	19536.45
489.28	19133.88
489.46	19653.48
489.64	19569.22
489.81	20095.84
489.99	19906.26
490.17	20084.14
490.35	20266.70
490.53	20081.80
490.70	20622.46
490.88	20425.86
491.06	20505.43
491.24	20512.46
491.41	20472.67
491.59	20648.21
491.77	20519.48
491.95	21048.44
492.13	20999.29
492.30	21296.53
492.48	21432.29
492.66	21820.81
492.84	22078.27
493.01	21923.80
493.19	21862.94
493.37	22043.17
493.54	22134.45
493.72	22382.54
493.90	22469.14
494.08	22951.29
494.25	22925.55
494.43	22843.63
494.61	23391.31
494.79	23506.00
494.96	23229.82
495.14	23545.79
495.32	23384.29
495.49	23812.61
495.67	23578.56
495.85	23651.11
496.02	23751.76
496.20	24217.52
496.38	24301.78
496.55	24713.72
496.73	25301.19
496.91	24659.88
497.09	24772.23
497.26	24669.25
497.44	24790.95
497.62	25041.39
497.79	25333.96
497.97	25053.09
498.14	25528.22
498.32	25453.33
498.50	25408.86
498.67	25914.41
498.85	25748.23
499.03	26178.89
499.20	26293.58
499.38	26211.66
499.56	26169.53
499.73	26256.13
499.91	26204.64
500.08	26445.71
500.26	26539.33
500.44	26511.25
500.61	26345.07
500.79	26485.50
500.97	26775.73
501.14	27012.12
501.32	27016.80
501.49	26888.07
501.67	26792.11
501.84	27084.68
502.02	27325.75
502.20	27255.54
502.37	27833.65
502.55	27491.93
502.72	27730.67
502.90	27824.29
503.07	28084.09
503.25	27709.60
503.43	27962.38
503.60	28135.58
503.78	27983.44
503.95	27751.73
504.13	28173.03
504.30	28444.53
504.48	28662.20
504.65	28711.35
504.83	28676.24
505.01	28992.22
505.18	29425.22
505.36	29127.97
505.53	29401.81
505.71	29584.37
505.88	29685.01
506.06	29266.06
506.23	30052.48
506.41	29273.08
506.58	29806.72
506.76	29455.64
506.93	29670.97
507.11	30087.59
507.28	29610.12
507.46	30012.69
507.63	29710.76
507.81	29890.98
507.98	29919.07
508.16	30101.63
508.33	30359.09
508.50	30494.84
508.68	30508.88
508.85	31140.83
509.03	31058.91
509.20	30696.13
509.38	31173.60
509.55	31047.21
509.73	30995.71
509.90	31211.04
510.08	31473.18
510.25	31178.28
510.42	31178.28
510.60	31718.94
510.77	31749.37
510.95	32072.36
511.12	31981.08
511.30	31786.82
511.47	32144.92
511.64	32165.98
511.82	32095.77
511.99	31957.67
512.17	32072.36
512.34	32292.37
512.51	32348.54
512.69	32465.57
512.86	32423.44
513.04	32823.67
513.21	32708.99
513.38	32779.20
513.56	32989.85
513.73	32465.57
513.90	32744.09
514.08	32746.44
514.25	32760.48
514.43	33060.07
514.60	32790.91
514.77	33053.05
514.95	33694.35
515.12	33167.73
515.29	33397.10
515.47	33427.53
515.64	34359.06
515.81	33790.31
515.99	33532.86
516.16	33684.99
516.33	33434.55
516.51	33343.27
516.68	32999.21
516.85	33387.74
517.03	33626.48
517.20	33706.05
517.37	34085.22
517.54	34092.24
517.72	33970.54
517.89	33633.50
518.06	33668.61
518.24	34181.18
518.41	34246.72
518.58	34422.26
518.75	34356.72
518.93	34485.45
519.10	34993.35
519.27	34794.40
519.45	35166.55
519.62	35124.42
519.79	35117.40
519.96	35370.18
520.14	35611.25
520.31	35192.30
520.48	35285.92
520.65	35515.29
520.83	35943.61
521.00	35950.63
521.17	35704.87
521.34	35854.67
521.52	36313.41
521.69	35789.13
521.86	35913.18
522.03	36304.05
522.20	36231.49
522.38	36039.57
522.55	36510.02
522.72	36243.20
522.89	36156.60
523.07	36322.77
523.24	36381.29
523.41	36603.64
523.58	36746.41
523.75	37099.83
523.92	36694.92
524.10	36971.10
524.27	37205.16
524.44	36973.44
524.61	37242.60
524.78	37177.07
524.96	37443.89
525.13	37160.69
525.30	37359.63
525.47	37490.70
525.64	37645.18
525.81	37479.00
525.98	37308.14
526.16	37090.47
526.33	36961.74
526.50	37546.87
526.67	36783.86
526.84	37425.17
527.01	37479.00
527.18	37340.91
527.36	37965.83
527.53	37926.04
527.70	38101.58
527.87	38068.81
528.04	37858.17
528.21	37930.72
528.38	38548.62
528.55	38801.40
528.72	38520.54
528.89	38749.91
529.07	38820.13
529.24	38417.55
529.41	38370.74
529.58	38464.36
529.75	38623.52
529.92	39084.61
530.09	39297.59
530.26	38983.96
530.43	39035.45
530.60	39070.56
530.77	39112.69
530.94	39505.90
531.11	39257.81
531.28	39372.49
531.46	39318.66
531.63	39276.53
531.80	39323.34
531.97	39297.59
532.14	39264.83
532.31	38862.26
532.48	39377.17
532.65	39454.41
532.82	39232.06
532.99	39587.82
533.16	39030.77
533.33	39548.03
533.50	39791.45
533.67	39920.18
533.84	39936.56
534.01	39845.28
534.18	39777.40
534.35	40119.12
534.52	39772.72
534.69	40229.13
534.86	40367.22
535.03	40048.91
535.20	40531.06
535.37	40456.16
535.54	41015.55
535.71	40596.59
535.88	40762.77
536.05	40751.07
536.22	40570.85
536.38	40610.64
536.55	40669.15
536.72	40315.73
536.89	40320.41
537.06	40428.07
537.23	40903.20
537.40	40666.81
537.57	40453.82
537.74	40858.73
537.91	41404.08
538.08	41137.26
538.25	40947.67
538.42	41275.35
538.59	41446.21
538.75	41001.50
538.92	41265.99
539.09	41092.79
539.26	41390.03
539.43	41261.30
539.60	41312.80
539.77	41043.63
539.94	40987.46
540.11	41015.55
540.28	41577.28
540.44	41418.12
540.61	41284.71
540.78	41474.29
540.95	41163.00
541.12	41212.15
541.29	41387.69
541.46	41897.93
541.62	42073.47
541.79	41963.46
541.96	41258.96
542.13	41570.25
542.30	41722.39
542.47	42021.98
542.63	41874.52
542.80	41893.25
542.97	42218.58
543.14	42391.78
543.31	42291.14
543.48	42562.64
543.64	42831.80
543.81	43033.09
543.98	42806.06
544.15	42579.03
544.32	42480.72
544.48	42780.31
544.65	42319.23
544.82	42464.34
544.99	42251.35
545.16	42618.81
545.32	42803.72
545.49	43110.33
545.66	43229.69
545.83	42841.17
546.00	42918.40
546.16	43021.39
546.33	42721.80
546.50	42469.02
546.67	42937.13
546.83	42724.14
547.00	42810.74
547.17	42852.87
547.34	43075.22
547.50	43463.75
547.67	43042.45
547.84	42775.63
548.00	43686.10
548.17	43821.85
548.34	43299.91
548.51	43976.33
548.67	43524.60
548.84	43789.08
549.01	43035.43
549.18	43215.65
549.34	43688.44
549.51	43475.45
549.68	43456.73
549.84	43498.86
550.01	43800.79
550.18	43283.53
550.34	43571.41
550.51	43786.74
550.68	43913.13
550.84	42941.81
551.01	43515.24
551.18	43756.32
551.34	43311.61
551.51	44065.27
551.68	44023.14
551.84	43817.17
552.01	44091.01
552.18	43590.14
552.34	43522.26
552.51	44098.03
552.68	44161.23
552.84	43915.47
553.01	44414.01
553.18	44165.91
553.34	44350.81
553.51	44112.08
553.67	44421.03
553.84	44463.16
554.01	44678.49
554.17	44273.57
554.34	44631.68
554.51	44179.95
554.67	44072.29
554.84	44442.09
555.00	44566.14
555.17	44594.23
555.33	44718.28
555.50	44484.22
555.67	44549.76
555.83	44362.51
556.00	44634.02
556.16	44706.57
556.33	44383.58
556.50	44126.12
556.66	44690.19
556.83	44149.53
556.99	44725.30
557.16	44500.61
557.32	44594.23
557.49	44851.69
557.65	44198.68
557.82	44966.37
557.98	45029.57
558.15	44868.07
558.32	45034.25
558.48	44566.14
558.65	44697.21
558.81	44685.51
558.98	44505.29
559.14	44783.81
559.31	44807.22
559.47	44973.39
559.64	44767.43
559.80	44933.60
559.97	44854.03
560.13	44711.25
560.30	45338.52
560.46	45322.13
560.63	45167.66
560.79	45305.75
560.96	45507.04
561.12	44919.56
561.29	45530.44
561.45	45191.06
561.61	44891.48
561.78	45408.73
561.94	45006.16
562.11	45233.19
562.27	45368.94
562.44	45193.40
562.60	45324.47
562.77	45139.57
562.93	45153.62
563.10	45595.98
563.26	45352.56
563.42	45497.67
563.59	45010.84
563.75	45434.48
563.92	45521.08
564.08	45308.09
564.24	45202.77
564.41	45226.17
564.57	45663.85
564.74	45460.23
564.90	45338.52
565.07	45815.99
565.23	44875.09
565.39	45462.57
565.56	45043.61
565.72	45006.16
565.88	45553.85
566.05	45209.79
566.21	45387.67
566.38	45059.99
566.54	45446.18
566.70	45556.19
566.87	45633.42
567.03	45544.48
567.19	46052.38
567.36	45256.60
567.52	45418.10
567.68	45769.18
567.85	45357.24
568.01	45507.04
568.17	45579.59
568.34	45930.67
568.50	45574.91
568.66	45792.58
568.83	45319.79
568.99	45069.36
569.15	45507.04
569.32	45263.62
569.48	45478.95
569.64	45769.18
569.81	45680.24
569.97	45851.09
570.13	45422.78
570.30	45347.88
570.46	45202.77
570.62	44961.69
570.78	45162.98
570.95	44989.78
571.11	45581.93
571.27	45507.04
571.43	45366.60
571.60	45722.37
571.76	45256.60
571.92	45607.68
572.09	45528.10
572.25	46216.22
572.41	45638.11
572.57	45675.55
572.74	45790.24
572.90	45883.86
573.06	45942.38
573.22	45949.40
573.38	45837.05
573.55	45647.47
573.71	45963.44
573.87	45778.54
574.03	45336.18
574.20	45925.99
574.36	45624.06
574.52	45862.80
574.68	45607.68
574.84	46012.59
575.01	45715.34
575.17	45404.05
575.33	45525.76
575.49	45694.28
575.65	45820.67
575.82	45713.00
575.98	45638.11
576.14	45621.72
576.30	45977.48
576.46	45408.73
576.62	45612.36
576.79	45544.48
576.95	45523.42
577.11	45867.48
577.27	45860.46
577.43	45783.22
577.59	45483.63
577.75	45612.36
577.92	45359.58
578.08	45778.54
578.24	45535.12
578.40	45771.52
578.56	45357.24
578.72	45415.76
578.88	45975.14
579.04	45631.08
579.21	45701.30
579.37	45682.58
579.53	45865.14
579.69	45801.94
579.85	45546.82
580.01	45577.25
580.17	45675.55
580.33	46190.47
580.49	46040.68
580.65	45497.67
580.82	45895.56
580.98	45696.62
581.14	45209.79
581.30	46038.34
581.46	46057.06
581.62	45577.25
581.78	45844.07
581.94	46351.97
582.10	45837.05
582.26	45911.95
582.42	45806.62
582.58	46183.45
582.74	46064.08
582.90	46005.57
583.06	46103.87
583.22	45935.35
583.38	46047.70
583.54	46298.14
583.70	45862.80
583.86	45862.80
584.02	45729.39
584.18	45808.96
584.34	45968.12
584.50	45497.67
584.66	45888.54
584.82	45511.72
584.98	45815.99
585.14	45801.94
585.30	45909.61
585.46	45497.67
585.62	45518.74
585.78	45867.48
585.94	45638.11
586.10	45734.07
586.26	45443.84
586.42	46171.75
586.58	46146.00
586.74	45876.84
586.90	45853.44
587.06	45958.76
587.22	45769.18
587.38	45701.30
587.54	46199.83
587.70	45982.16
587.86	45869.82
588.02	45778.54
588.18	45724.71
588.34	45361.92
588.49	45544.48
588.65	45511.72
588.81	45420.44
588.97	45876.84
589.13	45404.05
589.29	45315.11
589.45	45373.63
589.61	45780.88
589.77	45972.80
589.93	46232.60
590.08	46548.57
