SpectraSuite Data File
++++++++++++++++++++++++++++++++++++
Date: Fri Oct 25 10:47:23 EDT 2013
User: price-jones
Dark Spectrum Present: No
Reference Spectrum Present: No
Number of Sampled Component Spectra: 1
Spectrometers: USB2+H05261
Integration Time (usec): 100000 (USB2+H05261)
Spectra Averaged: 1 (USB2+H05261)
Boxcar Smoothing: 0 (USB2+H05261)
Correct for Electrical Dark: No (USB2+H05261)
Strobe/Lamp Enabled: No (USB2+H05261)
Correct for Detector Non-linearity: No (USB2+H05261)
Correct for Stray Light: No (USB2+H05261)
Number of Pixels in Processed Spectrum: 2048
>>>>>Begin Processed Spectral Data<<<<<
365.73	210.65
365.92	210.65
366.12	210.65
366.32	42.13
366.52	0.00
366.72	60.85
366.91	39.79
367.11	23.41
367.31	4.68
367.51	63.19
367.70	65.54
367.90	30.43
368.10	9.36
368.30	58.51
368.49	9.36
368.69	65.54
368.89	39.79
369.09	37.45
369.28	79.58
369.48	14.04
369.68	21.06
369.87	121.71
370.07	112.35
370.27	138.09
370.47	266.82
370.66	383.85
370.86	397.89
371.06	423.64
371.25	475.13
371.45	479.81
371.65	540.66
371.84	388.53
372.04	456.40
372.24	489.17
372.44	470.45
372.63	433.00
372.83	486.83
373.03	514.92
373.22	557.05
373.42	435.34
373.62	507.90
373.81	526.62
374.01	638.97
374.21	524.28
374.40	543.00
374.60	526.62
374.79	627.26
374.99	538.32
375.19	547.69
375.38	540.66
375.58	500.87
375.78	585.13
375.97	585.13
376.17	571.09
376.37	571.09
376.56	653.01
376.76	601.52
376.95	486.83
377.15	608.54
377.35	571.09
377.54	613.22
377.74	554.71
377.93	634.29
378.13	629.60
378.33	582.79
378.52	557.05
378.72	669.39
378.91	645.99
379.11	620.24
379.31	615.56
379.50	645.99
379.70	667.05
379.89	664.71
380.09	683.44
380.28	627.26
380.48	641.31
380.68	624.92
380.87	636.63
381.07	622.58
381.26	678.76
381.46	622.58
381.65	650.67
381.85	791.10
382.04	650.67
382.24	688.12
382.43	660.03
382.63	734.93
382.83	685.78
383.02	812.17
383.22	744.29
383.41	615.56
383.61	711.52
383.80	716.20
384.00	699.82
384.19	681.10
384.39	770.04
384.58	793.44
384.78	697.48
384.97	788.76
385.17	732.59
385.36	760.67
385.56	723.23
385.75	751.31
385.95	786.42
386.14	784.08
386.34	840.25
386.53	774.72
386.72	866.00
386.92	819.19
387.11	863.66
387.31	868.34
387.50	915.15
387.70	788.76
387.89	828.55
388.09	830.89
388.28	814.51
388.48	861.32
388.67	842.59
388.86	926.85
389.06	875.36
389.25	880.04
389.45	863.66
389.64	898.77
389.84	964.30
390.03	889.40
390.22	950.26
390.42	964.30
390.61	959.62
390.81	919.83
391.00	917.49
391.19	959.62
391.39	973.66
391.58	849.61
391.78	940.90
391.97	964.30
392.16	849.61
392.36	1048.56
392.55	999.41
392.75	952.60
392.94	929.19
393.13	854.30
393.33	964.30
393.52	1057.92
393.71	1015.79
393.91	1053.24
394.10	1053.24
394.29	1069.62
394.49	1067.28
394.68	1135.16
394.88	1086.01
395.07	1132.82
395.26	1109.41
395.46	1132.82
395.65	1111.75
395.84	1102.39
396.04	1247.51
396.23	1121.12
396.42	1102.39
396.62	1097.71
396.81	1086.01
397.00	1207.72
397.19	1226.44
397.39	1203.04
397.58	1207.72
397.77	1198.35
397.97	1315.38
398.16	1205.38
398.35	1252.19
398.55	1228.78
398.74	1254.53
398.93	1406.66
399.12	1324.74
399.32	1334.11
399.51	1235.80
399.70	1392.62
399.90	1383.26
400.09	1359.85
400.28	1366.87
400.47	1448.79
400.67	1514.33
400.86	1376.24
401.05	1348.15
401.24	1420.71
401.44	1465.18
401.63	1486.24
401.82	1439.43
402.01	1486.24
402.21	1476.88
402.40	1547.09
402.59	1591.56
402.78	1577.52
402.97	1533.05
403.17	1530.71
403.36	1568.16
403.55	1629.01
403.74	1598.59
403.93	1650.08
404.13	1633.69
404.32	1673.48
404.51	1675.82
404.70	1706.25
404.89	1579.86
405.09	1753.06
405.28	1678.16
405.47	1839.66
405.66	1722.63
405.85	1743.70
406.05	1806.89
406.24	1816.26
406.43	1877.11
406.62	1771.79
406.81	1987.11
407.00	1881.79
407.20	1823.28
407.39	1804.55
407.58	1907.54
407.77	1802.21
407.96	2059.67
408.15	1886.47
408.34	1980.09
408.54	2031.58
408.73	1982.43
408.92	2033.93
409.11	2033.93
409.30	2010.52
409.49	2062.01
409.68	2024.56
409.87	1966.05
410.07	2087.76
410.26	2249.25
410.45	2139.25
410.64	2099.46
410.83	2202.44
411.02	2188.40
411.21	2347.56
411.40	2359.26
411.59	2284.36
411.78	2310.11
411.98	2340.54
412.17	2387.35
412.36	2354.58
412.55	2420.11
412.74	2335.85
412.93	2527.78
413.12	2375.64
413.31	2562.89
413.50	2551.18
413.69	2457.56
413.88	2644.81
414.07	2616.72
414.26	2612.04
414.45	2532.46
414.64	2736.09
414.83	2672.89
415.02	2693.96
415.22	2703.32
415.41	2815.66
415.60	2715.02
415.79	2747.79
415.98	2808.64
416.17	2913.97
416.36	2818.00
416.55	2808.64
416.74	3000.57
416.93	2878.86
417.12	2920.99
417.31	2960.78
417.50	2995.89
417.69	3150.36
417.88	3124.62
418.07	3173.77
418.26	3084.83
418.45	3117.59
418.64	3199.51
418.83	3115.25
419.02	3124.62
419.21	3173.77
419.39	3171.43
419.58	3098.87
419.77	3211.22
419.96	3251.00
420.15	3438.25
420.34	3351.65
420.53	3529.53
420.72	3419.52
420.91	3435.91
421.10	3428.88
421.29	3449.95
421.48	3510.80
421.67	3452.29
421.86	3471.01
422.05	3442.93
422.24	3414.84
422.43	3571.66
422.61	3403.14
422.80	3414.84
422.99	3566.98
423.18	3597.40
423.37	3679.32
423.56	3527.19
423.75	3616.13
423.94	3438.25
424.13	3180.79
424.32	3428.88
424.50	3588.04
424.69	3595.06
424.88	3538.89
425.07	3461.65
425.26	3461.65
425.45	3515.48
425.64	3435.91
425.83	3583.36
426.01	3691.02
426.20	3674.64
426.39	3538.89
426.58	3627.83
426.77	3473.36
426.96	3566.98
427.15	3503.78
427.33	3646.55
427.52	3620.81
427.71	3772.94
427.90	3822.09
428.09	3803.37
428.28	3796.35
428.46	3801.03
428.65	3833.80
428.84	3906.35
429.03	4014.02
429.22	3758.90
429.40	3803.37
429.59	3721.45
429.78	3660.60
429.97	3651.24
430.16	3728.47
430.34	3826.78
430.53	3889.97
430.72	3868.91
430.91	3978.91
431.10	3906.35
431.28	4088.92
431.47	4135.73
431.66	4109.98
431.85	4299.56
432.03	4215.30
432.22	4154.45
432.41	4273.82
432.60	4252.75
432.79	4105.30
432.97	4257.43
433.16	4163.81
433.35	4269.14
433.54	4203.60
433.72	4212.96
433.91	4278.50
434.10	4245.73
434.28	4245.73
434.47	4351.06
434.66	4395.53
434.85	4550.00
435.03	4587.45
435.22	4409.57
435.41	4606.17
435.59	4535.96
435.78	4561.70
435.97	4648.30
436.16	4667.03
436.34	4835.55
436.53	4617.88
436.72	4706.82
436.90	4486.81
437.09	4725.54
437.28	4727.88
437.46	4809.80
437.65	4697.46
437.84	4779.37
438.02	4667.03
438.21	4685.75
438.40	4744.27
438.58	4964.28
438.77	4837.89
438.96	4971.30
439.14	5207.69
439.33	5064.92
439.52	5172.58
439.70	5048.54
439.89	5212.37
440.08	5224.08
440.26	5191.31
440.45	5158.54
440.63	5390.25
440.82	5554.09
441.01	5336.42
441.19	5500.26
441.38	5591.54
441.57	5617.29
441.75	5437.06
441.94	5631.33
442.12	5647.71
442.31	5720.27
442.50	5724.95
442.68	5769.42
442.87	5455.79
443.05	5603.24
443.24	5762.40
443.43	5830.27
443.61	5769.42
443.80	5813.89
443.98	5692.18
444.17	5565.79
444.35	5909.85
444.54	6010.50
444.73	5923.90
444.91	5839.64
445.10	5799.85
445.28	5863.04
445.47	5804.53
445.65	5893.47
445.84	5858.36
446.02	5975.39
446.21	5942.62
446.39	5884.11
446.58	5973.05
446.77	6001.13
446.95	5919.21
447.14	5935.60
447.32	6197.74
447.51	6029.22
447.69	5951.98
447.88	5973.05
448.06	6106.46
448.25	5907.51
448.43	6010.50
448.62	5977.73
448.80	6134.54
448.99	6076.03
449.17	6174.33
449.36	6164.97
449.54	6225.82
449.73	6384.98
449.91	6424.77
450.10	6455.20
450.28	6658.82
450.46	6401.37
450.65	6424.77
450.83	6366.26
451.02	6363.92
451.20	6310.08
451.39	6642.44
451.57	6387.32
451.76	6464.56
451.94	6558.18
452.13	6436.47
452.31	6604.99
452.49	6537.12
452.68	6691.59
452.86	6359.24
453.05	6574.56
453.23	6672.87
453.42	6665.85
453.60	6677.55
453.78	6775.85
453.97	6616.69
454.15	6595.63
454.34	6700.95
454.52	6738.40
454.70	6829.68
454.89	6796.92
455.07	6871.81
455.26	6864.79
455.44	6949.05
455.62	7087.14
455.81	7082.46
455.99	7014.59
456.17	6998.20
456.36	7033.31
456.54	7250.98
456.73	7176.08
456.91	7351.62
457.09	7169.06
457.28	7243.96
457.46	7183.10
457.64	7470.99
457.83	7480.35
458.01	7389.07
458.19	7358.64
458.38	7466.31
458.56	7644.19
458.74	7810.37
458.93	7499.08
459.11	7531.84
459.29	7559.93
459.48	7372.69
459.66	7669.94
459.84	7557.59
460.03	7847.82
460.21	7733.13
460.39	7653.55
460.57	7784.62
460.76	7604.40
460.94	7791.64
461.12	7819.73
461.31	7929.74
461.49	7985.91
461.67	7962.50
461.85	7971.86
462.04	7808.03
462.22	8489.12
462.40	8030.38
462.59	7857.18
462.77	8205.92
462.95	8058.46
463.13	8084.21
463.32	8212.94
463.50	8114.64
463.68	8255.07
463.86	8135.70
464.05	8013.99
464.23	8056.12
464.41	8416.57
464.59	8184.85
464.78	8528.91
464.96	8119.32
465.14	8074.85
465.32	8365.07
465.50	8365.07
465.69	8585.08
465.87	8435.29
466.05	8425.93
466.23	8273.79
466.41	8510.19
466.60	8580.40
466.78	8191.88
466.96	8435.29
467.14	8477.42
467.32	8622.53
467.51	8554.66
467.69	8496.14
467.87	8442.31
468.05	8755.94
468.23	8695.09
468.41	8482.10
468.60	8484.44
468.78	8758.28
468.96	8849.57
469.14	8695.09
469.32	8854.25
469.50	8512.53
469.69	8978.30
469.87	8971.27
470.05	8990.00
470.23	8943.19
470.41	9167.88
470.59	9104.68
470.77	9104.68
470.95	9160.86
471.14	9310.65
471.32	9043.83
471.50	9434.70
471.68	9191.28
471.86	9376.19
472.04	9521.30
472.22	9542.36
472.40	9387.89
472.58	9572.79
472.77	9504.92
472.95	9502.58
473.13	9942.60
473.31	9586.83
473.49	9799.82
473.67	9558.75
473.85	9806.84
474.03	9954.30
474.21	9877.06
474.39	10043.24
474.57	9970.68
474.75	10108.77
474.93	10106.43
475.12	10218.78
475.30	10284.31
475.48	10111.11
475.66	10267.93
475.84	10394.32
476.02	10546.45
476.20	10539.43
476.38	10558.16
476.56	10860.09
476.74	10672.84
476.92	10729.02
477.10	10780.51
477.28	10902.22
477.46	11052.01
477.64	11239.25
477.82	11283.72
478.00	11543.52
478.18	11510.75
478.36	11461.60
478.54	11459.26
478.72	11618.42
478.90	11719.06
479.08	12065.46
479.26	11791.62
479.44	11866.52
479.62	11967.16
479.80	12084.19
479.98	12271.43
480.16	12603.78
480.34	12266.75
480.52	12734.85
480.70	12369.73
480.88	12322.92
481.06	12830.82
481.24	12814.43
481.41	12985.29
481.59	12975.93
481.77	13202.96
481.95	13226.37
482.13	13282.54
482.31	13142.11
482.49	13621.92
482.67	13689.79
482.85	13720.22
483.03	13951.93
483.21	13935.55
483.39	14083.00
483.57	13977.68
483.74	14197.69
483.92	14635.37
484.10	14150.88
484.28	14682.18
484.46	14743.03
484.64	14939.64
484.82	14623.67
485.00	15007.52
485.18	15061.35
485.35	15389.02
485.53	14916.23
485.71	15304.76
485.89	15688.61
486.07	15218.16
486.25	15332.85
486.43	15604.35
486.61	15660.52
486.78	15941.39
486.96	15908.62
487.14	16556.95
487.32	16407.16
487.50	16739.51
487.68	16592.06
487.85	17167.83
488.03	16748.87
488.21	17071.87
488.39	17214.64
488.57	17198.26
488.75	17355.07
488.92	17703.81
489.10	17626.57
489.28	18094.68
489.46	18099.36
489.64	18001.06
489.81	18501.93
489.99	18558.11
490.17	18642.37
490.35	18726.63
490.53	18684.50
490.70	18946.64
490.88	18932.59
491.06	19363.25
491.24	19225.16
491.41	19250.91
491.59	19606.67
491.77	19192.39
491.95	19559.86
492.13	19798.59
492.30	19941.36
492.48	20025.62
492.66	19957.75
492.84	20116.90
493.01	20446.92
493.19	20269.04
493.37	20680.97
493.54	20655.23
493.72	20938.43
493.90	20863.54
494.08	20767.57
494.25	21427.60
494.43	21399.52
494.61	21303.56
494.79	21387.82
494.96	21427.60
495.14	21315.26
495.32	21912.10
495.49	21951.88
495.67	22139.13
495.85	22164.87
496.02	22342.75
496.20	22478.50
496.38	22396.59
496.55	22691.49
496.73	23321.10
496.91	23005.13
497.09	23096.41
497.26	23042.57
497.44	23131.51
497.62	23414.72
497.79	23653.45
497.97	23381.95
498.14	23344.50
498.32	23770.48
498.50	23920.28
498.67	24383.70
498.85	23964.75
499.03	24065.39
499.20	24428.17
499.38	24489.03
499.56	24386.04
499.73	24854.15
499.91	24692.65
500.08	24875.21
500.26	24624.78
500.44	24926.71
500.61	24952.45
500.79	24816.70
500.97	24938.41
501.14	25322.26
501.32	25174.80
501.49	25458.01
501.67	25282.47
501.84	25507.16
502.02	25465.03
502.20	25825.47
502.37	25977.61
502.55	25713.13
502.72	25907.39
502.90	26260.81
503.07	25947.18
503.25	26008.03
503.43	26260.81
503.60	26497.20
503.78	26199.96
503.95	26389.54
504.13	26691.47
504.30	26665.72
504.48	26340.39
504.65	26916.16
504.83	27417.04
505.01	27267.24
505.18	26934.88
505.36	27520.02
505.53	27449.80
505.71	27412.35
505.88	27950.68
506.06	27566.83
506.23	27742.37
506.41	27608.96
506.58	27702.58
506.76	27861.74
506.93	28065.36
507.11	27831.31
507.28	28077.07
507.46	28283.03
507.63	28194.09
507.81	28313.46
507.98	27971.74
508.16	28144.94
508.33	28498.36
508.50	28835.40
508.68	28554.54
508.85	29036.69
509.03	28776.89
509.20	28917.32
509.38	29282.44
509.55	29207.55
509.73	29413.51
509.90	29160.73
510.08	29284.78
510.25	29392.45
510.42	29647.57
510.60	29790.34
510.77	29530.54
510.95	30230.36
511.12	29837.15
511.30	30026.73
511.47	30525.27
511.64	30281.85
511.82	30232.70
511.99	30228.02
512.17	30108.65
512.34	30307.60
512.51	30228.02
512.69	30405.90
512.86	30815.49
513.04	30630.59
513.21	30794.43
513.38	30969.97
513.56	30845.92
513.73	30604.84
513.90	30677.40
514.08	30911.46
514.25	31019.12
514.43	30937.20
514.60	30953.58
514.77	31283.60
514.95	31814.90
515.12	31714.26
515.29	31531.70
515.47	32079.38
515.64	31960.02
515.81	31571.49
515.99	31889.80
516.16	31576.17
516.33	31821.92
516.51	31915.54
516.68	31915.54
516.85	31445.10
517.03	32011.51
517.20	32205.77
517.37	32463.23
517.54	32498.34
517.72	32542.81
517.89	32423.44
518.06	32442.17
518.24	32496.00
518.41	32084.06
518.58	32650.47
518.75	32505.36
518.93	32690.26
519.10	32758.14
519.27	32849.42
519.45	33160.71
519.62	33202.84
519.79	33560.94
519.96	33383.06
520.14	33619.46
520.31	33654.56
520.48	33607.75
520.65	33443.91
520.83	33883.94
521.00	34012.66
521.17	33851.17
521.34	33823.08
521.52	33813.72
521.69	33823.08
521.86	33984.58
522.03	34375.45
522.20	34106.29
522.38	34270.12
522.55	34361.40
522.72	34249.06
522.89	34330.98
523.07	34763.98
523.24	34174.16
523.41	34946.54
523.58	34714.83
523.75	35412.31
523.92	35056.54
524.10	34958.24
524.27	35393.58
524.44	35033.14
524.61	35079.95
524.78	35171.23
524.96	35658.06
525.13	35421.67
525.30	35758.70
525.47	35601.89
525.64	35274.21
525.81	35730.62
525.98	35325.71
526.16	35288.26
526.33	35505.93
526.50	36041.91
526.67	35590.19
526.84	35407.62
527.01	35505.93
527.18	35903.82
527.36	35941.27
527.53	35950.63
527.70	36704.28
527.87	36240.86
528.04	36165.96
528.21	36369.58
528.38	36313.41
528.55	36741.73
528.72	36617.68
528.89	36975.78
529.07	36713.64
529.24	36409.37
529.41	36793.22
529.58	36631.72
529.75	36800.24
529.92	36566.19
530.09	36818.97
530.26	37109.19
530.43	37097.49
530.60	37116.22
530.77	37312.82
530.94	37130.26
531.11	37008.55
531.28	37343.25
531.46	37078.77
531.63	37319.84
531.80	37635.81
531.97	37624.11
532.14	37504.74
532.31	37024.93
532.48	37394.74
532.65	37509.43
532.82	37617.09
532.99	37722.41
533.16	37420.48
533.33	37853.48
533.50	38007.96
533.67	38092.22
533.84	37916.68
534.01	38185.84
534.18	38117.96
534.35	38665.65
534.52	38375.42
534.69	37720.07
534.86	38667.99
535.03	38356.70
535.20	38422.23
535.37	38801.40
535.54	38703.10
535.71	38883.32
535.88	38827.15
536.05	38719.48
536.22	38354.36
536.38	38969.92
536.55	38845.87
536.72	38899.70
536.89	38576.71
537.06	38829.49
537.23	39143.12
537.40	39084.61
537.57	38979.28
537.74	38918.43
537.91	39438.03
538.08	39072.90
538.25	39126.74
538.42	38993.32
538.59	39592.50
538.75	39358.45
538.92	39412.28
539.09	39875.71
539.26	39431.01
539.43	39501.22
539.60	39445.05
539.77	39505.90
539.94	39562.08
540.11	39346.75
540.28	39651.02
540.44	39536.33
540.61	39248.44
540.78	39805.49
540.95	39150.14
541.12	39482.50
541.29	39927.20
541.46	39943.58
541.62	39800.81
541.79	40399.99
541.96	39742.30
542.13	39604.20
542.30	40301.68
542.47	39955.29
542.63	40016.14
542.80	40236.15
542.97	40882.14
543.14	40978.10
543.31	40453.82
543.48	40519.35
543.64	40952.35
543.81	40992.14
543.98	40734.68
544.15	40631.70
544.32	41024.91
544.48	41118.53
544.65	40879.80
544.82	41013.21
544.99	40528.72
545.16	41350.24
545.32	40832.99
545.49	41228.54
545.66	41268.33
545.83	40959.38
546.00	41366.63
546.16	41425.14
546.33	40842.35
546.50	40706.60
546.67	41125.55
546.83	41233.22
547.00	41200.45
547.17	41139.60
547.34	41441.53
547.50	41394.71
547.67	41706.01
547.84	41532.81
548.00	41832.39
548.17	41773.88
548.34	41446.21
548.51	42312.20
548.67	41738.77
548.84	42286.46
549.01	41727.07
549.18	41970.49
549.34	41940.06
549.51	41937.72
549.68	42293.48
549.84	42239.65
550.01	42340.29
550.18	41890.91
550.34	42146.03
550.51	42192.84
550.68	41872.18
550.84	41734.09
551.01	42227.95
551.18	42139.00
551.34	42354.33
551.51	42064.11
551.68	42216.24
551.84	42436.25
552.01	42607.11
552.18	42630.52
552.34	41979.85
552.51	42595.41
552.68	42298.16
552.84	42632.86
553.01	42401.14
553.18	42476.04
553.34	42412.85
553.51	42543.92
553.67	42759.25
553.84	43021.39
554.01	42965.21
554.17	42990.96
554.34	42693.71
554.51	43042.45
554.67	42892.66
554.84	42593.07
555.00	42883.30
555.17	42714.78
555.33	43070.54
555.50	42909.04
555.67	42609.45
555.83	43072.88
556.00	43309.27
556.16	43613.54
556.33	43447.36
556.50	42892.66
556.66	43115.01
556.83	43370.13
556.99	43487.15
557.16	43529.28
557.32	43152.46
557.49	43257.78
557.65	43012.02
557.82	42871.59
557.98	43021.39
558.15	42883.30
558.32	43643.97
558.48	43217.99
558.65	43529.28
558.81	43491.83
558.98	43674.40
559.14	43320.98
559.31	43583.12
559.47	43515.24
559.64	43161.82
559.80	44016.11
559.97	43536.30
560.13	43662.69
560.30	43187.56
560.46	43704.82
560.63	43821.85
560.79	43803.13
560.96	43906.11
561.12	43438.00
561.29	43826.53
561.45	43641.63
561.61	43271.82
561.78	43585.46
561.94	43718.87
562.11	43803.13
562.27	43955.26
562.44	43889.73
562.60	43814.83
562.77	44414.01
562.93	44044.20
563.10	43988.03
563.26	43320.98
563.42	43906.11
563.59	43920.15
563.75	44186.97
563.92	44095.69
564.08	44287.62
564.24	44325.07
564.41	43999.73
564.57	44102.71
564.74	43861.64
564.90	44271.23
565.07	44292.30
565.23	44168.25
565.39	44046.54
565.56	43838.23
565.72	44201.02
565.88	44226.76
566.05	44210.38
566.21	43997.39
566.38	44116.76
566.54	43856.96
566.70	44486.56
566.87	44531.03
567.03	44402.30
567.19	44456.14
567.36	44519.33
567.52	44025.48
567.68	44240.81
567.85	44137.82
568.01	44666.78
568.17	44634.02
568.34	44325.07
568.50	44524.01
568.66	44535.71
568.83	44570.82
568.99	44451.45
569.15	44126.12
569.32	43950.58
569.48	44610.61
569.64	44961.69
569.81	44409.32
569.97	44451.45
570.13	44755.72
570.30	43915.47
570.46	43990.37
570.62	44165.91
570.78	44105.06
570.95	44219.74
571.11	44456.14
571.27	44243.15
571.43	44311.02
571.60	44418.69
571.76	44296.98
571.92	44105.06
572.09	44259.53
572.25	44645.72
572.41	44343.79
572.57	44622.31
572.74	45268.30
572.90	44751.04
573.06	44626.99
573.22	43903.77
573.38	44666.78
573.55	44250.17
573.71	45134.89
573.87	44437.41
574.03	44275.91
574.20	44671.46
574.36	44414.01
574.52	44479.54
574.68	44884.45
574.84	44657.42
575.01	44126.12
575.17	44872.75
575.33	44289.96
575.49	44753.38
575.65	44851.69
575.82	44949.99
575.98	44729.98
576.14	44776.79
576.30	44737.00
576.46	44498.26
576.62	44582.52
576.79	44521.67
576.95	44205.70
577.11	44009.09
577.27	44631.68
577.43	45034.25
577.59	44584.86
577.75	44980.42
577.92	44432.73
578.08	44121.44
578.24	44268.89
578.40	44570.82
578.56	44779.13
578.72	44446.77
578.88	45125.53
579.04	44858.71
579.21	44568.48
579.37	44626.99
579.53	45071.70
579.69	44505.29
579.85	45277.66
580.01	44636.36
580.17	44830.62
580.33	44907.86
580.49	45151.27
580.65	44758.06
580.82	44898.50
580.98	44896.16
581.14	44516.99
581.30	45207.45
581.46	44903.18
581.62	44704.23
581.78	44589.55
581.94	45326.81
582.10	44849.35
582.26	44889.13
582.42	44788.49
582.58	44781.47
582.74	44762.75
582.90	44758.06
583.06	45233.19
583.22	44739.34
583.38	44947.65
583.54	45132.55
583.70	45113.83
583.86	44835.30
584.02	44790.83
584.18	44566.14
584.34	44467.84
584.50	45144.25
584.66	44776.79
584.82	44453.79
584.98	45106.80
585.14	44835.30
585.30	44739.34
585.46	44832.96
585.62	44507.63
585.78	44800.19
585.94	44308.68
586.10	44685.51
586.26	44545.08
586.42	44418.69
586.58	44942.97
586.74	44832.96
586.90	44690.19
587.06	44753.38
587.22	45024.89
587.38	44898.50
587.54	44807.22
587.70	45067.02
587.86	45212.13
588.02	45104.46
588.18	45118.51
588.34	44851.69
588.49	44650.40
588.65	44524.01
588.81	44423.37
588.97	44746.36
589.13	44575.50
589.29	45071.70
589.45	44924.24
589.61	44645.72
589.77	45310.43
589.93	45226.17
590.08	45106.80
590.24	45237.87
