SpectraSuite Data File
++++++++++++++++++++++++++++++++++++
Date: Fri Oct 25 11:34:31 EDT 2013
User: price-jones
Dark Spectrum Present: No
Reference Spectrum Present: No
Number of Sampled Component Spectra: 1
Spectrometers: USB2+H05261
Integration Time (usec): 100000 (USB2+H05261)
Spectra Averaged: 1 (USB2+H05261)
Boxcar Smoothing: 0 (USB2+H05261)
Correct for Electrical Dark: No (USB2+H05261)
Strobe/Lamp Enabled: No (USB2+H05261)
Correct for Detector Non-linearity: No (USB2+H05261)
Correct for Stray Light: No (USB2+H05261)
Number of Pixels in Processed Spectrum: 2048
>>>>>Begin Processed Spectral Data<<<<<
365.73	306.61
365.92	306.61
366.12	306.61
366.32	203.63
366.52	182.56
366.72	198.95
366.91	145.11
367.11	131.07
367.31	201.29
367.51	208.31
367.70	147.45
367.90	224.69
368.10	208.31
368.30	170.86
368.49	133.41
368.69	175.54
368.89	222.35
369.09	154.48
369.28	191.92
369.48	294.91
369.68	227.03
369.87	224.69
370.07	177.88
370.27	238.73
370.47	346.40
370.66	507.90
370.86	545.34
371.06	568.75
371.25	507.90
371.45	547.69
371.65	470.45
371.84	514.92
372.04	524.28
372.24	566.41
372.44	575.77
372.63	624.92
372.83	589.82
373.03	547.69
373.22	615.56
373.42	615.56
373.62	636.63
373.81	650.67
374.01	636.63
374.21	578.11
374.40	613.22
374.60	706.84
374.79	634.29
374.99	603.86
375.19	704.50
375.38	671.73
375.58	662.37
375.78	664.71
375.97	690.46
376.17	678.76
376.37	709.18
376.56	662.37
376.76	587.47
376.95	723.23
377.15	690.46
377.35	671.73
377.54	636.63
377.74	622.58
377.93	617.90
378.13	650.67
378.33	699.82
378.52	648.33
378.72	688.12
378.91	770.04
379.11	697.48
379.31	629.60
379.50	734.93
379.70	760.67
379.89	732.59
380.09	772.38
380.28	664.71
380.48	744.29
380.68	786.42
380.87	709.18
381.07	765.36
381.26	685.78
381.46	746.63
381.65	805.14
381.85	702.16
382.04	765.36
382.24	763.01
382.43	760.67
382.63	802.80
382.83	699.82
383.02	788.76
383.22	851.96
383.41	758.33
383.61	741.95
383.80	835.57
384.00	774.72
384.19	784.08
384.39	770.04
384.58	837.91
384.78	763.01
384.97	814.51
385.17	849.61
385.36	741.95
385.56	786.42
385.75	800.46
385.95	777.06
386.14	823.87
386.34	798.12
386.53	854.30
386.72	856.64
386.92	851.96
387.11	858.98
387.31	912.81
387.50	816.85
387.70	917.49
387.89	849.61
388.09	875.36
388.28	873.02
388.48	905.79
388.67	910.47
388.86	945.58
389.06	884.72
389.25	987.71
389.45	1006.43
389.64	1001.75
389.84	889.40
390.03	983.02
390.22	985.37
390.42	861.32
390.61	929.19
390.81	943.24
391.00	943.24
391.19	987.71
391.39	957.28
391.58	966.64
391.78	961.96
391.97	1018.13
392.16	933.87
392.36	1076.65
392.55	1027.50
392.75	1057.92
392.94	1064.94
393.13	1057.92
393.33	1088.35
393.52	1034.52
393.71	1111.75
393.91	1025.15
394.10	1163.25
394.29	1071.97
394.49	1093.03
394.68	1053.24
394.88	1165.59
395.07	1172.61
395.26	1090.69
395.46	1139.84
395.65	1128.14
395.84	1090.69
396.04	1165.59
396.23	1198.35
396.42	1156.22
396.62	1125.80
396.81	1240.48
397.00	1242.82
397.19	1128.14
397.39	1163.25
397.58	1163.25
397.77	1245.16
397.97	1221.76
398.16	1203.04
398.35	1188.99
398.55	1245.16
398.74	1270.91
398.93	1273.25
399.12	1348.15
399.32	1345.81
399.51	1221.76
399.70	1287.29
399.90	1217.08
400.09	1242.82
400.28	1350.49
400.47	1238.14
400.67	1390.28
400.86	1322.40
401.05	1474.54
401.24	1376.24
401.44	1350.49
401.63	1413.68
401.82	1434.75
402.01	1411.34
402.21	1455.81
402.40	1380.92
402.59	1324.74
402.78	1409.00
402.97	1411.34
403.17	1488.58
403.36	1526.03
403.55	1509.65
403.74	1551.78
403.93	1596.25
404.13	1565.82
404.32	1542.41
404.51	1563.48
404.70	1535.39
404.89	1572.84
405.09	1636.03
405.28	1640.72
405.47	1614.97
405.66	1537.73
405.85	1699.23
406.05	1645.40
406.24	1708.59
406.43	1624.33
406.62	1659.44
406.81	1694.55
407.00	1708.59
407.20	1650.08
407.39	1685.19
407.58	1673.48
407.77	1715.61
407.96	1715.61
408.15	1820.94
408.34	1870.09
408.54	1884.13
408.73	1888.81
408.92	1776.47
409.11	1823.28
409.30	1872.43
409.49	1905.20
409.68	1816.26
409.87	1961.37
410.07	2047.97
410.26	1952.01
410.45	1926.26
410.64	1996.48
410.83	2050.31
411.02	1980.09
411.21	2087.76
411.40	2059.67
411.59	2101.80
411.78	2127.55
411.98	2097.12
412.17	2193.08
412.36	2188.40
412.55	2193.08
412.74	2370.96
412.93	2275.00
413.12	2296.07
413.31	2303.09
413.50	2193.08
413.69	2326.49
413.88	2387.35
414.07	2345.22
414.26	2485.65
414.45	2370.96
414.64	2469.27
414.83	2471.61
415.02	2544.16
415.22	2560.55
415.41	2539.48
415.60	2656.51
415.79	2548.84
415.98	2551.18
416.17	2558.21
416.36	2647.15
416.55	2757.15
416.74	2729.06
416.93	2708.00
417.12	2771.19
417.31	2729.06
417.50	2846.09
417.69	2850.77
417.88	2829.71
418.07	2916.31
418.26	2829.71
418.45	2822.69
418.64	2820.35
418.83	2836.73
419.02	2860.13
419.21	2977.16
419.39	3026.31
419.58	2995.89
419.77	2981.84
419.96	3066.10
420.15	3133.98
420.34	2958.44
420.53	3077.80
420.72	3131.64
420.91	3077.80
421.10	3169.09
421.29	3302.50
421.48	3173.77
421.67	3241.64
421.86	3201.85
422.05	3115.25
422.24	3162.06
422.43	3124.62
422.61	3192.49
422.80	3185.47
422.99	3243.98
423.18	3309.52
423.37	3414.84
423.56	3234.62
423.75	3213.56
423.94	3162.06
424.13	3052.06
424.32	3201.85
424.50	3304.84
424.69	3281.43
424.88	3321.22
425.07	3361.01
425.26	3274.41
425.45	3199.51
425.64	3150.36
425.83	3246.32
426.01	3335.26
426.20	3363.35
426.39	3541.23
426.58	3389.10
426.77	3349.31
426.96	3405.48
427.15	3332.92
427.33	3471.01
427.52	3398.46
427.71	3311.86
427.90	3435.91
428.09	3487.40
428.28	3501.44
428.46	3459.31
428.65	3325.90
428.84	3508.46
429.03	3576.34
429.22	3475.70
429.40	3602.08
429.59	3620.81
429.78	3466.33
429.97	3478.04
430.16	3574.00
430.34	3733.15
430.53	3705.07
430.72	3665.28
430.91	3770.60
431.10	3747.20
431.28	3789.33
431.47	3712.09
431.66	3845.50
431.85	3911.04
432.03	3826.78
432.22	3889.97
432.41	3845.50
432.60	3854.86
432.79	3908.69
432.97	3936.78
433.16	4058.49
433.35	3990.61
433.54	3918.06
433.72	4037.42
433.91	3981.25
434.10	4002.32
434.28	3873.59
434.47	4058.49
434.66	4205.94
434.85	4126.36
435.03	4166.15
435.22	4208.28
435.41	4224.67
435.59	4135.73
435.78	4337.01
435.97	4168.49
436.16	4229.35
436.34	4222.33
436.53	4271.48
436.72	4369.78
436.90	4241.05
437.09	4498.51
437.28	4327.65
437.46	4447.02
437.65	4344.03
437.84	4388.50
438.02	4442.34
438.21	4461.06
438.40	4290.20
438.58	4568.73
438.77	4587.45
438.96	4381.48
439.14	4732.56
439.33	4725.54
439.52	4592.13
439.70	4578.09
439.89	4765.33
440.08	4854.27
440.26	4931.51
440.45	4676.39
440.63	4833.21
440.82	4821.50
441.01	4835.55
441.19	5018.11
441.38	4961.94
441.57	4915.12
441.75	5011.09
441.94	5195.99
442.12	5130.45
442.31	5217.05
442.50	5266.21
442.68	5235.78
442.87	5198.33
443.05	5200.67
443.24	5341.10
443.43	5348.12
443.61	5322.38
443.80	5387.91
443.98	5270.89
444.17	5102.37
444.35	5324.72
444.54	5212.37
444.73	5313.02
444.91	5245.14
445.10	5394.93
445.28	5383.23
445.47	5444.09
445.65	5322.38
445.84	5535.37
446.02	5507.28
446.21	5458.13
446.39	5692.18
446.58	5607.92
446.77	5542.39
446.95	5392.59
447.14	5448.77
447.32	5551.75
447.51	5465.15
447.69	5352.81
447.88	5579.84
448.06	5664.10
448.25	5746.02
448.43	5640.69
448.62	5657.07
448.80	5497.92
448.99	5556.43
449.17	5664.10
449.36	5600.90
449.54	5619.63
449.73	5657.07
449.91	5757.72
450.10	5792.83
450.28	5881.77
450.46	5959.00
450.65	5928.58
450.83	5933.26
451.02	5790.49
451.20	5956.66
451.39	6010.50
451.57	5923.90
451.76	5858.36
451.94	5884.11
452.13	6024.54
452.31	5923.90
452.49	5832.62
452.68	6223.48
452.86	6015.18
453.05	6015.18
453.23	6136.88
453.42	6069.01
453.60	5937.94
453.78	6370.94
453.97	5923.90
454.15	6026.88
454.34	6010.50
454.52	6284.34
454.70	6251.57
454.89	6214.12
455.07	6139.23
455.26	6394.34
455.44	6443.49
455.62	6340.51
455.81	6326.47
455.99	6579.25
456.17	6396.68
456.36	6249.23
456.54	6417.75
456.73	6644.78
456.91	6696.27
457.09	6726.70
457.28	6635.42
457.46	6651.80
457.64	6768.83
457.83	6649.46
458.01	6775.85
458.19	6995.86
458.38	6885.86
458.56	6881.18
458.74	6892.88
458.93	6874.15
459.11	6834.36
459.29	6768.83
459.48	6839.05
459.66	6909.26
459.84	6995.86
460.03	7215.87
460.21	7124.59
460.39	6981.82
460.57	6970.12
460.76	7108.21
460.94	7260.34
461.12	7164.38
461.31	7349.28
461.49	7105.87
461.67	7075.44
461.85	7309.49
462.04	7208.85
462.22	7604.40
462.40	7442.90
462.59	7501.42
462.77	7258.00
462.95	7674.62
463.13	7482.69
463.32	7297.79
463.50	7447.58
463.68	7440.56
463.86	7674.62
464.05	7461.63
464.23	7487.37
464.41	7489.71
464.59	7438.22
464.78	7903.99
464.96	7686.32
465.14	7496.74
465.32	7784.62
465.50	7901.65
465.69	7714.41
465.87	7796.32
466.05	7693.34
466.23	7630.15
466.41	7730.79
466.60	7859.52
466.78	7943.78
466.96	7728.45
467.14	7843.14
467.32	7934.42
467.51	8002.29
467.69	7810.37
467.87	8119.32
468.05	7861.86
468.23	7934.42
468.41	7763.56
468.60	8140.38
468.78	7943.78
468.96	8161.45
469.14	8334.65
469.32	8159.11
469.50	8229.32
469.69	8278.47
469.87	8376.78
470.05	8339.33
470.23	8454.02
470.41	8376.78
470.59	8454.02
470.77	8549.98
470.95	8339.33
471.14	8875.31
471.32	8411.89
471.50	8664.66
471.68	8779.35
471.86	8812.12
472.04	8798.07
472.22	8879.99
472.40	8594.45
472.58	8718.50
472.77	8851.91
472.95	8917.44
473.13	9366.82
473.31	8891.70
473.49	9032.13
473.67	9043.83
473.85	9259.16
474.03	9114.05
474.21	9451.08
474.39	9266.18
474.57	9348.10
474.75	9408.95
474.93	9298.95
475.12	9420.66
475.30	9444.06
475.48	9547.05
475.66	9727.27
475.84	9605.56
476.02	9687.48
476.20	9771.74
476.38	9867.70
476.56	10057.28
476.74	10125.16
476.92	10115.80
477.10	9961.32
477.28	10211.76
477.46	10214.10
477.64	10038.56
477.82	10384.96
478.00	10621.35
478.18	10541.77
478.36	10670.50
478.54	10743.06
478.72	10745.40
478.90	11152.65
479.08	11049.67
479.26	11136.27
479.44	11199.46
479.62	11063.71
479.80	11143.29
479.98	11279.04
480.16	11459.26
480.34	11529.48
480.52	11723.74
480.70	11779.92
480.88	11417.13
481.06	11775.24
481.24	11927.37
481.41	11854.81
481.59	11906.31
481.77	12217.60
481.95	12079.50
482.13	12315.90
482.31	12182.49
482.49	12730.17
482.67	12657.62
482.85	12994.65
483.03	12784.01
483.21	13107.00
483.39	13261.48
483.57	13074.23
483.74	13224.03
483.92	13275.52
484.10	13345.73
484.28	13490.85
484.46	13748.31
484.64	14101.73
484.82	13881.72
485.00	14045.55
485.18	14181.31
485.35	14258.54
485.53	14150.88
485.71	14274.93
485.89	14595.58
486.07	14801.55
486.25	14888.15
486.43	14855.38
486.61	14792.19
486.78	14977.09
486.96	15094.11
487.14	15335.19
487.32	15573.92
487.50	15438.17
487.68	16004.58
487.85	15824.36
488.03	15761.17
488.21	16252.68
488.39	16098.20
488.57	16128.63
488.75	16414.18
488.92	16512.48
489.10	16695.04
489.28	16688.02
489.46	16664.61
489.64	16805.05
489.81	17076.55
489.99	17135.06
490.17	17385.50
490.35	17619.55
490.53	17551.68
490.70	17741.26
490.88	17853.61
491.06	17877.01
491.24	17987.02
491.41	18190.64
491.59	18134.47
491.77	18286.61
491.95	18558.11
492.13	18593.22
492.30	18707.90
492.48	18443.42
492.66	19087.07
492.84	18803.86
493.01	19377.30
493.19	19091.75
493.37	19410.06
493.54	19714.33
493.72	19620.71
493.90	19583.26
494.08	19751.78
494.25	20095.84
494.43	19960.09
494.61	20109.88
494.79	20006.90
494.96	20540.54
495.14	20308.83
495.32	20919.71
495.49	20828.43
495.67	20662.25
495.85	20730.12
496.02	21448.67
496.20	21238.02
496.38	21245.04
496.55	21083.55
496.73	21965.93
496.91	21734.21
497.09	21521.23
497.26	21544.63
497.44	21797.41
497.62	21937.84
497.79	22532.34
497.97	22043.17
498.14	22499.57
498.32	22623.62
498.50	22869.37
498.67	22750.01
498.85	22920.87
499.03	22382.54
499.20	22419.99
499.38	23227.48
499.56	23264.92
499.73	23260.24
499.91	22939.59
500.08	23810.27
500.26	23473.23
500.44	23335.14
500.61	23733.03
500.79	23597.28
500.97	23702.61
501.14	24201.14
501.32	24128.58
501.49	24257.31
501.67	24039.64
501.84	24496.05
502.02	24402.43
502.20	24332.21
502.37	24489.03
502.55	24477.32
502.72	24732.44
502.90	24748.82
503.07	24540.52
503.25	24746.48
503.43	24821.38
503.60	25106.93
503.78	25373.75
503.95	24882.24
504.13	25118.63
504.30	25275.45
504.48	25493.12
504.65	25219.27
504.83	25458.01
505.01	25989.31
505.18	25687.38
505.36	26073.57
505.53	25905.05
505.71	26148.46
505.88	26298.26
506.06	26190.59
506.23	26403.58
506.41	26305.28
506.58	26565.08
506.76	26597.85
506.93	26597.85
507.11	26630.62
507.28	26862.33
507.46	26700.83
507.63	26534.65
507.81	27264.90
507.98	26616.57
508.16	27143.19
508.33	27260.22
508.50	27253.20
508.68	27084.68
508.85	27639.39
509.03	27321.07
509.20	27576.19
509.38	27653.43
509.55	27953.02
509.73	28210.48
509.90	27718.96
510.08	27667.47
510.25	27587.89
510.42	28065.36
510.60	28594.32
510.77	28416.44
510.95	28273.67
511.12	28599.01
511.30	28603.69
511.47	28498.36
511.64	28561.56
511.82	28301.76
511.99	29060.09
512.17	29214.57
512.34	29013.28
512.51	29256.70
512.69	29167.76
512.86	29317.55
513.04	29191.16
513.21	29324.57
513.38	29366.70
513.56	29755.23
513.73	29614.80
513.90	29654.59
514.08	29738.85
514.25	29692.04
514.43	30080.56
514.60	30202.27
514.77	29820.77
514.95	30548.67
515.12	30450.37
515.29	30305.26
515.47	30361.43
515.64	30363.77
515.81	30258.45
515.99	30443.35
516.16	30892.73
516.33	30469.09
516.51	30944.22
516.68	30796.77
516.85	31108.06
517.03	31173.60
517.20	31166.57
517.37	31051.89
517.54	30904.43
517.72	31653.40
517.89	31459.14
518.06	31473.18
518.24	31510.63
518.41	31690.85
518.58	31501.27
518.75	31433.39
518.93	31651.06
519.10	31571.49
519.27	31922.57
519.45	31957.67
519.62	32191.73
519.79	32203.43
519.96	32208.11
520.14	31758.73
520.31	31960.02
520.48	32290.03
520.65	32261.94
520.83	32943.04
521.00	33120.92
521.17	32563.87
521.34	32720.69
521.52	32877.51
521.69	32816.65
521.86	33027.30
522.03	33338.59
522.20	32814.31
522.38	33141.99
522.55	33509.45
522.72	33310.50
522.89	33362.00
523.07	33649.88
523.24	33558.60
523.41	33631.16
523.58	33720.10
523.75	33879.25
523.92	34005.64
524.10	33799.68
524.27	34036.07
524.44	34298.21
524.61	34607.16
524.78	33982.24
524.96	34321.62
525.13	34012.66
525.30	34501.84
525.47	33905.00
525.64	34529.92
525.81	34330.98
525.98	34923.13
526.16	34604.82
526.33	34387.15
526.50	34829.51
526.67	34440.98
526.84	34981.65
527.01	34541.63
527.18	35082.29
527.36	34998.03
527.53	35218.04
527.70	35292.94
527.87	35248.47
528.04	35353.79
528.21	34794.40
528.38	35543.38
528.55	35487.20
528.72	35133.78
528.89	35049.52
529.07	35498.91
529.24	35122.08
529.41	35644.02
529.58	36023.19
529.75	35562.10
529.92	35693.17
530.09	35847.64
530.26	35756.36
530.43	35749.34
530.60	35690.83
530.77	36006.80
530.94	36390.65
531.11	35718.92
531.28	36135.53
531.46	36325.11
531.63	36519.38
531.80	36191.70
531.97	36355.54
532.14	36540.44
532.31	36664.49
532.48	36224.47
532.65	36842.37
532.82	36744.07
532.99	36563.85
533.16	36699.60
533.33	37092.81
533.50	36945.36
533.67	36833.01
533.84	36893.86
534.01	36921.95
534.18	36943.02
534.35	37198.13
534.52	37254.31
534.69	37486.02
534.86	37509.43
535.03	37584.32
535.20	37474.32
535.37	37287.07
535.54	37876.89
535.71	37783.27
535.88	38026.68
536.05	37654.54
536.22	37937.74
536.38	37502.40
536.55	38134.35
536.72	38080.52
536.89	37706.03
537.06	37612.41
537.23	37933.06
537.40	38155.41
537.57	38225.63
537.74	37881.57
537.91	38185.84
538.08	37867.53
538.25	38124.99
538.42	38101.58
538.59	38415.21
538.75	38242.01
538.92	38981.62
539.09	39028.43
539.26	38916.09
539.43	38480.75
539.60	38684.37
539.77	38359.04
539.94	39089.29
540.11	38794.38
540.28	38916.09
540.44	38785.02
540.61	38806.08
540.78	38590.75
540.95	38848.21
541.12	39056.52
541.29	38473.73
541.46	38880.98
541.62	39000.35
541.79	38955.88
541.96	38625.86
542.13	38731.18
542.30	38895.02
542.47	39531.65
542.63	39271.85
542.80	39901.45
542.97	39517.60
543.14	40161.25
543.31	39515.26
543.48	39744.64
543.64	40306.37
543.81	40009.12
543.98	40039.54
544.15	40023.16
544.32	39929.54
544.48	40046.57
544.65	40177.64
544.82	40603.61
544.99	40121.46
545.16	40219.77
545.32	40315.73
545.49	40414.03
545.66	40837.67
545.83	40430.41
546.00	40767.45
546.16	40566.16
546.33	40261.90
546.50	40381.26
546.67	40748.73
546.83	40243.17
547.00	40395.31
547.17	41125.55
547.34	40519.35
547.50	40952.35
547.67	41645.15
547.84	40924.27
548.00	41109.17
548.17	41666.22
548.34	41067.04
548.51	41254.28
548.67	40996.82
548.84	41422.80
549.01	41422.80
549.18	41081.08
549.34	41067.04
549.51	41947.08
549.68	41591.32
549.84	41434.50
550.01	41542.17
550.18	41226.20
550.34	41167.68
550.51	42026.66
550.68	41680.26
550.84	41296.41
551.01	41549.19
551.18	41635.79
551.34	41581.96
551.51	41411.10
551.68	41844.10
551.84	42024.32
552.01	41441.53
552.18	41518.76
552.34	42253.69
552.51	42012.62
552.68	41743.45
552.84	42106.24
553.01	42117.94
553.18	42176.45
553.34	42052.41
553.51	42272.42
553.67	42007.94
553.84	42029.00
554.01	42270.08
554.17	42403.49
554.34	42532.22
554.51	42639.88
554.67	42302.84
554.84	42679.67
555.00	42749.88
555.17	42220.92
555.33	42691.37
555.50	42939.47
555.67	42827.12
555.83	42983.94
556.00	43054.15
556.16	43206.29
556.33	42918.40
556.50	42607.11
556.66	42923.08
556.83	42614.13
556.99	43129.05
557.16	43360.76
557.32	43100.97
557.49	42974.58
557.65	42885.64
557.82	42691.37
557.98	43044.79
558.15	42899.68
558.32	42995.64
558.48	42960.53
558.65	43119.69
558.81	43384.17
558.98	43070.54
559.14	42628.18
559.31	42679.67
559.47	43196.93
559.64	43194.59
559.80	43339.70
559.97	43555.03
560.13	43164.16
560.30	43143.09
560.46	43517.58
560.63	43695.46
560.79	43608.86
560.96	43627.59
561.12	43557.37
561.29	43756.32
561.45	43421.62
561.61	43779.72
561.78	43405.23
561.94	43405.23
562.11	43250.76
562.27	43576.09
562.44	43983.35
562.60	43983.35
562.77	43501.20
562.93	43484.81
563.10	43959.94
563.26	43709.50
563.42	44165.91
563.59	43971.64
563.75	44189.31
563.92	44041.86
564.08	43531.62
564.24	44252.51
564.41	44093.35
564.57	43948.24
564.74	44065.27
564.90	44095.69
565.07	44095.69
565.23	44320.38
565.39	44500.61
565.56	44285.28
565.72	44013.77
565.88	44229.10
566.05	44385.92
566.21	43697.80
566.38	44149.53
566.54	44088.67
566.70	44591.89
566.87	43962.28
567.03	44072.29
567.19	44240.81
567.36	44285.28
567.52	44509.97
567.68	44767.43
567.85	44301.66
568.01	44065.27
568.17	43597.16
568.34	44547.42
568.50	44280.60
568.66	44669.12
568.83	44332.09
568.99	44538.05
569.15	44385.92
569.32	43772.70
569.48	44673.81
569.64	44528.69
569.81	44744.02
569.97	44065.27
570.13	44779.13
570.30	43924.83
570.46	44491.24
570.62	44509.97
570.78	44598.91
570.95	44629.34
571.11	44643.38
571.27	44437.41
571.43	44247.83
571.60	44451.45
571.76	44732.32
571.92	44474.86
572.09	44329.75
572.25	43973.98
572.41	44491.24
572.57	44786.15
572.74	45439.16
572.90	44240.81
573.06	44774.45
573.22	44531.03
573.38	44924.24
573.55	44350.81
573.71	45200.43
573.87	45081.06
574.03	44687.85
574.20	44957.01
574.36	44949.99
574.52	44947.65
574.68	44760.40
574.84	44715.93
575.01	45251.92
575.17	45008.50
575.33	44896.16
575.49	44612.95
575.65	44898.50
575.82	44559.12
575.98	44861.05
576.14	44996.80
576.30	45139.57
576.46	44982.76
576.62	44821.26
576.79	44364.85
576.95	44713.59
577.11	44994.46
577.27	44610.61
577.43	44935.95
577.59	44832.96
577.75	44605.93
577.92	44540.39
578.08	45125.53
578.24	45205.11
578.40	45078.72
578.56	44968.71
578.72	45275.32
578.88	44755.72
579.04	45090.42
579.21	44985.10
579.37	44985.10
579.53	45240.21
579.69	44772.11
579.85	44914.88
580.01	45263.62
580.17	44837.64
580.33	45272.98
580.49	45193.40
580.65	45167.66
580.82	45013.18
580.98	44910.20
581.14	44891.48
581.30	45106.80
581.46	44692.53
581.62	45090.42
581.78	45102.12
581.94	45251.92
582.10	44900.84
582.26	44858.71
582.42	44856.37
582.58	44854.03
582.74	45209.79
582.90	45298.73
583.06	45420.44
583.22	45427.46
583.38	45097.44
583.54	45544.48
583.70	44863.39
583.86	45347.88
584.02	44678.49
584.18	45603.00
584.34	45394.69
584.50	45446.18
584.66	45254.26
584.82	45507.04
584.98	45549.17
585.14	45441.50
585.30	44928.92
585.46	45050.63
585.62	45354.90
585.78	45186.38
585.94	45413.41
586.10	45198.09
586.26	44989.78
586.42	45226.17
586.58	45624.06
586.74	45074.04
586.90	44992.12
587.06	45404.05
587.22	45532.78
587.38	45074.04
587.54	45090.42
587.70	45492.99
587.86	45212.13
588.02	45432.14
588.18	45448.52
588.34	45397.03
588.49	45324.47
588.65	45525.76
588.81	44919.56
588.97	45563.21
589.13	45188.72
589.29	45240.21
589.45	45551.51
589.61	45752.79
589.77	45570.23
589.93	45427.46
590.08	45806.62
