SpectraSuite Data File
++++++++++++++++++++++++++++++++++++
Date: Fri Oct 25 11:23:42 EDT 2013
User: price-jones
Dark Spectrum Present: No
Reference Spectrum Present: No
Number of Sampled Component Spectra: 1
Spectrometers: USB2+H05261
Integration Time (usec): 100000 (USB2+H05261)
Spectra Averaged: 1 (USB2+H05261)
Boxcar Smoothing: 0 (USB2+H05261)
Correct for Electrical Dark: No (USB2+H05261)
Strobe/Lamp Enabled: No (USB2+H05261)
Correct for Detector Non-linearity: No (USB2+H05261)
Correct for Stray Light: No (USB2+H05261)
Number of Pixels in Processed Spectrum: 2048
>>>>>Begin Processed Spectral Data<<<<<
365.73	222.35
365.92	222.35
366.12	222.35
366.32	119.37
366.52	161.50
366.72	149.79
366.91	93.62
367.11	30.43
367.31	77.24
367.51	152.13
367.70	149.79
367.90	91.28
368.10	72.56
368.30	142.77
368.49	149.79
368.69	117.03
368.89	166.18
369.09	135.75
369.28	166.18
369.48	138.09
369.68	243.42
369.87	217.67
370.07	182.56
370.27	170.86
370.47	262.14
370.66	543.00
370.86	697.48
371.06	716.20
371.25	697.48
371.45	638.97
371.65	620.24
371.84	709.18
372.04	671.73
372.24	795.78
372.44	671.73
372.63	772.38
372.83	688.12
373.03	748.97
373.22	772.38
373.42	781.74
373.62	807.48
373.81	814.51
374.01	774.72
374.21	828.55
374.40	730.25
374.60	819.19
374.79	844.93
374.99	866.00
375.19	798.12
375.38	784.08
375.58	826.21
375.78	800.46
375.97	926.85
376.17	926.85
376.37	858.98
376.56	863.66
376.76	840.25
376.95	791.10
377.15	844.93
377.35	1060.26
377.54	922.17
377.74	926.85
377.93	875.36
378.13	903.45
378.33	901.11
378.52	950.26
378.72	896.43
378.91	968.98
379.11	999.41
379.31	940.90
379.50	1025.15
379.70	992.39
379.89	1001.75
380.09	1025.15
380.28	1041.54
380.48	917.49
380.68	898.77
380.87	985.37
381.07	1032.18
381.26	966.64
381.46	994.73
381.65	983.02
381.85	985.37
382.04	1093.03
382.24	1020.47
382.43	1095.37
382.63	1060.26
382.83	992.39
383.02	1060.26
383.22	1137.50
383.41	1158.57
383.61	1067.28
383.80	1060.26
384.00	1088.35
384.19	1174.95
384.39	1167.93
384.58	1078.99
384.78	1109.41
384.97	1041.54
385.17	1146.86
385.36	1128.14
385.56	1130.48
385.75	1114.10
385.95	1205.38
386.14	1277.93
386.34	1219.42
386.53	1219.42
386.72	1151.54
386.92	1224.10
387.11	1261.55
387.31	1256.87
387.50	1261.55
387.70	1256.87
387.89	1268.57
388.09	1266.23
388.28	1266.23
388.48	1329.42
388.67	1373.89
388.86	1404.32
389.06	1352.83
389.25	1315.38
389.45	1268.57
389.64	1259.21
389.84	1420.71
390.03	1383.26
390.22	1364.53
390.42	1306.02
390.61	1366.87
390.81	1336.45
391.00	1392.62
391.19	1472.20
391.39	1469.86
391.58	1451.13
391.78	1495.60
391.97	1472.20
392.16	1472.20
392.36	1476.88
392.55	1460.49
392.75	1575.18
392.94	1516.67
393.13	1469.86
393.33	1472.20
393.52	1591.56
393.71	1500.28
393.91	1614.97
394.10	1556.46
394.29	1593.90
394.49	1593.90
394.68	1633.69
394.88	1523.69
395.07	1680.50
395.26	1629.01
395.46	1678.16
395.65	1778.81
395.84	1659.44
396.04	1748.38
396.23	1713.27
396.42	1699.23
396.62	1762.42
396.81	1713.27
397.00	1764.76
397.19	1853.70
397.39	1851.36
397.58	1865.41
397.77	1802.21
397.97	1863.07
398.16	1837.32
398.35	1963.71
398.55	1776.47
398.74	1909.88
398.93	1944.99
399.12	1895.83
399.32	1942.64
399.51	1977.75
399.70	1984.77
399.90	1963.71
400.09	2083.08
400.28	2083.08
400.47	2036.27
400.67	2099.46
400.86	2190.74
401.05	1940.30
401.24	2076.06
401.44	2129.89
401.63	2139.25
401.82	2120.53
402.01	2099.46
402.21	2172.02
402.40	2193.08
402.59	2197.76
402.78	2150.95
402.97	2242.23
403.17	2232.87
403.36	2232.87
403.55	2249.25
403.74	2335.85
403.93	2349.90
404.13	2483.31
404.32	2434.16
404.51	2361.60
404.70	2410.75
404.89	2296.07
405.09	2438.84
405.28	2455.22
405.47	2534.80
405.66	2492.67
405.85	2572.25
406.05	2495.01
406.24	2497.35
406.43	2539.48
406.62	2703.32
406.81	2619.06
407.00	2574.59
407.20	2509.05
407.39	2583.95
407.58	2693.96
407.77	2785.24
407.96	2768.85
408.15	2759.49
408.34	2771.19
408.54	2801.62
408.73	2846.09
408.92	2801.62
409.11	2803.96
409.30	2813.32
409.49	2825.03
409.68	2928.01
409.87	2965.46
410.07	2890.56
410.26	3105.89
410.45	2951.42
410.64	3030.99
410.83	3108.23
411.02	3206.53
411.21	3143.34
411.40	3176.11
411.59	3330.58
411.78	3234.62
411.98	3243.98
412.17	3335.26
412.36	3363.35
412.55	3339.94
412.74	3447.61
412.93	3538.89
413.12	3232.28
413.31	3515.48
413.50	3564.64
413.69	3510.80
413.88	3662.94
414.07	3599.74
414.26	3779.97
414.45	3688.68
414.64	3676.98
414.83	3728.47
415.02	3763.58
415.22	3852.52
415.41	3908.69
415.60	3911.04
415.79	4053.81
415.98	4039.76
416.17	3985.93
416.36	3915.72
416.55	3957.85
416.74	3948.48
416.93	4168.49
417.12	4170.83
417.31	4182.54
417.50	4241.05
417.69	4355.74
417.88	4173.18
418.07	4308.93
418.26	4374.46
418.45	4461.06
418.64	4409.57
418.83	4313.61
419.02	4381.48
419.21	4496.17
419.39	4528.94
419.58	4447.02
419.77	4470.42
419.96	4571.07
420.15	4599.15
420.34	4603.83
420.53	4648.30
420.72	4910.44
420.91	4823.84
421.10	4772.35
421.29	4807.46
421.48	4814.48
421.67	4704.48
421.86	4798.10
422.05	4854.27
422.24	4671.71
422.43	4908.10
422.61	5015.77
422.80	5020.45
422.99	4856.61
423.18	4840.23
423.37	5078.96
423.56	4837.89
423.75	4961.94
423.94	4882.36
424.13	4655.33
424.32	4884.70
424.50	5027.47
424.69	5053.22
424.88	5160.88
425.07	5071.94
425.26	5041.51
425.45	5109.39
425.64	4987.68
425.83	5060.24
426.01	4961.94
426.20	4999.38
426.39	5020.45
426.58	5186.63
426.77	5121.09
426.96	5088.32
427.15	5181.95
427.33	5235.78
427.52	5174.92
427.71	5298.97
427.90	5338.76
428.09	5338.76
428.28	5348.12
428.46	5392.59
428.65	5425.36
428.84	5533.03
429.03	5565.79
429.22	5193.65
429.40	5432.38
429.59	5504.94
429.78	5224.08
429.97	5336.42
430.16	5504.94
430.34	5636.01
430.53	5572.82
430.72	5650.05
430.91	5614.95
431.10	5397.28
431.28	5834.96
431.47	5636.01
431.66	5879.43
431.85	5867.72
432.03	5881.77
432.22	5872.40
432.41	5912.19
432.60	5987.09
432.79	5898.15
432.97	6118.16
433.16	6029.22
433.35	6069.01
433.54	5987.09
433.72	6153.27
433.91	6134.54
434.10	6045.60
434.28	6164.97
434.47	6370.94
434.66	6389.66
434.85	6179.01
435.03	6340.51
435.22	6277.32
435.41	6392.00
435.59	6415.41
435.78	6574.56
435.97	6256.25
436.16	6394.34
436.34	6483.28
436.53	6296.04
436.72	6534.78
436.90	6406.05
437.09	6644.78
437.28	6583.93
437.46	6604.99
437.65	6619.04
437.84	6747.76
438.02	6942.03
438.21	6724.36
438.40	6773.51
438.58	7087.14
438.77	7119.91
438.96	6970.12
439.14	7232.26
439.33	7150.34
439.52	7304.81
439.70	7325.88
439.89	7269.70
440.08	7494.40
440.26	7339.92
440.45	7419.50
440.63	7321.20
440.82	7651.21
441.01	7590.36
441.19	7693.34
441.38	7831.43
441.57	7768.24
441.75	7955.48
441.94	7946.12
442.12	7971.86
442.31	8102.93
442.50	8107.62
442.68	7922.71
442.87	7974.21
443.05	7999.95
443.24	8067.83
443.43	8128.68
443.61	8063.15
443.80	8259.75
443.98	8056.12
444.17	7770.58
444.35	8294.86
444.54	8421.25
444.73	8402.52
444.91	8269.11
445.10	8290.18
445.28	8325.29
445.47	8278.47
445.65	8507.85
445.84	8304.22
446.02	8456.36
446.21	8437.63
446.39	8454.02
446.58	8617.85
446.77	8498.49
446.95	8173.15
447.14	8362.73
447.32	8547.64
447.51	8339.33
447.69	8503.17
447.88	8568.70
448.06	8662.32
448.25	8674.03
448.43	8545.30
448.62	8582.74
448.80	8383.80
448.99	8643.60
449.17	8727.86
449.36	8769.99
449.54	8812.12
449.73	9034.47
449.91	8896.38
450.10	8901.06
450.28	9078.94
450.46	9294.27
450.65	9036.81
450.83	9188.94
451.02	9034.47
451.20	9191.28
451.39	9139.79
451.57	9153.84
451.76	9329.38
451.94	9163.20
452.13	9193.62
452.31	9277.88
452.49	9137.45
452.68	9420.66
452.86	9327.03
453.05	9589.17
453.23	9383.21
453.42	9217.03
453.60	9179.58
453.78	9635.99
453.97	9371.50
454.15	9516.62
454.34	9654.71
454.52	9717.90
454.70	9430.02
454.89	9687.48
455.07	9893.44
455.26	9919.19
455.44	10115.80
455.62	9870.04
455.81	9940.26
455.99	9951.96
456.17	10279.63
456.36	10008.13
456.54	10265.59
456.73	10197.71
456.91	10494.96
457.09	10115.80
457.28	10579.22
457.46	10242.18
457.64	10420.06
457.83	10485.60
458.01	10281.97
458.19	10462.19
458.38	10626.03
458.56	10621.35
458.74	10633.05
458.93	10567.52
459.11	10911.58
459.29	10970.09
459.48	10799.23
459.66	10888.17
459.84	10759.44
460.03	10906.90
460.21	10963.07
460.39	10960.73
460.57	11035.63
460.76	11222.87
460.94	11255.64
461.12	11152.65
461.31	11272.02
461.49	11260.32
461.67	11239.25
461.85	11517.78
462.04	11096.48
462.22	11562.25
462.40	11426.50
462.59	11323.51
462.77	11545.86
462.95	11723.74
463.13	11707.36
463.32	11737.79
463.50	11885.24
463.68	11728.42
463.86	11800.98
464.05	11566.93
464.23	11648.85
464.41	12184.83
464.59	11524.80
464.78	12039.72
464.96	12093.55
465.14	11859.49
465.32	12042.06
465.50	12105.25
465.69	12315.90
465.87	12177.81
466.05	12018.65
466.23	12250.36
466.41	12442.29
466.60	12484.42
466.78	12451.65
466.96	12269.09
467.14	12411.86
467.32	12156.74
467.51	12425.90
467.69	12123.98
467.87	12461.01
468.05	12617.83
468.23	12552.29
468.41	12353.35
468.60	12390.80
468.78	12837.84
468.96	12676.34
469.14	12891.67
469.32	13102.32
469.50	12709.11
469.69	12858.90
469.87	13401.91
470.05	13125.72
470.23	13256.79
470.41	13146.79
470.59	13336.37
470.77	13205.30
470.95	13207.64
471.14	13610.22
471.32	13224.03
471.50	13554.04
471.68	13439.36
471.86	13514.25
472.04	13657.03
472.22	13991.72
472.40	13671.07
472.58	13862.99
472.77	14115.77
472.95	14235.14
473.13	14581.54
473.31	14207.05
473.49	14244.50
473.67	14221.10
473.85	14462.17
474.03	14370.89
474.21	14621.33
474.39	14618.99
474.57	14794.53
474.75	14951.34
474.93	14831.97
475.12	14974.75
475.30	15019.22
475.48	15066.03
475.66	15225.18
475.84	15201.78
476.02	15346.89
476.20	15358.60
476.38	15688.61
476.56	16013.95
476.74	16044.37
476.92	16027.99
477.10	15978.84
477.28	16219.91
477.46	16339.28
477.64	16376.73
477.82	16767.60
478.00	17027.40
478.18	16676.32
478.36	16901.01
478.54	17102.29
478.72	17497.84
478.90	17467.42
479.08	17511.89
479.26	17706.15
479.44	17680.41
479.62	17837.22
479.80	18111.07
479.98	18373.21
480.16	18466.83
480.34	18153.20
480.52	18682.16
480.70	18588.53
480.88	18272.56
481.06	18885.78
481.24	19269.63
481.41	19220.48
481.59	19337.51
481.77	19517.73
481.95	19611.35
482.13	19803.27
482.31	19873.49
482.49	20341.60
482.67	20339.26
482.85	20566.29
483.03	20472.67
483.21	20819.07
483.39	21088.23
483.57	20905.66
483.74	21308.24
483.92	21249.72
484.10	21392.50
484.28	21834.86
484.46	22403.61
484.64	22363.82
484.82	21958.91
485.00	22178.92
485.18	22918.53
485.35	23084.70
485.53	22504.25
485.71	22909.16
485.89	23672.18
486.07	23496.64
486.25	23576.22
486.43	23501.32
486.61	23702.61
486.78	24369.66
486.96	24549.88
487.14	24786.27
487.32	24507.75
487.50	25029.69
487.68	24821.38
487.85	25495.46
488.03	25713.13
488.21	26153.15
488.39	26003.35
488.57	26052.50
488.75	26340.39
488.92	26625.93
489.10	26614.23
489.28	26874.03
489.46	27021.48
489.64	27084.68
489.81	27960.04
489.99	27557.47
490.17	27985.79
490.35	28374.31
490.53	28517.09
490.70	28414.10
490.88	28512.41
491.06	29053.07
491.24	28978.17
491.41	29074.13
491.59	29186.48
491.77	29411.17
491.95	29724.80
492.13	30206.95
492.30	29902.68
492.48	29898.00
492.66	30459.73
492.84	30345.05
493.01	30700.81
493.19	30834.22
493.37	31180.62
493.54	31194.66
493.72	31283.60
493.90	31328.07
494.08	31697.88
494.25	32247.90
494.43	32278.33
494.61	32381.31
494.79	32500.68
494.96	32732.39
495.14	32898.57
495.32	33263.69
495.49	33476.68
495.67	33479.02
495.85	33462.64
496.02	34146.08
496.20	34157.78
496.38	33942.45
496.55	34103.95
496.73	34684.40
496.91	35040.16
497.09	35082.29
497.26	35154.85
497.44	34754.61
497.62	35637.00
497.79	35899.14
497.97	35431.03
498.14	35496.56
498.32	36566.19
498.50	36048.93
498.67	36741.73
498.85	36259.58
499.03	36917.27
499.20	36566.19
499.38	37212.18
499.56	37404.10
499.73	36767.48
499.91	37174.73
500.08	37708.37
500.26	37682.62
500.44	37542.19
500.61	38227.97
500.79	37699.01
500.97	38288.82
501.14	38761.61
501.32	37991.58
501.49	38813.10
501.67	38553.30
501.84	39089.29
502.02	38923.11
502.20	39676.76
502.37	39012.05
502.55	39042.48
502.72	39438.03
502.90	39789.11
503.07	39793.79
503.25	39824.22
503.43	39821.87
503.60	40362.54
503.78	40477.22
503.95	40133.17
504.13	40617.66
504.30	40587.23
504.48	40732.34
504.65	40687.87
504.83	40664.47
505.01	41406.42
505.18	41619.41
505.36	41605.36
505.53	41404.08
505.71	41635.79
505.88	41867.50
506.06	41422.80
506.23	42033.68
506.41	42672.65
506.58	42164.75
506.76	42263.05
506.93	42590.73
507.11	42511.15
507.28	42789.67
507.46	43269.48
507.63	43208.63
507.81	43318.64
507.98	43290.55
508.16	43304.59
508.33	43372.47
508.50	43466.09
508.68	43901.43
508.85	44102.71
509.03	44357.83
509.20	44332.09
509.38	44622.31
509.55	44945.31
509.73	44421.03
509.90	44935.95
510.08	44657.42
510.25	44985.10
510.42	44781.47
510.60	45010.84
510.77	45223.83
510.95	45242.56
511.12	45102.12
511.30	45024.89
511.47	45780.88
511.64	45780.88
511.82	46279.41
511.99	45745.77
512.17	46153.02
512.34	46263.03
512.51	46305.16
512.69	46665.60
512.86	46436.23
513.04	47208.61
513.21	46539.21
513.38	46855.18
513.56	47122.01
513.73	46679.64
513.90	47089.24
514.08	47037.75
514.25	47337.33
514.43	47503.51
514.60	47388.83
514.77	47601.82
514.95	48020.77
515.12	47529.26
515.29	48086.31
515.47	47870.98
515.64	48165.88
515.81	47763.31
515.99	48392.92
516.16	48449.09
516.33	48500.58
516.51	48507.60
516.68	48896.13
516.85	48439.73
517.03	49162.95
517.20	49219.13
517.37	48882.09
517.54	48980.39
517.72	48619.95
517.89	49380.62
518.06	49298.70
518.24	49289.34
518.41	49277.64
518.58	49614.68
518.75	49235.51
518.93	49785.54
519.10	49516.37
519.27	50082.78
519.45	49595.95
519.62	50145.98
519.79	49911.92
519.96	50312.16
520.14	50415.14
520.31	50040.65
520.48	50663.24
520.65	50564.93
520.83	50923.04
521.00	50887.93
521.17	50733.45
521.34	50803.67
521.52	51056.45
521.69	50974.53
521.86	51140.71
522.03	51194.54
522.20	51538.60
522.38	51473.06
522.55	51388.80
522.72	51686.05
522.89	51573.70
523.07	51653.28
523.24	51508.17
523.41	51817.12
523.58	51744.56
523.75	51777.33
523.92	51604.13
524.10	51938.83
524.27	52198.63
524.44	52229.05
524.61	52041.81
524.78	52458.43
524.96	52004.36
525.13	52275.87
525.30	52729.93
525.47	52535.66
525.64	52741.63
525.81	52842.27
525.98	52694.82
526.16	52725.25
526.33	52493.54
526.50	53043.56
526.67	52790.78
526.84	52989.73
527.01	52905.47
527.18	52935.90
527.36	52832.91
527.53	52797.80
527.70	53310.38
527.87	53771.47
528.04	53249.53
528.21	53455.50
528.38	53315.06
528.55	53551.46
528.72	53497.62
528.89	53757.42
529.07	53404.00
529.24	53764.45
529.41	54005.52
529.58	53698.91
529.75	53853.39
529.92	53783.17
530.09	53982.12
530.26	54059.35
530.43	54157.66
530.60	53879.13
530.77	54073.40
530.94	54138.93
531.11	54291.07
531.28	54368.30
531.46	54368.30
531.63	54419.80
531.80	54258.30
531.97	54712.36
532.14	54878.54
532.31	54578.95
532.48	54672.57
532.65	54820.03
532.82	54478.31
532.99	55033.02
533.16	54752.15
533.33	54784.92
533.50	55150.04
533.67	54843.43
533.84	54585.97
534.01	55065.78
534.18	55119.62
534.35	55269.41
534.52	55250.69
534.69	55215.58
534.86	55325.58
535.03	54979.18
535.20	55414.52
535.37	55192.17
535.54	55571.34
535.71	55391.12
535.88	55463.67
536.05	55758.58
536.22	55730.50
536.38	55688.37
536.55	55758.58
536.72	55686.03
536.89	55580.70
537.06	55653.26
537.23	55671.98
537.40	55606.45
537.57	55749.22
537.74	55737.52
537.91	56027.74
538.08	55927.10
538.25	55709.43
538.42	56044.13
538.59	56051.15
538.75	55889.65
538.92	56163.50
539.09	56203.28
539.26	56079.24
539.43	56123.71
539.60	56437.34
539.77	56444.36
539.94	56589.47
540.11	56395.21
540.28	56608.20
540.44	56456.06
540.61	56334.35
540.78	56463.08
540.95	56205.62
541.12	56322.65
541.29	56692.46
541.46	56563.73
541.62	56739.27
541.79	56687.78
541.96	56638.62
542.13	56640.96
542.30	56683.09
542.47	56952.26
542.63	56750.97
542.80	56919.49
542.97	57146.52
543.14	57338.44
543.31	57223.76
543.48	57226.10
543.64	57413.34
543.81	57513.98
543.98	57354.83
544.15	57413.34
544.32	57420.36
544.48	57649.74
544.65	57455.47
544.82	57443.77
544.99	57291.63
545.16	57467.17
545.32	57406.32
545.49	57506.96
545.66	57593.56
545.83	57659.10
546.00	57858.04
546.16	57799.53
546.33	57670.80
546.50	57490.58
546.67	57581.86
546.83	57783.15
547.00	57991.45
547.17	57626.33
547.34	57890.81
547.50	57951.66
547.67	57989.11
547.84	58209.12
548.00	58143.59
548.17	58302.74
548.34	58183.38
548.51	58216.14
548.67	58145.93
548.84	58419.77
549.01	58206.78
549.18	58279.34
549.34	58309.77
549.51	58354.24
549.68	58499.35
549.84	58335.51
550.01	58597.65
550.18	58387.00
550.34	58555.52
550.51	58504.03
550.68	58431.47
550.84	58394.03
551.01	58702.98
551.18	58382.32
551.34	58707.66
551.51	58506.37
551.68	58564.88
551.84	58553.18
552.01	58597.65
552.18	58838.73
552.34	58578.93
552.51	58693.61
552.68	58618.72
552.84	58597.65
553.01	59161.72
553.18	58899.58
553.34	59061.08
553.51	58857.45
553.67	59131.29
553.84	59044.69
554.01	58983.84
554.17	58976.82
554.34	59159.38
554.51	59068.10
554.67	59150.02
554.84	59103.21
555.00	58955.75
555.17	59192.15
555.33	59196.83
555.50	58948.73
555.67	59014.27
555.83	59061.08
556.00	59381.73
556.16	59501.10
556.33	59238.96
556.50	59281.09
556.66	59355.99
556.83	59215.55
556.99	59451.95
557.16	59714.09
557.32	59660.26
557.49	59697.70
557.65	59398.12
557.82	59526.84
557.98	59508.12
558.15	59496.42
558.32	59704.73
558.48	59353.65
558.65	59524.50
558.81	59367.69
558.98	59760.90
559.14	59760.90
559.31	59805.37
559.47	59606.42
559.64	59906.01
559.80	59842.82
559.97	59840.48
560.13	59578.34
560.30	59807.71
560.46	59686.00
560.63	60030.06
560.79	59894.31
560.96	59957.50
561.12	60041.76
561.29	59622.81
561.45	59803.03
561.61	59901.33
561.78	59948.14
561.94	59971.55
562.11	59807.71
562.27	60009.00
562.44	59915.37
562.60	60172.83
562.77	59985.59
562.93	60016.02
563.10	60093.25
563.26	59994.95
563.42	60491.15
563.59	60219.64
563.75	60100.28
563.92	60231.35
564.08	60165.81
564.24	60154.11
564.41	60081.55
564.57	60350.71
564.74	60362.42
564.90	60109.64
565.07	60006.65
565.23	60111.98
565.39	60231.35
565.56	60275.82
565.72	60207.94
565.88	60254.75
566.05	60154.11
566.21	60137.72
566.38	60289.86
566.54	60331.99
566.70	60416.25
566.87	60470.08
567.03	60240.71
567.19	60526.25
567.36	60402.21
567.52	60214.96
567.68	60685.41
567.85	60608.17
568.01	60420.93
568.17	60392.84
568.34	60458.38
568.50	60530.93
568.66	60341.35
568.83	60367.10
568.99	60409.23
569.15	60512.21
569.32	60458.38
569.48	60526.25
569.64	60587.11
569.81	60423.27
569.97	60697.11
570.13	60547.32
570.30	60406.89
570.46	60523.91
570.62	60559.02
570.78	60505.19
570.95	60399.86
571.11	60685.41
571.27	60643.28
571.43	60509.87
571.60	60699.45
571.76	60514.55
571.92	60676.05
572.09	60816.48
572.25	60809.46
572.41	60650.30
572.57	60697.11
572.74	60914.78
572.90	60767.33
573.06	60706.47
573.22	60575.40
573.38	60860.95
573.55	60715.84
573.71	60889.04
573.87	60811.80
574.03	60509.87
574.20	60643.28
574.36	60533.28
574.52	60736.90
574.68	60842.23
574.84	60945.21
575.01	60772.01
575.17	60783.71
575.33	60598.81
575.49	60615.19
575.65	60879.67
575.82	60928.83
575.98	60977.98
576.14	60963.93
576.30	60926.49
576.46	60671.37
576.62	60893.72
576.79	60940.53
576.95	60690.09
577.11	60743.92
577.27	60917.12
577.43	60818.82
577.59	60900.74
577.75	60690.09
577.92	60996.70
578.08	60795.42
578.24	60975.64
578.40	61113.73
578.56	60999.04
578.72	60865.63
578.88	60985.00
579.04	61137.13
579.21	61085.64
579.37	61127.77
579.53	61045.85
579.69	60828.18
579.85	60863.29
580.01	61017.77
580.17	60874.99
580.33	60977.98
580.49	60921.80
580.65	60917.12
580.82	60781.37
580.98	60945.21
581.14	60893.72
581.30	61127.77
581.46	61158.20
581.62	60996.70
581.78	60982.66
581.94	61003.72
582.10	61106.71
582.26	60996.70
582.42	60804.78
582.58	61055.21
582.74	60874.99
582.90	60856.27
583.06	61003.72
583.22	60973.30
583.38	61015.43
583.54	61113.73
583.70	61071.60
583.86	60811.80
584.02	61027.13
584.18	61031.81
584.34	61027.13
584.50	61120.75
584.66	60945.21
584.82	60676.05
584.98	61237.78
585.14	61118.41
585.30	61125.43
585.46	61064.58
585.62	61083.30
585.78	61251.82
585.94	60980.32
586.10	61127.77
586.26	61272.88
586.42	60973.30
586.58	61249.48
586.74	61200.33
586.90	61172.24
587.06	61167.56
587.22	61029.47
587.38	61106.71
587.54	61176.92
587.70	61270.54
587.86	61076.28
588.02	61167.56
588.18	61329.06
588.34	60903.08
588.49	61258.84
