SpectraSuite Data File
++++++++++++++++++++++++++++++++++++
Date: Fri Oct 25 11:33:49 EDT 2013
User: price-jones
Dark Spectrum Present: No
Reference Spectrum Present: No
Number of Sampled Component Spectra: 1
Spectrometers: USB2+H05261
Integration Time (usec): 100000 (USB2+H05261)
Spectra Averaged: 1 (USB2+H05261)
Boxcar Smoothing: 0 (USB2+H05261)
Correct for Electrical Dark: No (USB2+H05261)
Strobe/Lamp Enabled: No (USB2+H05261)
Correct for Detector Non-linearity: No (USB2+H05261)
Correct for Stray Light: No (USB2+H05261)
Number of Pixels in Processed Spectrum: 2048
>>>>>Begin Processed Spectral Data<<<<<
365.73	245.76
365.92	245.76
366.12	245.76
366.32	177.88
366.52	168.52
366.72	163.84
366.91	145.11
367.11	142.77
367.31	222.35
367.51	145.11
367.70	140.43
367.90	210.65
368.10	102.98
368.30	194.26
368.49	187.24
368.69	257.46
368.89	227.03
369.09	147.45
369.28	215.33
369.48	184.90
369.68	222.35
369.87	271.50
370.07	208.31
370.27	325.33
370.47	224.69
370.66	514.92
370.86	503.22
371.06	484.49
371.25	585.13
371.45	599.18
371.65	594.50
371.84	533.64
372.04	587.47
372.24	582.79
372.44	526.62
372.63	571.09
372.83	606.20
373.03	744.29
373.22	599.18
373.42	657.69
373.62	587.47
373.81	650.67
374.01	608.54
374.21	648.33
374.40	683.44
374.60	741.95
374.79	592.16
374.99	610.88
375.19	596.84
375.38	641.31
375.58	669.39
375.78	674.07
375.97	645.99
376.17	660.03
376.37	660.03
376.56	671.73
376.76	674.07
376.95	737.27
377.15	603.86
377.35	620.24
377.54	718.54
377.74	690.46
377.93	767.70
378.13	636.63
378.33	676.41
378.52	725.57
378.72	746.63
378.91	624.92
379.11	744.29
379.31	617.90
379.50	620.24
379.70	699.82
379.89	765.36
380.09	678.76
380.28	709.18
380.48	692.80
380.68	732.59
380.87	798.12
381.07	765.36
381.26	849.61
381.46	723.23
381.65	718.54
381.85	763.01
382.04	788.76
382.24	763.01
382.43	835.57
382.63	788.76
382.83	795.78
383.02	802.80
383.22	844.93
383.41	716.20
383.61	800.46
383.80	812.17
384.00	830.89
384.19	884.72
384.39	847.27
384.58	812.17
384.78	868.34
384.97	849.61
385.17	795.78
385.36	823.87
385.56	809.83
385.75	851.96
385.95	835.57
386.14	856.64
386.34	851.96
386.53	880.04
386.72	814.51
386.92	866.00
387.11	791.10
387.31	856.64
387.50	896.43
387.70	922.17
387.89	971.32
388.09	896.43
388.28	954.94
388.48	887.06
388.67	931.53
388.86	947.92
389.06	987.71
389.25	961.96
389.45	973.66
389.64	922.17
389.84	856.64
390.03	999.41
390.22	968.98
390.42	987.71
390.61	952.60
390.81	959.62
391.00	1022.81
391.19	1055.58
391.39	947.92
391.58	1036.86
391.78	924.51
391.97	1018.13
392.16	983.02
392.36	1013.45
392.55	1004.09
392.75	990.05
392.94	1074.31
393.13	1090.69
393.33	1055.58
393.52	1050.90
393.71	1071.97
393.91	1107.07
394.10	994.73
394.29	1050.90
394.49	1111.75
394.68	1020.47
394.88	1158.57
395.07	1163.25
395.26	1200.69
395.46	1135.16
395.65	1196.01
395.84	1205.38
396.04	1266.23
396.23	1193.67
396.42	1104.73
396.62	1198.35
396.81	1231.12
397.00	1207.72
397.19	1299.00
397.39	1296.66
397.58	1142.18
397.77	1207.72
397.97	1167.93
398.16	1207.72
398.35	1306.02
398.55	1287.29
398.74	1294.32
398.93	1261.55
399.12	1294.32
399.32	1317.72
399.51	1397.30
399.70	1399.64
399.90	1376.24
400.09	1383.26
400.28	1364.53
400.47	1453.47
400.67	1420.71
400.86	1324.74
401.05	1418.36
401.24	1385.60
401.44	1439.43
401.63	1481.56
401.82	1516.67
402.01	1483.90
402.21	1458.15
402.40	1511.99
402.59	1479.22
402.78	1430.07
402.97	1554.12
403.17	1570.50
403.36	1460.49
403.55	1563.48
403.74	1446.45
403.93	1605.61
404.13	1600.93
404.32	1685.19
404.51	1502.62
404.70	1636.03
404.89	1575.18
405.09	1722.63
405.28	1720.29
405.47	1645.40
405.66	1645.40
405.85	1729.66
406.05	1675.82
406.24	1834.98
406.43	1792.85
406.62	1741.36
406.81	1870.09
407.00	1722.63
407.20	1792.85
407.39	1762.42
407.58	1856.04
407.77	1919.24
407.96	1900.52
408.15	1916.90
408.34	1853.70
408.54	2036.27
408.73	1912.22
408.92	1856.04
409.11	2057.33
409.30	1898.17
409.49	1947.33
409.68	2005.84
409.87	1891.15
410.07	1949.67
410.26	1954.35
410.45	2073.71
410.64	2054.99
410.83	2207.13
411.02	2200.10
411.21	2183.72
411.40	2169.68
411.59	2183.72
411.78	2202.44
411.98	2179.04
412.17	2223.51
412.36	2209.47
412.55	2352.24
412.74	2275.00
412.93	2270.32
413.12	2284.36
413.31	2441.18
413.50	2324.15
413.69	2363.94
413.88	2499.69
414.07	2452.88
414.26	2633.10
414.45	2562.89
414.64	2534.80
414.83	2520.76
415.02	2466.92
415.22	2719.70
415.41	2698.64
415.60	2668.21
415.79	2607.36
415.98	2696.30
416.17	2731.41
416.36	2630.76
416.55	2719.70
416.74	2796.94
416.93	2761.83
417.12	2771.19
417.31	2841.41
417.50	2827.37
417.69	2857.79
417.88	2885.88
418.07	2935.03
418.26	2944.39
418.45	2986.52
418.64	2965.46
418.83	3059.08
419.02	3178.45
419.21	3056.74
419.39	3145.68
419.58	3087.17
419.77	3075.46
419.96	3178.45
420.15	3197.17
420.34	3061.42
420.53	3192.49
420.72	3269.73
420.91	3176.11
421.10	3290.79
421.29	3323.56
421.48	3164.40
421.67	3323.56
421.86	3391.44
422.05	3375.05
422.24	3309.52
422.43	3227.60
422.61	3433.57
422.80	3538.89
422.99	3276.75
423.18	3431.23
423.37	3461.65
423.56	3283.77
423.75	3410.16
423.94	3157.38
424.13	3248.66
424.32	3222.92
424.50	3513.14
424.69	3417.18
424.88	3391.44
425.07	3332.92
425.26	3393.78
425.45	3375.05
425.64	3445.27
425.83	3489.74
426.01	3452.29
426.20	3435.91
426.39	3492.08
426.58	3396.12
426.77	3335.26
426.96	3510.80
427.15	3681.66
427.33	3574.00
427.52	3503.78
427.71	3548.25
427.90	3648.90
428.09	3665.28
428.28	3667.62
428.46	3784.65
428.65	3660.60
428.84	3723.79
429.03	3751.88
429.22	3770.60
429.40	3733.15
429.59	3756.56
429.78	3735.50
429.97	3648.90
430.16	3810.39
430.34	3964.87
430.53	3941.46
430.72	3892.31
430.91	3875.93
431.10	3850.18
431.28	4030.40
431.47	3983.59
431.66	4007.00
431.85	3880.61
432.03	4049.13
432.22	3974.23
432.41	3941.46
432.60	4046.79
432.79	4212.96
432.97	4198.92
433.16	4014.02
433.35	4159.13
433.54	4222.33
433.72	4276.16
433.91	4236.37
434.10	4128.70
434.28	4147.43
434.47	4227.01
434.66	4372.12
434.85	4365.10
435.03	4461.06
435.22	4355.74
435.41	4435.32
435.59	4318.29
435.78	4379.14
435.97	4421.27
436.16	4409.57
436.34	4397.87
436.53	4430.63
436.72	4360.42
436.90	4456.38
437.09	4634.26
437.28	4447.02
437.46	4472.76
437.65	4627.24
437.84	4550.00
438.02	4636.60
438.21	4748.95
438.40	4559.36
438.58	4725.54
438.77	4774.69
438.96	4842.57
439.14	4828.53
439.33	4971.30
439.52	4891.72
439.70	5081.30
439.89	5074.28
440.08	5142.16
440.26	5036.83
440.45	5097.69
440.63	5242.80
440.82	5247.48
441.01	5163.22
441.19	5015.77
441.38	5219.39
441.57	5191.31
441.75	5282.59
441.94	5329.40
442.12	5310.68
442.31	5439.40
442.50	5526.00
442.68	5413.66
442.87	5614.95
443.05	5434.72
443.24	5565.79
443.43	5516.64
443.61	5455.79
443.80	5813.89
443.98	5451.11
444.17	5163.22
444.35	5621.97
444.54	5605.58
444.73	5518.98
444.91	5617.29
445.10	5640.69
445.28	5556.43
445.47	5624.31
445.65	5710.91
445.84	5628.99
446.02	5809.21
446.21	5741.33
446.39	5806.87
446.58	5750.70
446.77	5806.87
446.95	5678.14
447.14	5774.10
447.32	5760.06
447.51	5865.38
447.69	5750.70
447.88	5762.40
448.06	5919.21
448.25	5914.53
448.43	5891.13
448.62	5912.19
448.80	5867.72
448.99	5841.98
449.17	5827.93
449.36	5886.45
449.54	6024.54
449.73	6148.59
449.91	6069.01
450.10	6171.99
450.28	6092.41
450.46	6228.17
450.65	6054.97
450.83	6052.63
451.02	5944.96
451.20	6057.31
451.39	6193.06
451.57	6080.71
451.76	6164.97
451.94	6134.54
452.13	6235.19
452.31	6408.39
452.49	6232.85
452.68	6399.02
452.86	6225.82
453.05	6305.40
453.23	6424.77
453.42	6186.04
453.60	6263.27
453.78	6469.24
453.97	6403.71
454.15	6377.96
454.34	6403.71
454.52	6516.05
454.70	6448.18
454.89	6509.03
455.07	6633.08
455.26	6679.89
455.44	6630.74
455.62	6719.68
455.81	6787.55
455.99	6949.05
456.17	6747.76
456.36	6722.02
456.54	6890.54
456.73	6810.96
456.91	7040.33
457.09	7236.94
457.28	7115.23
457.46	7068.42
457.64	7178.42
457.83	7173.74
458.01	6876.49
458.19	7194.81
458.38	7075.44
458.56	7173.74
458.74	7248.64
458.93	7187.79
459.11	7339.92
459.29	7300.13
459.48	7239.28
459.66	7208.85
459.84	7283.75
460.03	7353.96
460.21	7286.09
460.39	7360.98
460.57	7410.14
460.76	7382.05
460.94	7480.35
461.12	7482.69
461.31	7702.70
461.49	7342.26
461.67	7688.66
461.85	7737.81
462.04	7485.03
462.22	8152.09
462.40	7737.81
462.59	7707.38
462.77	7756.54
462.95	7676.96
463.13	7920.37
463.32	7868.88
463.50	7936.76
463.68	7955.48
463.86	7985.91
464.05	7819.73
464.23	7906.33
464.41	8074.85
464.59	7768.24
464.78	8145.06
464.96	8006.97
465.14	7882.92
465.32	8042.08
465.50	8219.96
465.69	8222.30
465.87	8208.26
466.05	8079.53
466.23	8042.08
466.41	8093.57
466.60	8290.18
466.78	8142.72
466.96	8198.90
467.14	8348.69
467.32	8360.39
467.51	8505.51
467.69	8238.69
467.87	8437.63
468.05	8386.14
468.23	8425.93
468.41	8369.76
468.60	8498.49
468.78	8409.54
468.96	8489.12
469.14	8627.21
469.32	8638.92
469.50	8430.61
469.69	8814.46
469.87	8573.38
470.05	8781.69
470.23	8732.54
470.41	8777.01
470.59	8837.86
470.77	8990.00
470.95	8720.84
471.14	8929.14
471.32	8814.46
471.50	9053.19
471.68	9039.15
471.86	9212.35
472.04	9221.71
472.22	9298.95
472.40	9132.77
472.58	9081.28
472.77	9308.31
472.95	9650.03
473.13	9570.45
473.31	9378.53
473.49	9455.76
473.67	9432.36
473.85	9518.96
474.03	9708.54
474.21	9654.71
474.39	9961.32
474.57	9776.42
474.75	9930.89
474.93	9898.13
475.12	9727.27
475.30	9968.34
475.48	10059.62
475.66	9973.02
475.84	10155.58
476.02	10169.63
476.20	10218.78
476.38	10281.97
476.56	10626.03
476.74	10698.59
476.92	10347.51
477.10	10375.59
477.28	10569.86
477.46	10707.95
477.64	10925.62
477.82	10925.62
478.00	11042.65
478.18	11009.88
478.36	11288.40
478.54	11323.51
478.72	11126.91
478.90	11435.86
479.08	11676.93
479.26	11695.66
479.44	11655.87
479.62	11822.05
479.80	11997.59
479.98	12063.12
480.16	12318.24
480.34	12201.21
480.52	12386.12
480.70	12245.68
480.88	12051.42
481.06	12201.21
481.24	12397.82
481.41	12592.08
481.59	12601.44
481.77	12697.41
481.95	12704.43
482.13	12865.92
482.31	12989.97
482.49	13469.78
482.67	13305.95
482.85	13172.54
483.03	13540.00
483.21	13823.20
483.39	13729.58
483.57	13598.51
483.74	13935.55
483.92	13916.83
484.10	14092.37
484.28	14185.99
484.46	14398.98
484.64	14885.81
484.82	14277.27
485.00	14792.19
485.18	15136.24
485.35	14937.30
485.53	15105.82
485.71	15133.90
485.89	15426.47
486.07	15267.31
486.25	15552.86
486.43	15363.28
486.61	15536.48
486.78	15646.48
486.96	15892.24
487.14	16042.03
487.32	16187.14
487.50	16475.03
487.68	16690.36
487.85	16521.84
488.03	16681.00
488.21	16926.75
488.39	17015.69
488.57	16931.44
488.75	17352.73
488.92	17582.10
489.10	17256.77
489.28	17671.04
489.46	18075.96
489.64	17921.48
489.81	18221.07
489.99	18242.14
490.17	18333.42
490.35	18417.68
490.53	18483.21
490.70	18848.33
490.88	18412.99
491.06	18824.93
491.24	18759.39
491.41	18829.61
491.59	19232.18
491.77	19325.80
491.95	19524.75
492.13	19393.68
492.30	19517.73
492.48	19356.23
492.66	20130.95
492.84	19887.53
493.01	20156.69
493.19	20025.62
493.37	20259.68
493.54	20442.24
493.72	20629.48
493.90	20507.77
494.08	20805.02
494.25	20690.34
494.43	20702.04
494.61	20912.69
494.79	21345.69
494.96	21062.48
495.14	21315.26
495.32	21568.04
495.49	21867.63
495.67	21640.59
495.85	22029.12
496.02	22141.47
496.20	22171.89
496.38	22562.76
496.55	22169.55
496.73	22909.16
496.91	22436.38
497.09	22565.10
497.26	22909.16
497.44	22888.10
497.62	23199.39
497.79	23477.91
497.97	22888.10
498.14	23583.24
498.32	23592.60
498.50	23775.16
498.67	24046.66
498.85	24051.34
499.03	23988.15
499.20	24215.18
499.38	24170.71
499.56	24397.74
499.73	24374.34
499.91	24299.44
500.08	25017.99
500.26	24652.86
500.44	24891.60
500.61	24678.61
500.79	25046.07
500.97	25352.68
501.14	25413.54
501.32	25357.36
501.49	25282.47
501.67	25495.46
501.84	25591.42
502.02	25649.93
502.20	25895.69
502.37	25649.93
502.55	25617.16
502.72	26052.50
502.90	25757.60
503.07	26015.05
503.25	26302.94
503.43	26167.19
503.60	26178.89
503.78	26223.36
503.95	26120.38
504.13	26426.99
504.30	26459.76
504.48	26675.09
504.65	26710.19
504.83	26759.34
505.01	27096.38
505.18	27091.70
505.36	27363.20
505.53	27138.51
505.71	27267.24
505.88	27215.75
506.06	27552.79
506.23	27407.67
506.41	27431.08
506.58	27316.39
506.76	28177.71
506.93	27637.05
507.11	27978.76
507.28	28327.50
507.46	28353.25
507.63	28467.94
507.81	28528.79
507.98	28032.60
508.16	28491.34
508.33	28535.81
508.50	28538.15
508.68	28954.77
508.85	29003.92
509.03	28912.64
509.20	28840.08
509.38	29090.52
509.55	29509.47
509.73	28687.95
509.90	29364.36
510.08	29237.97
510.25	29612.46
510.42	29572.67
510.60	29907.37
510.77	29874.60
510.95	30146.10
511.12	29724.80
511.30	30015.03
511.47	29914.39
511.64	30136.74
511.82	30277.17
511.99	29928.43
512.17	30162.48
512.34	30644.63
512.51	30518.25
512.69	30906.77
512.86	30881.03
513.04	30824.86
513.21	31140.83
513.38	31515.31
513.56	30937.20
513.73	30979.33
513.90	31243.81
514.08	31112.74
514.25	31749.37
514.43	31522.34
514.60	31562.12
514.77	31470.84
514.95	31637.02
515.12	32044.27
515.29	31538.72
515.47	31873.42
515.64	31747.03
515.81	32070.02
515.99	32264.28
516.16	32158.96
516.33	32084.06
516.51	32414.08
516.68	32425.78
516.85	32442.17
517.03	32694.94
517.20	32320.46
517.37	32802.61
517.54	32432.80
517.72	32893.89
517.89	32730.05
518.06	32811.97
518.24	32727.71
518.41	32879.85
518.58	33113.90
518.75	32797.93
518.93	33495.41
519.10	33266.03
519.27	33390.08
519.45	33406.47
519.62	33504.77
519.79	34031.39
519.96	33790.31
520.14	33972.88
520.31	33764.57
520.48	34059.48
520.65	33706.05
520.83	34522.90
521.00	34169.48
521.17	34258.42
521.34	34160.12
521.52	34546.31
521.69	34448.00
521.86	34771.00
522.03	34550.99
522.20	34366.09
522.38	35278.89
522.55	34967.60
522.72	35026.12
522.89	35168.89
523.07	35562.10
523.24	35311.66
523.41	35679.13
523.58	35166.55
523.75	35573.80
523.92	35292.94
524.10	36016.16
524.27	35756.36
524.44	35786.79
524.61	35660.40
524.78	35824.24
524.96	36093.40
525.13	36130.85
525.30	36299.37
525.47	36409.37
525.64	35632.32
525.81	36163.62
525.98	36336.82
526.16	35688.49
526.33	36252.56
526.50	36744.07
526.67	36278.30
526.84	36350.86
527.01	36229.15
527.18	36521.72
527.36	37001.53
527.53	36739.39
527.70	37221.54
527.87	37134.94
528.04	37038.98
528.21	37083.45
528.38	37366.65
528.55	37446.23
528.72	37127.92
528.89	36760.45
529.07	37195.79
529.24	36952.38
529.41	37191.11
529.58	37256.65
529.75	37523.47
529.92	37684.97
530.09	37418.14
530.26	37596.03
530.43	37799.65
530.60	37720.07
530.77	37699.01
530.94	38345.00
531.11	37614.75
531.28	38171.80
531.46	38099.24
531.63	37951.79
531.80	37900.29
531.97	38335.63
532.14	38667.99
532.31	38447.98
532.48	38635.22
532.65	38555.64
532.82	38361.38
532.99	38623.52
533.16	38394.15
533.33	38288.82
533.50	38974.60
533.67	38897.36
533.84	38450.32
534.01	38672.67
534.18	38895.02
534.35	39381.85
534.52	38759.27
534.69	39491.86
534.86	39508.24
535.03	39035.45
535.20	39150.14
535.37	39363.13
535.54	39475.48
535.71	39225.04
535.88	39543.35
536.05	39728.25
536.22	39676.76
536.38	39461.43
536.55	39533.99
536.72	40016.14
536.89	39255.46
537.06	39983.37
537.23	40388.28
537.40	39702.51
537.57	40055.93
537.74	39690.80
537.91	40119.12
538.08	39988.05
538.25	40016.14
538.42	40114.44
538.59	40507.65
538.75	40711.28
538.92	40442.12
539.09	40612.98
539.26	40474.88
539.43	40631.70
539.60	40570.85
539.77	40517.01
539.94	40753.41
540.11	40921.93
540.28	40739.36
540.44	40783.83
540.61	40725.32
540.78	40505.31
540.95	41024.91
541.12	40868.09
541.29	40837.67
541.46	40842.35
541.62	40840.01
541.79	41268.33
541.96	41104.49
542.13	40910.22
542.30	41153.64
542.47	41785.58
542.63	41666.22
542.80	41298.75
542.97	41577.28
543.14	41853.46
543.31	41986.87
543.48	41982.19
543.64	42408.17
543.81	41918.99
543.98	42150.71
544.15	41572.60
544.32	42080.49
544.48	42176.45
544.65	42050.06
544.82	42574.34
544.99	42082.83
545.16	42263.05
545.32	42218.58
545.49	42359.02
545.66	42368.38
545.83	42621.16
546.00	42625.84
546.16	42841.17
546.33	42146.03
546.50	42309.86
546.67	42579.03
546.83	42202.20
547.00	42429.23
547.17	42586.05
547.34	42841.17
547.50	42983.94
547.67	43157.14
547.84	42637.54
548.00	42974.58
548.17	43452.05
548.34	43166.50
548.51	43253.10
548.67	43283.53
548.84	42763.93
549.01	42857.55
549.18	43161.82
549.34	43529.28
549.51	43828.87
549.68	43704.82
549.84	43632.27
550.01	43335.02
550.18	43370.13
550.34	43220.33
550.51	43777.38
550.68	43896.75
550.84	43140.75
551.01	43976.33
551.18	43627.59
551.34	43885.04
551.51	43973.98
551.68	43559.71
551.84	43730.57
552.01	43262.46
552.18	43945.90
552.34	43611.20
552.51	44130.80
552.68	43700.14
552.84	44437.41
553.01	44004.41
553.18	44170.59
553.34	44320.38
553.51	43927.17
553.67	44334.43
553.84	44083.99
554.01	44203.36
554.17	44137.82
554.34	43901.43
554.51	44524.01
554.67	44954.67
554.84	44697.21
555.00	44404.64
555.17	44315.70
555.33	44767.43
555.50	44610.61
555.67	44718.28
555.83	44949.99
556.00	44818.92
556.16	44868.07
556.33	44666.78
556.50	44832.96
556.66	44854.03
556.83	44596.57
556.99	44802.53
557.16	45289.37
557.32	44917.22
557.49	45003.82
557.65	44680.83
557.82	44760.40
557.98	45275.32
558.15	45280.00
558.32	44905.52
558.48	44774.45
558.65	45106.80
558.81	44933.60
558.98	44863.39
559.14	45081.06
559.31	45158.30
559.47	45544.48
559.64	45436.82
559.80	45249.58
559.97	45429.80
560.13	45130.21
560.30	45198.09
560.46	45331.50
560.63	45464.91
560.79	45588.95
560.96	45694.28
561.12	45265.96
561.29	45668.53
561.45	45989.19
561.61	45481.29
561.78	45546.82
561.94	45432.14
562.11	45565.55
562.27	45682.58
562.44	45591.30
562.60	45759.81
562.77	45811.31
562.93	45783.22
563.10	46036.00
563.26	45659.17
563.42	46064.08
563.59	45839.39
563.75	45649.81
563.92	45797.26
564.08	45691.94
564.24	46099.19
564.41	46071.10
564.57	46265.37
564.74	46267.71
564.90	45811.31
565.07	46375.37
565.23	45808.96
565.39	46185.79
565.56	45853.44
565.72	45851.09
565.88	46450.27
566.05	46078.13
566.21	46417.50
566.38	46003.23
566.54	45972.80
566.70	46183.45
566.87	46075.79
567.03	45982.16
567.19	46497.08
567.36	46230.26
567.52	46115.58
567.68	46600.07
567.85	46073.45
568.01	46370.69
568.17	46344.95
568.34	46836.46
568.50	46775.61
568.66	45956.42
568.83	46344.95
568.99	46581.34
569.15	46064.08
569.32	46471.34
569.48	46124.94
569.64	46745.18
569.81	46735.82
569.97	46681.98
570.13	46740.50
570.30	46267.71
570.46	46679.64
570.62	46850.50
570.78	46389.42
570.95	46328.56
571.11	46850.50
571.27	46260.69
571.43	46588.36
571.60	46754.54
571.76	46298.14
571.92	46515.81
572.09	46335.59
572.25	46349.63
572.41	46653.90
572.57	46892.63
572.74	46995.62
572.90	46789.65
573.06	46759.22
573.22	46976.89
573.38	46693.69
573.55	47157.11
573.71	46740.50
573.87	46691.35
574.03	46431.55
574.20	46958.17
574.36	47110.30
574.52	46885.61
574.68	46920.72
574.84	47030.72
575.01	46899.65
575.17	46838.80
575.33	47035.41
575.49	46880.93
575.65	47000.30
575.82	47122.01
575.98	46614.11
576.14	47004.98
576.30	46899.65
576.46	46815.40
576.62	46600.07
576.79	46770.93
576.95	46726.46
577.11	46471.34
577.27	47166.48
577.43	47009.66
577.59	46707.73
577.75	46986.25
577.92	46761.56
578.08	46684.33
578.24	47065.83
578.40	47227.33
578.56	47409.89
578.72	47257.76
578.88	47391.17
579.04	47021.36
579.21	46831.78
579.37	47199.24
579.53	47246.05
579.69	46593.04
579.85	46763.90
580.01	46955.83
580.17	47346.70
580.33	47433.30
580.49	46719.43
580.65	46885.61
580.82	47192.22
580.98	46993.28
581.14	46635.17
581.30	47447.34
581.46	46679.64
581.62	47110.30
581.78	47180.52
581.94	46995.62
582.10	47229.67
582.26	47475.43
582.42	46972.21
582.58	47171.16
582.74	47253.08
582.90	47381.80
583.06	47522.24
583.22	47023.70
583.38	46979.23
583.54	47285.84
583.70	47358.40
583.86	47496.49
584.02	47250.74
584.18	47634.58
584.34	48067.58
584.50	47281.16
584.66	47344.36
584.82	47246.05
584.98	47297.55
585.14	47203.92
585.30	47239.03
585.46	46988.60
585.62	47302.23
585.78	47505.85
585.94	47004.98
586.10	47480.11
586.26	47072.85
586.42	46883.27
586.58	47185.20
586.74	47594.79
586.90	47217.97
587.06	47201.58
587.22	47327.97
587.38	47267.12
587.54	47590.11
587.70	47468.40
587.86	47164.14
588.02	47185.20
588.18	47386.49
588.34	47004.98
588.49	47849.91
588.65	46976.89
588.81	47313.93
588.97	47489.47
589.13	47566.71
589.29	47482.45
589.45	47473.09
589.61	47409.89
589.77	47634.58
589.93	47608.84
590.08	47611.18
