SpectraSuite Data File
++++++++++++++++++++++++++++++++++++
Date: Fri Oct 25 11:33:27 EDT 2013
User: price-jones
Dark Spectrum Present: No
Reference Spectrum Present: No
Number of Sampled Component Spectra: 1
Spectrometers: USB2+H05261
Integration Time (usec): 100000 (USB2+H05261)
Spectra Averaged: 1 (USB2+H05261)
Boxcar Smoothing: 0 (USB2+H05261)
Correct for Electrical Dark: No (USB2+H05261)
Strobe/Lamp Enabled: No (USB2+H05261)
Correct for Detector Non-linearity: No (USB2+H05261)
Correct for Stray Light: No (USB2+H05261)
Number of Pixels in Processed Spectrum: 2048
>>>>>Begin Processed Spectral Data<<<<<
365.73	292.57
365.92	292.57
366.12	292.57
366.32	285.55
366.52	175.54
366.72	227.03
366.91	259.80
367.11	259.80
367.31	180.22
367.51	121.71
367.70	175.54
367.90	266.82
368.10	198.95
368.30	156.82
368.49	117.03
368.69	210.65
368.89	152.13
369.09	170.86
369.28	163.84
369.48	210.65
369.68	255.12
369.87	163.84
370.07	231.71
370.27	332.36
370.47	322.99
370.66	524.28
370.86	470.45
371.06	547.69
371.25	566.41
371.45	557.05
371.65	564.07
371.84	601.52
372.04	620.24
372.24	550.03
372.44	517.26
372.63	627.26
372.83	557.05
373.03	557.05
373.22	634.29
373.42	578.11
373.62	660.03
373.81	660.03
374.01	650.67
374.21	601.52
374.40	643.65
374.60	723.23
374.79	655.35
374.99	681.10
375.19	655.35
375.38	617.90
375.58	613.22
375.78	669.39
375.97	669.39
376.17	674.07
376.37	763.01
376.56	655.35
376.76	641.31
376.95	676.41
377.15	664.71
377.35	699.82
377.54	697.48
377.74	629.60
377.93	678.76
378.13	739.61
378.33	683.44
378.52	734.93
378.72	753.65
378.91	739.61
379.11	657.69
379.31	720.88
379.50	671.73
379.70	730.25
379.89	631.94
380.09	702.16
380.28	688.12
380.48	725.57
380.68	788.76
380.87	678.76
381.07	674.07
381.26	737.27
381.46	777.06
381.65	730.25
381.85	732.59
382.04	697.48
382.24	737.27
382.43	835.57
382.63	814.51
382.83	763.01
383.02	842.59
383.22	741.95
383.41	744.29
383.61	770.04
383.80	760.67
384.00	821.53
384.19	837.91
384.39	844.93
384.58	847.27
384.78	866.00
384.97	870.68
385.17	823.87
385.36	842.59
385.56	945.58
385.75	826.21
385.95	814.51
386.14	891.74
386.34	863.66
386.53	891.74
386.72	788.76
386.92	833.23
387.11	835.57
387.31	889.40
387.50	861.32
387.70	924.51
387.89	903.45
388.09	828.55
388.28	884.72
388.48	823.87
388.67	884.72
388.86	896.43
389.06	954.94
389.25	908.13
389.45	1036.86
389.64	919.83
389.84	1004.09
390.03	910.47
390.22	978.34
390.42	952.60
390.61	1032.18
390.81	1036.86
391.00	1013.45
391.19	1001.75
391.39	1006.43
391.58	1034.52
391.78	1069.62
391.97	1027.50
392.16	968.98
392.36	1067.28
392.55	1062.60
392.75	1062.60
392.94	1025.15
393.13	966.64
393.33	1102.39
393.52	1032.18
393.71	1071.97
393.91	1149.20
394.10	1083.67
394.29	1104.73
394.49	1142.18
394.68	1135.16
394.88	1050.90
395.07	1130.48
395.26	1217.08
395.46	1181.97
395.65	1193.67
395.84	1149.20
396.04	1196.01
396.23	1128.14
396.42	1226.44
396.62	1219.42
396.81	1193.67
397.00	1163.25
397.19	1200.69
397.39	1193.67
397.58	1224.10
397.77	1219.42
397.97	1249.85
398.16	1324.74
398.35	1303.68
398.55	1235.80
398.74	1245.16
398.93	1378.58
399.12	1282.61
399.32	1345.81
399.51	1329.42
399.70	1287.29
399.90	1334.11
400.09	1322.40
400.28	1366.87
400.47	1394.96
400.67	1411.34
400.86	1315.38
401.05	1437.09
401.24	1390.28
401.44	1446.45
401.63	1547.09
401.82	1446.45
402.01	1397.30
402.21	1533.05
402.40	1469.86
402.59	1509.65
402.78	1561.14
402.97	1561.14
403.17	1619.65
403.36	1502.62
403.55	1572.84
403.74	1544.75
403.93	1537.73
404.13	1547.09
404.32	1490.92
404.51	1624.33
404.70	1589.22
404.89	1561.14
405.09	1715.61
405.28	1582.20
405.47	1668.80
405.66	1706.25
405.85	1778.81
406.05	1692.21
406.24	1724.97
406.43	1795.19
406.62	1771.79
406.81	1830.30
407.00	1643.06
407.20	1739.02
407.39	1762.42
407.58	1851.36
407.77	1895.83
407.96	1867.75
408.15	1930.94
408.34	1853.70
408.54	1881.79
408.73	1989.46
408.92	1839.66
409.11	1930.94
409.30	1970.73
409.49	1954.35
409.68	1970.73
409.87	1984.77
410.07	1982.43
410.26	2047.97
410.45	2059.67
410.64	2085.42
410.83	2108.82
411.02	2069.03
411.21	2186.06
411.40	2125.21
411.59	2263.30
411.78	2211.81
411.98	2188.40
412.17	2296.07
412.36	2286.70
412.55	2373.30
412.74	2359.26
412.93	2321.81
413.12	2307.77
413.31	2413.09
413.50	2342.88
413.69	2406.07
413.88	2504.37
414.07	2462.24
414.26	2436.50
414.45	2513.74
414.64	2593.31
414.83	2509.05
415.02	2654.17
415.22	2654.17
415.41	2736.09
415.60	2771.19
415.79	2665.87
415.98	2626.08
416.17	2799.28
416.36	2715.02
416.55	2796.94
416.74	2818.00
416.93	2792.26
417.12	2729.06
417.31	2909.29
417.50	2904.60
417.69	2953.76
417.88	2871.84
418.07	2911.63
418.26	2951.42
418.45	2979.50
418.64	3105.89
418.83	3194.83
419.02	3091.85
419.21	3066.10
419.39	3061.42
419.58	3211.22
419.77	3087.17
419.96	3108.23
420.15	3274.41
420.34	3148.02
420.53	3117.59
420.72	3304.84
420.91	3183.13
421.10	3279.09
421.29	3424.20
421.48	3162.06
421.67	3339.94
421.86	3241.64
422.05	3330.58
422.24	3325.90
422.43	3342.28
422.61	3358.67
422.80	3398.46
422.99	3337.60
423.18	3445.27
423.37	3499.10
423.56	3475.70
423.75	3461.65
423.94	3346.97
424.13	3089.51
424.32	3265.05
424.50	3435.91
424.69	3545.91
424.88	3506.12
425.07	3531.87
425.26	3463.99
425.45	3424.20
425.64	3480.38
425.83	3372.71
426.01	3494.42
426.20	3445.27
426.39	3492.08
426.58	3337.60
426.77	3421.86
426.96	3557.61
427.15	3459.31
427.33	3590.38
427.52	3576.34
427.71	3712.09
427.90	3574.00
428.09	3552.93
428.28	3772.94
428.46	3791.67
428.65	3698.05
428.84	3775.28
429.03	3941.46
429.22	3712.09
429.40	3777.62
429.59	3782.31
429.78	3662.94
429.97	3693.37
430.16	3665.28
430.34	3791.67
430.53	3915.72
430.72	3953.16
430.91	3808.05
431.10	3838.48
431.28	3950.82
431.47	4102.96
431.66	4131.05
431.85	3899.33
432.03	3990.61
432.22	4212.96
432.41	4081.89
432.60	4219.99
432.79	4107.64
432.97	4128.70
433.16	4114.66
433.35	4016.36
433.54	4205.94
433.72	4102.96
433.91	4152.11
434.10	4198.92
434.28	4238.71
434.47	4435.32
434.66	4372.12
434.85	4161.47
435.03	4423.61
435.22	4269.14
435.41	4416.59
435.59	4346.37
435.78	4372.12
435.97	4512.55
436.16	4507.87
436.34	4437.66
436.53	4339.35
436.72	4559.36
436.90	4407.23
437.09	4622.56
437.28	4425.95
437.46	4475.10
437.65	4636.60
437.84	4589.79
438.02	4753.63
438.21	4634.26
438.40	4648.30
438.58	4802.78
438.77	4889.38
438.96	4709.16
439.14	4791.08
439.33	4781.71
439.52	4945.55
439.70	4959.60
439.89	4922.15
440.08	4908.10
440.26	5083.64
440.45	4973.64
440.63	5259.18
440.82	5163.22
441.01	5186.63
441.19	5203.01
441.38	5252.16
441.57	5160.88
441.75	5135.14
441.94	5343.44
442.12	5331.74
442.31	5376.21
442.50	5394.93
442.68	5308.34
442.87	5497.92
443.05	5572.82
443.24	5509.62
443.43	5500.26
443.61	5661.76
443.80	5753.04
443.98	5378.55
444.17	5394.93
444.35	5598.56
444.54	5579.84
444.73	5636.01
444.91	5596.22
445.10	5753.04
445.28	5675.80
445.47	5661.76
445.65	5696.86
445.84	5778.78
446.02	5734.31
446.21	5703.89
446.39	5685.16
446.58	5729.63
446.77	5736.65
446.95	5771.76
447.14	5654.73
447.32	5666.44
447.51	5666.44
447.69	5736.65
447.88	5736.65
448.06	5685.16
448.25	5860.70
448.43	5720.27
448.62	5980.07
448.80	5905.17
448.99	5989.43
449.17	6047.94
449.36	5809.21
449.54	6005.81
449.73	6211.78
449.91	6113.48
450.10	6279.66
450.28	6174.33
450.46	6164.97
450.65	6108.80
450.83	6085.39
451.02	6113.48
451.20	6445.84
451.39	6197.74
451.57	6267.95
451.76	6069.01
451.94	6225.82
452.13	6258.59
452.31	6366.26
452.49	6284.34
452.68	6392.00
452.86	6296.04
453.05	6438.81
453.23	6420.09
453.42	6370.94
453.60	6296.04
453.78	6424.77
453.97	6415.41
454.15	6420.09
454.34	6497.33
454.52	6670.53
454.70	6511.37
454.89	6588.61
455.07	6490.31
455.26	6602.65
455.44	6794.58
455.62	6637.76
455.81	6707.98
455.99	6761.81
456.17	6878.83
456.36	6745.42
456.54	6895.22
456.73	6916.28
456.91	7281.41
457.09	7019.27
457.28	7204.17
457.46	7169.06
457.64	7162.04
457.83	7108.21
458.01	7000.54
458.19	7145.66
458.38	7026.29
458.56	7353.96
458.74	7199.49
458.93	7290.77
459.11	7515.46
459.29	7091.82
459.48	7323.54
459.66	7358.64
459.84	7370.35
460.03	7468.65
460.21	7375.03
460.39	7480.35
460.57	7522.48
460.76	7578.65
460.94	7541.21
461.12	7620.78
461.31	7740.15
461.49	7599.72
461.67	7655.89
461.85	7695.68
462.04	7520.14
462.22	7990.59
462.40	7705.04
462.59	7789.30
462.77	7698.02
462.95	7850.16
463.13	7742.49
463.32	7826.75
463.50	7941.44
463.68	7946.12
463.86	7789.30
464.05	7857.18
464.23	7974.21
464.41	7976.55
464.59	7950.80
464.78	8175.49
464.96	8077.19
465.14	7981.23
465.32	7906.33
465.50	8135.70
465.69	8180.17
465.87	8002.29
466.05	8243.37
466.23	7957.82
466.41	8039.74
466.60	8301.88
466.78	7999.95
466.96	8128.68
467.14	8297.20
467.32	8489.12
467.51	8468.06
467.69	8203.58
467.87	8304.22
468.05	8439.97
468.23	8365.07
468.41	8367.42
468.60	8362.73
468.78	8547.64
468.96	8608.49
469.14	8648.28
469.32	8837.86
469.50	8486.78
469.69	8713.81
469.87	8826.16
470.05	8854.25
470.23	8648.28
470.41	8971.27
470.59	9039.15
470.77	8751.26
470.95	8781.69
471.14	9128.09
471.32	8884.67
471.50	9121.07
471.68	8922.12
471.86	9006.38
472.04	9092.98
472.22	9341.08
472.40	9179.58
472.58	9174.90
472.77	9334.06
472.95	9460.45
473.13	9720.24
473.31	9315.33
473.49	9362.14
473.67	9467.47
473.85	9472.15
474.03	9825.57
474.21	9675.77
474.39	9940.26
474.57	9834.93
474.75	9928.55
474.93	10019.83
475.12	9888.76
475.30	9977.70
475.48	10043.24
475.66	10029.20
475.84	10272.61
476.02	10045.58
476.20	10300.70
476.38	10403.68
476.56	10682.20
476.74	10635.39
476.92	10689.23
477.10	10600.29
477.28	10792.21
477.46	10707.95
477.64	10729.02
477.82	11009.88
478.00	11164.36
478.18	11152.65
478.36	11283.72
478.54	11410.11
478.72	11328.19
478.90	11726.08
479.08	11695.66
479.26	11707.36
479.44	11566.93
479.62	11836.09
479.80	11700.34
479.98	11969.50
480.16	12421.22
480.34	12147.38
480.52	12306.54
480.70	12308.88
480.88	12149.72
481.06	12133.34
481.24	12294.83
481.41	12549.95
481.59	12901.03
481.77	13107.00
481.95	13057.85
482.13	13132.75
482.31	12697.41
482.49	13624.26
482.67	13273.18
482.85	13551.70
483.03	13757.67
483.21	13802.14
483.39	14125.13
483.57	14090.02
483.74	13951.93
483.92	13987.04
484.10	14094.71
484.28	14455.15
484.46	14597.92
484.64	14611.96
484.82	14398.98
485.00	14525.36
485.18	14956.02
485.35	15206.46
485.53	14925.60
485.71	15049.64
485.89	15508.39
486.07	15482.64
486.25	15709.68
486.43	15550.52
486.61	15625.42
486.78	15969.48
486.96	15981.18
487.14	16194.17
487.32	16215.23
487.50	16526.52
487.68	16386.09
487.85	16746.53
488.03	16531.20
488.21	17186.55
488.39	17256.77
488.57	17521.25
488.75	17329.33
488.92	17434.65
489.10	17612.53
489.28	17830.20
489.46	17633.60
489.64	17813.82
489.81	18043.19
489.99	18120.43
490.17	18059.57
490.35	18427.04
490.53	18511.30
490.70	18691.52
490.88	18801.52
491.06	19206.44
491.24	19023.87
491.41	19304.74
491.59	19466.24
491.77	19524.75
491.95	19510.71
492.13	19597.31
492.30	19789.23
492.48	19744.76
492.66	19641.78
492.84	20060.73
493.01	20226.91
493.19	20273.72
493.37	20350.96
493.54	20475.01
493.72	20798.00
493.90	20741.83
494.08	20725.44
494.25	20938.43
494.43	21106.95
494.61	21376.11
494.79	21565.70
494.96	21504.84
495.14	21362.07
495.32	22104.02
495.49	21926.14
495.67	22118.06
495.85	22317.01
496.02	22312.33
496.20	22497.23
496.38	22272.54
496.55	22537.02
496.73	23054.28
496.91	22686.81
497.09	22885.76
497.26	22796.82
497.44	22991.08
497.62	23349.18
497.79	23843.04
497.97	23508.34
498.14	23800.91
498.32	23850.06
498.50	24325.19
498.67	24308.80
498.85	24063.05
499.03	24306.46
499.20	24079.43
499.38	24498.39
499.56	24732.44
499.73	24404.77
499.91	24339.23
500.08	24809.68
500.26	24395.40
500.44	25083.52
500.61	25020.33
500.79	24800.32
500.97	25146.72
501.14	25315.23
501.32	25261.40
501.49	25429.92
501.67	25532.90
501.84	25626.53
502.02	25827.81
502.20	25621.84
502.37	25661.63
502.55	25673.34
502.72	26181.23
502.90	26206.98
503.07	25958.88
503.25	25860.58
503.43	26010.37
503.60	26656.36
503.78	26218.68
503.95	26738.28
504.13	26693.81
504.30	26672.74
504.48	26703.17
504.65	27075.32
504.83	27009.78
505.01	27365.54
505.18	27178.30
505.36	27339.80
505.53	27091.70
505.71	27328.10
505.88	27522.36
506.06	27524.70
506.23	27615.98
506.41	27892.16
506.58	28142.60
506.76	27868.76
506.93	28095.79
507.11	28327.50
507.28	28315.80
507.46	28266.65
507.63	28238.56
507.81	28458.57
507.98	28362.61
508.16	28706.67
508.33	28701.99
508.50	28802.63
508.68	28772.21
508.85	29455.64
509.03	29146.69
509.20	29214.57
509.38	29294.14
509.55	29298.83
509.73	29715.44
509.90	29092.86
510.08	29537.56
510.25	29563.31
510.42	29956.52
510.60	30087.59
510.77	30256.11
510.95	30424.62
511.12	30164.82
511.30	29916.73
511.47	30459.73
511.64	30719.53
511.82	30628.25
511.99	30356.75
512.17	30249.08
512.34	30590.80
512.51	30937.20
512.69	30747.62
512.86	31269.56
513.04	31051.89
513.21	31051.89
513.38	31271.90
513.56	31747.03
513.73	31421.69
513.90	31283.60
514.08	31189.98
514.25	32018.53
514.43	31796.18
514.60	31571.49
514.77	31723.62
514.95	32165.98
515.12	31885.12
515.29	32261.94
515.47	32009.17
515.64	32114.49
515.81	31779.79
515.99	32364.93
516.16	32549.83
516.33	32662.18
516.51	32472.59
516.68	32442.17
516.85	32671.54
517.03	32650.47
517.20	32783.88
517.37	32870.48
517.54	32788.56
517.72	33046.02
517.89	32713.67
518.06	32982.83
518.24	33259.01
518.41	32861.12
518.58	33345.61
518.75	32882.19
518.93	33703.71
519.10	33420.51
519.27	33486.04
519.45	33886.28
519.62	33663.93
519.79	34073.52
519.96	34227.99
520.14	34246.72
520.31	34190.55
520.48	34445.66
520.65	34349.70
520.83	34459.71
521.00	34738.23
521.17	34249.06
521.34	34480.77
521.52	34522.90
521.69	34696.10
521.86	34766.32
522.03	34668.02
522.20	34969.94
522.38	35440.39
522.55	35143.14
522.72	35168.89
522.89	35393.58
523.07	35786.79
523.24	35515.29
523.41	35365.49
523.58	35297.62
523.75	35573.80
523.92	35590.19
524.10	35786.79
524.27	35534.01
524.44	35725.94
524.61	35728.28
524.78	35985.74
524.96	36172.98
525.13	36341.50
525.30	36495.97
525.47	36622.36
525.64	36456.18
525.81	36591.94
525.98	36641.09
526.16	36313.41
526.33	36224.47
526.50	37048.34
526.67	36540.44
526.84	37006.21
527.01	36739.39
527.18	36921.95
527.36	36842.37
527.53	36879.82
527.70	37490.70
527.87	37174.73
528.04	36893.86
528.21	37448.57
528.38	37123.24
528.55	37343.25
528.72	37308.14
528.89	37338.57
529.07	37092.81
529.24	37598.37
529.41	38045.41
529.58	37333.89
529.75	37724.75
529.92	38167.12
530.09	37787.95
530.26	37748.16
530.43	37855.82
530.60	37633.47
530.77	37872.21
530.94	38045.41
531.11	37638.15
531.28	38546.28
531.46	38590.75
531.63	38129.67
531.80	38405.85
531.97	38426.92
532.14	38181.16
532.31	38815.44
532.48	38623.52
532.65	38682.03
532.82	38934.81
532.99	38731.18
533.16	38312.23
533.33	38873.96
533.50	39122.05
533.67	38829.49
533.84	38902.04
534.01	39222.70
534.18	39318.66
534.35	39655.70
534.52	39070.56
534.69	39395.90
534.86	40053.59
535.03	39398.24
535.20	39569.10
535.37	39496.54
535.54	40280.62
535.71	39651.02
535.88	39990.39
536.05	39920.18
536.22	39882.73
536.38	39522.29
536.55	39875.71
536.72	40072.31
536.89	39580.80
537.06	39814.85
537.23	40184.66
537.40	39824.22
537.57	39704.85
537.74	39754.00
537.91	40671.49
538.08	40343.81
538.25	40041.88
538.42	40655.11
538.59	40580.21
538.75	40329.77
538.92	40989.80
539.09	40940.65
539.26	40774.47
539.43	41050.66
539.60	41233.22
539.77	40720.64
539.94	40687.87
540.11	41296.41
540.28	40921.93
540.44	40718.30
540.61	41464.93
540.78	40847.03
540.95	41036.61
541.12	40945.33
541.29	40978.10
541.46	41195.77
541.62	41230.88
541.79	41979.85
541.96	41326.84
542.13	41315.14
542.30	41436.84
542.47	41368.97
542.63	41762.18
542.80	41893.25
542.97	42000.91
543.14	42007.94
543.31	41996.23
543.48	42029.00
543.64	42412.85
543.81	42373.06
543.98	42005.59
544.15	42263.05
544.32	42347.31
544.48	42698.39
544.65	42527.53
544.82	42759.25
544.99	42218.58
545.16	42637.54
545.32	42616.47
545.49	42476.04
545.66	43234.38
545.83	42965.21
546.00	42632.86
546.16	42995.64
546.33	42895.00
546.50	42628.18
546.67	42667.97
546.83	42403.49
547.00	42604.77
547.17	43098.62
547.34	43143.09
547.50	43009.68
547.67	43468.43
547.84	43276.51
548.00	43435.66
548.17	43487.15
548.34	43393.53
548.51	43571.41
548.67	43868.66
548.84	43753.97
549.01	43805.47
549.18	43756.32
549.34	43812.49
549.51	43456.73
549.68	44041.86
549.84	43725.89
550.01	44013.77
550.18	43658.01
550.34	43922.49
550.51	43601.84
550.68	43718.87
550.84	43384.17
551.01	44177.61
551.18	43779.72
551.34	44322.72
551.51	44112.08
551.68	44196.34
551.84	43639.29
552.01	44311.02
552.18	43735.25
552.34	44488.90
552.51	44437.41
552.68	44226.76
552.84	44123.78
553.01	44619.97
553.18	44130.80
553.34	44500.61
553.51	44196.34
553.67	44275.91
553.84	44739.34
554.01	44418.69
554.17	44257.19
554.34	44444.43
554.51	45088.08
554.67	44837.64
554.84	44526.35
555.00	44741.68
555.17	44797.85
555.33	45008.50
555.50	44678.49
555.67	44847.00
555.83	45050.63
556.00	45048.29
556.16	45413.41
556.33	45310.43
556.50	44989.78
556.66	45022.54
556.83	44844.66
556.99	45120.85
557.16	45488.31
557.32	45071.70
557.49	45595.98
557.65	45006.16
557.82	45364.26
557.98	45500.01
558.15	45450.86
558.32	45031.91
558.48	45120.85
558.65	45478.95
558.81	45556.19
558.98	44720.62
559.14	45591.30
559.31	45631.08
559.47	45329.16
559.64	45734.07
559.80	45502.35
559.97	45436.82
560.13	45319.79
560.30	45228.51
560.46	46251.33
560.63	45808.96
560.79	45921.31
560.96	45722.37
561.12	45815.99
561.29	45961.10
561.45	46155.36
561.61	45626.40
561.78	45830.03
561.94	45663.85
562.11	45820.67
562.27	45993.87
562.44	45617.04
562.60	45928.33
562.77	46258.35
562.93	46204.52
563.10	46220.90
563.26	45830.03
563.42	46642.20
563.59	46344.95
563.75	46036.00
563.92	45956.42
564.08	46382.40
564.24	46263.03
564.41	46529.85
564.57	45961.10
564.74	46082.81
564.90	45984.51
565.07	46181.11
565.23	46216.22
565.39	46237.28
565.56	46141.32
565.72	46387.08
565.88	46405.80
566.05	46562.62
566.21	46595.38
566.38	46780.29
566.54	46581.34
566.70	46717.09
566.87	46469.00
567.03	46461.97
567.19	46445.59
567.36	46478.36
567.52	46705.39
567.68	46686.67
567.85	46562.62
568.01	46822.42
568.17	46028.98
568.34	46859.87
568.50	46623.47
568.66	46436.23
568.83	46674.96
568.99	46356.65
569.15	47019.02
569.32	46885.61
569.48	46801.35
569.64	47313.93
569.81	46637.51
569.97	46866.89
570.13	47122.01
570.30	46852.84
570.46	46894.97
570.62	47243.71
570.78	46920.72
570.95	46894.97
571.11	47332.65
571.27	46684.33
571.43	46623.47
571.60	46883.27
571.76	46628.15
571.92	47012.00
572.09	46897.31
572.25	46791.99
572.41	46838.80
572.57	47292.86
572.74	47501.17
572.90	47044.77
573.06	47229.67
573.22	47433.30
573.38	47283.50
573.55	47154.77
573.71	47655.65
573.87	47154.77
574.03	46993.28
574.20	47648.63
574.36	47353.72
574.52	47138.39
574.68	47253.08
574.84	47674.37
575.01	47536.28
575.17	47402.87
575.33	47051.79
575.49	47316.27
575.65	47311.59
575.82	47295.21
575.98	46803.69
576.14	47489.47
576.30	47489.47
576.46	47384.15
576.62	47461.38
576.79	47576.07
576.95	46777.95
577.11	47199.24
577.27	47323.29
577.43	47210.95
577.59	47264.78
577.75	47129.03
577.92	46930.08
578.08	47337.33
578.24	47398.19
578.40	47482.45
578.56	47569.05
578.72	47271.80
578.88	47547.98
579.04	46822.42
579.21	47257.76
579.37	47475.43
579.53	47459.04
579.69	47388.83
579.85	46927.74
580.01	47540.96
580.17	47227.33
580.33	47302.23
580.49	47370.10
580.65	47229.67
580.82	47283.50
580.98	47232.01
581.14	47398.19
581.30	47510.53
581.46	47515.22
581.62	47217.97
581.78	47171.16
581.94	47360.74
582.10	47552.66
582.26	47475.43
582.42	47657.99
582.58	47800.76
582.74	47381.80
582.90	47648.63
583.06	48041.84
583.22	47325.63
583.38	47758.63
583.54	47585.43
583.70	47709.48
583.86	47543.30
584.02	46932.42
584.18	47847.57
584.34	47880.34
584.50	47327.97
584.66	47547.98
584.82	47880.34
584.98	47870.98
585.14	47863.96
585.30	47599.47
585.46	47395.85
585.62	47337.33
585.78	47562.03
585.94	47655.65
586.10	47758.63
586.26	47159.45
586.42	47508.19
586.58	48198.65
586.74	47777.36
586.90	47304.57
587.06	47498.83
587.22	47973.96
587.38	47318.61
587.54	47978.64
587.70	48193.97
587.86	48023.11
588.02	47400.53
588.18	47767.99
588.34	47519.90
588.49	47760.97
588.65	47461.38
588.81	48119.07
588.97	47821.83
589.13	47845.23
589.29	47704.80
589.45	48252.48
589.61	47810.12
589.77	47852.25
589.93	47838.21
