SpectraSuite Data File
++++++++++++++++++++++++++++++++++++
Date: Fri Oct 25 11:26:09 EDT 2013
User: price-jones
Dark Spectrum Present: No
Reference Spectrum Present: No
Number of Sampled Component Spectra: 1
Spectrometers: USB2+H05261
Integration Time (usec): 100000 (USB2+H05261)
Spectra Averaged: 1 (USB2+H05261)
Boxcar Smoothing: 0 (USB2+H05261)
Correct for Electrical Dark: No (USB2+H05261)
Strobe/Lamp Enabled: No (USB2+H05261)
Correct for Detector Non-linearity: No (USB2+H05261)
Correct for Stray Light: No (USB2+H05261)
Number of Pixels in Processed Spectrum: 2048
>>>>>Begin Processed Spectral Data<<<<<
365.73	257.46
365.92	257.46
366.12	257.46
366.32	154.48
366.52	201.29
366.72	194.26
366.91	147.45
367.11	175.54
367.31	77.24
367.51	170.86
367.70	112.35
367.90	177.88
368.10	168.52
368.30	212.99
368.49	126.39
368.69	138.09
368.89	189.58
369.09	102.98
369.28	154.48
369.48	229.37
369.68	168.52
369.87	201.29
370.07	196.60
370.27	203.63
370.47	407.25
370.66	685.78
370.86	671.73
371.06	657.69
371.25	702.16
371.45	638.97
371.65	704.50
371.84	655.35
372.04	676.41
372.24	720.88
372.44	697.48
372.63	725.57
372.83	741.95
373.03	748.97
373.22	737.27
373.42	760.67
373.62	763.01
373.81	772.38
374.01	763.01
374.21	800.46
374.40	758.33
374.60	854.30
374.79	875.36
374.99	777.06
375.19	821.53
375.38	837.91
375.58	889.40
375.78	866.00
375.97	945.58
376.17	945.58
376.37	866.00
376.56	887.06
376.76	922.17
376.95	835.57
377.15	861.32
377.35	887.06
377.54	917.49
377.74	887.06
377.93	919.83
378.13	889.40
378.33	947.92
378.52	901.11
378.72	992.39
378.91	983.02
379.11	966.64
379.31	870.68
379.50	966.64
379.70	983.02
379.89	1039.20
380.09	924.51
380.28	980.68
380.48	1055.58
380.68	1020.47
380.87	950.26
381.07	1020.47
381.26	1107.07
381.46	1060.26
381.65	1071.97
381.85	1022.81
382.04	976.00
382.24	1074.31
382.43	1046.22
382.63	1107.07
382.83	1074.31
383.02	1041.54
383.22	1118.78
383.41	1149.20
383.61	1226.44
383.80	1151.54
384.00	1121.12
384.19	1090.69
384.39	1170.27
384.58	1219.42
384.78	1142.18
384.97	1240.48
385.17	1196.01
385.36	1144.52
385.56	1165.59
385.75	1240.48
385.95	1181.97
386.14	1247.51
386.34	1231.12
386.53	1238.14
386.72	1165.59
386.92	1219.42
387.11	1249.85
387.31	1322.40
387.50	1158.57
387.70	1186.65
387.89	1268.57
388.09	1245.16
388.28	1224.10
388.48	1235.80
388.67	1359.85
388.86	1268.57
389.06	1308.36
389.25	1336.45
389.45	1411.34
389.64	1362.19
389.84	1348.15
390.03	1357.51
390.22	1364.53
390.42	1331.76
390.61	1380.92
390.81	1401.98
391.00	1313.04
391.19	1385.60
391.39	1294.32
391.58	1453.47
391.78	1427.73
391.97	1488.58
392.16	1453.47
392.36	1523.69
392.55	1521.35
392.75	1444.11
392.94	1591.56
393.13	1394.96
393.33	1528.37
393.52	1586.88
393.71	1638.38
393.91	1568.16
394.10	1481.56
394.29	1671.14
394.49	1542.41
394.68	1657.10
394.88	1614.97
395.07	1673.48
395.26	1675.82
395.46	1631.35
395.65	1736.68
395.84	1652.42
396.04	1748.38
396.23	1741.36
396.42	1823.28
396.62	1762.42
396.81	1802.21
397.00	1774.13
397.19	1795.19
397.39	1739.02
397.58	1867.75
397.77	1827.96
397.97	1928.60
398.16	1902.86
398.35	1940.30
398.55	1888.81
398.74	1839.66
398.93	1973.07
399.12	1923.92
399.32	1926.26
399.51	1891.15
399.70	1937.96
399.90	1954.35
400.09	2073.71
400.28	1998.82
400.47	1982.43
400.67	2188.40
400.86	1977.75
401.05	2078.40
401.24	2087.76
401.44	2115.84
401.63	2155.63
401.82	2064.35
402.01	2134.57
402.21	2129.89
402.40	2214.15
402.59	2279.68
402.78	2228.19
402.97	2193.08
403.17	2349.90
403.36	2279.68
403.55	2253.94
403.74	2277.34
403.93	2305.43
404.13	2307.77
404.32	2338.20
404.51	2321.81
404.70	2413.09
404.89	2504.37
405.09	2469.27
405.28	2408.41
405.47	2396.71
405.66	2401.39
405.85	2640.12
406.05	2532.46
406.24	2544.16
406.43	2647.15
406.62	2583.95
406.81	2637.78
407.00	2492.67
407.20	2619.06
407.39	2597.99
407.58	2586.29
407.77	2810.98
407.96	2661.19
408.15	2708.00
408.34	2839.07
408.54	2796.94
408.73	2853.11
408.92	2862.48
409.11	2818.00
409.30	2801.62
409.49	2862.48
409.68	2904.60
409.87	2897.58
410.07	2937.37
410.26	2862.48
410.45	3070.78
410.64	3080.14
410.83	3028.65
411.02	3070.78
411.21	3089.51
411.40	3286.11
411.59	3241.64
411.78	3148.02
411.98	3131.64
412.17	3176.11
412.36	3384.41
412.55	3337.60
412.74	3370.37
412.93	3356.33
413.12	3302.50
413.31	3515.48
413.50	3604.42
413.69	3447.61
413.88	3632.51
414.07	3613.79
414.26	3627.83
414.45	3613.79
414.64	3658.26
414.83	3723.79
415.02	3702.73
415.22	3847.84
415.41	3812.73
415.60	3911.04
415.79	3829.12
415.98	3960.19
416.17	4018.70
416.36	3983.59
416.55	4018.70
416.74	4028.06
416.93	3967.21
417.12	4170.83
417.31	4180.20
417.50	4053.81
417.69	4341.69
417.88	4278.50
418.07	4215.30
418.26	4227.01
418.45	4290.20
418.64	4435.32
418.83	4374.46
419.02	4301.90
419.21	4482.13
419.39	4552.34
419.58	4437.66
419.77	4451.70
419.96	4601.49
420.15	4596.81
420.34	4716.18
420.53	4552.34
420.72	4720.86
420.91	4793.42
421.10	4748.95
421.29	4706.82
421.48	4844.91
421.67	4793.42
421.86	4755.97
422.05	4695.11
422.24	4826.18
422.43	4828.53
422.61	4999.38
422.80	4847.25
422.99	4905.76
423.18	4992.36
423.37	4882.36
423.56	5025.13
423.75	4917.47
423.94	4844.91
424.13	4657.67
424.32	4629.58
424.50	4931.51
424.69	4975.98
424.88	5160.88
425.07	5020.45
425.26	5025.13
425.45	4992.36
425.64	4760.65
425.83	4894.06
426.01	4917.47
426.20	4966.62
426.39	5078.96
426.58	5060.24
426.77	4999.38
426.96	5137.48
427.15	5167.90
427.33	5200.67
427.52	5062.58
427.71	5114.07
427.90	5226.42
428.09	5188.97
428.28	5350.46
428.46	5465.15
428.65	5315.36
428.84	5500.26
429.03	5474.51
429.22	5238.12
429.40	5455.79
429.59	5526.00
429.78	5336.42
429.97	5294.29
430.16	5584.52
430.34	5547.07
430.53	5526.00
430.72	5621.97
430.91	5661.76
431.10	5680.48
431.28	5753.04
431.47	5839.64
431.66	5886.45
431.85	5729.63
432.03	5867.72
432.22	6019.86
432.41	5870.06
432.60	5963.68
432.79	5870.06
432.97	5912.19
433.16	5996.45
433.35	6066.67
433.54	6186.04
433.72	6127.52
433.91	6101.78
434.10	5984.75
434.28	5909.85
434.47	6010.50
434.66	6160.29
434.85	6207.10
435.03	6392.00
435.22	6073.69
435.41	6415.41
435.59	6445.84
435.78	6438.81
435.97	6480.94
436.16	6406.05
436.34	6265.61
436.53	6382.64
436.72	6705.63
436.90	6548.82
437.09	6586.27
437.28	6656.48
437.46	6633.08
437.65	6555.84
437.84	6623.72
438.02	6633.08
438.21	6677.55
438.40	6541.80
438.58	6981.82
438.77	7094.16
438.96	6822.66
439.14	7117.57
439.33	7089.48
439.52	7019.27
439.70	6988.84
439.89	7260.34
440.08	7386.73
440.26	7454.61
440.45	7339.92
440.63	7337.58
440.82	7412.48
441.01	7426.52
441.19	7616.10
441.38	7700.36
441.57	7613.76
441.75	7646.53
441.94	7899.31
442.12	7866.54
442.31	8180.17
442.50	7857.18
442.68	7749.51
442.87	7880.58
443.05	8028.04
443.24	8140.38
443.43	8156.77
443.61	8276.13
443.80	8446.99
443.98	8006.97
444.17	7740.15
444.35	8252.73
444.54	8262.09
444.73	8346.35
444.91	8250.39
445.10	8341.67
445.28	8334.65
445.47	8238.69
445.65	8257.41
445.84	8351.03
446.02	8393.16
446.21	8535.93
446.39	8116.98
446.58	8512.53
446.77	8575.72
446.95	8271.45
447.14	8533.59
447.32	8451.67
447.51	8498.49
447.69	8395.50
447.88	8528.91
448.06	8545.30
448.25	8395.50
448.43	8564.02
448.62	8517.21
448.80	8575.72
448.99	8465.72
449.17	8538.27
449.36	8760.63
449.54	8685.73
449.73	9029.79
449.91	8870.63
450.10	9210.01
450.28	8919.78
450.46	9011.06
450.65	8971.27
450.83	9090.64
451.02	8887.01
451.20	9078.94
451.39	9202.99
451.57	8985.32
451.76	9053.19
451.94	9151.49
452.13	9331.72
452.31	9308.31
452.49	9060.21
452.68	9483.85
452.86	9324.69
453.05	9378.53
453.23	9336.40
453.42	9420.66
453.60	9394.91
453.78	9479.17
453.97	9200.65
454.15	9336.40
454.34	9247.46
454.52	9612.58
454.70	9797.48
454.89	9628.96
455.07	9865.36
455.26	9694.50
455.44	9930.89
455.62	9900.47
455.81	9989.41
455.99	10080.69
456.17	9830.25
456.36	10001.11
456.54	10022.17
456.73	10169.63
456.91	10387.30
457.09	10401.34
457.28	10417.72
457.46	10209.42
457.64	10448.15
457.83	10579.22
458.01	10200.05
458.19	10609.65
458.38	10541.77
458.56	10640.08
458.74	10729.02
458.93	10562.84
459.11	10590.92
459.29	10635.39
459.48	10511.35
459.66	10689.23
459.84	10729.02
460.03	11063.71
460.21	11012.22
460.39	10778.17
460.57	10986.47
460.76	11002.86
460.94	11108.18
461.12	11082.44
461.31	11049.67
461.49	10949.03
461.67	11049.67
461.85	11536.50
462.04	11052.01
462.22	11737.79
462.40	11428.84
462.59	11325.85
462.77	11442.88
462.95	11557.57
463.13	11524.80
463.32	11241.59
463.50	11925.03
463.68	11918.01
463.86	11784.60
464.05	11566.93
464.23	11630.12
464.41	11969.50
464.59	11789.28
464.78	12201.21
464.96	11651.19
465.14	11789.28
465.32	11927.37
465.50	11918.01
465.69	12131.00
465.87	12203.55
466.05	12067.80
466.23	11932.05
466.41	12051.42
466.60	12446.97
466.78	11999.93
466.96	12035.03
467.14	12053.76
467.32	12381.43
467.51	12552.29
467.69	11861.84
467.87	12486.76
468.05	12545.27
468.23	12461.01
468.41	12486.76
468.60	12596.76
468.78	12823.80
468.96	12709.11
469.14	12695.07
469.32	13121.04
469.50	12898.69
469.69	13004.02
469.87	12945.50
470.05	13156.15
470.23	13198.28
470.41	12968.91
470.59	13282.54
470.77	12971.25
470.95	13228.71
471.14	13254.45
471.32	13137.43
471.50	13378.50
471.68	13607.87
471.86	13479.15
472.04	13748.31
472.22	13923.85
472.40	13631.28
472.58	13795.12
472.77	13872.36
472.95	14026.83
473.13	14438.76
473.31	14083.00
473.49	13963.64
473.67	14003.43
473.85	14185.99
474.03	14579.20
474.21	14600.26
474.39	14544.09
474.57	14719.63
474.75	14630.69
474.93	14920.92
475.12	14956.02
475.30	15222.84
475.48	14719.63
475.66	15147.95
475.84	14810.91
476.02	15187.74
476.20	15529.45
476.38	15592.65
476.56	15845.43
476.74	15840.75
476.92	15826.70
477.10	15873.51
477.28	15840.75
477.46	16271.40
477.64	16065.44
477.82	16280.77
478.00	16659.93
478.18	16624.83
478.36	16851.86
478.54	16844.84
478.72	17205.28
478.90	17181.87
479.08	17743.60
479.26	17614.87
479.44	17481.46
479.62	17862.97
479.80	18078.30
479.98	18045.53
480.16	18326.39
480.34	18216.39
480.52	18555.77
480.70	18501.93
480.88	18230.43
481.06	18579.17
481.24	19110.47
481.41	18752.37
481.59	19426.45
481.77	19302.40
481.95	19262.61
482.13	19428.79
482.31	19618.37
482.49	20189.46
482.67	20177.76
482.85	20144.99
483.03	20250.32
483.21	20627.14
483.39	20774.60
483.57	20910.35
483.74	20865.88
483.92	21324.62
484.10	21336.32
484.28	21345.69
484.46	21975.29
484.64	22427.01
484.82	21888.69
485.00	22178.92
485.18	22485.53
485.35	23002.78
485.53	22808.52
485.71	22970.02
485.89	23515.36
486.07	23103.43
486.25	23440.47
486.43	23288.33
486.61	23674.52
486.78	24116.88
486.96	24245.61
487.14	24470.30
487.32	24549.88
487.50	24706.70
487.68	24870.53
487.85	24844.79
488.03	25537.59
488.21	25563.33
488.39	25797.38
488.57	25759.94
488.75	26092.29
488.92	26684.45
489.10	26459.76
489.28	26569.76
489.46	27197.02
489.64	26761.69
489.81	27538.74
489.99	27754.07
490.17	27580.87
490.35	27950.68
490.53	27810.25
490.70	28233.88
490.88	28187.07
491.06	28484.32
491.24	28479.64
491.41	28849.44
491.59	29034.35
491.77	29479.05
491.95	29345.64
492.13	29713.10
492.30	29816.08
492.48	29900.34
492.66	29680.33
492.84	30256.11
493.01	30546.33
493.19	30724.21
493.37	31047.21
493.54	30883.37
493.72	31358.50
493.90	31061.25
494.08	31454.46
494.25	31620.64
494.43	31873.42
494.61	32332.16
494.79	32109.81
494.96	31974.06
495.14	32472.59
495.32	33354.97
495.49	33031.98
495.67	33287.10
495.85	33500.09
496.02	33577.33
496.20	34082.88
496.38	33741.16
496.55	33563.28
496.73	34614.18
496.91	34546.31
497.09	34356.72
497.26	34941.86
497.44	35110.38
497.62	34752.27
497.79	35749.34
497.97	35363.15
498.14	36065.31
498.32	35981.06
498.50	36079.36
498.67	36725.35
498.85	36407.03
499.03	36446.82
499.20	36563.85
499.38	37029.62
499.56	37006.21
499.73	36978.12
499.91	37282.39
500.08	37738.80
500.26	36779.18
500.44	37544.53
500.61	37851.14
500.79	37722.41
500.97	37790.29
501.14	38349.68
501.32	38330.95
501.49	38518.20
501.67	38618.84
501.84	38817.78
502.02	38724.16
502.20	38852.89
502.37	39426.32
502.55	39126.74
502.72	39400.58
502.90	39604.20
503.07	39456.75
503.25	39962.31
503.43	39323.34
503.60	39871.03
503.78	40287.64
503.95	40034.86
504.13	40282.96
504.30	40240.83
504.48	40648.08
504.65	40453.82
504.83	40814.26
505.01	41329.18
505.18	41031.93
505.36	41422.80
505.53	40928.95
505.71	41420.46
505.88	41478.97
506.06	41504.72
506.23	41841.76
506.41	41806.65
506.58	41745.80
506.76	41986.87
506.93	42258.37
507.11	42071.13
507.28	42686.69
507.46	42368.38
507.63	42522.85
507.81	42808.40
507.98	42602.43
508.16	43126.71
508.33	43189.91
508.50	43477.79
508.68	43077.56
508.85	43571.41
509.03	43416.94
509.20	43524.60
509.38	44292.30
509.55	44439.75
509.73	44002.07
509.90	44285.28
510.08	44170.59
510.25	44706.57
510.42	44446.77
510.60	44809.56
510.77	45170.00
510.95	45055.31
511.12	44954.67
511.30	45141.91
511.47	45120.85
511.64	45392.35
511.82	45495.33
511.99	45139.57
512.17	45675.55
512.34	45537.46
512.51	46202.18
512.69	46234.94
512.86	46113.23
513.04	46337.93
513.21	46473.68
513.38	46663.26
513.56	46969.87
513.73	46490.06
513.90	46997.96
514.08	46693.69
514.25	46969.87
514.43	47173.50
514.60	47363.08
514.77	46745.18
514.95	47159.45
515.12	47199.24
515.29	47391.17
515.47	47686.07
515.64	48062.90
515.81	47763.31
515.99	47971.62
516.16	48341.42
516.33	48329.72
516.51	48404.62
516.68	48353.13
516.85	48243.12
517.03	48701.87
517.20	48659.74
517.37	48797.83
517.54	48765.06
517.72	48865.70
517.89	48996.77
518.06	48978.05
518.24	49020.18
518.41	48804.85
518.58	49392.33
518.75	49148.91
518.93	49380.62
519.10	49385.30
519.27	49401.69
519.45	49537.44
519.62	49661.49
519.79	50160.02
519.96	49722.34
520.14	50525.14
520.31	49673.19
520.48	50232.58
520.65	49825.32
520.83	50410.46
521.00	50478.33
521.17	50223.22
521.34	50532.17
521.52	50452.59
521.69	50728.77
521.86	50901.97
522.03	50960.48
522.20	50939.42
522.38	51388.80
522.55	51086.87
522.72	51150.07
522.89	51056.45
523.07	51117.30
523.24	51477.74
523.41	51437.95
523.58	51299.86
523.75	51643.92
523.92	51709.46
524.10	51763.29
524.27	51913.08
524.44	52191.61
524.61	51707.12
524.78	52268.84
524.96	51863.93
525.13	52170.54
525.30	52083.94
525.47	52481.83
525.64	52299.27
525.81	52399.91
525.98	52690.14
526.16	52313.31
526.33	52397.57
526.50	52865.68
526.67	52542.69
526.84	52811.85
527.01	52772.06
527.18	52673.76
527.36	52926.53
527.53	52928.87
527.70	53191.01
527.87	53130.16
528.04	52999.09
528.21	53226.12
528.38	53408.68
528.55	53310.38
528.72	53202.72
528.89	53090.37
529.07	53525.71
529.24	53305.70
529.41	53169.95
529.58	53448.47
529.75	53712.95
529.92	53825.30
530.09	53427.41
530.26	53771.47
530.43	53736.36
530.60	53708.27
530.77	53741.04
530.94	54061.69
531.11	53975.09
531.28	53813.60
531.46	54113.19
531.63	53932.96
531.80	54150.63
531.97	54279.36
532.14	54351.92
532.31	54260.64
532.48	54110.85
532.65	54536.82
532.82	54382.35
532.99	54557.89
533.16	54625.76
533.33	54583.63
533.50	54864.50
533.67	54574.27
533.84	54677.25
534.01	54700.66
534.18	54911.31
534.35	55159.41
534.52	54747.47
534.69	54927.69
534.86	55051.74
535.03	54780.24
535.20	55267.07
535.37	55290.48
535.54	55458.99
535.71	55231.96
535.88	55529.21
536.05	55360.69
536.22	55676.66
536.38	55578.36
536.55	55360.69
536.72	55388.78
536.89	55121.96
537.06	55700.07
537.23	55650.92
537.40	55330.26
537.57	55615.81
537.74	55531.55
537.91	55786.67
538.08	55774.97
538.25	55444.95
538.42	55676.66
538.59	55959.87
538.75	55877.95
538.92	55833.48
539.09	55845.18
539.26	56046.47
539.43	55875.61
539.60	56179.88
539.77	55929.44
539.94	56296.91
540.11	56278.18
540.28	56226.69
540.44	56477.13
540.61	56493.51
540.78	56243.07
540.95	56254.78
541.12	56165.84
541.29	56259.46
541.46	56502.87
541.62	56308.61
541.79	56556.70
541.96	56390.53
542.13	56423.29
542.30	56533.30
542.47	56584.79
542.63	56793.10
542.80	56757.99
542.97	56837.57
543.14	56935.87
543.31	57139.50
543.48	57193.33
543.64	57429.72
543.81	57361.85
543.98	57366.53
544.15	57125.46
544.32	57406.32
544.48	57406.32
544.65	57125.46
544.82	57539.73
544.99	57073.96
545.16	57593.56
545.32	57158.22
545.49	57673.14
545.66	57677.82
545.83	57635.69
546.00	57635.69
546.16	57808.89
546.33	57378.23
546.50	57336.10
546.67	57598.24
546.83	57368.87
547.00	57588.88
547.17	57623.99
547.34	57752.72
547.50	57925.92
547.67	57991.45
547.84	57937.62
548.00	57909.53
548.17	58225.51
548.34	57963.37
548.51	58183.38
548.67	58192.74
548.84	58131.89
549.01	57956.35
549.18	58099.12
549.34	58152.95
549.51	58335.51
549.68	58174.02
549.84	58300.40
550.01	58150.61
550.18	58101.46
550.34	58370.62
550.51	58267.64
550.68	58351.90
550.84	58234.87
551.01	58244.23
551.18	58269.98
551.34	58443.18
551.51	58550.84
551.68	58281.68
551.84	58592.97
552.01	58169.33
552.18	58681.91
552.34	58375.30
552.51	58733.40
552.68	58653.82
552.84	58482.97
553.01	58747.45
553.18	58869.15
553.34	59009.59
553.51	58630.42
553.67	58623.40
553.84	58883.20
554.01	58930.01
554.17	58820.00
554.34	59044.69
554.51	58887.88
554.67	59021.29
554.84	59011.93
555.00	58829.37
555.17	58841.07
555.33	59030.65
555.50	58803.62
555.67	59002.56
555.83	58979.16
556.00	59014.27
556.16	59313.86
556.33	59201.51
556.50	59040.01
556.66	59213.21
556.83	59250.66
556.99	59370.03
557.16	59407.48
557.32	59348.96
557.49	59592.38
557.65	59173.42
557.82	59316.20
557.98	59107.89
558.15	59372.37
558.32	59498.76
558.48	59283.43
558.65	59388.75
558.81	59402.80
558.98	59262.36
559.14	59433.22
559.31	59405.14
559.47	59538.55
559.64	59437.90
559.80	59498.76
559.97	59690.68
560.13	59587.70
560.30	59618.13
560.46	59606.42
560.63	59735.15
560.79	59770.26
560.96	59796.01
561.12	59786.64
561.29	59784.30
561.45	59756.22
561.61	59625.15
561.78	59662.60
561.94	59833.46
562.11	59536.21
562.27	59941.12
562.44	59873.24
562.60	59788.98
562.77	59906.01
562.93	59751.54
563.10	59927.08
563.26	59611.10
563.42	60191.56
563.59	59791.33
563.75	59938.78
563.92	59906.01
564.08	59908.35
564.24	60044.10
564.41	59997.29
564.57	60177.51
564.74	59852.18
564.90	60126.02
565.07	59941.12
565.23	60128.36
565.39	60142.41
565.56	60179.85
565.72	60261.77
565.88	60083.89
566.05	60289.86
566.21	60055.81
566.38	60266.45
566.54	60123.68
566.70	60350.71
566.87	60198.58
567.03	60240.71
567.19	60322.63
567.36	60327.31
567.52	59999.63
567.68	60418.59
567.85	60273.48
568.01	60385.82
568.17	60196.24
568.34	60383.48
568.50	60313.26
568.66	60285.18
568.83	60296.88
568.99	60205.60
569.15	60397.52
569.32	60456.04
569.48	60111.98
569.64	60388.16
569.81	60406.89
569.97	60425.61
570.13	60172.83
570.30	60439.65
570.46	60463.06
570.62	60423.27
570.78	60378.80
570.95	60402.21
571.11	60423.27
571.27	60474.76
571.43	60530.93
571.60	60577.75
571.76	60416.25
571.92	60629.24
572.09	60355.39
572.25	60308.58
572.41	60460.72
572.57	60498.17
572.74	60444.33
572.90	60566.04
573.06	60463.06
573.22	60537.96
573.38	60638.60
573.55	60437.31
573.71	60605.83
573.87	60666.69
574.03	60406.89
574.20	60559.02
574.36	60285.18
574.52	60552.00
574.68	60570.72
574.84	60549.66
575.01	60608.17
575.17	60500.51
575.33	60512.21
575.49	60423.27
575.65	60629.24
575.82	60762.65
575.98	60748.60
576.14	60685.41
576.30	60741.58
576.46	60542.64
576.62	60662.00
576.79	60748.60
576.95	60460.72
577.11	60830.52
577.27	60659.66
577.43	60671.37
577.59	60671.37
577.75	60809.46
577.92	60500.51
578.08	60725.20
578.24	60767.33
578.40	60767.33
578.56	60828.18
578.72	60762.65
578.88	60795.42
579.04	60975.64
579.21	60746.26
579.37	60975.64
579.53	60893.72
579.69	60540.30
579.85	60676.05
580.01	60591.79
580.17	60652.64
580.33	60849.25
580.49	60989.68
580.65	60753.29
580.82	60811.80
580.98	60739.24
581.14	60814.14
581.30	60788.39
581.46	60788.39
581.62	60818.82
581.78	60624.56
581.94	60811.80
582.10	60760.31
582.26	60734.56
582.42	60615.19
582.58	60573.06
582.74	60860.95
582.90	60811.80
583.06	60956.91
583.22	60741.58
583.38	60739.24
583.54	60779.03
583.70	60952.23
583.86	61024.79
584.02	60872.65
584.18	61097.34
584.34	60811.80
584.50	60889.04
584.66	60786.05
584.82	60774.35
584.98	60954.57
585.14	60966.27
585.30	60783.71
585.46	60980.32
585.62	60750.94
585.78	60947.55
585.94	60573.06
586.10	60860.95
586.26	60835.20
586.42	61106.71
586.58	61083.30
586.74	60992.02
586.90	60928.83
587.06	60837.54
587.22	61134.79
587.38	60830.52
587.54	61008.40
587.70	61113.73
587.86	61029.47
588.02	60884.36
588.18	61270.54
588.34	60910.10
588.49	60977.98
